Sym0		Asym0		Sym1		Sym2		Sym3		Sym4		Asym1		Asym2		Asym3		Asym4	
469  Points		496  Points		234  Points		199  Points		186  Points		130  Points		339  Points		212  Points		174  Points		109  Points	
Freq (MHz)	Vph (m/ms)	Freq (MHz)	Vph (m/ms)	Freq (MHz)	Vph (m/ms)	Freq (MHz)	Vph (m/ms)	Freq (MHz)	Vph (m/ms)	Freq (MHz)	Vph (m/ms)	Freq (MHz)	Vph (m/ms)	Freq (MHz)	Vph (m/ms)	Freq (MHz)	Vph (m/ms)	Freq (MHz)	Vph (m/ms)
0.00234496	5.15964	0.000411344	0.175125	0.279519	506.55	0.467431	615.795	0.559023	1084.26	0.838528	1825.45	0.139796	224.942	0.419264	2531.56	0.698773	2203.2	0.934849	5961.48
0.00715219	5.15966	0.000799205	0.243619	0.279587	188.464	0.467458	276.477	0.559065	386.288	0.838552	602.819	0.140013	90.1467	0.419296	382.112	0.698796	559.548	0.934855	858.839
0.0119591	5.1595	0.00131077	0.311181	0.279718	115.815	0.467506	178.27	0.559146	235.037	0.838599	361.038	0.140415	56.5083	0.419375	206.69	0.698846	320.49	0.93487	462.76
0.0167653	5.15926	0.00194229	0.377587	0.27991	83.6327	0.467575	131.557	0.559268	168.929	0.83867	257.7	0.141	41.2697	0.419501	141.69	0.698923	224.572	0.934894	316.709
0.021571	5.15897	0.00268922	0.442623	0.280164	65.4804	0.467664	104.253	0.559429	131.867	0.838764	200.367	0.141765	32.6026	0.419675	107.819	0.699027	172.858	0.934928	240.738
0.0263757	5.1586	0.00354648	0.50611	0.28048	53.8319	0.467775	86.3444	0.559629	108.161	0.838882	163.914	0.142704	27.0275	0.419896	87.0414	0.699159	140.516	0.934971	194.167
0.0311792	5.15816	0.00450853	0.567895	0.280857	45.7274	0.467906	73.6949	0.559869	91.6953	0.839024	138.692	0.143813	23.1522	0.420163	72.9985	0.699317	118.381	0.935023	162.698
0.0359814	5.15762	0.00556961	0.627864	0.281295	39.7665	0.468059	64.2856	0.560148	79.5954	0.839189	120.207	0.145087	20.3108	0.420478	62.8754	0.699503	102.281	0.935084	140.01
0.040782	5.15702	0.00672366	0.685918	0.281794	35.2006	0.468233	57.0138	0.560467	70.3296	0.839377	106.077	0.146519	18.1447	0.42084	55.2343	0.699716	90.0451	0.935155	122.879
0.0455807	5.15635	0.00796455	0.741985	0.282353	31.5934	0.468429	51.2262	0.560824	63.0081	0.83959	94.9267	0.148103	16.4436	0.421248	49.2637	0.699956	80.4323	0.935235	109.486
0.0503775	5.15559	0.0092862	0.796019	0.282971	28.6734	0.468646	46.511	0.561221	57.078	0.839826	85.9042	0.149832	15.076	0.421702	44.4713	0.700223	72.6816	0.935325	98.7279
0.055172	5.15476	0.0106827	0.848002	0.283649	26.2626	0.468886	42.5961	0.561657	52.1781	0.840085	78.4539	0.151699	13.9556	0.422203	40.5409	0.700516	66.3003	0.935424	89.8974
0.059964	5.15384	0.0121483	0.897929	0.284385	24.2398	0.469147	39.294	0.562131	48.0622	0.840368	72.1984	0.153699	13.0233	0.42275	37.26	0.700837	60.9556	0.935532	82.5191
0.0647532	5.15283	0.0136772	0.945809	0.285178	22.5191	0.469431	36.4717	0.562644	44.5567	0.840674	66.872	0.155822	12.2372	0.423343	34.4808	0.701185	56.4143	0.935651	76.2623
0.0695394	5.15175	0.0152645	0.991676	0.286029	21.0385	0.469738	34.0321	0.563196	41.5357	0.841004	62.2823	0.158064	11.5669	0.423982	32.0971	0.701559	52.5084	0.935779	70.8894
0.0743224	5.15058	0.0169048	1.03556	0.286936	19.7516	0.470068	31.9026	0.563785	38.9059	0.841357	58.2868	0.160418	10.9899	0.424666	30.0307	0.70196	49.1136	0.935917	66.2256
0.0791019	5.14933	0.0185936	1.07752	0.287899	18.6235	0.470421	30.0278	0.564413	36.5962	0.841733	54.7772	0.162556	10.5495	0.425395	28.2228	0.702388	46.1361	0.936064	62.1394
0.0838775	5.14798	0.0203266	1.1176	0.288917	17.627	0.470799	28.365	0.565078	34.5521	0.842133	51.6704	0.164438	10.213	0.426169	26.6282	0.702843	43.5036	0.936222	58.5299
0.0886491	5.14654	0.0220995	1.15587	0.289989	16.7408	0.4712	26.8803	0.565781	32.7304	0.842556	48.9009	0.166035	9.95815	0.426987	25.2116	0.703324	41.1597	0.93639	55.3183
0.0934163	5.14501	0.0239087	1.19239	0.291113	15.9479	0.471626	25.5468	0.566521	31.0971	0.843002	46.4168	0.167322	9.77019	0.42785	23.9453	0.703832	39.0597	0.936568	52.4423
0.0981789	5.14339	0.0257507	1.22723	0.29229	15.2348	0.472076	24.3427	0.567298	29.6247	0.843472	44.1764	0.168282	9.63897	0.428757	22.8068	0.704366	37.1676	0.936757	49.8521
0.102936	5.14166	0.0276223	1.26046	0.293518	14.5903	0.472552	23.2502	0.568113	28.2908	0.843964	42.1456	0.168903	9.55792	0.429708	21.7781	0.704927	35.4542	0.936956	47.5072
0.107689	5.13984	0.0295205	1.29215	0.294797	14.0052	0.473054	22.2547	0.568963	27.0769	0.84448	40.2965	0.169803	9.44522	0.430702	20.8442	0.705513	33.8954	0.937166	45.3743
0.112435	5.13791	0.0314428	1.32236	0.296124	13.472	0.473582	21.344	0.56985	25.9677	0.845019	38.6059	0.170791	9.32756	0.431739	19.9929	0.706126	32.4713	0.937386	43.426
0.117176	5.13588	0.0333866	1.35116	0.297501	12.9842	0.474137	20.5079	0.570773	24.9505	0.84558	37.0543	0.172153	9.17516	0.432819	19.2139	0.706766	31.1655	0.937617	41.6395
0.12191	5.13373	0.0353498	1.37863	0.298924	12.5366	0.474719	19.7376	0.571732	24.0143	0.846165	35.6254	0.173902	8.99404	0.43394	18.4986	0.707431	29.9638	0.937859	39.9954
0.126637	5.13148	0.0373304	1.40483	0.300394	12.1245	0.475328	19.0259	0.572726	23.1501	0.846773	34.3053	0.176057	8.7908	0.435104	17.8397	0.708122	28.8544	0.938112	38.4774
0.131358	5.1291	0.0393264	1.42981	0.301909	11.744	0.475965	18.3665	0.573755	22.35	0.847403	33.0821	0.178637	8.57213	0.436309	17.2309	0.708839	27.8271	0.938376	37.0715
0.13607	5.12661	0.0413364	1.45365	0.303469	11.3918	0.476631	17.7539	0.57482	21.6073	0.848056	31.9457	0.181664	8.34434	0.437555	16.6668	0.709582	26.8734	0.938652	35.766
0.140774	5.12398	0.0433588	1.47639	0.305072	11.065	0.477327	17.1835	0.575918	20.9161	0.848732	30.8871	0.184759	8.13821	0.438842	16.1429	0.71035	25.9856	0.938939	34.5503
0.14547	5.12123	0.0453921	1.4981	0.306718	10.761	0.478051	16.6511	0.577052	20.2713	0.849431	29.8988	0.187917	7.95101	0.440169	15.6552	0.711144	25.1572	0.939237	33.4157
0.150157	5.11835	0.0471721	1.51622	0.308185	10.513	0.478807	16.1532	0.578219	19.6686	0.850152	28.974	0.191135	7.78044	0.441536	15.2001	0.711963	24.3825	0.939547	32.3543
0.154834	5.11532	0.0486948	1.5311	0.309461	10.3131	0.479592	15.6866	0.57942	19.104	0.850896	28.1069	0.194409	7.62456	0.442942	14.7747	0.712808	23.6566	0.93987	31.3592
0.159501	5.11215	0.0499573	1.54303	0.310532	10.1551	0.48041	15.2487	0.580654	18.5741	0.851662	27.2922	0.197736	7.48168	0.444387	14.3761	0.713678	22.9751	0.940204	30.4246
0.164157	5.10883	0.0509577	1.55223	0.31139	10.0346	0.481259	14.8369	0.581921	18.0759	0.85245	26.5255	0.201114	7.35037	0.445871	14.0021	0.714572	22.334	0.94055	29.545
0.168802	5.10535	0.0516942	1.55887	0.312027	9.94847	0.48214	14.449	0.583221	17.6067	0.853261	25.8027	0.20454	7.2294	0.447392	13.6504	0.715492	21.73	0.940908	28.7159
0.173435	5.1017	0.0521661	1.56306	0.312437	9.89436	0.483055	14.0832	0.584554	17.1642	0.854094	25.1201	0.208011	7.11768	0.448952	13.3194	0.716437	21.1599	0.941279	27.9329
0.178055	5.09789	0.052845	1.56901	0.31303	9.81796	0.484003	13.7377	0.585918	16.7461	0.854949	24.4746	0.211524	7.01427	0.450548	13.0072	0.717406	20.6211	0.941662	27.1925
0.182661	5.09389	0.0535837	1.57538	0.313679	9.7367	0.484985	13.4109	0.587315	16.3506	0.855826	23.8633	0.215077	6.91836	0.45218	12.7124	0.7184	20.1111	0.942058	26.4912
0.187253	5.08971	0.0545896	1.58388	0.314569	9.62908	0.486003	13.1015	0.588743	15.976	0.856725	23.2835	0.218669	6.82923	0.45385	12.4336	0.719419	19.6277	0.942466	25.826
0.191831	5.08534	0.0558637	1.59437	0.315708	9.49755	0.487055	12.8082	0.590202	15.6207	0.857646	22.7329	0.222297	6.74623	0.455554	12.1697	0.720462	19.1689	0.942888	25.1943
0.196392	5.08076	0.057407	1.60668	0.317104	9.34496	0.488144	12.5298	0.591692	15.2832	0.858589	22.2094	0.225959	6.6688	0.457294	11.9195	0.721528	18.7329	0.943322	24.5937
0.200936	5.07597	0.0592208	1.62062	0.318766	9.17444	0.489269	12.2654	0.593212	14.9624	0.859554	21.7111	0.229653	6.59645	0.459069	11.6821	0.72262	18.3181	0.94377	24.0218
0.205462	5.07096	0.0613061	1.63597	0.320707	8.98927	0.490431	12.0139	0.594763	14.6571	0.86054	21.2362	0.233379	6.52873	0.460878	11.4565	0.723734	17.9231	0.944231	23.4768
0.209969	5.06571	0.0633951	1.65068	0.322683	8.81446	0.491631	11.7746	0.596344	14.3662	0.861548	20.7833	0.237133	6.46525	0.46272	11.2419	0.724873	17.5464	0.944705	22.9568
0.214456	5.06022	0.0654874	1.66477	0.324694	8.64924	0.492869	11.5466	0.597955	14.0888	0.862577	20.3507	0.240915	6.40564	0.464596	11.0377	0.726035	17.1869	0.945193	22.4602
0.218922	5.05448	0.0675824	1.67828	0.326737	8.4929	0.494146	11.3292	0.599594	13.824	0.863628	19.9372	0.244723	6.3496	0.466505	10.843	0.727221	16.8435	0.945695	21.9853
0.223365	5.04847	0.0696798	1.69123	0.328813	8.34478	0.495463	11.1218	0.601263	13.5709	0.8647	19.5417	0.248555	6.29682	0.468195	10.6807	0.72843	16.5151	0.94621	21.531
0.227785	5.04218	0.0717792	1.70367	0.330922	8.20431	0.496819	10.9238	0.602961	13.3289	0.865793	19.1629	0.252412	6.24707	0.469655	10.5475	0.729662	16.2009	0.94674	21.0958
0.232179	5.03559	0.0738804	1.7156	0.333063	8.07095	0.498034	10.7584	0.604687	13.0974	0.866908	18.7999	0.25629	6.20009	0.470875	10.4407	0.730918	15.8998	0.947283	20.6786
0.236546	5.0287	0.075983	1.72706	0.335235	7.94423	0.499093	10.6225	0.606441	12.8755	0.868043	18.4517	0.26019	6.15568	0.471848	10.3583	0.732196	15.6112	0.947841	20.2783
0.240885	5.02149	0.0780868	1.73807	0.337439	7.82372	0.499987	10.5135	0.608223	12.6629	0.869199	18.1175	0.264109	6.11365	0.472568	10.2989	0.733497	15.3343	0.948413	19.894
0.245195	5.01394	0.0801916	1.74866	0.339674	7.709	0.500705	10.4293	0.610032	12.4589	0.870376	17.7964	0.268048	6.07382	0.473031	10.2614	0.73482	15.0685	0.948999	19.5247
0.249472	5.00604	0.0822972	1.75884	0.34194	7.59973	0.501239	10.3686	0.611869	12.263	0.871574	17.4877	0.272004	6.03604	0.4737	10.2081	0.736166	14.8131	0.9496	19.1696
0.253717	4.99777	0.0844034	1.76863	0.344236	7.49556	0.501583	10.3302	0.613733	12.0749	0.872792	17.1908	0.275977	6.00015	0.47443	10.151	0.737534	14.5675	0.950216	18.828
0.257926	4.98912	0.0865101	1.77806	0.346564	7.3962	0.502082	10.2757	0.615623	11.8941	0.874031	16.905	0.279966	5.96603	0.475429	10.0749	0.738924	14.3312	0.950846	18.4989
0.262098	4.98006	0.0886171	1.78715	0.348924	7.30138	0.50263	10.2173	0.61754	11.7201	0.87529	16.6297	0.28397	5.93355	0.476704	9.98083	0.740336	14.1038	0.951492	18.1819
0.266231	4.9706	0.0907243	1.7959	0.351315	7.21083	0.503383	10.1394	0.619483	11.5527	0.87657	16.3643	0.287989	5.9026	0.47826	9.87038	0.74177	13.8846	0.952152	17.8763
0.270322	4.9607	0.0928316	1.80434	0.353738	7.12432	0.504351	10.0431	0.621451	11.3915	0.87787	16.1084	0.29202	5.87308	0.480106	9.74518	0.743226	13.6734	0.952828	17.5814
0.27437	4.95035	0.0949389	1.81247	0.356193	7.04164	0.505542	9.92994	0.623445	11.2362	0.87919	15.8614	0.296065	5.8449	0.482252	9.60706	0.744703	13.4697	0.953519	17.2968
0.278373	4.93953	0.0970461	1.82032	0.358682	6.96261	0.506969	9.80167	0.625465	11.0864	0.88053	15.623	0.300121	5.81796	0.484426	9.47452	0.746201	13.2731	0.954226	17.022
0.282328	4.92824	0.0991532	1.8279	0.361205	6.88702	0.508648	9.66011	0.627245	10.9602	0.881889	15.3927	0.304188	5.79219	0.486629	9.34728	0.74772	13.0833	0.954948	16.7564
0.286234	4.91645	0.10126	1.83522	0.363763	6.81474	0.51037	9.52429	0.628777	10.8557	0.883269	15.1701	0.308265	5.76751	0.48886	9.22504	0.749261	12.9	0.955686	16.4996
0.290087	4.90416	0.103367	1.84229	0.366357	6.74559	0.512136	9.39392	0.630054	10.7713	0.884668	14.9548	0.312353	5.74386	0.491118	9.10753	0.750822	12.7228	0.95644	16.2512
0.293886	4.89134	0.105473	1.84913	0.368988	6.67945	0.513947	9.26872	0.631071	10.7059	0.886087	14.7465	0.316449	5.72116	0.493403	8.9945	0.752403	12.5514	0.95721	16.0108
0.297629	4.878	0.107579	1.85573	0.371657	6.61618	0.515801	9.14845	0.631822	10.6585	0.887525	14.5449	0.320553	5.69937	0.495715	8.88572	0.754005	12.3856	0.957996	15.778
0.301314	4.86412	0.109684	1.86213	0.374366	6.55566	0.5177	9.03287	0.632304	10.6284	0.888982	14.3497	0.324666	5.67842	0.498053	8.78098	0.755628	12.2252	0.958798	15.5526
0.304939	4.84969	0.11179	1.86832	0.377115	6.49779	0.519644	8.92175	0.633	10.5856	0.890459	14.1606	0.328785	5.65826	0.500416	8.68007	0.75727	12.0698	0.959616	15.3341
0.308502	4.83472	0.113894	1.87431	0.379906	6.44246	0.521633	8.81488	0.633758	10.5397	0.891955	13.9773	0.332911	5.63886	0.502805	8.5828	0.758933	11.9193	0.960451	15.1223
0.311555	4.82122	0.115999	1.88011	0.382741	6.38958	0.523666	8.71208	0.634795	10.4781	0.893469	13.7995	0.337043	5.62015	0.505219	8.48899	0.760615	11.7735	0.961303	14.9169
0.314119	4.80939	0.118102	1.88573	0.38562	6.33905	0.525744	8.61315	0.636115	10.4016	0.895003	13.6271	0.34118	5.60211	0.507657	8.39848	0.762317	11.6321	0.962171	14.7176
0.316212	4.79938	0.120206	1.89118	0.388546	6.29079	0.527867	8.51792	0.637723	10.3112	0.896556	13.4598	0.345323	5.58469	0.510119	8.31111	0.764038	11.4949	0.963056	14.5242
0.31785	4.79132	0.122309	1.89646	0.391519	6.24473	0.530035	8.42622	0.639625	10.2079	0.898127	13.2974	0.349469	5.56785	0.512605	8.22673	0.765778	11.3618	0.963959	14.3363
0.319044	4.78532	0.124411	1.90159	0.39454	6.20077	0.532248	8.3379	0.64183	10.093	0.899716	13.1397	0.353619	5.55157	0.515114	8.14521	0.767311	11.2491	0.964878	14.1539
0.319803	4.78144	0.126513	1.90657	0.397611	6.15886	0.534506	8.25281	0.644058	9.98183	0.901324	12.9865	0.357773	5.5358	0.517646	8.06641	0.768628	11.1552	0.965814	13.9766
0.320889	4.77581	0.128614	1.9114	0.400733	6.11891	0.536807	8.17081	0.646308	9.87413	0.90295	12.8376	0.361929	5.52053	0.520201	7.99022	0.769726	11.0791	0.966768	13.8043
0.322061	4.76963	0.130715	1.91609	0.403906	6.08085	0.539154	8.09177	0.648581	9.76979	0.904595	12.6928	0.366088	5.50571	0.522778	7.91651	0.770598	11.0199	0.96774	13.6367
0.323641	4.76112	0.132815	1.92064	0.407132	6.04463	0.541544	8.01555	0.650876	9.66866	0.906257	12.5521	0.370248	5.49134	0.525377	7.84517	0.771243	10.9769	0.968729	13.4738
0.325616	4.75018	0.134915	1.92507	0.41041	6.01015	0.543977	7.94205	0.653193	9.57063	0.907938	12.4151	0.37441	5.47737	0.527997	7.77612	0.771657	10.9496	0.969736	13.3152
0.32797	4.7367	0.137014	1.92938	0.41374	5.97737	0.546455	7.87115	0.655532	9.47554	0.909636	12.2819	0.378572	5.46379	0.530639	7.70924	0.772253	10.9106	0.97076	13.1609
0.330684	4.72054	0.139113	1.93356	0.417123	5.94621	0.548975	7.80274	0.657893	9.3833	0.911352	12.1522	0.382735	5.45058	0.533301	7.64444	0.772904	10.8687	0.971803	13.0107
0.333734	4.70156	0.141211	1.93764	0.420558	5.9166	0.551538	7.73671	0.660275	9.29377	0.913086	12.0259	0.386897	5.43771	0.535984	7.58164	0.773792	10.8124	0.972864	12.8645
0.336717	4.68212	0.143309	1.9416	0.424046	5.88848	0.554143	7.67298	0.662678	9.20685	0.914837	11.9029	0.391059	5.42516	0.538687	7.52076	0.774922	10.7423	0.973943	12.722
0.339632	4.66225	0.145407	1.94546	0.427584	5.86178	0.55679	7.61143	0.665101	9.12244	0.916605	11.7831	0.39522	5.41292	0.54141	7.46172	0.776298	10.6591	0.97504	12.5832
0.342481	4.64199	0.147504	1.94922	0.431173	5.83643	0.559478	7.552	0.667546	9.04044	0.918391	11.6663	0.399379	5.40097	0.544153	7.40444	0.777925	10.5637	0.976156	12.4479
0.345264	4.62135	0.1496	1.95288	0.434811	5.81237	0.562207	7.49458	0.670011	8.96075	0.919961	11.5669	0.403537	5.38929	0.546915	7.34886	0.779808	10.4569	0.97729	12.3161
0.347983	4.60037	0.151696	1.95644	0.438497	5.78954	0.564977	7.4391	0.672496	8.8833	0.921309	11.484	0.407691	5.37786	0.549696	7.2949	0.781709	10.3531	0.978444	12.1875
0.350639	4.57909	0.153792	1.95992	0.44223	5.76786	0.567786	7.38549	0.675001	8.80799	0.922431	11.4165	0.411843	5.36667	0.552496	7.24251	0.783628	10.252	0.979616	12.0621
0.353233	4.55752	0.155887	1.96331	0.446007	5.74729	0.570634	7.33366	0.677526	8.73474	0.923323	11.3639	0.415992	5.35571	0.555314	7.19163	0.785565	10.1536	0.980807	11.9398
0.355769	4.53571	0.157981	1.96661	0.449827	5.72775	0.573521	7.28355	0.68007	8.66349	0.923981	11.3256	0.420136	5.34495	0.558151	7.14219	0.787519	10.0577	0.982017	11.8205
0.358246	4.51368	0.160076	1.96984	0.453689	5.7092	0.576446	7.23509	0.682634	8.59415	0.924404	11.3013	0.424277	5.3344	0.561007	7.09415	0.78949	9.96431	0.983087	11.7188
0.360668	4.49147	0.162169	1.97298	0.457591	5.69156	0.579408	7.18821	0.685218	8.52665	0.925013	11.2666	0.428413	5.32403	0.56388	7.04745	0.791478	9.8733	0.984011	11.6339
0.363036	4.4691	0.164263	1.97605	0.46153	5.6748	0.582407	7.14285	0.68782	8.46094	0.925676	11.2291	0.432543	5.31383	0.56677	7.00204	0.793483	9.78459	0.984783	11.5647
0.365352	4.44662	0.166356	1.97905	0.465505	5.65885	0.585442	7.09896	0.690441	8.39695	0.926582	11.1788	0.436668	5.3038	0.569679	6.95788	0.795505	9.6981	0.985399	11.5108
0.367619	4.42404	0.168449	1.98198	0.469514	5.64367	0.588512	7.05647	0.693081	8.33462	0.927734	11.1159	0.440786	5.29392	0.572604	6.91493	0.797543	9.61376	0.985855	11.4715
0.369838	4.40139	0.170541	1.98484	0.473556	5.6292	0.591618	7.01533	0.69574	8.27389	0.929135	11.0411	0.444899	5.28417	0.575547	6.87313	0.799598	9.53148	0.986148	11.4466
0.372011	4.37871	0.172633	1.98763	0.477627	5.6154	0.594757	6.97549	0.698416	8.2147	0.93079	10.9551	0.449004	5.27456	0.578507	6.83246	0.801669	9.4512	0.986571	11.4109
0.374141	4.356	0.174724	1.99036	0.481727	5.60224	0.59793	6.9369	0.701111	8.15701	0.932704	10.8586	0.453101	5.26507	0.581483	6.79287	0.803756	9.37286	0.987033	11.3725
0.376229	4.33331	0.176816	1.99303	0.485853	5.58966	0.601136	6.89952	0.703825	8.10077	0.934634	10.7643	0.457191	5.25569	0.584477	6.75432	0.80586	9.29639	0.987665	11.3208
0.378278	4.31065	0.178906	1.99564	0.490004	5.57763	0.604374	6.86329	0.706556	8.04592	0.936581	10.6722	0.461272	5.24642	0.587486	6.71678	0.807979	9.22172	0.988472	11.2562
0.380289	4.28804	0.180997	1.99819	0.494178	5.56611	0.607643	6.82817	0.709304	7.99242	0.938544	10.5822	0.465344	5.23723	0.590513	6.68022	0.810114	9.1488	0.989457	11.1793
0.382264	4.2655	0.183087	2.00069	0.498373	5.55507	0.610944	6.79413	0.71207	7.94023	0.940522	10.4943	0.469407	5.22814	0.593555	6.64461	0.812265	9.07758	0.990627	11.0908
0.384205	4.24304	0.185177	2.00313	0.502589	5.54448	0.614274	6.76111	0.714854	7.88931	0.942516	10.4083	0.473459	5.21912	0.596614	6.60991	0.814431	9.00799	0.991988	10.9914
0.386113	4.22069	0.187267	2.00552	0.506823	5.5343	0.617634	6.72909	0.717655	7.83961	0.944526	10.3243	0.477502	5.21017	0.599689	6.5761	0.816613	8.93999	0.99337	10.8942
0.387991	4.19846	0.189356	2.00786	0.511073	5.52451	0.621023	6.69802	0.720473	7.7911	0.946551	10.2421	0.481534	5.20128	0.60278	6.54314	0.818809	8.87353	0.994771	10.7992
0.38984	4.17636	0.191445	2.01016	0.515339	5.51508	0.62444	6.66788	0.723308	7.74374	0.948591	10.1617	0.485554	5.19245	0.605887	6.51102	0.821021	8.80857	0.996193	10.7064
0.391661	4.1544	0.193534	2.0124	0.51962	5.50599	0.627885	6.63861	0.726161	7.69749	0.950647	10.0831	0.489562	5.18367	0.60901	6.4797	0.823248	8.74504	0.997636	10.6156
0.393456	4.1326	0.195622	2.0146	0.523913	5.49722	0.631357	6.61021	0.729029	7.65233	0.952718	10.0062	0.493558	5.17493	0.612149	6.44917	0.82549	8.68292	0.999099	10.5268
0.395226	4.11096	0.19771	2.01675	0.528218	5.48873	0.634855	6.58262	0.731915	7.60821	0.954804	9.93094	0.497542	5.16623	0.615303	6.41939	0.827746	8.62216	1.00058	10.4399
0.396972	4.0895	0.199798	2.01886	0.532534	5.48052	0.638379	6.55583	0.734817	7.56511	0.956905	9.85726	0.501512	5.15756	0.618474	6.39036	0.830017	8.56271		
0.398697	4.06821	0.201886	2.02093	0.536859	5.47255	0.641928	6.5298	0.737736	7.523	0.959021	9.78515	0.505468	5.14891	0.62166	6.36203	0.832303	8.50455		
0.4004	4.04712	0.203973	2.02296	0.541193	5.46483	0.645502	6.5045	0.740671	7.48184	0.961151	9.71453	0.50941	5.14028	0.624862	6.3344	0.834603	8.44763		
0.402084	4.02622	0.20606	2.02495	0.545534	5.45732	0.6491	6.47992	0.743622	7.44162	0.963296	9.64538	0.513337	5.13166	0.628079	6.30745	0.836917	8.39191		
0.403749	4.00552	0.208147	2.0269	0.549881	5.45002	0.652721	6.45602	0.746589	7.4023	0.965455	9.57765	0.517249	5.12305	0.631313	6.28115	0.839246	8.33737		
0.405396	3.98503	0.210234	2.02881	0.554234	5.4429	0.656365	6.43279	0.749573	7.36385	0.967629	9.51131	0.521145	5.11445	0.634562	6.25549	0.841588	8.28397		
0.407027	3.96475	0.21232	2.03069	0.558592	5.43596	0.660031	6.41019	0.752572	7.32626	0.969817	9.4463	0.525025	5.10584	0.637827	6.23045	0.843945	8.23167		
0.408642	3.94468	0.214406	2.03253	0.562954	5.42918	0.663719	6.3882	0.755588	7.2895	0.972019	9.3826	0.528888	5.09722	0.641107	6.20601	0.846315	8.18045		
0.410242	3.92482	0.216492	2.03433	0.567319	5.42255	0.667429	6.36681	0.758619	7.25355	0.974235	9.32017	0.532734	5.0886	0.644403	6.18216	0.8487	8.13028		
0.411828	3.90519	0.218578	2.03611	0.571686	5.41606	0.671158	6.34599	0.761666	7.21838	0.976465	9.25898	0.536563	5.07995	0.647715	6.15888	0.851098	8.08113		
0.4134	3.88577	0.220663	2.03785	0.576055	5.4097	0.674909	6.32572	0.764729	7.18397	0.978708	9.19899	0.540373	5.07129	0.651043	6.13616	0.853509	8.03296		
0.414961	3.86658	0.222749	2.03956	0.580425	5.40346	0.678678	6.30599	0.767807	7.15031	0.980966	9.14016	0.544164	5.06261	0.654386	6.11399	0.855934	7.98576		
0.41651	3.84761	0.224834	2.04124	0.584795	5.39733	0.682467	6.28677	0.770901	7.11737	0.983237	9.08248	0.547936	5.0539	0.657746	6.09234	0.858373	7.9395		
0.418047	3.82886	0.226919	2.04288	0.589165	5.39131	0.686275	6.26805	0.774011	7.08513	0.985521	9.0259	0.551689	5.04515	0.661121	6.07121	0.860825	7.89415		
0.419575	3.81034	0.229004	2.0445	0.593534	5.38537	0.690101	6.24981	0.777136	7.05358	0.987819	8.9704	0.555422	5.03638	0.664511	6.05058	0.86329	7.84969		
0.421093	3.79204	0.231088	2.0461	0.597902	5.37952	0.693944	6.23203	0.780277	7.0227	0.990129	8.91594	0.559134	5.02757	0.667918	6.03044	0.865769	7.8061		
0.422602	3.77396	0.233172	2.04766	0.602267	5.37375	0.697805	6.2147	0.783433	6.99247	0.992453	8.86252	0.562826	5.01871	0.671341	6.01078	0.868261	7.76335		
0.424102	3.75611	0.235257	2.0492	0.60663	5.36805	0.701683	6.19781	0.786604	6.96288	0.994791	8.81009	0.566496	5.00982	0.674779	5.99158	0.870766	7.72142		
0.425595	3.73848	0.237341	2.05071	0.610989	5.36242	0.705577	6.18133	0.789791	6.9339	0.99714	8.75863	0.570144	5.00088	0.678233	5.97284	0.873283	7.68029		
0.42708	3.72107	0.239425	2.05219	0.615345	5.35685	0.709486	6.16526	0.792994	6.90553	0.999503	8.70812	0.573771	4.9919	0.681703	5.95454	0.875814	7.63995		
0.428558	3.70388	0.241508	2.05365	0.619697	5.35133	0.713412	6.14958	0.796212	6.87775	1.00188	8.65853	0.577375	4.98286	0.685188	5.93667	0.878358	7.60037		
0.43003	3.68691	0.243592	2.05509	0.624044	5.34586	0.717352	6.13428	0.799445	6.85055			0.580956	4.97378	0.68869	5.91922	0.880914	7.56153		
0.431495	3.67016	0.245675	2.0565	0.628387	5.34043	0.721307	6.11935	0.802694	6.82391			0.584515	4.96464	0.692207	5.90219	0.883484	7.52341		
0.432956	3.65363	0.247758	2.05789	0.632723	5.33505	0.725276	6.10477	0.805958	6.79782			0.588049	4.95545	0.695739	5.88555	0.886066	7.48601		
0.434411	3.63731	0.249842	2.05925	0.637054	5.32969	0.729259	6.09053	0.809238	6.77226			0.591561	4.9462	0.699288	5.86931	0.888661	7.44929		
0.435861	3.6212	0.251924	2.0606	0.641379	5.32437	0.733255	6.07662	0.812533	6.74723			0.595048	4.9369	0.702851	5.85345	0.891268	7.41325		
0.437307	3.60531	0.254007	2.06192	0.645696	5.31907	0.737264	6.06303	0.815844	6.72271			0.59851	4.92754	0.706431	5.83796	0.893888	7.37787		
0.438748	3.58962	0.25609	2.06322	0.650007	5.3138	0.741286	6.04975	0.81917	6.69869			0.601949	4.91812	0.710025	5.82283	0.896521	7.34313		
0.440187	3.57414	0.258172	2.0645	0.65431	5.30854	0.745319	6.03677	0.822512	6.67516			0.605362	4.90865	0.713635	5.80806	0.899166	7.30902		
0.441621	3.55887	0.260255	2.06576	0.658605	5.3033	0.749365	6.02408	0.825869	6.65211			0.608751	4.89911	0.71726	5.79363	0.901823	7.27552		
0.443053	3.5438	0.262337	2.06701	0.662892	5.29808	0.753422	6.01166	0.829242	6.62953			0.612115	4.88952	0.7209	5.77953	0.904493	7.24262		
0.444482	3.52893	0.264419	2.06823	0.667171	5.29286	0.75749	5.99952	0.832631	6.6074			0.615453	4.87987	0.724554	5.76576	0.907176	7.21031		
0.445908	3.51425	0.266501	2.06943	0.67144	5.28765	0.761568	5.98764	0.836036	6.58573			0.618766	4.87016	0.728224	5.75232	0.90987	7.17857		
0.447332	3.49978	0.268583	2.07062	0.675701	5.28244	0.765657	5.97601	0.839457	6.5645			0.622053	4.86039	0.731908	5.73918	0.912577	7.14739		
0.448754	3.4855	0.270665	2.07179	0.679951	5.27723	0.769755	5.96462	0.842893	6.54369			0.625315	4.85057	0.735606	5.72634	0.915297	7.11675		
0.450174	3.47141	0.272746	2.07294	0.684192	5.27202	0.773863	5.95347	0.846346	6.52331			0.628551	4.84069	0.739318	5.71379	0.918028	7.08665		
0.451593	3.4575	0.274828	2.07407	0.688423	5.26681	0.77798	5.94255	0.849814	6.50335			0.631762	4.83075	0.743044	5.70154	0.920772	7.05708		
0.45301	3.44379	0.276909	2.07519	0.692643	5.26159	0.782106	5.93185	0.853299	6.48378			0.634946	4.82076	0.746783	5.68956	0.923528	7.02802		
0.454426	3.43026	0.278991	2.07629	0.696852	5.25636	0.78624	5.92136	0.8568	6.46462			0.638105	4.81071	0.750536	5.67784	0.926296	6.99946		
0.455841	3.41691	0.281072	2.07737	0.70105	5.25113	0.790382	5.91108	0.860317	6.44585			0.641238	4.80061	0.754302	5.6664	0.929077	6.97138		
0.457256	3.40374	0.283153	2.07844	0.705237	5.24588	0.794532	5.901	0.863851	6.42745			0.644346	4.79046	0.758081	5.6552	0.931869	6.94379		
0.45867	3.39075	0.285234	2.07949	0.709412	5.24062	0.798689	5.89111	0.867401	6.40944			0.647427	4.78026	0.761872	5.64426	0.934674	6.91667		
0.460083	3.37794	0.287315	2.08053	0.713576	5.23534	0.802852	5.8814	0.870968	6.39179			0.650483	4.77001	0.765676	5.63355	0.93749	6.89001		
0.461497	3.36529	0.289395	2.08155	0.717727	5.23005	0.807023	5.87187	0.874552	6.37451			0.653514	4.75971	0.769491	5.62308	0.940319	6.8638		
0.46291	3.35282	0.291476	2.08256	0.721866	5.22473	0.811199	5.86252	0.878152	6.35757			0.656519	4.74937	0.773319	5.61283	0.943159	6.83803		
0.464323	3.34052	0.293557	2.08356	0.725992	5.2194	0.815381	5.85333	0.88177	6.34099			0.659499	4.73899	0.777157	5.6028	0.946012	6.81269		
0.465737	3.32838	0.295637	2.08454	0.730105	5.21405	0.819569	5.8443	0.885404	6.32475			0.662453	4.72856	0.781007	5.59299	0.948877	6.78778		
0.467151	3.3164	0.297718	2.08551	0.734206	5.20867	0.823761	5.83543	0.889056	6.30885			0.665382	4.71809	0.784867	5.58338	0.951753	6.76328		
0.468565	3.30458	0.299798	2.08647	0.738293	5.20328	0.827959	5.82671	0.892725	6.29328			0.668287	4.70758	0.788737	5.57397	0.954642	6.73919		
0.46998	3.29292	0.301878	2.08741	0.742366	5.19785	0.83216	5.81813	0.896411	6.27803			0.671167	4.69704	0.792617	5.56475	0.957542	6.71549		
0.471396	3.28142	0.303958	2.08834	0.746426	5.19241	0.836366	5.80969	0.900115	6.2631			0.674022	4.68647	0.796507	5.55572	0.960454	6.69219		
0.472812	3.27007	0.306038	2.08925	0.750471	5.18693	0.840575	5.80138	0.903836	6.24848			0.676852	4.67586	0.800406	5.54687	0.963378	6.66927		
0.47423	3.25888	0.308118	2.09016	0.754503	5.18143	0.844788	5.79321	0.907575	6.23418			0.679659	4.66522	0.804314	5.53819	0.966314	6.64672		
0.475649	3.24783	0.310198	2.09105	0.75852	5.1759	0.849004	5.78515	0.911331	6.22017			0.682442	4.65455	0.808231	5.52968	0.969261	6.62454		
0.477068	3.23693	0.312278	2.09193	0.762523	5.17034	0.853223	5.77722	0.915106	6.20647			0.685201	4.64386	0.812155	5.52134	0.972221	6.60272		
0.478489	3.22618	0.314358	2.0928	0.766511	5.16475	0.857443	5.7694	0.918898	6.19305			0.687936	4.63314	0.816088	5.51315	0.975192	6.58126		
0.479911	3.21557	0.316437	2.09366	0.770484	5.15914	0.861666	5.7617	0.922708	6.17993			0.690648	4.6224	0.820027	5.50511	0.978175	6.56014		
0.481335	3.2051	0.318517	2.09451	0.774442	5.15349	0.865891	5.7541	0.926537	6.16709			0.693337	4.61164	0.823974	5.49723	0.981169	6.53936		
0.48276	3.19477	0.320596	2.09535	0.778385	5.14781	0.870117	5.7466	0.930384	6.15452			0.696003	4.60087	0.827927	5.48948	0.984175	6.51891		
0.484186	3.18457	0.322676	2.09617	0.782312	5.1421	0.874344	5.73921	0.934248	6.14224			0.698647	4.59007	0.831886	5.48187	0.987193	6.4988		
0.485614	3.17451	0.324755	2.09699	0.786224	5.13636	0.878572	5.7319	0.938132	6.13021			0.701268	4.57926	0.835851	5.47439	0.990222	6.479		
0.487044	3.16458	0.326834	2.09779	0.79012	5.13059	0.882801	5.7247	0.942033	6.11846			0.703868	4.56844	0.839822	5.46703	0.993263	6.45952		
0.488476	3.15479	0.328913	2.09859	0.794001	5.12478	0.88703	5.71757	0.945953	6.10696			0.706445	4.55761	0.843798	5.4598	0.996315	6.44035		
0.489909	3.14512	0.330993	2.09938	0.797866	5.11894	0.891259	5.71054	0.949891	6.09572			0.709001	4.54677	0.847779	5.45268	0.999379	6.42148		
0.491344	3.13558	0.333072	2.10015	0.801714	5.11307	0.895487	5.70358	0.953848	6.08473			0.711536	4.53593	0.851763	5.44568	1.00245	6.40291		
0.492781	3.12616	0.335151	2.10092	0.805547	5.10717	0.899715	5.69671	0.957823	6.07399			0.71405	4.52508	0.855752	5.43878				
0.49422	3.11687	0.33723	2.10168	0.809363	5.10123	0.903943	5.68991	0.961816	6.06349			0.716544	4.51423	0.859745	5.43199				
0.495662	3.1077	0.339308	2.10242	0.813163	5.09526	0.908169	5.68318	0.965828	6.05322			0.719017	4.50337	0.86374	5.4253				
0.497105	3.09864	0.341387	2.10316	0.816947	5.08925	0.912394	5.67653	0.969858	6.04319			0.721469	4.49252	0.867739	5.41871				
0.49855	3.08971	0.343466	2.10389	0.820713	5.08322	0.916618	5.66994	0.973906	6.03339			0.723903	4.48167	0.87174	5.4122				
0.499997	3.08089	0.345545	2.10461	0.824464	5.07715	0.92084	5.66342	0.977973	6.02382			0.726316	4.47082	0.875743	5.40579				
0.501447	3.07218	0.347623	2.10533	0.828198	5.07104	0.925061	5.65696	0.982058	6.01446			0.728711	4.45998	0.879749	5.39946				
0.502899	3.06359	0.349702	2.10603	0.831914	5.06491	0.929279	5.65056	0.986161	6.00533			0.731086	4.44915	0.883755	5.39321				
0.504353	3.05511	0.35178	2.10673	0.835615	5.05874	0.933496	5.64422	0.990282	5.9964			0.733443	4.43833	0.887763	5.38704				
0.505809	3.04674	0.353859	2.10742	0.839298	5.05254	0.93771	5.63794	0.994421	5.98768			0.735781	4.42752	0.891771	5.38094				
0.507267	3.03847	0.355937	2.1081	0.842964	5.04631	0.941921	5.63172	0.998577	5.97917			0.738101	4.41672	0.89578	5.37491				
0.508728	3.03031	0.358015	2.10877	0.846613	5.04004	0.946131	5.62555	1.00275	5.97085			0.740404	4.40593	0.899789	5.36895				
0.510192	3.02225	0.360094	2.10944	0.850246	5.03375	0.950337	5.61943					0.742688	4.39516	0.903798	5.36306				
0.511657	3.0143	0.362172	2.11009	0.853861	5.02742	0.954541	5.61336					0.744956	4.3844	0.907807	5.35723				
0.513125	3.00644	0.36425	2.11074	0.857459	5.02106	0.958742	5.60734					0.747207	4.37367	0.911814	5.35145				
0.514596	2.99869	0.366328	2.11139	0.86104	5.01467	0.96294	5.60137					0.749441	4.36295	0.915821	5.34574				
0.516069	2.99104	0.368406	2.11202	0.864604	5.00825	0.967135	5.59545					0.751658	4.35225	0.919826	5.34007				
0.517544	2.98348	0.370484	2.11265	0.868151	5.0018	0.971327	5.58957					0.75386	4.34158	0.923829	5.33446				
0.519022	2.97601	0.372562	2.11327	0.871681	4.99533	0.975515	5.58374					0.756045	4.33093	0.92783	5.32889				
0.520503	2.96864	0.37464	2.11389	0.875193	4.98882	0.979701	5.57795					0.758215	4.3203	0.931828	5.32337				
0.521986	2.96136	0.376718	2.11449	0.878689	4.98228	0.983883	5.5722					0.76037	4.3097	0.935824	5.31789				
0.523471	2.95418	0.378796	2.1151	0.882167	4.97572	0.988062	5.56649					0.762509	4.29912	0.939817	5.31246				
0.524959	2.94708	0.380873	2.11569	0.885628	4.96913	0.992237	5.56083					0.764634	4.28857	0.943807	5.30706				
0.52645	2.94007	0.382951	2.11628	0.889072	4.96251	0.996409	5.55521					0.766744	4.27805	0.947793	5.3017				
0.527943	2.93314	0.385029	2.11686	0.892499	4.95587	1.00058	5.54962					0.76884	4.26756	0.951775	5.29637				
0.529438	2.92631	0.387106	2.11744	0.895909	4.9492							0.770922	4.2571	0.955753	5.29108				
0.530937	2.91955	0.389184	2.11801	0.899302	4.9425							0.77299	4.24667	0.959727	5.28581				
0.532438	2.91288	0.391261	2.11857	0.902678	4.93578							0.775044	4.23628	0.963697	5.28058				
0.533941	2.90629	0.393339	2.11913	0.906037	4.92904							0.777086	4.22591	0.967661	5.27537				
0.535447	2.89979	0.395416	2.11968	0.909379	4.92227							0.779114	4.21558	0.97162	5.27018				
0.536956	2.89336	0.397494	2.12023	0.912704	4.91548							0.78113	4.20529	0.975574	5.26502				
0.538467	2.88701	0.399571	2.12077	0.916013	4.90867							0.783133	4.19503	0.979522	5.25988				
0.539981	2.88073	0.401648	2.12131	0.919304	4.90183							0.785123	4.18481	0.983464	5.25476				
0.541498	2.87454	0.403726	2.12184	0.922579	4.89498							0.787102	4.17463	0.9874	5.24966				
0.543017	2.86841	0.405803	2.12236	0.925837	4.8881							0.789069	4.16448	0.99133	5.24457				
0.544538	2.86236	0.40788	2.12288	0.929079	4.8812							0.791024	4.15437	0.995253	5.2395				
0.546063	2.85639	0.409957	2.12339	0.932304	4.87429							0.792968	4.1443	0.999169	5.23444				
0.54759	2.85048	0.412034	2.1239	0.935512	4.86735							0.794901	4.13427	1.00308	5.2294				
0.549119	2.84465	0.414111	2.12441	0.938704	4.8604							0.796823	4.12428						
0.550652	2.83889	0.416188	2.12491	0.94188	4.85343							0.798734	4.11433						
0.552186	2.83319	0.418265	2.1254	0.94504	4.84644							0.800635	4.10443						
0.553724	2.82756	0.420342	2.12589	0.948183	4.83944							0.802525	4.09456						
0.555264	2.822	0.422419	2.12637	0.95131	4.83242							0.804406	4.08474						
0.556807	2.8165	0.424496	2.12685	0.954421	4.82539							0.806276	4.07496						
0.558352	2.81107	0.426573	2.12733	0.957516	4.81834							0.808137	4.06522						
0.5599	2.8057	0.42865	2.1278	0.960595	4.81127							0.809989	4.05553						
0.56145	2.8004	0.430726	2.12827	0.963658	4.8042							0.811831	4.04588						
0.563003	2.79515	0.432803	2.12873	0.966706	4.79711							0.813665	4.03627						
0.564559	2.78997	0.43488	2.12918	0.969738	4.79001							0.815489	4.02671						
0.566117	2.78485	0.436957	2.12964	0.972754	4.7829							0.817305	4.0172						
0.567677	2.77979	0.439033	2.13009	0.975755	4.77577							0.819112	4.00773						
0.569241	2.77478	0.44111	2.13053	0.97874	4.76864							0.820911	3.9983						
0.570806	2.76984	0.443186	2.13097	0.98171	4.76149							0.822702	3.98892						
0.572375	2.76495	0.445263	2.13141	0.984665	4.75434							0.824485	3.97959						
0.573946	2.76011	0.447339	2.13184	0.987604	4.74718							0.82626	3.97031						
0.575519	2.75533	0.449416	2.13227	0.990529	4.74001							0.828028	3.96107						
0.577095	2.75061	0.451492	2.13269	0.993438	4.73283							0.829788	3.95187						
0.578674	2.74594	0.453569	2.13311	0.996333	4.72564							0.831541	3.94273						
0.580254	2.74132	0.455645	2.13353	0.999213	4.71845							0.833287	3.93363						
0.581838	2.73675	0.457721	2.13394	1.00208	4.71125							0.835026	3.92458						
0.583424	2.73224	0.459798	2.13435									0.836759	3.91557						
0.585012	2.72778	0.461874	2.13476									0.838485	3.90662						
0.586603	2.72336	0.46395	2.13516									0.840204	3.89771						
0.588196	2.719	0.466026	2.13556									0.841917	3.88885						
0.589792	2.71468	0.468103	2.13595									0.843624	3.88003						
0.59139	2.71042	0.470179	2.13634									0.845325	3.87127						
0.592991	2.7062	0.472255	2.13673									0.84702	3.86255						
0.594594	2.70203	0.474331	2.13711									0.848709	3.85388						
0.5962	2.6979	0.476407	2.13749									0.850393	3.84526						
0.597807	2.69382	0.478483	2.13787									0.852071	3.83668						
0.599418	2.68978	0.480559	2.13825									0.853745	3.82816						
0.60103	2.68579	0.482635	2.13862									0.855413	3.81968						
0.602645	2.68184	0.484711	2.13899									0.857075	3.81125						
0.604263	2.67793	0.486787	2.13935									0.858733	3.80287						
0.605882	2.67407	0.488863	2.13971									0.860387	3.79453						
0.607504	2.67025	0.490939	2.14007									0.862035	3.78624						
0.609129	2.66647	0.493015	2.14043									0.863679	3.778						
0.610755	2.66273	0.495091	2.14078									0.865319	3.76981						
0.612384	2.65903	0.497166	2.14113									0.866954	3.76167						
0.614015	2.65537	0.499242	2.14148									0.868585	3.75357						
0.615649	2.65175	0.501318	2.14182									0.870212	3.74552						
0.617285	2.64817	0.503394	2.14216									0.871835	3.73752						
0.618923	2.64462	0.505469	2.1425									0.873455	3.72957						
0.620563	2.64112	0.507545	2.14284									0.87507	3.72166						
0.622205	2.63765	0.509621	2.14317									0.876682	3.7138						
0.62385	2.63422	0.511697	2.1435									0.87829	3.70598						
0.625497	2.63082	0.513772	2.14383									0.879895	3.69821						
0.627146	2.62746	0.515848	2.14415									0.881496	3.69049						
0.628797	2.62414	0.517923	2.14448									0.883094	3.68282						
0.630451	2.62085	0.519999	2.1448									0.884689	3.67519						
0.632106	2.61759	0.522074	2.14511									0.886281	3.66761						
0.633764	2.61437	0.52415	2.14543									0.88787	3.66007						
0.635424	2.61118	0.526225	2.14574									0.889456	3.65258						
0.637086	2.60802	0.528301	2.14605									0.891039	3.64514						
0.63875	2.6049	0.530376	2.14636									0.89262	3.63774						
0.640416	2.60181	0.532452	2.14666									0.894198	3.63038						
0.642084	2.59875	0.534527	2.14697									0.895773	3.62307						
0.643755	2.59572	0.536603	2.14727									0.897346	3.61581						
0.645427	2.59273	0.538678	2.14757									0.898916	3.60859						
0.647102	2.58976	0.540753	2.14786									0.900484	3.60142						
0.648778	2.58683	0.542829	2.14815									0.90205	3.59428						
0.650457	2.58392	0.544904	2.14845									0.903614	3.5872						
0.652137	2.58104	0.546979	2.14873									0.905175	3.58016						
0.65382	2.5782	0.549054	2.14902									0.906735	3.57316						
0.655505	2.57538	0.55113	2.14931									0.908292	3.5662						
0.657191	2.57259	0.553205	2.14959									0.909848	3.55929						
0.65888	2.56982	0.55528	2.14987									0.911402	3.55242						
0.66057	2.56709	0.557355	2.15015									0.912954	3.54559						
0.662262	2.56438	0.55943	2.15042									0.914504	3.53881						
0.663957	2.5617	0.561505	2.1507									0.916053	3.53207						
0.665653	2.55904	0.563581	2.15097									0.9176	3.52537						
0.667351	2.55642	0.565656	2.15124									0.919146	3.51871						
0.669051	2.55381	0.567731	2.15151									0.92069	3.5121						
0.670753	2.55124	0.569806	2.15177									0.922233	3.50552						
0.672457	2.54869	0.571881	2.15204									0.923774	3.49899						
0.674163	2.54616	0.573956	2.1523									0.925314	3.4925						
0.675871	2.54366	0.576031	2.15256									0.926853	3.48605						
0.67758	2.54118	0.578106	2.15282									0.928391	3.47964						
0.679291	2.53873	0.580181	2.15308									0.929928	3.47327						
0.681004	2.5363	0.582256	2.15333									0.931463	3.46694						
0.682719	2.53389	0.584331	2.15359									0.932998	3.46065						
0.684436	2.53151	0.586406	2.15384									0.934531	3.4544						
0.686155	2.52915	0.58848	2.15409									0.936064	3.44819						
0.687875	2.52682	0.590555	2.15433									0.937596	3.44202						
0.689597	2.5245	0.59263	2.15458									0.939126	3.43589						
0.691321	2.52221	0.594705	2.15482									0.940656	3.42979						
0.693046	2.51994	0.59678	2.15507									0.942186	3.42374						
0.694774	2.51769	0.598855	2.15531									0.943714	3.41772						
0.696503	2.51546	0.600929	2.15555									0.945242	3.41175						
0.698233	2.51326	0.603004	2.15578									0.94677	3.40581						
0.699966	2.51107	0.605079	2.15602									0.948297	3.3999						
0.7017	2.50891	0.607154	2.15625									0.949823	3.39404						
0.703436	2.50676	0.609228	2.15649									0.951349	3.38821						
0.705173	2.50464	0.611303	2.15672									0.952874	3.38242						
0.706912	2.50253	0.613378	2.15695									0.954399	3.37666						
0.708653	2.50045	0.615452	2.15718									0.955923	3.37094						
0.710396	2.49839	0.617527	2.1574									0.957447	3.36526						
0.71214	2.49634	0.619602	2.15763									0.958971	3.35962						
0.713885	2.49431	0.621676	2.15785									0.960495	3.35401						
0.715633	2.4923	0.623751	2.15807									0.962018	3.34843						
0.717382	2.49031	0.625825	2.15829									0.963541	3.34289						
0.719132	2.48834	0.6279	2.15851									0.965064	3.33739						
0.720884	2.48639	0.629975	2.15873									0.966586	3.33192						
0.722638	2.48445	0.632049	2.15895									0.968109	3.32648						
0.724393	2.48254	0.634124	2.15916									0.969631	3.32108						
0.72615	2.48064	0.636198	2.15937									0.971154	3.31572						
0.727908	2.47875	0.638272	2.15959									0.972676	3.31038						
0.729668	2.47689	0.640347	2.1598									0.974199	3.30508						
0.73143	2.47504	0.642421	2.16									0.975721	3.29982						
0.733193	2.47321	0.644496	2.16021									0.977243	3.29459						
0.734957	2.47139	0.64657	2.16042									0.978766	3.28939						
0.736723	2.46959	0.648645	2.16062									0.980288	3.28422						
0.73849	2.46781	0.650719	2.16083									0.981811	3.27909						
0.740259	2.46604	0.652793	2.16103									0.983334	3.27398						
0.742029	2.46429	0.654868	2.16123									0.984857	3.26892						
0.743801	2.46256	0.656942	2.16143									0.98638	3.26388						
0.745574	2.46084	0.659017	2.16163									0.987904	3.25887						
0.747349	2.45913	0.661091	2.16183									0.989427	3.2539						
0.749125	2.45744	0.663165	2.16202									0.990951	3.24895						
0.750903	2.45577	0.665239	2.16222									0.992476	3.24404						
0.752682	2.45411	0.667314	2.16241									0.994	3.23916						
0.754462	2.45246	0.669388	2.1626									0.995525	3.23431						
0.756244	2.45083	0.671462	2.16279									0.99705	3.22949						
0.758027	2.44922	0.673536	2.16298									0.998576	3.2247						
0.759812	2.44761	0.675611	2.16317									1.0001	3.21994						
0.761597	2.44603	0.677685	2.16336																
0.763385	2.44445	0.679759	2.16355																
0.765173	2.44289	0.681833	2.16373																
0.766963	2.44134	0.683907	2.16392																
0.768754	2.43981	0.685981	2.1641																
0.770547	2.43829	0.688056	2.16428																
0.772341	2.43678	0.69013	2.16446																
0.774136	2.43529	0.692204	2.16464																
0.775933	2.43381	0.694278	2.16482																
0.777731	2.43234	0.696352	2.165																
0.77953	2.43088	0.698426	2.16518																
0.78133	2.42944	0.7005	2.16535																
0.783132	2.428	0.702574	2.16553																
0.784935	2.42658	0.704648	2.1657																
0.786739	2.42518	0.706722	2.16587																
0.788544	2.42378	0.708796	2.16604																
0.790351	2.4224	0.71087	2.16621																
0.792159	2.42102	0.712944	2.16638																
0.793968	2.41966	0.715018	2.16655																
0.795779	2.41831	0.717092	2.16672																
0.79759	2.41698	0.719166	2.16688																
0.799403	2.41565	0.72124	2.16705																
0.801217	2.41433	0.723314	2.16721																
0.803032	2.41303	0.725387	2.16738																
0.804848	2.41173	0.727461	2.16754																
0.806666	2.41045	0.729535	2.1677																
0.808485	2.40918	0.731609	2.16786																
0.810304	2.40792	0.733683	2.16802																
0.812125	2.40666	0.735757	2.16818																
0.813948	2.40542	0.737831	2.16834																
0.815771	2.40419	0.739904	2.1685																
0.817595	2.40297	0.741978	2.16865																
0.819421	2.40176	0.744052	2.16881																
0.821247	2.40056	0.746126	2.16896																
0.823075	2.39936	0.748199	2.16911																
0.824904	2.39818	0.750273	2.16927																
0.826734	2.39701	0.752347	2.16942																
0.828565	2.39585	0.754421	2.16957																
0.830397	2.39469	0.756494	2.16972																
0.83223	2.39355	0.758568	2.16987																
0.834064	2.39241	0.760642	2.17002																
0.8359	2.39129	0.762715	2.17016																
0.837736	2.39017	0.764789	2.17031																
0.839574	2.38906	0.766862	2.17046																
0.841412	2.38796	0.768936	2.1706																
0.843252	2.38687	0.77101	2.17075																
0.845092	2.38579	0.773083	2.17089																
0.846934	2.38472	0.775157	2.17103																
0.848776	2.38365	0.77723	2.17118																
0.85062	2.38259	0.779304	2.17132																
0.852464	2.38155	0.781377	2.17146																
0.85431	2.38051	0.783451	2.1716																
0.856157	2.37947	0.785525	2.17174																
0.858004	2.37845	0.787598	2.17187																
0.859853	2.37743	0.789672	2.17201																
0.861702	2.37643	0.791745	2.17215																
0.863553	2.37543	0.793819	2.17228																
0.865404	2.37443	0.795892	2.17242																
0.867257	2.37345	0.797965	2.17255																
0.86911	2.37247	0.800039	2.17269																
0.870964	2.3715	0.802112	2.17282																
0.87282	2.37054	0.804186	2.17295																
0.874676	2.36958	0.806259	2.17308																
0.876533	2.36864	0.808332	2.17322																
0.878391	2.3677	0.810406	2.17335																
0.88025	2.36676	0.812479	2.17348																
0.88211	2.36584	0.814553	2.1736																
0.883971	2.36492	0.816626	2.17373																
0.885832	2.36401	0.818699	2.17386																
0.887695	2.3631	0.820773	2.17399																
0.889558	2.3622	0.822846	2.17411																
0.891423	2.36131	0.824919	2.17424																
0.893288	2.36043	0.826992	2.17436																
0.895154	2.35955	0.829066	2.17449																
0.897021	2.35868	0.831139	2.17461																
0.898889	2.35781	0.833212	2.17474																
0.900758	2.35696	0.835285	2.17486																
0.902627	2.3561	0.837359	2.17498																
0.904498	2.35526	0.839432	2.1751																
0.906369	2.35442	0.841505	2.17522																
0.908241	2.35359	0.843578	2.17534																
0.910114	2.35276	0.845652	2.17546																
0.911988	2.35194	0.847725	2.17558																
0.913862	2.35112	0.849798	2.1757																
0.915738	2.35031	0.851871	2.17582																
0.917614	2.34951	0.853944	2.17593																
0.919491	2.34872	0.856017	2.17605																
0.921369	2.34792	0.85809	2.17617																
0.923248	2.34714	0.860164	2.17628																
0.925127	2.34636	0.862237	2.1764																
0.927007	2.34559	0.86431	2.17651																
0.928888	2.34482	0.866383	2.17662																
0.93077	2.34405	0.868456	2.17674																
0.932653	2.3433	0.870529	2.17685																
0.934536	2.34255	0.872602	2.17696																
0.93642	2.3418	0.874675	2.17707																
0.938305	2.34106	0.876748	2.17718																
0.940191	2.34032	0.878821	2.17729																
0.942078	2.33959	0.880894	2.1774																
0.943965	2.33887	0.882967	2.17751																
0.945853	2.33815	0.88504	2.17762																
0.947741	2.33743	0.887113	2.17773																
0.949631	2.33672	0.889186	2.17784																
0.951521	2.33602	0.891259	2.17795																
0.953412	2.33532	0.893332	2.17805																
0.955303	2.33463	0.895405	2.17816																
0.957196	2.33394	0.897478	2.17826																
0.959089	2.33325	0.89955	2.17837																
0.960983	2.33257	0.901623	2.17847																
0.962877	2.3319	0.903696	2.17858																
0.964772	2.33123	0.905769	2.17868																
0.966668	2.33056	0.907842	2.17878																
0.968565	2.3299	0.909915	2.17889																
0.970462	2.32924	0.911988	2.17899																
0.97236	2.32859	0.914061	2.17909																
0.974259	2.32794	0.916133	2.17919																
0.976158	2.3273	0.918206	2.17929																
0.978058	2.32666	0.920279	2.17939																
0.979959	2.32603	0.922352	2.17949																
0.98186	2.3254	0.924425	2.17959																
0.983762	2.32477	0.926497	2.17969																
0.985665	2.32415	0.92857	2.17979																
0.987568	2.32354	0.930643	2.17989																
0.989472	2.32293	0.932716	2.17999																
0.991377	2.32232	0.934788	2.18008																
0.993282	2.32171	0.936861	2.18018																
0.995188	2.32111	0.938934	2.18028																
0.997095	2.32052	0.941006	2.18037																
0.999002	2.31993	0.943079	2.18047																
1.00091	2.31934	0.945152	2.18056																
		0.947224	2.18066																
		0.949297	2.18075																
		0.95137	2.18084																
		0.953442	2.18094																
		0.955515	2.18103																
		0.957588	2.18112																
		0.95966	2.18121																
		0.961733	2.18131																
		0.963805	2.1814																
		0.965878	2.18149																
		0.96795	2.18158																
		0.970023	2.18167																
		0.972096	2.18176																
		0.974168	2.18185																
		0.976241	2.18194																
		0.978313	2.18202																
		0.980386	2.18211																
		0.982458	2.1822																
		0.984531	2.18229																
		0.986603	2.18237																
		0.988676	2.18246																
		0.990748	2.18255																
		0.99282	2.18263																
		0.994893	2.18272																
		0.996965	2.1828																
		0.999038	2.18289																
		1.00111	2.18297																
