Sym0		Asym0		Sym1		Sym2		Sym3		Sym4		Asym1		Asym2		Asym3		Asym4	
469  Points		498  Points		236  Points		201  Points		188  Points		131  Points		340  Points		214  Points		175  Points		111  Points	
Freq (MHz)	Vph (m/ms)	Freq (MHz)	Vph (m/ms)	Freq (MHz)	Vph (m/ms)	Freq (MHz)	Vph (m/ms)	Freq (MHz)	Vph (m/ms)	Freq (MHz)	Vph (m/ms)	Freq (MHz)	Vph (m/ms)	Freq (MHz)	Vph (m/ms)	Freq (MHz)	Vph (m/ms)	Freq (MHz)	Vph (m/ms)
0.00469135	5.11026	5.24313e-005	0.0623468	0.279519	502.128	0.466705	646.304	0.559022	1180.87	0.838528	1923.46	0.139791	236.047	0.419263	3191.92	0.698773	2414.78	0.933399	7640.53
0.00945242	5.11019	0.000232469	0.131142	0.279586	187.848	0.466731	282.216	0.559061	397.882	0.83855	613.135	0.139999	91.8683	0.419293	394.426	0.698794	572.281	0.933405	885.701
0.0142131	5.11001	0.000539334	0.199432	0.279714	115.581	0.466778	180.536	0.55914	239.277	0.838596	364.712	0.140389	57.1709	0.419369	210.237	0.698842	324.626	0.933419	470.105
0.0189731	5.10976	0.000970744	0.266978	0.279902	83.5092	0.466845	132.732	0.559257	171.106	0.838665	259.566	0.140959	41.614	0.419491	143.345	0.698917	226.593	0.933443	319.974
0.0237324	5.10944	0.0015235	0.333535	0.280151	65.4032	0.466932	104.955	0.559413	133.188	0.838757	201.492	0.141705	32.8098	0.41966	108.773	0.699019	174.052	0.933476	242.528
0.0284906	5.10905	0.00219353	0.398864	0.280461	53.7782	0.46704	86.8008	0.559608	109.046	0.838872	164.665	0.142624	27.1629	0.419875	87.6597	0.699147	141.303	0.933518	195.271
0.0332476	5.10858	0.00297621	0.462782	0.28083	45.6869	0.467168	74.0094	0.559841	92.3287	0.83901	139.229	0.14371	23.2451	0.420136	73.4308	0.699301	118.938	0.93357	163.431
0.0380034	5.10805	0.00386658	0.525148	0.281259	39.7341	0.467318	64.5112	0.560114	80.0704	0.839172	120.609	0.144959	20.3763	0.420443	63.1939	0.699483	102.695	0.93363	140.522
0.0427573	5.10744	0.00485888	0.585794	0.281748	35.1735	0.467488	57.1804	0.560424	70.6986	0.839356	106.389	0.146364	18.1914	0.420795	55.478	0.69969	90.365	0.9337	123.249
0.0475096	5.10675	0.00594739	0.644619	0.282295	31.5699	0.46768	51.3518	0.560774	63.3024	0.839564	95.1756	0.147918	16.4766	0.421194	49.4556	0.699925	80.6864	0.933779	109.761
0.0522597	5.10599	0.00712622	0.701544	0.282901	28.6522	0.467892	46.6072	0.561161	57.3178	0.839794	86.1072	0.149616	15.0988	0.421638	44.6258	0.700185	72.888	0.933867	98.9359
0.0570077	5.10516	0.00838934	0.756505	0.283565	26.2431	0.468127	42.6704	0.561587	52.3769	0.840048	78.6224	0.151451	13.9704	0.422128	40.6674	0.700473	66.471	0.933965	90.0571
0.061753	5.10425	0.00973082	0.809465	0.284286	24.2213	0.468383	39.3518	0.562051	48.2292	0.840325	72.3402	0.153416	13.0316	0.422663	37.3651	0.700786	61.0988	0.934072	82.643
0.0664957	5.10326	0.0111448	0.860404	0.285063	22.5014	0.468662	36.5168	0.562553	44.6987	0.840625	66.9928	0.155504	12.2403	0.423243	34.5691	0.701126	56.536	0.934189	76.3588
0.0712354	5.10218	0.0126258	0.90933	0.285897	21.0212	0.468962	34.0671	0.563092	41.6577	0.840948	62.3863	0.157709	11.5657	0.423868	32.1719	0.701492	52.6128	0.934316	70.9648
0.0759719	5.10103	0.0141682	0.95625	0.286786	19.7346	0.469286	31.9296	0.563669	39.0114	0.841293	58.377	0.160025	10.985	0.424537	30.0945	0.701885	49.204	0.934452	66.2845
0.0807049	5.09979	0.015767	1.0012	0.287729	18.6066	0.469632	30.0483	0.564283	36.6882	0.841662	54.8562	0.162129	10.5418	0.425251	28.2775	0.702304	46.2148	0.934598	62.1851
0.0854342	5.09847	0.0174175	1.04423	0.288726	17.6101	0.470002	28.3802	0.564935	34.6326	0.842053	51.7398	0.163982	10.2032	0.426008	26.6753	0.702748	43.5727	0.934754	58.5649
0.0901594	5.09705	0.0191149	1.08537	0.289776	16.7238	0.470395	26.8911	0.565623	32.8013	0.842468	48.9623	0.165554	9.94676	0.42681	25.2523	0.703219	41.2206	0.934919	55.3447
0.0948804	5.09555	0.0208551	1.12468	0.290878	15.9308	0.470813	25.5539	0.566348	31.1598	0.842905	46.4714	0.166821	9.75762	0.427655	23.9804	0.703716	39.1136	0.935095	52.4616
0.0995967	5.09396	0.0226342	1.16223	0.292031	15.2174	0.471254	24.3467	0.567109	29.6802	0.843365	44.225	0.167767	9.62559	0.428544	22.8371	0.704239	37.2155	0.935281	49.8655
0.104308	5.09227	0.0244486	1.19807	0.293235	14.5727	0.471721	23.2516	0.567906	28.3401	0.843847	42.1891	0.168378	9.54403	0.429475	21.8041	0.704788	35.4968	0.935478	47.5157
0.109014	5.09049	0.0262948	1.23228	0.294488	13.9873	0.472212	22.2538	0.56874	27.1207	0.844353	40.3355	0.169264	9.43062	0.430449	20.8666	0.705362	33.9334	0.935684	45.3787
0.113715	5.08861	0.0281698	1.26492	0.29579	13.4538	0.47273	21.3411	0.569609	26.0067	0.844881	38.6409	0.170238	9.31223	0.431465	20.012	0.705963	32.5053	0.935902	43.427
0.11841	5.08662	0.0300708	1.29606	0.297139	12.9657	0.473273	20.5033	0.570513	24.9852	0.845431	37.0858	0.171579	9.15887	0.432523	19.2301	0.706588	31.1959	0.936129	41.6375
0.123098	5.08453	0.0319953	1.32577	0.298535	12.5177	0.473843	19.7315	0.571453	24.0452	0.846004	35.6538	0.173302	8.97662	0.433622	18.5121	0.70724	29.991	0.936368	39.9909
0.12778	5.08233	0.0339407	1.35411	0.299976	12.1052	0.47444	19.0185	0.572428	23.1776	0.8466	34.3309	0.175426	8.77212	0.434763	17.8508	0.707916	28.8787	0.936617	38.4707
0.132455	5.08001	0.0359052	1.38114	0.301462	11.7244	0.475064	18.3579	0.573437	22.3744	0.847217	33.1051	0.177968	8.55206	0.435945	17.2398	0.708619	27.8489	0.936878	37.0631
0.137123	5.07758	0.0378866	1.40694	0.302992	11.3718	0.475716	17.7443	0.57448	21.6288	0.847858	31.9664	0.180953	8.32283	0.437166	16.6738	0.709346	26.8928	0.937149	35.7559
0.141782	5.07503	0.0398832	1.43155	0.304564	11.0446	0.476397	17.1728	0.575558	20.935	0.84852	30.9057	0.184003	8.11538	0.438428	16.1481	0.710099	26.0028	0.937432	34.5389
0.146433	5.07235	0.0418935	1.45505	0.306178	10.7403	0.477106	16.6396	0.576669	20.2879	0.849205	29.9155	0.187117	7.92698	0.43973	15.6587	0.710876	25.1725	0.937726	33.4031
0.151075	5.06954	0.0439158	1.47748	0.307618	10.492	0.477845	16.1409	0.577814	19.683	0.849912	28.9889	0.19029	7.75531	0.44107	15.202	0.711679	24.396	0.938031	32.3407
0.155708	5.0666	0.0459491	1.4989	0.30887	10.2917	0.478614	15.6736	0.578992	19.1164	0.850641	28.1202	0.19352	7.5984	0.442449	14.7751	0.712506	23.6685	0.938348	31.3447
0.160331	5.06352	0.0477288	1.51679	0.309921	10.1335	0.479414	15.2349	0.580203	18.5847	0.851392	27.3041	0.196802	7.45458	0.443867	14.3752	0.713358	22.9854	0.938677	30.4093
0.164944	5.0603	0.0492513	1.53148	0.310763	10.0128	0.480245	14.8225	0.581446	18.0848	0.852165	26.536	0.200135	7.3224	0.445323	13.9999	0.714235	22.3429	0.939017	29.529
0.169545	5.05692	0.0505135	1.54327	0.311387	9.92654	0.481107	14.434	0.582721	17.6141	0.85296	25.8119	0.203515	7.20061	0.446816	13.6471	0.715136	21.7375	0.93937	28.6993
0.174135	5.05338	0.0515136	1.55236	0.311789	9.87234	0.482001	14.0676	0.584029	17.17	0.853777	25.1281	0.20694	7.08813	0.448346	13.3149	0.716062	21.1662	0.939735	27.9158
0.178712	5.04968	0.05225	1.55892	0.312371	9.79581	0.482929	13.7216	0.585368	16.7506	0.854615	24.4815	0.210407	6.98402	0.449912	13.0017	0.717012	20.6263	0.940111	27.1749
0.183276	5.0458	0.0527218	1.56306	0.313008	9.71442	0.483889	13.3943	0.586739	16.3538	0.855475	23.869	0.213915	6.88745	0.451515	12.7059	0.717986	20.1152	0.9405	26.4732
0.187826	5.04175	0.0534005	1.56895	0.313882	9.60662	0.484884	13.0844	0.58814	15.9779	0.856357	23.2883	0.21746	6.79769	0.453153	12.4262	0.718984	19.6307	0.940902	25.8076
0.192362	5.03751	0.054139	1.57524	0.315	9.47486	0.485913	12.7906	0.589573	15.6215	0.85726	22.7367	0.221042	6.71411	0.454826	12.1614	0.720006	19.1709	0.941316	25.1756
0.196882	5.03308	0.0551446	1.58365	0.316369	9.32199	0.486977	12.5117	0.591035	15.2829	0.858185	22.2124	0.224658	6.63613	0.456535	11.9104	0.721052	18.734	0.941743	24.5747
0.201385	5.02844	0.0564183	1.59403	0.318001	9.15115	0.488076	12.2468	0.592528	14.9611	0.859131	21.7132	0.228306	6.56327	0.458277	11.6721	0.722121	18.3184	0.942183	24.0026
0.205871	5.02358	0.0579611	1.60621	0.319907	8.96561	0.489212	11.9949	0.594051	14.6548	0.860098	21.2376	0.231985	6.49507	0.460054	11.4458	0.723214	17.9225	0.942635	23.4574
0.210339	5.01851	0.0597743	1.62001	0.321847	8.79044	0.490384	11.7551	0.595603	14.363	0.861087	20.7839	0.235693	6.43113	0.461863	11.2305	0.72433	17.5451	0.943101	22.9372
0.214787	5.01319	0.0618589	1.63521	0.32382	8.62486	0.491594	11.5267	0.597185	14.0847	0.862097	20.3506	0.239429	6.37109	0.463706	11.0255	0.72547	17.1849	0.94358	22.4403
0.219214	5.00763	0.0639473	1.64979	0.325826	8.46815	0.492841	11.3089	0.598795	13.819	0.863127	19.9365	0.243191	6.31464	0.465581	10.8302	0.726632	16.8407	0.944072	21.9653
0.22362	5.00182	0.0660388	1.66375	0.327865	8.31968	0.494126	11.101	0.600434	13.5651	0.864179	19.5402	0.246977	6.26148	0.467241	10.6673	0.727818	16.5117	0.944578	21.5108
0.228002	4.99573	0.0681332	1.67715	0.329935	8.17885	0.495451	10.9026	0.602101	13.3224	0.865251	19.1608	0.250787	6.21136	0.468675	10.5336	0.729026	16.1967	0.945098	21.0755
0.23236	4.98936	0.0702299	1.69	0.332037	8.04514	0.496637	10.7368	0.603797	13.09	0.866344	18.7972	0.25462	6.16405	0.469874	10.4264	0.730257	15.895	0.945631	20.6581
0.236692	4.9827	0.0723287	1.70234	0.33417	7.91807	0.497672	10.6006	0.60552	12.8675	0.867458	18.4484	0.258474	6.11932	0.47083	10.3438	0.73151	15.6058	0.946178	20.2578
0.240997	4.97573	0.0744292	1.71419	0.336333	7.7972	0.498544	10.4913	0.60727	12.6541	0.868592	18.1136	0.262347	6.07698	0.471538	10.2841	0.732786	15.3284	0.946739	19.8733
0.245272	4.96843	0.0765312	1.72558	0.338527	7.68213	0.499245	10.4069	0.609048	12.4495	0.869747	17.792	0.26624	6.03687	0.471993	10.2465	0.734084	15.062	0.947314	19.504
0.249517	4.9608	0.0786345	1.73652	0.340752	7.57251	0.499766	10.346	0.610853	12.253	0.870922	17.4829	0.270151	5.99881	0.472649	10.193	0.735404	14.806	0.947903	19.1488
0.25373	4.95281	0.0807387	1.74704	0.343006	7.46799	0.500103	10.3076	0.612684	12.0643	0.872118	17.1854	0.274079	5.96267	0.473367	10.1357	0.736745	14.5599	0.948507	18.807
0.257909	4.94445	0.0828438	1.75717	0.345291	7.36827	0.50059	10.2529	0.614541	11.8829	0.873333	16.8991	0.278022	5.9283	0.474349	10.0593	0.738109	14.3231	0.949125	18.4779
0.262051	4.9357	0.0849495	1.76691	0.347607	7.27308	0.501124	10.1944	0.616425	11.7084	0.874569	16.6234	0.281981	5.8956	0.475601	9.9649	0.739494	14.0952	0.949757	18.1608
0.266155	4.92656	0.0870557	1.7763	0.349953	7.18216	0.50186	10.1162	0.618334	11.5404	0.875825	16.3575	0.285955	5.86444	0.477131	9.85405	0.7409	13.8756	0.950405	17.8551
0.27022	4.91699	0.0891622	1.78534	0.35233	7.09527	0.502804	10.0196	0.620269	11.3786	0.8771	16.1012	0.289942	5.83471	0.478945	9.7284	0.742328	13.6639	0.951067	17.5602
0.274242	4.907	0.091269	1.79406	0.354739	7.01222	0.503967	9.90619	0.622229	11.2228	0.878396	15.8538	0.293942	5.80634	0.481055	9.58976	0.743777	13.4597	0.951744	17.2755
0.278221	4.89655	0.0933759	1.80246	0.35718	6.93279	0.50536	9.77753	0.624214	11.0725	0.879711	15.615	0.297953	5.77922	0.483192	9.45673	0.745247	13.2627	0.952436	17.0005
0.282153	4.88564	0.0954828	1.81057	0.359654	6.85681	0.506998	9.63554	0.625964	10.9459	0.881045	15.3842	0.301976	5.75329	0.485358	9.32901	0.746738	13.0725	0.953144	16.7349
0.286037	4.87426	0.0975897	1.81839	0.362162	6.78411	0.508679	9.49928	0.62747	10.841	0.882399	15.1612	0.30601	5.72845	0.487552	9.2063	0.748249	12.8887	0.953867	16.478
0.28987	4.86238	0.0996965	1.82595	0.364704	6.71455	0.510403	9.36847	0.628725	10.7564	0.883773	14.9456	0.310054	5.70465	0.489772	9.08834	0.749781	12.7111	0.954605	16.2295
0.293651	4.85	0.101803	1.83325	0.367282	6.64798	0.512169	9.24283	0.629725	10.6907	0.885165	14.7369	0.314106	5.68182	0.49202	8.97488	0.751333	12.5394	0.955359	15.9891
0.297376	4.8371	0.103909	1.84031	0.369897	6.58427	0.513979	9.12211	0.630463	10.6431	0.886577	14.535	0.318168	5.6599	0.494293	8.86568	0.752905	12.3732	0.956128	15.7563
0.301046	4.82369	0.106015	1.84712	0.372549	6.5233	0.515832	9.00608	0.630937	10.613	0.888008	14.3394	0.322237	5.63883	0.496593	8.76053	0.754497	12.2124	0.956914	15.5308
0.304196	4.81156	0.108121	1.85372	0.375241	6.46496	0.517729	8.89452	0.631621	10.57	0.889457	14.1499	0.326314	5.61857	0.498918	8.65922	0.756109	12.0567	0.957715	15.3122
0.306845	4.80091	0.110227	1.8601	0.377973	6.40915	0.51967	8.78721	0.632367	10.5239	0.890926	13.9663	0.330398	5.59906	0.501268	8.56156	0.75774	11.9058	0.958532	15.1004
0.30901	4.79187	0.112332	1.86628	0.380747	6.35578	0.521654	8.68395	0.633387	10.4621	0.892413	13.7882	0.334488	5.58027	0.503642	8.46738	0.759392	11.7596	0.959366	14.8949
0.310705	4.78459	0.114436	1.87227	0.383564	6.30475	0.523683	8.58457	0.634684	10.3853	0.893919	13.6155	0.338583	5.56214	0.506041	8.3765	0.761062	11.6178	0.960216	14.6955
0.311943	4.77915	0.11654	1.87807	0.386426	6.25598	0.525755	8.48889	0.636265	10.2946	0.895443	13.4479	0.342684	5.54464	0.508464	8.28877	0.762752	11.4804	0.961082	14.502
0.31273	4.77564	0.118644	1.88368	0.389334	6.2094	0.527871	8.39675	0.638135	10.191	0.896985	13.2851	0.34679	5.52774	0.51091	8.20405	0.76446	11.347	0.961965	14.3141
0.313856	4.77053	0.120747	1.88913	0.392288	6.16491	0.530031	8.30798	0.640303	10.0757	0.898546	13.1271	0.350899	5.5114	0.51338	8.12218	0.765964	11.2339	0.962864	14.1315
0.315073	4.76492	0.12285	1.89441	0.395291	6.12246	0.532235	8.22244	0.642494	9.96411	0.900125	12.9736	0.355013	5.49558	0.515872	8.04306	0.767258	11.1398	0.963781	13.9542
0.316714	4.75718	0.124952	1.89954	0.398344	6.08197	0.534482	8.13999	0.644707	9.85602	0.901722	12.8244	0.359129	5.48026	0.518386	7.96654	0.768335	11.0635	0.964714	13.7818
0.318767	4.74721	0.127054	1.90452	0.401446	6.04337	0.536773	8.06051	0.646942	9.7513	0.903337	12.6793	0.363248	5.46541	0.520923	7.89251	0.769192	11.0041	0.965664	13.6141
0.321217	4.7349	0.129155	1.90935	0.4046	6.0066	0.539107	7.98385	0.6492	9.64981	0.90497	12.5383	0.367369	5.451	0.523481	7.82087	0.769825	10.961	0.966632	13.4511
0.324045	4.72009	0.131256	1.91404	0.407805	5.97158	0.541483	7.90991	0.651479	9.55141	0.90662	12.4011	0.371492	5.43701	0.526061	7.75152	0.770231	10.9336	0.967616	13.2925
0.327227	4.70262	0.133356	1.9186	0.411062	5.93826	0.543903	7.83857	0.653779	9.45597	0.908288	12.2676	0.375616	5.42342	0.528662	7.68434	0.770817	10.8946	0.968618	13.1381
0.330342	4.68467	0.135456	1.92303	0.414371	5.90657	0.546365	7.76972	0.656101	9.36338	0.909974	12.1376	0.379741	5.4102	0.531283	7.61926	0.771456	10.8526	0.969638	12.9878
0.333391	4.66625	0.137555	1.92734	0.417732	5.87644	0.548868	7.70326	0.658444	9.27351	0.911677	12.011	0.383866	5.39732	0.533925	7.55618	0.772328	10.7961	0.970675	12.8414
0.336372	4.64737	0.139654	1.93153	0.421145	5.8478	0.551414	7.6391	0.660808	9.18626	0.913397	11.8878	0.387991	5.38478	0.536587	7.49503	0.773438	10.7258	0.971731	12.6988
0.339287	4.62807	0.141752	1.93561	0.424609	5.8206	0.554	7.57713	0.663192	9.10152	0.915134	11.7677	0.392115	5.37255	0.539268	7.43572	0.774788	10.6424	0.972803	12.5599
0.342137	4.60838	0.14385	1.93958	0.428124	5.79478	0.556627	7.51727	0.665597	9.0192	0.916888	11.6507	0.396238	5.36061	0.54197	7.37818	0.776386	10.5467	0.973894	12.4246
0.344922	4.5883	0.145947	1.94345	0.431689	5.77025	0.559295	7.45943	0.668022	8.9392	0.918431	11.5511	0.40036	5.34895	0.54469	7.32234	0.778235	10.4397	0.975004	12.2926
0.347643	4.56789	0.148044	1.94721	0.435301	5.74697	0.562002	7.40354	0.670467	8.86144	0.919755	11.4679	0.404479	5.33755	0.547429	7.26813	0.780102	10.3356	0.976131	12.1639
0.350302	4.54716	0.150141	1.95088	0.438962	5.72488	0.564749	7.34952	0.672931	8.78582	0.920858	11.4003	0.408597	5.3264	0.550187	7.21549	0.781987	10.2342	0.977277	12.0384
0.3529	4.52615	0.152237	1.95445	0.442667	5.7039	0.567534	7.29729	0.675416	8.71228	0.921734	11.3476	0.412711	5.31547	0.552964	7.16436	0.783889	10.1355	0.978441	11.916
0.355439	4.50488	0.154332	1.95794	0.446418	5.68398	0.570357	7.24677	0.677919	8.64073	0.922381	11.3092	0.416823	5.30477	0.555758	7.11469	0.785808	10.0394	0.979624	11.7966
0.357921	4.4834	0.156427	1.96133	0.45021	5.66507	0.573218	7.19792	0.680442	8.5711	0.922796	11.2849	0.42093	5.29427	0.558571	7.06641	0.787744	9.94577	0.98067	11.6948
0.360348	4.46172	0.158522	1.96465	0.454044	5.6471	0.576116	7.15065	0.682984	8.50333	0.923394	11.2501	0.425033	5.28396	0.561401	7.01948	0.789697	9.8545	0.981573	11.6098
0.362721	4.43988	0.160616	1.96788	0.457916	5.63003	0.579051	7.10491	0.685545	8.43734	0.924046	11.2125	0.429132	5.27383	0.564249	6.97385	0.791666	9.76554	0.982327	11.5406
0.365042	4.41791	0.16271	1.97103	0.461826	5.61379	0.582021	7.06064	0.688124	8.37307	0.924937	11.1621	0.433226	5.26386	0.567115	6.92947	0.793653	9.67881	0.982929	11.4866
0.367314	4.39584	0.164803	1.97411	0.465771	5.59834	0.585026	7.01778	0.690722	8.31047	0.926068	11.0991	0.437314	5.25406	0.569997	6.8863	0.795655	9.59422	0.983374	11.4473
0.369538	4.3737	0.166896	1.97712	0.469749	5.58363	0.588067	6.97628	0.693339	8.24947	0.927445	11.0241	0.441396	5.2444	0.572897	6.84429	0.797674	9.5117	0.983661	11.4223
0.371717	4.3515	0.168989	1.98005	0.473759	5.56961	0.59114	6.93608	0.695973	8.19002	0.929071	10.9379	0.445472	5.23488	0.575813	6.8034	0.799709	9.43118	0.984074	11.3866
0.373853	4.32928	0.171081	1.98292	0.477798	5.55624	0.594248	6.89714	0.698625	8.13207	0.930952	10.8411	0.449541	5.22548	0.578746	6.7636	0.80176	9.35261	0.984526	11.3481
0.375947	4.30706	0.173173	1.98572	0.481866	5.54348	0.597388	6.85941	0.701295	8.07557	0.932849	10.7466	0.453603	5.21621	0.581695	6.72484	0.803827	9.2759	0.985144	11.2963
0.378001	4.28486	0.175265	1.98846	0.485959	5.53129	0.60056	6.82284	0.703983	8.02048	0.934762	10.6543	0.457657	5.20704	0.584661	6.6871	0.805909	9.20101	0.985932	11.2317
0.380018	4.2627	0.177356	1.99114	0.490078	5.51963	0.603763	6.78739	0.706688	7.96673	0.936691	10.5641	0.461703	5.19797	0.587643	6.65034	0.808007	9.12787	0.986894	11.1547
0.381999	4.2406	0.179447	1.99376	0.494218	5.50846	0.606997	6.75301	0.709411	7.9143	0.938636	10.4759	0.46574	5.18899	0.590642	6.61453	0.81012	9.05642	0.988038	11.0661
0.383945	4.21858	0.181537	1.99632	0.49838	5.49776	0.610261	6.71968	0.71215	7.86313	0.940596	10.3898	0.469769	5.1801	0.593656	6.57963	0.812249	8.98662	0.989368	10.9665
0.38586	4.19665	0.183628	1.99883	0.502562	5.48749	0.613555	6.68734	0.714907	7.81319	0.942571	10.3055	0.473787	5.17129	0.596686	6.54563	0.814393	8.91841	0.990717	10.8692
0.387743	4.17483	0.185717	2.00128	0.506762	5.47762	0.616877	6.65596	0.717681	7.76445	0.944562	10.2232	0.477796	5.16254	0.599732	6.51248	0.816552	8.85173	0.992086	10.7741
0.389598	4.15314	0.187807	2.00368	0.510978	5.46813	0.620228	6.62551	0.720471	7.71685	0.946568	10.1426	0.481794	5.15386	0.602793	6.48016	0.818726	8.78656	0.993475	10.6811
0.391424	4.13158	0.189896	2.00603	0.51521	5.45899	0.623606	6.59595	0.723278	7.67037	0.948589	10.0638	0.485781	5.14523	0.605871	6.44866	0.820914	8.72283	0.994884	10.5902
0.393225	4.11016	0.191985	2.00833	0.519456	5.45017	0.627011	6.56725	0.726102	7.62498	0.950625	9.98667	0.489757	5.13665	0.608964	6.41793	0.823118	8.6605	0.996313	10.5013
0.395001	4.0889	0.194074	2.01059	0.523715	5.44167	0.630443	6.53938	0.728942	7.58063	0.952675	9.91121	0.49372	5.12811	0.612072	6.38797	0.825336	8.59953	0.997763	10.4143
0.396753	4.06781	0.196162	2.01279	0.527986	5.43344	0.633901	6.51231	0.731799	7.53731	0.954741	9.83734	0.497672	5.11961	0.615196	6.35874	0.827568	8.53989	0.999232	10.3292
0.398483	4.04689	0.19825	2.01496	0.532267	5.42548	0.637383	6.486	0.734671	7.49497	0.956821	9.76503	0.50161	5.11113	0.618336	6.33023	0.829815	8.48153	1.00072	10.2459
0.400192	4.02615	0.200338	2.01708	0.536558	5.41776	0.640891	6.46044	0.73756	7.4536	0.958916	9.69423	0.505535	5.10269	0.621491	6.30242	0.832075	8.42441		
0.401881	4.00559	0.202426	2.01915	0.540857	5.41027	0.644422	6.4356	0.740465	7.41315	0.961025	9.6249	0.509447	5.09426	0.624661	6.27528	0.83435	8.36851		
0.403551	3.98523	0.204513	2.02119	0.545163	5.40299	0.647977	6.41145	0.743385	7.37361	0.963148	9.55699	0.513344	5.08584	0.627847	6.2488	0.836639	8.31377		
0.405204	3.96507	0.2066	2.02319	0.549476	5.39591	0.651555	6.38796	0.746321	7.33495	0.965286	9.49046	0.517226	5.07744	0.631049	6.22296	0.838942	8.26018		
0.40684	3.94511	0.208687	2.02515	0.553795	5.38902	0.655155	6.36511	0.749273	7.29715	0.967438	9.42528	0.521093	5.06904	0.634265	6.19773	0.841259	8.2077		
0.40846	3.92536	0.210774	2.02707	0.558119	5.38229	0.658777	6.34289	0.752241	7.26017	0.969603	9.3614	0.524944	5.06063	0.637498	6.17312	0.84359	8.1563		
0.410065	3.90581	0.21286	2.02895	0.562446	5.37573	0.662421	6.32126	0.755224	7.224	0.971783	9.2988	0.528779	5.05223	0.640745	6.14909	0.845934	8.10594		
0.411656	3.88648	0.214946	2.0308	0.566777	5.36931	0.666085	6.30022	0.758223	7.18862	0.973976	9.23743	0.532597	5.04381	0.644008	6.12563	0.848291	8.05661		
0.413234	3.86736	0.217032	2.03262	0.57111	5.36302	0.66977	6.27973	0.761237	7.154	0.976183	9.17727	0.536398	5.03538	0.647286	6.10273	0.850662	8.00826		
0.4148	3.84846	0.219118	2.0344	0.575446	5.35686	0.673474	6.25978	0.764266	7.12013	0.978403	9.11827	0.540182	5.02693	0.65058	6.08037	0.853047	7.96088		
0.416354	3.82977	0.221203	2.03615	0.579782	5.35082	0.677198	6.24035	0.767311	7.08698	0.980637	9.06042	0.543948	5.01846	0.65389	6.05855	0.855445	7.91445		
0.417897	3.8113	0.223289	2.03787	0.584119	5.34489	0.680941	6.22143	0.770371	7.05453	0.982884	9.00367	0.547694	5.00996	0.657215	6.03724	0.857856	7.86892		
0.419429	3.79304	0.225374	2.03955	0.588455	5.33905	0.684702	6.20299	0.773446	7.02278	0.985144	8.94801	0.551423	5.00144	0.660555	6.01643	0.86028	7.82429		
0.420952	3.77501	0.227458	2.04121	0.592791	5.33331	0.688481	6.18502	0.776536	6.99169	0.987417	8.8934	0.555131	4.99289	0.663911	5.99611	0.862717	7.78052		
0.422466	3.75719	0.229543	2.04284	0.597126	5.32765	0.692277	6.1675	0.779641	6.96125	0.989704	8.83981	0.55882	4.9843	0.667282	5.97627	0.865167	7.73761		
0.423971	3.73959	0.231628	2.04444	0.601459	5.32207	0.696091	6.15042	0.782761	6.93145	0.992003	8.78722	0.562489	4.97567	0.670669	5.9569	0.86763	7.69551		
0.425468	3.72221	0.233712	2.04601	0.605789	5.31656	0.699921	6.13377	0.785897	6.90226	0.994315	8.73561	0.566137	4.96701	0.674071	5.93798	0.870106	7.65422		
0.426958	3.70504	0.235796	2.04755	0.610117	5.31111	0.703768	6.11753	0.789047	6.87369	0.99664	8.68494	0.569764	4.9583	0.677489	5.91951	0.872594	7.61371		
0.428441	3.68809	0.23788	2.04907	0.614441	5.30572	0.70763	6.10169	0.792212	6.8457	0.998977	8.6352	0.573369	4.94954	0.680923	5.90146	0.875096	7.57396		
0.429917	3.67135	0.239964	2.05056	0.618762	5.30038	0.711507	6.08623	0.795392	6.81829	1.00133	8.58636	0.576953	4.94074	0.684372	5.88384	0.87761	7.53496		
0.431387	3.65483	0.242048	2.05203	0.623077	5.29509	0.715399	6.07114	0.798588	6.79144			0.580515	4.9319	0.687836	5.86664	0.880137	7.49669		
0.432852	3.63852	0.244131	2.05348	0.627389	5.28985	0.719306	6.05641	0.801798	6.76513			0.584054	4.923	0.691316	5.84983	0.882676	7.45912		
0.434312	3.62242	0.246214	2.0549	0.631695	5.28464	0.723227	6.04202	0.805023	6.73937			0.587571	4.91405	0.694812	5.83342	0.885228	7.42225		
0.435766	3.60653	0.248297	2.05629	0.635995	5.27947	0.727162	6.02798	0.808263	6.71412			0.591065	4.90504	0.698322	5.81739	0.887792	7.38605		
0.437217	3.59084	0.250381	2.05767	0.64029	5.27432	0.73111	6.01425	0.811518	6.68939			0.594535	4.89599	0.701848	5.80173	0.890368	7.35051		
0.438663	3.57536	0.252463	2.05902	0.644578	5.2692	0.735072	6.00085	0.814789	6.66516			0.597981	4.88688	0.705389	5.78644	0.892957	7.31561		
0.440105	3.56008	0.254546	2.06035	0.648859	5.26411	0.739045	5.98774	0.818074	6.64141			0.601404	4.87771	0.708946	5.7715	0.895559	7.28134		
0.441544	3.545	0.256629	2.06166	0.653133	5.25903	0.743031	5.97493	0.821374	6.61815			0.604803	4.86849	0.712517	5.75691	0.898172	7.24769		
0.44298	3.53012	0.258711	2.06295	0.657399	5.25397	0.747029	5.96241	0.824689	6.59535			0.608177	4.85921	0.716103	5.74266	0.900798	7.21464		
0.444413	3.51544	0.260793	2.06421	0.661657	5.24892	0.751038	5.95016	0.82802	6.57301			0.611527	4.84987	0.719704	5.72873	0.903436	7.18217		
0.445843	3.50095	0.262875	2.06546	0.665908	5.24388	0.755059	5.93818	0.831365	6.55112			0.614853	4.84048	0.72332	5.71513	0.906087	7.15028		
0.447271	3.48666	0.264958	2.06669	0.670149	5.23884	0.75909	5.92646	0.834726	6.52966			0.618153	4.83102	0.72695	5.70184	0.908749	7.11895		
0.448697	3.47255	0.267039	2.0679	0.674382	5.23381	0.763131	5.91499	0.838102	6.50863			0.621429	4.82152	0.730595	5.68885	0.911424	7.08817		
0.450121	3.45864	0.269121	2.0691	0.678606	5.22878	0.767183	5.90376	0.841494	6.48803			0.62468	4.81196	0.734253	5.67616	0.91411	7.05792		
0.451544	3.44491	0.271203	2.07027	0.682819	5.22375	0.771244	5.89276	0.844901	6.46783			0.627906	4.80234	0.737926	5.66376	0.916809	7.0282		
0.452965	3.43136	0.273284	2.07143	0.687024	5.21871	0.775315	5.88199	0.848323	6.44804			0.631106	4.79266	0.741612	5.65164	0.919519	6.99899		
0.454385	3.41799	0.275366	2.07257	0.691217	5.21367	0.779395	5.87144	0.851761	6.42865			0.634282	4.78294	0.745312	5.63979	0.922242	6.97028		
0.455805	3.40481	0.277447	2.07369	0.695401	5.20862	0.783483	5.8611	0.855214	6.40964			0.637432	4.77316	0.749025	5.62821	0.924977	6.94207		
0.457223	3.3918	0.279528	2.0748	0.699574	5.20356	0.787579	5.85097	0.858683	6.39101			0.640557	4.76333	0.752752	5.61688	0.927723	6.91433		
0.458641	3.37896	0.281609	2.07589	0.703735	5.19849	0.791684	5.84103	0.862168	6.37276			0.643657	4.75345	0.756491	5.60581	0.930482	6.88707		
0.460058	3.36629	0.28369	2.07696	0.707886	5.19341	0.795796	5.83129	0.865669	6.35487			0.646732	4.74351	0.760242	5.59498	0.933252	6.86027		
0.461475	3.3538	0.285771	2.07802	0.712025	5.18831	0.799916	5.82173	0.869186	6.33734			0.649781	4.73353	0.764006	5.58439	0.936034	6.83391		
0.462892	3.34147	0.287852	2.07907	0.716152	5.1832	0.804042	5.81235	0.872718	6.32016			0.652806	4.72351	0.767782	5.57403	0.938829	6.808		
0.464309	3.32931	0.289933	2.0801	0.720267	5.17806	0.808175	5.80314	0.876267	6.30333			0.655805	4.71344	0.771569	5.56389	0.941634	6.78253		
0.465726	3.31731	0.292013	2.08112	0.72437	5.17291	0.812315	5.7941	0.879832	6.28684			0.65878	4.70332	0.775368	5.55397	0.944452	6.75747		
0.467143	3.30547	0.294094	2.08212	0.72846	5.16774	0.81646	5.78522	0.883413	6.27069			0.66173	4.69317	0.779178	5.54426	0.947282	6.73283		
0.468561	3.29379	0.296174	2.08311	0.732538	5.16254	0.820611	5.7765	0.887011	6.25486			0.664656	4.68297	0.782998	5.53475	0.950123	6.7086		
0.46998	3.28226	0.298254	2.08408	0.736603	5.15733	0.824767	5.76793	0.890625	6.23935			0.667557	4.67274	0.786829	5.52544	0.952976	6.68477		
0.471399	3.27089	0.300335	2.08504	0.740654	5.15208	0.828929	5.7595	0.894255	6.22416			0.670434	4.66247	0.79067	5.51632	0.955841	6.66133		
0.472819	3.25967	0.302415	2.08599	0.744692	5.14682	0.833094	5.75122	0.897902	6.20928			0.673286	4.65216	0.79452	5.50738	0.958717	6.63828		
0.47424	3.2486	0.304495	2.08693	0.748717	5.14152	0.837264	5.74307	0.901566	6.1947			0.676115	4.64183	0.798381	5.49863	0.961605	6.61559		
0.475662	3.23767	0.306575	2.08785	0.752728	5.1362	0.841439	5.73505	0.905247	6.18043			0.67892	4.63146	0.80225	5.49005	0.964505	6.59328		
0.477084	3.22689	0.308654	2.08876	0.756724	5.13086	0.845616	5.72715	0.908945	6.16645			0.681701	4.62106	0.806127	5.48163	0.967416	6.57133		
0.478509	3.21626	0.310734	2.08966	0.760707	5.12548	0.849797	5.71938	0.91266	6.15276			0.684459	4.61064	0.810013	5.47338	0.970339	6.54973		
0.479934	3.20576	0.312814	2.09055	0.764675	5.12008	0.853982	5.71172	0.916392	6.13936			0.687194	4.60019	0.813907	5.46528	0.973273	6.52848		
0.481361	3.19541	0.314893	2.09142	0.768629	5.11464	0.858169	5.70418	0.920141	6.12623			0.689906	4.58972	0.817808	5.45734	0.976219	6.50757		
0.482789	3.18519	0.316973	2.09229	0.772568	5.10918	0.862358	5.69675	0.923907	6.11339			0.692596	4.57923	0.821716	5.44954	0.979177	6.487		
0.484219	3.1751	0.319052	2.09314	0.776492	5.10368	0.866549	5.68942	0.927691	6.10081			0.695263	4.56872	0.825632	5.44188	0.982146	6.46675		
0.48565	3.16515	0.321132	2.09398	0.780401	5.09816	0.870743	5.68219	0.931492	6.0885			0.697907	4.55819	0.829553	5.43435	0.985126	6.44683		
0.487083	3.15533	0.323211	2.09481	0.784295	5.0926	0.874938	5.67506	0.93531	6.07646			0.70053	4.54764	0.833481	5.42696	0.988118	6.42722		
0.488517	3.14564	0.32529	2.09563	0.788174	5.08701	0.879134	5.66803	0.939146	6.06467			0.703131	4.53709	0.837415	5.4197	0.991121	6.40792		
0.489954	3.13607	0.327369	2.09644	0.792038	5.08139	0.883331	5.66108	0.943	6.05314			0.70571	4.52652	0.841353	5.41255	0.994136	6.38893		
0.491392	3.12663	0.329448	2.09725	0.795886	5.07574	0.887529	5.65422	0.946871	6.04185			0.708269	4.51594	0.845297	5.40552	0.997162	6.37023		
0.492832	3.11731	0.331527	2.09804	0.799718	5.07005	0.891727	5.64745	0.950759	6.03081			0.710806	4.50536	0.849246	5.39861	1.0002	6.35183		
0.494274	3.10812	0.333606	2.09882	0.803534	5.06434	0.895926	5.64076	0.954666	6.02001			0.713323	4.49476	0.853198	5.3918				
0.495718	3.09904	0.335685	2.09959	0.807335	5.05859	0.900124	5.63414	0.95859	6.00945			0.715819	4.48417	0.857155	5.3851				
0.497164	3.09008	0.337764	2.10035	0.81112	5.0528	0.904322	5.6276	0.962531	5.99912			0.718296	4.47357	0.861115	5.37849				
0.498612	3.08124	0.339843	2.1011	0.814888	5.04699	0.90852	5.62113	0.966491	5.98902			0.720752	4.46297	0.865078	5.37199				
0.500062	3.07251	0.341921	2.10185	0.818641	5.04114	0.912717	5.61473	0.970468	5.97914			0.723189	4.45238	0.869044	5.36557				
0.501514	3.0639	0.344	2.10258	0.822377	5.03525	0.916913	5.6084	0.974462	5.96949			0.725607	4.44178	0.873013	5.35925				
0.502969	3.05539	0.346078	2.10331	0.826097	5.02934	0.921108	5.60213	0.978474	5.96005			0.728005	4.43119	0.876984	5.35301				
0.504425	3.04699	0.348157	2.10403	0.8298	5.02339	0.925301	5.59593	0.982504	5.95082			0.730385	4.42061	0.880956	5.34685				
0.505884	3.0387	0.350235	2.10474	0.833487	5.01741	0.929493	5.58978	0.986551	5.9418			0.732746	4.41003	0.88493	5.34077				
0.507346	3.03052	0.352314	2.10544	0.837158	5.0114	0.933683	5.5837	0.990615	5.93299			0.73509	4.39947	0.888906	5.33476				
0.508809	3.02244	0.354392	2.10613	0.840812	5.00536	0.937872	5.57767	0.994697	5.92438			0.737415	4.38891	0.892882	5.32883				
0.510275	3.01447	0.35647	2.10682	0.844449	4.99929	0.942058	5.57169	0.998796	5.91596			0.739722	4.37836	0.896858	5.32296				
0.511743	3.00659	0.358548	2.1075	0.84807	4.99318	0.946242	5.56577	1.00291	5.90774			0.742013	4.36783	0.900835	5.31716				
0.513214	2.99882	0.360626	2.10817	0.851674	4.98704	0.950424	5.55989					0.744286	4.35732	0.904811	5.31142				
0.514687	2.99114	0.362704	2.10883	0.855261	4.98087	0.954603	5.55407					0.746542	4.34682	0.908787	5.30574				
0.516162	2.98356	0.364782	2.10948	0.858831	4.97467	0.95878	5.5483					0.748782	4.33633	0.912762	5.30012				
0.51764	2.97608	0.36686	2.11013	0.862385	4.96845	0.962954	5.54257					0.751006	4.32587	0.916736	5.29455				
0.51912	2.96868	0.368938	2.11077	0.865922	4.96219	0.967126	5.53689					0.753213	4.31543	0.920709	5.28904				
0.520603	2.96139	0.371016	2.1114	0.869442	4.9559	0.971294	5.53125					0.755405	4.305	0.92468	5.28357				
0.522089	2.95418	0.373094	2.11203	0.872946	4.94958	0.97546	5.52565					0.757581	4.2946	0.928649	5.27815				
0.523576	2.94706	0.375171	2.11265	0.876432	4.94324	0.979622	5.5201					0.759742	4.28423	0.932616	5.27277				
0.525067	2.94003	0.377249	2.11326	0.879902	4.93687	0.983782	5.51459					0.761889	4.27388	0.93658	5.26744				
0.52656	2.93309	0.379327	2.11387	0.883355	4.93047	0.987938	5.50911					0.76402	4.26355	0.940541	5.26214				
0.528055	2.92623	0.381404	2.11447	0.886791	4.92404	0.992092	5.50368					0.766137	4.25325	0.944499	5.25688				
0.529553	2.91946	0.383482	2.11506	0.890211	4.91759	0.996241	5.49828					0.76824	4.24298	0.948454	5.25166				
0.531054	2.91277	0.385559	2.11565	0.893614	4.91111	1.00039	5.49292					0.770329	4.23273	0.952405	5.24647				
0.532557	2.90616	0.387637	2.11623	0.897	4.9046							0.772404	4.22252	0.956352	5.24132				
0.534062	2.89964	0.389714	2.1168	0.900369	4.89807							0.774466	4.21234	0.960295	5.23619				
0.535571	2.89319	0.391792	2.11737	0.903722	4.89152							0.776515	4.20218	0.964233	5.23109				
0.537082	2.88682	0.393869	2.11793	0.907058	4.88495							0.77855	4.19206	0.968167	5.22601				
0.538595	2.88053	0.395946	2.11849	0.910378	4.87835							0.780573	4.18198	0.972095	5.22096				
0.540111	2.87432	0.398023	2.11904	0.913681	4.87172							0.782584	4.17192	0.976019	5.21593				
0.54163	2.86818	0.400101	2.11958	0.916968	4.86508							0.784582	4.16191	0.979937	5.21093				
0.543151	2.86211	0.402178	2.12012	0.920238	4.85841							0.786568	4.15192	0.983849	5.20594				
0.544675	2.85612	0.404255	2.12066	0.923492	4.85173							0.788543	4.14197	0.987755	5.20097				
0.546201	2.8502	0.406332	2.12118	0.92673	4.84502							0.790506	4.13206	0.991655	5.19601				
0.54773	2.84435	0.408409	2.12171	0.929951	4.8383							0.792458	4.12219	0.995549	5.19107				
0.549262	2.83857	0.410486	2.12223	0.933156	4.83155							0.794398	4.11235	0.999436	5.18615				
0.550796	2.83286	0.412563	2.12274	0.936346	4.82479							0.796328	4.10256	1.00332	5.18123				
0.552333	2.82722	0.41464	2.12325	0.939519	4.81801							0.798247	4.0928						
0.553872	2.82164	0.416716	2.12375	0.942676	4.81121							0.800156	4.08308						
0.555414	2.81613	0.418793	2.12425	0.945817	4.8044							0.802054	4.0734						
0.556958	2.81068	0.42087	2.12474	0.948942	4.79757							0.803942	4.06376						
0.558506	2.8053	0.422947	2.12523	0.952051	4.79072							0.805821	4.05416						
0.560055	2.79998	0.425023	2.12571	0.955145	4.78386							0.80769	4.04461						
0.561607	2.79472	0.4271	2.12619	0.958223	4.77699							0.809549	4.03509						
0.563162	2.78953	0.429177	2.12666	0.961286	4.7701							0.8114	4.02562						
0.56472	2.78439	0.431253	2.12713	0.964333	4.7632							0.813241	4.01619						
0.56628	2.77931	0.43333	2.1276	0.967365	4.75628							0.815073	4.00681						
0.567842	2.7743	0.435406	2.12806	0.970381	4.74936							0.816897	3.99746						
0.569407	2.76934	0.437483	2.12851	0.973382	4.74242							0.818713	3.98816						
0.570975	2.76443	0.439559	2.12897	0.976368	4.73547							0.82052	3.97891						
0.572545	2.75959	0.441636	2.12941	0.979339	4.72851							0.822319	3.9697						
0.574117	2.7548	0.443712	2.12986	0.982295	4.72155							0.82411	3.96053						
0.575693	2.75006	0.445789	2.1303	0.985236	4.71457							0.825893	3.95141						
0.57727	2.74538	0.447865	2.13073	0.988162	4.70758							0.827668	3.94233						
0.57885	2.74075	0.449941	2.13116	0.991073	4.70059							0.829437	3.9333						
0.580433	2.73617	0.452017	2.13159	0.99397	4.69359							0.831198	3.92431						
0.582018	2.73165	0.454094	2.13202	0.996852	4.68658							0.832952	3.91537						
0.583605	2.72717	0.45617	2.13244	0.999719	4.67956							0.834699	3.90647						
0.585195	2.72275	0.458246	2.13285	1.00257	4.67254							0.836439	3.89762						
0.586788	2.71837	0.460322	2.13326									0.838173	3.88881						
0.588383	2.71405	0.462398	2.13367									0.8399	3.88006						
0.58998	2.70977	0.464474	2.13408									0.841621	3.87134						
0.59158	2.70554	0.46655	2.13448									0.843335	3.86268						
0.593182	2.70136	0.468626	2.13488									0.845044	3.85406						
0.594787	2.69722	0.470702	2.13527									0.846747	3.84548						
0.596394	2.69313	0.472778	2.13566									0.848444	3.83695						
0.598003	2.68908	0.474854	2.13605									0.850136	3.82847						
0.599615	2.68508	0.47693	2.13643									0.851822	3.82004						
0.601229	2.68112	0.479006	2.13681									0.853503	3.81165						
0.602845	2.67721	0.481082	2.13719									0.855178	3.80331						
0.604464	2.67333	0.483157	2.13757									0.856849	3.79501						
0.606085	2.6695	0.485233	2.13794									0.858514	3.78676						
0.607708	2.66571	0.487309	2.1383									0.860175	3.77856						
0.609334	2.66197	0.489385	2.13867									0.861831	3.7704						
0.610962	2.65826	0.49146	2.13903									0.863483	3.76229						
0.612592	2.65459	0.493536	2.13939									0.86513	3.75423						
0.614225	2.65096	0.495612	2.13975									0.866772	3.74621						
0.61586	2.64737	0.497687	2.1401									0.868411	3.73824						
0.617497	2.64382	0.499763	2.14045									0.870045	3.73031						
0.619136	2.64031	0.501838	2.14079									0.871676	3.72243						
0.620778	2.63683	0.503914	2.14114									0.873302	3.7146						
0.622421	2.63339	0.50599	2.14148									0.874925	3.70681						
0.624067	2.62999	0.508065	2.14182									0.876544	3.69907						
0.625716	2.62662	0.51014	2.14215									0.878159	3.69137						
0.627366	2.62329	0.512216	2.14249									0.879771	3.68372						
0.629018	2.61999	0.514291	2.14282									0.881379	3.67612						
0.630673	2.61673	0.516367	2.14315									0.882985	3.66856						
0.63233	2.6135	0.518442	2.14347									0.884587	3.66104						
0.633989	2.6103	0.520517	2.14379									0.886185	3.65357						
0.63565	2.60714	0.522593	2.14411									0.887781	3.64614						
0.637313	2.60401	0.524668	2.14443									0.889374	3.63876						
0.638978	2.60092	0.526743	2.14474									0.890964	3.63142						
0.640646	2.59785	0.528819	2.14506									0.892552	3.62413						
0.642315	2.59482	0.530894	2.14537									0.894136	3.61688						
0.643987	2.59181	0.532969	2.14567									0.895718	3.60968						
0.64566	2.58884	0.535044	2.14598									0.897298	3.60252						
0.647336	2.5859	0.537119	2.14628									0.898875	3.5954						
0.649013	2.58299	0.539195	2.14658									0.90045	3.58833						
0.650693	2.58011	0.54127	2.14688									0.902022	3.58129						
0.652375	2.57725	0.543345	2.14718									0.903592	3.57431						
0.654058	2.57443	0.54542	2.14747									0.90516	3.56736						
0.655744	2.57163	0.547495	2.14776									0.906726	3.56046						
0.657432	2.56887	0.54957	2.14805									0.90829	3.5536						
0.659121	2.56613	0.551645	2.14834									0.909852	3.54678						
0.660813	2.56341	0.55372	2.14862									0.911412	3.54001						
0.662506	2.56073	0.555795	2.14891									0.912971	3.53328						
0.664202	2.55807	0.55787	2.14919									0.914527	3.52658						
0.665899	2.55543	0.559945	2.14946									0.916082	3.51993						
0.667598	2.55283	0.56202	2.14974									0.917636	3.51332						
0.669299	2.55025	0.564095	2.15002									0.919188	3.50676						
0.671002	2.54769	0.56617	2.15029									0.920738	3.50023						
0.672707	2.54516	0.568244	2.15056									0.922287	3.49374						
0.674414	2.54266	0.570319	2.15083									0.923834	3.4873						
0.676122	2.54017	0.572394	2.15109									0.92538	3.48089						
0.677833	2.53772	0.574469	2.15136									0.926925	3.47453						
0.679545	2.53528	0.576544	2.15162									0.928469	3.4682						
0.681259	2.53287	0.578618	2.15188									0.930011	3.46191						
0.682975	2.53049	0.580693	2.15214									0.931553	3.45567						
0.684692	2.52813	0.582768	2.1524									0.933093	3.44946						
0.686412	2.52578	0.584842	2.15265									0.934633	3.44329						
0.688133	2.52347	0.586917	2.1529									0.936171	3.43716						
0.689856	2.52117	0.588992	2.15316									0.937708	3.43107						
0.691581	2.5189	0.591066	2.15341									0.939245	3.42501						
0.693307	2.51665	0.593141	2.15365									0.940781	3.419						
0.695035	2.51441	0.595216	2.1539									0.942316	3.41302						
0.696765	2.51221	0.59729	2.15414									0.94385	3.40708						
0.698497	2.51002	0.599365	2.15439									0.945383	3.40118						
0.70023	2.50785	0.601439	2.15463									0.946916	3.39531						
0.701965	2.5057	0.603514	2.15487									0.948448	3.38948						
0.703702	2.50357	0.605588	2.15511									0.94998	3.38369						
0.70544	2.50147	0.607663	2.15534									0.951511	3.37793						
0.70718	2.49938	0.609737	2.15558									0.953042	3.37221						
0.708921	2.49731	0.611812	2.15581									0.954572	3.36653						
0.710665	2.49526	0.613886	2.15604									0.956102	3.36088						
0.71241	2.49323	0.615961	2.15627									0.957631	3.35527						
0.714156	2.49122	0.618035	2.1565									0.95916	3.34969						
0.715904	2.48923	0.62011	2.15673									0.960689	3.34415						
0.717654	2.48726	0.622184	2.15695									0.962218	3.33864						
0.719405	2.4853	0.624258	2.15718									0.963746	3.33317						
0.721158	2.48336	0.626333	2.1574									0.965274	3.32773						
0.722912	2.48144	0.628407	2.15762									0.966801	3.32232						
0.724668	2.47954	0.630481	2.15784									0.968329	3.31695						
0.726426	2.47766	0.632556	2.15806									0.969857	3.31162						
0.728185	2.47579	0.63463	2.15827									0.971384	3.30631						
0.729945	2.47394	0.636704	2.15849									0.972911	3.30104						
0.731708	2.4721	0.638778	2.1587									0.974439	3.29581						
0.733471	2.47029	0.640853	2.15891									0.975966	3.2906						
0.735236	2.46848	0.642927	2.15912									0.977493	3.28543						
0.737003	2.4667	0.645001	2.15933									0.979021	3.28029						
0.738771	2.46493	0.647075	2.15954									0.980548	3.27519						
0.74054	2.46318	0.649149	2.15975									0.982076	3.27011						
0.742311	2.46144	0.651224	2.15995									0.983603	3.26507						
0.744084	2.45972	0.653298	2.16016									0.985131	3.26006						
0.745858	2.45801	0.655372	2.16036									0.986659	3.25508						
0.747633	2.45632	0.657446	2.16056									0.988187	3.25013						
0.74941	2.45465	0.65952	2.16076									0.989716	3.24521						
0.751188	2.45298	0.661594	2.16096									0.991244	3.24033						
0.752968	2.45134	0.663668	2.16116									0.992773	3.23547						
0.754749	2.4497	0.665742	2.16135									0.994302	3.23064						
0.756531	2.44809	0.667816	2.16155									0.995832	3.22585						
0.758315	2.44648	0.66989	2.16174									0.997361	3.22108						
0.7601	2.44489	0.671964	2.16194									0.998891	3.21635						
0.761886	2.44332	0.674038	2.16213									1.00042	3.21164						
0.763674	2.44175	0.676112	2.16232																
0.765464	2.44021	0.678186	2.16251																
0.767254	2.43867	0.68026	2.1627																
0.769046	2.43715	0.682334	2.16288																
0.770839	2.43564	0.684408	2.16307																
0.772634	2.43414	0.686482	2.16325																
0.774429	2.43266	0.688556	2.16344																
0.776227	2.43119	0.69063	2.16362																
0.778025	2.42973	0.692703	2.1638																
0.779825	2.42829	0.694777	2.16398																
0.781626	2.42686	0.696851	2.16416																
0.783428	2.42544	0.698925	2.16434																
0.785231	2.42403	0.700999	2.16451																
0.787036	2.42263	0.703072	2.16469																
0.788842	2.42125	0.705146	2.16486																
0.790649	2.41987	0.70722	2.16504																
0.792458	2.41851	0.709294	2.16521																
0.794267	2.41716	0.711367	2.16538																
0.796078	2.41582	0.713441	2.16555																
0.79789	2.41449	0.715515	2.16572																
0.799703	2.41318	0.717589	2.16589																
0.801518	2.41187	0.719662	2.16606																
0.803334	2.41058	0.721736	2.16623																
0.80515	2.40929	0.723809	2.16639																
0.806968	2.40802	0.725883	2.16656																
0.808788	2.40676	0.727957	2.16672																
0.810608	2.4055	0.73003	2.16688																
0.812429	2.40426	0.732104	2.16705																
0.814252	2.40303	0.734177	2.16721																
0.816076	2.40181	0.736251	2.16737																
0.8179	2.4006	0.738325	2.16753																
0.819726	2.39939	0.740398	2.16768																
0.821553	2.3982	0.742472	2.16784																
0.823382	2.39702	0.744545	2.168																
0.825211	2.39585	0.746619	2.16815																
0.827041	2.39468	0.748692	2.16831																
0.828873	2.39353	0.750766	2.16846																
0.830705	2.39238	0.752839	2.16862																
0.832539	2.39125	0.754912	2.16877																
0.834374	2.39012	0.756986	2.16892																
0.836209	2.389	0.759059	2.16907																
0.838046	2.3879	0.761133	2.16922																
0.839884	2.3868	0.763206	2.16937																
0.841723	2.38571	0.76528	2.16952																
0.843563	2.38462	0.767353	2.16966																
0.845404	2.38355	0.769426	2.16981																
0.847245	2.38248	0.7715	2.16995																
0.849088	2.38143	0.773573	2.1701																
0.850932	2.38038	0.775646	2.17024																
0.852777	2.37934	0.77772	2.17039																
0.854623	2.37831	0.779793	2.17053																
0.85647	2.37728	0.781866	2.17067																
0.858318	2.37627	0.783939	2.17081																
0.860167	2.37526	0.786013	2.17095																
0.862017	2.37426	0.788086	2.17109																
0.863868	2.37327	0.790159	2.17123																
0.86572	2.37228	0.792232	2.17137																
0.867572	2.3713	0.794306	2.1715																
0.869426	2.37033	0.796379	2.17164																
0.871281	2.36937	0.798452	2.17178																
0.873136	2.36842	0.800525	2.17191																
0.874993	2.36747	0.802598	2.17205																
0.87685	2.36653	0.804671	2.17218																
0.878709	2.3656	0.806744	2.17231																
0.880568	2.36467	0.808818	2.17244																
0.882428	2.36375	0.810891	2.17258																
0.884289	2.36284	0.812964	2.17271																
0.886151	2.36194	0.815037	2.17284																
0.888014	2.36104	0.81711	2.17297																
0.889878	2.36015	0.819183	2.17309																
0.891743	2.35926	0.821256	2.17322																
0.893608	2.35839	0.823329	2.17335																
0.895475	2.35751	0.825402	2.17348																
0.897342	2.35665	0.827475	2.1736																
0.89921	2.35579	0.829548	2.17373																
0.901079	2.35494	0.831621	2.17385																
0.902949	2.3541	0.833694	2.17398																
0.90482	2.35326	0.835767	2.1741																
0.906691	2.35242	0.83784	2.17422																
0.908564	2.3516	0.839913	2.17435																
0.910437	2.35078	0.841986	2.17447																
0.912311	2.34996	0.844059	2.17459																
0.914186	2.34915	0.846132	2.17471																
0.916061	2.34835	0.848205	2.17483																
0.917938	2.34755	0.850278	2.17495																
0.919815	2.34676	0.85235	2.17507																
0.921693	2.34598	0.854423	2.17518																
0.923572	2.3452	0.856496	2.1753																
0.925452	2.34443	0.858569	2.17542																
0.927332	2.34366	0.860642	2.17553																
0.929214	2.3429	0.862715	2.17565																
0.931096	2.34214	0.864787	2.17577																
0.932979	2.34139	0.86686	2.17588																
0.934862	2.34064	0.868933	2.17599																
0.936747	2.3399	0.871006	2.17611																
0.938632	2.33917	0.873079	2.17622																
0.940518	2.33844	0.875151	2.17633																
0.942404	2.33771	0.877224	2.17644																
0.944292	2.33699	0.879297	2.17656																
0.94618	2.33628	0.88137	2.17667																
0.948069	2.33557	0.883442	2.17678																
0.949958	2.33487	0.885515	2.17689																
0.951849	2.33417	0.887588	2.177																
0.95374	2.33347	0.88966	2.1771																
0.955632	2.33279	0.891733	2.17721																
0.957524	2.3321	0.893806	2.17732																
0.959417	2.33142	0.895878	2.17743																
0.961311	2.33075	0.897951	2.17753																
0.963206	2.33008	0.900024	2.17764																
0.965101	2.32941	0.902096	2.17775																
0.966997	2.32875	0.904169	2.17785																
0.968894	2.3281	0.906241	2.17795																
0.970792	2.32745	0.908314	2.17806																
0.97269	2.3268	0.910386	2.17816																
0.974589	2.32616	0.912459	2.17827																
0.976488	2.32552	0.914532	2.17837																
0.978388	2.32489	0.916604	2.17847																
0.980289	2.32426	0.918677	2.17857																
0.982191	2.32363	0.920749	2.17867																
0.984093	2.32301	0.922822	2.17877																
0.985996	2.3224	0.924894	2.17887																
0.987899	2.32178	0.926967	2.17897																
0.989804	2.32118	0.929039	2.17907																
0.991708	2.32057	0.931112	2.17917																
0.993614	2.31997	0.933184	2.17927																
0.99552	2.31938	0.935256	2.17937																
0.997427	2.31879	0.937329	2.17947																
0.999334	2.3182	0.939401	2.17956																
1.00124	2.31762	0.941474	2.17966																
		0.943546	2.17976																
		0.945618	2.17985																
		0.947691	2.17995																
		0.949763	2.18004																
		0.951836	2.18014																
		0.953908	2.18023																
		0.95598	2.18032																
		0.958053	2.18042																
		0.960125	2.18051																
		0.962197	2.1806																
		0.964269	2.18069																
		0.966342	2.18078																
		0.968414	2.18088																
		0.970486	2.18097																
		0.972558	2.18106																
		0.974631	2.18115																
		0.976703	2.18124																
		0.978775	2.18132																
		0.980847	2.18141																
		0.98292	2.1815																
		0.984992	2.18159																
		0.987064	2.18168																
		0.989136	2.18176																
		0.991208	2.18185																
		0.99328	2.18194																
		0.995353	2.18202																
		0.997425	2.18211																
		0.999497	2.18219																
		1.00157	2.18228																
