Sym0		Asym0		Sym1		Sym2		Sym3		Sym4		Asym1		Asym2		Asym3	
467  Points		496  Points		221  Points		186  Points		172  Points		122  Points		334  Points		199  Points		162  Points	
Freq (MHz)	Vph (m/ms)	Freq (MHz)	Vph (m/ms)	Freq (MHz)	Vph (m/ms)	Freq (MHz)	Vph (m/ms)	Freq (MHz)	Vph (m/ms)	Freq (MHz)	Vph (m/ms)	Freq (MHz)	Vph (m/ms)	Freq (MHz)	Vph (m/ms)	Freq (MHz)	Vph (m/ms)
0.00366877	5.52717	5.96557e-005	0.0691596	0.279529	398.739	0.473202	1284.81	0.559028	860.474	0.838527	2613.68	0.139832	174.992	0.419266	1331.69	0.698773	2251.28
0.00881824	5.52707	0.000257523	0.143525	0.27962	171.259	0.473223	364.017	0.559083	353.543	0.83855	669.491	0.140116	80.9563	0.419311	336.382	0.698799	562.602
0.0139672	5.52685	0.000592222	0.217252	0.279783	109.102	0.473267	212.066	0.559183	222.51	0.8386	383.937	0.140609	52.8117	0.419411	192.547	0.698857	321.494
0.0191154	5.52651	0.00106083	0.29003	0.280018	80.0941	0.473335	149.629	0.559328	162.371	0.838677	269.16	0.141307	39.3157	0.419565	134.912	0.698945	225.069
0.0242625	5.52607	0.00165942	0.361581	0.280326	63.3102	0.473426	115.608	0.559519	127.848	0.838782	207.229	0.142205	31.4205	0.419773	103.863	0.699066	173.157
0.0294082	5.52552	0.00238313	0.431644	0.280705	52.3751	0.473542	94.2038	0.559756	105.452	0.838913	168.48	0.143298	26.2568	0.420035	84.4579	0.699217	140.72
0.0345522	5.52487	0.00322632	0.499992	0.281155	44.6902	0.473681	79.497	0.560037	89.7518	0.839072	141.951	0.14458	22.6286	0.420351	71.1856	0.6994	118.531
0.0396942	5.52411	0.0041828	0.566433	0.281676	38.9976	0.473844	68.771	0.560364	78.1372	0.839257	122.65	0.146044	19.9488	0.420721	61.5386	0.699614	102.399
0.0448339	5.52324	0.00524586	0.630805	0.282267	34.6145	0.474031	60.6034	0.560736	69.199	0.83947	107.979	0.147682	17.8952	0.421145	54.2126	0.699859	90.1422
0.0499709	5.52225	0.00640869	0.692994	0.282928	31.1379	0.474243	54.1772	0.561152	62.1092	0.83971	96.451	0.149487	16.2764	0.421622	48.4618	0.700136	80.5157
0.0551051	5.52116	0.00766433	0.752916	0.283657	28.3148	0.47448	48.9899	0.561613	56.3494	0.839977	87.1546	0.151452	14.9715	0.422152	43.829	0.700443	72.7556
0.0602359	5.51994	0.00900582	0.810516	0.284455	25.9784	0.474742	44.7155	0.562119	51.5785	0.84027	79.4998	0.153566	13.9003	0.422735	40.0185	0.700782	66.368
0.0653631	5.51862	0.0104264	0.865766	0.28532	24.0141	0.475029	41.1329	0.562669	47.5628	0.840591	73.0875	0.155824	13.0076	0.423371	36.8303	0.701152	61.0189
0.0704863	5.51717	0.0119194	0.91867	0.286252	22.3406	0.475342	38.0873	0.563263	44.1369	0.840939	67.6384	0.158216	12.2543	0.424059	34.1244	0.701552	56.4747
0.0756052	5.51561	0.0134785	0.969238	0.287249	20.8988	0.475681	35.4667	0.5639	41.1804	0.841313	62.9511	0.160736	11.6115	0.4248	31.7998	0.701984	52.5668
0.0807194	5.51392	0.0150978	1.01751	0.288311	19.6444	0.476047	33.1885	0.564581	38.6036	0.841715	58.8766	0.163376	11.058	0.425592	29.7819	0.702446	49.1709
0.0858284	5.51211	0.0167717	1.06354	0.289436	18.5439	0.476439	31.1899	0.565306	36.3382	0.842143	55.3025	0.165769	10.6355	0.426436	28.0145	0.702939	46.1928
0.090932	5.51017	0.0184949	1.10739	0.290624	17.5711	0.476859	29.4228	0.566073	34.3314	0.842598	52.1421	0.167873	10.3125	0.42733	26.4541	0.703463	43.5602
0.0960296	5.50809	0.0202627	1.14913	0.291873	16.7056	0.477307	27.8495	0.566883	32.5417	0.843079	49.3279	0.169655	10.068	0.428276	25.0669	0.704018	41.2167
0.101121	5.50589	0.0220704	1.18883	0.293182	15.931	0.477783	26.4399	0.567735	30.9361	0.843587	46.8061	0.171091	9.88771	0.429272	23.8259	0.704603	39.1172
0.106205	5.50354	0.0239141	1.22658	0.294551	15.2341	0.478288	25.1702	0.56863	29.4878	0.844122	44.5336	0.172161	9.76183	0.430318	22.7096	0.705218	37.2259
0.111283	5.50105	0.0257899	1.26247	0.295978	14.6042	0.478823	24.0205	0.569566	28.175	0.844684	42.4754	0.172852	9.68409	0.431413	21.7004	0.705863	35.5134
0.116352	5.49841	0.0276944	1.29656	0.297461	14.0323	0.479388	22.975	0.570543	26.9799	0.845271	40.6027	0.173854	9.57599	0.432558	20.7839	0.706539	33.9557
0.121413	5.49562	0.0296246	1.32896	0.299	13.5111	0.479983	22.0203	0.571562	25.8875	0.845885	38.8916	0.174954	9.46314	0.433751	19.9482	0.707245	32.5329
0.126466	5.49267	0.0315775	1.35974	0.300593	13.0343	0.480609	21.1452	0.572621	24.8854	0.846526	37.3223	0.176468	9.31699	0.434992	19.1833	0.707981	31.2284
0.131509	5.48956	0.0335509	1.38898	0.302239	12.5968	0.481268	20.3404	0.57372	23.9629	0.847193	35.8779	0.178412	9.14333	0.436281	18.4808	0.708747	30.0281
0.136542	5.48629	0.0355422	1.41678	0.303938	12.194	0.481959	19.5979	0.57486	23.1111	0.847885	34.5443	0.180805	8.94853	0.437617	17.8336	0.709542	28.9202
0.141564	5.48283	0.0375494	1.44319	0.305686	11.8223	0.482683	18.9109	0.576039	22.3224	0.848604	33.3092	0.183666	8.73898	0.438999	17.2355	0.710367	27.8946
0.146575	5.4792	0.0395708	1.4683	0.307485	11.4782	0.48344	18.2735	0.577257	21.5901	0.849349	32.1622	0.187019	8.5208	0.440428	16.6814	0.711222	26.9424
0.151575	5.47538	0.0416045	1.49218	0.309331	11.1591	0.484233	17.6808	0.578515	20.9085	0.85012	31.0944	0.190443	8.32346	0.441902	16.1668	0.712105	26.0563
0.156561	5.47137	0.0433858	1.51203	0.311225	10.8623	0.48506	17.1283	0.579811	20.2727	0.850917	30.0979	0.193932	8.14433	0.443422	15.6876	0.713019	25.2296
0.161534	5.46715	0.0449101	1.5283	0.312913	10.6202	0.485923	16.6123	0.581145	19.6783	0.85174	29.1658	0.197484	7.9812	0.444985	15.2406	0.713961	24.4566
0.166493	5.46272	0.0461743	1.5413	0.314378	10.4251	0.486823	16.1293	0.582516	19.1215	0.852588	28.2922	0.201094	7.83219	0.446593	14.8227	0.714932	23.7325
0.171436	5.45807	0.0471762	1.55131	0.315609	10.271	0.487761	15.6765	0.583926	18.599	0.853462	27.4719	0.204759	7.69568	0.448244	14.4312	0.715931	23.0527
0.176364	5.45319	0.0479139	1.55851	0.316593	10.1535	0.488736	15.2511	0.585372	18.1077	0.854361	26.7001	0.208476	7.57029	0.449938	14.0639	0.71696	22.4134
0.181274	5.44807	0.0483867	1.56306	0.317324	10.0695	0.489751	14.851	0.586854	17.645	0.855286	25.9727	0.212242	7.45482	0.451674	13.7186	0.718017	21.8111
0.186166	5.4427	0.0490668	1.56951	0.317794	10.0167	0.490805	14.474	0.588373	17.2086	0.856236	25.2862	0.216054	7.34824	0.453452	13.3936	0.719102	21.2429
0.191039	5.43707	0.0498068	1.5764	0.318474	9.94219	0.491899	14.1184	0.589928	16.7964	0.857211	24.6371	0.219909	7.24963	0.455271	13.0872	0.720215	20.7059
0.195892	5.43116	0.0508147	1.58559	0.319219	9.86297	0.493034	13.7824	0.591519	16.4064	0.858212	24.0226	0.223805	7.15822	0.45713	12.7979	0.721357	20.1977
0.200723	5.42497	0.0520913	1.59691	0.320239	9.75808	0.494211	13.4646	0.593144	16.0371	0.859237	23.44	0.22774	7.07329	0.45903	12.5244	0.722526	19.7161
0.205532	5.41848	0.0536378	1.61016	0.321545	9.6299	0.495431	13.1637	0.594804	15.6868	0.860287	22.8869	0.231711	6.99423	0.460968	12.2655	0.723722	19.2591
0.210315	5.41168	0.0554555	1.62511	0.323143	9.48125	0.496694	12.8785	0.596499	15.3542	0.861362	22.3612	0.235717	6.92051	0.462946	12.0201	0.724947	18.8249
0.215074	5.40454	0.0575455	1.64154	0.325047	9.31521	0.498001	12.6078	0.598227	15.0381	0.862462	21.861	0.239755	6.85164	0.464961	11.7873	0.726198	18.412
0.219804	5.39707	0.0596391	1.65722	0.327269	9.13496	0.499352	12.3507	0.59999	14.7372	0.863586	21.3845	0.243823	6.78719	0.467014	11.5661	0.727477	18.0188
0.224506	5.38923	0.061736	1.67219	0.329529	8.96492	0.50075	12.1063	0.601785	14.4506	0.864735	20.9301	0.24792	6.72678	0.469104	11.3559	0.728782	17.6439
0.229178	5.38102	0.0638355	1.6865	0.331828	8.8043	0.502193	11.8737	0.603613	14.1773	0.865908	20.4963	0.252044	6.67007	0.47123	11.1557	0.730114	17.2863
0.233816	5.37241	0.0659373	1.70018	0.334165	8.6524	0.503683	11.6522	0.605474	13.9165	0.867106	20.0817	0.256194	6.61675	0.473392	10.9651	0.731473	16.9447
0.238421	5.36338	0.0680411	1.71327	0.336539	8.50861	0.50522	11.4412	0.607367	13.6673	0.868327	19.6853	0.260368	6.56653	0.475305	10.8061	0.732858	16.6181
0.242989	5.35393	0.0701464	1.72579	0.33895	8.37235	0.506806	11.24	0.609291	13.4291	0.869572	19.3057	0.264565	6.51919	0.476957	10.6757	0.734269	16.3056
0.247518	5.34403	0.0722529	1.73778	0.341398	8.24311	0.50844	11.0479	0.611247	13.2011	0.870842	18.9421	0.268783	6.47448	0.478337	10.5712	0.735707	16.0063
0.252007	5.33366	0.0743605	1.74927	0.343882	8.12043	0.509904	10.8876	0.613234	12.9828	0.872135	18.5934	0.273021	6.43221	0.479437	10.4906	0.73717	15.7195
0.256453	5.32279	0.0764688	1.76029	0.346404	8.00388	0.511182	10.756	0.615252	12.7735	0.873451	18.2588	0.277277	6.39219	0.480251	10.4324	0.738658	15.4444
0.260854	5.31142	0.0785777	1.77086	0.348962	7.89307	0.512259	10.6504	0.617301	12.5729	0.874791	17.9375	0.281552	6.35425	0.480774	10.3957	0.740172	15.1804
0.265207	5.29952	0.0806871	1.781	0.351558	7.78767	0.513125	10.5689	0.619379	12.3803	0.876155	17.6286	0.285843	6.31823	0.481529	10.3436	0.741712	14.9267
0.26951	5.28707	0.0827967	1.79074	0.354192	7.68735	0.513769	10.5102	0.621487	12.1953	0.877541	17.3316	0.290149	6.28401	0.482354	10.2877	0.743276	14.6829
0.273761	5.27406	0.0849064	1.80009	0.356863	7.59183	0.514184	10.473	0.623624	12.0175	0.878951	17.0458	0.29447	6.25145	0.483483	10.2132	0.744865	14.4484
0.277956	5.26046	0.0870161	1.80908	0.359574	7.50083	0.514786	10.4203	0.62579	11.8466	0.880384	16.7706	0.298804	6.22043	0.484921	10.1213	0.746478	14.2226
0.282094	5.24626	0.0891257	1.81773	0.362325	7.41412	0.515447	10.3639	0.627985	11.6821	0.881839	16.5054	0.303151	6.19084	0.486677	10.0133	0.748116	14.0052
0.286171	5.23145	0.0912351	1.82606	0.365117	7.33147	0.516356	10.2886	0.630208	11.5237	0.883318	16.2497	0.30751	6.1626	0.488759	9.89087	0.749779	13.7957
0.290186	5.21601	0.0933443	1.83407	0.367951	7.25268	0.517522	10.1955	0.63246	11.3711	0.884818	16.003	0.311879	6.1356	0.491178	9.75587	0.751465	13.5937
0.294137	5.19993	0.0954532	1.84179	0.370828	7.17758	0.518959	10.0863	0.634739	11.2241	0.886342	15.7649	0.316258	6.10976	0.493627	9.62639	0.753175	13.3988
0.29802	5.18321	0.0975617	1.84923	0.373749	7.10597	0.520681	9.96256	0.636747	11.1003	0.887887	15.5349	0.320646	6.08501	0.496107	9.5021	0.754908	13.2107
0.301834	5.16584	0.0996697	1.8564	0.376716	7.03771	0.522705	9.82613	0.638475	10.9977	0.889455	15.3127	0.325043	6.06127	0.498617	9.38274	0.756665	13.029
0.305577	5.14781	0.101777	1.86332	0.37973	6.97266	0.524781	9.69535	0.639916	10.9149	0.891045	15.0979	0.329447	6.03848	0.501156	9.26803	0.758445	12.8534
0.309247	5.12914	0.103885	1.87	0.382792	6.91066	0.52691	9.56996	0.641062	10.8507	0.892656	14.8902	0.333858	6.01658	0.503724	9.15773	0.760248	12.6837
0.312844	5.10983	0.105991	1.87646	0.385904	6.8516	0.529091	9.44967	0.641909	10.8042	0.894289	14.6891	0.338274	5.99551	0.50632	9.05161	0.762074	12.5196
0.316365	5.08988	0.108097	1.88269	0.389068	6.79536	0.531325	9.33424	0.642453	10.7747	0.895944	14.4945	0.342696	5.97521	0.508944	8.94945	0.763922	12.3607
0.31981	5.06931	0.110203	1.88871	0.392284	6.74182	0.533612	9.22343	0.643236	10.7328	0.897621	14.306	0.347123	5.95565	0.511595	8.85107	0.765793	12.207
0.323178	5.04815	0.112308	1.89454	0.395553	6.69087	0.53595	9.11704	0.644092	10.6877	0.899318	14.1233	0.351553	5.93676	0.514274	8.75626	0.767685	12.0581
0.326469	5.02641	0.114412	1.90017	0.398877	6.64242	0.538342	9.01484	0.64526	10.6273	0.901037	13.9463	0.355987	5.91852	0.516978	8.66485	0.7696	11.9138
0.329683	5.00411	0.116516	1.90562	0.402257	6.59635	0.540785	8.91664	0.646747	10.5523	0.902777	13.7745	0.360424	5.90087	0.519709	8.57669	0.771537	11.774
0.332821	4.98129	0.118619	1.91091	0.405692	6.55258	0.543281	8.82226	0.648558	10.4637	0.904537	13.608	0.364862	5.88379	0.522465	8.49161	0.773494	11.6384
0.335882	4.95798	0.120722	1.91602	0.409185	6.51101	0.545828	8.73152	0.650701	10.3625	0.906319	13.4463	0.369302	5.86723	0.525246	8.40947	0.775474	11.5068
0.338869	4.93421	0.122824	1.92098	0.412734	6.47154	0.548427	8.64426	0.653183	10.25	0.908121	13.2893	0.373742	5.85116	0.528052	8.33013	0.777216	11.3954
0.341782	4.91001	0.124926	1.92579	0.41634	6.43408	0.551077	8.56032	0.655691	10.141	0.909943	13.1369	0.378182	5.83556	0.530882	8.25347	0.778713	11.3027
0.344261	4.88861	0.127027	1.93045	0.420002	6.39855	0.553778	8.47955	0.658224	10.0356	0.911786	12.9888	0.382622	5.8204	0.533736	8.17936	0.77996	11.2275
0.346332	4.87016	0.129127	1.93497	0.42372	6.36486	0.556529	8.40181	0.660781	9.93349	0.913648	12.8448	0.387061	5.80564	0.536613	8.1077	0.780952	11.169
0.348016	4.85476	0.131227	1.93936	0.427494	6.33291	0.55933	8.32698	0.663362	9.83455	0.915531	12.7049	0.391498	5.79126	0.539514	8.03836	0.781684	11.1265
0.349329	4.8425	0.133327	1.94363	0.431321	6.30262	0.56218	8.25491	0.665968	9.73866	0.917434	12.5688	0.395933	5.77724	0.542437	7.97127	0.782154	11.0996
0.350284	4.83345	0.135426	1.94777	0.435201	6.2739	0.565079	8.18549	0.668597	9.6457	0.919356	12.4364	0.400365	5.76355	0.545383	7.9063	0.782832	11.0611
0.350891	4.82764	0.137524	1.9518	0.439133	6.24668	0.568026	8.11861	0.67125	9.55553	0.921298	12.3075	0.404793	5.75018	0.548351	7.84339	0.78357	11.0198
0.351758	4.81926	0.139622	1.95571	0.443114	6.22086	0.571021	8.05416	0.673927	9.46806	0.92326	12.1821	0.409218	5.73709	0.55134	7.78244	0.784579	10.9642
0.352691	4.81013	0.141719	1.95951	0.447143	6.19638	0.574062	7.99203	0.676627	9.38317	0.92524	12.06	0.413637	5.72428	0.554351	7.72336	0.785862	10.895
0.353948	4.79765	0.143816	1.96322	0.451218	6.17315	0.577149	7.93212	0.679349	9.30075	0.92724	11.941	0.418052	5.71173	0.557383	7.6661	0.787424	10.8129
0.355516	4.78181	0.145912	1.96682	0.455337	6.15109	0.580282	7.87435	0.682094	9.22072	0.929258	11.8252	0.42246	5.69941	0.560436	7.61056	0.78927	10.7187
0.35738	4.76255	0.148008	1.97033	0.459498	6.13015	0.583459	7.81861	0.684862	9.14298	0.931033	11.7266	0.426862	5.68731	0.563509	7.55669	0.791407	10.6134
0.359525	4.73985	0.150104	1.97374	0.463699	6.11024	0.58668	7.76483	0.687652	9.06744	0.932557	11.6443	0.431257	5.67542	0.566603	7.50442	0.793563	10.511
0.361931	4.71368	0.152199	1.97707	0.467938	6.09131	0.589944	7.71292	0.690464	8.99403	0.933825	11.5774	0.435645	5.66372	0.569717	7.45368	0.795739	10.4114
0.364282	4.68741	0.154293	1.98031	0.472211	6.07329	0.59325	7.6628	0.693298	8.92265	0.934832	11.5252	0.440024	5.65219	0.572851	7.40443	0.797934	10.3144
0.366578	4.66108	0.156387	1.98347	0.476518	6.05611	0.596598	7.61441	0.696153	8.85325	0.935576	11.4872	0.444395	5.64082	0.576005	7.3566	0.800149	10.2199
0.368823	4.63472	0.158481	1.98655	0.480857	6.03973	0.599986	7.56766	0.69903	8.78574	0.936053	11.4631	0.448756	5.6296	0.579178	7.31014	0.802382	10.1279
0.371019	4.60836	0.160575	1.98955	0.485224	6.02409	0.603414	7.5225	0.701929	8.72005	0.93674	11.4287	0.453107	5.61852	0.58237	7.26499	0.804634	10.0383
0.373168	4.58203	0.162668	1.99248	0.489619	6.00914	0.606881	7.47885	0.704848	8.65613	0.93749	11.3916	0.457448	5.60756	0.585581	7.22113	0.806904	9.95093
0.375272	4.55574	0.16476	1.99534	0.494039	5.99484	0.610385	7.43666	0.707788	8.59391	0.938513	11.3417	0.461778	5.59671	0.588812	7.17849	0.809193	9.8658
0.377334	4.52954	0.166852	1.99814	0.498481	5.98113	0.613927	7.39585	0.71075	8.53333	0.939813	11.2794	0.466095	5.58597	0.592061	7.13703	0.8115	9.7828
0.379355	4.50343	0.168944	2.00086	0.502946	5.96798	0.617506	7.35639	0.713732	8.47434	0.941394	11.2053	0.470401	5.57531	0.595329	7.09672	0.813825	9.70186
0.381338	4.47745	0.171036	2.00353	0.50743	5.95534	0.621119	7.31822	0.716734	8.41687	0.943262	11.12	0.474693	5.56474	0.598616	7.05752	0.816168	9.62291
0.383284	4.4516	0.173127	2.00613	0.511932	5.94319	0.624768	7.28127	0.719757	8.36089	0.945422	11.0244	0.478972	5.55423	0.601921	7.01938	0.818529	9.54588
0.385195	4.42591	0.175218	2.00867	0.51645	5.93149	0.62845	7.24551	0.722799	8.30634	0.947599	10.931	0.483237	5.54379	0.605244	6.98227	0.820907	9.47071
0.387074	4.40039	0.177308	2.01115	0.520983	5.9202	0.632165	7.21088	0.725862	8.25317	0.949794	10.8398	0.487487	5.5334	0.608586	6.94616	0.823302	9.39733
0.388921	4.37505	0.179398	2.01358	0.525529	5.9093	0.635912	7.17735	0.728945	8.20135	0.952007	10.7508	0.491721	5.52306	0.611946	6.91102	0.825715	9.3257
0.390739	4.34991	0.181488	2.01596	0.530088	5.89876	0.63969	7.14486	0.732048	8.15082	0.954236	10.6638	0.495939	5.51275	0.615324	6.87681	0.828145	9.25575
0.39253	4.32498	0.183578	2.01828	0.534656	5.88855	0.643499	7.11338	0.735171	8.10154	0.956483	10.5787	0.500141	5.50247	0.61872	6.84351	0.830592	9.18742
0.394293	4.30027	0.185667	2.02055	0.539234	5.87865	0.647337	7.08286	0.738313	8.05348	0.958747	10.4956	0.504326	5.49221	0.622134	6.81109	0.833056	9.12068
0.396032	4.27579	0.187756	2.02278	0.543821	5.86903	0.651205	7.05327	0.741475	8.0066	0.961028	10.4144	0.508492	5.48196	0.625567	6.77951	0.835536	9.05547
0.397748	4.25154	0.189845	2.02495	0.548414	5.85969	0.6551	7.02458	0.744657	7.96087	0.963325	10.3349	0.51264	5.47172	0.629017	6.74876	0.838033	8.99173
0.399441	4.22753	0.191933	2.02709	0.553013	5.85058	0.659023	6.99674	0.747858	7.91624	0.965639	10.2572	0.516769	5.46148	0.632486	6.71881	0.840546	8.92943
0.401112	4.20378	0.194021	2.02917	0.557617	5.84171	0.662972	6.96973	0.751078	7.87269	0.96797	10.1812	0.520879	5.45123	0.635972	6.68964	0.843076	8.86853
0.402765	4.18027	0.196109	2.03122	0.562224	5.83304	0.666947	6.9435	0.754318	7.83018	0.970316	10.1068	0.524968	5.44097	0.639477	6.66122	0.845621	8.80897
0.404398	4.15703	0.198197	2.03322	0.566835	5.82458	0.670947	6.91804	0.757577	7.78868	0.972679	10.0341	0.529036	5.4307	0.642999	6.63353	0.848183	8.75073
0.406013	4.13404	0.200284	2.03518	0.571448	5.81629	0.674971	6.89331	0.760856	7.74817	0.975058	9.96286	0.533083	5.4204	0.64654	6.60656	0.850761	8.69375
0.407612	4.11132	0.202372	2.03711	0.576061	5.80817	0.679019	6.86929	0.764153	7.70861	0.977452	9.89315	0.537107	5.41007	0.650098	6.58027	0.853354	8.63801
0.409196	4.08887	0.204459	2.03899	0.580675	5.8002	0.683089	6.84594	0.76747	7.66998	0.979863	9.82489	0.541109	5.3997	0.653675	6.55466	0.855963	8.58347
0.410764	4.06668	0.206545	2.04084	0.585288	5.79238	0.687181	6.82324	0.770807	7.63226	0.982289	9.75806	0.545088	5.3893	0.657269	6.5297	0.858588	8.5301
0.412319	4.04476	0.208632	2.04265	0.589901	5.78468	0.691295	6.80117	0.774162	7.59542	0.98473	9.6926	0.549043	5.37886	0.660882	6.50538	0.861228	8.47785
0.41386	4.02311	0.210718	2.04443	0.594511	5.77711	0.695429	6.7797	0.777537	7.55943	0.987187	9.62848	0.552974	5.36837	0.664512	6.48167	0.863883	8.42671
0.41539	4.00173	0.212804	2.04617	0.599118	5.76965	0.699583	6.7588	0.780931	7.52427	0.989659	9.56567	0.55688	5.35783	0.66816	6.45856	0.866554	8.37663
0.416907	3.98063	0.21489	2.04788	0.603723	5.76229	0.703757	6.73847	0.784345	7.48992	0.992146	9.50412	0.560761	5.34723	0.671827	6.43604	0.86924	8.32759
0.418414	3.95979	0.216976	2.04956	0.608323	5.75502	0.707948	6.71867	0.787777	7.45636	0.994648	9.4438	0.564616	5.33658	0.675511	6.41408	0.871941	8.27957
0.419911	3.93922	0.219062	2.05121	0.612919	5.74783	0.712158	6.69938	0.79123	7.42358	0.997165	9.38468	0.568445	5.32587	0.679213	6.39268	0.874657	8.23252
0.421398	3.91892	0.221147	2.05283	0.617509	5.74073	0.716385	6.68059	0.794702	7.39154	0.999696	9.32672	0.572248	5.3151	0.682933	6.37182	0.877388	8.18644
0.422876	3.89888	0.223232	2.05442	0.622094	5.73369	0.720628	6.66228	0.798193	7.36023	1.00224	9.2699	0.576023	5.30427	0.686671	6.35148	0.880134	8.14128
0.424346	3.87911	0.225317	2.05598	0.626673	5.72671	0.724887	6.64442	0.801705	7.32964			0.579771	5.29337	0.690426	6.33165	0.882894	8.09703
0.425808	3.85961	0.227402	2.05751	0.631245	5.7198	0.729162	6.62701	0.805236	7.29974			0.583491	5.2824	0.694199	6.31231	0.885669	8.05367
0.427263	3.84036	0.229487	2.05901	0.63581	5.71293	0.73345	6.61001	0.808787	7.27052			0.587183	5.27136	0.697989	6.29346	0.888459	8.01117
0.428711	3.82138	0.231572	2.06049	0.640367	5.70611	0.737753	6.59343	0.812358	7.24197			0.590847	5.26025	0.701797	6.27508	0.891263	7.9695
0.430153	3.80265	0.233656	2.06195	0.644916	5.69932	0.742069	6.57723	0.815949	7.21407			0.594482	5.24907	0.705622	6.25716	0.894082	7.92865
0.431589	3.78418	0.23574	2.06337	0.649457	5.69258	0.746397	6.56141	0.81956	7.1868			0.598088	5.23782	0.709464	6.23968	0.896915	7.88859
0.43302	3.76596	0.237824	2.06478	0.653988	5.68586	0.750737	6.54595	0.823192	7.16014			0.601664	5.2265	0.713323	6.22263	0.899762	7.84932
0.434446	3.74799	0.239908	2.06616	0.65851	5.67917	0.755089	6.53084	0.826845	7.1341			0.605211	5.2151	0.717199	6.206	0.902624	7.81079
0.435867	3.73027	0.241992	2.06751	0.663021	5.6725	0.759451	6.51606	0.830518	7.10865			0.608729	5.20363	0.721092	6.18978	0.905499	7.77301
0.437284	3.71279	0.244076	2.06885	0.667523	5.66585	0.763823	6.5016	0.834212	7.08378			0.612216	5.1921	0.725	6.17395	0.908389	7.73595
0.438697	3.69555	0.246159	2.07016	0.672014	5.65922	0.768205	6.48744	0.837928	7.05948			0.615674	5.18049	0.728925	6.15851	0.911293	7.69958
0.440107	3.67856	0.248242	2.07145	0.676493	5.65259	0.772595	6.47358	0.841665	7.03573			0.619101	5.1688	0.732865	6.14344	0.914211	7.66391
0.441513	3.6618	0.250326	2.07272	0.680962	5.64597	0.776993	6.46001	0.845423	7.01253			0.622499	5.15706	0.736821	6.12874	0.917143	7.6289
0.442917	3.64527	0.252409	2.07397	0.685418	5.63936	0.781399	6.4467	0.849203	6.98987			0.625866	5.14524	0.740793	6.11439	0.920089	7.59455
0.444318	3.62897	0.254492	2.0752	0.689863	5.63275	0.785812	6.43365	0.853004	6.96773			0.629204	5.13335	0.744779	6.10038	0.923048	7.56083
0.445717	3.6129	0.256575	2.0764	0.694294	5.62613	0.790231	6.42085	0.856828	6.9461			0.63251	5.12141	0.74878	6.0867	0.926022	7.52774
0.447113	3.59706	0.258657	2.0776	0.698714	5.61952	0.794655	6.40829	0.860675	6.92497			0.635787	5.10939	0.752795	6.07334	0.929009	7.49525
0.448508	3.58144	0.26074	2.07877	0.703119	5.61289	0.799085	6.39596	0.864543	6.90435			0.639034	5.09732	0.756824	6.06029	0.93201	7.46336
0.449901	3.56603	0.262823	2.07992	0.707512	5.60626	0.803519	6.38385	0.868435	6.8842			0.642251	5.08518	0.760866	6.04754	0.935024	7.43205
0.451293	3.55084	0.264905	2.08106	0.711891	5.59962	0.807958	6.37194	0.872349	6.86453			0.645437	5.07299	0.764922	6.03509	0.938052	7.40131
0.452684	3.53586	0.266987	2.08217	0.716255	5.59296	0.812399	6.36024	0.876287	6.84533			0.648594	5.06075	0.768991	6.02291	0.941094	7.37112
0.454074	3.5211	0.26907	2.08328	0.720606	5.58629	0.816844	6.34872	0.880248	6.82658			0.651722	5.04845	0.773072	6.01101	0.944149	7.34148
0.455463	3.50653	0.271152	2.08436	0.724942	5.5796	0.82129	6.33739	0.884232	6.80829			0.654819	5.0361	0.777165	5.99938	0.947218	7.31236
0.456852	3.49218	0.273234	2.08543	0.729263	5.5729	0.825739	6.32623	0.88824	6.79044			0.657888	5.0237	0.781269	5.98799	0.9503	7.28377
0.45824	3.47802	0.275316	2.08648	0.733568	5.56617	0.830188	6.31525	0.892272	6.77302			0.660927	5.01126	0.785385	5.97686	0.953395	7.25568
0.459628	3.46406	0.277397	2.08752	0.737859	5.55942	0.834639	6.30442	0.896328	6.75603			0.663938	4.99877	0.789511	5.96596	0.956504	7.22808
0.461017	3.45029	0.279479	2.08854	0.742134	5.55265	0.839089	6.29374	0.900408	6.73945			0.666919	4.98624	0.793648	5.95529	0.959626	7.20098
0.462405	3.43672	0.281561	2.08955	0.746392	5.54586	0.843539	6.28321	0.904512	6.72329			0.669872	4.97367	0.797794	5.94484	0.962761	7.17434
0.463794	3.42334	0.283642	2.09054	0.750635	5.53904	0.847989	6.27282	0.908641	6.70753			0.672797	4.96107	0.80195	5.93461	0.965909	7.14818
0.465183	3.41014	0.285724	2.09152	0.754862	5.53219	0.852437	6.26257	0.912795	6.69216			0.675695	4.94844	0.806115	5.92458	0.969071	7.12246
0.466572	3.39712	0.287805	2.09249	0.759071	5.52531	0.856884	6.25244	0.916972	6.67718			0.678564	4.93577	0.810288	5.91475	0.972245	7.0972
0.467963	3.38429	0.289886	2.09344	0.763264	5.51841	0.861329	6.24244	0.921175	6.66258			0.681406	4.92308	0.814469	5.90511	0.975433	7.07236
0.469354	3.37163	0.291968	2.09437	0.767441	5.51148	0.865772	6.23255	0.925402	6.64835			0.684221	4.91037	0.818657	5.89565	0.978633	7.04796
0.470746	3.35915	0.294049	2.0953	0.771599	5.50451	0.870212	6.22278	0.929654	6.63449			0.687009	4.89763	0.822853	5.88637	0.981847	7.02397
0.472139	3.34684	0.29613	2.09621	0.775741	5.49752	0.874649	6.21311	0.933931	6.62099			0.68977	4.88487	0.827055	5.87726	0.985073	7.0004
0.473533	3.33469	0.298211	2.09711	0.779865	5.49049	0.879083	6.20355	0.938232	6.60784			0.692506	4.87209	0.831263	5.86831	0.988313	6.97722
0.474928	3.32272	0.300291	2.098	0.783971	5.48343	0.883514	6.19409	0.942558	6.59503			0.695215	4.85931	0.835477	5.85952	0.991565	6.95443
0.476325	3.31091	0.302372	2.09887	0.788059	5.47634	0.887941	6.18473	0.946909	6.58256			0.6979	4.8465	0.839697	5.85088	0.99483	6.93204
0.477723	3.29926	0.304453	2.09974	0.792129	5.46921	0.892364	6.17547	0.951283	6.57041			0.700558	4.83369	0.843921	5.84238	0.998107	6.91001
0.479123	3.28778	0.306534	2.10059	0.796181	5.46205	0.896783	6.16629	0.955682	6.55859			0.703192	4.82088	0.848149	5.83402	1.0014	6.88836
0.480525	3.27644	0.308614	2.10143	0.800214	5.45485	0.901198	6.1572	0.960105	6.54708			0.705802	4.80806	0.852381	5.8258		
0.481927	3.26527	0.310695	2.10226	0.804229	5.44762	0.905609	6.1482	0.964552	6.53588			0.708387	4.79523	0.856617	5.8177		
0.483332	3.25424	0.312775	2.10308	0.808225	5.44036	0.910015	6.13928	0.969023	6.52498			0.710949	4.78241	0.860855	5.80973		
0.484739	3.24337	0.314855	2.10389	0.812202	5.43306	0.914417	6.13044	0.973517	6.51437			0.713487	4.76959	0.865097	5.80187		
0.486147	3.23264	0.316936	2.10468	0.816161	5.42572	0.918814	6.12168	0.978033	6.50405			0.716002	4.75678	0.86934	5.79412		
0.487557	3.22205	0.319016	2.10547	0.8201	5.41835	0.923207	6.113	0.982573	6.494			0.718494	4.74397	0.873585	5.78648		
0.48897	3.21161	0.321096	2.10625	0.82402	5.41094	0.927595	6.1044	0.987135	6.48422			0.720964	4.73117	0.877831	5.77894		
0.490384	3.20131	0.323176	2.10702	0.827921	5.4035	0.931978	6.09587	0.991719	6.47471			0.723411	4.71838	0.882078	5.7715		
0.491801	3.19115	0.325256	2.10777	0.831803	5.39602	0.936358	6.08742	0.996325	6.46545			0.725837	4.70561	0.886325	5.76415		
0.493219	3.18112	0.327336	2.10852	0.835665	5.38851	0.940732	6.07904	1.00095	6.45645			0.728241	4.69285	0.890573	5.75689		
0.49464	3.17123	0.329416	2.10926	0.839508	5.38096	0.945103	6.07073					0.730625	4.68011	0.89482	5.74972		
0.496063	3.16147	0.331496	2.10999	0.843331	5.37337	0.949469	6.0625					0.732987	4.66739	0.899066	5.74262		
0.497488	3.15184	0.333576	2.11071	0.847135	5.36576	0.953831	6.05433					0.73533	4.65469	0.903311	5.73561		
0.498916	3.14233	0.335655	2.11142	0.850919	5.3581	0.958189	6.04623					0.737652	4.64202	0.907554	5.72866		
0.500346	3.13296	0.337735	2.11213	0.854683	5.35042	0.962543	6.03821					0.739955	4.62936	0.911796	5.72178		
0.501778	3.1237	0.339815	2.11282	0.858427	5.34269	0.966892	6.03025					0.742238	4.61674	0.916035	5.71497		
0.503213	3.11457	0.341894	2.11351	0.862152	5.33494	0.971239	6.02236					0.744502	4.60414	0.920272	5.70822		
0.504651	3.10556	0.343974	2.11419	0.865857	5.32715	0.975581	6.01454					0.746748	4.59157	0.924505	5.70153		
0.50609	3.09666	0.346053	2.11486	0.869542	5.31933	0.97992	6.00679					0.748975	4.57903	0.928735	5.6949		
0.507533	3.08788	0.348133	2.11552	0.873207	5.31148	0.984256	5.9991					0.751185	4.56653	0.932961	5.68831		
0.508977	3.07922	0.350212	2.11617	0.876852	5.3036	0.988588	5.99149					0.753376	4.55406	0.937183	5.68178		
0.510425	3.07067	0.352291	2.11682	0.880478	5.29568	0.992917	5.98393					0.75555	4.54162	0.941401	5.67529		
0.511875	3.06223	0.354371	2.11746	0.884083	5.28774	0.997243	5.97645					0.757708	4.52923	0.945614	5.66885		
0.513327	3.05389	0.35645	2.11809	0.887669	5.27977	1.00157	5.96902					0.759848	4.51687	0.949822	5.66245		
0.514782	3.04567	0.358529	2.11872	0.891235	5.27176							0.761972	4.50454	0.954024	5.65609		
0.51624	3.03755	0.360608	2.11933	0.894782	5.26373							0.76408	4.49226	0.958221	5.64976		
0.517701	3.02954	0.362687	2.11995	0.898308	5.25567							0.766173	4.48002	0.962411	5.64346		
0.519164	3.02162	0.364766	2.12055	0.901815	5.24758							0.768249	4.46783	0.966595	5.6372		
0.52063	3.01381	0.366845	2.12115	0.905302	5.23947							0.770311	4.45568	0.970772	5.63097		
0.522098	3.0061	0.368924	2.12174	0.90877	5.23133							0.772358	4.44357	0.974943	5.62476		
0.523569	2.99849	0.371003	2.12232	0.912218	5.22316							0.77439	4.43151	0.979106	5.61858		
0.525043	2.99097	0.373082	2.1229	0.915646	5.21497							0.776408	4.41949	0.983261	5.61241		
0.52652	2.98354	0.375161	2.12347	0.919055	5.20676							0.778412	4.40752	0.987409	5.60627		
0.527999	2.97621	0.377239	2.12403	0.922445	5.19852							0.780402	4.3956	0.991548	5.60015		
0.529481	2.96897	0.379318	2.12459	0.925815	5.19027							0.782379	4.38373	0.99568	5.59405		
0.530966	2.96183	0.381397	2.12515	0.929166	5.18199							0.784342	4.37191	0.999802	5.58796		
0.532453	2.95477	0.383475	2.12569	0.932498	5.17369							0.786293	4.36014	1.00392	5.58188		
0.533944	2.9478	0.385554	2.12623	0.935811	5.16536							0.788231	4.34842				
0.535437	2.94091	0.387633	2.12677	0.939105	5.15702							0.790157	4.33675				
0.536932	2.93411	0.389711	2.1273	0.94238	5.14867							0.792071	4.32514				
0.538431	2.9274	0.39179	2.12782	0.945636	5.14029							0.793973	4.31358				
0.539932	2.92077	0.393868	2.12834	0.948873	5.1319							0.795863	4.30207				
0.541436	2.91421	0.395946	2.12885	0.952091	5.12349							0.797742	4.29062				
0.542943	2.90774	0.398025	2.12936	0.955291	5.11506							0.79961	4.27922				
0.544453	2.90135	0.400103	2.12987	0.958473	5.10662							0.801467	4.26788				
0.545965	2.89504	0.402182	2.13036	0.961636	5.09816							0.803313	4.2566				
0.54748	2.8888	0.40426	2.13086	0.964781	5.0897							0.805149	4.24537				
0.548998	2.88263	0.406338	2.13134	0.967907	5.08122							0.806975	4.23419				
0.550518	2.87655	0.408416	2.13182	0.971016	5.07272							0.808791	4.22308				
0.552042	2.87053	0.410494	2.1323	0.974106	5.06422							0.810597	4.21202				
0.553568	2.86459	0.412573	2.13278	0.977179	5.05571							0.812394	4.20101				
0.555097	2.85872	0.414651	2.13324	0.980234	5.04718							0.814182	4.19007				
0.556628	2.85291	0.416729	2.13371	0.983271	5.03865							0.81596	4.17919				
0.558162	2.84718	0.418807	2.13417	0.98629	5.03011							0.81773	4.16836				
0.559699	2.84152	0.420885	2.13462	0.989292	5.02156							0.819491	4.15759				
0.561239	2.83592	0.422963	2.13507	0.992277	5.013							0.821244	4.14688				
0.562781	2.83039	0.425041	2.13552	0.995245	5.00443							0.822988	4.13623				
0.564326	2.82492	0.427119	2.13596	0.998195	4.99587							0.824724	4.12564				
0.565874	2.81952	0.429196	2.1364	1.00113	4.98729							0.826453	4.11511				
0.567424	2.81418	0.431274	2.13683									0.828174	4.10463				
0.568977	2.8089	0.433352	2.13726									0.829887	4.09422				
0.570533	2.80369	0.43543	2.13768									0.831594	4.08386				
0.572091	2.79853	0.437508	2.1381									0.833293	4.07357				
0.573652	2.79344	0.439585	2.13852									0.834985	4.06334				
0.575216	2.7884	0.441663	2.13893									0.83667	4.05316				
0.576782	2.78342	0.443741	2.13934									0.838349	4.04305				
0.578351	2.7785	0.445818	2.13975									0.840021	4.03299				
0.579922	2.77363	0.447896	2.14015									0.841688	4.02299				
0.581496	2.76882	0.449974	2.14055									0.843348	4.01306				
0.583073	2.76407	0.452051	2.14094									0.845002	4.00318				
0.584652	2.75937	0.454129	2.14133									0.84665	3.99336				
0.586234	2.75472	0.456206	2.14172									0.848293	3.9836				
0.587818	2.75012	0.458284	2.1421									0.84993	3.9739				
0.589405	2.74558	0.460361	2.14248									0.851561	3.96427				
0.590994	2.74109	0.462439	2.14286									0.853188	3.95468				
0.592586	2.73664	0.464516	2.14323									0.85481	3.94516				
0.59418	2.73225	0.466594	2.1436									0.856426	3.9357				
0.595777	2.72791	0.468671	2.14397									0.858038	3.9263				
0.597377	2.72361	0.470748	2.14433									0.859645	3.91695				
0.598979	2.71936	0.472826	2.14469									0.861247	3.90766				
0.600583	2.71516	0.474903	2.14505									0.862846	3.89843				
0.60219	2.71101	0.47698	2.1454									0.864439	3.88926				
0.603799	2.7069	0.479057	2.14576									0.866029	3.88015				
0.60541	2.70283	0.481135	2.1461									0.867615	3.8711				
0.607024	2.69881	0.483212	2.14645									0.869196	3.8621				
0.608641	2.69484	0.485289	2.14679									0.870774	3.85316				
0.61026	2.6909	0.487366	2.14713									0.872348	3.84427				
0.611881	2.68701	0.489443	2.14747									0.873919	3.83545				
0.613504	2.68316	0.491521	2.1478									0.875486	3.82668				
0.61513	2.67936	0.493598	2.14813									0.877049	3.81796				
0.616758	2.67559	0.495675	2.14846									0.87861	3.80931				
0.618389	2.67187	0.497752	2.14878									0.880167	3.8007				
0.620022	2.66818	0.499829	2.14911									0.881721	3.79216				
0.621657	2.66453	0.501906	2.14943									0.883272	3.78367				
0.623294	2.66093	0.503983	2.14974									0.88482	3.77523				
0.624934	2.65736	0.50606	2.15006									0.886365	3.76685				
0.626576	2.65382	0.508137	2.15037									0.887908	3.75853				
0.62822	2.65033	0.510214	2.15068									0.889448	3.75025				
0.629867	2.64687	0.512291	2.15099									0.890985	3.74204				
0.631516	2.64345	0.514367	2.15129									0.89252	3.73387				
0.633167	2.64007	0.516444	2.15159									0.894053	3.72576				
0.63482	2.63671	0.518521	2.15189									0.895583	3.7177				
0.636475	2.6334	0.520598	2.15219									0.897111	3.7097				
0.638132	2.63012	0.522675	2.15249									0.898637	3.70175				
0.639792	2.62687	0.524752	2.15278									0.900161	3.69385				
0.641454	2.62366	0.526828	2.15307									0.901683	3.686				
0.643118	2.62048	0.528905	2.15336									0.903203	3.67821				
0.644784	2.61733	0.530982	2.15364									0.904721	3.67046				
0.646452	2.61422	0.533059	2.15393									0.906237	3.66277				
0.648122	2.61113	0.535135	2.15421									0.907752	3.65513				
0.649795	2.60808	0.537212	2.15449									0.909265	3.64753				
0.651469	2.60506	0.539289	2.15476									0.910777	3.63999				
0.653146	2.60207	0.541365	2.15504									0.912286	3.6325				
0.654824	2.59911	0.543442	2.15531									0.913795	3.62506				
0.656505	2.59618	0.545519	2.15558									0.915302	3.61767				
0.658188	2.59328	0.547595	2.15585									0.916808	3.61032				
0.659872	2.59041	0.549672	2.15612									0.918312	3.60303				
0.661559	2.58756	0.551748	2.15638									0.919816	3.59578				
0.663248	2.58475	0.553825	2.15665									0.921318	3.58858				
0.664938	2.58196	0.555901	2.15691									0.922819	3.58143				
0.666631	2.5792	0.557978	2.15717									0.924319	3.57433				
0.668325	2.57647	0.560054	2.15742									0.925818	3.56728				
0.670022	2.57377	0.562131	2.15768									0.927316	3.56027				
0.67172	2.57109	0.564207	2.15793									0.928813	3.55331				
0.673421	2.56844	0.566284	2.15818									0.93031	3.54639				
0.675123	2.56582	0.56836	2.15843									0.931805	3.53952				
0.676827	2.56322	0.570437	2.15868									0.9333	3.5327				
0.678533	2.56064	0.572513	2.15892									0.934794	3.52592				
0.680241	2.55809	0.574589	2.15917									0.936288	3.51918				
0.681951	2.55557	0.576666	2.15941									0.937781	3.51249				
0.683663	2.55307	0.578742	2.15965									0.939273	3.50585				
0.685376	2.55059	0.580819	2.15989									0.940765	3.49925				
0.687091	2.54814	0.582895	2.16013									0.942256	3.49269				
0.688809	2.54571	0.584971	2.16036									0.943747	3.48618				
0.690527	2.54331	0.587048	2.1606									0.945238	3.47971				
0.692248	2.54093	0.589124	2.16083									0.946728	3.47328				
0.693971	2.53857	0.5912	2.16106									0.948218	3.4669				
0.695695	2.53623	0.593276	2.16129									0.949708	3.46056				
0.697421	2.53392	0.595353	2.16151									0.951197	3.45426				
0.699149	2.53163	0.597429	2.16174									0.952686	3.448				
0.700878	2.52935	0.599505	2.16196									0.954175	3.44178				
0.70261	2.52711	0.601581	2.16219									0.955664	3.43561				
0.704343	2.52488	0.603657	2.16241									0.957153	3.42947				
0.706077	2.52267	0.605734	2.16263									0.958642	3.42338				
0.707814	2.52048	0.60781	2.16284									0.96013	3.41732				
0.709552	2.51832	0.609886	2.16306									0.961619	3.41131				
0.711292	2.51617	0.611962	2.16328									0.963107	3.40533				
0.713033	2.51405	0.614038	2.16349									0.964596	3.3994				
0.714776	2.51194	0.616114	2.1637									0.966085	3.3935				
0.716521	2.50985	0.61819	2.16391									0.967574	3.38765				
0.718267	2.50779	0.620266	2.16412									0.969063	3.38183				
0.720015	2.50574	0.622342	2.16433									0.970552	3.37605				
0.721765	2.50371	0.624418	2.16454									0.972041	3.37031				
0.723516	2.5017	0.626494	2.16474									0.973531	3.3646				
0.725269	2.49971	0.62857	2.16494									0.975021	3.35894				
0.727023	2.49773	0.630646	2.16515									0.976511	3.35331				
0.728779	2.49578	0.632722	2.16535									0.978001	3.34771				
0.730536	2.49384	0.634798	2.16555									0.979492	3.34216				
0.732295	2.49192	0.636874	2.16575									0.980983	3.33664				
0.734056	2.49001	0.63895	2.16594									0.982475	3.33115				
0.735818	2.48813	0.641026	2.16614									0.983966	3.32571				
0.737582	2.48626	0.643102	2.16633									0.985459	3.32029				
0.739347	2.48441	0.645178	2.16653									0.986951	3.31492				
0.741114	2.48257	0.647254	2.16672									0.988444	3.30958				
0.742882	2.48075	0.64933	2.16691									0.989938	3.30427				
0.744651	2.47895	0.651406	2.1671									0.991432	3.299				
0.746422	2.47716	0.653482	2.16729									0.992926	3.29376				
0.748195	2.47539	0.655557	2.16747									0.994421	3.28855				
0.749969	2.47363	0.657633	2.16766									0.995917	3.28338				
0.751745	2.47189	0.659709	2.16784									0.997413	3.27825				
0.753521	2.47017	0.661785	2.16803									0.99891	3.27314				
0.7553	2.46846	0.663861	2.16821									1.00041	3.26807				
0.75708	2.46677	0.665936	2.16839														
0.758861	2.46509	0.668012	2.16857														
0.760643	2.46342	0.670088	2.16875														
0.762427	2.46177	0.672164	2.16893														
0.764213	2.46013	0.674239	2.16911														
0.766	2.45851	0.676315	2.16928														
0.767788	2.4569	0.678391	2.16946														
0.769577	2.45531	0.680467	2.16963														
0.771368	2.45373	0.682542	2.1698														
0.77316	2.45216	0.684618	2.16997														
0.774954	2.45061	0.686694	2.17014														
0.776749	2.44907	0.688769	2.17031														
0.778545	2.44754	0.690845	2.17048														
0.780342	2.44603	0.692921	2.17065														
0.782141	2.44453	0.694996	2.17082														
0.783941	2.44304	0.697072	2.17098														
0.785742	2.44157	0.699147	2.17114														
0.787545	2.4401	0.701223	2.17131														
0.789349	2.43865	0.703299	2.17147														
0.791154	2.43721	0.705374	2.17163														
0.79296	2.43579	0.70745	2.17179														
0.794768	2.43437	0.709525	2.17195														
0.796577	2.43297	0.711601	2.17211														
0.798387	2.43158	0.713676	2.17227														
0.800198	2.4302	0.715752	2.17242														
0.802011	2.42883	0.717827	2.17258														
0.803825	2.42748	0.719903	2.17274														
0.80564	2.42613	0.721978	2.17289														
0.807456	2.4248	0.724054	2.17304														
0.809273	2.42347	0.726129	2.17319														
0.811092	2.42216	0.728205	2.17335														
0.812911	2.42086	0.73028	2.1735														
0.814732	2.41957	0.732356	2.17365														
0.816554	2.41829	0.734431	2.17379														
0.818377	2.41702	0.736506	2.17394														
0.820202	2.41576	0.738582	2.17409														
0.822027	2.41451	0.740657	2.17424														
0.823854	2.41327	0.742733	2.17438														
0.825681	2.41204	0.744808	2.17453														
0.82751	2.41082	0.746883	2.17467														
0.82934	2.40961	0.748959	2.17481														
0.831171	2.40841	0.751034	2.17495														
0.833003	2.40722	0.753109	2.1751														
0.834836	2.40604	0.755185	2.17524														
0.83667	2.40487	0.75726	2.17538														
0.838506	2.40371	0.759335	2.17551														
0.840342	2.40256	0.76141	2.17565														
0.84218	2.40141	0.763486	2.17579														
0.844018	2.40028	0.765561	2.17593														
0.845858	2.39915	0.767636	2.17606														
0.847698	2.39804	0.769711	2.1762														
0.84954	2.39693	0.771787	2.17633														
0.851383	2.39583	0.773862	2.17647														
0.853226	2.39474	0.775937	2.1766														
0.855071	2.39366	0.778012	2.17673														
0.856917	2.39259	0.780088	2.17686														
0.858763	2.39152	0.782163	2.17699														
0.860611	2.39046	0.784238	2.17712														
0.86246	2.38941	0.786313	2.17725														
0.864309	2.38837	0.788388	2.17738														
0.86616	2.38734	0.790463	2.17751														
0.868012	2.38632	0.792539	2.17764														
0.869864	2.3853	0.794614	2.17776														
0.871718	2.38429	0.796689	2.17789														
0.873572	2.38329	0.798764	2.17802														
0.875428	2.3823	0.800839	2.17814														
0.877284	2.38131	0.802914	2.17826														
0.879141	2.38033	0.804989	2.17839														
0.881	2.37936	0.807064	2.17851														
0.882859	2.3784	0.809139	2.17863														
0.884719	2.37744	0.811214	2.17875														
0.88658	2.37649	0.813289	2.17888														
0.888442	2.37555	0.815364	2.179														
0.890305	2.37462	0.817439	2.17912														
0.892169	2.37369	0.819514	2.17923														
0.894033	2.37277	0.821589	2.17935														
0.895899	2.37186	0.823664	2.17947														
0.897765	2.37095	0.825739	2.17959														
0.899633	2.37005	0.827814	2.1797														
0.901501	2.36915	0.829889	2.17982														
0.90337	2.36827	0.831964	2.17994														
0.90524	2.36739	0.834039	2.18005														
0.907111	2.36651	0.836114	2.18016														
0.908982	2.36565	0.838189	2.18028														
0.910855	2.36479	0.840264	2.18039														
0.912728	2.36393	0.842339	2.1805														
0.914602	2.36308	0.844414	2.18062														
0.916477	2.36224	0.846489	2.18073														
0.918353	2.3614	0.848564	2.18084														
0.92023	2.36058	0.850639	2.18095														
0.922107	2.35975	0.852714	2.18106														
0.923985	2.35893	0.854788	2.18117														
0.925864	2.35812	0.856863	2.18128														
0.927744	2.35732	0.858938	2.18138														
0.929625	2.35652	0.861013	2.18149														
0.931506	2.35572	0.863088	2.1816														
0.933389	2.35493	0.865163	2.1817														
0.935272	2.35415	0.867237	2.18181														
0.937156	2.35337	0.869312	2.18192														
0.93904	2.3526	0.871387	2.18202														
0.940926	2.35184	0.873462	2.18213														
0.942812	2.35107	0.875536	2.18223														
0.944699	2.35032	0.877611	2.18233														
0.946586	2.34957	0.879686	2.18244														
0.948475	2.34883	0.881761	2.18254														
0.950364	2.34809	0.883835	2.18264														
0.952254	2.34735	0.88591	2.18274														
0.954145	2.34662	0.887985	2.18284														
0.956036	2.3459	0.89006	2.18294														
0.957928	2.34518	0.892134	2.18304														
0.959821	2.34447	0.894209	2.18314														
0.961715	2.34376	0.896284	2.18324														
0.963609	2.34306	0.898358	2.18334														
0.965504	2.34236	0.900433	2.18344														
0.9674	2.34166	0.902508	2.18354														
0.969296	2.34097	0.904582	2.18363														
0.971193	2.34029	0.906657	2.18373														
0.973091	2.33961	0.908732	2.18383														
0.97499	2.33894	0.910806	2.18392														
0.976889	2.33827	0.912881	2.18402														
0.978789	2.3376	0.914956	2.18411														
0.98069	2.33694	0.91703	2.18421														
0.982591	2.33628	0.919105	2.1843														
0.984493	2.33563	0.921179	2.18439														
0.986396	2.33498	0.923254	2.18449														
0.988299	2.33434	0.925329	2.18458														
0.990203	2.3337	0.927403	2.18467														
0.992108	2.33307	0.929478	2.18477														
0.994013	2.33244	0.931552	2.18486														
0.995919	2.33181	0.933627	2.18495														
0.997826	2.33119	0.935701	2.18504														
0.999733	2.33058	0.937776	2.18513														
1.00164	2.32996	0.93985	2.18522														
		0.941925	2.18531														
		0.943999	2.1854														
		0.946074	2.18549														
		0.948148	2.18557														
		0.950223	2.18566														
		0.952297	2.18575														
		0.954372	2.18584														
		0.956446	2.18592														
		0.958521	2.18601														
		0.960595	2.18609														
		0.962669	2.18618														
		0.964744	2.18627														
		0.966818	2.18635														
		0.968893	2.18643														
		0.970967	2.18652														
		0.973041	2.1866														
		0.975116	2.18669														
		0.97719	2.18677														
		0.979265	2.18685														
		0.981339	2.18693														
		0.983413	2.18702														
		0.985488	2.1871														
		0.987562	2.18718														
		0.989636	2.18726														
		0.991711	2.18734														
		0.993785	2.18742														
		0.995859	2.1875														
		0.997934	2.18758														
		1.00001	2.18766														
