Sym0		Asym0		Sym1		Sym2		Sym3		Sym4		Asym1		Asym2		Asym3		Asym4	
468  Points		496  Points		229  Points		194  Points		181  Points		127  Points		338  Points		207  Points		170  Points		104  Points	
Freq (MHz)	Vph (m/ms)	Freq (MHz)	Vph (m/ms)	Freq (MHz)	Vph (m/ms)	Freq (MHz)	Vph (m/ms)	Freq (MHz)	Vph (m/ms)	Freq (MHz)	Vph (m/ms)	Freq (MHz)	Vph (m/ms)	Freq (MHz)	Vph (m/ms)	Freq (MHz)	Vph (m/ms)	Freq (MHz)	Vph (m/ms)
0.00155803	5.2832	0.00044862	0.185024	0.279523	455.29	0.469304	507.08	0.559025	990.917	0.838528	1886.3	0.139805	207.358	0.419264	2046.76	0.698773	2170.87	0.938588	3279.12
0.00648037	5.28321	0.000855968	0.255029	0.279599	180.895	0.469336	252.712	0.559071	373.749	0.838553	609.311	0.140043	87.2042	0.4193	368.927	0.698797	557.44	0.938595	770.65
0.0114024	5.28307	0.00138944	0.324026	0.27974	112.92	0.46939	168.307	0.559158	230.34	0.838602	363.357	0.140473	55.3562	0.419385	202.774	0.69885	319.799	0.938612	436.641
0.0163239	5.28283	0.00204496	0.391774	0.279947	82.1194	0.469466	126.181	0.559288	166.493	0.838675	258.881	0.141092	40.6688	0.41952	139.843	0.698931	224.234	0.938638	304.622
0.0212446	5.28251	0.00281765	0.458047	0.28022	64.5559	0.469563	100.932	0.559458	130.382	0.838774	201.081	0.141898	32.2423	0.419704	106.751	0.699041	172.66	0.938674	233.908
0.0261643	5.28211	0.00370211	0.522666	0.280557	53.2121	0.469682	84.1124	0.55967	107.163	0.838897	164.393	0.142886	26.7944	0.419937	86.3479	0.699179	140.387	0.938719	189.843
0.0310827	5.28162	0.0046925	0.585477	0.280958	45.2858	0.469823	72.1066	0.559924	90.9807	0.839045	139.037	0.144051	22.9952	0.42022	72.5141	0.699346	118.291	0.938773	159.753
0.0359997	5.28105	0.00578266	0.646359	0.281424	39.4383	0.469986	63.1077	0.560219	79.0598	0.839218	120.467	0.145385	20.2034	0.420552	62.5198	0.699541	102.216	0.938837	137.9
0.0409149	5.28038	0.00696622	0.70521	0.281954	34.9494	0.470172	56.1127	0.560555	69.9146	0.839416	106.281	0.146884	18.0718	0.420934	54.9636	0.699765	89.9967	0.93891	121.309
0.0458281	5.27964	0.00823677	0.761965	0.282547	31.3969	0.47038	50.52	0.560932	62.6781	0.839638	95.0915	0.148539	16.396	0.421364	49.0522	0.700017	80.3957	0.938993	108.285
0.0507391	5.2788	0.00958798	0.816582	0.283203	28.5173	0.470611	45.9471	0.56135	56.8105	0.839885	86.0407	0.150344	15.0477	0.421842	44.3028	0.700297	72.6537	0.939086	97.789
0.0556475	5.27787	0.0110137	0.869048	0.28392	26.1374	0.470865	42.1388	0.561808	51.9577	0.840157	78.5694	0.152292	13.9425	0.422369	40.4046	0.700606	66.2792	0.939188	89.1504
0.0605532	5.27685	0.0125079	0.919364	0.284699	24.1388	0.471142	38.9186	0.562308	47.8784	0.840453	72.2978	0.154376	13.0225	0.422945	37.1487	0.700943	60.9398	0.939301	81.9164
0.0654558	5.27574	0.0140649	0.967547	0.285539	22.4375	0.471443	36.1604	0.562847	44.4019	0.840774	66.9588	0.156587	12.2465	0.423569	34.3893	0.701309	56.4028	0.939423	75.7705
0.0703551	5.27454	0.0156792	1.01363	0.286439	20.9727	0.471768	33.7719	0.563427	41.4044	0.841119	62.3593	0.15892	11.5848	0.42424	32.0216	0.701702	52.5005	0.939555	70.4845
0.0752508	5.27323	0.0173458	1.05767	0.287398	19.6991	0.472117	31.6837	0.564046	38.7939	0.841489	58.3558	0.161367	11.0151	0.424959	29.9683	0.702124	49.1088	0.939698	65.8898
0.0801425	5.27183	0.0190598	1.0997	0.288415	18.5821	0.472491	29.8428	0.564706	36.5003	0.841883	54.8399	0.163589	10.5803	0.425725	28.1714	0.702573	46.1339	0.93985	61.8593
0.0850301	5.27033	0.0208168	1.13981	0.289489	17.5952	0.472889	28.2081	0.565404	34.4696	0.842302	51.7278	0.165544	10.2481	0.426538	26.5861	0.703051	43.5037	0.940013	58.2952
0.089913	5.26873	0.0226127	1.17804	0.29062	16.7172	0.473314	26.7469	0.566142	32.6596	0.842745	48.954	0.167202	9.99651	0.427398	25.1776	0.703556	41.162	0.940187	55.1211
0.0947911	5.26702	0.0244437	1.21448	0.291806	15.9316	0.473764	25.4333	0.566919	31.0363	0.843213	46.4663	0.168538	9.81096	0.428304	23.9182	0.70409	39.0638	0.940372	52.2764
0.099664	5.2652	0.0263064	1.2492	0.293047	15.2249	0.47424	24.2462	0.567735	29.5725	0.843705	44.2229	0.169534	9.68143	0.429256	22.7858	0.704651	37.1734	0.940567	49.7125
0.104531	5.26327	0.0281974	1.28227	0.294341	14.5861	0.474744	23.1683	0.568589	28.2462	0.844221	42.1897	0.170178	9.60143	0.430254	21.7625	0.70524	35.4615	0.940773	47.3897
0.109393	5.26123	0.030114	1.31376	0.295688	14.0062	0.475274	22.1854	0.569481	27.0391	0.844761	40.3385	0.171111	9.49018	0.431297	20.8335	0.705856	33.9041	0.94099	45.2758
0.114248	5.25907	0.0320535	1.34376	0.297086	13.4776	0.475832	21.2858	0.570412	25.9359	0.845326	38.6461	0.172137	9.37405	0.432385	19.9865	0.7065	32.4814	0.941218	43.3437
0.119096	5.25679	0.0340135	1.37232	0.298534	12.9941	0.476419	20.4593	0.571379	24.924	0.845914	37.093	0.173549	9.22363	0.433517	19.2115	0.707171	31.1769	0.941458	41.5711
0.123937	5.25439	0.0359917	1.39953	0.300032	12.5503	0.477034	19.6976	0.572384	23.9928	0.846527	35.6629	0.175362	9.04489	0.434693	18.4998	0.707869	29.9764	0.941709	39.9391
0.12877	5.25185	0.0379864	1.42545	0.301578	12.1418	0.477679	18.9935	0.573426	23.133	0.847163	34.3418	0.177595	8.84435	0.435913	17.8442	0.708595	28.8681	0.941972	38.4317
0.133595	5.24919	0.0399955	1.45014	0.303171	11.7646	0.478353	18.3409	0.574505	22.337	0.847824	33.1177	0.180269	8.6286	0.437176	17.2384	0.709348	27.842	0.942246	37.0351
0.138412	5.24638	0.0420177	1.47368	0.30481	11.4155	0.479058	17.7344	0.57562	21.5979	0.848508	31.9806	0.183404	8.40389	0.438482	16.6772	0.710128	26.8893	0.942533	35.7376
0.14322	5.24344	0.0440513	1.49611	0.306494	11.0916	0.479794	17.1694	0.576771	20.9101	0.849216	30.9214	0.186608	8.20059	0.43983	16.156	0.710934	26.0025	0.942831	34.5291
0.148017	5.24034	0.0458318	1.51481	0.308223	10.7903	0.480562	16.6421	0.577958	20.2685	0.849948	29.9326	0.189876	8.016	0.44122	15.6707	0.711768	25.1751	0.943142	33.4008
0.152805	5.23709	0.0473551	1.53016	0.309764	10.5445	0.481362	16.1487	0.57918	19.6687	0.850703	29.0074	0.193204	7.84784	0.442652	15.218	0.712628	24.4014	0.943465	32.345
0.157582	5.23368	0.0486183	1.54245	0.311103	10.3464	0.482194	15.6863	0.580437	19.1069	0.851482	28.14	0.19659	7.69419	0.444124	14.7947	0.713514	23.6764	0.943801	31.355
0.162347	5.23011	0.0496191	1.55192	0.312227	10.1898	0.48306	15.2522	0.581729	18.5796	0.852285	27.3252	0.20003	7.55339	0.445637	14.3982	0.714427	22.9957	0.944149	30.4249
0.1671	5.22636	0.0503561	1.55875	0.313127	10.0704	0.483961	14.844	0.583055	18.0838	0.853111	26.5583	0.203521	7.42402	0.447189	14.0262	0.715366	22.3555	0.94451	29.5493
0.17184	5.22243	0.0508283	1.56306	0.313795	9.98507	0.484895	14.4595	0.584415	17.6169	0.85396	25.8354	0.20706	7.30485	0.448781	13.6765	0.716332	21.7524	0.944885	28.7238
0.176567	5.21832	0.0515076	1.56918	0.314225	9.93145	0.485866	14.0967	0.585809	17.1765	0.854832	25.1528	0.210644	7.19481	0.450412	13.3472	0.717323	21.1831	0.945272	27.9441
0.181279	5.21401	0.0522469	1.57573	0.314847	9.85575	0.486872	13.7541	0.587236	16.7605	0.855728	24.5073	0.214272	7.09299	0.452082	13.0367	0.71834	20.6452	0.945672	27.2066
0.185975	5.20949	0.0532534	1.58446	0.315528	9.77524	0.487914	13.4301	0.588697	16.367	0.856647	23.896	0.21794	6.99857	0.453789	12.7436	0.719383	20.1359	0.946086	26.508
0.190656	5.20476	0.0545284	1.59523	0.316462	9.66862	0.488994	13.1233	0.59019	15.9942	0.857588	23.3163	0.221646	6.91083	0.455534	12.4664	0.720451	19.6533	0.946514	25.8453
0.195319	5.19981	0.0560729	1.60786	0.317656	9.53831	0.490112	12.8324	0.591715	15.6406	0.858553	22.7658	0.225389	6.82914	0.457316	12.204	0.721545	19.1953	0.946955	25.2158
0.199964	5.19462	0.0578881	1.62214	0.319119	9.38717	0.491268	12.5564	0.593273	15.3049	0.85954	22.2425	0.229166	6.75295	0.459134	11.9553	0.722664	18.7601	0.94741	24.6172
0.204589	5.18919	0.059975	1.63786	0.320862	9.21827	0.492464	12.2942	0.594862	14.9857	0.86055	21.7444	0.232976	6.68176	0.460988	11.7192	0.723808	18.346	0.947879	24.0472
0.209195	5.1835	0.0620657	1.6529	0.322896	9.03488	0.493699	12.0449	0.596482	14.6819	0.861583	21.2698	0.236816	6.61513	0.462878	11.495	0.724977	17.9517	0.948362	23.5039
0.213778	5.17755	0.0641596	1.6673	0.324967	8.86179	0.494975	11.8076	0.598134	14.3925	0.862638	20.817	0.240685	6.55268	0.464802	11.2818	0.726171	17.5758	0.94886	22.9855
0.218339	5.17131	0.0662562	1.68108	0.327073	8.69822	0.496291	11.5816	0.599816	14.1165	0.863716	20.3847	0.244582	6.49405	0.466761	11.0788	0.72739	17.2171	0.949371	22.4903
0.222875	5.16478	0.0683552	1.69428	0.329213	8.54347	0.497649	11.3661	0.601529	13.8531	0.864816	19.9715	0.248505	6.43893	0.468753	10.8853	0.728633	16.8744	0.949898	22.0168
0.227386	5.15795	0.0704562	1.70694	0.331388	8.39688	0.49905	11.1606	0.603272	13.6014	0.865938	19.5762	0.252453	6.38702	0.470517	10.7241	0.7299	16.5467	0.950439	21.5637
0.231869	5.15079	0.0725589	1.71908	0.333597	8.2579	0.500492	10.9644	0.605045	13.3607	0.867082	19.1977	0.256424	6.33809	0.47204	10.5917	0.731192	16.2331	0.950995	21.1297
0.236324	5.14329	0.0746629	1.73072	0.335839	8.12599	0.501785	10.8007	0.606846	13.1303	0.868249	18.835	0.260417	6.29188	0.473313	10.4856	0.732508	15.9328	0.951566	20.7136
0.240748	5.13544	0.0767681	1.7419	0.338115	8.00068	0.502913	10.666	0.608678	12.9097	0.869437	18.4871	0.26443	6.24821	0.474328	10.4038	0.733847	15.6448	0.952152	20.3143
0.245139	5.12722	0.0788742	1.75264	0.340423	7.88154	0.503864	10.5581	0.610537	12.6982	0.870647	18.1532	0.268464	6.20687	0.47508	10.3448	0.73521	15.3686	0.952754	19.931
0.249497	5.11862	0.080981	1.76296	0.342764	7.76818	0.504628	10.4747	0.612426	12.4954	0.871878	17.8325	0.272516	6.16769	0.475563	10.3075	0.736597	15.1035	0.953371	19.5626
0.253819	5.10961	0.0830884	1.77287	0.345138	7.66024	0.505196	10.4146	0.614342	12.3006	0.873132	17.5242	0.276585	6.13052	0.47626	10.2546	0.738007	14.8487	0.954003	19.2083
0.258102	5.10018	0.0851962	1.78241	0.347545	7.55739	0.505563	10.3766	0.616287	12.1136	0.874407	17.2276	0.280671	6.09521	0.477021	10.1979	0.73944	14.6038	0.954651	18.8675
0.262345	5.09032	0.0873042	1.79159	0.349986	7.45933	0.506095	10.3226	0.618259	11.9338	0.875703	16.9422	0.284772	6.06163	0.478064	10.1223	0.740896	14.3682	0.955315	18.5392
0.266547	5.08	0.0894124	1.80043	0.35246	7.3658	0.506678	10.2649	0.620258	11.7609	0.87702	16.6672	0.288888	6.02967	0.479392	10.0289	0.742375	14.1413	0.955995	18.2229
0.270703	5.06921	0.0915205	1.80895	0.354968	7.27653	0.50748	10.1877	0.622284	11.5945	0.878359	16.4022	0.293018	5.9992	0.481015	9.9192	0.743877	13.9228	0.956691	17.918
0.274813	5.05792	0.0936286	1.81715	0.357511	7.19131	0.50851	10.0924	0.624337	11.4342	0.879718	16.1467	0.297161	5.97013	0.482939	9.79489	0.745401	13.7123	0.957403	17.6238
0.278874	5.04614	0.0957366	1.82506	0.360089	7.10993	0.509778	9.98051	0.626416	11.2798	0.881099	15.9001	0.301315	5.94237	0.485175	9.65775	0.746947	13.5092	0.958132	17.3398
0.282884	5.03383	0.0978444	1.83269	0.362704	7.03219	0.511298	9.85364	0.628521	11.131	0.8825	15.6621	0.305481	5.91583	0.487441	9.52618	0.748516	13.3132	0.958877	17.0655
0.28684	5.02098	0.0999519	1.84006	0.365356	6.95793	0.513085	9.71368	0.630377	11.0056	0.883922	15.4322	0.309658	5.89043	0.489736	9.39988	0.750106	13.124	0.959639	16.8005
0.29074	5.00759	0.102059	1.84716	0.368047	6.88696	0.514919	9.57943	0.631974	10.9018	0.885364	15.2099	0.313844	5.86609	0.49206	9.27855	0.751718	12.9413	0.960417	16.5443
0.294583	4.99363	0.104166	1.85403	0.370777	6.81916	0.5168	9.4506	0.633305	10.8179	0.886827	14.9951	0.318039	5.84276	0.494411	9.16193	0.753352	12.7646	0.961213	16.2964
0.298365	4.97911	0.106272	1.86067	0.373547	6.75438	0.518727	9.32694	0.634364	10.7529	0.888311	14.7872	0.322242	5.82036	0.49679	9.04977	0.755007	12.5939	0.962025	16.0566
0.302085	4.96401	0.108378	1.86708	0.37636	6.69249	0.520702	9.20818	0.635147	10.7058	0.889814	14.586	0.326454	5.79884	0.499197	8.94184	0.756684	12.4287	0.962855	15.8243
0.305741	4.94833	0.110484	1.87329	0.379216	6.63338	0.522723	9.0941	0.635649	10.6759	0.891338	14.3912	0.330672	5.77814	0.50163	8.83793	0.758381	12.2688	0.963702	15.5994
0.309332	4.93207	0.112589	1.8793	0.382116	6.57693	0.524792	8.98447	0.636374	10.6334	0.892881	14.2025	0.334896	5.75821	0.504089	8.73783	0.760099	12.114	0.964566	15.3814
0.312855	4.91523	0.114694	1.88511	0.385063	6.52305	0.526909	8.87908	0.637165	10.5878	0.894445	14.0196	0.339127	5.73901	0.506574	8.64135	0.761838	11.9641	0.965448	15.1701
0.31631	4.89781	0.116798	1.89074	0.388058	6.47163	0.529073	8.77773	0.638246	10.5266	0.896028	13.8422	0.343362	5.72049	0.509085	8.54831	0.763598	11.8188	0.966348	14.9652
0.319695	4.87983	0.118901	1.89619	0.391101	6.42259	0.531284	8.68024	0.63962	10.4506	0.89763	13.6702	0.347602	5.70262	0.51162	8.45856	0.765378	11.6779	0.967266	14.7663
0.32301	4.86129	0.121004	1.90148	0.394194	6.37583	0.533543	8.58644	0.641295	10.3608	0.899252	13.5033	0.351846	5.68534	0.51418	8.37193	0.767177	11.5413	0.968202	14.5733
0.32584	4.84469	0.123107	1.9066	0.397338	6.33128	0.535849	8.49615	0.643277	10.2583	0.900894	13.3413	0.356094	5.66863	0.516765	8.28827	0.768997	11.4088	0.969155	14.3859
0.328211	4.83023	0.125209	1.91157	0.400535	6.28884	0.538202	8.40923	0.645574	10.1442	0.902555	13.184	0.360344	5.65246	0.519373	8.20746	0.770599	11.2965	0.970128	14.2039
0.330141	4.81806	0.12731	1.9164	0.403784	6.24845	0.540601	8.32553	0.647894	10.0337	0.904234	13.0312	0.364597	5.63679	0.522004	8.12935	0.771977	11.203	0.971118	14.0271
0.331649	4.80831	0.129411	1.92108	0.407086	6.21003	0.543047	8.2449	0.650238	9.92679	0.905933	12.8827	0.368851	5.62159	0.524659	8.05383	0.773124	11.1272	0.972127	13.8552
0.332746	4.80106	0.131512	1.92563	0.410443	6.17349	0.54554	8.16721	0.652604	9.8232	0.907651	12.7384	0.373107	5.60683	0.527336	7.98078	0.774036	11.0683	0.973155	13.6881
0.333444	4.79639	0.133612	1.93005	0.413853	6.13876	0.548078	8.09234	0.654994	9.72282	0.909387	12.598	0.377363	5.59249	0.530035	7.9101	0.77471	11.0255	0.974201	13.5256
0.334441	4.78964	0.135711	1.93434	0.417318	6.10577	0.550662	8.02016	0.657407	9.62551	0.911142	12.4615	0.38162	5.57855	0.532756	7.84168	0.775142	10.9983	0.975267	13.3674
0.335516	4.78224	0.13781	1.93851	0.420836	6.07444	0.553291	7.95057	0.659842	9.53114	0.912915	12.3286	0.385876	5.56497	0.535499	7.77542	0.775766	10.9595	0.976352	13.2136
0.336963	4.77208	0.139908	1.94257	0.424408	6.0447	0.555965	7.88345	0.662299	9.4396	0.914707	12.1993	0.390132	5.55175	0.538263	7.71124	0.776446	10.9178	0.977455	13.0638
0.33877	4.7591	0.142006	1.94652	0.428032	6.01647	0.558683	7.81869	0.664778	9.35076	0.916516	12.0734	0.394386	5.53885	0.541049	7.64904	0.777374	10.8617	0.978579	12.9179
0.34092	4.74318	0.144104	1.95036	0.431707	5.98969	0.561445	7.75621	0.667279	9.26452	0.918344	11.9508	0.398638	5.52626	0.543854	7.58875	0.778555	10.7919	0.979721	12.7759
0.343394	4.72424	0.146201	1.9541	0.435432	5.96428	0.56425	7.69591	0.669801	9.18079	0.92019	11.8314	0.402888	5.51396	0.54668	7.53029	0.779993	10.7091	0.980883	12.6375
0.34617	4.70216	0.148297	1.95774	0.439207	5.94018	0.567098	7.63769	0.672345	9.09945	0.922054	11.715	0.407135	5.50192	0.549526	7.47358	0.781692	10.6141	0.982065	12.5026
0.34888	4.67975	0.150393	1.96129	0.443029	5.9173	0.569987	7.58147	0.67491	9.02041	0.923692	11.616	0.411379	5.49015	0.552392	7.41855	0.78366	10.5079	0.983267	12.3712
0.351527	4.65705	0.152489	1.96474	0.446896	5.8956	0.572918	7.52718	0.677495	8.9436	0.9251	11.5333	0.415618	5.47861	0.555278	7.36515	0.785646	10.4046	0.984489	12.2431
0.35411	4.63408	0.154584	1.96811	0.450808	5.87499	0.57589	7.47473	0.680102	8.86893	0.926271	11.4661	0.419854	5.4673	0.558182	7.3133	0.787651	10.304	0.985731	12.1181
0.356633	4.61088	0.156678	1.9714	0.454762	5.85542	0.578902	7.42404	0.682728	8.79631	0.927201	11.4137	0.424085	5.45619	0.561106	7.26294	0.789673	10.206	0.986994	11.9962
0.359098	4.58749	0.158773	1.9746	0.458756	5.83682	0.581953	7.37505	0.685375	8.72567	0.927888	11.3756	0.42831	5.44528	0.564048	7.21403	0.791714	10.1107	0.988276	11.8773
0.361506	4.56393	0.160866	1.97772	0.462788	5.81914	0.585044	7.32769	0.688042	8.65694	0.928329	11.3513	0.43253	5.43456	0.567009	7.1665	0.793772	10.0178	0.989411	11.776
0.36386	4.54024	0.16296	1.98077	0.466856	5.80232	0.588172	7.2819	0.690729	8.59005	0.928964	11.3167	0.436743	5.424	0.569989	7.12031	0.795848	9.92723	0.990391	11.6914
0.366162	4.51646	0.165053	1.98375	0.470959	5.78631	0.591337	7.23761	0.693436	8.52493	0.929656	11.2794	0.440949	5.4136	0.572986	7.0754	0.797941	9.839	0.991209	11.6225
0.368414	4.4926	0.167146	1.98665	0.475094	5.77105	0.59454	7.19475	0.696162	8.46153	0.930602	11.2293	0.445149	5.40335	0.576001	7.03174	0.800052	9.75298	0.991862	11.5688
0.370618	4.46871	0.169238	1.98949	0.479259	5.7565	0.597778	7.15329	0.698908	8.39978	0.931803	11.1666	0.44934	5.39323	0.579035	6.98927	0.80218	9.6691	0.992345	11.5297
0.372776	4.4448	0.17133	1.99226	0.483452	5.7426	0.601051	7.11316	0.701673	8.33962	0.933264	11.0921	0.453523	5.38323	0.582085	6.94796	0.804325	9.58729	0.992656	11.5048
0.37489	4.42089	0.173421	1.99497	0.487673	5.72933	0.604359	7.0743	0.704456	8.28101	0.93499	11.0065	0.457697	5.37336	0.585154	6.90776	0.806486	9.50747	0.993104	11.4693
0.376963	4.39703	0.175513	1.99761	0.491918	5.71662	0.607701	7.03668	0.707259	8.22388	0.936987	10.9103	0.461862	5.36358	0.588239	6.86864	0.808665	9.42958	0.993594	11.4311
0.378996	4.37322	0.177603	2.0002	0.496186	5.70446	0.611076	7.00024	0.71008	8.1682	0.939	10.8164	0.466016	5.3539	0.591342	6.83056	0.810859	9.35355	0.994265	11.3795
0.380992	4.34948	0.179694	2.00273	0.500475	5.69279	0.614483	6.96493	0.71292	8.1139	0.94103	10.7247	0.470161	5.34431	0.594462	6.79349	0.813071	9.27933	0.995121	11.3152
0.382951	4.32584	0.181784	2.0052	0.504784	5.68159	0.617922	6.93072	0.715778	8.06095	0.943076	10.6351	0.474294	5.3348	0.597599	6.75739	0.815298	9.20686	0.996166	11.2386
0.384877	4.30232	0.183874	2.00762	0.509111	5.67083	0.621392	6.89756	0.718654	8.00931	0.945139	10.5475	0.478416	5.32536	0.600753	6.72223	0.817542	9.13607	0.997407	11.1505
0.38677	4.27892	0.185964	2.00999	0.513454	5.66046	0.624892	6.86541	0.721549	7.95893	0.947218	10.4619	0.482527	5.31598	0.603924	6.68799	0.819802	9.06692	0.998851	11.0515
0.388633	4.25566	0.188053	2.01231	0.517813	5.65048	0.628422	6.83423	0.724461	7.90976	0.949313	10.3783	0.486624	5.30665	0.607111	6.65462	0.822077	8.99935	1.00032	10.9548
0.390467	4.23256	0.190142	2.01458	0.522186	5.64084	0.63198	6.80399	0.727392	7.86178	0.951423	10.2965	0.490709	5.29737	0.610315	6.62212	0.824368	8.93332		
0.392273	4.20962	0.192231	2.0168	0.526571	5.63153	0.635567	6.77465	0.73034	7.81495	0.95355	10.2165	0.49478	5.28813	0.613536	6.59044	0.826675	8.86877		
0.394053	4.18686	0.194319	2.01898	0.530967	5.62253	0.639181	6.74618	0.733305	7.76923	0.955692	10.1382	0.498837	5.27893	0.616773	6.55956	0.828997	8.80567		
0.395809	4.16429	0.196407	2.02111	0.535373	5.6138	0.642822	6.71854	0.736289	7.72459	0.95785	10.0617	0.502879	5.26975	0.620027	6.52947	0.831335	8.74396		
0.397541	4.14191	0.198495	2.0232	0.539788	5.60534	0.646489	6.6917	0.739289	7.68099	0.960024	9.98676	0.506906	5.26059	0.623297	6.50013	0.833688	8.68362		
0.399251	4.11974	0.200583	2.02524	0.544211	5.59711	0.650182	6.66564	0.742307	7.6384	0.962212	9.91345	0.510918	5.25144	0.626584	6.47153	0.836055	8.62458		
0.40094	4.09778	0.20267	2.02725	0.548641	5.58912	0.6539	6.64033	0.745342	7.5968	0.964416	9.84168	0.514913	5.2423	0.629887	6.44364	0.838438	8.56682		
0.40261	4.07603	0.204757	2.02921	0.553077	5.58133	0.657641	6.61573	0.748395	7.55616	0.966635	9.77142	0.518892	5.23317	0.633207	6.41644	0.840836	8.51031		
0.404261	4.0545	0.206844	2.03114	0.557518	5.57374	0.661407	6.59183	0.751464	7.51644	0.968869	9.70263	0.522853	5.22403	0.636543	6.38992	0.843248	8.455		
0.405895	4.0332	0.208931	2.03303	0.561963	5.56633	0.665195	6.56859	0.75455	7.47763	0.971118	9.63525	0.526796	5.21489	0.639896	6.36406	0.845675	8.40085		
0.407512	4.01212	0.211018	2.03489	0.566411	5.55908	0.669006	6.546	0.757654	7.43969	0.973381	9.56924	0.530721	5.20573	0.643265	6.33883	0.848117	8.34784		
0.409113	3.99128	0.213104	2.03671	0.570861	5.55199	0.672839	6.52403	0.760774	7.40261	0.975659	9.50458	0.534628	5.19656	0.64665	6.31422	0.850573	8.29594		
0.4107	3.97066	0.21519	2.03849	0.575313	5.54505	0.676693	6.50265	0.763911	7.36635	0.977952	9.44122	0.538515	5.18736	0.650052	6.29021	0.853044	8.24511		
0.412273	3.95029	0.217276	2.04024	0.579766	5.53823	0.680567	6.48185	0.767065	7.3309	0.980259	9.37913	0.542382	5.17814	0.653471	6.26679	0.855528	8.19533		
0.413833	3.93015	0.219361	2.04196	0.584219	5.53154	0.684462	6.46161	0.770235	7.29623	0.98258	9.31828	0.546229	5.16889	0.656906	6.24395	0.858027	8.14656		
0.41538	3.91025	0.221447	2.04365	0.588671	5.52496	0.688376	6.4419	0.773423	7.26233	0.984915	9.25861	0.550055	5.1596	0.660358	6.22166	0.86054	8.09877		
0.416917	3.89059	0.223532	2.04531	0.593123	5.51848	0.69231	6.42271	0.776626	7.22917	0.987265	9.20012	0.553859	5.15028	0.663826	6.19991	0.863067	8.05195		
0.418442	3.87116	0.225617	2.04694	0.597572	5.5121	0.696261	6.40402	0.779847	7.19673	0.989628	9.14276	0.557642	5.14092	0.667311	6.17869	0.865608	8.00607		
0.419957	3.85198	0.227702	2.04854	0.602019	5.5058	0.700231	6.3858	0.783084	7.165	0.992005	9.08651	0.561403	5.13151	0.670812	6.15799	0.868163	7.96109		
0.421463	3.83303	0.229787	2.05011	0.606464	5.49958	0.704218	6.36806	0.786338	7.13396	0.994395	9.03133	0.565141	5.12206	0.67433	6.13778	0.870731	7.91701		
0.42296	3.81433	0.231871	2.05165	0.610904	5.49344	0.708222	6.35076	0.789608	7.10358	0.996799	8.9772	0.568856	5.11256	0.677864	6.11807	0.873313	7.87378		
0.424448	3.79586	0.233955	2.05317	0.615341	5.48736	0.712242	6.33389	0.792896	7.07386	0.999217	8.9241	0.572548	5.103	0.681414	6.09883	0.875909	7.8314		
0.425929	3.77762	0.23604	2.05466	0.619773	5.48135	0.716279	6.31744	0.796199	7.04478	1.00165	8.87198	0.576215	5.0934	0.684981	6.08005	0.878518	7.78984		
0.427402	3.75962	0.238124	2.05612	0.6242	5.47538	0.72033	6.3014	0.79952	7.01632			0.579859	5.08374	0.688565	6.06173	0.881141	7.74908		
0.428869	3.74186	0.240208	2.05756	0.628622	5.46947	0.724396	6.28574	0.802857	6.98847			0.583478	5.07402	0.692165	6.04385	0.883777	7.7091		
0.430329	3.72432	0.242291	2.05898	0.633037	5.4636	0.728477	6.27045	0.806211	6.96121			0.587071	5.06424	0.695781	6.0264	0.886427	7.66987		
0.431784	3.70702	0.244375	2.06037	0.637446	5.45776	0.732572	6.25553	0.809581	6.93452			0.59064	5.0544	0.699413	6.00937	0.88909	7.63139		
0.433233	3.68995	0.246458	2.06174	0.641849	5.45196	0.73668	6.24096	0.812969	6.90841			0.594183	5.0445	0.703062	5.99274	0.891766	7.59364		
0.434677	3.6731	0.248541	2.06309	0.646244	5.44619	0.740801	6.22672	0.816373	6.88284			0.597701	5.03454	0.706726	5.97651	0.894455	7.55659		
0.436116	3.65647	0.250624	2.06442	0.650631	5.44045	0.744935	6.21281	0.819795	6.85782			0.601192	5.02452	0.710407	5.96067	0.897158	7.52022		
0.437551	3.64007	0.252707	2.06572	0.65501	5.43473	0.74908	6.19922	0.823233	6.83332			0.604657	5.01443	0.714103	5.94521	0.899873	7.48453		
0.438982	3.62389	0.25479	2.067	0.659381	5.42902	0.753237	6.18592	0.826689	6.80935			0.608096	5.00429	0.717815	5.93011	0.902602	7.4495		
0.44041	3.60792	0.256873	2.06827	0.663743	5.42333	0.757406	6.17292	0.830161	6.78587			0.611508	4.99407	0.721542	5.91538	0.905343	7.41511		
0.441834	3.59217	0.258956	2.06951	0.668095	5.41765	0.761584	6.1602	0.833651	6.7629			0.614893	4.9838	0.725285	5.90099	0.908098	7.38134		
0.443255	3.57663	0.261038	2.07073	0.672438	5.41198	0.765773	6.14776	0.837158	6.7404			0.618252	4.97346	0.729042	5.88693	0.910865	7.34819		
0.444674	3.56131	0.26312	2.07194	0.676771	5.40632	0.769972	6.13557	0.840683	6.71838			0.621583	4.96306	0.732815	5.87321	0.913646	7.31563		
0.44609	3.54619	0.265203	2.07313	0.681094	5.40066	0.77418	6.12364	0.844225	6.69683			0.624887	4.9526	0.736602	5.85981	0.916439	7.28366		
0.447504	3.53127	0.267285	2.07429	0.685407	5.39499	0.778397	6.11195	0.847785	6.67573			0.628164	4.94208	0.740404	5.84672	0.919245	7.25226		
0.448916	3.51656	0.269367	2.07545	0.689708	5.38933	0.782622	6.1005	0.851363	6.65508			0.631414	4.9315	0.74422	5.83393	0.922064	7.22142		
0.450326	3.50205	0.271448	2.07658	0.693998	5.38365	0.786855	6.08927	0.854959	6.63486			0.634636	4.92086	0.74805	5.82143	0.924895	7.19112		
0.451736	3.48774	0.27353	2.0777	0.698277	5.37798	0.791095	6.07826	0.858573	6.61508			0.637831	4.91016	0.751893	5.80922	0.927739	7.16136		
0.453143	3.47362	0.275612	2.0788	0.702544	5.37229	0.795343	6.06746	0.862204	6.59571			0.640999	4.89941	0.75575	5.79729	0.930596	7.13212		
0.45455	3.4597	0.277693	2.07988	0.706798	5.36659	0.799597	6.05687	0.865854	6.57676			0.64414	4.8886	0.75962	5.78563	0.933466	7.10338		
0.455956	3.44596	0.279775	2.08095	0.711041	5.36088	0.803858	6.04647	0.869523	6.55821			0.647254	4.87774	0.763503	5.77422	0.936348	7.07515		
0.457361	3.43241	0.281856	2.082	0.71527	5.35515	0.808124	6.03625	0.87321	6.54006			0.65034	4.86683	0.767398	5.76307	0.939242	7.04741		
0.458766	3.41905	0.283937	2.08304	0.719487	5.34941	0.812395	6.02622	0.876916	6.52231			0.6534	4.85587	0.771305	5.75217	0.942149	7.02015		
0.460171	3.40587	0.286018	2.08406	0.723691	5.34364	0.816672	6.01636	0.88064	6.50493			0.656433	4.84487	0.775224	5.7415	0.945069	6.99335		
0.461575	3.39287	0.288099	2.08507	0.727881	5.33786	0.820953	6.00667	0.884384	6.48793			0.659439	4.83381	0.779154	5.73106	0.948001	6.96702		
0.46298	3.38004	0.29018	2.08606	0.732058	5.33206	0.825238	5.99714	0.888146	6.4713			0.662419	4.82272	0.783095	5.72085	0.950945	6.94113		
0.464384	3.36739	0.292261	2.08704	0.73622	5.32623	0.829526	5.98777	0.891928	6.45504			0.665373	4.81158	0.787047	5.71084	0.953902	6.91568		
0.465789	3.35491	0.294342	2.08801	0.740369	5.32039	0.833818	5.97854	0.895729	6.43913			0.6683	4.80041	0.791009	5.70105	0.956871	6.89066		
0.467195	3.34261	0.296423	2.08896	0.744503	5.31451	0.838113	5.96946	0.89955	6.42357			0.671201	4.7892	0.794981	5.69146	0.959853	6.86607		
0.468601	3.33046	0.298503	2.0899	0.748623	5.30861	0.84241	5.96051	0.90339	6.40836			0.674077	4.77795	0.798962	5.68207	0.962847	6.84188		
0.470007	3.31849	0.300584	2.09083	0.752728	5.30269	0.84671	5.95169	0.90725	6.39348			0.676927	4.76667	0.802953	5.67286	0.965853	6.81811		
0.471415	3.30667	0.302664	2.09175	0.756818	5.29674	0.851011	5.94301	0.911129	6.37894			0.679751	4.75537	0.806952	5.66383	0.968872	6.79473		
0.472823	3.29502	0.304744	2.09265	0.760892	5.29075	0.855313	5.93444	0.915029	6.36472			0.682551	4.74403	0.81096	5.65498	0.971902	6.77173		
0.474233	3.28352	0.306825	2.09354	0.764952	5.28474	0.859617	5.92599	0.918949	6.35083			0.685325	4.73267	0.814975	5.64629	0.974945	6.74912		
0.475643	3.27218	0.308905	2.09442	0.768996	5.2787	0.863921	5.91765	0.922888	6.33725			0.688075	4.72128	0.818998	5.63777	0.978	6.72688		
0.477055	3.26099	0.310985	2.09528	0.773024	5.27263	0.868225	5.90943	0.926848	6.32399			0.690801	4.70987	0.823028	5.62941	0.981067	6.70501		
0.478468	3.24995	0.313065	2.09614	0.777036	5.26653	0.87253	5.9013	0.930828	6.31102			0.693503	4.69845	0.827065	5.6212	0.984146	6.6835		
0.479882	3.23906	0.315145	2.09699	0.781032	5.2604	0.876834	5.89327	0.934829	6.29836			0.696181	4.687	0.831108	5.61313	0.987237	6.66233		
0.481298	3.22831	0.317225	2.09782	0.785012	5.25423	0.881137	5.88535	0.938849	6.28599			0.698835	4.67555	0.835156	5.60521	0.99034	6.64152		
0.482716	3.21771	0.319304	2.09864	0.788975	5.24803	0.88544	5.87751	0.94289	6.27391			0.701466	4.66408	0.839211	5.59742	0.993455	6.62104		
0.484135	3.20725	0.321384	2.09946	0.792923	5.2418	0.889741	5.86976	0.946952	6.26211			0.704074	4.65259	0.84327	5.58976	0.996582	6.60089		
0.485556	3.19693	0.323464	2.10026	0.796853	5.23554	0.894042	5.8621	0.951034	6.25059			0.706659	4.64111	0.847334	5.58222	0.999721	6.58107		
0.486978	3.18675	0.325543	2.10105	0.800767	5.22924	0.89834	5.85451	0.955136	6.23935			0.709223	4.62961	0.851402	5.5748	1.00287	6.56156		
0.488403	3.1767	0.327623	2.10183	0.804663	5.22291	0.902636	5.84701	0.959259	6.22837			0.711764	4.61811	0.855474	5.5675				
0.489829	3.16679	0.329702	2.10261	0.808543	5.21655	0.906931	5.83959	0.963401	6.21766			0.714283	4.60661	0.85955	5.56031				
0.491257	3.15701	0.331782	2.10337	0.812405	5.21015	0.911223	5.83224	0.967564	6.2072			0.716781	4.59511	0.863629	5.55323				
0.492687	3.14735	0.333861	2.10412	0.816251	5.20372	0.915513	5.82495	0.971748	6.197			0.719257	4.58361	0.86771	5.54624				
0.494119	3.13783	0.33594	2.10487	0.820079	5.19725	0.919799	5.81774	0.975951	6.18704			0.721713	4.57211	0.871794	5.53936				
0.495553	3.12842	0.338019	2.1056	0.823889	5.19075	0.924084	5.8106	0.980174	6.17733			0.724148	4.56062	0.87588	5.53256				
0.49699	3.11915	0.340098	2.10633	0.827682	5.18422	0.928365	5.80352	0.984417	6.16785			0.726563	4.54914	0.879967	5.52586				
0.498428	3.10999	0.342177	2.10705	0.831458	5.17765	0.932643	5.7965	0.988679	6.15861			0.728958	4.53766	0.884055	5.51924				
0.499869	3.10095	0.344256	2.10776	0.835216	5.17105	0.936918	5.78955	0.992961	6.14959			0.731334	4.5262	0.888145	5.51271				
0.501312	3.09203	0.346335	2.10846	0.838956	5.16441	0.94119	5.78265	0.997262	6.14079			0.73369	4.51475	0.892234	5.50625				
0.502757	3.08323	0.348414	2.10915	0.842678	5.15775	0.945458	5.77581	1.00158	6.13222			0.736027	4.50331	0.896324	5.49987				
0.504205	3.07454	0.350493	2.10984	0.846382	5.15105	0.949723	5.76903					0.738345	4.49189	0.900414	5.49356				
0.505655	3.06596	0.352572	2.11051	0.850069	5.14431	0.953984	5.76231					0.740645	4.48048	0.904503	5.48731				
0.507107	3.05749	0.354651	2.11118	0.853738	5.13755	0.958242	5.75563					0.742927	4.4691	0.908591	5.48113				
0.508562	3.04914	0.356729	2.11184	0.857388	5.13075	0.962497	5.74902					0.745191	4.45773	0.912678	5.47501				
0.510019	3.04089	0.358808	2.1125	0.861021	5.12392	0.966748	5.74245					0.747437	4.44639	0.916763	5.46895				
0.511478	3.03274	0.360886	2.11314	0.864636	5.11706	0.970995	5.73593					0.749667	4.43507	0.920847	5.46295				
0.512941	3.0247	0.362965	2.11378	0.868233	5.11017	0.975239	5.72947					0.751879	4.42377	0.924928	5.457				
0.514405	3.01676	0.365043	2.11441	0.871812	5.10325	0.979479	5.72305					0.754075	4.41251	0.929006	5.4511				
0.515872	3.00893	0.367122	2.11504	0.875372	5.0963	0.983715	5.71669					0.756254	4.40126	0.933082	5.44524				
0.517342	3.00119	0.3692	2.11565	0.878915	5.08932	0.987949	5.71037					0.758417	4.39005	0.937154	5.43943				
0.518814	2.99355	0.371278	2.11627	0.88244	5.08231	0.992178	5.7041					0.760565	4.37886	0.941223	5.43367				
0.520289	2.98601	0.373357	2.11687	0.885946	5.07527	0.996404	5.69787					0.762697	4.36771	0.945288	5.42794				
0.521766	2.97856	0.375435	2.11747	0.889435	5.0682	1.00063	5.6917					0.764813	4.35659	0.949349	5.42225				
0.523246	2.9712	0.377513	2.11806	0.892906	5.06111							0.766915	4.3455	0.953406	5.41659				
0.524728	2.96394	0.379591	2.11864	0.896358	5.05399							0.769002	4.33444	0.957457	5.41097				
0.526213	2.95677	0.381669	2.11922	0.899793	5.04685							0.771075	4.32342	0.961504	5.40538				
0.527701	2.94968	0.383747	2.11979	0.90321	5.03968							0.773134	4.31243	0.965546	5.39982				
0.529191	2.94269	0.385825	2.12036	0.906609	5.03248							0.775179	4.30149	0.969582	5.39429				
0.530684	2.93578	0.387903	2.12092	0.909991	5.02526							0.77721	4.29057	0.973612	5.38877				
0.53218	2.92896	0.389981	2.12147	0.913354	5.01802							0.779228	4.2797	0.977637	5.38329				
0.533678	2.92222	0.392059	2.12202	0.9167	5.01075							0.781233	4.26887	0.981655	5.37782				
0.535179	2.91556	0.394137	2.12256	0.920028	5.00346							0.783225	4.25808	0.985666	5.37238				
0.536683	2.90899	0.396215	2.1231	0.923339	4.99615							0.785204	4.24732	0.98967	5.36695				
0.538189	2.9025	0.398292	2.12363	0.926632	4.98882							0.787171	4.23661	0.993668	5.36154				
0.539698	2.89608	0.40037	2.12416	0.929907	4.98147							0.789126	4.22595	0.997658	5.35614				
0.541209	2.88975	0.402448	2.12468	0.933165	4.97409							0.79107	4.21532	1.00164	5.35076				
0.542723	2.88349	0.404525	2.12519	0.936406	4.9667							0.793001	4.20474						
0.54424	2.8773	0.406603	2.1257	0.93963	4.95929							0.794922	4.1942						
0.54576	2.87119	0.408681	2.12621	0.942836	4.95186							0.796831	4.18371						
0.547282	2.86516	0.410758	2.12671	0.946025	4.94442							0.798729	4.17326						
0.548807	2.85919	0.412835	2.1272	0.949197	4.93696							0.800617	4.16286						
0.550334	2.8533	0.414913	2.12769	0.952353	4.92948							0.802494	4.1525						
0.551865	2.84748	0.41699	2.12818	0.955491	4.92199							0.804361	4.14219						
0.553397	2.84173	0.419068	2.12866	0.958612	4.91448							0.806218	4.13193						
0.554933	2.83605	0.421145	2.12913	0.961717	4.90696							0.808066	4.12172						
0.556471	2.83043	0.423222	2.1296	0.964805	4.89943							0.809903	4.11155						
0.558012	2.82488	0.4253	2.13007	0.967877	4.89188							0.811731	4.10143						
0.559555	2.8194	0.427377	2.13053	0.970932	4.88432							0.813551	4.09137						
0.561101	2.81398	0.429454	2.13099	0.973971	4.87675							0.815361	4.08135						
0.56265	2.80862	0.431531	2.13144	0.976993	4.86917							0.817162	4.07138						
0.564201	2.80332	0.433608	2.13189	0.979999	4.86158							0.818955	4.06145						
0.565755	2.79809	0.435685	2.13234	0.982989	4.85397							0.82074	4.05158						
0.567312	2.79292	0.437762	2.13278	0.985963	4.84636							0.822516	4.04176						
0.568871	2.78781	0.439839	2.13321	0.988922	4.83874							0.824284	4.03199						
0.570433	2.78276	0.441916	2.13365	0.991864	4.83112							0.826044	4.02227						
0.571997	2.77776	0.443993	2.13407	0.994791	4.82348							0.827797	4.0126						
0.573564	2.77283	0.44607	2.1345	0.997701	4.81584							0.829543	4.00299						
0.575133	2.76795	0.448147	2.13492	1.0006	4.80819							0.831281	3.99342						
0.576705	2.76312	0.450224	2.13533									0.833012	3.9839						
0.57828	2.75835	0.452301	2.13575									0.834736	3.97444						
0.579857	2.75364	0.454378	2.13616									0.836453	3.96502						
0.581436	2.74898	0.456455	2.13656									0.838163	3.95566						
0.583018	2.74437	0.458531	2.13696									0.839867	3.94635						
0.584603	2.73981	0.460608	2.13736									0.841565	3.93709						
0.58619	2.7353	0.462685	2.13775									0.843257	3.92789						
0.58778	2.73085	0.464761	2.13814									0.844942	3.91873						
0.589372	2.72645	0.466838	2.13853									0.846622	3.90963						
0.590967	2.72209	0.468915	2.13892									0.848296	3.90058						
0.592564	2.71778	0.470991	2.1393									0.849965	3.89158						
0.594163	2.71352	0.473068	2.13967									0.851628	3.88263						
0.595765	2.70931	0.475144	2.14005									0.853285	3.87373						
0.597369	2.70514	0.477221	2.14042									0.854938	3.86489						
0.598976	2.70103	0.479297	2.14079									0.856585	3.85609						
0.600585	2.69695	0.481374	2.14115									0.858228	3.84735						
0.602197	2.69292	0.48345	2.14151									0.859866	3.83866						
0.603811	2.68894	0.485527	2.14187									0.861499	3.83002						
0.605427	2.68499	0.487603	2.14222									0.863128	3.82143						
0.607046	2.68109	0.48968	2.14258									0.864752	3.8129						
0.608667	2.67724	0.491756	2.14293									0.866372	3.80441						
0.61029	2.67342	0.493832	2.14327									0.867988	3.79598						
0.611916	2.66965	0.495908	2.14362									0.8696	3.78759						
0.613544	2.66591	0.497985	2.14396									0.871207	3.77926						
0.615174	2.66222	0.500061	2.14429									0.872811	3.77098						
0.616807	2.65857	0.502137	2.14463									0.874412	3.76274						
0.618442	2.65495	0.504213	2.14496									0.876008	3.75456						
0.620079	2.65137	0.50629	2.14529									0.877601	3.74643						
0.621719	2.64784	0.508366	2.14562									0.879191	3.73835						
0.62336	2.64434	0.510442	2.14594									0.880777	3.73031						
0.625004	2.64087	0.512518	2.14626									0.882361	3.72233						
0.62665	2.63744	0.514594	2.14658									0.883941	3.7144						
0.628299	2.63405	0.51667	2.1469									0.885518	3.70651						
0.629949	2.6307	0.518746	2.14721									0.887092	3.69868						
0.631602	2.62738	0.520822	2.14752									0.888663	3.69089						
0.633257	2.62409	0.522898	2.14783									0.890231	3.68315						
0.634914	2.62084	0.524974	2.14814									0.891797	3.67546						
0.636573	2.61762	0.52705	2.14844									0.89336	3.66782						
0.638234	2.61443	0.529126	2.14874									0.894921	3.66022						
0.639898	2.61128	0.531202	2.14904									0.896479	3.65268						
0.641563	2.60816	0.533278	2.14934									0.898035	3.64518						
0.643231	2.60508	0.535354	2.14963									0.899588	3.63773						
0.644901	2.60202	0.53743	2.14992									0.901139	3.63032						
0.646573	2.599	0.539505	2.15021									0.902689	3.62297						
0.648247	2.596	0.541581	2.1505									0.904236	3.61566						
0.649923	2.59304	0.543657	2.15079									0.905781	3.60839						
0.651601	2.5901	0.545733	2.15107									0.907324	3.60117						
0.653281	2.5872	0.547809	2.15135									0.908866	3.594						
0.654963	2.58433	0.549884	2.15163									0.910405	3.58687						
0.656647	2.58148	0.55196	2.15191									0.911943	3.57979						
0.658333	2.57867	0.554036	2.15218									0.91348	3.57276						
0.660021	2.57588	0.556111	2.15246									0.915014	3.56577						
0.661711	2.57312	0.558187	2.15273									0.916547	3.55882						
0.663403	2.57038	0.560263	2.153									0.918079	3.55192						
0.665097	2.56768	0.562338	2.15326									0.919609	3.54506						
0.666793	2.565	0.564414	2.15353									0.921139	3.53825						
0.66849	2.56235	0.566489	2.15379									0.922666	3.53148						
0.67019	2.55972	0.568565	2.15405									0.924193	3.52475						
0.671891	2.55712	0.570641	2.15431									0.925718	3.51807						
0.673595	2.55454	0.572716	2.15457									0.927242	3.51142						
0.6753	2.55199	0.574792	2.15482									0.928765	3.50483						
0.677008	2.54947	0.576867	2.15508									0.930287	3.49827						
0.678717	2.54697	0.578943	2.15533									0.931808	3.49176						
0.680427	2.54449	0.581018	2.15558									0.933329	3.48529						
0.68214	2.54204	0.583094	2.15583									0.934848	3.47886						
0.683855	2.53961	0.585169	2.15607									0.936366	3.47247						
0.685571	2.53721	0.587244	2.15632									0.937884	3.46612						
0.687289	2.53483	0.58932	2.15656									0.939401	3.45981						
0.689009	2.53247	0.591395	2.1568									0.940917	3.45355						
0.690731	2.53013	0.593471	2.15704									0.942433	3.44732						
0.692455	2.52782	0.595546	2.15728									0.943948	3.44113						
0.69418	2.52553	0.597621	2.15751									0.945463	3.43499						
0.695907	2.52326	0.599697	2.15775									0.946977	3.42888						
0.697636	2.52101	0.601772	2.15798									0.94849	3.42282						
0.699366	2.51878	0.603847	2.15821									0.950003	3.41679						
0.701098	2.51658	0.605922	2.15844									0.951516	3.4108						
0.702832	2.51439	0.607998	2.15867									0.953028	3.40485						
0.704568	2.51223	0.610073	2.1589									0.95454	3.39894						
0.706305	2.51008	0.612148	2.15912									0.956052	3.39306						
0.708044	2.50796	0.614223	2.15935									0.957563	3.38723						
0.709784	2.50585	0.616298	2.15957									0.959074	3.38143						
0.711527	2.50377	0.618374	2.15979									0.960585	3.37567						
0.71327	2.5017	0.620449	2.16001									0.962096	3.36994						
0.715016	2.49966	0.622524	2.16022									0.963607	3.36425						
0.716763	2.49763	0.624599	2.16044									0.965117	3.3586						
0.718512	2.49562	0.626674	2.16066									0.966628	3.35299						
0.720262	2.49363	0.628749	2.16087									0.968138	3.34741						
0.722014	2.49166	0.630824	2.16108									0.969649	3.34187						
0.723768	2.4897	0.632899	2.16129									0.971159	3.33636						
0.725523	2.48777	0.634974	2.1615									0.97267	3.33089						
0.727279	2.48585	0.637049	2.16171									0.97418	3.32545						
0.729037	2.48395	0.639124	2.16191									0.975691	3.32005						
0.730797	2.48207	0.641199	2.16212									0.977202	3.31468						
0.732558	2.4802	0.643274	2.16232									0.978713	3.30935						
0.734321	2.47835	0.645349	2.16252									0.980224	3.30405						
0.736085	2.47652	0.647424	2.16272									0.981735	3.29878						
0.737851	2.4747	0.649499	2.16292									0.983247	3.29355						
0.739618	2.4729	0.651574	2.16312									0.984759	3.28835						
0.741387	2.47112	0.653649	2.16332									0.986271	3.28319						
0.743157	2.46935	0.655724	2.16352									0.987783	3.27805						
0.744929	2.4676	0.657799	2.16371									0.989296	3.27295						
0.746702	2.46586	0.659874	2.1639									0.990809	3.26789						
0.748477	2.46414	0.661949	2.1641									0.992322	3.26285						
0.750253	2.46243	0.664024	2.16429									0.993836	3.25785						
0.75203	2.46074	0.666098	2.16448									0.99535	3.25288						
0.753809	2.45906	0.668173	2.16466									0.996865	3.24794						
0.75559	2.4574	0.670248	2.16485									0.99838	3.24303						
0.757371	2.45576	0.672323	2.16504									0.999896	3.23815						
0.759154	2.45412	0.674398	2.16522									1.00141	3.23331						
0.760939	2.45251	0.676472	2.16541																
0.762725	2.4509	0.678547	2.16559																
0.764512	2.44931	0.680622	2.16577																
0.7663	2.44774	0.682696	2.16595																
0.76809	2.44617	0.684771	2.16613																
0.769881	2.44462	0.686846	2.16631																
0.771674	2.44309	0.688921	2.16649																
0.773468	2.44157	0.690995	2.16666																
0.775263	2.44006	0.69307	2.16684																
0.77706	2.43856	0.695145	2.16701																
0.778858	2.43708	0.697219	2.16718																
0.780657	2.43561	0.699294	2.16736																
0.782457	2.43415	0.701368	2.16753																
0.784259	2.4327	0.703443	2.1677																
0.786062	2.43127	0.705518	2.16787																
0.787866	2.42985	0.707592	2.16803																
0.789671	2.42844	0.709667	2.1682																
0.791478	2.42704	0.711741	2.16837																
0.793286	2.42565	0.713816	2.16853																
0.795095	2.42428	0.71589	2.1687																
0.796906	2.42291	0.717965	2.16886																
0.798717	2.42156	0.720039	2.16902																
0.80053	2.42022	0.722114	2.16918																
0.802344	2.41889	0.724188	2.16934																
0.804159	2.41757	0.726263	2.1695																
0.805976	2.41627	0.728337	2.16966																
0.807793	2.41497	0.730412	2.16982																
0.809612	2.41369	0.732486	2.16997																
0.811432	2.41241	0.734561	2.17013																
0.813253	2.41115	0.736635	2.17028																
0.815075	2.40989	0.738709	2.17044																
0.816898	2.40865	0.740784	2.17059																
0.818723	2.40741	0.742858	2.17074																
0.820548	2.40619	0.744932	2.17089																
0.822375	2.40497	0.747007	2.17104																
0.824203	2.40377	0.749081	2.17119																
0.826032	2.40258	0.751155	2.17134																
0.827862	2.40139	0.75323	2.17149																
0.829693	2.40022	0.755304	2.17164																
0.831525	2.39905	0.757378	2.17178																
0.833358	2.39789	0.759452	2.17193																
0.835193	2.39675	0.761527	2.17207																
0.837028	2.39561	0.763601	2.17222																
0.838865	2.39448	0.765675	2.17236																
0.840702	2.39336	0.767749	2.1725																
0.842541	2.39225	0.769824	2.17264																
0.84438	2.39115	0.771898	2.17278																
0.846221	2.39005	0.773972	2.17292																
0.848063	2.38897	0.776046	2.17306																
0.849905	2.38789	0.77812	2.1732																
0.851749	2.38682	0.780195	2.17334																
0.853594	2.38576	0.782269	2.17348																
0.85544	2.38471	0.784343	2.17361																
0.857286	2.38367	0.786417	2.17375																
0.859134	2.38264	0.788491	2.17388																
0.860983	2.38161	0.790565	2.17402																
0.862833	2.38059	0.792639	2.17415																
0.864683	2.37958	0.794713	2.17428																
0.866535	2.37858	0.796787	2.17441																
0.868387	2.37758	0.798862	2.17454																
0.870241	2.37659	0.800936	2.17467																
0.872095	2.37561	0.80301	2.1748																
0.873951	2.37464	0.805084	2.17493																
0.875807	2.37368	0.807158	2.17506																
0.877664	2.37272	0.809232	2.17519																
0.879523	2.37177	0.811306	2.17532																
0.881382	2.37082	0.81338	2.17544																
0.883242	2.36989	0.815454	2.17557																
0.885103	2.36896	0.817528	2.17569																
0.886965	2.36804	0.819601	2.17582																
0.888828	2.36712	0.821675	2.17594																
0.890691	2.36622	0.823749	2.17607																
0.892556	2.36531	0.825823	2.17619																
0.894421	2.36442	0.827897	2.17631																
0.896288	2.36353	0.829971	2.17643																
0.898155	2.36265	0.832045	2.17655																
0.900023	2.36178	0.834119	2.17667																
0.901892	2.36091	0.836193	2.17679																
0.903762	2.36005	0.838267	2.17691																
0.905632	2.35919	0.84034	2.17703																
0.907504	2.35834	0.842414	2.17715																
0.909376	2.3575	0.844488	2.17726																
0.911249	2.35667	0.846562	2.17738																
0.913123	2.35584	0.848636	2.17749																
0.914998	2.35501	0.850709	2.17761																
0.916874	2.35419	0.852783	2.17772																
0.91875	2.35338	0.854857	2.17784																
0.920627	2.35258	0.856931	2.17795																
0.922505	2.35178	0.859005	2.17807																
0.924384	2.35098	0.861078	2.17818																
0.926264	2.35019	0.863152	2.17829																
0.928145	2.34941	0.865226	2.1784																
0.930026	2.34863	0.867299	2.17851																
0.931908	2.34786	0.869373	2.17862																
0.933791	2.3471	0.871447	2.17873																
0.935674	2.34634	0.87352	2.17884																
0.937559	2.34558	0.875594	2.17895																
0.939444	2.34483	0.877668	2.17906																
0.94133	2.34409	0.879741	2.17917																
0.943217	2.34335	0.881815	2.17927																
0.945104	2.34262	0.883889	2.17938																
0.946992	2.34189	0.885962	2.17949																
0.948881	2.34117	0.888036	2.17959																
0.950771	2.34045	0.89011	2.1797																
0.952661	2.33974	0.892183	2.1798																
0.954552	2.33903	0.894257	2.1799																
0.956444	2.33833	0.89633	2.18001																
0.958337	2.33763	0.898404	2.18011																
0.96023	2.33694	0.900477	2.18021																
0.962124	2.33625	0.902551	2.18032																
0.964019	2.33556	0.904625	2.18042																
0.965915	2.33489	0.906698	2.18052																
0.967811	2.33421	0.908772	2.18062																
0.969708	2.33354	0.910845	2.18072																
0.971605	2.33288	0.912919	2.18082																
0.973503	2.33222	0.914992	2.18092																
0.975402	2.33157	0.917066	2.18102																
0.977302	2.33092	0.919139	2.18111																
0.979202	2.33027	0.921212	2.18121																
0.981103	2.32963	0.923286	2.18131																
0.983005	2.32899	0.925359	2.18141																
0.984907	2.32836	0.927433	2.1815																
0.98681	2.32773	0.929506	2.1816																
0.988714	2.32711	0.93158	2.1817																
0.990618	2.32649	0.933653	2.18179																
0.992523	2.32587	0.935726	2.18189																
0.994429	2.32526	0.9378	2.18198																
0.996335	2.32465	0.939873	2.18207																
0.998242	2.32405	0.941947	2.18217																
1.00015	2.32345	0.94402	2.18226																
		0.946093	2.18235																
		0.948167	2.18244																
		0.95024	2.18254																
		0.952313	2.18263																
		0.954386	2.18272																
		0.95646	2.18281																
		0.958533	2.1829																
		0.960606	2.18299																
		0.96268	2.18308																
		0.964753	2.18317																
		0.966826	2.18326																
		0.968899	2.18334																
		0.970973	2.18343																
		0.973046	2.18352																
		0.975119	2.18361																
		0.977192	2.18369																
		0.979265	2.18378																
		0.981339	2.18386																
		0.983412	2.18395																
		0.985485	2.18403																
		0.987558	2.18412																
		0.989631	2.1842																
		0.991704	2.18429																
		0.993777	2.18437																
		0.995851	2.18445																
		0.997924	2.18454																
		0.999997	2.18462																
		1.00207	2.1847																
