Sym0		Asym0		Sym1		Sym2		Sym3		Sym4		Asym1		Asym2		Asym3		Asym4	
469  Points		496  Points		232  Points		198  Points		184  Points		129  Points		339  Points		210  Points		173  Points		108  Points	
Freq (MHz)	Vph (m/ms)	Freq (MHz)	Vph (m/ms)	Freq (MHz)	Vph (m/ms)	Freq (MHz)	Vph (m/ms)	Freq (MHz)	Vph (m/ms)	Freq (MHz)	Vph (m/ms)	Freq (MHz)	Vph (m/ms)	Freq (MHz)	Vph (m/ms)	Freq (MHz)	Vph (m/ms)	Freq (MHz)	Vph (m/ms)
0.00190126	5.19418	0.000332837	0.158109	0.27952	490.964	0.467947	573.455	0.559024	1026.21	0.838528	2057.11	0.139799	217.776	0.419264	2216.06	0.698773	2080.16	0.935878	4102.13
0.00674062	5.19416	0.000690173	0.227269	0.279591	186.267	0.467975	267.765	0.559068	378.658	0.83855	626.102	0.140023	88.9807	0.419297	374.076	0.698797	551.268	0.935884	806.909
0.0115797	5.19403	0.00117284	0.295537	0.279724	114.984	0.468025	174.675	0.559151	232.192	0.838597	369.261	0.140434	56.0541	0.419379	204.318	0.698848	317.757	0.9359	447.471
0.0164182	5.1938	0.0017772	0.362679	0.27992	83.2003	0.468096	129.627	0.559275	167.456	0.838667	261.862	0.14103	41.0325	0.419508	140.573	0.698927	223.227	0.935926	309.578
0.021256	5.1935	0.00249884	0.428478	0.280179	65.217	0.468188	103.062	0.55944	130.969	0.838761	202.874	0.141807	32.4595	0.419686	107.173	0.699033	172.061	0.93596	236.657
0.0260928	5.19311	0.00333275	0.492749	0.280501	53.6556	0.468301	85.5424	0.559644	107.557	0.83888	165.587	0.14276	26.9338	0.419911	86.6211	0.699167	139.99	0.936004	191.544
0.0309286	5.19266	0.00427343	0.555331	0.280885	45.6019	0.468435	73.1224	0.559888	91.2626	0.839022	139.888	0.143886	23.0878	0.420183	72.7041	0.699329	118.008	0.936057	160.881
0.0357628	5.19212	0.00531503	0.616094	0.281331	39.6732	0.468591	63.8592	0.560173	79.2703	0.839188	121.104	0.145177	20.2654	0.420503	62.6583	0.699517	102.003	0.936119	138.684
0.0405956	5.19152	0.00645151	0.674937	0.281838	35.1292	0.468768	56.6859	0.560497	70.0769	0.839378	106.775	0.146629	18.1124	0.420871	55.068	0.699734	89.8306	0.936191	121.873
0.0454264	5.19082	0.00767658	0.731774	0.282406	31.5376	0.468968	50.9677	0.56086	62.8063	0.839592	95.4854	0.148233	16.4208	0.421286	49.1327	0.699978	80.2618	0.936273	108.7
0.0502551	5.19005	0.00898427	0.786571	0.283035	28.6291	0.469189	46.3032	0.561264	56.9135	0.839829	86.3615	0.149985	15.0604	0.421747	44.3658	0.700249	72.543	0.936363	98.0989
0.0550816	5.18919	0.0103683	0.839287	0.283724	26.2271	0.469433	42.4263	0.561706	52.0417	0.840091	78.8354	0.151875	13.9455	0.422256	40.4544	0.700547	66.1857	0.936464	89.3846
0.0599054	5.18825	0.0118229	0.889914	0.284472	24.211	0.469699	39.1535	0.562188	47.9475	0.840376	72.5215	0.153898	13.0177	0.422812	37.1881	0.700873	60.8594	0.936574	82.0945
0.0647265	5.18722	0.0133424	0.938473	0.285278	22.4958	0.469988	36.3541	0.562709	44.4591	0.840685	67.1492	0.156047	12.2352	0.423414	34.4204	0.701226	56.3326	0.936694	75.906
0.0695445	5.18611	0.0149213	0.984976	0.286142	21.0197	0.4703	33.9328	0.563269	41.452	0.841018	62.5229	0.158315	11.568	0.424062	32.046	0.701606	52.4383	0.936823	70.5871
0.0743591	5.1849	0.0165545	1.02947	0.287064	19.7366	0.470635	31.8181	0.563868	38.8334	0.841374	58.4976	0.160696	10.9935	0.424756	29.9871	0.702014	49.0529	0.936963	65.9667
0.0791701	5.18361	0.0182372	1.07201	0.288042	18.6116	0.470994	29.9555	0.564505	36.5331	0.841755	54.9637	0.162857	10.5551	0.425496	28.1854	0.702448	46.0832	0.937113	61.9158
0.0839773	5.18223	0.019965	1.11263	0.289075	17.6178	0.471378	28.3028	0.56518	34.4968	0.842158	51.8365	0.16476	10.22	0.426282	26.5961	0.702909	43.4572	0.937272	58.3354
0.0887802	5.18075	0.0217335	1.15141	0.290163	16.7339	0.471786	26.8265	0.565893	32.6818	0.842586	49.0499	0.166374	9.96627	0.427113	25.184	0.703398	41.1189	0.937442	55.148
0.0935786	5.17918	0.0235391	1.1884	0.291305	15.9431	0.472218	25.5002	0.566644	31.0542	0.843037	46.5513	0.167675	9.77912	0.427988	23.9214	0.703913	39.0236	0.937623	52.2925
0.0983722	5.1775	0.0253781	1.22369	0.292499	15.2318	0.472676	24.3022	0.567433	29.5867	0.843511	44.2985	0.168646	9.64848	0.428908	22.7863	0.704455	37.1356	0.937813	49.7196
0.103161	5.17573	0.0272472	1.25733	0.293746	14.5889	0.47316	23.215	0.568258	28.257	0.844009	42.257	0.169273	9.56778	0.429872	21.7604	0.705024	35.4256	0.938015	47.3895
0.107944	5.17385	0.0291434	1.2894	0.295043	14.0053	0.47367	22.2241	0.569121	27.0469	0.844531	40.3987	0.170182	9.45557	0.430881	20.8291	0.70562	33.8699	0.938227	45.2693
0.112721	5.17187	0.0310642	1.31996	0.296391	13.4733	0.474206	21.3174	0.570021	25.941	0.845075	38.6999	0.171181	9.33842	0.431932	19.98	0.706242	32.4486	0.93845	43.3321
0.117492	5.16977	0.0330068	1.3491	0.297787	12.9868	0.47477	20.4848	0.570957	24.9267	0.845643	37.1412	0.172557	9.18668	0.433027	19.2031	0.70689	31.1452	0.938684	41.5552
0.122256	5.16756	0.0349691	1.37687	0.299231	12.5402	0.475361	19.7177	0.571929	23.9932	0.846235	35.7061	0.174324	9.00635	0.434164	18.4896	0.707565	29.9457	0.938929	39.9196
0.127014	5.16524	0.0369491	1.40335	0.300722	12.1291	0.47598	19.0087	0.572937	23.1314	0.846849	34.3805	0.176501	8.80401	0.435344	17.8323	0.708266	28.8382	0.939185	38.409
0.131764	5.16279	0.0389448	1.4286	0.302259	11.7496	0.476628	18.3518	0.57398	22.3334	0.847487	33.1524	0.179108	8.58629	0.436566	17.225	0.708994	27.8127	0.939452	37.0098
0.136506	5.16022	0.0409545	1.45267	0.303841	11.3982	0.477305	17.7414	0.575059	21.5926	0.848147	32.0115	0.182165	8.35951	0.437829	16.6623	0.709747	26.8606	0.939731	35.71
0.141239	5.15751	0.0429768	1.47564	0.305466	11.0722	0.478012	17.1729	0.576173	20.9032	0.848831	30.949	0.185291	8.15429	0.439134	16.1397	0.710527	25.9742	0.940022	34.4996
0.145964	5.15467	0.0450102	1.49755	0.307135	10.769	0.478749	16.6424	0.577321	20.26	0.849537	29.9571	0.18848	7.96793	0.440479	15.6531	0.711332	25.1472	0.940324	33.3697
0.15068	5.1517	0.0467904	1.51583	0.308623	10.5217	0.479516	16.1461	0.578504	19.6588	0.850267	29.0291	0.191729	7.79814	0.441864	15.1991	0.712163	24.3737	0.940639	32.3125
0.155385	5.14857	0.0483132	1.53084	0.309916	10.3222	0.480315	15.6811	0.579721	19.0955	0.851019	28.1591	0.195035	7.64296	0.443289	14.7746	0.71302	23.649	0.940965	31.3212
0.16008	5.1453	0.049576	1.54287	0.311002	10.1646	0.481146	15.2445	0.580972	18.5669	0.851794	27.3418	0.198394	7.50074	0.444753	14.377	0.713902	22.9684	0.941303	30.39
0.164764	5.14187	0.0505765	1.55215	0.311872	10.0445	0.482009	14.834	0.582256	18.0699	0.852592	26.5727	0.201803	7.37004	0.446257	14.0038	0.71481	22.3283	0.941654	29.5136
0.169437	5.13828	0.0513132	1.55884	0.312517	9.95854	0.482906	14.4473	0.583573	17.6019	0.853412	25.8477	0.205261	7.24963	0.447798	13.653	0.715743	21.7252	0.942017	28.6873
0.174096	5.13451	0.0517851	1.56306	0.312932	9.90457	0.483836	14.0826	0.584924	17.1603	0.854255	25.1632	0.208764	7.13844	0.449378	13.3227	0.716701	21.156	0.942393	27.9069
0.178743	5.13057	0.0524642	1.56906	0.313533	9.82836	0.4848	13.7381	0.586306	16.7432	0.85512	24.5158	0.212309	7.03553	0.450995	13.0113	0.717684	20.618	0.942781	27.1688
0.183375	5.12645	0.053203	1.57548	0.314191	9.74731	0.485799	13.4123	0.587721	16.3487	0.856008	23.9028	0.215895	6.94008	0.452649	12.7171	0.718692	20.1087	0.943183	26.4697
0.187993	5.12213	0.0542091	1.58404	0.315094	9.63997	0.486834	13.1038	0.589167	15.9749	0.856918	23.3215	0.219518	6.85137	0.45434	12.439	0.719724	19.626	0.943597	25.8065
0.192595	5.11761	0.0554834	1.59461	0.316248	9.50878	0.487905	12.8113	0.590645	15.6204	0.85785	22.7695	0.223179	6.76878	0.456066	12.1757	0.720782	19.1678	0.944024	25.1767
0.197181	5.11288	0.0570271	1.60701	0.317662	9.3566	0.489012	12.5338	0.592155	15.2837	0.858804	22.2447	0.226873	6.69173	0.457828	11.9261	0.721864	18.7325	0.944465	24.5778
0.201749	5.10793	0.0588413	1.62105	0.319347	9.18654	0.490157	12.2701	0.593695	14.9636	0.85978	21.7452	0.2306	6.61974	0.459625	11.6892	0.72297	18.3183	0.944919	24.0075
0.206298	5.10274	0.0609271	1.6365	0.321314	9.00186	0.49134	12.0194	0.595265	14.659	0.860778	21.2693	0.234357	6.55236	0.461457	11.4642	0.7241	17.9238	0.945387	23.4639
0.210828	5.09732	0.0630166	1.6513	0.323317	8.82753	0.492561	11.7808	0.596866	14.3687	0.861798	20.8153	0.238144	6.48919	0.463323	11.2501	0.725255	17.5477	0.945868	22.9453
0.215337	5.09164	0.0651093	1.66548	0.325353	8.66278	0.493821	11.5534	0.598497	14.0919	0.862839	20.3818	0.241958	6.42988	0.465223	11.0464	0.726433	17.1887	0.946363	22.4499
0.219824	5.0857	0.0672048	1.67907	0.327424	8.50687	0.49512	11.3367	0.600158	13.8277	0.863903	19.9674	0.245798	6.37412	0.467155	10.8522	0.727635	16.8458	0.946872	21.9763
0.224288	5.07948	0.0693026	1.69209	0.329528	8.35919	0.49646	11.13	0.601848	13.5752	0.864987	19.5711	0.249663	6.32161	0.468866	10.6903	0.728861	16.5179	0.947395	21.523
0.228727	5.07297	0.0714025	1.70459	0.331664	8.21913	0.49784	10.9326	0.603567	13.3337	0.866094	19.1915	0.253552	6.2721	0.470343	10.5574	0.73011	16.204	0.947932	21.0888
0.23314	5.06615	0.0735041	1.71658	0.333833	8.08618	0.499076	10.7677	0.605314	13.1027	0.867221	18.8278	0.257462	6.22536	0.471579	10.4508	0.731383	15.9034	0.948483	20.6726
0.237525	5.05901	0.0756071	1.72809	0.336034	7.95985	0.500155	10.6322	0.60709	12.8813	0.86837	18.479	0.261394	6.18118	0.472564	10.3687	0.732678	15.6153	0.949049	20.2732
0.241881	5.05155	0.0777114	1.73915	0.338266	7.83972	0.501065	10.5235	0.608894	12.6691	0.86954	18.1441	0.265345	6.13935	0.473293	10.3094	0.733997	15.3388	0.94963	19.8898
0.246205	5.04373	0.0798165	1.74978	0.340531	7.72538	0.501795	10.4397	0.610726	12.4656	0.870732	17.8225	0.269316	6.09972	0.473761	10.272	0.735338	15.0733	0.950225	19.5213
0.250498	5.03555	0.0819225	1.76	0.342826	7.61647	0.502339	10.3791	0.612585	12.2702	0.871944	17.5133	0.273304	6.06213	0.474438	10.2188	0.736702	14.8183	0.950835	19.167
0.254755	5.02698	0.084029	1.76983	0.345154	7.51267	0.502689	10.3409	0.614472	12.0825	0.873177	17.2159	0.277308	6.02642	0.475177	10.1619	0.738089	14.5731	0.95146	18.826
0.258977	5.01803	0.086136	1.77929	0.347513	7.41367	0.503198	10.2865	0.616385	11.9021	0.87443	16.9296	0.281329	5.99246	0.476189	10.0859	0.739498	14.3371	0.9521	18.4977
0.263159	5.00865	0.0882432	1.7884	0.349904	7.3192	0.503755	10.2284	0.618325	11.7285	0.875705	16.6539	0.285365	5.96014	0.477478	9.99212	0.740929	14.11	0.952756	18.1813
0.267302	4.99885	0.0903508	1.79718	0.352327	7.22901	0.504522	10.1507	0.620291	11.5615	0.877	16.3882	0.289414	5.92934	0.479053	9.88194	0.742382	13.8912	0.953426	17.8763
0.271401	4.98859	0.0924583	1.80563	0.354783	7.14286	0.505507	10.0547	0.622284	11.4007	0.878315	16.1319	0.293477	5.89995	0.480921	9.75707	0.743857	13.6803	0.954113	17.582
0.275456	4.97788	0.0945658	1.81379	0.357273	7.06054	0.506719	9.94194	0.624302	11.2457	0.879651	15.8846	0.297552	5.8719	0.483093	9.61929	0.745354	13.4769	0.954815	17.2979
0.279464	4.96668	0.0966733	1.82166	0.359796	6.98185	0.508172	9.81412	0.626346	11.0963	0.881006	15.6458	0.301639	5.84508	0.485293	9.4871	0.746872	13.2806	0.955533	17.0236
0.283423	4.95499	0.0987806	1.82925	0.362355	6.90663	0.509881	9.67307	0.628147	10.9704	0.882382	15.4152	0.305737	5.81942	0.487522	9.36019	0.748411	13.0911	0.956266	16.7585
0.28733	4.94279	0.100888	1.83658	0.364949	6.83471	0.511634	9.53775	0.629697	10.8661	0.883778	15.1923	0.309845	5.79485	0.489779	9.23827	0.749972	12.9081	0.957016	16.5022
0.291184	4.93007	0.102994	1.84367	0.36758	6.76593	0.513432	9.40786	0.63099	10.782	0.885194	14.9768	0.313963	5.7713	0.492063	9.12107	0.751553	12.7311	0.957781	16.2543
0.294982	4.91681	0.105101	1.85051	0.37025	6.70016	0.515275	9.28315	0.632019	10.7167	0.88663	14.7683	0.318089	5.74869	0.494375	9.00834	0.753156	12.56	0.958563	16.0143
0.298722	4.90302	0.107207	1.85713	0.372958	6.63727	0.517163	9.16335	0.632779	10.6693	0.888085	14.5665	0.322224	5.72698	0.496714	8.89986	0.754779	12.3945	0.959362	15.782
0.302403	4.88867	0.109313	1.86353	0.375707	6.57714	0.519096	9.04823	0.633267	10.6394	0.88956	14.371	0.326366	5.70611	0.499078	8.7954	0.756422	12.2343	0.960177	15.557
0.306022	4.87377	0.111418	1.86972	0.378498	6.51966	0.521075	8.93757	0.63397	10.5967	0.891054	14.1817	0.330515	5.68603	0.501469	8.69477	0.758086	12.0792	0.961009	15.3389
0.309578	4.85831	0.113523	1.87571	0.381332	6.46473	0.523099	8.83116	0.634738	10.5508	0.892568	13.9982	0.33467	5.66669	0.503885	8.59777	0.75977	11.929	0.961857	15.1275
0.313068	4.84229	0.115627	1.88152	0.384211	6.41225	0.525169	8.72881	0.635788	10.4894	0.894101	13.8203	0.338831	5.64804	0.506326	8.50422	0.761475	11.7834	0.962722	14.9224
0.316057	4.82788	0.117731	1.88714	0.387135	6.36213	0.527284	8.63032	0.637123	10.4131	0.895652	13.6478	0.342998	5.63005	0.508791	8.41397	0.763198	11.6422	0.963605	14.7235
0.318564	4.81527	0.119834	1.8926	0.390107	6.31428	0.529445	8.53553	0.638749	10.3229	0.897223	13.4803	0.347168	5.61268	0.511281	8.32685	0.764942	11.5053	0.964504	14.5304
0.320609	4.80461	0.121937	1.89788	0.393127	6.26864	0.531651	8.44426	0.640674	10.2199	0.898813	13.3178	0.351343	5.59589	0.513795	8.24271	0.766705	11.3724	0.965421	14.3429
0.322207	4.79605	0.12404	1.90301	0.396197	6.2251	0.533903	8.35636	0.642905	10.1053	0.900421	13.1599	0.355522	5.57964	0.516332	8.16142	0.768257	11.2598	0.966356	14.1607
0.323373	4.78967	0.126142	1.90798	0.399318	6.18361	0.5362	8.27169	0.645159	9.99437	0.902048	13.0066	0.359703	5.56391	0.518892	8.08286	0.769591	11.1661	0.967308	13.9838
0.324114	4.78555	0.128243	1.91281	0.40249	6.14409	0.538542	8.19011	0.647435	9.88694	0.903694	12.8576	0.363887	5.54866	0.521475	8.00688	0.770703	11.0902	0.968277	13.8118
0.325173	4.77958	0.130344	1.9175	0.405714	6.10645	0.540929	8.11148	0.649735	9.78286	0.905357	12.7128	0.368073	5.53387	0.52408	7.93339	0.771587	11.031	0.969265	13.6445
0.326316	4.77304	0.132444	1.92205	0.408991	6.07065	0.54336	8.03567	0.652056	9.682	0.907039	12.5719	0.372261	5.51951	0.526707	7.86227	0.772239	10.9881	0.97027	13.4818
0.327856	4.76403	0.134544	1.92648	0.412321	6.03659	0.545836	7.96257	0.6544	9.58422	0.90874	12.4349	0.376449	5.50556	0.529356	7.79342	0.772658	10.9609	0.971294	13.3236
0.32978	4.75247	0.136643	1.93078	0.415704	6.00422	0.548355	7.89206	0.656766	9.48938	0.910458	12.3016	0.380638	5.49199	0.532026	7.72675	0.773263	10.922	0.972335	13.1696
0.332072	4.73824	0.138742	1.93496	0.419139	5.97346	0.550919	7.82403	0.659154	9.39737	0.912194	12.1718	0.384827	5.47878	0.534717	7.66215	0.773921	10.8802	0.973395	13.0196
0.334713	4.72122	0.140841	1.93903	0.422628	5.94424	0.553525	7.75839	0.661563	9.30808	0.913948	12.0455	0.389015	5.46591	0.537429	7.59955	0.774821	10.8239	0.974474	12.8736
0.337679	4.70128	0.142938	1.94299	0.426168	5.91651	0.556174	7.69503	0.663994	9.2214	0.915719	11.9224	0.393203	5.45335	0.540161	7.53886	0.775966	10.754	0.975571	12.7314
0.340577	4.68091	0.145036	1.94685	0.429759	5.89018	0.558865	7.63385	0.666445	9.13721	0.917508	11.8025	0.397389	5.4411	0.542913	7.48	0.777359	10.6709	0.976687	12.5928
0.343409	4.66016	0.147133	1.9506	0.4334	5.86519	0.561597	7.57478	0.668917	9.05544	0.919315	11.6857	0.401573	5.42913	0.545684	7.4229	0.779006	10.5757	0.977821	12.4578
0.346175	4.63904	0.149229	1.95425	0.43709	5.84147	0.564371	7.51772	0.67141	8.97597	0.920903	11.5863	0.405755	5.41743	0.548476	7.3675	0.780913	10.4691	0.978975	12.3262
0.348876	4.61758	0.151325	1.95782	0.440828	5.81896	0.567186	7.4626	0.673924	8.89873	0.922267	11.5033	0.409934	5.40598	0.551286	7.31372	0.782838	10.3655	0.980147	12.1979
0.351515	4.59583	0.153421	1.96129	0.444611	5.7976	0.57004	7.40933	0.676457	8.82363	0.923402	11.4358	0.414109	5.39476	0.554115	7.2615	0.784781	10.2646	0.981339	12.0727
0.354092	4.57382	0.155516	1.96467	0.448439	5.77732	0.572934	7.35784	0.679011	8.7506	0.924305	11.3832	0.418281	5.38376	0.556964	7.21078	0.786742	10.1663	0.982551	11.9507
0.35661	4.55156	0.157611	1.96797	0.452308	5.75806	0.575867	7.30806	0.681584	8.67955	0.92497	11.3449	0.422449	5.37297	0.55983	7.16151	0.78872	10.0706	0.983781	11.8315
0.359071	4.52911	0.159705	1.97119	0.456219	5.73976	0.578838	7.25993	0.684177	8.61041	0.925398	11.3206	0.426612	5.36238	0.562715	7.11363	0.790716	9.97743	0.98487	11.7301
0.361476	4.50649	0.161799	1.97433	0.460168	5.72237	0.581847	7.21337	0.686789	8.54311	0.926014	11.2859	0.43077	5.35196	0.565618	7.06709	0.792729	9.8866	0.985809	11.6453
0.363827	4.48372	0.163892	1.97739	0.464154	5.70583	0.584892	7.16833	0.689421	8.47759	0.926685	11.2484	0.434922	5.34172	0.568539	7.02184	0.794759	9.79806	0.986595	11.5763
0.366127	4.46085	0.165985	1.98038	0.468175	5.69009	0.587974	7.12474	0.692072	8.41379	0.927602	11.198	0.439068	5.33163	0.571477	6.97784	0.796806	9.71174	0.987221	11.5225
0.368378	4.4379	0.168078	1.9833	0.472228	5.6751	0.591092	7.08256	0.694741	8.35165	0.928767	11.1352	0.443207	5.32169	0.574433	6.93504	0.798869	9.62757	0.987684	11.4833
0.370582	4.41489	0.17017	1.98616	0.476313	5.6608	0.594244	7.04172	0.697429	8.2911	0.930184	11.0604	0.44734	5.31188	0.577406	6.89339	0.800949	9.54546	0.987982	11.4584
0.372741	4.39186	0.172262	1.98894	0.480427	5.64716	0.597431	7.00217	0.700136	8.2321	0.931857	10.9743	0.451465	5.3022	0.580396	6.85286	0.803046	9.46534	0.988413	11.4228
0.374856	4.36883	0.174354	1.99167	0.484569	5.63414	0.600651	6.96387	0.702861	8.17459	0.933794	10.8778	0.455581	5.29264	0.583403	6.81342	0.805159	9.38716	0.988882	11.3845
0.37693	4.34581	0.176445	1.99433	0.488735	5.62169	0.603904	6.92676	0.705604	8.11853	0.935747	10.7835	0.45969	5.28318	0.586427	6.77502	0.807288	9.31085	0.989526	11.3328
0.378965	4.32284	0.178536	1.99693	0.492926	5.60977	0.607189	6.89081	0.708366	8.06386	0.937715	10.6914	0.463789	5.27382	0.589468	6.73762	0.809433	9.23634	0.990346	11.2684
0.380963	4.29993	0.180626	1.99948	0.497139	5.59836	0.610506	6.85596	0.711145	8.01053	0.9397	10.6014	0.467879	5.26455	0.592525	6.7012	0.811594	9.16358	0.991348	11.1916
0.382926	4.2771	0.182716	2.00197	0.501372	5.5874	0.613854	6.82218	0.713942	7.95852	0.941701	10.5135	0.471959	5.25537	0.595599	6.66573	0.813771	9.0925	0.992538	11.1033
0.384854	4.25437	0.184806	2.00441	0.505624	5.57689	0.617232	6.78942	0.716757	7.90776	0.943718	10.4275	0.476028	5.24625	0.598689	6.63117	0.815964	9.02307	0.993923	11.0041
0.386751	4.23175	0.186896	2.00679	0.509894	5.56677	0.62064	6.75765	0.719589	7.85823	0.945751	10.3435	0.480087	5.2372	0.601795	6.59749	0.818172	8.95522	0.995328	10.9071
0.388618	4.20927	0.188985	2.00913	0.51418	5.55704	0.624076	6.72682	0.722438	7.80989	0.947799	10.2614	0.484134	5.22822	0.604918	6.56467	0.820395	8.88891	0.996754	10.8124
0.390455	4.18692	0.191074	2.01141	0.51848	5.54765	0.627541	6.69691	0.725305	7.76269	0.949863	10.181	0.488169	5.21928	0.608057	6.53268	0.822634	8.82409	0.9982	10.7197
0.392266	4.16472	0.193163	2.01365	0.522794	5.5386	0.631034	6.66789	0.728189	7.71661	0.951942	10.1024	0.492192	5.21038	0.611212	6.5015	0.824887	8.76071	0.999668	10.6291
0.394051	4.14269	0.195251	2.01584	0.527119	5.52984	0.634553	6.63971	0.73109	7.67161	0.954036	10.0255	0.496202	5.20153	0.614383	6.4711	0.827156	8.69873	1.00116	10.5405
0.395811	4.12084	0.19734	2.01799	0.531456	5.52137	0.638098	6.61234	0.734007	7.62765	0.956146	9.95024	0.500198	5.19271	0.61757	6.44145	0.829439	8.6381		
0.397548	4.09916	0.199427	2.02009	0.535803	5.51316	0.64167	6.58577	0.736942	7.58471	0.95827	9.87659	0.50418	5.18391	0.620773	6.41255	0.831738	8.5788		
0.399263	4.07767	0.201515	2.02216	0.540158	5.5052	0.645266	6.55995	0.739893	7.54275	0.96041	9.80449	0.508148	5.17513	0.623992	6.38435	0.83405	8.52077		
0.400958	4.05638	0.203602	2.02418	0.544521	5.49746	0.648887	6.53487	0.742861	7.50175	0.962564	9.7339	0.512101	5.16637	0.627226	6.35685	0.836378	8.46399		
0.402633	4.03529	0.205689	2.02616	0.548891	5.48994	0.652532	6.51049	0.745845	7.46168	0.964733	9.66478	0.516039	5.15761	0.630477	6.33003	0.83872	8.40841		
0.40429	4.01441	0.207776	2.0281	0.553266	5.48261	0.6562	6.48678	0.748845	7.42252	0.966917	9.59707	0.51996	5.14886	0.633744	6.30386	0.841076	8.354		
0.405929	3.99374	0.209863	2.03001	0.557647	5.47547	0.659891	6.46374	0.751862	7.38423	0.969115	9.53075	0.523865	5.14011	0.637027	6.27832	0.843446	8.30073		
0.407552	3.97329	0.211949	2.03188	0.562031	5.46849	0.663604	6.44133	0.754895	7.34679	0.971327	9.46578	0.527753	5.13135	0.640325	6.25341	0.845831	8.24856		
0.409159	3.95305	0.214036	2.03371	0.566419	5.46167	0.667339	6.41952	0.757944	7.31018	0.973553	9.40211	0.531624	5.12258	0.643639	6.2291	0.848229	8.19747		
0.410752	3.93304	0.216122	2.03551	0.570809	5.455	0.671095	6.39831	0.761009	7.27437	0.975794	9.33971	0.535476	5.11379	0.64697	6.20538	0.850642	8.14742		
0.412332	3.91325	0.218207	2.03728	0.575201	5.44846	0.674871	6.37766	0.764091	7.23935	0.978048	9.27855	0.539311	5.10498	0.650316	6.18223	0.853068	8.09839		
0.413898	3.89368	0.220293	2.03902	0.579594	5.44205	0.678668	6.35756	0.767188	7.2051	0.980317	9.21859	0.543126	5.09615	0.653679	6.15964	0.855508	8.05035		
0.415452	3.87435	0.222378	2.04072	0.583988	5.43575	0.682484	6.33799	0.770301	7.17158	0.982599	9.1598	0.546922	5.0873	0.657057	6.13759	0.857962	8.00328		
0.416994	3.85523	0.224463	2.04239	0.588381	5.42955	0.686319	6.31893	0.77343	7.13879	0.984895	9.10214	0.550698	5.07841	0.660451	6.11606	0.860429	7.95714		
0.418526	3.83635	0.226548	2.04404	0.592773	5.42345	0.690172	6.30036	0.776575	7.10671	0.987204	9.0456	0.554454	5.06949	0.663861	6.09506	0.86291	7.91191		
0.420048	3.8177	0.228633	2.04565	0.597164	5.41745	0.694043	6.28227	0.779736	7.0753	0.989527	8.99013	0.558189	5.06053	0.667288	6.07455	0.865404	7.86757		
0.42156	3.79927	0.230718	2.04724	0.601553	5.41152	0.697932	6.26464	0.782912	7.04457	0.991863	8.93572	0.561903	5.05153	0.67073	6.05454	0.867912	7.82409		
0.423063	3.78107	0.232802	2.04879	0.605939	5.40567	0.701838	6.24745	0.786105	7.01449	0.994213	8.88233	0.565595	5.04249	0.674188	6.035	0.870433	7.78146		
0.424559	3.7631	0.234887	2.05032	0.610322	5.39989	0.705761	6.2307	0.789313	6.98505	0.996575	8.82994	0.569266	5.03341	0.677663	6.01593	0.872967	7.73965		
0.426046	3.74535	0.236971	2.05183	0.614701	5.39417	0.7097	6.21435	0.792537	6.95622	0.998951	8.77852	0.572914	5.02427	0.681153	5.99731	0.875514	7.69864		
0.427526	3.72783	0.239055	2.05331	0.619076	5.3885	0.713654	6.19841	0.795776	6.928	1.00134	8.72805	0.576539	5.01509	0.684659	5.97913	0.878075	7.65841		
0.428999	3.71053	0.241138	2.05476	0.623446	5.38289	0.717623	6.18285	0.799031	6.90037			0.580141	5.00585	0.688181	5.96138	0.880648	7.61895		
0.430466	3.69345	0.243222	2.05619	0.627812	5.37732	0.721607	6.16767	0.802303	6.87332			0.58372	4.99656	0.691719	5.94406	0.883234	7.58022		
0.431927	3.6766	0.245305	2.0576	0.632171	5.3718	0.725606	6.15285	0.80559	6.84683			0.587274	4.98721	0.695273	5.92714	0.885834	7.54222		
0.433383	3.65997	0.247389	2.05898	0.636525	5.36631	0.729618	6.13838	0.808892	6.82089			0.590805	4.97781	0.698843	5.91063	0.888446	7.50493		
0.434834	3.64355	0.249472	2.06034	0.640872	5.36085	0.733644	6.12424	0.812211	6.79548			0.594312	4.96835	0.702428	5.8945	0.891071	7.46832		
0.43628	3.62735	0.251555	2.06168	0.645213	5.35542	0.737683	6.11043	0.815545	6.7706			0.597793	4.95884	0.706029	5.87876	0.893708	7.43239		
0.437722	3.61136	0.253638	2.063	0.649546	5.35001	0.741734	6.09694	0.818896	6.74623			0.60125	4.94926	0.709646	5.86339	0.896359	7.39712		
0.43916	3.59558	0.25572	2.0643	0.653872	5.34463	0.745798	6.08375	0.822262	6.72237			0.604682	4.93963	0.713278	5.84837	0.899022	7.36249		
0.440594	3.58002	0.257803	2.06557	0.658189	5.33926	0.749874	6.07086	0.825644	6.699			0.608088	4.92993	0.716925	5.83371	0.901698	7.32848		
0.442025	3.56466	0.259885	2.06683	0.662498	5.3339	0.75396	6.05824	0.829043	6.6761			0.611469	4.92018	0.720587	5.81939	0.904386	7.29509		
0.443453	3.54951	0.261967	2.06807	0.666799	5.32855	0.758058	6.04591	0.832457	6.65368			0.614824	4.91036	0.724264	5.80541	0.907087	7.2623		
0.444878	3.53456	0.26405	2.06928	0.671091	5.32322	0.762166	6.03384	0.835888	6.63171			0.618154	4.90049	0.727956	5.79175	0.909801	7.23009		
0.446301	3.5198	0.266132	2.07048	0.675373	5.31788	0.766285	6.02203	0.839335	6.6102			0.621457	4.89055	0.731663	5.77841	0.912526	7.19846		
0.447721	3.50525	0.268214	2.07166	0.679645	5.31255	0.770413	6.01046	0.842798	6.58913			0.624735	4.88056	0.735384	5.76537	0.915265	7.16738		
0.44914	3.4909	0.270295	2.07283	0.683907	5.30721	0.77455	5.99913	0.846278	6.56849			0.627986	4.87051	0.739119	5.75264	0.918016	7.13685		
0.450557	3.47673	0.272377	2.07397	0.688159	5.30188	0.778697	5.98804	0.849775	6.54827			0.631211	4.8604	0.742869	5.74019	0.920779	7.10686		
0.451973	3.46276	0.274459	2.0751	0.692401	5.29654	0.782852	5.97716	0.853288	6.52847			0.63441	4.85024	0.746631	5.72803	0.923554	7.07739		
0.453387	3.44898	0.27654	2.07621	0.696631	5.29119	0.787015	5.96651	0.856817	6.50908			0.637583	4.84002	0.750408	5.71615	0.926342	7.04842		
0.4548	3.43538	0.278622	2.07731	0.70085	5.28583	0.791186	5.95606	0.860364	6.49008			0.64073	4.82975	0.754198	5.70453	0.929142	7.01996		
0.456213	3.42197	0.280703	2.07839	0.705058	5.28046	0.795365	5.94581	0.863927	6.47148			0.64385	4.81943	0.758	5.69317	0.931954	6.99199		
0.457625	3.40873	0.282784	2.07945	0.709254	5.27507	0.79955	5.93576	0.867507	6.45326			0.646945	4.80905	0.761815	5.68206	0.934779	6.9645		
0.459036	3.39568	0.284865	2.0805	0.713438	5.26967	0.803742	5.92589	0.871105	6.43542			0.650013	4.79862	0.765643	5.6712	0.937616	6.93748		
0.460447	3.3828	0.286946	2.08154	0.717609	5.26426	0.807941	5.91621	0.87472	6.41795			0.653056	4.78815	0.769483	5.66058	0.940465	6.91092		
0.461858	3.3701	0.289027	2.08255	0.721768	5.25882	0.812145	5.90669	0.878352	6.40084			0.656072	4.77763	0.773334	5.65018	0.943326	6.88481		
0.463268	3.35757	0.291108	2.08356	0.725914	5.25337	0.816355	5.89735	0.882001	6.38409			0.659063	4.76707	0.777197	5.64001	0.946199	6.85914		
0.464679	3.3452	0.293188	2.08455	0.730047	5.2479	0.82057	5.88817	0.885668	6.36769			0.662028	4.75646	0.78107	5.63006	0.949085	6.8339		
0.466091	3.33301	0.295269	2.08553	0.734167	5.2424	0.824789	5.87914	0.889353	6.35164			0.664968	4.74582	0.784955	5.62031	0.951982	6.80908		
0.467502	3.32098	0.297349	2.08649	0.738274	5.23688	0.829013	5.87026	0.893056	6.33592			0.667883	4.73513	0.788849	5.61077	0.954891	6.78468		
0.468914	3.30911	0.29943	2.08744	0.742366	5.23134	0.833241	5.86153	0.896776	6.32054			0.670772	4.72441	0.792754	5.60142	0.957813	6.76068		
0.470327	3.2974	0.30151	2.08838	0.746445	5.22577	0.837473	5.85294	0.900515	6.30548			0.673636	4.71365	0.796668	5.59226	0.960746	6.73708		
0.471741	3.28584	0.30359	2.08931	0.750509	5.22018	0.841708	5.84448	0.904271	6.29075			0.676476	4.70286	0.800592	5.58329	0.963692	6.71387		
0.473155	3.27445	0.30567	2.09022	0.754559	5.21455	0.845946	5.83615	0.908046	6.27633			0.679291	4.69204	0.804524	5.57449	0.966649	6.69104		
0.47457	3.2632	0.30775	2.09112	0.758595	5.2089	0.850187	5.82795	0.911839	6.26222			0.682082	4.68119	0.808465	5.56587	0.969618	6.66859		
0.475987	3.25211	0.30983	2.09201	0.762616	5.20323	0.85443	5.81987	0.915651	6.24841			0.684849	4.67032	0.812414	5.55741	0.972599	6.6465		
0.477405	3.24116	0.31191	2.09289	0.766622	5.19752	0.858675	5.8119	0.919481	6.23491			0.687592	4.65942	0.816371	5.54911	0.975592	6.62478		
0.478824	3.23036	0.31399	2.09375	0.770612	5.19178	0.862921	5.80404	0.923329	6.2217			0.690311	4.6485	0.820335	5.54096	0.978597	6.6034		
0.480244	3.21971	0.31607	2.09461	0.774588	5.18601	0.867169	5.79629	0.927197	6.20878			0.693007	4.63756	0.824306	5.53296	0.981614	6.58237		
0.481666	3.20919	0.318149	2.09545	0.778548	5.18021	0.871418	5.78864	0.931083	6.19614			0.69568	4.6266	0.828283	5.52511	0.984642	6.56169		
0.483089	3.19882	0.320229	2.09628	0.782493	5.17438	0.875668	5.78109	0.934987	6.18379			0.69833	4.61562	0.832267	5.51739	0.987682	6.54133		
0.484514	3.18858	0.322308	2.09711	0.786422	5.16852	0.879917	5.77363	0.938911	6.17171			0.700957	4.60463	0.836256	5.50981	0.990734	6.5213		
0.48594	3.17848	0.324388	2.09792	0.790335	5.16262	0.884168	5.76627	0.942854	6.1599			0.703562	4.59363	0.840251	5.50235	0.993797	6.5016		
0.487368	3.16851	0.326467	2.09872	0.794232	5.1567	0.888417	5.75899	0.946815	6.14835			0.706145	4.58262	0.844251	5.49502	0.996872	6.4822		
0.488798	3.15867	0.328546	2.09951	0.798112	5.15073	0.892667	5.7518	0.950795	6.13707			0.708706	4.5716	0.848256	5.48781	0.999959	6.46312		
0.49023	3.14897	0.330626	2.10029	0.801977	5.14474	0.896916	5.74469	0.954795	6.12604			0.711246	4.56057	0.852265	5.4807	1.00306	6.44433		
0.491664	3.13939	0.332705	2.10107	0.805825	5.13872	0.901164	5.73766	0.958813	6.11527			0.713765	4.54954	0.856277	5.47371				
0.493099	3.12993	0.334784	2.10183	0.809657	5.13266	0.90541	5.7307	0.96285	6.10474			0.716262	4.53851	0.860294	5.46683				
0.494537	3.1206	0.336863	2.10258	0.813473	5.12656	0.909656	5.72382	0.966906	6.09446			0.718739	4.52748	0.864313	5.46004				
0.495976	3.1114	0.338942	2.10333	0.817271	5.12044	0.913899	5.717	0.970981	6.08441			0.721196	4.51644	0.868335	5.45336				
0.497418	3.10231	0.341021	2.10406	0.821053	5.11428	0.918141	5.71026	0.975075	6.0746			0.723632	4.50541	0.87236	5.44676				
0.498862	3.09334	0.343099	2.10479	0.824818	5.10808	0.922381	5.70358	0.979187	6.06501			0.726049	4.49439	0.876387	5.44026				
0.500308	3.08448	0.345178	2.10551	0.828566	5.10186	0.926619	5.69696	0.983318	6.05566			0.728447	4.48337	0.880415	5.43383				
0.501756	3.07575	0.347257	2.10622	0.832297	5.0956	0.930855	5.69041	0.987468	6.04652			0.730825	4.47236	0.884445	5.4275				
0.503207	3.06712	0.349336	2.10692	0.836011	5.08931	0.935088	5.68391	0.991636	6.03759			0.733184	4.46136	0.888475	5.42124				
0.504659	3.0586	0.351414	2.10761	0.839708	5.08298	0.939318	5.67747	0.995822	6.02888			0.735525	4.45038	0.892507	5.41505				
0.506114	3.0502	0.353493	2.1083	0.843388	5.07663	0.943546	5.67109	1.00003	6.02038			0.737847	4.4394	0.896539	5.40894				
0.507572	3.0419	0.355571	2.10898	0.84705	5.07024	0.947771	5.66476					0.740151	4.42844	0.90057	5.40289				
0.509031	3.03371	0.35765	2.10964	0.850695	5.06382	0.951993	5.65849					0.742438	4.4175	0.904602	5.39691				
0.510493	3.02562	0.359728	2.11031	0.854323	5.05736	0.956212	5.65227					0.744707	4.40657	0.908632	5.39099				
0.511958	3.01764	0.361806	2.11096	0.857934	5.05088	0.960428	5.64609					0.746959	4.39566	0.912662	5.38513				
0.513425	3.00976	0.363884	2.11161	0.861527	5.04436	0.964641	5.63997					0.749194	4.38477	0.91669	5.37933				
0.514894	3.00198	0.365963	2.11225	0.865103	5.03782	0.968851	5.63389					0.751412	4.37391	0.920717	5.37358				
0.516366	2.99429	0.368041	2.11288	0.868661	5.03124	0.973057	5.62786					0.753614	4.36306	0.924741	5.36788				
0.51784	2.98671	0.370119	2.11351	0.872203	5.02464	0.97726	5.62187					0.7558	4.35224	0.928764	5.36222				
0.519317	2.97921	0.372197	2.11412	0.875726	5.01801	0.98146	5.61593					0.757971	4.34145	0.932784	5.35662				
0.520797	2.97182	0.374275	2.11474	0.879233	5.01134	0.985656	5.61003					0.760125	4.33068	0.936801	5.35106				
0.522279	2.96451	0.376353	2.11534	0.882722	5.00465	0.989849	5.60418					0.762265	4.31994	0.940814	5.34554				
0.523763	2.9573	0.378431	2.11594	0.886193	4.99794	0.994038	5.59837					0.76439	4.30922	0.944825	5.34005				
0.52525	2.95018	0.380509	2.11653	0.889648	4.99119	0.998224	5.5926					0.766499	4.29854	0.948831	5.33461				
0.52674	2.94314	0.382586	2.11712	0.893085	4.98442	1.00241	5.58687					0.768595	4.28789	0.952834	5.32919				
0.528232	2.93619	0.384664	2.1177	0.896504	4.97762							0.770676	4.27727	0.956832	5.32381				
0.529727	2.92933	0.386742	2.11827	0.899907	4.9708							0.772744	4.26668	0.960826	5.31846				
0.531224	2.92255	0.38882	2.11884	0.903292	4.96395							0.774797	4.25612	0.964815	5.31314				
0.532724	2.91586	0.390897	2.1194	0.90666	4.95708							0.776838	4.2456	0.968799	5.30785				
0.534227	2.90925	0.392975	2.11995	0.910011	4.95018							0.778865	4.23512	0.972777	5.30258				
0.535732	2.90272	0.395052	2.1205	0.913345	4.94327							0.780879	4.22467	0.97675	5.29733				
0.53724	2.89627	0.39713	2.12105	0.916661	4.93632							0.782881	4.21426	0.980717	5.2921				
0.53875	2.8899	0.399207	2.12159	0.919961	4.92936							0.78487	4.20388	0.984677	5.2869				
0.540263	2.8836	0.401285	2.12212	0.923243	4.92238							0.786848	4.19354	0.988632	5.28171				
0.541779	2.87738	0.403362	2.12265	0.926509	4.91537							0.788813	4.18325	0.992579	5.27653				
0.543298	2.87124	0.405439	2.12317	0.929758	4.90835							0.790766	4.17299	0.99652	5.27137				
0.544818	2.86517	0.407517	2.12368	0.93299	4.9013							0.792709	4.16277	1.00045	5.26623				
0.546342	2.85917	0.409594	2.1242	0.936206	4.89424							0.794639	4.15259						
0.547868	2.85325	0.411671	2.1247	0.939404	4.88716							0.796559	4.14245						
0.549397	2.84739	0.413748	2.1252	0.942587	4.88006							0.798468	4.13236						
0.550929	2.84161	0.415826	2.1257	0.945752	4.87294							0.800367	4.12231						
0.552463	2.83589	0.417903	2.12619	0.948902	4.86581							0.802255	4.1123						
0.554	2.83025	0.41998	2.12668	0.952034	4.85866							0.804133	4.10234						
0.555539	2.82467	0.422057	2.12716	0.955151	4.8515							0.806001	4.09241						
0.557081	2.81915	0.424134	2.12764	0.958251	4.84432							0.80786	4.08254						
0.558625	2.8137	0.426211	2.12811	0.961336	4.83713							0.809709	4.07271						
0.560173	2.80832	0.428288	2.12858	0.964404	4.82993							0.811548	4.06292						
0.561722	2.80299	0.430365	2.12904	0.967456	4.82271							0.813379	4.05318						
0.563275	2.79773	0.432441	2.1295	0.970492	4.81548							0.815201	4.04348						
0.56483	2.79253	0.434518	2.12996	0.973513	4.80824							0.817014	4.03383						
0.566387	2.78739	0.436595	2.13041	0.976518	4.80099							0.818818	4.02423						
0.567948	2.78231	0.438672	2.13085	0.979507	4.79373							0.820614	4.01467						
0.56951	2.77729	0.440749	2.13129	0.98248	4.78645							0.822402	4.00517						
0.571075	2.77233	0.442825	2.13173	0.985439	4.77917							0.824182	3.9957						
0.572643	2.76742	0.444902	2.13217	0.988382	4.77188							0.825954	3.98629						
0.574214	2.76257	0.446978	2.1326	0.991309	4.76458							0.827719	3.97692						
0.575786	2.75778	0.449055	2.13302	0.994221	4.75728							0.829476	3.9676						
0.577362	2.75304	0.451132	2.13344	0.997119	4.74997							0.831225	3.95833						
0.57894	2.74835	0.453208	2.13386	1	4.74265							0.832968	3.94911						
0.58052	2.74372	0.455285	2.13428									0.834704	3.93994						
0.582103	2.73914	0.457361	2.13469									0.836433	3.93081						
0.583689	2.73461	0.459438	2.13509									0.838155	3.92173						
0.585277	2.73014	0.461514	2.1355									0.839871	3.91271						
0.586867	2.72571	0.46359	2.1359									0.841581	3.90373						
0.58846	2.72133	0.465667	2.13629									0.843284	3.8948						
0.590055	2.717	0.467743	2.13669									0.844982	3.88591						
0.591653	2.71272	0.469819	2.13708									0.846673	3.87708						
0.593253	2.70849	0.471896	2.13746									0.848359	3.8683						
0.594856	2.7043	0.473972	2.13784									0.850039	3.85956						
0.596461	2.70016	0.476048	2.13822									0.851714	3.85088						
0.598068	2.69607	0.478124	2.1386									0.853384	3.84224						
0.599678	2.69202	0.4802	2.13897									0.855048	3.83365						
0.60129	2.68801	0.482277	2.13934									0.856707	3.82511						
0.602905	2.68405	0.484353	2.13971									0.858361	3.81662						
0.604522	2.68013	0.486429	2.14007									0.860011	3.80818						
0.606141	2.67626	0.488505	2.14043									0.861656	3.79979						
0.607763	2.67242	0.490581	2.14079									0.863296	3.79144						
0.609387	2.66863	0.492657	2.14114									0.864932	3.78315						
0.611013	2.66488	0.494733	2.14149									0.866563	3.7749						
0.612641	2.66117	0.496809	2.14184									0.868191	3.7667						
0.614272	2.6575	0.498885	2.14218									0.869814	3.75855						
0.615905	2.65387	0.500961	2.14253									0.871433	3.75045						
0.617541	2.65027	0.503037	2.14287									0.873049	3.74239						
0.619178	2.64672	0.505112	2.1432									0.87466	3.73439						
0.620818	2.6432	0.507188	2.14354									0.876268	3.72643						
0.62246	2.63972	0.509264	2.14387									0.877873	3.71852						
0.624105	2.63628	0.51134	2.1442									0.879474	3.71066						
0.625751	2.63287	0.513416	2.14452									0.881071	3.70284						
0.6274	2.6295	0.515491	2.14485									0.882666	3.69507						
0.629051	2.62617	0.517567	2.14517									0.884257	3.68735						
0.630704	2.62287	0.519643	2.14549									0.885845	3.67968						
0.632359	2.6196	0.521718	2.1458									0.88743	3.67205						
0.634017	2.61637	0.523794	2.14611									0.889012	3.66447						
0.635676	2.61317	0.52587	2.14642									0.890592	3.65694						
0.637338	2.61	0.527945	2.14673									0.892168	3.64945						
0.639002	2.60687	0.530021	2.14704									0.893742	3.64201						
0.640668	2.60377	0.532096	2.14734									0.895314	3.63461						
0.642336	2.6007	0.534172	2.14764									0.896883	3.62726						
0.644006	2.59766	0.536248	2.14794									0.898449	3.61996						
0.645678	2.59466	0.538323	2.14824									0.900014	3.6127						
0.647352	2.59168	0.540399	2.14853									0.901576	3.60548						
0.649029	2.58874	0.542474	2.14882									0.903135	3.59832						
0.650707	2.58582	0.544549	2.14911									0.904693	3.59119						
0.652387	2.58294	0.546625	2.1494									0.906249	3.58411						
0.65407	2.58008	0.5487	2.14969									0.907803	3.57708						
0.655754	2.57725	0.550776	2.14997									0.909355	3.57008						
0.65744	2.57445	0.552851	2.15025									0.910905	3.56314						
0.659129	2.57168	0.554926	2.15053									0.912453	3.55623						
0.660819	2.56894	0.557002	2.15081									0.913999	3.54937						
0.662511	2.56622	0.559077	2.15108									0.915544	3.54255						
0.664205	2.56353	0.561152	2.15135									0.917088	3.53578						
0.665901	2.56087	0.563227	2.15162									0.91863	3.52905						
0.667599	2.55823	0.565303	2.15189									0.92017	3.52236						
0.669299	2.55562	0.567378	2.15216									0.921709	3.51571						
0.671001	2.55304	0.569453	2.15242									0.923247	3.5091						
0.672705	2.55048	0.571528	2.15269									0.924783	3.50254						
0.67441	2.54794	0.573603	2.15295									0.926318	3.49602						
0.676117	2.54544	0.575679	2.15321									0.927852	3.48954						
0.677827	2.54295	0.577754	2.15346									0.929385	3.4831						
0.679538	2.54049	0.579829	2.15372									0.930917	3.4767						
0.681251	2.53805	0.581904	2.15397									0.932448	3.47034						
0.682965	2.53564	0.583979	2.15422									0.933978	3.46402						
0.684682	2.53325	0.586054	2.15447									0.935507	3.45775						
0.6864	2.53088	0.588129	2.15472									0.937035	3.45151						
0.68812	2.52854	0.590204	2.15497									0.938562	3.44531						
0.689842	2.52622	0.592279	2.15521									0.940089	3.43915						
0.691566	2.52392	0.594354	2.15546									0.941614	3.43303						
0.693291	2.52164	0.596429	2.1557									0.943139	3.42695						
0.695018	2.51939	0.598504	2.15594									0.944664	3.42091						
0.696747	2.51715	0.600579	2.15618									0.946187	3.4149						
0.698478	2.51494	0.602654	2.15641									0.947711	3.40894						
0.70021	2.51275	0.604729	2.15665									0.949233	3.40301						
0.701944	2.51057	0.606804	2.15688									0.950755	3.39712						
0.70368	2.50842	0.608879	2.15711									0.952277	3.39127						
0.705417	2.50629	0.610953	2.15734									0.953799	3.38545						
0.707156	2.50418	0.613028	2.15757									0.95532	3.37968						
0.708897	2.50209	0.615103	2.1578									0.95684	3.37393						
0.710639	2.50002	0.617178	2.15802									0.95836	3.36823						
0.712383	2.49797	0.619253	2.15824									0.95988	3.36256						
0.714129	2.49593	0.621327	2.15847									0.9614	3.35693						
0.715876	2.49392	0.623402	2.15869									0.96292	3.35133						
0.717625	2.49192	0.625477	2.15891									0.964439	3.34577						
0.719375	2.48995	0.627552	2.15912									0.965958	3.34024						
0.721127	2.48799	0.629626	2.15934									0.967478	3.33475						
0.722881	2.48604	0.631701	2.15955									0.968997	3.3293						
0.724636	2.48412	0.633776	2.15977									0.970516	3.32388						
0.726392	2.48222	0.63585	2.15998									0.972035	3.31849						
0.728151	2.48033	0.637925	2.16019									0.973554	3.31314						
0.72991	2.47845	0.64	2.1604									0.975073	3.30782						
0.731672	2.4766	0.642074	2.16061									0.976592	3.30253						
0.733434	2.47476	0.644149	2.16081									0.978111	3.29728						
0.735199	2.47294	0.646223	2.16102									0.97963	3.29206						
0.736964	2.47114	0.648298	2.16122									0.981149	3.28688						
0.738732	2.46935	0.650372	2.16143									0.982669	3.28173						
0.7405	2.46758	0.652447	2.16163									0.984189	3.27661						
0.742271	2.46582	0.654522	2.16183									0.985709	3.27152						
0.744042	2.46408	0.656596	2.16203									0.987229	3.26646						
0.745816	2.46235	0.658671	2.16222									0.988749	3.26144						
0.74759	2.46064	0.660745	2.16242									0.99027	3.25645						
0.749366	2.45895	0.66282	2.16261									0.991791	3.25149						
0.751144	2.45727	0.664894	2.16281									0.993312	3.24656						
0.752922	2.4556	0.666968	2.163									0.994834	3.24166						
0.754703	2.45395	0.669043	2.16319									0.996356	3.2368						
0.756484	2.45232	0.671117	2.16338									0.997878	3.23196						
0.758267	2.45069	0.673192	2.16357									0.999401	3.22715						
0.760052	2.44909	0.675266	2.16376									1.00092	3.22238						
0.761838	2.44749	0.67734	2.16395																
0.763625	2.44591	0.679415	2.16413																
0.765413	2.44435	0.681489	2.16432																
0.767203	2.4428	0.683563	2.1645																
0.768994	2.44126	0.685638	2.16468																
0.770787	2.43973	0.687712	2.16486																
0.772581	2.43822	0.689786	2.16504																
0.774376	2.43672	0.69186	2.16522																
0.776173	2.43523	0.693935	2.1654																
0.77797	2.43376	0.696009	2.16557																
0.779769	2.4323	0.698083	2.16575																
0.78157	2.43085	0.700157	2.16592																
0.783371	2.42941	0.702232	2.1661																
0.785174	2.42799	0.704306	2.16627																
0.786978	2.42658	0.70638	2.16644																
0.788784	2.42518	0.708454	2.16661																
0.79059	2.42379	0.710528	2.16678																
0.792398	2.42241	0.712602	2.16695																
0.794207	2.42105	0.714676	2.16712																
0.796018	2.41969	0.716751	2.16728																
0.797829	2.41835	0.718825	2.16745																
0.799642	2.41702	0.720899	2.16761																
0.801456	2.4157	0.722973	2.16778																
0.803271	2.41439	0.725047	2.16794																
0.805087	2.41309	0.727121	2.1681																
0.806905	2.4118	0.729195	2.16826																
0.808723	2.41053	0.731269	2.16842																
0.810543	2.40926	0.733343	2.16858																
0.812364	2.408	0.735417	2.16874																
0.814186	2.40676	0.737491	2.16889																
0.816009	2.40552	0.739565	2.16905																
0.817834	2.4043	0.741639	2.16921																
0.819659	2.40308	0.743713	2.16936																
0.821486	2.40188	0.745787	2.16951																
0.823314	2.40068	0.747861	2.16967																
0.825142	2.39949	0.749934	2.16982																
0.826972	2.39832	0.752008	2.16997																
0.828803	2.39715	0.754082	2.17012																
0.830635	2.39599	0.756156	2.17027																
0.832469	2.39484	0.75823	2.17042																
0.834303	2.3937	0.760304	2.17056																
0.836138	2.39257	0.762378	2.17071																
0.837974	2.39145	0.764451	2.17086																
0.839812	2.39034	0.766525	2.171																
0.84165	2.38924	0.768599	2.17115																
0.84349	2.38814	0.770673	2.17129																
0.84533	2.38706	0.772747	2.17143																
0.847172	2.38598	0.77482	2.17157																
0.849014	2.38491	0.776894	2.17171																
0.850858	2.38385	0.778968	2.17185																
0.852703	2.3828	0.781042	2.17199																
0.854548	2.38176	0.783115	2.17213																
0.856395	2.38072	0.785189	2.17227																
0.858242	2.37969	0.787263	2.17241																
0.860091	2.37867	0.789336	2.17255																
0.86194	2.37766	0.79141	2.17268																
0.863791	2.37666	0.793484	2.17282																
0.865642	2.37566	0.795557	2.17295																
0.867495	2.37468	0.797631	2.17308																
0.869348	2.37369	0.799705	2.17322																
0.871202	2.37272	0.801778	2.17335																
0.873058	2.37176	0.803852	2.17348																
0.874914	2.3708	0.805925	2.17361																
0.876771	2.36985	0.807999	2.17374																
0.878629	2.3689	0.810072	2.17387																
0.880488	2.36797	0.812146	2.174																
0.882348	2.36704	0.814219	2.17413																
0.884209	2.36612	0.816293	2.17426																
0.886071	2.3652	0.818367	2.17438																
0.887933	2.36429	0.82044	2.17451																
0.889797	2.36339	0.822514	2.17464																
0.891661	2.3625	0.824587	2.17476																
0.893526	2.36161	0.82666	2.17489																
0.895392	2.36073	0.828734	2.17501																
0.89726	2.35985	0.830807	2.17513																
0.899127	2.35899	0.832881	2.17525																
0.900996	2.35813	0.834954	2.17538																
0.902866	2.35727	0.837028	2.1755																
0.904736	2.35642	0.839101	2.17562																
0.906607	2.35558	0.841174	2.17574																
0.90848	2.35474	0.843248	2.17586																
0.910353	2.35391	0.845321	2.17598																
0.912226	2.35309	0.847395	2.17609																
0.914101	2.35227	0.849468	2.17621																
0.915976	2.35146	0.851541	2.17633																
0.917853	2.35066	0.853615	2.17645																
0.91973	2.34986	0.855688	2.17656																
0.921608	2.34906	0.857761	2.17668																
0.923486	2.34827	0.859835	2.17679																
0.925366	2.34749	0.861908	2.17691																
0.927246	2.34671	0.863981	2.17702																
0.929127	2.34594	0.866054	2.17713																
0.931009	2.34518	0.868128	2.17724																
0.932892	2.34442	0.870201	2.17736																
0.934775	2.34366	0.872274	2.17747																
0.936659	2.34292	0.874347	2.17758																
0.938544	2.34217	0.87642	2.17769																
0.94043	2.34143	0.878494	2.1778																
0.942317	2.3407	0.880567	2.17791																
0.944204	2.33997	0.88264	2.17802																
0.946092	2.33925	0.884713	2.17812																
0.94798	2.33853	0.886786	2.17823																
0.94987	2.33782	0.88886	2.17834																
0.95176	2.33711	0.890933	2.17845																
0.953651	2.33641	0.893006	2.17855																
0.955543	2.33572	0.895079	2.17866																
0.957435	2.33502	0.897152	2.17876																
0.959328	2.33434	0.899225	2.17887																
0.961222	2.33365	0.901298	2.17897																
0.963117	2.33298	0.903371	2.17907																
0.965012	2.3323	0.905444	2.17918																
0.966908	2.33164	0.907517	2.17928																
0.968804	2.33097	0.90959	2.17938																
0.970702	2.33031	0.911663	2.17948																
0.9726	2.32966	0.913736	2.17958																
0.974499	2.32901	0.915809	2.17969																
0.976398	2.32836	0.917882	2.17979																
0.978298	2.32772	0.919955	2.17989																
0.980199	2.32709	0.922028	2.17998																
0.9821	2.32646	0.924101	2.18008																
0.984002	2.32583	0.926174	2.18018																
0.985905	2.32521	0.928247	2.18028																
0.987808	2.32459	0.93032	2.18038																
0.989713	2.32397	0.932393	2.18047																
0.991617	2.32336	0.934466	2.18057																
0.993523	2.32276	0.936539	2.18067																
0.995429	2.32215	0.938612	2.18076																
0.997335	2.32156	0.940685	2.18086																
0.999243	2.32096	0.942758	2.18095																
1.00115	2.32037	0.944831	2.18105																
		0.946903	2.18114																
		0.948976	2.18123																
		0.951049	2.18133																
		0.953122	2.18142																
		0.955195	2.18151																
		0.957268	2.1816																
		0.95934	2.1817																
		0.961413	2.18179																
		0.963486	2.18188																
		0.965559	2.18197																
		0.967631	2.18206																
		0.969704	2.18215																
		0.971777	2.18224																
		0.97385	2.18233																
		0.975922	2.18241																
		0.977995	2.1825																
		0.980068	2.18259																
		0.982141	2.18268																
		0.984213	2.18276																
		0.986286	2.18285																
		0.988359	2.18293																
		0.990431	2.18302																
		0.992504	2.18311																
		0.994576	2.18319																
		0.996649	2.18327																
		0.998722	2.18336																
		1.00079	2.18344																
