Sym0		Asym0		Sym1		Sym2		Sym3		Sym4		Asym1		Asym2		Asym3		Asym4	
469  Points		496  Points		234  Points		200  Points		186  Points		130  Points		340  Points		212  Points		174  Points		109  Points	
Freq (MHz)	Vph (m/ms)	Freq (MHz)	Vph (m/ms)	Freq (MHz)	Vph (m/ms)	Freq (MHz)	Vph (m/ms)	Freq (MHz)	Vph (m/ms)	Freq (MHz)	Vph (m/ms)	Freq (MHz)	Vph (m/ms)	Freq (MHz)	Vph (m/ms)	Freq (MHz)	Vph (m/ms)	Freq (MHz)	Vph (m/ms)
0.00134099	5.15241	0.000429354	0.178774	0.279519	510.037	0.467321	625.577	0.559023	1097.63	0.838528	1839.14	0.139795	226.54	0.419263	2611.89	0.698773	2232.04	0.93463	6596.38
0.00614131	5.15228	0.000823768	0.247129	0.279587	188.944	0.467348	278.396	0.559064	387.971	0.838552	604.305	0.140011	90.4008	0.419295	383.894	0.698795	561.39	0.934636	870.738
0.0109414	5.15214	0.00134154	0.314543	0.279716	115.996	0.467396	179.05	0.559145	235.659	0.838599	361.57	0.140411	56.6066	0.419374	207.21	0.698845	321.093	0.934651	466.142
0.0157409	5.15191	0.00197883	0.380784	0.279908	83.7264	0.467464	131.973	0.559266	169.25	0.838669	257.971	0.140994	41.3209	0.4195	141.934	0.698922	224.868	0.934675	318.266
0.0205398	5.15163	0.00273111	0.445645	0.280161	65.5375	0.467553	104.509	0.559426	132.062	0.838763	200.531	0.141756	32.6335	0.419673	107.96	0.699026	173.033	0.934708	241.622
0.0253378	5.15128	0.00359338	0.508968	0.280475	53.8701	0.467663	86.5161	0.559626	108.291	0.838881	164.023	0.142692	27.0477	0.419893	87.1328	0.699157	140.632	0.934751	194.733
0.0301348	5.15086	0.00456004	0.570588	0.280851	45.7546	0.467794	73.8172	0.559865	91.7891	0.839022	138.771	0.143797	23.166	0.420159	73.0624	0.699315	118.463	0.934803	163.089
0.0349303	5.15035	0.00562522	0.630381	0.281287	39.7866	0.467946	64.3765	0.560143	79.6657	0.839186	120.265	0.145067	20.3205	0.420473	62.9226	0.6995	102.342	0.934864	140.295
0.0397244	5.14977	0.00678302	0.688267	0.281784	35.216	0.468119	57.0836	0.56046	70.3843	0.839374	106.122	0.146495	18.1516	0.420833	55.2704	0.699712	90.0922	0.934934	123.095
0.0445168	5.14911	0.00802726	0.744167	0.282341	31.6055	0.468314	51.2812	0.560817	63.0517	0.839586	94.963	0.148075	16.4485	0.42124	49.2921	0.699951	80.4697	0.935014	109.654
0.0493072	5.14838	0.00935197	0.798045	0.282957	28.683	0.468531	46.5552	0.561212	57.1136	0.839821	85.9338	0.149799	15.0794	0.421693	44.4942	0.700217	72.7119	0.935103	98.8624
0.0540953	5.14757	0.0107511	0.849869	0.283633	26.2704	0.468769	42.6322	0.561646	52.2076	0.840079	78.4785	0.151662	13.9578	0.422192	40.5596	0.70051	66.3254	0.935202	90.007
0.0588811	5.14667	0.0122189	0.899643	0.284366	24.246	0.46903	39.3238	0.562119	48.087	0.840361	72.2191	0.153656	13.0245	0.422737	37.2756	0.70083	60.9767	0.935311	82.6098
0.0636641	5.14569	0.01375	0.947382	0.285157	22.5241	0.469313	36.4967	0.562631	44.5777	0.840667	66.8896	0.155774	12.2376	0.423328	34.4939	0.701176	56.4322	0.935429	76.3383
0.0684442	5.14463	0.015339	0.99311	0.286005	21.0425	0.469619	34.0532	0.56318	41.5538	0.840995	62.2975	0.158011	11.5667	0.423964	32.1082	0.701549	52.5238	0.935556	70.9539
0.0732212	5.1435	0.0169808	1.03686	0.286909	19.7549	0.469948	31.9205	0.563768	38.9215	0.841347	58.2999	0.160359	10.9891	0.424646	30.0402	0.701949	49.1269	0.935694	66.2808
0.0779947	5.14226	0.0186709	1.0787	0.287869	18.6261	0.4703	30.0431	0.564393	36.6099	0.841722	54.7887	0.162491	10.5484	0.425373	28.2309	0.702376	46.1476	0.935841	62.1871
0.0827645	5.14095	0.020405	1.11867	0.288883	17.629	0.470676	28.3782	0.565057	34.564	0.842121	51.6805	0.164369	10.2115	0.426145	26.6351	0.702829	43.5137	0.935999	58.5713
0.0875303	5.13954	0.0221789	1.15683	0.289951	16.7422	0.471075	26.8917	0.565757	32.7409	0.842543	48.9098	0.165962	9.95643	0.426961	25.2176	0.703308	41.1687	0.936166	55.3545
0.0922919	5.13804	0.0239888	1.19324	0.291072	15.949	0.4715	25.5566	0.566495	31.1064	0.842987	46.4248	0.167247	9.76829	0.427821	23.9505	0.703814	39.0677	0.936344	52.4742
0.0970489	5.13645	0.0258315	1.22799	0.292245	15.2355	0.471949	24.3512	0.56727	29.633	0.843455	44.1835	0.168205	9.63695	0.428725	22.8113	0.704347	37.1747	0.936532	49.8803
0.101801	5.13476	0.0277035	1.26113	0.29347	14.5906	0.472423	23.2576	0.568081	28.2981	0.843947	42.152	0.168824	9.55582	0.429673	21.7819	0.704906	35.4604	0.93673	47.5322
0.106548	5.13297	0.0296022	1.29273	0.294744	14.0052	0.472923	22.2612	0.56893	27.0834	0.844461	40.3022	0.169722	9.44302	0.430664	20.8475	0.705491	33.9009	0.93694	45.3966
0.111289	5.13107	0.0315248	1.32287	0.296068	13.4717	0.47345	21.3496	0.569814	25.9735	0.844998	38.611	0.170708	9.32525	0.431698	19.9957	0.706102	32.4763	0.937159	43.446
0.116025	5.12908	0.0334689	1.3516	0.297439	12.9837	0.474002	20.5127	0.570734	24.9556	0.845558	37.0589	0.172066	9.1727	0.432774	19.2163	0.706739	31.1699	0.93739	41.6574
0.120754	5.12697	0.0354323	1.37901	0.298859	12.5358	0.474582	19.7418	0.57169	24.0189	0.846141	35.6295	0.173812	8.99141	0.433893	18.5006	0.707402	29.9678	0.937631	40.0115
0.125476	5.12476	0.037413	1.40514	0.300324	12.1235	0.475189	19.0296	0.572681	23.1542	0.846747	34.309	0.175962	8.78799	0.435053	17.8413	0.708091	28.8579	0.937883	38.4919
0.130192	5.12242	0.0394091	1.43007	0.301835	11.7428	0.475824	18.3696	0.573707	22.3536	0.847375	33.0855	0.178536	8.56911	0.436254	17.2322	0.708806	27.8303	0.938147	37.0846
0.1349	5.11997	0.0414191	1.45386	0.30339	11.3904	0.476488	17.7566	0.574768	21.6105	0.848026	31.9487	0.181557	8.3411	0.437497	16.6678	0.709546	26.8762	0.938422	35.7778
0.1396	5.1174	0.0434415	1.47656	0.304988	11.0634	0.477181	17.1857	0.575864	20.9189	0.8487	30.8898	0.184645	8.13477	0.43878	16.1437	0.710312	25.9881	0.938708	34.5611
0.144291	5.1147	0.0454748	1.49822	0.306629	10.7593	0.477903	16.6529	0.576994	20.2738	0.849397	29.9012	0.187796	7.94739	0.440103	15.6557	0.711104	25.1594	0.939006	33.4255
0.148974	5.11186	0.0472548	1.51631	0.308092	10.5112	0.478656	16.1547	0.578158	19.6707	0.850116	28.9761	0.191008	7.77666	0.441466	15.2004	0.71192	24.3845	0.939315	32.3631
0.153647	5.10888	0.0487775	1.53116	0.309364	10.3111	0.479439	15.6878	0.579355	19.1058	0.850857	28.1088	0.194275	7.62062	0.442868	14.7747	0.712762	23.6584	0.939636	31.3673
0.15831	5.10577	0.0500399	1.54307	0.310432	10.1531	0.480253	15.2495	0.580586	18.5756	0.851621	27.2939	0.197596	7.4776	0.444309	14.3759	0.71363	22.9766	0.939969	30.4319
0.162963	5.1025	0.0510403	1.55225	0.311287	10.0325	0.481099	14.8375	0.581849	18.0772	0.852407	26.527	0.200967	7.34617	0.445788	14.0017	0.714522	22.3353	0.940315	29.5517
0.167605	5.09908	0.0517768	1.55888	0.311922	9.94633	0.481978	14.4494	0.583146	17.6078	0.853216	25.804	0.204386	7.22507	0.447306	13.6499	0.715439	21.7311	0.940672	28.7219
0.172235	5.0955	0.0522486	1.56306	0.312331	9.89219	0.482889	14.0833	0.584475	17.165	0.854046	25.1213	0.20785	7.11324	0.44886	13.3187	0.716381	21.1608	0.941042	27.9384
0.176852	5.09175	0.0529275	1.569	0.312922	9.81574	0.483834	13.7376	0.585835	16.7468	0.854899	24.4756	0.211356	7.00973	0.450452	13.0064	0.717347	20.6218	0.941424	27.1975
0.181456	5.08783	0.0536662	1.57536	0.313569	9.73444	0.484813	13.4106	0.587228	16.3511	0.855773	23.8641	0.214903	6.91372	0.45208	12.7114	0.718338	20.1117	0.941818	26.4957
0.186046	5.08372	0.0546721	1.58385	0.314457	9.62676	0.485826	13.101	0.588652	15.9763	0.85667	23.2841	0.218487	6.82449	0.453745	12.4325	0.719353	19.6281	0.942226	25.8301
0.190621	5.07942	0.055946	1.59432	0.315593	9.49515	0.486875	12.8075	0.590107	15.6208	0.857588	22.7334	0.222108	6.7414	0.455445	12.1685	0.720393	19.1691	0.942646	25.198
0.19518	5.07492	0.0574893	1.60661	0.316984	9.34248	0.48796	12.529	0.591593	15.2832	0.858529	22.2098	0.225763	6.66389	0.45718	11.9181	0.721457	18.733	0.943079	24.597
0.199723	5.07022	0.059303	1.62053	0.318642	9.17187	0.489081	12.2644	0.593109	14.9622	0.85949	21.7114	0.229451	6.59147	0.45895	11.6806	0.722545	18.3181	0.943526	24.0249
0.204249	5.06529	0.0613882	1.63586	0.320578	8.98658	0.490239	12.0127	0.594656	14.6567	0.860474	21.2364	0.233169	6.52368	0.460754	11.4549	0.723656	17.923	0.943985	23.4795
0.208755	5.06014	0.0634772	1.65055	0.322548	8.81167	0.491434	11.7732	0.596233	14.3657	0.861479	20.7833	0.236917	6.46012	0.462591	11.2402	0.724791	17.5462	0.944458	22.9593
0.213242	5.05475	0.0655693	1.66462	0.324552	8.64636	0.492668	11.5451	0.597839	14.0881	0.862505	20.3506	0.240691	6.40045	0.464462	11.0358	0.72595	17.1866	0.944944	22.4623
0.217708	5.0491	0.0676642	1.67811	0.32659	8.48991	0.49394	11.3276	0.599474	13.8232	0.863553	19.9371	0.244493	6.34435	0.466366	10.8411	0.727133	16.8431	0.945444	21.9873
0.222152	5.0432	0.0697615	1.69105	0.328661	8.3417	0.495251	11.1201	0.601138	13.57	0.864622	19.5414	0.248318	6.29152	0.468051	10.6787	0.728338	16.5146	0.945958	21.5326
0.226573	5.03702	0.0718608	1.70347	0.330764	8.20114	0.496602	10.9219	0.602831	13.3279	0.865712	19.1625	0.252168	6.24171	0.469507	10.5454	0.729567	16.2002	0.946486	21.0972
0.230969	5.03055	0.0739619	1.71539	0.332898	8.0677	0.497812	10.7565	0.604553	13.0962	0.866823	18.7994	0.256039	6.19468	0.470724	10.4385	0.730818	15.8991	0.947028	20.6798
0.235339	5.02378	0.0760645	1.72684	0.335065	7.9409	0.498868	10.6205	0.606302	12.8743	0.867955	18.4512	0.259932	6.15022	0.471695	10.3561	0.732093	15.6104	0.947584	20.2794
0.239681	5.01669	0.0781681	1.73784	0.337262	7.8203	0.499759	10.5113	0.60808	12.6615	0.869108	18.1168	0.263845	6.10815	0.472413	10.2967	0.73339	15.3334	0.948154	19.8949
0.243994	5.00928	0.0802729	1.74842	0.339491	7.70551	0.500473	10.4271	0.609884	12.4574	0.870282	17.7957	0.267776	6.06828	0.472875	10.2591	0.734709	15.0675	0.948738	19.5254
0.248276	5.00152	0.0823784	1.75859	0.34175	7.59615	0.501005	10.3663	0.611716	12.2615	0.871476	17.487	0.271726	6.03045	0.473542	10.2058	0.736051	14.812	0.949337	19.1702
0.252525	4.9934	0.0844845	1.76838	0.34404	7.49191	0.501349	10.3279	0.613575	12.0733	0.872691	17.19	0.275692	5.99453	0.47427	10.1487	0.737416	14.5664	0.949951	18.8284
0.25674	4.9849	0.0865911	1.7778	0.346362	7.39248	0.501846	10.2734	0.61546	11.8924	0.873926	16.9041	0.279674	5.96037	0.475267	10.0725	0.738802	14.33	0.950579	18.4992
0.260918	4.97601	0.088698	1.78688	0.348714	7.29757	0.502391	10.215	0.617372	11.7183	0.875182	16.6287	0.283672	5.92786	0.476538	9.97842	0.74021	14.1025	0.951223	18.182
0.265058	4.96671	0.0908052	1.79562	0.351098	7.20694	0.503142	10.137	0.61931	11.5509	0.876458	16.3633	0.287683	5.89688	0.47809	9.86791	0.74164	13.8833	0.951881	17.8763
0.269157	4.95698	0.0929124	1.80406	0.353514	7.12036	0.504106	10.0406	0.621273	11.3896	0.877754	16.1073	0.291708	5.86733	0.479931	9.74265	0.743091	13.672	0.952555	17.5813
0.273214	4.94681	0.0950197	1.81219	0.355963	7.03761	0.505292	9.92738	0.623262	11.2341	0.87907	15.8603	0.295746	5.83911	0.482072	9.60445	0.744564	13.4682	0.953244	17.2966
0.277226	4.93619	0.0971268	1.82003	0.358444	6.9585	0.506714	9.79902	0.625276	11.0843	0.880407	15.6218	0.299795	5.81215	0.484241	9.47184	0.746058	13.2716	0.953948	17.0216
0.281191	4.92509	0.0992339	1.82761	0.36096	6.88284	0.508387	9.65735	0.627052	10.9581	0.881762	15.3914	0.303856	5.78636	0.486438	9.34453	0.747573	13.0817	0.954668	16.7559
0.285108	4.9135	0.101341	1.83493	0.36351	6.81047	0.510102	9.52143	0.62858	10.8535	0.883138	15.1687	0.307927	5.76165	0.488663	9.22221	0.749108	12.8983	0.955403	16.499
0.288973	4.90141	0.103447	1.84199	0.366096	6.74125	0.511862	9.39095	0.629854	10.7691	0.884533	14.9534	0.312008	5.73798	0.490916	9.10463	0.750665	12.721	0.956155	16.2505
0.292785	4.88881	0.105553	1.84883	0.368719	6.67503	0.513665	9.26565	0.630868	10.7036	0.885948	14.7451	0.316097	5.71526	0.493195	8.99154	0.752242	12.5496	0.956922	16.01
0.296541	4.87568	0.107659	1.85544	0.371379	6.61167	0.515512	9.14528	0.631617	10.6561	0.887382	14.5434	0.320195	5.69345	0.495501	8.8827	0.75384	12.3838	0.957705	15.7772
0.30024	4.86202	0.109765	1.86183	0.374079	6.55108	0.517404	9.0296	0.632098	10.6261	0.888836	14.3481	0.324301	5.67248	0.497833	8.7779	0.755458	12.2233	0.958504	15.5517
0.30388	4.84782	0.11187	1.86801	0.376819	6.49312	0.519341	8.91838	0.632792	10.5833	0.890308	14.159	0.328414	5.65231	0.500191	8.67693	0.757096	12.0678	0.95932	15.3331
0.307459	4.83308	0.113975	1.874	0.379602	6.43771	0.521322	8.81142	0.633549	10.5373	0.8918	13.9756	0.332534	5.63289	0.502574	8.5796	0.758753	11.9173	0.960152	15.1212
0.310526	4.81979	0.116079	1.8798	0.382427	6.38474	0.523347	8.70852	0.634584	10.4757	0.893311	13.7978	0.33666	5.61417	0.504982	8.48574	0.760431	11.7714	0.961001	14.9157
0.313103	4.80813	0.118183	1.88543	0.385297	6.33413	0.525418	8.6095	0.6359	10.3991	0.89484	13.6254	0.340791	5.59612	0.507414	8.39517	0.762128	11.6299	0.961866	14.7164
0.315207	4.79826	0.120286	1.89087	0.388212	6.28578	0.527533	8.51417	0.637503	10.3087	0.896388	13.458	0.344927	5.57868	0.50987	8.30775	0.763844	11.4927	0.962748	14.5228
0.316852	4.79031	0.122389	1.89616	0.391175	6.23963	0.529693	8.42238	0.639401	10.2054	0.897955	13.2956	0.349067	5.56184	0.51235	8.22332	0.76558	11.3596	0.963648	14.3349
0.318052	4.78439	0.124491	1.90129	0.394186	6.19558	0.531897	8.33397	0.6416	10.0904	0.89954	13.1378	0.353211	5.54554	0.514854	8.14175	0.767108	11.2468	0.964564	14.1524
0.318816	4.78056	0.126593	1.90626	0.397247	6.15358	0.534146	8.24879	0.643822	9.97915	0.901144	12.9845	0.357359	5.52977	0.51738	8.0629	0.768422	11.1529	0.965497	13.9751
0.319908	4.77501	0.128694	1.91109	0.400358	6.11354	0.536439	8.1667	0.646067	9.87139	0.902766	12.8356	0.361509	5.51449	0.519929	7.98665	0.769517	11.0767	0.966448	13.8027
0.321086	4.76891	0.130795	1.91578	0.403521	6.07539	0.538777	8.08757	0.648335	9.767	0.904406	12.6908	0.365662	5.49968	0.522499	7.9129	0.770387	11.0175	0.967416	13.6351
0.322675	4.76051	0.132896	1.92034	0.406735	6.03907	0.541158	8.01128	0.650624	9.66582	0.906064	12.55	0.369816	5.48529	0.525092	7.84152	0.77103	10.9745	0.968401	13.4721
0.324661	4.74971	0.134995	1.92477	0.410002	6.00451	0.543583	7.93769	0.652936	9.56773	0.90774	12.413	0.373972	5.47133	0.527706	7.77242	0.771442	10.9472	0.969404	13.3135
0.327029	4.7364	0.137095	1.92907	0.413321	5.97164	0.546051	7.86671	0.655269	9.47259	0.909433	12.2797	0.378129	5.45774	0.530342	7.70549	0.772037	10.9082	0.970425	13.1591
0.32976	4.72043	0.139193	1.93326	0.416692	5.94039	0.548562	7.79821	0.657623	9.38029	0.911145	12.15	0.382286	5.44453	0.532998	7.64065	0.772686	10.8663	0.971464	13.0088
0.332829	4.70166	0.141292	1.93734	0.420117	5.9107	0.551116	7.7321	0.659999	9.29071	0.912874	12.0236	0.386443	5.43166	0.535674	7.57782	0.773572	10.81	0.972521	12.8625
0.33583	4.68244	0.14339	1.9413	0.423593	5.88249	0.553712	7.66829	0.662396	9.20375	0.91462	11.9006	0.390599	5.41911	0.538371	7.51689	0.774699	10.7398	0.973597	12.72
0.338764	4.66277	0.145487	1.94516	0.42712	5.85571	0.556349	7.60667	0.664814	9.11929	0.916384	11.7807	0.394755	5.40687	0.541088	7.45781	0.776071	10.6566	0.97469	12.5811
0.341632	4.6427	0.147584	1.94892	0.430697	5.83028	0.559028	7.54715	0.667253	9.03724	0.918165	11.6639	0.398909	5.39492	0.543825	7.40049	0.777693	10.5611	0.975802	12.4458
0.344434	4.62225	0.14968	1.95258	0.434324	5.80615	0.561748	7.48966	0.669711	8.95751	0.919731	11.5645	0.403061	5.38324	0.54658	7.34487	0.779572	10.4543	0.976933	12.3139
0.347171	4.60145	0.151776	1.95615	0.437999	5.78325	0.564507	7.43411	0.672191	8.88001	0.921076	11.4815	0.40721	5.37182	0.549355	7.29088	0.781468	10.3505	0.978082	12.1853
0.349845	4.58034	0.153872	1.95962	0.44172	5.76151	0.567307	7.38042	0.67469	8.80465	0.922195	11.4141	0.411357	5.36064	0.552149	7.23845	0.783382	10.2493	0.97925	12.0598
0.352457	4.55893	0.155967	1.96301	0.445487	5.74087	0.570145	7.32852	0.677208	8.73136	0.923084	11.3614	0.4155	5.34968	0.554961	7.18753	0.785313	10.1509	0.980436	11.9375
0.35501	4.53726	0.158062	1.96632	0.449297	5.72127	0.573022	7.27833	0.679747	8.66006	0.923741	11.3231	0.41964	5.33894	0.557792	7.13806	0.787261	10.0549	0.981642	11.8181
0.357504	4.51538	0.160156	1.96954	0.453148	5.70266	0.575937	7.2298	0.682305	8.59068	0.924162	11.2988	0.423776	5.32839	0.560641	7.08998	0.789227	9.96152	0.982709	11.7164
0.359942	4.49329	0.16225	1.97269	0.457039	5.68497	0.57889	7.18285	0.684882	8.52314	0.924769	11.2641	0.427907	5.31803	0.563507	7.04325	0.79121	9.87047	0.983629	11.6314
0.362326	4.47105	0.164343	1.97576	0.460968	5.66816	0.581879	7.13743	0.687478	8.45739	0.925431	11.2266	0.432032	5.30784	0.566392	6.99781	0.79321	9.78172	0.984399	11.5623
0.364657	4.44867	0.166436	1.97876	0.464934	5.65216	0.584904	7.09347	0.690093	8.39335	0.926335	11.1762	0.436152	5.29782	0.569294	6.95361	0.795226	9.6952	0.985012	11.5083
0.366938	4.42619	0.168529	1.98169	0.468933	5.63694	0.587964	7.05091	0.692726	8.33098	0.927484	11.1134	0.440267	5.28795	0.572213	6.91063	0.797259	9.61081	0.985466	11.469
0.369172	4.40364	0.170621	1.98455	0.472965	5.62243	0.591059	7.00971	0.695379	8.27021	0.928881	11.0386	0.444374	5.27822	0.575149	6.8688	0.799309	9.5285	0.985758	11.4441
0.371358	4.38103	0.172713	1.98735	0.477027	5.6086	0.594189	6.96981	0.698049	8.21098	0.930531	10.9525	0.448475	5.26863	0.578102	6.82809	0.801375	9.44819	0.986179	11.4084
0.373501	4.35841	0.174805	1.99008	0.481118	5.5954	0.597352	6.93116	0.700738	8.15326	0.932441	10.8559	0.452568	5.25915	0.581072	6.78847	0.803457	9.36981	0.98664	11.37
0.375602	4.33578	0.176896	1.99275	0.485235	5.58279	0.600547	6.89372	0.703444	8.09697	0.934366	10.7616	0.456654	5.24979	0.584059	6.74989	0.805554	9.2933	0.98727	11.3182
0.377662	4.31318	0.178987	1.99536	0.489377	5.57074	0.603775	6.85743	0.706169	8.04209	0.936308	10.6695	0.460731	5.24053	0.587062	6.71232	0.807668	9.2186	0.988074	11.2536
0.379685	4.29062	0.181077	1.99791	0.493543	5.5592	0.607034	6.82226	0.708911	7.98855	0.938265	10.5795	0.464799	5.23136	0.590082	6.67573	0.809798	9.14565	0.989056	11.1767
0.38167	4.26812	0.183168	2.00041	0.49773	5.54814	0.610325	6.78815	0.71167	7.93633	0.940239	10.4915	0.468858	5.22228	0.593118	6.64009	0.811943	9.07439	0.990221	11.0881
0.383622	4.24571	0.185257	2.00286	0.501938	5.53753	0.613645	6.75508	0.714448	7.88537	0.942228	10.4055	0.472907	5.21328	0.59617	6.60536	0.814103	9.00477	0.991577	10.9886
0.38554	4.22339	0.187347	2.00525	0.506164	5.52734	0.616995	6.72301	0.717242	7.83563	0.944232	10.3214	0.476946	5.20436	0.599238	6.57152	0.816279	8.93674	0.992954	10.8914
0.387427	4.20118	0.189436	2.00759	0.510407	5.51753	0.620374	6.69189	0.720053	7.78709	0.946252	10.2392	0.480974	5.19549	0.602322	6.53854	0.81847	8.87025	0.99435	10.7964
0.389285	4.17911	0.191525	2.00989	0.514666	5.5081	0.623781	6.66169	0.722882	7.73969	0.948287	10.1589	0.484992	5.18668	0.605423	6.50639	0.820676	8.80525	0.995767	10.7035
0.391114	4.15717	0.193614	2.01213	0.518939	5.499	0.627215	6.63238	0.725727	7.69341	0.950338	10.0802	0.488997	5.17793	0.608539	6.47504	0.822897	8.7417	0.997204	10.6127
0.392917	4.13538	0.195702	2.01433	0.523225	5.49021	0.630677	6.60392	0.728589	7.64821	0.952404	10.0033	0.49299	5.16921	0.611671	6.44448	0.825133	8.67954	0.998662	10.5239
0.394695	4.11375	0.19779	2.01649	0.527523	5.48172	0.634165	6.57629	0.731468	7.60406	0.954484	9.92796	0.496971	5.16053	0.614818	6.41467	0.827384	8.61875	1.00014	10.437
0.396449	4.09229	0.199878	2.0186	0.531832	5.47351	0.637679	6.54944	0.734363	7.56093	0.95658	9.85426	0.500938	5.15189	0.617982	6.38561	0.829649	8.55928		
0.39818	4.07101	0.201966	2.02067	0.536151	5.46554	0.641218	6.52337	0.737275	7.51878	0.95869	9.78212	0.504892	5.14327	0.621161	6.35725	0.831929	8.50108		
0.39989	4.04992	0.204053	2.0227	0.540478	5.45782	0.644782	6.49803	0.740203	7.47759	0.960815	9.71147	0.508831	5.13466	0.624356	6.3296	0.834223	8.44413		
0.40158	4.02901	0.20614	2.02469	0.544813	5.45031	0.648369	6.47341	0.743147	7.43733	0.962955	9.6423	0.512756	5.12608	0.627566	6.30261	0.836532	8.38839		
0.403251	4.00831	0.208227	2.02664	0.549154	5.44301	0.65198	6.44947	0.746107	7.39798	0.965109	9.57454	0.516666	5.1175	0.630793	6.27629	0.838854	8.33382		
0.404904	3.98781	0.210314	2.02855	0.553501	5.4359	0.655614	6.42619	0.749084	7.3595	0.967277	9.50817	0.52056	5.10892	0.634034	6.2506	0.841191	8.28039		
0.40654	3.96751	0.2124	2.03043	0.557854	5.42897	0.65927	6.40354	0.752076	7.32188	0.96946	9.44314	0.524438	5.10034	0.637292	6.22553	0.843541	8.22807		
0.40816	3.94743	0.214486	2.03227	0.56221	5.4222	0.662948	6.38152	0.755084	7.28509	0.971656	9.37941	0.528299	5.09176	0.640565	6.20107	0.845906	8.17682		
0.409765	3.92756	0.216572	2.03408	0.566569	5.41558	0.666648	6.36009	0.758108	7.2491	0.973867	9.31696	0.532144	5.08317	0.643854	6.17719	0.848284	8.12662		
0.411356	3.90791	0.218658	2.03585	0.570931	5.4091	0.670368	6.33923	0.761148	7.2139	0.976091	9.25574	0.535971	5.07456	0.647159	6.15389	0.850676	8.07744		
0.412933	3.88848	0.220744	2.0376	0.575295	5.40275	0.674108	6.31893	0.764203	7.17946	0.978329	9.19572	0.539779	5.06593	0.650479	6.13114	0.853082	8.02925		
0.414497	3.86926	0.222829	2.03931	0.579659	5.39652	0.677868	6.29916	0.767274	7.14576	0.980581	9.13687	0.54357	5.05729	0.653815	6.10894	0.855501	7.98202		
0.41605	3.85027	0.224914	2.04099	0.584025	5.39041	0.681647	6.2799	0.770361	7.11279	0.982846	9.07915	0.547341	5.04861	0.657167	6.08726	0.857933	7.93573		
0.417592	3.8315	0.226999	2.04264	0.58839	5.38439	0.685445	6.26115	0.773463	7.08052	0.985125	9.02255	0.551093	5.03991	0.660534	6.0661	0.860379	7.89035		
0.419123	3.81296	0.229084	2.04426	0.592754	5.37847	0.689261	6.24288	0.776581	7.04894	0.987417	8.96703	0.554825	5.03117	0.663917	6.04545	0.862838	7.84587		
0.420644	3.79463	0.231168	2.04585	0.597117	5.37264	0.693094	6.22507	0.779714	7.01803	0.989722	8.91255	0.558537	5.0224	0.667316	6.02528	0.86531	7.80225		
0.422156	3.77653	0.233253	2.04741	0.601477	5.36689	0.696945	6.20771	0.782862	6.98777	0.992041	8.8591	0.562228	5.01359	0.670731	6.00559	0.867796	7.75947		
0.42366	3.75865	0.235337	2.04895	0.605836	5.36121	0.700813	6.19079	0.786026	6.95814	0.994372	8.80665	0.565899	5.00473	0.674162	5.98637	0.870294	7.71752		
0.425155	3.741	0.237421	2.05046	0.610191	5.35559	0.704698	6.17428	0.789205	6.92914	0.996716	8.75516	0.569547	4.99584	0.677608	5.9676	0.872806	7.67637		
0.426643	3.72356	0.239505	2.05195	0.614543	5.35004	0.708598	6.15819	0.7924	6.90074	0.999073	8.70463	0.573174	4.98689	0.68107	5.94927	0.87533	7.636		
0.428124	3.70635	0.241588	2.05341	0.618891	5.34454	0.712514	6.14248	0.79561	6.87293	1.00144	8.65502	0.576778	4.9779	0.684548	5.93138	0.877868	7.5964		
0.429598	3.68935	0.243672	2.05485	0.623234	5.33909	0.716444	6.12715	0.798835	6.84569			0.58036	4.96886	0.688041	5.91391	0.880418	7.55753		
0.431066	3.67258	0.245755	2.05626	0.627573	5.33368	0.72039	6.11219	0.802076	6.81902			0.583919	4.95977	0.69155	5.89685	0.882981	7.51939		
0.432529	3.65601	0.247839	2.05765	0.631905	5.32832	0.72435	6.09759	0.805332	6.79289			0.587454	4.95062	0.695075	5.88019	0.885557	7.48197		
0.433986	3.63967	0.249922	2.05902	0.636233	5.32299	0.728323	6.08333	0.808603	6.76731			0.590967	4.94142	0.698615	5.86392	0.888145	7.44523		
0.435438	3.62353	0.252005	2.06036	0.640554	5.31769	0.73231	6.0694	0.81189	6.74224			0.594455	4.93216	0.702171	5.84803	0.890746	7.40916		
0.436885	3.60761	0.254087	2.06169	0.644868	5.31241	0.73631	6.05579	0.815192	6.71769			0.597919	4.92285	0.705743	5.83252	0.893359	7.37376		
0.438329	3.5919	0.25617	2.06299	0.649175	5.30716	0.740323	6.04248	0.81851	6.69364			0.601358	4.91348	0.709329	5.81737	0.895985	7.33899		
0.439769	3.57639	0.258252	2.06427	0.653475	5.30193	0.744347	6.02948	0.821843	6.67007			0.604774	4.90405	0.712931	5.80257	0.898624	7.30486		
0.441205	3.56109	0.260335	2.06553	0.657767	5.29672	0.748384	6.01677	0.825192	6.64699			0.608164	4.89456	0.716548	5.78811	0.901275	7.27134		
0.442638	3.54599	0.262417	2.06678	0.662051	5.29152	0.752432	6.00434	0.828557	6.62438			0.611529	4.88501	0.72018	5.77399	0.903938	7.23841		
0.444068	3.53109	0.264499	2.068	0.666327	5.28632	0.756491	5.99218	0.831937	6.60222			0.614869	4.87541	0.723826	5.7602	0.906614	7.20608		
0.445496	3.51639	0.266581	2.0692	0.670594	5.28114	0.760561	5.98028	0.835332	6.58051			0.618184	4.86575	0.727487	5.74673	0.909302	7.17432		
0.446921	3.50188	0.268663	2.07039	0.674851	5.27596	0.764641	5.96864	0.838744	6.55925			0.621474	4.85603	0.731163	5.73357	0.912002	7.14311		
0.448344	3.48758	0.270745	2.07156	0.679099	5.27077	0.768731	5.95724	0.842171	6.53841			0.624738	4.84625	0.734853	5.72071	0.914715	7.11246		
0.449765	3.47346	0.272826	2.07271	0.683338	5.26559	0.77283	5.94608	0.845614	6.51799			0.627976	4.83642	0.738557	5.70814	0.91744	7.08233		
0.451185	3.45953	0.274908	2.07385	0.687566	5.26041	0.776939	5.93515	0.849074	6.49799			0.631189	4.82653	0.742275	5.69586	0.920177	7.05274		
0.452603	3.44579	0.276989	2.07496	0.691784	5.25522	0.781057	5.92443	0.852549	6.47839			0.634376	4.81659	0.746007	5.68386	0.922926	7.02365		
0.45402	3.43223	0.279071	2.07607	0.695991	5.25002	0.785183	5.91394	0.85604	6.45919			0.637537	4.80659	0.749752	5.67213	0.925687	6.99507		
0.455436	3.41885	0.281152	2.07715	0.700187	5.24481	0.789317	5.90365	0.859548	6.44038			0.640673	4.79654	0.75351	5.66066	0.928461	6.96698		
0.456852	3.40566	0.283233	2.07822	0.704372	5.23959	0.793459	5.89355	0.863072	6.42196			0.643783	4.78643	0.757281	5.64945	0.931246	6.93936		
0.458266	3.39264	0.285314	2.07927	0.708545	5.23436	0.797608	5.88366	0.866612	6.40391			0.646868	4.77628	0.761065	5.63849	0.934044	6.91222		
0.459681	3.3798	0.287395	2.08031	0.712707	5.22911	0.801764	5.87394	0.870169	6.38622			0.649927	4.76608	0.76486	5.62776	0.936854	6.88554		
0.461094	3.36713	0.289475	2.08134	0.716856	5.22385	0.805927	5.86441	0.873742	6.3689			0.65296	4.75583	0.768668	5.61727	0.939675	6.85931		
0.462508	3.35463	0.291556	2.08235	0.720994	5.21856	0.810095	5.85505	0.877333	6.35193			0.655968	4.74553	0.772488	5.60701	0.942509	6.83352		
0.463922	3.3423	0.293637	2.08335	0.725118	5.21326	0.81427	5.84586	0.880939	6.33531			0.658951	4.7352	0.776319	5.59696	0.945355	6.80816		
0.465336	3.33013	0.295717	2.08433	0.72923	5.20794	0.818451	5.83683	0.884563	6.31903			0.661908	4.72482	0.780161	5.58713	0.948212	6.78322		
0.466751	3.31813	0.297797	2.0853	0.733329	5.20259	0.822637	5.82796	0.888204	6.30309			0.664841	4.7144	0.784013	5.57751	0.951082	6.7587		
0.468165	3.30629	0.299878	2.08625	0.737415	5.19723	0.826827	5.81924	0.891862	6.28747			0.667748	4.70394	0.787876	5.56808	0.953963	6.73459		
0.469581	3.29461	0.301958	2.0872	0.741487	5.19184	0.831022	5.81066	0.895537	6.27219			0.670631	4.69344	0.791749	5.55885	0.956856	6.71088		
0.470997	3.28308	0.304038	2.08813	0.745545	5.18642	0.835222	5.80222	0.89923	6.25722			0.67349	4.68291	0.795632	5.54981	0.959761	6.68755		
0.472413	3.27171	0.306118	2.08905	0.74959	5.18098	0.839425	5.79392	0.90294	6.24256			0.676324	4.67235	0.799524	5.54095	0.962678	6.66461		
0.473831	3.26049	0.308198	2.08995	0.753621	5.17551	0.843631	5.78575	0.906667	6.22821			0.679134	4.66175	0.803425	5.53226	0.965607	6.64204		
0.47525	3.24942	0.310278	2.09084	0.757637	5.17001	0.847841	5.7777	0.910412	6.21417			0.68192	4.65113	0.807334	5.52374	0.968547	6.61984		
0.47667	3.2385	0.312358	2.09173	0.761639	5.16448	0.852053	5.76978	0.914175	6.20042			0.684682	4.64048	0.811251	5.51538	0.971499	6.598		
0.478091	3.22772	0.314437	2.0926	0.765626	5.15893	0.856269	5.76197	0.917956	6.18697			0.687421	4.62981	0.815177	5.50719	0.974463	6.57652		
0.479513	3.21709	0.316517	2.09346	0.769599	5.15334	0.860486	5.75427	0.921754	6.1738			0.690136	4.61911	0.81911	5.49914	0.977439	6.55538		
0.480937	3.20659	0.318596	2.09431	0.773556	5.14773	0.864705	5.74668	0.92557	6.16091			0.692829	4.6084	0.823049	5.49125	0.980426	6.53458		
0.482362	3.19624	0.320676	2.09514	0.777499	5.14208	0.868926	5.73919	0.929405	6.14831			0.695498	4.59766	0.826996	5.48349	0.983425	6.51412		
0.483788	3.18602	0.322755	2.09597	0.781426	5.1364	0.873148	5.73181	0.933257	6.13597			0.698145	4.58691	0.830949	5.47587	0.986435	6.49398		
0.485216	3.17594	0.324835	2.09679	0.785337	5.13069	0.877371	5.72452	0.937128	6.12391			0.70077	4.57614	0.834908	5.46839	0.989457	6.47417		
0.486646	3.16599	0.326914	2.09759	0.789234	5.12495	0.881595	5.71732	0.941017	6.11211			0.703373	4.56536	0.838872	5.46103	0.99249	6.45467		
0.488078	3.15618	0.328993	2.09839	0.793114	5.11918	0.885819	5.71021	0.944924	6.10057			0.705954	4.55458	0.842842	5.45379	0.995535	6.43548		
0.489511	3.14649	0.331072	2.09918	0.796979	5.11337	0.890043	5.70319	0.948849	6.08928			0.708514	4.54378	0.846816	5.44667	0.998592	6.41659		
0.490946	3.13692	0.333151	2.09995	0.800827	5.10754	0.894268	5.69625	0.952793	6.07825			0.711052	4.53297	0.850795	5.43966	1.00166	6.398		
0.492383	3.12749	0.33523	2.10072	0.80466	5.10166	0.898492	5.68939	0.956754	6.06746			0.71357	4.52216	0.854778	5.43277				
0.493822	3.11817	0.337309	2.10148	0.808476	5.09576	0.902715	5.68261	0.960735	6.05691			0.716067	4.51135	0.858764	5.42597				
0.495263	3.10898	0.339388	2.10223	0.812277	5.08982	0.906937	5.6759	0.964733	6.0466			0.718543	4.50053	0.862754	5.41928				
0.496706	3.09991	0.341467	2.10297	0.81606	5.08385	0.911159	5.66926	0.96875	6.03653			0.721	4.48972	0.866747	5.41269				
0.498151	3.09096	0.343545	2.1037	0.819828	5.07785	0.915379	5.66269	0.972785	6.02668			0.723436	4.47891	0.870743	5.40618				
0.499598	3.08212	0.345624	2.10442	0.823579	5.07181	0.919597	5.65619	0.976838	6.01706			0.725853	4.4681	0.874741	5.39977				
0.501047	3.07339	0.347702	2.10513	0.827313	5.06574	0.923814	5.64975	0.980909	6.00766			0.728251	4.45729	0.87874	5.39344				
0.502499	3.06478	0.349781	2.10584	0.83103	5.05964	0.92803	5.64338	0.984998	5.99847			0.73063	4.4465	0.882742	5.38719				
0.503953	3.05628	0.351859	2.10654	0.834731	5.05351	0.932243	5.63706	0.989105	5.9895			0.73299	4.43571	0.886744	5.38102				
0.505409	3.04789	0.353938	2.10723	0.838415	5.04734	0.936454	5.6308	0.99323	5.98074			0.735332	4.42493	0.890748	5.37493				
0.506867	3.03961	0.356016	2.10791	0.842082	5.04114	0.940662	5.6246	0.997373	5.97218			0.737656	4.41417	0.894752	5.3689				
0.508328	3.03143	0.358094	2.10858	0.845732	5.03491	0.944869	5.61845	1.00153	5.96382			0.739962	4.40341	0.898756	5.36295				
0.509791	3.02335	0.360173	2.10925	0.849365	5.02865	0.949072	5.61235					0.74225	4.39268	0.90276	5.35706				
0.511256	3.01538	0.362251	2.1099	0.852982	5.02235	0.953273	5.6063					0.744521	4.38196	0.906764	5.35123				
0.512724	3.00751	0.364329	2.11056	0.856581	5.01603	0.957472	5.60031					0.746775	4.37125	0.910767	5.34546				
0.514194	2.99974	0.366407	2.1112	0.860163	5.00967	0.961667	5.59436					0.749012	4.36057	0.914769	5.33975				
0.515667	2.99207	0.368485	2.11184	0.863728	5.00329	0.965859	5.58846					0.751233	4.3499	0.918769	5.3341				
0.517142	2.9845	0.370563	2.11246	0.867276	4.99687	0.970049	5.5826					0.753438	4.33926	0.922768	5.32849				
0.518619	2.97702	0.372641	2.11309	0.870807	4.99043	0.974235	5.57679					0.755626	4.32864	0.926765	5.32293				
0.520099	2.96963	0.374719	2.1137	0.874321	4.98395	0.978418	5.57103					0.7578	4.31804	0.930759	5.31742				
0.521582	2.96234	0.376797	2.11431	0.877818	4.97745	0.982598	5.5653					0.759957	4.30747	0.934751	5.31195				
0.523067	2.95513	0.378874	2.11491	0.881297	4.97092	0.986774	5.55962					0.7621	4.29692	0.93874	5.30652				
0.524555	2.94802	0.380952	2.11551	0.88476	4.96436	0.990947	5.55398					0.764228	4.2864	0.942726	5.30114				
0.526045	2.941	0.38303	2.1161	0.888205	4.95778	0.995117	5.54837					0.766341	4.27591	0.946709	5.29579				
0.527538	2.93406	0.385108	2.11668	0.891634	4.95117	0.999284	5.54281					0.76844	4.26545	0.950688	5.29047				
0.529033	2.92721	0.387185	2.11726	0.895045	4.94453	1.00345	5.53729					0.770525	4.25502	0.954662	5.28519				
0.530531	2.92044	0.389263	2.11783	0.89844	4.93787							0.772597	4.24461	0.958633	5.27993				
0.532031	2.91376	0.39134	2.11839	0.901818	4.93118							0.774654	4.23425	0.962599	5.27471				
0.533534	2.90715	0.393418	2.11895	0.905178	4.92447							0.776699	4.22391	0.96656	5.26951				
0.53504	2.90063	0.395495	2.11951	0.908522	4.91773							0.77873	4.21361	0.970516	5.26434				
0.536548	2.89419	0.397572	2.12005	0.911849	4.91097							0.780749	4.20334	0.974467	5.25919				
0.538059	2.88783	0.39965	2.12059	0.915159	4.90419							0.782755	4.19311	0.978412	5.25407				
0.539573	2.88154	0.401727	2.12113	0.918453	4.89739							0.784748	4.18291	0.982352	5.24896				
0.541089	2.87533	0.403804	2.12166	0.921729	4.89056							0.78673	4.17275	0.986285	5.24387				
0.542608	2.8692	0.405881	2.12219	0.924989	4.88372							0.7887	4.16263	0.990213	5.2388				
0.544129	2.86313	0.407959	2.12271	0.928233	4.87686							0.790658	4.15254	0.994133	5.23375				
0.545653	2.85715	0.410036	2.12322	0.93146	4.86997							0.792605	4.1425	0.998047	5.2287				
0.547179	2.85123	0.412113	2.12373	0.93467	4.86307							0.79454	4.13249	1.00195	5.22368				
0.548708	2.84538	0.41419	2.12423	0.937865	4.85615							0.796465	4.12252						
0.55024	2.83961	0.416267	2.12473	0.941043	4.84921							0.798379	4.1126						
0.551775	2.8339	0.418344	2.12523	0.944204	4.84225							0.800282	4.10271						
0.553312	2.82826	0.420421	2.12572	0.94735	4.83528							0.802175	4.09287						
0.554851	2.82269	0.422497	2.1262	0.950479	4.82829							0.804059	4.08307						
0.556393	2.81718	0.424574	2.12668	0.953592	4.82129							0.805932	4.07331						
0.557938	2.81174	0.426651	2.12716	0.956689	4.81427							0.807795	4.06359						
0.559485	2.80636	0.428728	2.12763	0.959771	4.80724							0.80965	4.05392						
0.561035	2.80104	0.430805	2.1281	0.962837	4.80019							0.811494	4.04429						
0.562588	2.79579	0.432881	2.12856	0.965886	4.79313							0.81333	4.0347						
0.564143	2.7906	0.434958	2.12902	0.968921	4.78606							0.815157	4.02516						
0.565701	2.78546	0.437035	2.12947	0.971939	4.77898							0.816975	4.01567						
0.567261	2.78039	0.439111	2.12992	0.974943	4.77188							0.818785	4.00621						
0.568824	2.77538	0.441188	2.13036	0.97793	4.76478							0.820586	3.99681						
0.570389	2.77042	0.443264	2.13081	0.980903	4.75767							0.82238	3.98745						
0.571957	2.76552	0.445341	2.13124	0.98386	4.75054							0.824165	3.97813						
0.573527	2.76068	0.447417	2.13167	0.986802	4.74341							0.825943	3.96886						
0.5751	2.75589	0.449494	2.1321	0.989729	4.73627							0.827713	3.95964						
0.576676	2.75116	0.45157	2.13253	0.992641	4.72912							0.829475	3.95047						
0.578254	2.74648	0.453647	2.13295	0.995539	4.72196							0.831231	3.94134						
0.579834	2.74185	0.455723	2.13337	0.998421	4.7148							0.832979	3.93226						
0.581417	2.73728	0.457799	2.13378	1.00129	4.70763							0.83472	3.92322						
0.583003	2.73275	0.459876	2.13419									0.836455	3.91423						
0.584591	2.72828	0.461952	2.13459									0.838183	3.90529						
0.586181	2.72386	0.464028	2.135									0.839904	3.8964						
0.587774	2.71949	0.466104	2.1354									0.841619	3.88755						
0.589369	2.71517	0.46818	2.13579									0.843328	3.87875						
0.590967	2.71089	0.470257	2.13618									0.845031	3.87						
0.592567	2.70666	0.472333	2.13657									0.846728	3.8613						
0.59417	2.70248	0.474409	2.13696									0.84842	3.85264						
0.595775	2.69835	0.476485	2.13734									0.850105	3.84403						
0.597382	2.69426	0.478561	2.13772									0.851786	3.83547						
0.598992	2.69022	0.480637	2.13809									0.853461	3.82696						
0.600604	2.68622	0.482713	2.13846									0.855131	3.8185						
0.602219	2.68226	0.484789	2.13883									0.856795	3.81008						
0.603836	2.67835	0.486865	2.1392									0.858455	3.80171						
0.605455	2.67448	0.488941	2.13956									0.86011	3.79339						
0.607077	2.67065	0.491016	2.13992									0.861761	3.78511						
0.6087	2.66686	0.493092	2.14027									0.863406	3.77688						
0.610327	2.66311	0.495168	2.14063									0.865048	3.7687						
0.611955	2.65941	0.497244	2.14098									0.866685	3.76057						
0.613586	2.65574	0.49932	2.14133									0.868318	3.75249						
0.615219	2.65212	0.501395	2.14167									0.869946	3.74445						
0.616854	2.64853	0.503471	2.14201									0.871571	3.73646						
0.618492	2.64498	0.505547	2.14235									0.873192	3.72851						
0.620132	2.64147	0.507623	2.14269									0.874809	3.72062						
0.621774	2.63799	0.509698	2.14302									0.876422	3.71277						
0.623418	2.63455	0.511774	2.14335									0.878032	3.70496						
0.625064	2.63115	0.513849	2.14368									0.879639	3.69721						
0.626713	2.62779	0.515925	2.14401									0.881242	3.6895						
0.628364	2.62446	0.518	2.14433									0.882841	3.68183						
0.630017	2.62116	0.520076	2.14465									0.884438	3.67421						
0.631672	2.6179	0.522151	2.14497									0.886031	3.66664						
0.633329	2.61467	0.524227	2.14528									0.887622	3.65911						
0.634989	2.61148	0.526302	2.14559									0.889209	3.65163						
0.63665	2.60832	0.528378	2.1459									0.890794	3.6442						
0.638314	2.60519	0.530453	2.14621									0.892376	3.63681						
0.63998	2.60209	0.532529	2.14652									0.893955	3.62946						
0.641648	2.59903	0.534604	2.14682									0.895531	3.62216						
0.643318	2.59599	0.536679	2.14712									0.897106	3.61491						
0.64499	2.59299	0.538755	2.14742									0.898677	3.6077						
0.646664	2.59002	0.54083	2.14772									0.900247	3.60053						
0.64834	2.58708	0.542905	2.14801									0.901814	3.59341						
0.650018	2.58417	0.544981	2.1483									0.903379	3.58633						
0.651698	2.58129	0.547056	2.14859									0.904942	3.57929						
0.65338	2.57844	0.549131	2.14888									0.906502	3.5723						
0.655064	2.57561	0.551206	2.14916									0.908061	3.56535						
0.656751	2.57282	0.553281	2.14945									0.909618	3.55845						
0.658439	2.57005	0.555357	2.14973									0.911173	3.55159						
0.660129	2.56731	0.557432	2.15									0.912726	3.54477						
0.661821	2.5646	0.559507	2.15028									0.914278	3.53799						
0.663515	2.56191	0.561582	2.15056									0.915828	3.53126						
0.665211	2.55925	0.563657	2.15083									0.917376	3.52457						
0.666908	2.55662	0.565732	2.1511									0.918923	3.51792						
0.668608	2.55402	0.567807	2.15137									0.920468	3.51131						
0.67031	2.55143	0.569882	2.15163									0.922012	3.50474						
0.672013	2.54888	0.571957	2.1519									0.923555	3.49822						
0.673719	2.54635	0.574032	2.15216									0.925096	3.49173						
0.675426	2.54384	0.576107	2.15242									0.926636	3.48529						
0.677135	2.54136	0.578182	2.15268									0.928175	3.47888						
0.678846	2.53891	0.580257	2.15294									0.929712	3.47252						
0.680558	2.53647	0.582332	2.15319									0.931249	3.4662						
0.682273	2.53406	0.584407	2.15345									0.932784	3.45992						
0.683989	2.53168	0.586482	2.1537									0.934319	3.45367						
0.685708	2.52932	0.588556	2.15395									0.935852	3.44747						
0.687427	2.52698	0.590631	2.1542									0.937385	3.4413						
0.689149	2.52466	0.592706	2.15444									0.938917	3.43518						
0.690873	2.52236	0.594781	2.15469									0.940448	3.42909						
0.692598	2.52009	0.596856	2.15493									0.941978	3.42304						
0.694325	2.51784	0.59893	2.15517									0.943508	3.41703						
0.696053	2.51561	0.601005	2.15541									0.945037	3.41106						
0.697784	2.5134	0.60308	2.15565									0.946565	3.40512						
0.699516	2.51121	0.605155	2.15588									0.948093	3.39922						
0.70125	2.50904	0.607229	2.15612									0.94962	3.39336						
0.702985	2.50689	0.609304	2.15635									0.951146	3.38754						
0.704722	2.50476	0.611379	2.15658									0.952673	3.38176						
0.706461	2.50266	0.613453	2.15681									0.954198	3.37601						
0.708202	2.50057	0.615528	2.15704									0.955724	3.37029						
0.709944	2.4985	0.617603	2.15727									0.957248	3.36462						
0.711687	2.49645	0.619677	2.15749									0.958773	3.35897						
0.713433	2.49442	0.621752	2.15772									0.960297	3.35337						
0.71518	2.49241	0.623826	2.15794									0.961821	3.3478						
0.716928	2.49042	0.625901	2.15816									0.963345	3.34226						
0.718679	2.48845	0.627975	2.15838									0.964869	3.33676						
0.72043	2.48649	0.63005	2.1586									0.966392	3.3313						
0.722184	2.48455	0.632124	2.15881									0.967916	3.32587						
0.723939	2.48263	0.634199	2.15903									0.969439	3.32047						
0.725695	2.48073	0.636273	2.15924									0.970962	3.31511						
0.727453	2.47884	0.638348	2.15945									0.972485	3.30978						
0.729212	2.47698	0.640422	2.15966									0.974008	3.30449						
0.730974	2.47512	0.642497	2.15987									0.975531	3.29923						
0.732736	2.47329	0.644571	2.16008									0.977055	3.294						
0.7345	2.47147	0.646645	2.16029									0.978578	3.2888						
0.736266	2.46967	0.64872	2.16049									0.980101	3.28364						
0.738033	2.46788	0.650794	2.1607									0.981625	3.27851						
0.739801	2.46612	0.652868	2.1609									0.983148	3.27341						
0.741571	2.46436	0.654943	2.1611									0.984672	3.26835						
0.743343	2.46262	0.657017	2.1613									0.986196	3.26331						
0.745116	2.4609	0.659091	2.1615									0.98772	3.25831						
0.74689	2.45919	0.661166	2.1617									0.989244	3.25334						
0.748666	2.4575	0.66324	2.16189									0.990769	3.2484						
0.750443	2.45583	0.665314	2.16209									0.992294	3.24349						
0.752222	2.45416	0.667388	2.16228									0.993819	3.23862						
0.754002	2.45252	0.669463	2.16248									0.995344	3.23377						
0.755783	2.45088	0.671537	2.16267									0.99687	3.22895						
0.757566	2.44927	0.673611	2.16286									0.998396	3.22417						
0.759351	2.44766	0.675685	2.16305									0.999923	3.21941						
0.761136	2.44607	0.677759	2.16323									1.00145	3.21468						
0.762923	2.44449	0.679833	2.16342																
0.764711	2.44293	0.681908	2.16361																
0.766501	2.44138	0.683982	2.16379																
0.768292	2.43985	0.686056	2.16397																
0.770084	2.43832	0.68813	2.16416																
0.771878	2.43681	0.690204	2.16434																
0.773673	2.43532	0.692278	2.16452																
0.775469	2.43383	0.694352	2.1647																
0.777267	2.43236	0.696426	2.16487																
0.779066	2.4309	0.6985	2.16505																
0.780866	2.42946	0.700574	2.16523																
0.782667	2.42803	0.702648	2.1654																
0.78447	2.4266	0.704722	2.16558																
0.786274	2.42519	0.706796	2.16575																
0.788079	2.4238	0.70887	2.16592																
0.789885	2.42241	0.710944	2.16609																
0.791693	2.42104	0.713018	2.16626																
0.793502	2.41967	0.715092	2.16643																
0.795312	2.41832	0.717166	2.1666																
0.797123	2.41698	0.71924	2.16676																
0.798936	2.41566	0.721313	2.16693																
0.800749	2.41434	0.723387	2.16709																
0.802564	2.41303	0.725461	2.16726																
0.80438	2.41174	0.727535	2.16742																
0.806198	2.41045	0.729609	2.16758																
0.808016	2.40918	0.731683	2.16774																
0.809836	2.40791	0.733756	2.1679																
0.811656	2.40666	0.73583	2.16806																
0.813478	2.40542	0.737904	2.16822																
0.815301	2.40418	0.739978	2.16837																
0.817125	2.40296	0.742051	2.16853																
0.818951	2.40175	0.744125	2.16869																
0.820777	2.40054	0.746199	2.16884																
0.822605	2.39935	0.748273	2.16899																
0.824433	2.39817	0.750346	2.16915																
0.826263	2.39699	0.75242	2.1693																
0.828094	2.39583	0.754494	2.16945																
0.829926	2.39467	0.756567	2.1696																
0.831758	2.39353	0.758641	2.16975																
0.833592	2.39239	0.760715	2.1699																
0.835428	2.39126	0.762788	2.17005																
0.837264	2.39015	0.764862	2.17019																
0.839101	2.38904	0.766935	2.17034																
0.840939	2.38794	0.769009	2.17048																
0.842778	2.38684	0.771083	2.17063																
0.844619	2.38576	0.773156	2.17077																
0.84646	2.38469	0.77523	2.17092																
0.848302	2.38362	0.777303	2.17106																
0.850146	2.38256	0.779377	2.1712																
0.85199	2.38151	0.78145	2.17134																
0.853835	2.38047	0.783524	2.17148																
0.855682	2.37944	0.785597	2.17162																
0.857529	2.37841	0.787671	2.17176																
0.859378	2.3774	0.789744	2.1719																
0.861227	2.37639	0.791818	2.17203																
0.863077	2.37539	0.793891	2.17217																
0.864928	2.37439	0.795964	2.1723																
0.866781	2.37341	0.798038	2.17244																
0.868634	2.37243	0.800111	2.17257																
0.870488	2.37146	0.802185	2.17271																
0.872343	2.3705	0.804258	2.17284																
0.874199	2.36954	0.806331	2.17297																
0.876056	2.36859	0.808405	2.1731																
0.877914	2.36765	0.810478	2.17323																
0.879772	2.36672	0.812551	2.17336																
0.881632	2.36579	0.814625	2.17349																
0.883493	2.36487	0.816698	2.17362																
0.885354	2.36396	0.818771	2.17375																
0.887216	2.36305	0.820845	2.17387																
0.88908	2.36215	0.822918	2.174																
0.890944	2.36126	0.824991	2.17413																
0.892809	2.36037	0.827064	2.17425																
0.894675	2.3595	0.829138	2.17438																
0.896542	2.35862	0.831211	2.1745																
0.898409	2.35776	0.833284	2.17462																
0.900278	2.3569	0.835357	2.17475																
0.902147	2.35605	0.83743	2.17487																
0.904017	2.3552	0.839504	2.17499																
0.905889	2.35436	0.841577	2.17511																
0.90776	2.35353	0.84365	2.17523																
0.909633	2.3527	0.845723	2.17535																
0.911507	2.35188	0.847796	2.17547																
0.913381	2.35106	0.849869	2.17559																
0.915256	2.35025	0.851942	2.17571																
0.917133	2.34945	0.854015	2.17582																
0.919009	2.34865	0.856089	2.17594																
0.920887	2.34786	0.858162	2.17606																
0.922766	2.34707	0.860235	2.17617																
0.924645	2.34629	0.862308	2.17629																
0.926525	2.34552	0.864381	2.1764																
0.928406	2.34475	0.866454	2.17651																
0.930287	2.34399	0.868527	2.17663																
0.93217	2.34323	0.8706	2.17674																
0.934053	2.34248	0.872673	2.17685																
0.935937	2.34173	0.874746	2.17696																
0.937822	2.34099	0.876819	2.17707																
0.939707	2.34025	0.878892	2.17718																
0.941594	2.33952	0.880965	2.17729																
0.943481	2.33879	0.883038	2.1774																
0.945368	2.33807	0.885111	2.17751																
0.947257	2.33736	0.887184	2.17762																
0.949146	2.33665	0.889256	2.17773																
0.951036	2.33594	0.891329	2.17784																
0.952927	2.33524	0.893402	2.17794																
0.954818	2.33455	0.895475	2.17805																
0.95671	2.33386	0.897548	2.17816																
0.958603	2.33317	0.899621	2.17826																
0.960497	2.33249	0.901694	2.17837																
0.962391	2.33182	0.903767	2.17847																
0.964286	2.33115	0.905839	2.17857																
0.966182	2.33048	0.907912	2.17868																
0.968078	2.32982	0.909985	2.17878																
0.969975	2.32916	0.912058	2.17888																
0.971873	2.32851	0.914131	2.17898																
0.973772	2.32786	0.916203	2.17909																
0.975671	2.32722	0.918276	2.17919																
0.977571	2.32658	0.920349	2.17929																
0.979471	2.32594	0.922422	2.17939																
0.981373	2.32531	0.924494	2.17949																
0.983274	2.32469	0.926567	2.17959																
0.985177	2.32407	0.92864	2.17968																
0.98708	2.32345	0.930712	2.17978																
0.988984	2.32284	0.932785	2.17988																
0.990889	2.32223	0.934858	2.17998																
0.992794	2.32163	0.936931	2.18007																
0.9947	2.32103	0.939003	2.18017																
0.996606	2.32043	0.941076	2.18027																
0.998513	2.31984	0.943149	2.18036																
1.00042	2.31925	0.945221	2.18046																
		0.947294	2.18055																
		0.949366	2.18065																
		0.951439	2.18074																
		0.953512	2.18083																
		0.955584	2.18093																
		0.957657	2.18102																
		0.959729	2.18111																
		0.961802	2.1812																
		0.963874	2.18129																
		0.965947	2.18138																
		0.968019	2.18147																
		0.970092	2.18156																
		0.972164	2.18165																
		0.974237	2.18174																
		0.976309	2.18183																
		0.978382	2.18192																
		0.980454	2.18201																
		0.982527	2.1821																
		0.984599	2.18218																
		0.986672	2.18227																
		0.988744	2.18236																
		0.990816	2.18244																
		0.992889	2.18253																
		0.994961	2.18261																
		0.997034	2.1827																
		0.999106	2.18278																
		1.00118	2.18287																
