Sym0		Asym0		Sym1		Sym2		Sym3		Sym4		Asym1		Asym2		Asym3		Asym4	
469  Points		496  Points		233  Points		198  Points		185  Points		129  Points		339  Points		211  Points		173  Points		108  Points	
Freq (MHz)	Vph (m/ms)	Freq (MHz)	Vph (m/ms)	Freq (MHz)	Vph (m/ms)	Freq (MHz)	Vph (m/ms)	Freq (MHz)	Vph (m/ms)	Freq (MHz)	Vph (m/ms)	Freq (MHz)	Vph (m/ms)	Freq (MHz)	Vph (m/ms)	Freq (MHz)	Vph (m/ms)	Freq (MHz)	Vph (m/ms)
0.000749544	5.18464	0.000353476	0.162776	0.27952	495.13	0.467805	584.547	0.559024	1041.44	0.838529	1781.52	0.139798	219.695	0.419264	2294.08	0.698773	2112.16	0.935594	4487.94
0.00558016	5.18474	0.000719205	0.231759	0.27959	186.862	0.467833	270.115	0.559067	380.713	0.838553	597.951	0.14002	89.2974	0.419297	376.235	0.698796	553.49	0.935601	820.585
0.0104105	5.1846	0.00120974	0.299817	0.279722	115.21	0.467882	175.653	0.55915	232.963	0.8386	359.287	0.140429	56.1779	0.419378	204.96	0.698847	318.494	0.935617	451.583
0.0152403	5.1844	0.00182161	0.36677	0.279917	83.3181	0.467952	130.154	0.559273	167.856	0.838672	256.807	0.141022	41.0972	0.419506	140.876	0.698926	223.591	0.935642	311.512
0.0200695	5.18412	0.00255016	0.432353	0.280175	65.2888	0.468044	103.388	0.559437	131.214	0.838768	199.827	0.141795	32.4986	0.419683	107.348	0.699032	172.277	0.935676	237.768
0.0248979	5.18377	0.00339048	0.496409	0.280495	53.7037	0.468156	85.7623	0.55964	107.721	0.838887	163.553	0.142745	26.9594	0.419906	86.7354	0.699165	140.133	0.93572	192.26
0.0297251	5.18334	0.00433711	0.558782	0.280877	45.6361	0.46829	73.2795	0.559883	91.3804	0.83903	138.434	0.143866	23.1054	0.420178	72.7841	0.699325	118.109	0.935772	161.378
0.0345509	5.18282	0.00538402	0.619322	0.281321	39.6987	0.468445	63.9764	0.560166	79.3589	0.839197	120.013	0.145152	20.2778	0.420496	62.7174	0.699513	102.079	0.935835	139.047
0.0393753	5.18223	0.00652533	0.677949	0.281826	35.1487	0.468621	56.7761	0.560488	70.1458	0.839388	105.927	0.146599	18.1212	0.420862	55.1132	0.699729	89.8887	0.935906	122.149
0.0441978	5.18156	0.00775483	0.734582	0.282391	31.5528	0.468819	51.0388	0.56085	62.8613	0.839603	94.8068	0.148197	16.427	0.421275	49.1684	0.699972	80.308	0.935987	108.915
0.0490184	5.18082	0.0090663	0.789163	0.283017	28.6412	0.46904	46.3604	0.561252	56.9583	0.839841	85.8064	0.149943	15.0646	0.421735	44.3945	0.700241	72.5806	0.936078	98.2715
0.0538367	5.17999	0.0104538	0.841676	0.283703	26.2368	0.469282	42.4731	0.561693	52.0789	0.840103	78.3728	0.151827	13.9483	0.422242	40.4779	0.700539	66.2167	0.936177	89.5254
0.0586525	5.17907	0.0119114	0.892116	0.284448	24.2189	0.469547	39.1922	0.562173	47.9787	0.840389	72.1301	0.153843	13.0192	0.422795	37.2077	0.700863	60.8855	0.936287	82.2112
0.0634656	5.17807	0.0134335	0.940485	0.285251	22.5022	0.469834	36.3865	0.562691	44.4857	0.840699	66.8138	0.155985	12.2357	0.423394	34.4369	0.701215	56.3547	0.936407	76.0039
0.0682757	5.17699	0.0150147	0.986818	0.286111	21.0248	0.470145	33.9602	0.563249	41.4748	0.841032	62.2322	0.158246	11.5677	0.42404	32.0599	0.701593	52.4573	0.936536	70.6702
0.0730826	5.17582	0.0166499	1.03115	0.287029	19.7407	0.470479	31.8414	0.563845	38.8532	0.841389	58.2433	0.160619	10.9925	0.424731	29.999	0.701999	49.0694	0.936675	66.0379
0.0778859	5.17456	0.0183343	1.07352	0.288003	18.6149	0.470837	29.9755	0.564479	36.5503	0.841769	54.7393	0.162774	10.5535	0.425468	28.1956	0.702432	46.0975	0.936824	61.9773
0.0826854	5.17321	0.0200634	1.11399	0.289032	17.6203	0.471218	28.3199	0.565152	34.5118	0.842173	51.637	0.164671	10.218	0.426251	26.6048	0.702891	43.4698	0.936983	58.3889
0.0874809	5.17177	0.0218332	1.15263	0.290115	16.7358	0.471624	26.8414	0.565862	32.695	0.842601	48.8714	0.166281	9.96403	0.427078	25.1915	0.703378	41.13	0.937153	55.1949
0.092272	5.17024	0.0236398	1.1895	0.291252	15.9444	0.472055	25.5131	0.56661	31.0659	0.843052	46.3906	0.167578	9.77666	0.42795	23.9279	0.703891	39.0334	0.937332	52.3337
0.0970585	5.1686	0.0254796	1.22466	0.292442	15.2326	0.472511	24.3134	0.567396	29.5971	0.843526	44.1531	0.168546	9.64586	0.428867	22.7919	0.704431	37.1443	0.937523	49.7561
0.10184	5.16687	0.0273494	1.25819	0.293683	14.5892	0.472993	23.2248	0.568218	28.2662	0.844024	42.1248	0.169171	9.56507	0.429827	21.7652	0.704997	35.4334	0.937723	47.4219
0.106616	5.16503	0.0292462	1.29015	0.294975	14.0052	0.4735	22.2326	0.569078	27.055	0.844545	40.2778	0.170078	9.45272	0.430832	20.8332	0.705591	33.8768	0.937935	45.2983
0.111386	5.16309	0.0311673	1.32062	0.296317	13.4729	0.474034	21.3248	0.569974	25.9483	0.845089	38.5891	0.171074	9.33543	0.431879	19.9835	0.70621	32.4548	0.938157	43.358
0.116151	5.16104	0.0331103	1.34967	0.297708	12.9861	0.474595	20.4912	0.570906	24.9332	0.845656	37.0392	0.172446	9.18351	0.43297	19.206	0.706856	31.1507	0.93839	41.5784
0.120908	5.15888	0.0350729	1.37736	0.299147	12.5392	0.475184	19.7232	0.571874	23.9989	0.846247	35.6119	0.174208	9.00297	0.434103	18.492	0.707528	29.9506	0.938634	39.9405
0.125659	5.1566	0.037053	1.40375	0.300632	12.1278	0.4758	19.0135	0.572879	23.1365	0.846861	34.2932	0.176379	8.80038	0.435278	17.8343	0.708227	28.8426	0.93889	38.4278
0.130403	5.15421	0.0390488	1.42893	0.302163	11.748	0.476445	18.3559	0.573918	22.3379	0.847498	33.0712	0.178978	8.5824	0.436495	17.2266	0.708951	27.8166	0.939156	37.0268
0.135139	5.15169	0.0410586	1.45294	0.303739	11.3965	0.477119	17.7449	0.574993	21.5966	0.848157	31.9359	0.182028	8.35534	0.437754	16.6635	0.709702	26.864	0.939434	35.7255
0.139867	5.14905	0.0430809	1.47584	0.305358	11.0702	0.477823	17.1759	0.576103	20.9067	0.84884	30.8783	0.185145	8.14987	0.439054	16.1405	0.710478	25.9773	0.939724	34.5136
0.144587	5.14627	0.0451143	1.4977	0.30702	10.7668	0.478556	16.6448	0.577247	20.2631	0.849546	29.8909	0.188325	7.96328	0.440394	15.6537	0.71128	25.1499	0.940025	33.3824
0.149297	5.14335	0.0468945	1.51594	0.308503	10.5193	0.479321	16.1481	0.578426	19.6614	0.850274	28.967	0.191566	7.79327	0.441774	15.1994	0.712108	24.3761	0.940338	32.324
0.153997	5.14029	0.0484173	1.53091	0.309791	10.3197	0.480116	15.6826	0.579638	19.0978	0.851025	28.1006	0.194863	7.63791	0.443194	14.7746	0.712962	23.651	0.940664	31.3317
0.158687	5.13709	0.0496799	1.54291	0.310873	10.162	0.480943	15.2457	0.580885	18.5689	0.851799	27.2867	0.198213	7.4955	0.444653	14.3767	0.71384	22.9702	0.941001	30.3996
0.163367	5.13373	0.0506804	1.55217	0.31174	10.0418	0.481802	14.8348	0.582164	18.0715	0.852595	26.5207	0.201614	7.36464	0.446151	14.0033	0.714744	22.3299	0.94135	29.5223
0.168034	5.13021	0.051417	1.55885	0.312382	9.95577	0.482695	14.4478	0.583477	17.6032	0.853414	25.7985	0.205063	7.24408	0.447687	13.6523	0.715674	21.7265	0.941712	28.6952
0.17269	5.12653	0.0518889	1.56306	0.312796	9.90176	0.483621	14.0828	0.584822	17.1614	0.854255	25.1165	0.208557	7.13274	0.449261	13.3218	0.716628	21.157	0.942086	27.9141
0.177333	5.12267	0.052568	1.56905	0.313395	9.8255	0.48458	13.738	0.586199	16.744	0.855119	24.4716	0.212093	7.02969	0.450872	13.0101	0.717608	20.6188	0.942473	27.1754
0.181962	5.11863	0.0533068	1.57545	0.314051	9.74439	0.485575	13.4119	0.587609	16.3492	0.856005	23.8607	0.21567	6.93412	0.45252	12.7158	0.718612	20.1093	0.942873	26.4756
0.186577	5.1144	0.0543128	1.584	0.31495	9.63697	0.486605	13.1032	0.589051	15.9752	0.856913	23.2814	0.219285	6.8453	0.454205	12.4375	0.719641	19.6264	0.943286	25.8119
0.191176	5.10997	0.055587	1.59455	0.3161	9.50569	0.487671	12.8105	0.590523	15.6204	0.857843	22.7313	0.222937	6.76259	0.455926	12.1741	0.720694	19.1681	0.943712	25.1816
0.195759	5.10534	0.0571307	1.60692	0.317509	9.3534	0.488773	12.5327	0.592027	15.2835	0.858795	22.2082	0.226622	6.68544	0.457682	11.9243	0.721772	18.7326	0.944151	24.5822
0.200326	5.10049	0.0589447	1.62093	0.319188	9.18321	0.489912	12.2688	0.593562	14.9633	0.85977	21.7103	0.23034	6.61335	0.459473	11.6873	0.722874	18.3182	0.944603	24.0115
0.204874	5.09542	0.0610304	1.63636	0.321148	8.9984	0.491089	12.0179	0.595127	14.6584	0.860765	21.2359	0.234089	6.54588	0.461298	11.4621	0.724	17.9236	0.945068	23.4675
0.209403	5.0901	0.0631197	1.65113	0.323143	8.82394	0.492304	11.7791	0.596723	14.368	0.861783	20.7833	0.237866	6.48262	0.463158	11.2479	0.72515	17.5473	0.945548	22.9485
0.213911	5.08454	0.0652123	1.66529	0.325172	8.65906	0.493558	11.5516	0.598348	14.091	0.862823	20.3511	0.241672	6.42323	0.465051	11.044	0.726324	17.1882	0.946041	22.4527
0.218398	5.07873	0.0673077	1.67885	0.327235	8.50303	0.494851	11.3347	0.600003	13.8266	0.863884	19.9379	0.245503	6.36739	0.466977	10.8496	0.727521	16.8451	0.946548	21.9788
0.222862	5.07264	0.0694054	1.69186	0.329331	8.35523	0.496185	11.1277	0.601687	13.574	0.864966	19.5427	0.249359	6.31481	0.468682	10.6876	0.728743	16.5171	0.947069	21.5252
0.227303	5.06627	0.0715052	1.70433	0.33146	8.21506	0.497558	10.9301	0.6034	13.3324	0.86607	19.1642	0.253239	6.26523	0.470154	10.5546	0.729987	16.2031	0.947604	21.0907
0.231717	5.0596	0.0736067	1.71631	0.333622	8.08199	0.498789	10.7652	0.605142	13.1012	0.867195	18.8015	0.257141	6.21843	0.471385	10.448	0.731255	15.9024	0.948153	20.6743
0.236105	5.05261	0.0757096	1.72781	0.335815	7.95556	0.499862	10.6296	0.606912	12.8797	0.868341	18.4536	0.261064	6.17418	0.472367	10.3658	0.732546	15.6141	0.948716	20.2747
0.240464	5.0453	0.0778137	1.73885	0.338039	7.83532	0.500767	10.5208	0.60871	12.6674	0.869509	18.1196	0.265006	6.1323	0.473094	10.3065	0.733859	15.3375	0.949295	19.891
0.244793	5.03765	0.0799188	1.74947	0.340295	7.72088	0.501494	10.4368	0.610535	12.4637	0.870697	17.7988	0.268968	6.09262	0.473561	10.2691	0.735196	15.072	0.949887	19.5223
0.24909	5.02965	0.0820246	1.75968	0.342583	7.61187	0.502035	10.3762	0.612389	12.2682	0.871906	17.4904	0.272947	6.05497	0.474235	10.2159	0.736555	14.8168	0.950495	19.1677
0.253353	5.02127	0.084131	1.7695	0.344902	7.50797	0.502384	10.3379	0.614269	12.0804	0.873136	17.1937	0.276943	6.01921	0.474972	10.1589	0.737937	14.5715	0.951117	18.8266
0.257581	5.01249	0.086238	1.77895	0.347252	7.40888	0.50289	10.2835	0.616176	11.8999	0.874387	16.9082	0.280955	5.98521	0.47598	10.0829	0.73934	14.3355	0.951755	18.498
0.261771	5.00332	0.0883451	1.78806	0.349635	7.3143	0.503445	10.2253	0.618109	11.7262	0.875658	16.6331	0.284982	5.95285	0.477266	9.98901	0.740766	14.1083	0.952408	18.1815
0.265922	4.99372	0.0904526	1.79683	0.352049	7.22401	0.504208	10.1475	0.620069	11.5591	0.87695	16.3679	0.289023	5.922	0.478835	9.87876	0.742214	13.8894	0.953076	17.8763
0.27003	4.98369	0.0925601	1.80528	0.354496	7.13776	0.505188	10.0515	0.622055	11.3982	0.878262	16.1122	0.293077	5.89259	0.480697	9.7538	0.743684	13.6784	0.953759	17.5819
0.274095	4.97319	0.0946675	1.81343	0.356976	7.05534	0.506394	9.93864	0.624067	11.2431	0.879595	15.8655	0.297144	5.8645	0.482862	9.61593	0.745175	13.4749	0.954458	17.2977
0.278114	4.96223	0.0967749	1.82129	0.35949	6.97657	0.507841	9.81069	0.626103	11.0936	0.880947	15.6273	0.301223	5.83765	0.485055	9.48365	0.746688	13.2786	0.955173	17.0232
0.282085	4.95078	0.0988822	1.82888	0.362039	6.90125	0.509541	9.6695	0.627899	10.9676	0.88232	15.3972	0.305312	5.81196	0.487277	9.35664	0.748221	13.089	0.955903	16.7579
0.286006	4.93883	0.100989	1.83621	0.364623	6.82922	0.511286	9.53404	0.629445	10.8633	0.883712	15.1747	0.309412	5.78736	0.489527	9.23463	0.749776	12.9058	0.956649	16.5015
0.289874	4.92636	0.103096	1.84329	0.367244	6.76034	0.513075	9.40402	0.630733	10.779	0.885124	14.9596	0.313521	5.76377	0.491804	9.11735	0.751352	12.7288	0.957412	16.2534
0.293687	4.91337	0.105202	1.85013	0.369903	6.69447	0.514909	9.27917	0.631758	10.7137	0.886556	14.7516	0.317639	5.74114	0.494108	9.00454	0.752949	12.5577	0.958191	16.0134
0.297443	4.89984	0.107308	1.85675	0.372601	6.63147	0.516787	9.15925	0.632516	10.6664	0.888008	14.5501	0.321766	5.71941	0.496439	8.89597	0.754566	12.3921	0.958986	15.7809
0.301141	4.88576	0.109414	1.86315	0.375339	6.57123	0.518711	9.044	0.633002	10.6364	0.889479	14.3551	0.3259	5.69852	0.498797	8.79144	0.756204	12.2318	0.959797	15.5558
0.304778	4.87114	0.111519	1.86934	0.378118	6.51365	0.52068	8.93321	0.633704	10.5937	0.89097	14.1662	0.33004	5.67842	0.50118	8.69073	0.757862	12.0766	0.960625	15.3376
0.308353	4.85596	0.113624	1.87533	0.38094	6.45861	0.522694	8.82668	0.634469	10.5478	0.892479	13.983	0.334188	5.65906	0.503588	8.59365	0.75954	11.9263	0.96147	15.1261
0.311863	4.84023	0.115728	1.88113	0.383807	6.40601	0.524754	8.7242	0.635515	10.4863	0.894008	13.8054	0.338341	5.6404	0.506022	8.50004	0.761239	11.7806	0.962331	14.9209
0.314869	4.82606	0.117832	1.88676	0.386719	6.35578	0.526859	8.62559	0.636846	10.4099	0.895556	13.6332	0.342499	5.62239	0.50848	8.40971	0.762956	11.6394	0.96321	14.7219
0.317391	4.81366	0.119936	1.89221	0.389678	6.30783	0.52901	8.53067	0.638467	10.3197	0.897123	13.4661	0.346662	5.60501	0.510962	8.32252	0.764694	11.5024	0.964105	14.5287
0.319449	4.80318	0.122038	1.89749	0.392685	6.26206	0.531205	8.43929	0.640386	10.2166	0.898708	13.3038	0.35083	5.5882	0.513468	8.23832	0.76645	11.3695	0.965018	14.3411
0.321058	4.79475	0.124141	1.90262	0.395742	6.21842	0.533446	8.35128	0.642609	10.1019	0.900312	13.1462	0.355	5.57195	0.515998	8.15697	0.767997	11.2569	0.965949	14.1589
0.322231	4.78847	0.126243	1.9076	0.398849	6.17681	0.535733	8.26649	0.644856	9.99092	0.901935	12.9932	0.359174	5.55621	0.51855	8.07834	0.769327	11.1631	0.966896	13.9818
0.322977	4.78442	0.128344	1.91242	0.402007	6.13717	0.538064	8.18479	0.647126	9.88341	0.903576	12.8444	0.363351	5.54095	0.521125	8.00231	0.770435	11.0871	0.967862	13.8097
0.324044	4.77854	0.130445	1.91711	0.405217	6.09942	0.540439	8.10605	0.649418	9.77927	0.905236	12.6998	0.367529	5.52616	0.523723	7.92875	0.771315	11.028	0.968845	13.6424
0.325194	4.77209	0.132545	1.92167	0.40848	6.06349	0.542859	8.03013	0.651732	9.67833	0.906913	12.5592	0.371709	5.51179	0.526342	7.85758	0.771966	10.985	0.969845	13.4796
0.326745	4.76322	0.134645	1.92609	0.411795	6.02932	0.545323	7.95692	0.654069	9.58048	0.908609	12.4224	0.37589	5.49784	0.528983	7.78867	0.772383	10.9577	0.970864	13.3213
0.328683	4.75182	0.136744	1.9304	0.415164	5.99684	0.547831	7.8863	0.656427	9.48558	0.910323	12.2893	0.380072	5.48426	0.531645	7.72194	0.772985	10.9189	0.971901	13.1672
0.330992	4.7378	0.138843	1.93458	0.418585	5.96597	0.550383	7.81817	0.658808	9.3935	0.912054	12.1597	0.384254	5.47105	0.534328	7.65729	0.773642	10.877	0.972956	13.0172
0.333652	4.72101	0.140942	1.93865	0.422059	5.93665	0.552977	7.75242	0.661209	9.30415	0.913803	12.0336	0.388435	5.45818	0.537032	7.59463	0.774539	10.8208	0.97403	12.8711
0.336641	4.70132	0.14304	1.94261	0.425585	5.90881	0.555614	7.68895	0.663632	9.2174	0.91557	11.9107	0.392615	5.44563	0.539756	7.53389	0.775679	10.7507	0.975122	12.7288
0.339561	4.6812	0.145137	1.94647	0.429162	5.88237	0.558293	7.62768	0.666076	9.13315	0.917354	11.791	0.396795	5.43338	0.5425	7.47498	0.777068	10.6677	0.976233	12.5902
0.342415	4.66068	0.147234	1.95022	0.432789	5.85729	0.561013	7.56851	0.668541	9.05131	0.919156	11.6743	0.400972	5.42142	0.545264	7.41784	0.778709	10.5724	0.977362	12.4551
0.345203	4.63978	0.14933	1.95388	0.436465	5.83348	0.563775	7.51135	0.671026	8.97179	0.92074	11.5751	0.405147	5.40972	0.548047	7.36238	0.78061	10.4658	0.978511	12.3234
0.347926	4.61855	0.151426	1.95744	0.440188	5.81088	0.566577	7.45613	0.673531	8.89449	0.922101	11.4922	0.409319	5.39828	0.55085	7.30855	0.782528	10.3621	0.979678	12.195
0.350586	4.597	0.153522	1.96091	0.443957	5.78944	0.569419	7.40276	0.676057	8.81934	0.923233	11.4248	0.413489	5.38707	0.553671	7.25629	0.784465	10.2611	0.980864	12.0698
0.353184	4.57517	0.155617	1.9643	0.447771	5.76908	0.5723	7.35118	0.678603	8.74624	0.924133	11.3723	0.417654	5.37608	0.556511	7.20553	0.786419	10.1628	0.98207	11.9477
0.355722	4.5531	0.157712	1.9676	0.451627	5.74974	0.57522	7.30131	0.681168	8.67513	0.924797	11.334	0.421816	5.3653	0.55937	7.15621	0.78839	10.0671	0.983295	11.8285
0.358202	4.53081	0.159806	1.97082	0.455525	5.73138	0.578179	7.25309	0.683753	8.60594	0.925223	11.3097	0.425972	5.35471	0.562246	7.10828	0.790379	9.97382	0.984379	11.727
0.360626	4.50834	0.1619	1.97396	0.459461	5.71392	0.581175	7.20644	0.686358	8.53859	0.925837	11.2751	0.430124	5.34431	0.565141	7.0617	0.792385	9.88294	0.985314	11.6421
0.362996	4.48572	0.163993	1.97702	0.463434	5.69732	0.584207	7.16131	0.688981	8.47302	0.926507	11.2377	0.43427	5.33408	0.568053	7.01641	0.794409	9.79436	0.986096	11.5731
0.365314	4.46298	0.166086	1.98002	0.467442	5.68152	0.587276	7.11764	0.691624	8.40917	0.927421	11.1874	0.438411	5.32401	0.570984	6.97236	0.796449	9.70799	0.986719	11.5193
0.367582	4.44015	0.168179	1.98294	0.471484	5.66648	0.590381	7.07537	0.694285	8.34697	0.928583	11.1246	0.442544	5.31408	0.573931	6.92952	0.798505	9.62377	0.98718	11.48
0.369802	4.41726	0.170271	1.9858	0.475557	5.65214	0.59352	7.03445	0.696965	8.28637	0.929996	11.0499	0.446671	5.30429	0.576896	6.88783	0.800578	9.54161	0.987477	11.4551
0.371977	4.39432	0.172363	1.98858	0.479659	5.63846	0.596694	6.99483	0.699664	8.22732	0.931665	10.9639	0.450791	5.29463	0.579878	6.84726	0.802668	9.46146	0.987905	11.4195
0.374107	4.37138	0.174455	1.99131	0.483789	5.62539	0.599901	6.95645	0.702381	8.16976	0.933597	10.8675	0.454902	5.28509	0.582876	6.80778	0.804774	9.38323	0.988373	11.3812
0.376196	4.34845	0.176546	1.99398	0.487945	5.61291	0.603141	6.91927	0.705116	8.11365	0.935544	10.7733	0.459005	5.27565	0.585892	6.76934	0.806896	9.30687	0.989013	11.3295
0.378245	4.32555	0.178637	1.99658	0.492125	5.60096	0.606414	6.88324	0.707869	8.05893	0.937508	10.6814	0.4631	5.26632	0.588924	6.7319	0.809034	9.23232	0.989829	11.265
0.380256	4.3027	0.180727	1.99913	0.496327	5.58952	0.609718	6.84831	0.71064	8.00556	0.939487	10.5915	0.467185	5.25708	0.591973	6.69545	0.811188	9.15952	0.990827	11.1882
0.382231	4.27993	0.182818	2.00162	0.50055	5.57854	0.613052	6.81446	0.713428	7.95349	0.941483	10.5036	0.47126	5.24791	0.595038	6.65993	0.813358	9.0884	0.992012	11.0998
0.384172	4.25725	0.184907	2.00406	0.504792	5.56801	0.616417	6.78163	0.716234	7.90269	0.943494	10.4178	0.475325	5.23883	0.59812	6.62533	0.815543	9.01893	0.99339	11.0006
0.38608	4.23467	0.186997	2.00645	0.509052	5.55788	0.619812	6.74979	0.719058	7.85312	0.945522	10.3339	0.479379	5.22981	0.601218	6.59162	0.817744	8.95104	0.994788	10.9036
0.387957	4.21222	0.189086	2.00878	0.513328	5.54813	0.623236	6.7189	0.721899	7.80473	0.947564	10.2518	0.483422	5.22085	0.604331	6.55876	0.81996	8.88468	0.996207	10.8087
0.389806	4.1899	0.191175	2.01107	0.517619	5.53873	0.626687	6.68892	0.724757	7.75749	0.949622	10.1715	0.487453	5.21194	0.607462	6.52674	0.822191	8.81982	0.997647	10.716
0.391626	4.16773	0.193264	2.01331	0.521924	5.52966	0.630167	6.65983	0.727632	7.71136	0.951696	10.093	0.491472	5.20308	0.610608	6.49552	0.824437	8.7564	0.999107	10.6254
0.39342	4.14572	0.195352	2.0155	0.526241	5.5209	0.633673	6.63159	0.730524	7.66631	0.953785	10.0162	0.495478	5.19425	0.61377	6.46508	0.826699	8.69438	1.00059	10.5367
0.395189	4.12387	0.197441	2.01765	0.530569	5.51243	0.637205	6.60417	0.733433	7.62231	0.955889	9.94104	0.499471	5.18546	0.616948	6.4354	0.828975	8.63372		
0.396935	4.10221	0.199528	2.01976	0.534907	5.50422	0.640764	6.57753	0.736358	7.57932	0.958007	9.86747	0.50345	5.1767	0.620142	6.40646	0.831265	8.57438		
0.398659	4.08073	0.201616	2.02182	0.539255	5.49626	0.644347	6.55166	0.7393	7.53733	0.960141	9.79544	0.507415	5.16796	0.623352	6.37823	0.833571	8.51631		
0.400361	4.05944	0.203703	2.02384	0.54361	5.48853	0.647955	6.52652	0.742259	7.49628	0.96229	9.72493	0.511365	5.15923	0.626578	6.35069	0.835891	8.45949		
0.402044	4.03835	0.205791	2.02583	0.547971	5.48101	0.651587	6.50208	0.745234	7.45617	0.964453	9.65587	0.5153	5.15052	0.629819	6.32383	0.838225	8.40387		
0.403707	4.01746	0.207877	2.02777	0.552339	5.47369	0.655243	6.47832	0.748226	7.41696	0.96663	9.58823	0.519219	5.1418	0.633077	6.29762	0.840574	8.34943		
0.405353	3.99679	0.209964	2.02968	0.556712	5.46655	0.658921	6.45523	0.751233	7.37863	0.968822	9.52198	0.523121	5.13309	0.63635	6.27206	0.842936	8.29612		
0.406983	3.97632	0.212051	2.03155	0.56109	5.45959	0.662621	6.43276	0.754257	7.34115	0.971029	9.45706	0.527007	5.12437	0.63964	6.24711	0.845313	8.24392		
0.408596	3.95607	0.214137	2.03339	0.56547	5.45278	0.666343	6.41091	0.757297	7.3045	0.973249	9.39345	0.530876	5.11565	0.642945	6.22276	0.847704	8.19279		
0.410195	3.93605	0.216223	2.03519	0.569854	5.44612	0.670086	6.38965	0.760353	7.26865	0.975484	9.33111	0.534727	5.1069	0.646266	6.19901	0.850109	8.14271		
0.411779	3.91624	0.218308	2.03696	0.574239	5.43959	0.67385	6.36895	0.763425	7.23359	0.977732	9.27	0.538559	5.09814	0.649603	6.17582	0.852527	8.09365		
0.41335	3.89665	0.220394	2.0387	0.578626	5.43319	0.677633	6.34881	0.766512	7.19929	0.979995	9.2101	0.542373	5.08936	0.652955	6.1532	0.85496	8.04558		
0.414909	3.8773	0.222479	2.0404	0.583013	5.42691	0.681437	6.32919	0.769616	7.16574	0.982271	9.15136	0.546168	5.08055	0.656324	6.13111	0.857406	7.99847		
0.416457	3.85816	0.224564	2.04208	0.5874	5.42073	0.685259	6.31009	0.772735	7.1329	0.984561	9.09375	0.549943	5.07171	0.659709	6.10955	0.859865	7.95229		
0.417993	3.83926	0.226649	2.04372	0.591786	5.41466	0.6891	6.29148	0.775871	7.10078	0.986864	9.03726	0.553698	5.06284	0.663109	6.08851	0.862338	7.90703		
0.419519	3.82058	0.228734	2.04534	0.596171	5.40867	0.692959	6.27335	0.779021	7.06933	0.98918	8.98184	0.557433	5.05393	0.666526	6.06797	0.864824	7.86266		
0.421035	3.80212	0.230819	2.04692	0.600554	5.40276	0.696835	6.25568	0.782188	7.03856	0.99151	8.92747	0.561147	5.04499	0.669958	6.04792	0.867324	7.81915		
0.422542	3.7839	0.232903	2.04848	0.604934	5.39694	0.700729	6.23845	0.785371	7.00844	0.993854	8.87412	0.564839	5.036	0.673407	6.02835	0.869837	7.77649		
0.424041	3.7659	0.234987	2.05002	0.609312	5.39118	0.704639	6.22166	0.788569	6.97895	0.99621	8.82177	0.568509	5.02697	0.676871	6.00924	0.872363	7.73464		
0.425532	3.74813	0.237072	2.05152	0.613685	5.38548	0.708566	6.20528	0.791782	6.95009	0.998579	8.77039	0.572157	5.01788	0.680352	5.99059	0.874902	7.6936		
0.427015	3.73058	0.239155	2.053	0.618055	5.37984	0.712508	6.1893	0.795012	6.92183	1.00096	8.71996	0.575783	5.00876	0.683848	5.97238	0.877454	7.65334		
0.428491	3.71325	0.241239	2.05446	0.622421	5.37426	0.716465	6.17371	0.798257	6.89416			0.579386	4.99957	0.68736	5.9546	0.880019	7.61384		
0.429961	3.69614	0.243323	2.05589	0.626781	5.36872	0.720437	6.1585	0.801517	6.86706			0.582965	4.99034	0.690888	5.93724	0.882598	7.57509		
0.431425	3.67926	0.245406	2.0573	0.631136	5.36322	0.724424	6.14365	0.804794	6.84053			0.586521	4.98105	0.694432	5.9203	0.885189	7.53706		
0.432883	3.6626	0.247489	2.05868	0.635485	5.35776	0.728425	6.12914	0.808086	6.81454			0.590053	4.97171	0.697991	5.90375	0.887793	7.49973		
0.434337	3.64615	0.249573	2.06005	0.639828	5.35233	0.732439	6.11498	0.811394	6.7891			0.593561	4.96231	0.701567	5.88759	0.890409	7.4631		
0.435785	3.62992	0.251655	2.06139	0.644164	5.34693	0.736466	6.10115	0.814717	6.76418			0.597044	4.95285	0.705157	5.87181	0.893039	7.42714		
0.437229	3.6139	0.253738	2.06271	0.648493	5.34155	0.740506	6.08763	0.818057	6.73977			0.600502	4.94334	0.708764	5.85641	0.895681	7.39183		
0.438669	3.59809	0.255821	2.064	0.652815	5.3362	0.744558	6.07441	0.821412	6.71586			0.603936	4.93376	0.712385	5.84136	0.898336	7.35717		
0.440105	3.58249	0.257904	2.06528	0.657128	5.33086	0.748622	6.0615	0.824783	6.69244			0.607344	4.92413	0.716022	5.82667	0.901003	7.32314		
0.441538	3.5671	0.259986	2.06654	0.661434	5.32553	0.752698	6.04886	0.82817	6.6695			0.610728	4.91443	0.719674	5.81232	0.903683	7.28972		
0.442968	3.55192	0.262068	2.06778	0.665731	5.32022	0.756784	6.03651	0.831573	6.64704			0.614085	4.90468	0.723341	5.79831	0.906375	7.2569		
0.444395	3.53694	0.26415	2.069	0.670019	5.31492	0.760881	6.02442	0.834993	6.62503			0.617417	4.89487	0.727023	5.78462	0.90908	7.22466		
0.445819	3.52216	0.266232	2.0702	0.674297	5.30961	0.764989	6.01259	0.838428	6.60347			0.620723	4.88499	0.730719	5.77125	0.911798	7.193		
0.447241	3.50757	0.268314	2.07138	0.678567	5.30432	0.769107	6.001	0.84188	6.58235			0.624003	4.87506	0.73443	5.75818	0.914527	7.16189		
0.448661	3.49319	0.270396	2.07254	0.682826	5.29902	0.773233	5.98966	0.845347	6.56167			0.627258	4.86508	0.738155	5.74542	0.917269	7.13133		
0.450079	3.47899	0.272478	2.07369	0.687075	5.29372	0.777369	5.97855	0.848832	6.54141			0.630486	4.85503	0.741894	5.73295	0.920024	7.10131		
0.451496	3.46499	0.274559	2.07482	0.691313	5.28841	0.781514	5.96767	0.852332	6.52156			0.633688	4.84493	0.745647	5.72076	0.922791	7.07181		
0.452912	3.45118	0.276641	2.07593	0.695541	5.2831	0.785667	5.957	0.855849	6.50212			0.636864	4.83477	0.749414	5.70885	0.92557	7.04282		
0.454326	3.43755	0.278722	2.07703	0.699757	5.27777	0.789828	5.94654	0.859383	6.48308			0.640014	4.82456	0.753193	5.69721	0.928361	7.01433		
0.455739	3.4241	0.280803	2.07811	0.703963	5.27244	0.793997	5.93628	0.862934	6.46443			0.643138	4.8143	0.756986	5.68582	0.931165	6.98634		
0.457152	3.41084	0.282885	2.07918	0.708156	5.26709	0.798173	5.92622	0.866501	6.44616			0.646236	4.80399	0.760791	5.67469	0.933981	6.95882		
0.458564	3.39776	0.284966	2.08023	0.712337	5.26173	0.802355	5.91635	0.870086	6.42827			0.649309	4.79362	0.764609	5.66381	0.936808	6.93177		
0.459976	3.38485	0.287047	2.08126	0.716507	5.25635	0.806544	5.90666	0.873687	6.41075			0.652355	4.78321	0.768439	5.65316	0.939649	6.90518		
0.461388	3.37212	0.289127	2.08228	0.720664	5.25096	0.810739	5.89715	0.877306	6.39359			0.655375	4.77275	0.77228	5.64275	0.942501	6.87904		
0.462799	3.35956	0.291208	2.08329	0.724808	5.24555	0.81494	5.8878	0.880942	6.37679			0.65837	4.76225	0.776133	5.63256	0.945365	6.85334		
0.464211	3.34717	0.293289	2.08428	0.728939	5.24011	0.819146	5.87862	0.884595	6.36034			0.661339	4.7517	0.779997	5.62258	0.948241	6.82808		
0.465622	3.33494	0.295369	2.08526	0.733057	5.23465	0.823357	5.86959	0.888266	6.34424			0.664283	4.74112	0.783872	5.61282	0.95113	6.80323		
0.467034	3.32288	0.29745	2.08622	0.737162	5.22918	0.827573	5.86072	0.891955	6.32847			0.667202	4.73049	0.787757	5.60326	0.95403	6.7788		
0.468447	3.31098	0.29953	2.08718	0.741253	5.22367	0.831792	5.85199	0.895661	6.31303			0.670095	4.71983	0.791653	5.59389	0.956943	6.75478		
0.46986	3.29925	0.30161	2.08812	0.74533	5.21814	0.836016	5.8434	0.899385	6.29792			0.672964	4.70913	0.795558	5.58472	0.959867	6.73115		
0.471274	3.28767	0.30369	2.08904	0.749393	5.21259	0.840243	5.83495	0.903127	6.28313			0.675808	4.6984	0.799472	5.57573	0.962803	6.70792		
0.472689	3.27624	0.305771	2.08996	0.753442	5.20701	0.844474	5.82663	0.906887	6.26866			0.678627	4.68764	0.803395	5.56692	0.965752	6.68507		
0.474105	3.26497	0.307851	2.09086	0.757477	5.2014	0.848707	5.81843	0.910665	6.25449			0.681422	4.67685	0.807327	5.55828	0.968712	6.66259		
0.475521	3.25385	0.309931	2.09175	0.761497	5.19576	0.852943	5.81036	0.914461	6.24063			0.684194	4.66603	0.811267	5.54981	0.971684	6.64047		
0.476939	3.24288	0.31201	2.09263	0.765502	5.19009	0.85718	5.8024	0.918276	6.22707			0.686941	4.65519	0.815215	5.54149	0.974667	6.61872		
0.478358	3.23205	0.31409	2.09349	0.769492	5.1844	0.86142	5.79455	0.922109	6.21381			0.689665	4.64432	0.819171	5.53334	0.977663	6.59732		
0.479779	3.22137	0.31617	2.09435	0.773467	5.17867	0.865661	5.78682	0.92596	6.20083			0.692365	4.63343	0.823133	5.52533	0.98067	6.57627		
0.481201	3.21083	0.318249	2.09519	0.777426	5.17291	0.869904	5.77918	0.92983	6.18814			0.695042	4.62253	0.827102	5.51747	0.983689	6.55556		
0.482624	3.20043	0.320329	2.09603	0.781371	5.16712	0.874147	5.77165	0.933719	6.17572			0.697697	4.61161	0.831078	5.50974	0.98672	6.53518		
0.484049	3.19017	0.322408	2.09685	0.785299	5.1613	0.878391	5.76421	0.937626	6.16359			0.700328	4.60067	0.835059	5.50215	0.989762	6.51513		
0.485475	3.18004	0.324488	2.09767	0.789212	5.15545	0.882635	5.75686	0.941553	6.15172			0.702938	4.58972	0.839046	5.49469	0.992816	6.49539		
0.486903	3.17005	0.326567	2.09847	0.793109	5.14956	0.886879	5.74961	0.945497	6.14011			0.705525	4.57876	0.843038	5.48735	0.995882	6.47598		
0.488333	3.16019	0.328646	2.09926	0.79699	5.14365	0.891123	5.74244	0.949461	6.12877			0.708091	4.56779	0.847034	5.48013	0.998959	6.45687		
0.489765	3.15046	0.330726	2.10004	0.800854	5.1377	0.895367	5.73535	0.953443	6.11769			0.710635	4.55682	0.851036	5.47303	1.00205	6.43806		
0.491199	3.14086	0.332805	2.10082	0.804703	5.13171	0.89961	5.72834	0.957445	6.10685			0.713158	4.54584	0.855041	5.46603				
0.492634	3.13138	0.334884	2.10158	0.808535	5.1257	0.903852	5.7214	0.961465	6.09626			0.715661	4.53486	0.85905	5.45915				
0.494072	3.12203	0.336963	2.10234	0.81235	5.11964	0.908092	5.71454	0.965503	6.08592			0.718142	4.52387	0.863062	5.45236				
0.495511	3.1128	0.339042	2.10308	0.816149	5.11356	0.912331	5.70776	0.969561	6.07581			0.720603	4.51289	0.867077	5.44567				
0.496953	3.10369	0.341121	2.10382	0.819932	5.10744	0.916569	5.70104	0.973637	6.06594			0.723044	4.50191	0.871094	5.43908				
0.498396	3.0947	0.343199	2.10455	0.823697	5.10129	0.920805	5.69438	0.977732	6.0563			0.725465	4.49093	0.875114	5.43257				
0.499842	3.08583	0.345278	2.10526	0.827446	5.09511	0.925038	5.68779	0.981845	6.04688			0.727867	4.47996	0.879136	5.42615				
0.50129	3.07707	0.347357	2.10598	0.831178	5.0889	0.92927	5.68127	0.985977	6.03768			0.73025	4.469	0.883159	5.41982				
0.50274	3.06842	0.349435	2.10668	0.834893	5.08265	0.933499	5.6748	0.990127	6.0287			0.732613	4.45804	0.887183	5.41356				
0.504193	3.05988	0.351514	2.10737	0.83859	5.07637	0.937726	5.66839	0.994295	6.01993			0.734958	4.4471	0.891208	5.40738				
0.505647	3.05146	0.353592	2.10806	0.842271	5.07005	0.94195	5.66203	0.998481	6.01136			0.737285	4.43617	0.895233	5.40127				
0.507105	3.04314	0.355671	2.10874	0.845935	5.06371	0.946172	5.65574	1.00269	6.003			0.739594	4.42525	0.899259	5.39523				
0.508564	3.03493	0.357749	2.10941	0.849581	5.05733	0.95039	5.64949					0.741885	4.41435	0.903284	5.38925				
0.510026	3.02683	0.359828	2.11007	0.85321	5.05092	0.954606	5.64329					0.744158	4.40347	0.907309	5.38334				
0.51149	3.01882	0.361906	2.11072	0.856822	5.04448	0.958819	5.63715					0.746414	4.3926	0.911333	5.37749				
0.512956	3.01092	0.363984	2.11137	0.860417	5.03801	0.963028	5.63105					0.748654	4.38176	0.915355	5.3717				
0.514426	3.00312	0.366062	2.11201	0.863994	5.0315	0.967235	5.62501					0.750876	4.37093	0.919377	5.36595				
0.515897	2.99542	0.36814	2.11265	0.867554	5.02497	0.971438	5.61901					0.753083	4.36013	0.923396	5.36027				
0.517371	2.98782	0.370218	2.11327	0.871097	5.01841	0.975638	5.61305					0.755273	4.34934	0.927413	5.35462				
0.518848	2.98031	0.372296	2.11389	0.874622	5.01182	0.979835	5.60714					0.757447	4.33859	0.931428	5.34903				
0.520327	2.97289	0.374374	2.1145	0.878131	5.0052	0.984028	5.60127					0.759606	4.32786	0.93544	5.34348				
0.521808	2.96557	0.376452	2.11511	0.881621	4.99855	0.988218	5.59545					0.76175	4.31716	0.939449	5.33797				
0.523292	2.95834	0.37853	2.11571	0.885095	4.99188	0.992405	5.58966					0.763878	4.30648	0.943454	5.3325				
0.524779	2.9512	0.380608	2.1163	0.888551	4.98517	0.996588	5.58392					0.765992	4.29583	0.947457	5.32707				
0.526268	2.94415	0.382686	2.11689	0.89199	4.97844	1.00077	5.57822					0.768092	4.28522	0.951455	5.32167				
0.52776	2.93718	0.384764	2.11747	0.895412	4.97169							0.770177	4.27463	0.955449	5.31631				
0.529254	2.93031	0.386841	2.11804	0.898816	4.96491							0.772249	4.26408	0.959438	5.31097				
0.530751	2.92351	0.388919	2.11861	0.902204	4.9581							0.774306	4.25356	0.963423	5.30567				
0.532251	2.9168	0.390997	2.11917	0.905574	4.95127							0.77635	4.24307	0.967403	5.30039				
0.533753	2.91018	0.393074	2.11973	0.908927	4.94442							0.778382	4.23262	0.971377	5.29513				
0.535257	2.90363	0.395152	2.12028	0.912263	4.93754							0.7804	4.2222	0.975347	5.2899				
0.536765	2.89717	0.397229	2.12082	0.915582	4.93064							0.782405	4.21182	0.97931	5.2847				
0.538275	2.89078	0.399306	2.12136	0.918884	4.92372							0.784398	4.20148	0.983267	5.27951				
0.539788	2.88447	0.401384	2.1219	0.922169	4.91677							0.786379	4.19117	0.987218	5.27434				
0.541303	2.87824	0.403461	2.12243	0.925437	4.90981							0.788348	4.1809	0.991163	5.26918				
0.542821	2.87208	0.405539	2.12295	0.928689	4.90283							0.790305	4.17068	0.995101	5.26404				
0.544341	2.866	0.407616	2.12347	0.931924	4.89582							0.792251	4.16049	0.999032	5.25892				
0.545864	2.85999	0.409693	2.12398	0.935142	4.8888							0.794185	4.15034	1.00296	5.25381				
0.54739	2.85405	0.41177	2.12448	0.938343	4.88176							0.796109	4.14023						
0.548918	2.84818	0.413847	2.12499	0.941528	4.8747							0.798021	4.13017						
0.550449	2.84238	0.415924	2.12548	0.944697	4.86762							0.799923	4.12014						
0.551983	2.83666	0.418002	2.12598	0.947849	4.86053							0.801815	4.11016						
0.553519	2.831	0.420079	2.12646	0.950984	4.85342							0.803696	4.10022						
0.555058	2.8254	0.422156	2.12695	0.954104	4.8463							0.805568	4.09033						
0.5566	2.81988	0.424233	2.12742	0.957207	4.83916							0.80743	4.08048						
0.558144	2.81441	0.426309	2.1279	0.960294	4.83201							0.809282	4.07067						
0.55969	2.80902	0.428386	2.12837	0.963366	4.82484							0.811125	4.06091						
0.56124	2.80368	0.430463	2.12883	0.966421	4.81766							0.812959	4.0512						
0.562791	2.79841	0.43254	2.12929	0.96946	4.81047							0.814783	4.04153						
0.564346	2.7932	0.434617	2.12975	0.972484	4.80327							0.816599	4.0319						
0.565903	2.78805	0.436694	2.1302	0.975492	4.79606							0.818407	4.02232						
0.567463	2.78296	0.43877	2.13064	0.978484	4.78883							0.820206	4.01279						
0.569025	2.77793	0.440847	2.13109	0.981461	4.7816							0.821997	4.0033						
0.570589	2.77295	0.442924	2.13152	0.984423	4.77436							0.82378	3.99386						
0.572157	2.76804	0.445	2.13196	0.987369	4.7671							0.825555	3.98447						
0.573727	2.76318	0.447077	2.13239	0.9903	4.75984							0.827323	3.97513						
0.575299	2.75837	0.449153	2.13282	0.993215	4.75257							0.829083	3.96583						
0.576874	2.75362	0.45123	2.13324	0.996116	4.7453							0.830835	3.95658						
0.578451	2.74893	0.453306	2.13366	0.999002	4.73802							0.832581	3.94738						
0.580031	2.74428	0.455383	2.13407	1.00187	4.73073							0.834319	3.93823						
0.581614	2.73969	0.457459	2.13448									0.836051	3.92912						
0.583198	2.73515	0.459536	2.13489									0.837776	3.92006						
0.584786	2.73067	0.461612	2.1353									0.839495	3.91105						
0.586376	2.72623	0.463688	2.1357									0.841207	3.90209						
0.587968	2.72184	0.465765	2.13609									0.842913	3.89318						
0.589563	2.71751	0.467841	2.13649									0.844613	3.88432						
0.59116	2.71322	0.469917	2.13688									0.846307	3.8755						
0.59276	2.70897	0.471994	2.13726									0.847995	3.86674						
0.594362	2.70478	0.47407	2.13764									0.849678	3.85802						
0.595966	2.70063	0.476146	2.13802									0.851355	3.84935						
0.597573	2.69653	0.478222	2.1384									0.853027	3.84073						
0.599183	2.69247	0.480298	2.13877									0.854694	3.83216						
0.600794	2.68846	0.482374	2.13914									0.856356	3.82364						
0.602408	2.68449	0.48445	2.13951									0.858012	3.81516						
0.604025	2.68056	0.486527	2.13987									0.859664	3.80674						
0.605644	2.67668	0.488603	2.14023									0.861311	3.79836						
0.607265	2.67284	0.490678	2.14059									0.862954	3.79003						
0.608888	2.66904	0.492754	2.14095									0.864592	3.78175						
0.610514	2.66528	0.49483	2.1413									0.866225	3.77352						
0.612142	2.66156	0.496906	2.14165									0.867855	3.76533						
0.613772	2.65788	0.498982	2.14199									0.86948	3.7572						
0.615405	2.65424	0.501058	2.14234									0.871102	3.74911						
0.61704	2.65064	0.503134	2.14268									0.872719	3.74107						
0.618677	2.64708	0.50521	2.14301									0.874333	3.73308						
0.620316	2.64356	0.507286	2.14335									0.875943	3.72513						
0.621958	2.64007	0.509361	2.14368									0.877549	3.71724						
0.623602	2.63662	0.511437	2.14401									0.879152	3.70939						
0.625248	2.63321	0.513513	2.14433									0.880752	3.70159						
0.626896	2.62983	0.515589	2.14466									0.882348	3.69383						
0.628547	2.62649	0.517664	2.14498									0.883941	3.68612						
0.630199	2.62318	0.51974	2.1453									0.885531	3.67846						
0.631854	2.61991	0.521815	2.14561									0.887118	3.67085						
0.633511	2.61667	0.523891	2.14593									0.888702	3.66328						
0.63517	2.61347	0.525967	2.14624									0.890283	3.65576						
0.636831	2.61029	0.528042	2.14655									0.891862	3.64828						
0.638495	2.60716	0.530118	2.14685									0.893438	3.64085						
0.64016	2.60405	0.532193	2.14716									0.895011	3.63346						
0.641828	2.60098	0.534269	2.14746									0.896581	3.62613						
0.643497	2.59793	0.536344	2.14776									0.89815	3.61883						
0.645169	2.59492	0.53842	2.14805									0.899716	3.61158						
0.646843	2.59194	0.540495	2.14835									0.901279	3.60438						
0.648519	2.58899	0.542571	2.14864									0.902841	3.59722						
0.650196	2.58607	0.544646	2.14893									0.9044	3.59011						
0.651876	2.58318	0.546721	2.14922									0.905957	3.58304						
0.653558	2.58032	0.548797	2.14951									0.907513	3.57601						
0.655242	2.57748	0.550872	2.14979									0.909066	3.56903						
0.656928	2.57468	0.552947	2.15007									0.910618	3.56209						
0.658616	2.5719	0.555023	2.15035									0.912167	3.5552						
0.660305	2.56915	0.557098	2.15063									0.913716	3.54835						
0.661997	2.56643	0.559173	2.1509									0.915262	3.54154						
0.663691	2.56374	0.561249	2.15117									0.916807	3.53477						
0.665387	2.56107	0.563324	2.15145									0.91835	3.52805						
0.667084	2.55843	0.565399	2.15172									0.919892	3.52137						
0.668783	2.55581	0.567474	2.15198									0.921432	3.51473						
0.670485	2.55323	0.569549	2.15225									0.922971	3.50813						
0.672188	2.55066	0.571624	2.15251									0.924509	3.50158						
0.673893	2.54812	0.5737	2.15277									0.926046	3.49506						
0.6756	2.54561	0.575775	2.15303									0.927581	3.48859						
0.677309	2.54312	0.57785	2.15329									0.929115	3.48216						
0.67902	2.54066	0.579925	2.15354									0.930648	3.47577						
0.680732	2.53822	0.582	2.1538									0.932181	3.46942						
0.682446	2.5358	0.584075	2.15405									0.933712	3.46311						
0.684162	2.5334	0.58615	2.1543									0.935242	3.45684						
0.68588	2.53103	0.588225	2.15455									0.936771	3.45061						
0.6876	2.52869	0.5903	2.1548									0.9383	3.44442						
0.689322	2.52636	0.592375	2.15504									0.939827	3.43826						
0.691045	2.52406	0.59445	2.15528									0.941354	3.43215						
0.69277	2.52178	0.596525	2.15553									0.94288	3.42608						
0.694496	2.51952	0.5986	2.15577									0.944406	3.42004						
0.696225	2.51728	0.600674	2.156									0.945931	3.41405						
0.697955	2.51506	0.602749	2.15624									0.947455	3.40809						
0.699687	2.51287	0.604824	2.15648									0.948979	3.40217						
0.701421	2.51069	0.606899	2.15671									0.950502	3.39628						
0.703156	2.50854	0.608974	2.15694									0.952025	3.39044						
0.704893	2.5064	0.611049	2.15717									0.953547	3.38463						
0.706631	2.50429	0.613124	2.1574									0.955069	3.37886						
0.708372	2.50219	0.615198	2.15763									0.956591	3.37312						
0.710114	2.50012	0.617273	2.15785									0.958112	3.36742						
0.711857	2.49806	0.619348	2.15808									0.959633	3.36176						
0.713602	2.49603	0.621423	2.1583									0.961154	3.35614						
0.715349	2.49401	0.623497	2.15852									0.962675	3.35054						
0.717097	2.49201	0.625572	2.15874									0.964195	3.34499						
0.718847	2.49003	0.627647	2.15896									0.965715	3.33947						
0.720599	2.48807	0.629721	2.15917									0.967235	3.33398						
0.722352	2.48612	0.631796	2.15939									0.968755	3.32853						
0.724107	2.48419	0.633871	2.1596									0.970275	3.32312						
0.725863	2.48229	0.635945	2.15982									0.971795	3.31774						
0.727621	2.48039	0.63802	2.16003									0.973315	3.31239						
0.72938	2.47852	0.640094	2.16024									0.974835	3.30708						
0.731141	2.47666	0.642169	2.16044									0.976355	3.3018						
0.732904	2.47482	0.644243	2.16065									0.977875	3.29655						
0.734668	2.473	0.646318	2.16086									0.979395	3.29134						
0.736433	2.47119	0.648393	2.16106									0.980915	3.28616						
0.7382	2.4694	0.650467	2.16126									0.982436	3.28101						
0.739968	2.46762	0.652541	2.16146									0.983956	3.2759						
0.741738	2.46586	0.654616	2.16167									0.985477	3.27081						
0.74351	2.46412	0.65669	2.16186									0.986998	3.26576						
0.745282	2.46239	0.658765	2.16206									0.98852	3.26074						
0.747057	2.46068	0.660839	2.16226									0.990041	3.25576						
0.748832	2.45898	0.662914	2.16245									0.991563	3.2508						
0.750609	2.4573	0.664988	2.16265									0.993085	3.24588						
0.752388	2.45563	0.667063	2.16284									0.994607	3.24098						
0.754168	2.45398	0.669137	2.16303									0.99613	3.23612						
0.755949	2.45234	0.671211	2.16322									0.997653	3.23129						
0.757732	2.45072	0.673286	2.16341									0.999177	3.22649						
0.759516	2.44911	0.67536	2.1636									1.0007	3.22172						
0.761301	2.44751	0.677434	2.16379																
0.763088	2.44593	0.679509	2.16397																
0.764877	2.44436	0.681583	2.16416																
0.766666	2.44281	0.683657	2.16434																
0.768457	2.44127	0.685731	2.16452																
0.770249	2.43974	0.687806	2.1647																
0.772043	2.43822	0.68988	2.16488																
0.773838	2.43672	0.691954	2.16506																
0.775634	2.43523	0.694028	2.16524																
0.777431	2.43376	0.696102	2.16542																
0.77923	2.4323	0.698177	2.16559																
0.78103	2.43084	0.700251	2.16577																
0.782831	2.42941	0.702325	2.16594																
0.784634	2.42798	0.704399	2.16611																
0.786438	2.42657	0.706473	2.16629																
0.788243	2.42516	0.708547	2.16646																
0.790049	2.42377	0.710621	2.16663																
0.791857	2.42239	0.712696	2.16679																
0.793665	2.42103	0.71477	2.16696																
0.795475	2.41967	0.716844	2.16713																
0.797287	2.41833	0.718918	2.16729																
0.799099	2.41699	0.720992	2.16746																
0.800913	2.41567	0.723066	2.16762																
0.802727	2.41436	0.72514	2.16779																
0.804543	2.41306	0.727214	2.16795																
0.806361	2.41177	0.729288	2.16811																
0.808179	2.41049	0.731362	2.16827																
0.809998	2.40923	0.733436	2.16843																
0.811819	2.40797	0.73551	2.16859																
0.813641	2.40672	0.737584	2.16874																
0.815464	2.40548	0.739657	2.1689																
0.817288	2.40426	0.741731	2.16905																
0.819113	2.40304	0.743805	2.16921																
0.820939	2.40183	0.745879	2.16936																
0.822767	2.40064	0.747953	2.16952																
0.824595	2.39945	0.750027	2.16967																
0.826425	2.39827	0.752101	2.16982																
0.828256	2.3971	0.754175	2.16997																
0.830088	2.39594	0.756248	2.17012																
0.83192	2.39479	0.758322	2.17027																
0.833754	2.39365	0.760396	2.17041																
0.835589	2.39252	0.76247	2.17056																
0.837426	2.3914	0.764543	2.17071																
0.839263	2.39028	0.766617	2.17085																
0.841101	2.38918	0.768691	2.171																
0.84294	2.38808	0.770765	2.17114																
0.84478	2.387	0.772838	2.17128																
0.846622	2.38592	0.774912	2.17143																
0.848464	2.38485	0.776986	2.17157																
0.850307	2.38379	0.779059	2.17171																
0.852152	2.38273	0.781133	2.17185																
0.853997	2.38169	0.783207	2.17199																
0.855843	2.38065	0.785281	2.17213																
0.85769	2.37962	0.787354	2.17226																
0.859539	2.3786	0.789428	2.1724																
0.861388	2.37759	0.791501	2.17254																
0.863238	2.37659	0.793575	2.17267																
0.865089	2.37559	0.795649	2.17281																
0.866942	2.3746	0.797722	2.17294																
0.868795	2.37362	0.799796	2.17307																
0.870649	2.37264	0.801869	2.17321																
0.872504	2.37168	0.803943	2.17334																
0.87436	2.37072	0.806016	2.17347																
0.876217	2.36977	0.80809	2.1736																
0.878075	2.36882	0.810163	2.17373																
0.879933	2.36789	0.812237	2.17386																
0.881793	2.36696	0.81431	2.17399																
0.883653	2.36603	0.816384	2.17411																
0.885515	2.36512	0.818457	2.17424																
0.887377	2.36421	0.820531	2.17437																
0.889241	2.36331	0.822604	2.17449																
0.891105	2.36241	0.824678	2.17462																
0.89297	2.36152	0.826751	2.17474																
0.894836	2.36064	0.828824	2.17487																
0.896702	2.35976	0.830898	2.17499																
0.89857	2.3589	0.832971	2.17511																
0.900439	2.35803	0.835045	2.17524																
0.902308	2.35718	0.837118	2.17536																
0.904178	2.35633	0.839191	2.17548																
0.906049	2.35549	0.841265	2.1756																
0.907921	2.35465	0.843338	2.17572																
0.909794	2.35382	0.845411	2.17584																
0.911668	2.35299	0.847485	2.17595																
0.913542	2.35217	0.849558	2.17607																
0.915417	2.35136	0.851631	2.17619																
0.917293	2.35056	0.853704	2.17631																
0.91917	2.34976	0.855778	2.17642																
0.921048	2.34896	0.857851	2.17654																
0.922926	2.34817	0.859924	2.17665																
0.924806	2.34739	0.861998	2.17677																
0.926686	2.34661	0.864071	2.17688																
0.928566	2.34584	0.866144	2.17699																
0.930448	2.34507	0.868217	2.17711																
0.932331	2.34431	0.87029	2.17722																
0.934214	2.34356	0.872364	2.17733																
0.936098	2.34281	0.874437	2.17744																
0.937982	2.34206	0.87651	2.17755																
0.939868	2.34133	0.878583	2.17766																
0.941754	2.34059	0.880656	2.17777																
0.943641	2.33986	0.882729	2.17788																
0.945529	2.33914	0.884802	2.17799																
0.947418	2.33842	0.886875	2.1781																
0.949307	2.33771	0.888949	2.1782																
0.951197	2.337	0.891022	2.17831																
0.953088	2.3363	0.893095	2.17842																
0.954979	2.3356	0.895168	2.17852																
0.956871	2.33491	0.897241	2.17863																
0.958764	2.33422	0.899314	2.17873																
0.960658	2.33354	0.901387	2.17884																
0.962552	2.33286	0.90346	2.17894																
0.964447	2.33219	0.905533	2.17904																
0.966343	2.33152	0.907606	2.17915																
0.968239	2.33085	0.909679	2.17925																
0.970136	2.33019	0.911752	2.17935																
0.972034	2.32954	0.913825	2.17945																
0.973933	2.32889	0.915898	2.17955																
0.975832	2.32824	0.917971	2.17965																
0.977732	2.3276	0.920044	2.17975																
0.979632	2.32697	0.922117	2.17985																
0.981534	2.32633	0.92419	2.17995																
0.983436	2.32571	0.926262	2.18005																
0.985338	2.32508	0.928335	2.18015																
0.987241	2.32446	0.930408	2.18024																
0.989145	2.32385	0.932481	2.18034																
0.99105	2.32324	0.934554	2.18044																
0.992955	2.32263	0.936627	2.18053																
0.994861	2.32203	0.9387	2.18063																
0.996767	2.32143	0.940773	2.18073																
0.998675	2.32084	0.942845	2.18082																
1.00058	2.32025	0.944918	2.18092																
		0.946991	2.18101																
		0.949064	2.1811																
		0.951137	2.1812																
		0.953209	2.18129																
		0.955282	2.18138																
		0.957355	2.18147																
		0.959428	2.18156																
		0.9615	2.18166																
		0.963573	2.18175																
		0.965646	2.18184																
		0.967718	2.18193																
		0.969791	2.18202																
		0.971864	2.18211																
		0.973937	2.18219																
		0.976009	2.18228																
		0.978082	2.18237																
		0.980155	2.18246																
		0.982227	2.18255																
		0.9843	2.18263																
		0.986372	2.18272																
		0.988445	2.18281																
		0.990518	2.18289																
		0.99259	2.18298																
		0.994663	2.18306																
		0.996735	2.18315																
		0.998808	2.18323																
		1.00088	2.18331																
