Sym0		Asym0		Sym1		Sym2		Sym3		Sym4		Asym1		Asym2		Asym3		Asym4	
469  Points		496  Points		232  Points		198  Points		184  Points		129  Points		339  Points		210  Points		172  Points		107  Points	
Freq (MHz)	Vph (m/ms)	Freq (MHz)	Vph (m/ms)	Freq (MHz)	Vph (m/ms)	Freq (MHz)	Vph (m/ms)	Freq (MHz)	Vph (m/ms)	Freq (MHz)	Vph (m/ms)	Freq (MHz)	Vph (m/ms)	Freq (MHz)	Vph (m/ms)	Freq (MHz)	Vph (m/ms)	Freq (MHz)	Vph (m/ms)
0.00309774	5.20434	0.000311541	0.153135	0.279521	486.604	0.468099	561.998	0.559024	1010.44	0.838528	2035.25	0.1398	215.762	0.419264	2138.56	0.698773	2483.85	0.936181	5097.4
0.00794644	5.20423	0.00065987	0.222469	0.279591	185.636	0.468128	265.286	0.559068	376.492	0.83855	624.062	0.140026	88.6447	0.419298	371.802	0.698795	576.078	0.936187	839.364
0.0127948	5.20407	0.00113407	0.290951	0.279726	114.744	0.468178	173.637	0.559153	231.376	0.838597	368.551	0.14044	55.9225	0.41938	203.638	0.698845	325.845	0.936203	457.343
0.0176426	5.20383	0.00173043	0.358303	0.279923	83.0752	0.46825	129.065	0.559278	167.032	0.838668	261.505	0.141038	40.9636	0.419511	140.251	0.698922	227.187	0.936228	314.303
0.0224896	5.2035	0.00244458	0.424317	0.280184	65.1407	0.468342	102.713	0.559443	130.71	0.838763	202.659	0.141819	32.4179	0.419689	106.986	0.699027	174.403	0.936262	239.426
0.0273356	5.20311	0.00327163	0.48882	0.280507	53.6045	0.468456	85.3073	0.559649	107.383	0.838882	165.444	0.142777	26.9065	0.419915	86.4997	0.69916	141.536	0.936305	193.366
0.0321803	5.20262	0.004206	0.551636	0.280893	45.5655	0.468591	72.9542	0.559894	91.1373	0.839024	139.787	0.143907	23.0691	0.420189	72.6189	0.699321	119.104	0.936358	162.173
0.0370236	5.20207	0.00524189	0.612636	0.281341	39.6462	0.468748	63.7338	0.56018	79.1761	0.839191	121.028	0.145204	20.2522	0.420511	62.5954	0.699509	102.821	0.93642	139.649
0.0418652	5.20143	0.00637313	0.671705	0.281851	35.1085	0.468926	56.5893	0.560506	70.0036	0.839382	106.716	0.146661	18.103	0.42088	55.0198	0.699724	90.4634	0.936492	122.622
0.0467048	5.20071	0.00759366	0.72878	0.282422	31.5214	0.469127	50.8915	0.560871	62.7478	0.839597	95.4385	0.148272	16.4141	0.421297	49.0947	0.699967	80.7663	0.936573	109.299
0.0515423	5.1999	0.0088971	0.78379	0.283054	28.6162	0.469349	46.2419	0.561276	56.8658	0.839836	86.3233	0.15003	15.0558	0.421761	44.3352	0.700238	72.9545	0.936663	98.5898
0.0563775	5.19902	0.0102775	0.836722	0.283746	26.2167	0.469594	42.3762	0.561721	52.0021	0.840098	78.8037	0.151927	13.9426	0.422272	40.4293	0.700536	66.5278	0.936763	89.7945
0.0612099	5.19804	0.0117289	0.887561	0.284497	24.2027	0.469862	39.1119	0.562205	47.9142	0.840385	72.4948	0.153957	13.016	0.42283	37.1673	0.700861	61.1483	0.936873	82.4422
0.0660395	5.19699	0.0132455	0.936315	0.285307	22.4891	0.470152	36.3193	0.562728	44.4308	0.840695	67.1265	0.156114	12.2346	0.423435	34.403	0.701214	56.5798	0.936993	76.2049
0.0708658	5.19584	0.014822	0.983011	0.286176	21.0143	0.470466	33.9034	0.563291	41.4276	0.841029	62.5034	0.158389	11.5683	0.424086	32.0312	0.701595	52.6523	0.937122	70.8471
0.0756888	5.19461	0.0164531	1.02768	0.287101	19.7323	0.470803	31.7931	0.563892	38.8123	0.841387	58.4807	0.160777	10.9946	0.424783	29.9745	0.702002	49.24	0.937261	66.1951
0.080508	5.19328	0.018134	1.07039	0.288084	18.6082	0.471164	29.9341	0.564532	36.5148	0.841769	54.9489	0.162946	10.5567	0.425526	28.1746	0.702437	46.2481	0.937411	62.1181
0.0853232	5.19186	0.0198602	1.11117	0.289122	17.6151	0.471549	28.2843	0.56521	34.4807	0.842175	51.8235	0.164855	10.222	0.426315	26.5868	0.702898	43.6037	0.93757	58.516
0.0901341	5.19034	0.0216275	1.1501	0.290214	16.7319	0.471958	26.8106	0.565926	32.6676	0.842604	49.0385	0.166474	9.96867	0.427149	25.176	0.703387	41.2499	0.93774	55.3103
0.0949404	5.18873	0.023432	1.18723	0.291361	15.9417	0.472393	25.4864	0.56668	31.0417	0.843057	46.5412	0.167779	9.78176	0.428029	23.9145	0.703903	39.1415	0.937921	52.4392
0.0997417	5.18701	0.0252701	1.22265	0.292561	15.2309	0.472853	24.2902	0.567472	29.5756	0.843533	44.2895	0.168753	9.65129	0.428952	22.7803	0.704446	37.2423	0.938111	49.853
0.104538	5.1852	0.0271384	1.25641	0.293813	14.5885	0.473339	23.2046	0.568301	28.2472	0.844033	42.249	0.169382	9.57069	0.429921	21.7553	0.705015	35.5227	0.938313	47.5113
0.109328	5.18327	0.0290342	1.28859	0.295116	14.0053	0.473852	22.2151	0.569168	27.0381	0.844557	40.3914	0.170294	9.45862	0.430933	20.8247	0.705612	33.9585	0.938525	45.3811
0.114113	5.18124	0.0309544	1.31926	0.296469	13.4738	0.474391	21.3095	0.570071	25.9333	0.845103	38.6935	0.171296	9.34163	0.431989	19.9763	0.706235	32.5299	0.938748	43.4351
0.118891	5.1791	0.0328967	1.3485	0.297871	12.9875	0.474957	20.4779	0.571011	24.9198	0.845674	37.1355	0.172676	9.19008	0.433088	19.2	0.706884	31.22	0.938982	41.6504
0.123662	5.17684	0.0348587	1.37636	0.299321	12.5413	0.475551	19.7117	0.571987	23.9871	0.846268	35.7009	0.174448	9.00998	0.43423	18.487	0.70756	30.0148	0.939227	40.0079
0.128426	5.17446	0.0368385	1.40292	0.300818	12.1305	0.476173	19.0036	0.572999	23.1259	0.846884	34.3758	0.176632	8.80789	0.435415	17.8302	0.708263	28.9023	0.939483	38.4912
0.133183	5.17195	0.0388341	1.42824	0.302362	11.7512	0.476824	18.3474	0.574046	22.3286	0.847525	33.1482	0.179246	8.59046	0.436642	17.2233	0.708992	27.8724	0.939751	37.0865
0.137931	5.16932	0.0408437	1.45238	0.30395	11.4002	0.477504	17.7377	0.57513	21.5884	0.848188	32.0077	0.182313	8.36397	0.43791	16.661	0.709746	26.9162	0.94003	35.7819
0.142671	5.16656	0.042866	1.47541	0.305582	11.0744	0.478214	17.1698	0.576248	20.8994	0.848874	30.9456	0.185447	8.15902	0.439219	16.1388	0.710527	26.0262	0.940321	34.567
0.147402	5.16366	0.0448995	1.49739	0.307257	10.7714	0.478955	16.6398	0.577401	20.2568	0.849584	29.9541	0.188645	7.9729	0.44057	15.6525	0.711334	25.1959	0.940623	33.4331
0.152123	5.16061	0.0466797	1.51571	0.308751	10.5242	0.479726	16.144	0.578589	19.656	0.850316	29.0264	0.191904	7.80334	0.441961	15.1988	0.712167	24.4195	0.940938	32.3722
0.156834	5.15742	0.0482026	1.53076	0.31005	10.3249	0.480529	15.6794	0.57981	19.0931	0.851072	28.1567	0.195218	7.64837	0.443391	14.7746	0.713026	23.6921	0.941265	31.3777
0.161535	5.15407	0.0494654	1.54282	0.31114	10.1674	0.481364	15.2432	0.581066	18.5649	0.85185	27.3397	0.198587	7.50634	0.444861	14.3773	0.71391	23.0091	0.941604	30.4435
0.166223	5.15057	0.0504659	1.55212	0.312013	10.0474	0.482232	14.8331	0.582355	18.0682	0.85265	26.5709	0.202006	7.37582	0.44637	14.0044	0.71482	22.3668	0.941955	29.5642
0.1709	5.14689	0.0512027	1.55883	0.312661	9.96151	0.483132	14.4468	0.583677	17.6005	0.853474	25.8461	0.205473	7.25558	0.447918	13.6538	0.715755	21.7617	0.942319	28.7354
0.175564	5.14305	0.0516746	1.56306	0.313078	9.90758	0.484067	14.0824	0.585032	17.1593	0.85432	25.1618	0.208985	7.14454	0.449503	13.3237	0.716715	21.1906	0.942695	27.9527
0.180215	5.13902	0.0523537	1.56907	0.313682	9.83143	0.485036	13.7382	0.58642	16.7424	0.855189	24.5147	0.212539	7.04177	0.451127	13.0125	0.717701	20.6509	0.943084	27.2124
0.184851	5.1348	0.0530926	1.57551	0.314342	9.75044	0.48604	13.4127	0.58784	16.3481	0.85608	23.9019	0.216135	6.94646	0.452787	12.7186	0.718711	20.14	0.943486	26.5113
0.189472	5.13038	0.0540987	1.58409	0.315248	9.64318	0.48708	13.1045	0.589292	15.9746	0.856993	23.3207	0.219768	6.85788	0.454484	12.4406	0.719747	19.6559	0.943901	25.8463
0.194077	5.12576	0.0553732	1.59468	0.316407	9.51209	0.488156	12.8123	0.590776	15.6203	0.857929	22.7689	0.223438	6.7754	0.456217	12.1775	0.720807	19.1964	0.944329	25.2147
0.198665	5.12093	0.0569169	1.60711	0.317827	9.36003	0.48927	12.535	0.592291	15.2838	0.858887	22.2443	0.227141	6.69847	0.457985	11.9281	0.721891	18.7598	0.944771	24.6142
0.203235	5.11586	0.0587312	1.62117	0.319518	9.1901	0.49042	12.2715	0.593837	14.964	0.859867	21.745	0.230878	6.62658	0.459789	11.6914	0.723001	18.3444	0.945226	24.0425
0.207786	5.11056	0.0608171	1.63666	0.321493	9.00557	0.491609	12.021	0.595413	14.6595	0.860869	21.2692	0.234645	6.55929	0.461628	11.4665	0.724134	17.9489	0.945694	23.4975
0.212317	5.10502	0.0629068	1.65149	0.323503	8.83138	0.492836	11.7826	0.59702	14.3695	0.861893	20.8154	0.238441	6.49622	0.4635	11.2526	0.725292	17.5718	0.946176	22.9776
0.216826	5.09921	0.0649996	1.66569	0.325547	8.66676	0.494102	11.5555	0.598657	14.0928	0.862938	20.382	0.242264	6.437	0.465407	11.0489	0.726473	17.2119	0.946672	22.481
0.221313	5.09313	0.0670952	1.6793	0.327626	8.51099	0.495408	11.3389	0.600324	13.8288	0.864006	19.9678	0.246114	6.38131	0.467346	10.8549	0.727678	16.8681	0.947182	22.0062
0.225776	5.08677	0.0691932	1.69234	0.329737	8.36343	0.496755	11.1324	0.60202	13.5765	0.865095	19.5715	0.249988	6.32888	0.469063	10.6931	0.728908	16.5394	0.947707	21.5519
0.230213	5.08011	0.0712932	1.70485	0.331882	8.22349	0.498142	10.9351	0.603745	13.3352	0.866205	19.1921	0.253886	6.27945	0.470546	10.5603	0.73016	16.2248	0.948245	21.1167
0.234624	5.07314	0.0733949	1.71686	0.334059	8.09066	0.499385	10.7705	0.605499	13.1042	0.867337	18.8285	0.257806	6.23277	0.471785	10.4538	0.731436	15.9235	0.948798	20.6995
0.239006	5.06584	0.0754981	1.72839	0.336268	7.96445	0.50047	10.6351	0.607281	12.883	0.868491	18.4798	0.261747	6.18865	0.472774	10.3717	0.732735	15.6347	0.949365	20.2993
0.243359	5.0582	0.0776024	1.73946	0.33851	7.84443	0.501384	10.5265	0.609092	12.671	0.869665	18.1451	0.265708	6.14689	0.473506	10.3125	0.734058	15.3576	0.949947	19.915
0.247679	5.05021	0.0797077	1.7501	0.340783	7.7302	0.502118	10.4427	0.61093	12.4676	0.870861	17.8235	0.269688	6.10732	0.473976	10.2751	0.735403	15.0915	0.950544	19.5457
0.251966	5.04184	0.0818137	1.76033	0.343087	7.6214	0.502665	10.3822	0.612796	12.2723	0.872078	17.5145	0.273685	6.06978	0.474655	10.222	0.736771	14.836	0.951156	19.1907
0.256218	5.03308	0.0839204	1.77018	0.345423	7.51771	0.503017	10.344	0.614689	12.0848	0.873315	17.2172	0.277699	6.03412	0.475397	10.1651	0.738161	14.5902	0.951783	18.849
0.260432	5.02392	0.0860275	1.77965	0.347792	7.41881	0.503528	10.2897	0.616609	11.9045	0.874574	16.931	0.281729	6.00021	0.476412	10.0892	0.739574	14.3538	0.952425	18.52
0.264607	5.01433	0.0881349	1.78876	0.350192	7.32445	0.504088	10.2316	0.618556	11.731	0.875853	16.6553	0.285774	5.96793	0.477706	9.99544	0.74101	14.1262	0.953082	18.203
0.26874	5.0043	0.0902424	1.79755	0.352625	7.23436	0.504859	10.154	0.620529	11.5641	0.877153	16.3897	0.289832	5.93717	0.479286	9.88535	0.742467	13.907	0.953755	17.8974
0.27283	4.99382	0.0923501	1.80601	0.35509	7.14831	0.505849	10.0581	0.622529	11.4034	0.878473	16.1335	0.293904	5.90783	0.481161	9.76057	0.743946	13.6957	0.954443	17.6025
0.276874	4.98286	0.0944576	1.81418	0.35759	7.06609	0.507068	9.94549	0.624554	11.2485	0.879814	15.8863	0.297989	5.87981	0.48334	9.6229	0.745447	13.4919	0.955147	17.3179
0.28087	4.97141	0.0965651	1.82205	0.360124	6.98752	0.508529	9.8178	0.626605	11.0992	0.881175	15.6476	0.302085	5.85303	0.485548	9.49081	0.74697	13.2953	0.955867	17.0431
0.284815	4.95947	0.0986725	1.82965	0.362693	6.9124	0.510247	9.6769	0.628412	10.9734	0.882556	15.4171	0.306191	5.82741	0.487784	9.364	0.748514	13.1054	0.956603	16.7775
0.288709	4.947	0.10078	1.83698	0.365298	6.84059	0.512009	9.54172	0.629968	10.8692	0.883957	15.1943	0.310308	5.80287	0.490049	9.24217	0.750079	12.9221	0.957355	16.5207
0.292547	4.93401	0.102886	1.84407	0.36794	6.77192	0.513816	9.41198	0.631265	10.7851	0.885379	14.9788	0.314435	5.77934	0.492341	9.12506	0.751665	12.7448	0.958123	16.2723
0.296329	4.92047	0.104993	1.85091	0.370621	6.70626	0.515669	9.28741	0.632297	10.7198	0.88682	14.7704	0.31857	5.75676	0.494661	9.01242	0.753273	12.5734	0.958908	16.032
0.300052	4.90639	0.107099	1.85753	0.373341	6.64348	0.517567	9.16775	0.63306	10.6726	0.88828	14.5686	0.322713	5.73507	0.497007	8.90402	0.754901	12.4077	0.959709	15.7993
0.303715	4.89175	0.109205	1.86394	0.376102	6.58346	0.51951	9.05277	0.63355	10.6426	0.889761	14.3733	0.326864	5.71423	0.499379	8.79965	0.756549	12.2472	0.960526	15.5739
0.307315	4.87656	0.11131	1.87013	0.378905	6.5261	0.521499	8.94225	0.634256	10.6	0.89126	14.184	0.331022	5.69417	0.501778	8.69909	0.758218	12.0918	0.961361	15.3554
0.31085	4.8608	0.113415	1.87613	0.381752	6.47128	0.523533	8.83598	0.635026	10.5541	0.89278	14.0006	0.335186	5.67484	0.504202	8.60217	0.759907	11.9414	0.962212	15.1437
0.314321	4.84448	0.115519	1.88193	0.384644	6.41892	0.525614	8.73376	0.636079	10.4927	0.894318	13.8228	0.339355	5.65621	0.506651	8.5087	0.761616	11.7955	0.96308	14.9383
0.31729	4.82981	0.117623	1.88756	0.387581	6.36892	0.52774	8.6354	0.637419	10.4165	0.895876	13.6503	0.34353	5.63824	0.509125	8.41852	0.763345	11.6541	0.963965	14.739
0.319781	4.81698	0.119727	1.89301	0.390567	6.3212	0.529912	8.54073	0.639051	10.3264	0.897452	13.4829	0.347709	5.62088	0.511623	8.33147	0.765094	11.517	0.964868	14.5456
0.321812	4.80614	0.12183	1.89829	0.393601	6.27568	0.53213	8.44959	0.640982	10.2234	0.899048	13.3204	0.351893	5.6041	0.514144	8.24741	0.766862	11.384	0.965788	14.3578
0.3234	4.79743	0.123932	1.90342	0.396685	6.23227	0.534393	8.36182	0.643221	10.1089	0.900662	13.1626	0.356079	5.58786	0.51669	8.16619	0.768419	11.2712	0.966726	14.1754
0.324557	4.79095	0.126034	1.90839	0.39982	6.1909	0.536702	8.27728	0.645482	9.99807	0.902295	13.0093	0.360269	5.57214	0.519258	8.08769	0.769758	11.1774	0.967681	13.9982
0.325293	4.78676	0.128135	1.91322	0.403007	6.1515	0.539056	8.19582	0.647767	9.89072	0.903946	12.8604	0.364461	5.5569	0.521849	8.01178	0.770872	11.1013	0.968654	13.8259
0.326345	4.7807	0.130236	1.91791	0.406246	6.11399	0.541455	8.1173	0.650074	9.78672	0.905616	12.7156	0.368655	5.54212	0.524462	7.93835	0.771759	11.0421	0.969645	13.6584
0.327479	4.77405	0.132337	1.92246	0.409538	6.07831	0.543898	8.04162	0.652403	9.68593	0.907305	12.5748	0.37285	5.52776	0.527098	7.8673	0.772414	10.9991	0.970654	13.4955
0.329008	4.7649	0.134436	1.92689	0.412883	6.04437	0.546386	7.96863	0.654755	9.58822	0.909011	12.4379	0.377046	5.51381	0.529755	7.79851	0.772834	10.9718	0.971681	13.337
0.330918	4.75317	0.136536	1.93119	0.416281	6.01212	0.548918	7.89824	0.657129	9.49346	0.910735	12.3046	0.381243	5.50024	0.532433	7.73189	0.77344	10.9329	0.972727	13.1828
0.333193	4.73873	0.138635	1.93537	0.419733	5.98148	0.551494	7.83033	0.659525	9.40152	0.912478	12.1749	0.38544	5.48703	0.535133	7.66735	0.774101	10.891	0.97379	13.0327
0.335813	4.72148	0.140733	1.93944	0.423236	5.95238	0.554113	7.76479	0.661942	9.3123	0.914238	12.0486	0.389636	5.47416	0.537853	7.60481	0.775003	10.8348	0.974873	12.8865
0.338756	4.70127	0.142831	1.9434	0.426792	5.92475	0.556775	7.70154	0.664381	9.22568	0.916016	11.9256	0.39383	5.4616	0.540593	7.54417	0.776151	10.7647	0.975974	12.7441
0.341631	4.68065	0.144928	1.94725	0.430399	5.89853	0.559479	7.64048	0.66684	9.14157	0.917811	11.8058	0.398024	5.44935	0.543354	7.48537	0.777549	10.6815	0.977094	12.6053
0.344439	4.65964	0.147025	1.951	0.434055	5.87364	0.562225	7.58151	0.669321	9.05985	0.919624	11.689	0.402215	5.43737	0.546134	7.42833	0.779201	10.5861	0.978233	12.4701
0.347182	4.63829	0.149122	1.95465	0.43776	5.85002	0.565012	7.52456	0.671822	8.98045	0.921218	11.5896	0.406404	5.42567	0.548934	7.37297	0.781114	10.4795	0.979391	12.3384
0.349861	4.61661	0.151218	1.95821	0.441513	5.82761	0.56784	7.46954	0.674343	8.90328	0.922587	11.5067	0.41059	5.41421	0.551753	7.31925	0.783045	10.3757	0.980568	12.2099
0.352478	4.59465	0.153313	1.96168	0.445311	5.80634	0.570707	7.41637	0.676885	8.82824	0.923726	11.4392	0.414773	5.40298	0.554591	7.26708	0.784994	10.2747	0.981764	12.0846
0.355033	4.57244	0.155408	1.96506	0.449153	5.78614	0.573615	7.36498	0.679447	8.75526	0.924632	11.3866	0.418951	5.39197	0.557448	7.21641	0.786961	10.1763	0.98298	11.9623
0.35753	4.55	0.157503	1.96836	0.453037	5.76696	0.576561	7.3153	0.682029	8.68427	0.9253	11.3484	0.423126	5.38117	0.560323	7.16719	0.788945	10.0805	0.984215	11.8431
0.359971	4.52738	0.159597	1.97158	0.456961	5.74874	0.579546	7.26726	0.68463	8.61519	0.925729	11.324	0.427295	5.37056	0.563216	7.11935	0.790947	9.98722	0.985308	11.7415
0.362356	4.50459	0.161691	1.97472	0.460924	5.73141	0.582568	7.2208	0.687251	8.54795	0.926347	11.2893	0.431459	5.36013	0.566128	7.07286	0.792966	9.89629	0.986251	11.6566
0.364689	4.48168	0.163785	1.97778	0.464924	5.71494	0.585627	7.17585	0.689892	8.4825	0.927021	11.2519	0.435618	5.34987	0.569057	7.02766	0.795002	9.80766	0.98704	11.5876
0.36697	4.45867	0.165878	1.98077	0.468958	5.69925	0.588723	7.13236	0.692551	8.41875	0.92794	11.2015	0.43977	5.33976	0.572005	6.9837	0.797055	9.72125	0.987668	11.5337
0.369204	4.4356	0.16797	1.98369	0.473024	5.68431	0.591854	7.09026	0.695229	8.35666	0.929109	11.1387	0.443915	5.3298	0.574969	6.94094	0.799125	9.63699	0.988134	11.4944
0.37139	4.41248	0.170063	1.98654	0.477122	5.67007	0.595021	7.04951	0.697926	8.29617	0.930531	11.0639	0.448054	5.31998	0.577951	6.89934	0.801211	9.5548	0.988433	11.4695
0.373533	4.38934	0.172154	1.98932	0.481248	5.65648	0.598221	7.01005	0.700642	8.23722	0.932211	10.9779	0.452184	5.31028	0.58095	6.85885	0.803314	9.4746	0.988864	11.4339
0.375633	4.36621	0.174246	1.99205	0.485401	5.64349	0.601455	6.97183	0.703376	8.17977	0.934154	10.8814	0.456307	5.30069	0.583966	6.81945	0.805434	9.39635	0.989336	11.3955
0.377692	4.34312	0.176337	1.99471	0.48958	5.63108	0.604722	6.93481	0.706128	8.12375	0.936114	10.7872	0.46042	5.29121	0.587	6.78109	0.807569	9.31996	0.989982	11.3438
0.379713	4.32007	0.178428	1.99731	0.493782	5.61919	0.608022	6.89893	0.708898	8.06913	0.93809	10.6951	0.464525	5.28183	0.590049	6.74374	0.809721	9.24538	0.990806	11.2793
0.381697	4.2971	0.180519	1.99985	0.498006	5.6078	0.611352	6.86416	0.711686	8.01586	0.940082	10.6052	0.46862	5.27253	0.593116	6.70736	0.811889	9.17256	0.991812	11.2025
0.383647	4.27421	0.182609	2.00234	0.50225	5.59687	0.614714	6.83045	0.714492	7.96389	0.94209	10.5173	0.472705	5.26332	0.596199	6.67193	0.814072	9.10142	0.993007	11.1141
0.385563	4.25143	0.184699	2.00478	0.506513	5.58638	0.618106	6.79777	0.717316	7.91319	0.944114	10.4314	0.476779	5.25418	0.599298	6.63741	0.816272	9.03193	0.994397	11.0148
0.387448	4.22877	0.186788	2.00716	0.510793	5.57628	0.621528	6.76607	0.720157	7.86371	0.946153	10.3474	0.480842	5.2451	0.602414	6.60377	0.818486	8.96402	0.995807	10.9177
0.389303	4.20625	0.188878	2.00949	0.515089	5.56656	0.624978	6.73532	0.723016	7.81542	0.948209	10.2653	0.484894	5.23608	0.605545	6.57099	0.820716	8.89766	0.997239	10.8229
0.39113	4.18387	0.190967	2.01178	0.519399	5.55718	0.628457	6.70548	0.725892	7.76827	0.950279	10.185	0.488933	5.22711	0.608694	6.53904	0.822962	8.83278	0.998691	10.7301
0.39293	4.16165	0.193055	2.01401	0.523722	5.54813	0.631963	6.67652	0.728785	7.72223	0.952366	10.1064	0.49296	5.21818	0.611858	6.5079	0.825222	8.76935	1.00016	10.6394
0.394705	4.1396	0.195144	2.0162	0.528058	5.53939	0.635497	6.64841	0.731695	7.67728	0.954467	10.0296	0.496973	5.20929	0.615038	6.47754	0.827498	8.70732		
0.396456	4.11773	0.197232	2.01835	0.532403	5.53092	0.639056	6.62111	0.734623	7.63337	0.956584	9.95435	0.500973	5.20043	0.618235	6.44793	0.829788	8.64666		
0.398185	4.09604	0.19932	2.02045	0.536759	5.52271	0.642641	6.5946	0.737566	7.59047	0.958716	9.88074	0.504959	5.1916	0.621447	6.41906	0.832094	8.58731		
0.399892	4.07455	0.201407	2.02251	0.541123	5.51475	0.646252	6.56884	0.740527	7.54856	0.960863	9.80868	0.50893	5.18278	0.624676	6.3909	0.834414	8.52924		
0.401578	4.05326	0.203495	2.02453	0.545494	5.50701	0.649886	6.54382	0.743504	7.50761	0.963024	9.73812	0.512886	5.17398	0.62792	6.36344	0.836748	8.47241		
0.403246	4.03217	0.205582	2.02651	0.549872	5.49948	0.653545	6.51949	0.746498	7.46759	0.9652	9.66903	0.516827	5.16518	0.631181	6.33665	0.839097	8.4168		
0.404895	4.0113	0.207669	2.02845	0.554256	5.49214	0.657227	6.49585	0.749508	7.42847	0.967391	9.60137	0.520751	5.15638	0.634457	6.31052	0.841461	8.36235		
0.406528	3.99064	0.209755	2.03036	0.558644	5.48499	0.660932	6.47286	0.752535	7.39022	0.969597	9.53509	0.524659	5.14759	0.63775	6.28503	0.843838	8.30905		
0.408144	3.97019	0.211842	2.03223	0.563037	5.478	0.664659	6.4505	0.755578	7.35283	0.971816	9.47015	0.528549	5.13878	0.641058	6.26015	0.84623	8.25685		
0.409746	3.94997	0.213928	2.03406	0.567432	5.47117	0.668407	6.42875	0.758637	7.31626	0.97405	9.40651	0.532422	5.12997	0.644383	6.23588	0.848636	8.20573		
0.411333	3.92997	0.216014	2.03586	0.571829	5.46448	0.672177	6.40759	0.761712	7.2805	0.976298	9.34415	0.536276	5.12113	0.647723	6.2122	0.851056	8.15565		
0.412906	3.9102	0.2181	2.03762	0.576229	5.45793	0.675967	6.38699	0.764804	7.24553	0.978561	9.28302	0.540112	5.11228	0.65108	6.18908	0.85349	8.1066		
0.414467	3.89065	0.220186	2.03936	0.580629	5.45149	0.679776	6.36694	0.767911	7.21131	0.980837	9.22309	0.543929	5.1034	0.654452	6.16653	0.855937	8.05853		
0.416016	3.87133	0.222271	2.04106	0.585029	5.44518	0.683606	6.34741	0.771034	7.17784	0.983126	9.16434	0.547726	5.09449	0.657841	6.14451	0.858398	8.01143		
0.417554	3.85224	0.224356	2.04273	0.589429	5.43896	0.687454	6.3284	0.774174	7.1451	0.98543	9.10672	0.551503	5.08555	0.661245	6.12303	0.860873	7.96526		
0.419081	3.83338	0.226441	2.04437	0.593827	5.43284	0.691321	6.30988	0.777329	7.11305	0.987747	9.05021	0.555259	5.07658	0.664666	6.10206	0.863362	7.92001		
0.420598	3.81475	0.228526	2.04598	0.598224	5.42681	0.695206	6.29183	0.7805	7.0817	0.990077	8.99478	0.558995	5.06756	0.668103	6.08159	0.865863	7.87565		
0.422107	3.79635	0.23061	2.04757	0.602619	5.42086	0.699108	6.27424	0.783688	7.05101	0.992421	8.94039	0.562709	5.05851	0.671555	6.06161	0.868379	7.83216		
0.423606	3.77818	0.232695	2.04912	0.607011	5.41499	0.703027	6.25709	0.786891	7.02097	0.994778	8.88704	0.566402	5.04941	0.675024	6.04211	0.870907	7.7895		
0.425097	3.76023	0.234779	2.05065	0.6114	5.40918	0.706963	6.24037	0.790109	6.99157	0.997149	8.83468	0.570072	5.04027	0.678509	6.02307	0.873449	7.74768		
0.426581	3.74251	0.236863	2.05215	0.615785	5.40343	0.710914	6.22407	0.793344	6.96279	0.999532	8.78329	0.57372	5.03108	0.68201	6.00449	0.876004	7.70665		
0.428058	3.72502	0.238947	2.05363	0.620165	5.39774	0.714881	6.20816	0.796595	6.93462	1.00193	8.73285	0.577344	5.02183	0.685527	5.98635	0.878572	7.66641		
0.429528	3.70775	0.241031	2.05509	0.624541	5.3921	0.718864	6.19264	0.799861	6.90703			0.580946	5.01253	0.68906	5.96864	0.881154	7.62692		
0.430992	3.69071	0.243114	2.05651	0.628911	5.38651	0.722861	6.17749	0.803143	6.88002			0.584523	5.00318	0.692609	5.95135	0.883748	7.58818		
0.43245	3.67389	0.245198	2.05792	0.633276	5.38095	0.726872	6.1627	0.806442	6.85357			0.588077	4.99378	0.696173	5.93447	0.886355	7.55017		
0.433904	3.65728	0.247281	2.0593	0.637635	5.37543	0.730897	6.14826	0.809756	6.82768			0.591607	4.98431	0.699754	5.91799	0.888975	7.51286		
0.435352	3.6409	0.249364	2.06066	0.641987	5.36994	0.734935	6.13415	0.813086	6.80232			0.595111	4.97479	0.70335	5.9019	0.891608	7.47625		
0.436795	3.62473	0.251447	2.062	0.646332	5.36448	0.738987	6.12037	0.816432	6.77749			0.598591	4.96521	0.706962	5.88619	0.894254	7.44031		
0.438235	3.60877	0.25353	2.06331	0.650669	5.35904	0.74305	6.10691	0.819794	6.75316			0.602046	4.95557	0.710589	5.87085	0.896913	7.40503		
0.439671	3.59303	0.255613	2.06461	0.654999	5.35362	0.747126	6.09374	0.823172	6.72934			0.605476	4.94587	0.714232	5.85587	0.899584	7.37038		
0.441103	3.57749	0.257695	2.06588	0.659321	5.34822	0.751214	6.08087	0.826567	6.70602			0.60888	4.93611	0.71789	5.84124	0.902268	7.33637		
0.442532	3.56217	0.259778	2.06714	0.663634	5.34282	0.755312	6.06828	0.829977	6.68317			0.612259	4.92629	0.721563	5.82695	0.904965	7.30297		
0.443958	3.54704	0.26186	2.06837	0.667939	5.33744	0.759422	6.05597	0.833404	6.66079			0.615611	4.91641	0.725251	5.813	0.907674	7.27017		
0.445382	3.53212	0.263942	2.06959	0.672234	5.33207	0.763542	6.04392	0.836847	6.63888			0.618938	4.90647	0.728954	5.79937	0.910395	7.23796		
0.446803	3.51741	0.266025	2.07079	0.67652	5.3267	0.767672	6.03212	0.840307	6.61741			0.622238	4.89647	0.732672	5.78606	0.91313	7.20632		
0.448222	3.50289	0.268106	2.07197	0.680795	5.32133	0.771811	6.02058	0.843783	6.59639			0.625513	4.88641	0.736404	5.77306	0.915876	7.17524		
0.449639	3.48856	0.270188	2.07313	0.685061	5.31596	0.77596	6.00926	0.847276	6.5758			0.628761	4.8763	0.74015	5.76035	0.918636	7.1447		
0.451055	3.47443	0.27227	2.07427	0.689316	5.31058	0.780118	5.99818	0.850785	6.55563			0.631983	4.86612	0.74391	5.74794	0.921407	7.11471		
0.452469	3.46049	0.274352	2.0754	0.693561	5.3052	0.784284	5.98732	0.854311	6.53588			0.635179	4.85589	0.747684	5.7358	0.924191	7.08523		
0.453882	3.44674	0.276433	2.07651	0.697794	5.29981	0.788458	5.97668	0.857854	6.51653			0.638348	4.84561	0.751471	5.72394	0.926988	7.05627		
0.455295	3.43317	0.278514	2.0776	0.702016	5.29441	0.792639	5.96624	0.861414	6.49759			0.641491	4.83527	0.755272	5.71235	0.929796	7.02781		
0.456706	3.41979	0.280596	2.07868	0.706226	5.289	0.796828	5.956	0.864991	6.47904			0.644608	4.82488	0.759085	5.70102	0.932617	6.99983		
0.458117	3.40659	0.282677	2.07975	0.710425	5.28358	0.801024	5.94595	0.868586	6.46087			0.647698	4.81444	0.762911	5.68994	0.93545	6.97234		
0.459527	3.39356	0.284758	2.08079	0.714611	5.27814	0.805226	5.93609	0.872197	6.44308			0.650763	4.80395	0.766749	5.6791	0.938296	6.94532		
0.460937	3.38072	0.286839	2.08183	0.718785	5.27268	0.809434	5.92641	0.875826	6.42567			0.653801	4.79341	0.770599	5.6685	0.941154	6.91876		
0.462347	3.36804	0.28892	2.08284	0.722946	5.26721	0.813648	5.9169	0.879473	6.40861			0.656814	4.78282	0.77446	5.65813	0.944023	6.89265		
0.463758	3.35554	0.291001	2.08385	0.727094	5.26171	0.817868	5.90756	0.883137	6.39192			0.6598	4.77219	0.778333	5.64798	0.946905	6.86697		
0.465168	3.34321	0.293081	2.08484	0.731229	5.2562	0.822092	5.89838	0.886819	6.37558			0.662761	4.76152	0.782217	5.63805	0.9498	6.84174		
0.466578	3.33104	0.295162	2.08581	0.735351	5.25066	0.826321	5.88935	0.890519	6.35958			0.665697	4.75081	0.786112	5.62832	0.952706	6.81692		
0.467989	3.31904	0.297242	2.08678	0.739459	5.2451	0.830553	5.88047	0.894236	6.34392			0.668607	4.74006	0.790017	5.6188	0.955624	6.79252		
0.469401	3.30719	0.299323	2.08773	0.743553	5.23951	0.83479	5.87173	0.897972	6.32859			0.671492	4.72928	0.793931	5.60947	0.958555	6.76852		
0.470814	3.29551	0.301403	2.08866	0.747633	5.2339	0.83903	5.86313	0.901726	6.31359			0.674352	4.71846	0.797855	5.60033	0.961497	6.74493		
0.472227	3.28399	0.303483	2.08959	0.751699	5.22826	0.843274	5.85467	0.905499	6.29891			0.677187	4.70761	0.801789	5.59137	0.964451	6.72172		
0.473641	3.27262	0.305563	2.0905	0.75575	5.2226	0.84752	5.84633	0.909289	6.28455			0.679997	4.69673	0.805731	5.58259	0.967418	6.69889		
0.475056	3.2614	0.307643	2.0914	0.759787	5.2169	0.851768	5.83812	0.913099	6.2705			0.682783	4.68582	0.809681	5.57398	0.970396	6.67644		
0.476472	3.25033	0.309723	2.09229	0.763808	5.21118	0.856019	5.83002	0.916927	6.25676			0.685546	4.67488	0.81364	5.56553	0.973386	6.65436		
0.47789	3.23941	0.311803	2.09316	0.767815	5.20543	0.860271	5.82204	0.920773	6.24331			0.688284	4.66392	0.817606	5.55724	0.976388	6.63264		
0.479308	3.22864	0.313883	2.09403	0.771807	5.19965	0.864525	5.81416	0.924639	6.23016			0.690998	4.65294	0.821579	5.54911	0.979402	6.61127		
0.480729	3.21801	0.315963	2.09488	0.775783	5.19383	0.86878	5.8064	0.928523	6.21731			0.69369	4.64194	0.825559	5.54112	0.982428	6.59025		
0.48215	3.20752	0.318043	2.09572	0.779744	5.18799	0.873035	5.79873	0.932426	6.20473			0.696358	4.63092	0.829545	5.53327	0.985465	6.56956		
0.483573	3.19717	0.320122	2.09656	0.783689	5.18211	0.877291	5.79116	0.936348	6.19244			0.699003	4.61989	0.833538	5.52556	0.988515	6.54921		
0.484998	3.18696	0.322202	2.09738	0.787618	5.17621	0.881548	5.78369	0.94029	6.18042			0.701625	4.60884	0.837536	5.51799	0.991576	6.52919		
0.486424	3.17688	0.324281	2.09819	0.791531	5.17027	0.885804	5.7763	0.94425	6.16868			0.704226	4.59778	0.841539	5.51054	0.994648	6.50949		
0.487853	3.16694	0.32636	2.09899	0.795428	5.16429	0.89006	5.769	0.948229	6.1572			0.706804	4.58671	0.845548	5.50321	0.997733	6.4901		
0.489283	3.15713	0.32844	2.09978	0.799309	5.15829	0.894315	5.76179	0.952228	6.14598			0.70936	4.57564	0.849561	5.496	1.00083	6.47102		
0.490714	3.14745	0.330519	2.10056	0.803174	5.15225	0.898569	5.75466	0.956245	6.13501			0.711895	4.56456	0.853578	5.48891				
0.492148	3.13789	0.332598	2.10133	0.807022	5.14618	0.902822	5.7476	0.960282	6.1243			0.714409	4.55347	0.857598	5.48192				
0.493584	3.12846	0.334677	2.10209	0.810853	5.14007	0.907074	5.74062	0.964337	6.11384			0.716902	4.54239	0.861623	5.47503				
0.495021	3.11915	0.336756	2.10285	0.814668	5.13393	0.911324	5.73371	0.968412	6.10362			0.719374	4.5313	0.86565	5.46825				
0.496461	3.10997	0.338835	2.10359	0.818466	5.12776	0.915573	5.72687	0.972506	6.09364			0.721826	4.52022	0.86968	5.46156				
0.497903	3.1009	0.340914	2.10433	0.822247	5.12155	0.919819	5.72009	0.976618	6.08389			0.724257	4.50914	0.873712	5.45497				
0.499347	3.09195	0.342993	2.10505	0.826012	5.11532	0.924064	5.71339	0.98075	6.07437			0.726669	4.49806	0.877746	5.44846				
0.500793	3.08312	0.345072	2.10577	0.829759	5.10904	0.928306	5.70674	0.9849	6.06508			0.729062	4.487	0.881781	5.44204				
0.502242	3.0744	0.347151	2.10648	0.833489	5.10274	0.932546	5.70016	0.989069	6.056			0.731435	4.47594	0.885818	5.4357				
0.503692	3.0658	0.349229	2.10718	0.837202	5.0964	0.936783	5.69363	0.993256	6.04714			0.73379	4.46489	0.889856	5.42943				
0.505145	3.0573	0.351308	2.10787	0.840898	5.09003	0.941017	5.68716	0.997461	6.0385			0.736126	4.45385	0.893894	5.42324				
0.506601	3.04892	0.353386	2.10855	0.844577	5.08363	0.945249	5.68075	1.00169	6.03005			0.738444	4.44283	0.897932	5.41712				
0.508058	3.04064	0.355465	2.10923	0.848238	5.07719	0.949478	5.67439					0.740743	4.43182	0.901971	5.41107				
0.509518	3.03247	0.357543	2.1099	0.851882	5.07073	0.953703	5.66808					0.743025	4.42083	0.906008	5.40508				
0.510981	3.0244	0.359622	2.11056	0.855509	5.06423	0.957926	5.66183					0.74529	4.40986	0.910045	5.39915				
0.512446	3.01644	0.3617	2.11121	0.859118	5.0577	0.962145	5.65562					0.747537	4.39891	0.914081	5.39328				
0.513913	3.00858	0.363778	2.11186	0.86271	5.05114	0.966361	5.64946					0.749767	4.38798	0.918115	5.38747				
0.515383	3.00081	0.365857	2.1125	0.866284	5.04455	0.970574	5.64335					0.751981	4.37707	0.922147	5.38171				
0.516855	2.99315	0.367935	2.11313	0.869841	5.03793	0.974783	5.63729					0.754179	4.36618	0.926178	5.376				
0.51833	2.98558	0.370013	2.11375	0.87338	5.03128	0.97899	5.63127					0.75636	4.35532	0.930206	5.37034				
0.519807	2.97811	0.372091	2.11437	0.876902	5.0246	0.983192	5.6253					0.758526	4.34448	0.934231	5.36472				
0.521287	2.97073	0.374169	2.11498	0.880407	5.01789	0.987392	5.61937					0.760677	4.33367	0.938253	5.35914				
0.522769	2.96344	0.376247	2.11559	0.883894	5.01115	0.991587	5.61349					0.762812	4.32289	0.942272	5.35361				
0.524254	2.95624	0.378325	2.11618	0.887363	5.00439	0.99578	5.60764					0.764932	4.31214	0.946287	5.34811				
0.525741	2.94914	0.380403	2.11678	0.890815	4.9976	0.999969	5.60184					0.767038	4.30142	0.950299	5.34265				
0.527231	2.94212	0.382481	2.11736	0.89425	4.99078	1.00415	5.59608					0.769129	4.29072	0.954306	5.33722				
0.528724	2.93519	0.384558	2.11794	0.897668	4.98394							0.771206	4.28007	0.958309	5.33183				
0.530219	2.92834	0.386636	2.11851	0.901068	4.97707							0.773269	4.26944	0.962307	5.32646				
0.531717	2.92158	0.388714	2.11908	0.904451	4.97018							0.775319	4.25885	0.9663	5.32112				
0.533218	2.9149	0.390792	2.11964	0.907816	4.96326							0.777355	4.24829	0.970288	5.31581				
0.534721	2.90831	0.392869	2.12019	0.911165	4.95632							0.779378	4.23777	0.97427	5.31052				
0.536226	2.90179	0.394947	2.12074	0.914496	4.94936							0.781389	4.22729	0.978247	5.30525				
0.537735	2.89536	0.397024	2.12128	0.91781	4.94237							0.783386	4.21684	0.982217	5.3				
0.539246	2.889	0.399102	2.12182	0.921107	4.93537							0.785372	4.20643	0.986182	5.29478				
0.540759	2.88272	0.401179	2.12235	0.924387	4.92834							0.787345	4.19606	0.990139	5.28957				
0.542275	2.87652	0.403257	2.12288	0.92765	4.92129							0.789306	4.18573	0.99409	5.28437				
0.543794	2.87039	0.405334	2.1234	0.930896	4.91422							0.791256	4.17544	0.998035	5.27919				
0.545316	2.86433	0.407411	2.12392	0.934125	4.90713							0.793194	4.16519	1.00197	5.27402				
0.54684	2.85835	0.409489	2.12443	0.937338	4.90003							0.795121	4.15498						
0.548367	2.85244	0.411566	2.12493	0.940534	4.8929							0.797037	4.14481						
0.549896	2.8466	0.413643	2.12543	0.943713	4.88576							0.798943	4.13469						
0.551428	2.84083	0.41572	2.12593	0.946876	4.8786							0.800838	4.12461						
0.552963	2.83512	0.417797	2.12642	0.950022	4.87143							0.802722	4.11457						
0.5545	2.82949	0.419875	2.12691	0.953152	4.86424							0.804597	4.10457						
0.55604	2.82392	0.421952	2.12739	0.956265	4.85703							0.806461	4.09462						
0.557582	2.81842	0.424029	2.12786	0.959362	4.84981							0.808316	4.08472						
0.559127	2.81298	0.426106	2.12834	0.962443	4.84258							0.810162	4.07486						
0.560675	2.80761	0.428183	2.1288	0.965508	4.83533							0.811998	4.06505						
0.562225	2.8023	0.43026	2.12927	0.968557	4.82808							0.813825	4.05528						
0.563778	2.79705	0.432336	2.12973	0.97159	4.82081							0.815643	4.04556						
0.565334	2.79186	0.434413	2.13018	0.974607	4.81352							0.817453	4.03588						
0.566892	2.78673	0.43649	2.13063	0.977609	4.80623							0.819254	4.02625						
0.568453	2.78167	0.438567	2.13107	0.980595	4.79893							0.821047	4.01667						
0.570016	2.77666	0.440644	2.13152	0.983565	4.79162							0.822832	4.00714						
0.571582	2.7717	0.44272	2.13195	0.986519	4.7843							0.824608	3.99765						
0.57315	2.76681	0.444797	2.13239	0.989459	4.77697							0.826377	3.98822						
0.574721	2.76197	0.446874	2.13282	0.992383	4.76963							0.828139	3.97883						
0.576294	2.75719	0.44895	2.13324	0.995291	4.76228							0.829893	3.96949						
0.57787	2.75246	0.451027	2.13366	0.998185	4.75493							0.83164	3.96019						
0.579449	2.74778	0.453104	2.13408	1.00106	4.74757							0.833379	3.95095						
0.58103	2.74316	0.45518	2.13449									0.835112	3.94175						
0.582613	2.73859	0.457257	2.1349									0.836838	3.93261						
0.584199	2.73407	0.459333	2.13531									0.838558	3.92351						
0.585788	2.7296	0.46141	2.13571									0.840271	3.91446						
0.587379	2.72518	0.463486	2.13611									0.841978	3.90546						
0.588972	2.72081	0.465562	2.13651									0.843678	3.89651						
0.590568	2.7165	0.467639	2.1369									0.845373	3.88761						
0.592166	2.71222	0.469715	2.13729									0.847062	3.87875						
0.593767	2.708	0.471791	2.13767									0.848745	3.86995						
0.59537	2.70382	0.473868	2.13805									0.850423	3.8612						
0.596976	2.69969	0.475944	2.13843									0.852095	3.85249						
0.598583	2.6956	0.47802	2.13881									0.853762	3.84384						
0.600194	2.69156	0.480096	2.13918									0.855423	3.83523						
0.601807	2.68757	0.482172	2.13955									0.85708	3.82667						
0.603422	2.68361	0.484249	2.13991									0.858732	3.81817						
0.605039	2.6797	0.486325	2.14028									0.860379	3.80971						
0.606659	2.67584	0.488401	2.14064									0.862021	3.8013						
0.608281	2.67201	0.490477	2.14099									0.863659	3.79294						
0.609906	2.66823	0.492553	2.14135									0.865293	3.78463						
0.611532	2.66448	0.494629	2.1417									0.866922	3.77636						
0.613161	2.66078	0.496705	2.14204									0.868547	3.76815						
0.614793	2.65712	0.498781	2.14239									0.870168	3.75998						
0.616426	2.65349	0.500857	2.14273									0.871785	3.75187						
0.618062	2.6499	0.502933	2.14307									0.873398	3.7438						
0.619701	2.64636	0.505009	2.14341									0.875008	3.73578						
0.621341	2.64285	0.507085	2.14374									0.876614	3.7278						
0.622984	2.63937	0.50916	2.14407									0.878216	3.71988						
0.624628	2.63594	0.511236	2.1444									0.879815	3.712						
0.626276	2.63254	0.513312	2.14472									0.88141	3.70417						
0.627925	2.62917	0.515388	2.14505									0.883003	3.69639						
0.629576	2.62585	0.517464	2.14537									0.884592	3.68866						
0.63123	2.62255	0.519539	2.14568									0.886178	3.68097						
0.632886	2.61929	0.521615	2.146									0.887761	3.67333						
0.634544	2.61607	0.523691	2.14631									0.889341	3.66574						
0.636204	2.61287	0.525766	2.14662									0.890919	3.65819						
0.637866	2.60971	0.527842	2.14693									0.892494	3.65069						
0.63953	2.60659	0.529918	2.14724									0.894066	3.64324						
0.641197	2.60349	0.531993	2.14754									0.895635	3.63583						
0.642865	2.60043	0.534069	2.14784									0.897203	3.62847						
0.644536	2.5974	0.536144	2.14814									0.898767	3.62115						
0.646208	2.5944	0.53822	2.14843									0.90033	3.61388						
0.647883	2.59143	0.540296	2.14873									0.90189	3.60666						
0.64956	2.58849	0.542371	2.14902									0.903448	3.59948						
0.651239	2.58558	0.544447	2.14931									0.905004	3.59234						
0.652919	2.5827	0.546522	2.14959									0.906558	3.58525						
0.654602	2.57985	0.548597	2.14988									0.90811	3.5782						
0.656287	2.57703	0.550673	2.15016									0.909661	3.5712						
0.657974	2.57423	0.552748	2.15044									0.911209	3.56424						
0.659663	2.57146	0.554824	2.15072									0.912756	3.55733						
0.661353	2.56873	0.556899	2.151									0.914301	3.55046						
0.663046	2.56601	0.558974	2.15127									0.915844	3.54363						
0.664741	2.56333	0.56105	2.15154									0.917386	3.53685						
0.666437	2.56067	0.563125	2.15181									0.918926	3.5301						
0.668136	2.55804	0.5652	2.15208									0.920465	3.52341						
0.669836	2.55544	0.567275	2.15235									0.922003	3.51675						
0.671538	2.55286	0.569351	2.15261									0.923539	3.51013						
0.673242	2.5503	0.571426	2.15287									0.925074	3.50356						
0.674948	2.54777	0.573501	2.15314									0.926608	3.49703						
0.676656	2.54527	0.575576	2.15339									0.92814	3.49054						
0.678366	2.54279	0.577651	2.15365									0.929672	3.48409						
0.680077	2.54033	0.579727	2.15391									0.931202	3.47769						
0.681791	2.5379	0.581802	2.15416									0.932732	3.47132						
0.683506	2.53549	0.583877	2.15441									0.93426	3.46499						
0.685223	2.5331	0.585952	2.15466									0.935788	3.45871						
0.686942	2.53074	0.588027	2.15491									0.937315	3.45246						
0.688662	2.5284	0.590102	2.15515									0.938841	3.44626						
0.690384	2.52608	0.592177	2.1554									0.940366	3.44009						
0.692108	2.52379	0.594252	2.15564									0.94189	3.43396						
0.693834	2.52151	0.596327	2.15588									0.943414	3.42787						
0.695562	2.51926	0.598402	2.15612									0.944937	3.42182						
0.697291	2.51703	0.600477	2.15636									0.94646	3.41581						
0.699022	2.51482	0.602552	2.15659									0.947982	3.40984						
0.700755	2.51263	0.604627	2.15683									0.949503	3.40391						
0.702489	2.51047	0.606702	2.15706									0.951024	3.39801						
0.704225	2.50832	0.608777	2.15729									0.952545	3.39215						
0.705963	2.50619	0.610852	2.15752									0.954065	3.38633						
0.707703	2.50408	0.612927	2.15775									0.955585	3.38054						
0.709444	2.502	0.615002	2.15797									0.957104	3.3748						
0.711186	2.49993	0.617076	2.1582									0.958624	3.36908						
0.712931	2.49788	0.619151	2.15842									0.960143	3.36341						
0.714677	2.49585	0.621226	2.15864									0.961661	3.35777						
0.716424	2.49384	0.623301	2.15886									0.96318	3.35217						
0.718173	2.49185	0.625376	2.15908									0.964698	3.3466						
0.719924	2.48987	0.62745	2.1593									0.966216	3.34107						
0.721677	2.48791	0.629525	2.15952									0.967735	3.33557						
0.723431	2.48598	0.6316	2.15973									0.969253	3.33011						
0.725186	2.48406	0.633675	2.15994									0.970771	3.32468						
0.726943	2.48215	0.635749	2.16016									0.972289	3.31929						
0.728702	2.48027	0.637824	2.16037									0.973807	3.31393						
0.730462	2.4784	0.639899	2.16058									0.975325	3.30861						
0.732223	2.47655	0.641973	2.16078									0.976843	3.30332						
0.733987	2.47471	0.644048	2.16099									0.978361	3.29806						
0.735751	2.47289	0.646123	2.16119									0.979879	3.29284						
0.737517	2.47109	0.648197	2.1614									0.981398	3.28765						
0.739285	2.46931	0.650272	2.1616									0.982916	3.28249						
0.741054	2.46754	0.652346	2.1618									0.984435	3.27736						
0.742825	2.46578	0.654421	2.162									0.985954	3.27227						
0.744597	2.46404	0.656496	2.1622									0.987474	3.26721						
0.74637	2.46232	0.65857	2.1624									0.988993	3.26218						
0.748145	2.46061	0.660645	2.16259									0.990513	3.25718						
0.749922	2.45892	0.662719	2.16279									0.992033	3.25222						
0.7517	2.45724	0.664794	2.16298									0.993554	3.24729						
0.753479	2.45558	0.666868	2.16317									0.995075	3.24238						
0.755259	2.45393	0.668943	2.16336									0.996596	3.23751						
0.757041	2.4523	0.671017	2.16355									0.998117	3.23267						
0.758825	2.45068	0.673091	2.16374									0.999639	3.22786						
0.76061	2.44908	0.675166	2.16393									1.00116	3.22308						
0.762396	2.44748	0.67724	2.16411																
0.764183	2.44591	0.679315	2.1643																
0.765972	2.44434	0.681389	2.16448																
0.767762	2.44279	0.683463	2.16467																
0.769554	2.44126	0.685538	2.16485																
0.771347	2.43973	0.687612	2.16503																
0.773141	2.43822	0.689686	2.16521																
0.774937	2.43673	0.691761	2.16539																
0.776733	2.43524	0.693835	2.16556																
0.778531	2.43377	0.695909	2.16574																
0.780331	2.43231	0.697984	2.16592																
0.782132	2.43086	0.700058	2.16609																
0.783934	2.42943	0.702132	2.16626																
0.785737	2.42801	0.704206	2.16643																
0.787541	2.4266	0.706281	2.16661																
0.789347	2.4252	0.708355	2.16678																
0.791154	2.42381	0.710429	2.16694																
0.792962	2.42244	0.712503	2.16711																
0.794772	2.42107	0.714577	2.16728																
0.796582	2.41972	0.716651	2.16745																
0.798394	2.41838	0.718726	2.16761																
0.800207	2.41705	0.7208	2.16778																
0.802021	2.41573	0.722874	2.16794																
0.803837	2.41443	0.724948	2.1681																
0.805653	2.41313	0.727022	2.16826																
0.807471	2.41184	0.729096	2.16842																
0.80929	2.41057	0.73117	2.16858																
0.81111	2.4093	0.733244	2.16874																
0.812931	2.40805	0.735318	2.1689																
0.814754	2.4068	0.737392	2.16905																
0.816577	2.40557	0.739466	2.16921																
0.818402	2.40435	0.74154	2.16937																
0.820228	2.40313	0.743614	2.16952																
0.822055	2.40193	0.745688	2.16967																
0.823883	2.40073	0.747762	2.16983																
0.825712	2.39955	0.749836	2.16998																
0.827542	2.39837	0.75191	2.17013																
0.829373	2.39721	0.753984	2.17028																
0.831206	2.39605	0.756058	2.17043																
0.833039	2.39491	0.758132	2.17057																
0.834874	2.39377	0.760206	2.17072																
0.836709	2.39264	0.76228	2.17087																
0.838546	2.39152	0.764353	2.17101																
0.840383	2.39041	0.766427	2.17116																
0.842222	2.38931	0.768501	2.1713																
0.844062	2.38821	0.770575	2.17145																
0.845903	2.38713	0.772649	2.17159																
0.847745	2.38605	0.774723	2.17173																
0.849587	2.38499	0.776796	2.17187																
0.851431	2.38393	0.77887	2.17201																
0.853276	2.38288	0.780944	2.17215																
0.855122	2.38183	0.783018	2.17229																
0.856969	2.3808	0.785092	2.17243																
0.858817	2.37977	0.787165	2.17256																
0.860666	2.37876	0.789239	2.1727																
0.862515	2.37775	0.791313	2.17284																
0.864366	2.37674	0.793386	2.17297																
0.866218	2.37575	0.79546	2.17311																
0.86807	2.37476	0.797534	2.17324																
0.869924	2.37378	0.799607	2.17337																
0.871779	2.37281	0.801681	2.1735																
0.873634	2.37185	0.803755	2.17364																
0.875491	2.37089	0.805828	2.17377																
0.877348	2.36994	0.807902	2.1739																
0.879206	2.369	0.809976	2.17403																
0.881066	2.36806	0.812049	2.17415																
0.882926	2.36713	0.814123	2.17428																
0.884787	2.36621	0.816196	2.17441																
0.886649	2.3653	0.81827	2.17454																
0.888512	2.36439	0.820343	2.17466																
0.890375	2.36349	0.822417	2.17479																
0.89224	2.3626	0.824491	2.17491																
0.894105	2.36171	0.826564	2.17504																
0.895972	2.36083	0.828638	2.17516																
0.897839	2.35996	0.830711	2.17528																
0.899707	2.35909	0.832785	2.1754																
0.901576	2.35823	0.834858	2.17553																
0.903446	2.35738	0.836932	2.17565																
0.905317	2.35653	0.839005	2.17577																
0.907188	2.35569	0.841078	2.17589																
0.909061	2.35485	0.843152	2.17601																
0.910934	2.35402	0.845225	2.17613																
0.912808	2.3532	0.847299	2.17624																
0.914683	2.35238	0.849372	2.17636																
0.916559	2.35157	0.851445	2.17648																
0.918435	2.35077	0.853519	2.17659																
0.920312	2.34997	0.855592	2.17671																
0.92219	2.34917	0.857666	2.17682																
0.924069	2.34839	0.859739	2.17694																
0.925949	2.34761	0.861812	2.17705																
0.92783	2.34683	0.863886	2.17717																
0.929711	2.34606	0.865959	2.17728																
0.931593	2.3453	0.868032	2.17739																
0.933476	2.34454	0.870105	2.1775																
0.93536	2.34378	0.872179	2.17761																
0.937244	2.34303	0.874252	2.17772																
0.939129	2.34229	0.876325	2.17783																
0.941015	2.34155	0.878399	2.17794																
0.942902	2.34082	0.880472	2.17805																
0.944789	2.3401	0.882545	2.17816																
0.946677	2.33937	0.884618	2.17827																
0.948566	2.33866	0.886691	2.17838																
0.950456	2.33795	0.888765	2.17848																
0.952346	2.33724	0.890838	2.17859																
0.954238	2.33654	0.892911	2.1787																
0.956129	2.33584	0.894984	2.1788																
0.958022	2.33515	0.897057	2.17891																
0.959915	2.33446	0.899131	2.17901																
0.961809	2.33378	0.901204	2.17911																
0.963704	2.3331	0.903277	2.17922																
0.9656	2.33243	0.90535	2.17932																
0.967496	2.33176	0.907423	2.17942																
0.969393	2.3311	0.909496	2.17953																
0.97129	2.33044	0.911569	2.17963																
0.973188	2.32979	0.913642	2.17973																
0.975087	2.32914	0.915715	2.17983																
0.976987	2.3285	0.917788	2.17993																
0.978887	2.32786	0.919861	2.18003																
0.980788	2.32722	0.921935	2.18013																
0.98269	2.32659	0.924008	2.18023																
0.984592	2.32596	0.926081	2.18032																
0.986495	2.32534	0.928154	2.18042																
0.988399	2.32472	0.930227	2.18052																
0.990303	2.32411	0.9323	2.18062																
0.992208	2.3235	0.934372	2.18071																
0.994113	2.32289	0.936445	2.18081																
0.99602	2.32229	0.938518	2.1809																
0.997927	2.32169	0.940591	2.181																
0.999834	2.3211	0.942664	2.18109																
1.00174	2.32051	0.944737	2.18119																
		0.94681	2.18128																
		0.948883	2.18138																
		0.950956	2.18147																
		0.953029	2.18156																
		0.955102	2.18165																
		0.957175	2.18174																
		0.959247	2.18184																
		0.96132	2.18193																
		0.963393	2.18202																
		0.965466	2.18211																
		0.967539	2.1822																
		0.969612	2.18229																
		0.971684	2.18237																
		0.973757	2.18246																
		0.97583	2.18255																
		0.977903	2.18264																
		0.979975	2.18273																
		0.982048	2.18281																
		0.984121	2.1829																
		0.986194	2.18299																
		0.988266	2.18307																
		0.990339	2.18316																
		0.992412	2.18324																
		0.994484	2.18333																
		0.996557	2.18341																
		0.99863	2.1835																
		1.0007	2.18358																
