Sym0		Asym0		Sym1		Sym2		Sym3		Sym4		Asym1		Asym2		Asym3		Asym4	
468  Points		496  Points		233  Points		199  Points		185  Points		129  Points		339  Points		211  Points		173  Points		108  Points	
Freq (MHz)	Vph (m/ms)	Freq (MHz)	Vph (m/ms)	Freq (MHz)	Vph (m/ms)	Freq (MHz)	Vph (m/ms)	Freq (MHz)	Vph (m/ms)	Freq (MHz)	Vph (m/ms)	Freq (MHz)	Vph (m/ms)	Freq (MHz)	Vph (m/ms)	Freq (MHz)	Vph (m/ms)	Freq (MHz)	Vph (m/ms)
0.00446229	5.17584	0.000373407	0.167141	0.27952	499.106	0.467672	595.291	0.559023	1056.19	0.838528	1796.68	0.139797	221.527	0.419264	2372.72	0.698773	2143.35	0.93533	4920.08
0.00928447	5.17577	0.00074699	0.235958	0.279589	187.425	0.4677	272.344	0.559066	382.666	0.838552	599.649	0.140018	89.5966	0.419296	378.291	0.698796	555.608	0.935336	833.782
0.0141062	5.17558	0.00124499	0.303844	0.279721	115.423	0.467749	176.575	0.559149	233.692	0.8386	359.899	0.140424	56.2946	0.419377	205.568	0.698847	319.194	0.935352	455.493
0.0189273	5.17532	0.00186381	0.3706	0.279915	83.429	0.467818	130.65	0.559271	168.234	0.838671	257.119	0.141014	41.1582	0.419505	141.162	0.698925	223.935	0.935376	313.339
0.0237476	5.17498	0.00259884	0.435984	0.280171	65.3564	0.467909	103.694	0.559434	131.444	0.838766	200.016	0.141784	32.5354	0.41968	107.514	0.69903	172.481	0.93541	238.815
0.0285669	5.17458	0.00344524	0.49985	0.28049	53.7489	0.468021	85.9685	0.559636	107.876	0.838885	163.679	0.14273	26.9835	0.419903	86.8433	0.699163	140.268	0.935454	192.934
0.0333849	5.17409	0.00439728	0.562007	0.28087	45.6683	0.468153	73.4267	0.559878	91.4915	0.839028	138.525	0.143847	23.1219	0.420173	72.8597	0.699323	118.205	0.935506	161.845
0.0382014	5.17353	0.00544923	0.622347	0.281312	39.7226	0.468308	64.086	0.56016	79.4423	0.839194	120.081	0.145129	20.2895	0.42049	62.7731	0.69951	102.15	0.935568	139.388
0.0430161	5.17288	0.0065951	0.680775	0.281814	35.167	0.468483	56.8604	0.560481	70.2107	0.839384	105.979	0.14657	18.1295	0.420854	55.1559	0.699724	89.9437	0.935639	122.407
0.0478289	5.17215	0.00782863	0.737205	0.282378	31.5672	0.468681	51.1053	0.560841	62.9131	0.839598	94.8488	0.148164	16.4329	0.421265	49.202	0.699966	80.3517	0.93572	109.117
0.0526396	5.17135	0.0091437	0.791592	0.283001	28.6525	0.4689	46.4139	0.561241	57.0006	0.839836	85.8406	0.149903	15.0687	0.421723	44.4216	0.700235	72.6161	0.93581	98.4332
0.0574479	5.17047	0.0105344	0.843918	0.283684	26.2459	0.469141	42.5168	0.56168	52.1139	0.840097	78.4012	0.151782	13.9509	0.422228	40.5001	0.700531	66.2461	0.93591	89.6573
0.0622536	5.1695	0.0119949	0.894177	0.284425	24.2262	0.469405	39.2284	0.562158	48.0082	0.840382	72.154	0.153792	13.0206	0.422779	37.2262	0.700854	60.9101	0.936019	82.3204
0.0670562	5.16844	0.0135194	0.942373	0.285225	22.5081	0.469691	36.4168	0.562675	44.5108	0.84069	66.8342	0.155928	12.2362	0.423376	34.4524	0.701204	56.3757	0.936138	76.0956
0.0718558	5.1673	0.0151027	0.988539	0.286082	21.0296	0.47	33.9857	0.56323	41.4963	0.841022	62.2498	0.158182	11.5674	0.424019	32.073	0.701581	52.4753	0.936267	70.748
0.076652	5.16608	0.0167397	1.03271	0.286996	19.7445	0.470333	31.8631	0.563824	38.8718	0.841377	58.2585	0.160548	10.9916	0.424708	30.0102	0.701985	49.0849	0.936406	66.1045
0.0814444	5.16476	0.0184257	1.07494	0.287966	18.6179	0.470689	29.9941	0.564456	36.5665	0.841756	54.7525	0.162697	10.5521	0.425442	28.2052	0.702416	46.1111	0.936554	62.0349
0.0862329	5.16335	0.0201562	1.11527	0.288991	17.6226	0.471069	28.336	0.565126	34.526	0.842159	51.6487	0.164589	10.2162	0.426222	26.613	0.702874	43.4817	0.936713	58.4389
0.0910171	5.16185	0.0219271	1.15378	0.29007	16.7375	0.471474	26.8552	0.565833	32.7075	0.842585	48.8817	0.166193	9.96194	0.427046	25.1986	0.703359	41.1404	0.936882	55.2387
0.0957967	5.16025	0.0237346	1.19052	0.291203	15.9456	0.471903	25.525	0.566579	31.0769	0.843034	46.3998	0.167487	9.77436	0.427915	23.9341	0.70387	39.0427	0.937061	52.3723
0.100571	5.15856	0.0255752	1.22557	0.292388	15.2334	0.472357	24.3238	0.567361	29.6068	0.843507	44.1612	0.168452	9.64342	0.428828	22.7971	0.704408	37.1525	0.937251	49.7902
0.105341	5.15676	0.0274456	1.25899	0.293625	14.5896	0.472836	23.2338	0.568181	28.2749	0.844003	42.1321	0.169076	9.56253	0.429785	21.7698	0.704972	35.4407	0.937451	47.4522
0.110105	5.15486	0.0293429	1.29086	0.294912	14.0052	0.473342	22.2405	0.569037	27.0628	0.844522	40.2844	0.16998	9.45006	0.430786	20.8371	0.705563	33.8833	0.937662	45.3253
0.114863	5.15286	0.0312645	1.32124	0.296249	13.4726	0.473874	21.3316	0.56993	25.9551	0.845064	38.595	0.170974	9.33264	0.431829	19.9868	0.70618	32.4606	0.937883	43.3822
0.119615	5.15074	0.0332077	1.35019	0.297634	12.9854	0.474432	20.4971	0.570859	24.9393	0.845629	37.0445	0.172342	9.18054	0.432916	19.2088	0.706824	31.1559	0.938116	41.6001
0.12436	5.14851	0.0351706	1.37781	0.299068	12.5383	0.475019	19.7283	0.571824	24.0044	0.846218	35.6166	0.174099	8.9998	0.434045	18.4943	0.707494	29.9552	0.938359	39.96
0.129098	5.14616	0.0371508	1.40413	0.300547	12.1266	0.475633	19.0179	0.572825	23.1413	0.84683	34.2974	0.176265	8.79698	0.435217	17.8362	0.70819	28.8467	0.938613	38.4454
0.133828	5.1437	0.0391467	1.42924	0.302073	11.7466	0.476275	18.3597	0.573861	22.3422	0.847464	33.075	0.178857	8.57876	0.436429	17.2281	0.708911	27.8203	0.938879	37.0427
0.138551	5.1411	0.0411566	1.45319	0.303643	11.3948	0.476946	17.7481	0.574932	21.6004	0.848122	31.9393	0.181899	8.35144	0.437684	16.6647	0.709659	26.8673	0.939156	35.7399
0.143265	5.13838	0.0431789	1.47604	0.305257	11.0684	0.477647	17.1786	0.576037	20.91	0.848802	30.8814	0.185008	8.14574	0.438979	16.1414	0.710433	25.9802	0.939445	34.5267
0.14797	5.13552	0.0452123	1.49784	0.306913	10.7648	0.478377	16.647	0.577178	20.266	0.849505	29.8937	0.18818	7.95893	0.440314	15.6542	0.711232	25.1524	0.939745	33.3942
0.152665	5.13253	0.0469924	1.51604	0.30839	10.5171	0.479138	16.1499	0.578352	19.6639	0.850231	28.9694	0.191413	7.78873	0.44169	15.1996	0.712057	24.3784	0.940058	32.3348
0.157351	5.12939	0.0485151	1.53098	0.309674	10.3173	0.47993	15.6841	0.579561	19.1	0.850979	28.1028	0.194702	7.63317	0.443105	14.7746	0.712907	23.653	0.940382	31.3415
0.162026	5.12609	0.0497777	1.54296	0.310752	10.1595	0.480753	15.2467	0.580803	18.5707	0.85175	27.2886	0.198044	7.4906	0.444559	14.3765	0.713783	22.9719	0.940718	30.4085
0.16669	5.12264	0.0507781	1.55219	0.311616	10.0392	0.481609	14.8355	0.582078	18.0731	0.852544	26.5224	0.201437	7.35958	0.446051	14.0029	0.714683	22.3313	0.941066	29.5304
0.171341	5.11903	0.0515148	1.55885	0.312256	9.95318	0.482498	14.4482	0.583386	17.6044	0.85336	25.7999	0.204878	7.23888	0.447582	13.6516	0.715609	21.7277	0.941427	28.7025
0.175981	5.11525	0.0519867	1.56306	0.312669	9.89913	0.483419	14.0829	0.584727	17.1624	0.854198	25.1178	0.208363	7.1274	0.449151	13.3209	0.71656	21.158	0.9418	27.9208
0.180607	5.11129	0.0526657	1.56903	0.313266	9.82282	0.484375	13.7379	0.5861	16.7447	0.855059	24.4726	0.211891	7.02423	0.450757	13.0091	0.717536	20.6196	0.942185	27.1814
0.185218	5.10714	0.0534045	1.57543	0.313919	9.74166	0.485365	13.4116	0.587505	16.3497	0.855942	23.8616	0.21546	6.92854	0.4524	12.7146	0.718537	20.1099	0.942584	26.4811
0.189815	5.1028	0.0544104	1.58396	0.314815	9.63417	0.486391	13.1026	0.588941	15.9755	0.856846	23.2821	0.219067	6.8396	0.454079	12.4362	0.719562	19.6268	0.942995	25.8169
0.194396	5.09826	0.0556846	1.59448	0.315961	9.5028	0.487452	12.8097	0.590409	15.6205	0.857773	22.7318	0.22271	6.75679	0.455794	12.1725	0.720612	19.1684	0.943419	25.1861
0.198961	5.09351	0.0572281	1.60684	0.317365	9.3504	0.488549	12.5317	0.591908	15.2834	0.858722	22.2086	0.226387	6.67955	0.457544	11.9226	0.721685	18.7327	0.943856	24.5863
0.203508	5.08854	0.059042	1.62082	0.319038	9.1801	0.489684	12.2676	0.593438	14.963	0.859693	21.7106	0.230097	6.60736	0.459329	11.6854	0.722784	18.3182	0.944307	24.0152
0.208035	5.08333	0.0611276	1.63622	0.320992	8.99516	0.490855	12.0165	0.594998	14.658	0.860686	21.236	0.233837	6.5398	0.461149	11.4601	0.723906	17.9234	0.944771	23.4708
0.212544	5.07789	0.0632169	1.65097	0.32298	8.82058	0.492065	11.7775	0.596589	14.3674	0.8617	20.7832	0.237606	6.47647	0.463003	11.2458	0.725052	17.547	0.945249	22.9515
0.217031	5.07218	0.0653093	1.6651	0.325002	8.65557	0.493313	11.5498	0.598209	14.0902	0.862736	20.3509	0.241403	6.417	0.464889	11.0417	0.726222	17.1877	0.94574	22.4554
0.221496	5.06622	0.0674045	1.67865	0.327059	8.49944	0.494601	11.3327	0.599858	13.8257	0.863793	19.9377	0.245227	6.36109	0.466809	10.8473	0.727415	16.8446	0.946245	21.9811
0.225937	5.05997	0.0695022	1.69164	0.329148	8.35152	0.495928	11.1256	0.601537	13.5729	0.864872	19.5423	0.249074	6.30844	0.468509	10.6852	0.728632	16.5164	0.946764	21.5273
0.230353	5.05344	0.0716018	1.7041	0.33127	8.21124	0.497295	10.9279	0.603244	13.3312	0.865972	19.1637	0.252946	6.2588	0.469977	10.5521	0.729872	16.2023	0.947297	21.0925
0.234743	5.0466	0.0737032	1.71606	0.333424	8.07808	0.49852	10.7628	0.60498	13.0998	0.867093	18.8009	0.256839	6.21193	0.471204	10.4454	0.731135	15.9015	0.947844	20.6758
0.239105	5.03943	0.075806	1.72754	0.335609	7.95154	0.499589	10.6271	0.606745	12.8782	0.868235	18.4529	0.260754	6.16763	0.472183	10.3632	0.732422	15.6131	0.948405	20.276
0.243438	5.03194	0.07791	1.73858	0.337826	7.83121	0.50049	10.5182	0.608537	12.6658	0.869399	18.1188	0.264688	6.1257	0.472907	10.3038	0.733731	15.3364	0.948981	19.8921
0.24774	5.02409	0.080015	1.74918	0.340075	7.71667	0.501214	10.4342	0.610357	12.462	0.870583	17.7979	0.268642	6.08596	0.473373	10.2663	0.735063	15.0707	0.949572	19.5232
0.252008	5.01588	0.0821207	1.75938	0.342355	7.60757	0.501752	10.3735	0.612204	12.2664	0.871788	17.4894	0.272613	6.04826	0.474045	10.2131	0.736417	14.8155	0.950177	19.1684
0.256242	5.00729	0.0842271	1.76919	0.344666	7.50357	0.502099	10.3352	0.614079	12.0785	0.873014	17.1927	0.276601	6.01246	0.47478	10.1561	0.737794	14.5701	0.950797	18.8271
0.260438	4.9983	0.0863339	1.77864	0.347008	7.40438	0.502603	10.2808	0.61598	11.8978	0.874261	16.907	0.280605	5.97842	0.475785	10.08	0.739193	14.334	0.951432	18.4984
0.264597	4.9889	0.088441	1.78773	0.349383	7.30972	0.503155	10.2225	0.617907	11.7241	0.875528	16.6319	0.284624	5.94601	0.477066	9.98611	0.740614	14.1067	0.952082	18.1816
0.268714	4.97907	0.0905484	1.7965	0.351789	7.21933	0.503915	10.1446	0.619861	11.5568	0.876815	16.3666	0.288657	5.91513	0.478631	9.87578	0.742057	13.8877	0.952748	17.8763
0.272788	4.96878	0.0926558	1.80495	0.354227	7.13299	0.50489	10.0485	0.621841	11.3958	0.878123	16.1109	0.292703	5.88568	0.480488	9.75074	0.743521	13.6766	0.953428	17.5817
0.276818	4.95804	0.0947632	1.81309	0.356699	7.05049	0.506091	9.93555	0.623846	11.2406	0.879451	15.8641	0.296762	5.85755	0.482645	9.61278	0.745008	13.4731	0.954125	17.2974
0.2808	4.94681	0.0968706	1.82095	0.359204	6.97161	0.507531	9.80748	0.625877	11.091	0.880799	15.6258	0.300832	5.83067	0.484832	9.48041	0.746515	13.2766	0.954836	17.0227
0.284733	4.93509	0.0989777	1.82854	0.361743	6.8962	0.509224	9.66617	0.627667	10.965	0.882167	15.3956	0.304914	5.80496	0.487047	9.35332	0.748044	13.087	0.955564	16.7574
0.288614	4.92287	0.101085	1.83586	0.364318	6.82408	0.51096	9.53058	0.629208	10.8606	0.883555	15.1731	0.309006	5.78033	0.48929	9.23123	0.749594	12.9038	0.956307	16.5008
0.292442	4.91012	0.103191	1.84294	0.36693	6.75511	0.512741	9.40043	0.630492	10.7763	0.884963	14.9579	0.313107	5.75672	0.491561	9.11386	0.751164	12.7267	0.957067	16.2526
0.296213	4.89684	0.105298	1.84978	0.369579	6.68914	0.514567	9.27546	0.631514	10.7109	0.88639	14.7498	0.317218	5.73407	0.493858	9.00098	0.752756	12.5554	0.957842	16.0125
0.299927	4.88303	0.107404	1.85639	0.372266	6.62605	0.516437	9.15541	0.63227	10.6635	0.887837	14.5483	0.321336	5.71231	0.496183	8.89234	0.754368	12.3898	0.958634	15.7799
0.303581	4.86866	0.109509	1.86279	0.374994	6.56571	0.518352	9.04004	0.632755	10.6335	0.889303	14.3532	0.325463	5.6914	0.498533	8.78773	0.756	12.2295	0.959442	15.5547
0.307173	4.85375	0.111615	1.86898	0.377762	6.50802	0.520312	8.92914	0.633454	10.5908	0.890789	14.1642	0.329596	5.67128	0.500909	8.68695	0.757652	12.0742	0.960267	15.3364
0.310702	4.83828	0.113719	1.87497	0.380573	6.45288	0.522317	8.82249	0.634217	10.5449	0.892293	13.981	0.333736	5.65191	0.503311	8.5898	0.759325	11.9238	0.961108	15.1248
0.313724	4.82435	0.115824	1.88077	0.383429	6.40018	0.524367	8.71989	0.63526	10.4834	0.893817	13.8033	0.337881	5.63323	0.505737	8.49612	0.761017	11.7781	0.961966	14.9195
0.316262	4.81215	0.117927	1.88639	0.386329	6.34985	0.526463	8.62117	0.636587	10.407	0.89536	13.631	0.342032	5.61521	0.508188	8.40573	0.76273	11.6368	0.962841	14.7204
0.318332	4.80184	0.120031	1.89185	0.389276	6.30178	0.528603	8.52614	0.638203	10.3167	0.896922	13.4638	0.346188	5.59781	0.510664	8.31848	0.764461	11.4997	0.963733	14.5271
0.319951	4.79354	0.122134	1.89713	0.392271	6.25591	0.530789	8.43464	0.640116	10.2135	0.898502	13.3015	0.350348	5.581	0.513162	8.23421	0.766212	11.3668	0.964642	14.3394
0.321131	4.78735	0.124236	1.90226	0.395316	6.21216	0.53302	8.34652	0.642333	10.0988	0.900101	13.1439	0.354511	5.56473	0.515685	8.1528	0.767754	11.2541	0.965568	14.1571
0.321882	4.78336	0.126338	1.90723	0.39841	6.17044	0.535296	8.26163	0.644573	9.98769	0.901719	12.9908	0.358678	5.54898	0.51823	8.07411	0.769079	11.1603	0.966512	13.98
0.322955	4.77757	0.128439	1.91206	0.401555	6.13069	0.537617	8.17982	0.646836	9.88012	0.903354	12.842	0.362847	5.53372	0.520798	7.99802	0.770183	11.0843	0.967473	13.8078
0.324113	4.77122	0.13054	1.91675	0.404752	6.09283	0.539982	8.10097	0.649121	9.7759	0.905009	12.6973	0.367019	5.51892	0.523388	7.92441	0.771061	11.0251	0.968452	13.6404
0.325674	4.76247	0.132641	1.92131	0.408002	6.0568	0.542391	8.02495	0.651429	9.6749	0.906681	12.5566	0.371192	5.50455	0.526	7.85318	0.77171	10.9821	0.969449	13.4776
0.327625	4.75123	0.13474	1.92573	0.411304	6.02252	0.544845	7.95164	0.653758	9.57698	0.908371	12.4198	0.375366	5.49059	0.528634	7.78422	0.772126	10.9548	0.970463	13.3191
0.329949	4.7374	0.13684	1.93004	0.414659	5.98993	0.547342	7.88092	0.65611	9.48202	0.910079	12.2866	0.379541	5.47702	0.531289	7.71744	0.772726	10.9159	0.971496	13.165
0.332628	4.72083	0.138938	1.93422	0.418067	5.95896	0.549882	7.81269	0.658483	9.38988	0.911805	12.157	0.383716	5.4638	0.533964	7.65273	0.77338	10.8741	0.972547	13.0149
0.335638	4.70138	0.141037	1.93829	0.421527	5.92954	0.552465	7.74684	0.660878	9.30046	0.913549	12.0308	0.38789	5.45093	0.536661	7.59003	0.774274	10.8178	0.973616	12.8687
0.338581	4.6815	0.143135	1.94226	0.425039	5.9016	0.555091	7.68328	0.663294	9.21366	0.91531	11.9079	0.392064	5.43839	0.539377	7.52924	0.775411	10.7477	0.974703	12.7264
0.341456	4.6612	0.145232	1.94611	0.428602	5.87507	0.557758	7.62191	0.66573	9.12935	0.917089	11.7882	0.396237	5.42614	0.542114	7.47028	0.776795	10.6646	0.975809	12.5877
0.344264	4.64052	0.147329	1.94987	0.432216	5.84989	0.560467	7.56264	0.668188	9.04746	0.918885	11.6715	0.400408	5.41418	0.54487	7.41309	0.778431	10.5693	0.976934	12.4526
0.347008	4.6195	0.149425	1.95352	0.435878	5.82599	0.563217	7.50539	0.670666	8.96788	0.920464	11.5722	0.404577	5.40249	0.547646	7.35759	0.780326	10.4626	0.978077	12.3208
0.349688	4.59814	0.151521	1.95709	0.439589	5.80332	0.566008	7.45008	0.673164	8.89052	0.92182	11.4893	0.408743	5.39105	0.550441	7.30372	0.782238	10.3589	0.979239	12.1924
0.352307	4.5765	0.153617	1.96056	0.443345	5.78179	0.568838	7.39663	0.675683	8.81531	0.922949	11.4219	0.412906	5.37985	0.553255	7.25141	0.784168	10.2579	0.980421	12.0671
0.354864	4.5546	0.155712	1.96395	0.447146	5.76135	0.571708	7.34496	0.678221	8.74216	0.923846	11.3693	0.417066	5.36887	0.556087	7.2006	0.786116	10.1595	0.981621	11.9449
0.357363	4.53248	0.157807	1.96725	0.450989	5.74195	0.574616	7.295	0.680779	8.671	0.924508	11.331	0.421221	5.3581	0.558938	7.15124	0.788081	10.0638	0.982841	11.8256
0.359806	4.51016	0.159901	1.97047	0.454874	5.72352	0.577563	7.24669	0.683357	8.60176	0.924933	11.3067	0.425372	5.34752	0.561807	7.10327	0.790064	9.97045	0.98392	11.7241
0.362194	4.48768	0.161995	1.97361	0.458798	5.706	0.580547	7.19996	0.685953	8.53436	0.925545	11.272	0.429518	5.33713	0.564694	7.05665	0.792064	9.87952	0.984851	11.6392
0.364529	4.46507	0.164088	1.97668	0.462759	5.68934	0.583567	7.15476	0.68857	8.46874	0.926212	11.2346	0.433659	5.32692	0.567599	7.01132	0.79408	9.79089	0.985629	11.5701
0.366813	4.44236	0.166181	1.97968	0.466756	5.67349	0.586624	7.11101	0.691205	8.40483	0.927124	11.1843	0.437794	5.31686	0.570521	6.96723	0.796114	9.70449	0.98625	11.5163
0.36905	4.41957	0.168274	1.9826	0.470786	5.6584	0.589717	7.06866	0.693858	8.34259	0.928282	11.1215	0.441922	5.30695	0.573461	6.92435	0.798164	9.62022	0.986709	11.477
0.371239	4.39674	0.170366	1.98546	0.474848	5.64401	0.592844	7.02766	0.696531	8.28194	0.929691	11.0468	0.446044	5.29718	0.576418	6.88262	0.800231	9.53802	0.987004	11.4521
0.373384	4.37388	0.172458	1.98825	0.478939	5.63029	0.596006	6.98796	0.699222	8.22284	0.931355	10.9608	0.450158	5.28753	0.579392	6.84202	0.802314	9.45782	0.987431	11.4165
0.375487	4.35103	0.17455	1.99098	0.483059	5.61719	0.599201	6.94951	0.701931	8.16524	0.93328	10.8643	0.454265	5.27801	0.582383	6.80249	0.804413	9.37955	0.987897	11.3781
0.37755	4.3282	0.176641	1.99364	0.487204	5.60467	0.602429	6.91225	0.704658	8.10908	0.935222	10.7701	0.458363	5.26859	0.58539	6.76401	0.806529	9.30315	0.988534	11.3264
0.379574	4.30541	0.178732	1.99625	0.491374	5.5927	0.605689	6.87615	0.707403	8.05431	0.937179	10.6781	0.462453	5.25928	0.588415	6.72654	0.80866	9.22856	0.989347	11.2619
0.381561	4.2827	0.180822	1.9988	0.495566	5.58123	0.608981	6.84116	0.710166	8.0009	0.939153	10.5882	0.466533	5.25006	0.591456	6.69005	0.810808	9.15572	0.99034	11.1851
0.383513	4.26006	0.182913	2.00129	0.499779	5.57023	0.612303	6.80724	0.712947	7.94879	0.941142	10.5003	0.470604	5.24092	0.594513	6.6545	0.812971	9.08456	0.99152	11.0966
0.385433	4.23753	0.185003	2.00373	0.504012	5.55968	0.615656	6.77435	0.715745	7.89795	0.943148	10.4144	0.474665	5.23185	0.597586	6.61987	0.815149	9.01505	0.992892	10.9973
0.387321	4.21511	0.187092	2.00612	0.508263	5.54953	0.619038	6.74244	0.718561	7.84833	0.945169	10.3305	0.478715	5.22286	0.600676	6.58612	0.817343	8.94712	0.994284	10.9002
0.389179	4.19282	0.189181	2.00846	0.51253	5.53977	0.62245	6.71149	0.721393	7.79989	0.947205	10.2484	0.482754	5.21393	0.603782	6.55323	0.819552	8.88073	0.995697	10.8054
0.391009	4.17067	0.19127	2.01075	0.516812	5.53036	0.625889	6.68145	0.724243	7.75261	0.949257	10.1681	0.486781	5.20505	0.606904	6.52117	0.821776	8.81583	0.99713	10.7126
0.392813	4.14868	0.193359	2.01299	0.521108	5.52129	0.629356	6.6523	0.72711	7.70644	0.951324	10.0895	0.490797	5.19621	0.610042	6.48992	0.824016	8.75237	0.998584	10.6219
0.394591	4.12685	0.195447	2.01518	0.525417	5.51252	0.63285	6.624	0.729994	7.66135	0.953407	10.0127	0.494799	5.18742	0.613196	6.45944	0.82627	8.69032	1.00006	10.5332
0.396345	4.10519	0.197536	2.01733	0.529737	5.50404	0.636371	6.59652	0.732895	7.61731	0.955504	9.93746	0.498789	5.17866	0.616365	6.42973	0.828539	8.62962		
0.398076	4.08372	0.199624	2.01944	0.534067	5.49583	0.639917	6.56983	0.735812	7.57428	0.957617	9.86385	0.502765	5.16993	0.619551	6.40075	0.830823	8.57024		
0.399786	4.06243	0.201711	2.02151	0.538407	5.48787	0.643488	6.5439	0.738746	7.53225	0.959744	9.79179	0.506726	5.16122	0.622752	6.37249	0.833122	8.51214		
0.401476	4.04134	0.203799	2.02353	0.542754	5.48014	0.647084	6.5187	0.741696	7.49116	0.961886	9.72124	0.510674	5.15253	0.62597	6.34492	0.835434	8.45529		
0.403146	4.02045	0.205886	2.02552	0.547109	5.47263	0.650704	6.49422	0.744663	7.45101	0.964043	9.65215	0.514606	5.14385	0.629203	6.31802	0.837762	8.39963		
0.404799	3.99976	0.207972	2.02746	0.55147	5.46531	0.654347	6.47041	0.747645	7.41176	0.966214	9.58448	0.518522	5.13517	0.632452	6.29179	0.840103	8.34515		
0.406434	3.97929	0.210059	2.02937	0.555836	5.45818	0.658013	6.44726	0.750644	7.37339	0.9684	9.51819	0.522423	5.1265	0.635717	6.26618	0.842459	8.29181		
0.408053	3.95903	0.212146	2.03125	0.560206	5.45123	0.661702	6.42475	0.75366	7.33587	0.970599	9.45325	0.526306	5.11782	0.638997	6.2412	0.844828	8.23958		
0.409658	3.93899	0.214232	2.03309	0.56458	5.44443	0.665412	6.40285	0.756691	7.29918	0.972813	9.3896	0.530173	5.10913	0.642294	6.21683	0.847212	8.18842		
0.411247	3.91916	0.216318	2.03489	0.568957	5.43778	0.669143	6.38154	0.759738	7.2633	0.975041	9.32723	0.534022	5.10043	0.645606	6.19304	0.849609	8.13831		
0.412824	3.89956	0.218403	2.03666	0.573336	5.43127	0.672894	6.3608	0.762801	7.2282	0.977283	9.26609	0.537854	5.09171	0.648934	6.16982	0.852021	8.08921		
0.414387	3.88018	0.220489	2.0384	0.577716	5.42488	0.676666	6.34061	0.76588	7.19386	0.979539	9.20616	0.541666	5.08298	0.652278	6.14716	0.854446	8.0411		
0.415939	3.86103	0.222574	2.0401	0.582097	5.41862	0.680458	6.32096	0.768974	7.16026	0.981808	9.14739	0.54546	5.07421	0.655637	6.12504	0.856884	7.99396		
0.41748	3.8421	0.224659	2.04178	0.586478	5.41246	0.684268	6.30181	0.772085	7.12739	0.984091	9.08975	0.549234	5.06542	0.659013	6.10345	0.859336	7.94776		
0.41901	3.8234	0.226744	2.04343	0.590859	5.4064	0.688097	6.28317	0.775211	7.09523	0.986388	9.03323	0.552988	5.05659	0.662405	6.08238	0.861802	7.90246		
0.42053	3.80492	0.228829	2.04504	0.595238	5.40043	0.691945	6.265	0.778353	7.06375	0.988698	8.97778	0.556722	5.04773	0.665812	6.06181	0.864281	7.85806		
0.422041	3.78667	0.230914	2.04663	0.599616	5.39454	0.695809	6.24729	0.78151	7.03294	0.991021	8.92338	0.560435	5.03883	0.669235	6.04173	0.866773	7.81452		
0.423543	3.76864	0.232998	2.04819	0.603991	5.38874	0.699691	6.23003	0.784683	7.00278	0.993357	8.87001	0.564127	5.02989	0.672675	6.02212	0.869278	7.77183		
0.425037	3.75084	0.235082	2.04973	0.608363	5.383	0.70359	6.2132	0.787872	6.97325	0.995707	8.81763	0.567798	5.02091	0.67613	6.00298	0.871797	7.72996		
0.426523	3.73327	0.237166	2.05123	0.612732	5.37733	0.707505	6.19679	0.791076	6.94435	0.998069	8.76622	0.571446	5.01188	0.679601	5.9843	0.874328	7.68888		
0.428003	3.71591	0.23925	2.05272	0.617097	5.37171	0.711436	6.18078	0.794296	6.91605	1.00044	8.71576	0.575072	5.0028	0.683088	5.96606	0.876873	7.64859		
0.429476	3.69878	0.241334	2.05417	0.621457	5.36615	0.715382	6.16516	0.797531	6.88834			0.578675	4.99367	0.686591	5.94825	0.879431	7.60907		
0.430942	3.68187	0.243418	2.05561	0.625813	5.36063	0.719343	6.14991	0.800782	6.8612			0.582256	4.98449	0.690109	5.93086	0.882001	7.57028		
0.432403	3.66517	0.245501	2.05702	0.630164	5.35516	0.723318	6.13503	0.804049	6.83463			0.585812	4.97526	0.693643	5.91388	0.884585	7.53222		
0.433859	3.64869	0.247584	2.0584	0.634508	5.34973	0.727308	6.1205	0.807331	6.80861			0.589345	4.96597	0.697193	5.8973	0.887181	7.49487		
0.435309	3.63243	0.249667	2.05977	0.638847	5.34432	0.731311	6.10631	0.810629	6.78312			0.592854	4.95662	0.700759	5.88111	0.88979	7.4582		
0.436755	3.61638	0.25175	2.06111	0.643179	5.33895	0.735327	6.09245	0.813943	6.75816			0.596339	4.94722	0.70434	5.86531	0.892411	7.42222		
0.438197	3.60055	0.253833	2.06243	0.647504	5.3336	0.739356	6.07891	0.817272	6.73371			0.599799	4.93776	0.707937	5.84987	0.895046	7.38688		
0.439635	3.58492	0.255916	2.06373	0.651822	5.32828	0.743397	6.06567	0.820617	6.70977			0.603234	4.92824	0.711549	5.8348	0.897692	7.3522		
0.44107	3.5695	0.257998	2.06501	0.656132	5.32297	0.747451	6.05273	0.823977	6.68631			0.606645	4.91866	0.715176	5.82008	0.900352	7.31813		
0.442501	3.55428	0.260081	2.06627	0.660434	5.31768	0.751516	6.04008	0.827354	6.66333			0.61003	4.90903	0.718819	5.8057	0.903024	7.28469		
0.44393	3.53927	0.262163	2.0675	0.664727	5.31239	0.755592	6.0277	0.830746	6.64082			0.61339	4.89933	0.722476	5.79166	0.905708	7.25184		
0.445356	3.52446	0.264245	2.06872	0.669012	5.30712	0.759679	6.01559	0.834155	6.61877			0.616724	4.88957	0.726148	5.77794	0.908405	7.21957		
0.446779	3.50985	0.266327	2.06993	0.673287	5.30185	0.763776	6.00374	0.837579	6.59718			0.620032	4.87976	0.729835	5.76454	0.911115	7.18788		
0.448201	3.49543	0.268409	2.07111	0.677553	5.29658	0.767883	5.99214	0.84102	6.57602			0.623315	4.86989	0.733537	5.75145	0.913836	7.15675		
0.44962	3.48121	0.270491	2.07227	0.68181	5.29132	0.772	5.98079	0.844476	6.55529			0.626572	4.85996	0.737252	5.73866	0.91657	7.12617		
0.451038	3.46717	0.272573	2.07342	0.686056	5.28605	0.776126	5.96967	0.847949	6.53498			0.629803	4.84997	0.740982	5.72616	0.919317	7.09612		
0.452455	3.45333	0.274654	2.07455	0.690291	5.28077	0.780261	5.95877	0.851439	6.51509			0.633008	4.83993	0.744725	5.71395	0.922075	7.06659		
0.45387	3.43967	0.276736	2.07567	0.694516	5.27549	0.784405	5.94809	0.854944	6.49561			0.636188	4.82983	0.748482	5.70201	0.924846	7.03757		
0.455285	3.4262	0.278817	2.07677	0.69873	5.27021	0.788556	5.93762	0.858466	6.47653			0.639341	4.81968	0.752252	5.69035	0.927629	7.00906		
0.456698	3.41291	0.280898	2.07785	0.702933	5.26491	0.792716	5.92736	0.862005	6.45783			0.642468	4.80947	0.756035	5.67894	0.930425	6.98104		
0.458111	3.39979	0.282979	2.07892	0.707124	5.2596	0.796882	5.91729	0.865561	6.43952			0.645569	4.79922	0.759831	5.66779	0.933232	6.95349		
0.459524	3.38686	0.28506	2.07997	0.711304	5.25427	0.801056	5.90741	0.869133	6.42159			0.648645	4.78891	0.763639	5.65688	0.936052	6.92642		
0.460936	3.3741	0.287141	2.081	0.715471	5.24893	0.805236	5.89771	0.872722	6.40402			0.651695	4.77855	0.76746	5.64622	0.938884	6.8998		
0.462348	3.36151	0.289222	2.08203	0.719626	5.24357	0.809422	5.88819	0.876328	6.38682			0.654719	4.76815	0.771292	5.63578	0.941728	6.87364		
0.46376	3.34909	0.291303	2.08303	0.723768	5.23819	0.813614	5.87885	0.879952	6.36997			0.657717	4.75771	0.775136	5.62557	0.944584	6.84792		
0.465172	3.33684	0.293383	2.08403	0.727898	5.23279	0.817812	5.86966	0.883592	6.35347			0.66069	4.74722	0.778991	5.61558	0.947451	6.82262		
0.466585	3.32475	0.295464	2.08501	0.732014	5.22737	0.822015	5.86064	0.88725	6.33732			0.663638	4.73669	0.782857	5.60579	0.950331	6.79776		
0.467998	3.31282	0.297544	2.08597	0.736117	5.22193	0.826222	5.85176	0.890925	6.3215			0.66656	4.72612	0.786734	5.59622	0.953223	6.7733		
0.469412	3.30106	0.299624	2.08693	0.740207	5.21646	0.830434	5.84304	0.894618	6.30602			0.669458	4.71551	0.79062	5.58684	0.956127	6.74925		
0.470826	3.28945	0.301705	2.08787	0.744283	5.21097	0.83465	5.83445	0.898329	6.29086			0.67233	4.70487	0.794516	5.57765	0.959043	6.7256		
0.472241	3.278	0.303785	2.08879	0.748345	5.20546	0.83887	5.82601	0.902057	6.27602			0.675178	4.69419	0.798422	5.56864	0.961971	6.70234		
0.473657	3.26671	0.305865	2.08971	0.752392	5.19991	0.843093	5.81769	0.905803	6.26149			0.678001	4.68349	0.802337	5.55982	0.964911	6.67947		
0.475074	3.25556	0.307945	2.09061	0.756426	5.19434	0.847319	5.8095	0.909567	6.24728			0.680801	4.67275	0.80626	5.55117	0.967862	6.65696		
0.476492	3.24456	0.310025	2.0915	0.760445	5.18874	0.851548	5.80144	0.91335	6.23337			0.683576	4.66198	0.810192	5.54268	0.970825	6.63483		
0.477912	3.23371	0.312105	2.09238	0.764449	5.18312	0.855779	5.79349	0.91715	6.21975			0.686327	4.65119	0.814132	5.53436	0.9738	6.61305		
0.479332	3.223	0.314184	2.09325	0.768438	5.17746	0.860012	5.78566	0.920968	6.20643			0.689055	4.64038	0.818079	5.52619	0.976787	6.59163		
0.480754	3.21244	0.316264	2.09411	0.772413	5.17177	0.864247	5.77793	0.924805	6.1934			0.69176	4.62955	0.822033	5.51817	0.979786	6.57055		
0.482177	3.20202	0.318344	2.09495	0.776372	5.16605	0.868483	5.77031	0.92866	6.18066			0.694441	4.61869	0.825994	5.5103	0.982796	6.54982		
0.483602	3.19173	0.320423	2.09579	0.780316	5.1603	0.872721	5.76279	0.932534	6.16819			0.6971	4.60782	0.829962	5.50257	0.985818	6.52942		
0.485029	3.18158	0.322503	2.09661	0.784244	5.15452	0.876959	5.75537	0.936426	6.156			0.699736	4.59694	0.833936	5.49497	0.988852	6.50934		
0.486457	3.17157	0.324582	2.09743	0.788156	5.14871	0.881197	5.74804	0.940337	6.14408			0.702349	4.58604	0.837915	5.4875	0.991897	6.48958		
0.487887	3.16168	0.326661	2.09823	0.792053	5.14286	0.885436	5.7408	0.944267	6.13242			0.704941	4.57513	0.841899	5.48016	0.994954	6.47014		
0.489318	3.15193	0.328741	2.09902	0.795934	5.13698	0.889675	5.73364	0.948215	6.12102			0.707511	4.56421	0.845889	5.47293	0.998023	6.45101		
0.490752	3.14231	0.33082	2.09981	0.799799	5.13107	0.893913	5.72657	0.952181	6.10988			0.71006	4.55328	0.849883	5.46583	1.0011	6.43218		
0.492187	3.13281	0.332899	2.10058	0.803647	5.12513	0.898151	5.71958	0.956167	6.09899			0.712587	4.54235	0.853881	5.45883				
0.493625	3.12343	0.334978	2.10135	0.807479	5.11915	0.902388	5.71267	0.96017	6.08835			0.715093	4.53141	0.857882	5.45194				
0.495064	3.11418	0.337057	2.1021	0.811295	5.11314	0.906624	5.70583	0.964193	6.07795			0.717579	4.52047	0.861888	5.44515				
0.496505	3.10505	0.339136	2.10285	0.815095	5.1071	0.910859	5.69907	0.968234	6.06779			0.720044	4.50954	0.865896	5.43846				
0.497949	3.09604	0.341215	2.10359	0.818877	5.10102	0.915092	5.69237	0.972294	6.05786			0.722489	4.4986	0.869907	5.43187				
0.499394	3.08714	0.343293	2.10432	0.822643	5.09491	0.919324	5.68574	0.976372	6.04816			0.724915	4.48767	0.87392	5.42536				
0.500842	3.07836	0.345372	2.10504	0.826393	5.08877	0.923554	5.67918	0.980469	6.03868			0.727321	4.47674	0.877935	5.41895				
0.502292	3.0697	0.347451	2.10575	0.830125	5.08259	0.927781	5.67267	0.984584	6.02943			0.729707	4.46582	0.881952	5.41261				
0.503744	3.06114	0.349529	2.10645	0.833841	5.07638	0.932007	5.66623	0.988717	6.02039			0.732075	4.45491	0.88597	5.40636				
0.505199	3.0527	0.351608	2.10714	0.837539	5.07014	0.93623	5.65985	0.992869	6.01157			0.734424	4.44401	0.889989	5.40018				
0.506656	3.04436	0.353686	2.10783	0.841221	5.06387	0.940451	5.65352	0.997038	6.00295			0.736755	4.43312	0.894008	5.39408				
0.508115	3.03613	0.355765	2.10851	0.844886	5.05756	0.944669	5.64725	1.00123	5.99453			0.739068	4.42225	0.898028	5.38804				
0.509576	3.02801	0.357843	2.10918	0.848533	5.05122	0.948884	5.64103					0.741363	4.41139	0.902048	5.38207				
0.51104	3.01999	0.359921	2.10985	0.852163	5.04486	0.953097	5.63486					0.74364	4.40054	0.906067	5.37617				
0.512506	3.01207	0.362	2.1105	0.855777	5.03845	0.957306	5.62874					0.745901	4.38972	0.910085	5.37032				
0.513975	3.00425	0.364078	2.11115	0.859373	5.03202	0.961513	5.62268					0.748144	4.37891	0.914103	5.36453				
0.515446	2.99653	0.366156	2.11179	0.862951	5.02556	0.965717	5.61666					0.750371	4.36812	0.918119	5.3588				
0.51692	2.98891	0.368234	2.11243	0.866513	5.01907	0.969917	5.61068					0.752581	4.35735	0.922133	5.35312				
0.518396	2.98138	0.370312	2.11305	0.870057	5.01255	0.974114	5.60475					0.754775	4.34661	0.926145	5.34749				
0.519875	2.97395	0.37239	2.11367	0.873584	5.006	0.978308	5.59887					0.756953	4.33589	0.930155	5.34191				
0.521356	2.96661	0.374468	2.11429	0.877094	4.99942	0.982499	5.59303					0.759116	4.3252	0.934162	5.33637				
0.52284	2.95936	0.376546	2.11489	0.880586	4.99281	0.986686	5.58723					0.761264	4.31453	0.938167	5.33087				
0.524326	2.95221	0.378624	2.11549	0.884061	4.98617	0.99087	5.58148					0.763396	4.30389	0.942168	5.32541				
0.525815	2.94514	0.380702	2.11609	0.887519	4.97951	0.99505	5.57576					0.765514	4.29328	0.946166	5.31999				
0.527306	2.93816	0.382779	2.11667	0.89096	4.97282	0.999227	5.57009					0.767617	4.28269	0.950159	5.31461				
0.5288	2.93127	0.384857	2.11726	0.894384	4.9661	1.0034	5.56446					0.769706	4.27214	0.954149	5.30926				
0.530296	2.92446	0.386935	2.11783	0.89779	4.95936							0.771781	4.26162	0.958135	5.30394				
0.531796	2.91774	0.389012	2.1184	0.901179	4.9526							0.773843	4.25113	0.962116	5.29865				
0.533297	2.91109	0.39109	2.11896	0.904552	4.9458							0.775891	4.24068	0.966092	5.29338				
0.534802	2.90453	0.393167	2.11952	0.907907	4.93899							0.777925	4.23026	0.970063	5.28814				
0.536309	2.89805	0.395245	2.12007	0.911245	4.93215							0.779947	4.21987	0.974029	5.28293				
0.537818	2.89165	0.397322	2.12061	0.914566	4.92529							0.781956	4.20952	0.977989	5.27774				
0.53933	2.88533	0.3994	2.12115	0.917871	4.91841							0.783953	4.19921	0.981943	5.27257				
0.540845	2.87908	0.401477	2.12169	0.921158	4.9115							0.785937	4.18893	0.985891	5.26742				
0.542362	2.87291	0.403554	2.12222	0.924429	4.90458							0.787909	4.17869	0.989833	5.26228				
0.543882	2.86681	0.405632	2.12274	0.927683	4.89763							0.78987	4.1685	0.993768	5.25716				
0.545405	2.86079	0.407709	2.12326	0.93092	4.89066							0.791819	4.15834	0.997696	5.25205				
0.54693	2.85484	0.409786	2.12377	0.93414	4.88368							0.793757	4.14821	1.00162	5.24696				
0.548458	2.84896	0.411863	2.12428	0.937344	4.87667							0.795684	4.13813						
0.549989	2.84315	0.41394	2.12478	0.940532	4.86965							0.797599	4.1281						
0.551522	2.83741	0.416017	2.12528	0.943703	4.86262							0.799505	4.1181						
0.553058	2.83174	0.418095	2.12577	0.946857	4.85556							0.8014	4.10814						
0.554596	2.82613	0.420172	2.12626	0.949996	4.84849							0.803284	4.09823						
0.556137	2.82059	0.422249	2.12674	0.953118	4.8414							0.805159	4.08836						
0.557681	2.81512	0.424325	2.12722	0.956224	4.8343							0.807024	4.07854						
0.559227	2.80971	0.426402	2.1277	0.959314	4.82719							0.808879	4.06876						
0.560776	2.80436	0.428479	2.12817	0.962388	4.82006							0.810725	4.05902						
0.562327	2.79908	0.430556	2.12863	0.965446	4.81291							0.812562	4.04932						
0.563881	2.79386	0.432633	2.12909	0.968489	4.80576							0.81439	4.03968						
0.565437	2.7887	0.43471	2.12955	0.971515	4.79859							0.816209	4.03008						
0.566997	2.7836	0.436786	2.13	0.974526	4.79142							0.818019	4.02052						
0.568558	2.77855	0.438863	2.13045	0.977522	4.78423							0.819821	4.01101						
0.570122	2.77357	0.44094	2.13089	0.980501	4.77703							0.821615	4.00154						
0.571689	2.76864	0.443016	2.13133	0.983466	4.76982							0.8234	3.99213						
0.573258	2.76377	0.445093	2.13176	0.986415	4.7626							0.825178	3.98276						
0.57483	2.75896	0.447169	2.1322	0.989349	4.75538							0.826949	3.97343						
0.576405	2.7542	0.449246	2.13262	0.992268	4.74814							0.828711	3.96415						
0.577982	2.74949	0.451322	2.13305	0.995172	4.7409							0.830467	3.95492						
0.579561	2.74484	0.453399	2.13347	0.998061	4.73365							0.832215	3.94574						
0.581143	2.74024	0.455475	2.13388	1.00093	4.7264							0.833956	3.93661						
0.582727	2.73569	0.457552	2.13429									0.83569	3.92752						
0.584314	2.7312	0.459628	2.1347									0.837418	3.91848						
0.585904	2.72675	0.461704	2.1351									0.839139	3.90949						
0.587495	2.72235	0.463781	2.13551									0.840854	3.90055						
0.58909	2.71801	0.465857	2.1359									0.842562	3.89166						
0.590687	2.71371	0.467933	2.1363									0.844265	3.88281						
0.592286	2.70946	0.47001	2.13669									0.845961	3.87401						
0.593887	2.70526	0.472086	2.13707									0.847652	3.86526						
0.595491	2.7011	0.474162	2.13746									0.849337	3.85656						
0.597098	2.69699	0.476238	2.13784									0.851017	3.84791						
0.598707	2.69292	0.478314	2.13821									0.852691	3.83931						
0.600318	2.6889	0.48039	2.13859									0.85436	3.83075						
0.601931	2.68492	0.482466	2.13896									0.856024	3.82224						
0.603547	2.68099	0.484542	2.13933									0.857683	3.81379						
0.605165	2.6771	0.486618	2.13969									0.859337	3.80538						
0.606786	2.67325	0.488694	2.14005									0.860986	3.79701						
0.608409	2.66944	0.49077	2.14041									0.86263	3.7887						
0.610034	2.66568	0.492846	2.14076									0.864271	3.78043						
0.611662	2.66195	0.494922	2.14112									0.865906	3.77222						
0.613292	2.65827	0.496998	2.14146									0.867538	3.76405						
0.614924	2.65462	0.499074	2.14181									0.869165	3.75592						
0.616558	2.65101	0.50115	2.14215									0.870789	3.74785						
0.618195	2.64744	0.503226	2.14249									0.872408	3.73982						
0.619834	2.64391	0.505301	2.14283									0.874024	3.73184						
0.621475	2.64042	0.507377	2.14317									0.875636	3.72391						
0.623118	2.63696	0.509453	2.1435									0.877244	3.71603						
0.624764	2.63354	0.511529	2.14383									0.878849	3.70819						
0.626412	2.63016	0.513604	2.14416									0.88045	3.7004						
0.628062	2.62681	0.51568	2.14448									0.882048	3.69266						
0.629714	2.6235	0.517756	2.1448									0.883643	3.68496						
0.631368	2.62022	0.519831	2.14512									0.885235	3.67731						
0.633025	2.61698	0.521907	2.14544									0.886824	3.66971						
0.634683	2.61377	0.523982	2.14575									0.888409	3.66215						
0.636344	2.61059	0.526058	2.14606									0.889992	3.65464						
0.638007	2.60744	0.528134	2.14637									0.891572	3.64717						
0.639672	2.60433	0.530209	2.14668									0.89315	3.63975						
0.641339	2.60125	0.532285	2.14698									0.894725	3.63238						
0.643008	2.5982	0.53436	2.14729									0.896297	3.62505						
0.64468	2.59519	0.536435	2.14758									0.897867	3.61777						
0.646353	2.5922	0.538511	2.14788									0.899434	3.61053						
0.648028	2.58924	0.540586	2.14818									0.900999	3.60334						
0.649706	2.58632	0.542662	2.14847									0.902562	3.59619						
0.651385	2.58342	0.544737	2.14876									0.904123	3.58908						
0.653066	2.58056	0.546812	2.14905									0.905682	3.58202						
0.65475	2.57772	0.548888	2.14933									0.907239	3.57501						
0.656435	2.57491	0.550963	2.14962									0.908794	3.56803						
0.658123	2.57213	0.553038	2.1499									0.910347	3.56111						
0.659812	2.56937	0.555114	2.15018									0.911898	3.55422						
0.661503	2.56665	0.557189	2.15046									0.913447	3.54738						
0.663196	2.56395	0.559264	2.15073									0.914995	3.54058						
0.664892	2.56128	0.561339	2.15101									0.916541	3.53382						
0.666589	2.55863	0.563414	2.15128									0.918086	3.52711						
0.668288	2.55601	0.565489	2.15155									0.919629	3.52043						
0.669989	2.55342	0.567565	2.15182									0.921171	3.5138						
0.671692	2.55085	0.56964	2.15208									0.922711	3.50721						
0.673396	2.54831	0.571715	2.15234									0.92425	3.50067						
0.675103	2.54579	0.57379	2.15261									0.925788	3.49416						
0.676811	2.5433	0.575865	2.15287									0.927325	3.4877						
0.678521	2.54083	0.57794	2.15312									0.92886	3.48127						
0.680233	2.53838	0.580015	2.15338									0.930395	3.47489						
0.681947	2.53596	0.58209	2.15363									0.931928	3.46855						
0.683663	2.53356	0.584165	2.15389									0.93346	3.46224						
0.68538	2.53119	0.58624	2.15414									0.934992	3.45598						
0.6871	2.52884	0.588315	2.15439									0.936522	3.44976						
0.688821	2.52651	0.59039	2.15463									0.938052	3.44357						
0.690544	2.5242	0.592465	2.15488									0.93958	3.43743						
0.692268	2.52192	0.59454	2.15512									0.941108	3.43132						
0.693995	2.51965	0.596615	2.15536									0.942636	3.42526						
0.695723	2.51741	0.59869	2.1556									0.944162	3.41923						
0.697452	2.51519	0.600764	2.15584									0.945688	3.41324						
0.699184	2.51299	0.602839	2.15608									0.947214	3.40728						
0.700917	2.51081	0.604914	2.15632									0.948739	3.40137						
0.702652	2.50865	0.606989	2.15655									0.950263	3.39549						
0.704389	2.50652	0.609064	2.15678									0.951787	3.38965						
0.706127	2.5044	0.611138	2.15701									0.95331	3.38385						
0.707867	2.5023	0.613213	2.15724									0.954833	3.37809						
0.709608	2.50022	0.615288	2.15747									0.956356	3.37236						
0.711351	2.49816	0.617363	2.15769									0.957878	3.36666						
0.713096	2.49612	0.619437	2.15792									0.9594	3.36101						
0.714843	2.4941	0.621512	2.15814									0.960922	3.35539						
0.716591	2.4921	0.623587	2.15836									0.962443	3.3498						
0.71834	2.49012	0.625661	2.15858									0.963965	3.34425						
0.720091	2.48815	0.627736	2.1588									0.965486	3.33874						
0.721844	2.48621	0.629811	2.15902									0.967007	3.33326						
0.723599	2.48428	0.631885	2.15923									0.968528	3.32781						
0.725355	2.48236	0.63396	2.15945									0.970049	3.3224						
0.727112	2.48047	0.636034	2.15966									0.971569	3.31703						
0.728871	2.47859	0.638109	2.15987									0.97309	3.31168						
0.730632	2.47673	0.640183	2.16008									0.974611	3.30638						
0.732394	2.47489	0.642258	2.16029									0.976132	3.3011						
0.734157	2.47306	0.644332	2.1605									0.977653	3.29586						
0.735922	2.47125	0.646407	2.1607									0.979174	3.29065						
0.737689	2.46946	0.648481	2.16091									0.980695	3.28548						
0.739457	2.46768	0.650556	2.16111									0.982216	3.28033						
0.741226	2.46592	0.65263	2.16131									0.983737	3.27522						
0.742997	2.46417	0.654705	2.16151									0.985259	3.27015						
0.74477	2.46244	0.656779	2.16171									0.986781	3.2651						
0.746544	2.46073	0.658854	2.16191									0.988303	3.26009						
0.748319	2.45903	0.660928	2.16211									0.989825	3.2551						
0.750096	2.45734	0.663002	2.1623									0.991348	3.25015						
0.751874	2.45567	0.665077	2.1625									0.99287	3.24523						
0.753654	2.45402	0.667151	2.16269									0.994394	3.24034						
0.755435	2.45238	0.669225	2.16288									0.995917	3.23548						
0.757217	2.45075	0.6713	2.16307									0.997441	3.23066						
0.759001	2.44914	0.673374	2.16326									0.998965	3.22586						
0.760786	2.44754	0.675448	2.16345									1.00049	3.22109						
0.762572	2.44596	0.677523	2.16364																
0.76436	2.44438	0.679597	2.16382																
0.76615	2.44283	0.681671	2.16401																
0.76794	2.44129	0.683745	2.16419																
0.769732	2.43976	0.68582	2.16437																
0.771525	2.43824	0.687894	2.16456																
0.77332	2.43674	0.689968	2.16474																
0.775116	2.43524	0.692042	2.16491																
0.776913	2.43377	0.694116	2.16509																
0.778711	2.4323	0.69619	2.16527																
0.780511	2.43085	0.698265	2.16545																
0.782312	2.42941	0.700339	2.16562																
0.784114	2.42798	0.702413	2.16579																
0.785918	2.42656	0.704487	2.16597																
0.787722	2.42516	0.706561	2.16614																
0.789528	2.42377	0.708635	2.16631																
0.791336	2.42239	0.710709	2.16648																
0.793144	2.42102	0.712783	2.16665																
0.794954	2.41966	0.714857	2.16682																
0.796765	2.41832	0.716931	2.16698																
0.798577	2.41698	0.719005	2.16715																
0.80039	2.41566	0.721079	2.16731																
0.802205	2.41434	0.723153	2.16748																
0.80402	2.41304	0.725227	2.16764																
0.805837	2.41175	0.727301	2.1678																
0.807655	2.41047	0.729375	2.16796																
0.809475	2.4092	0.731449	2.16812																
0.811295	2.40794	0.733523	2.16828																
0.813117	2.40669	0.735597	2.16844																
0.814939	2.40546	0.737671	2.1686																
0.816763	2.40423	0.739744	2.16876																
0.818588	2.40301	0.741818	2.16891																
0.820414	2.4018	0.743892	2.16907																
0.822241	2.4006	0.745966	2.16922																
0.824069	2.39941	0.74804	2.16937																
0.825899	2.39823	0.750114	2.16953																
0.827729	2.39706	0.752188	2.16968																
0.829561	2.3959	0.754261	2.16983																
0.831393	2.39475	0.756335	2.16998																
0.833227	2.39361	0.758409	2.17013																
0.835062	2.39248	0.760483	2.17027																
0.836898	2.39135	0.762556	2.17042																
0.838734	2.39024	0.76463	2.17057																
0.840572	2.38913	0.766704	2.17071																
0.842411	2.38804	0.768777	2.17086																
0.844251	2.38695	0.770851	2.171																
0.846092	2.38587	0.772925	2.17115																
0.847934	2.3848	0.774998	2.17129																
0.849777	2.38373	0.777072	2.17143																
0.851622	2.38268	0.779146	2.17157																
0.853467	2.38163	0.781219	2.17171																
0.855313	2.3806	0.783293	2.17185																
0.85716	2.37957	0.785367	2.17199																
0.859008	2.37854	0.78744	2.17213																
0.860857	2.37753	0.789514	2.17226																
0.862707	2.37652	0.791587	2.1724																
0.864558	2.37553	0.793661	2.17253																
0.86641	2.37454	0.795734	2.17267																
0.868263	2.37355	0.797808	2.1728																
0.870116	2.37258	0.799881	2.17294																
0.871971	2.37161	0.801955	2.17307																
0.873827	2.37065	0.804029	2.1732																
0.875684	2.3697	0.806102	2.17333																
0.877541	2.36875	0.808175	2.17346																
0.8794	2.36781	0.810249	2.17359																
0.881259	2.36688	0.812322	2.17372																
0.883119	2.36596	0.814396	2.17385																
0.884981	2.36504	0.816469	2.17398																
0.886843	2.36413	0.818543	2.17411																
0.888706	2.36323	0.820616	2.17423																
0.89057	2.36233	0.822689	2.17436																
0.892434	2.36144	0.824763	2.17449																
0.8943	2.36056	0.826836	2.17461																
0.896167	2.35968	0.82891	2.17473																
0.898034	2.35881	0.830983	2.17486																
0.899902	2.35795	0.833056	2.17498																
0.901772	2.35709	0.83513	2.1751																
0.903642	2.35624	0.837203	2.17522																
0.905512	2.3554	0.839276	2.17535																
0.907384	2.35456	0.84135	2.17547																
0.909257	2.35373	0.843423	2.17559																
0.91113	2.35291	0.845496	2.1757																
0.913004	2.35209	0.847569	2.17582																
0.914879	2.35127	0.849643	2.17594																
0.916755	2.35047	0.851716	2.17606																
0.918632	2.34967	0.853789	2.17617																
0.920509	2.34887	0.855862	2.17629																
0.922387	2.34808	0.857935	2.17641																
0.924267	2.3473	0.860009	2.17652																
0.926146	2.34652	0.862082	2.17664																
0.928027	2.34575	0.864155	2.17675																
0.929908	2.34498	0.866228	2.17686																
0.931791	2.34422	0.868301	2.17698																
0.933674	2.34346	0.870374	2.17709																
0.935557	2.34271	0.872448	2.1772																
0.937442	2.34197	0.874521	2.17731																
0.939327	2.34123	0.876594	2.17742																
0.941213	2.34049	0.878667	2.17753																
0.9431	2.33976	0.88074	2.17764																
0.944988	2.33904	0.882813	2.17775																
0.946876	2.33832	0.884886	2.17786																
0.948765	2.33761	0.886959	2.17797																
0.950655	2.3369	0.889032	2.17807																
0.952545	2.3362	0.891105	2.17818																
0.954437	2.3355	0.893178	2.17829																
0.956329	2.33481	0.895251	2.17839																
0.958221	2.33412	0.897324	2.1785																
0.960115	2.33343	0.899397	2.1786																
0.962009	2.33275	0.90147	2.17871																
0.963904	2.33208	0.903543	2.17881																
0.965799	2.33141	0.905616	2.17892																
0.967696	2.33075	0.907689	2.17902																
0.969593	2.33009	0.909762	2.17912																
0.97149	2.32943	0.911835	2.17922																
0.973389	2.32878	0.913908	2.17932																
0.975288	2.32814	0.915981	2.17942																
0.977187	2.32749	0.918054	2.17953																
0.979088	2.32686	0.920127	2.17963																
0.980989	2.32622	0.9222	2.17973																
0.982891	2.32559	0.924272	2.17982																
0.984793	2.32497	0.926345	2.17992																
0.986696	2.32435	0.928418	2.18002																
0.9886	2.32374	0.930491	2.18012																
0.990504	2.32312	0.932564	2.18022																
0.992409	2.32252	0.934637	2.18031																
0.994315	2.32191	0.936709	2.18041																
0.996221	2.32132	0.938782	2.18051																
0.998128	2.32072	0.940855	2.1806																
1.00004	2.32013	0.942928	2.1807																
		0.945001	2.18079																
		0.947073	2.18088																
		0.949146	2.18098																
		0.951219	2.18107																
		0.953292	2.18116																
		0.955364	2.18126																
		0.957437	2.18135																
		0.95951	2.18144																
		0.961582	2.18153																
		0.963655	2.18162																
		0.965728	2.18171																
		0.9678	2.1818																
		0.969873	2.18189																
		0.971946	2.18198																
		0.974018	2.18207																
		0.976091	2.18216																
		0.978163	2.18225																
		0.980236	2.18234																
		0.982309	2.18242																
		0.984381	2.18251																
		0.986454	2.1826																
		0.988526	2.18268																
		0.990599	2.18277																
		0.992671	2.18285																
		0.994744	2.18294																
		0.996817	2.18302																
		0.998889	2.18311																
		1.00096	2.18319																
