Sym0		Asym0		Sym1		Sym2		Sym3		Sym4		Asym1		Asym2		Asym3		Asym4	
469  Points		496  Points		231  Points		197  Points		183  Points		128  Points		338  Points		209  Points		171  Points		106  Points	
Freq (MHz)	Vph (m/ms)	Freq (MHz)	Vph (m/ms)	Freq (MHz)	Vph (m/ms)	Freq (MHz)	Vph (m/ms)	Freq (MHz)	Vph (m/ms)	Freq (MHz)	Vph (m/ms)	Freq (MHz)	Vph (m/ms)	Freq (MHz)	Vph (m/ms)	Freq (MHz)	Vph (m/ms)	Freq (MHz)	Vph (m/ms)
0.000767289	5.22698	0.000266943	0.142098	0.279521	477.229	0.468439	537.907	0.559023	1080.54	0.838528	1989.16	0.139799	218.19	0.419264	1985.06	0.698773	2384.21	0.936859	4058.04
0.00563697	5.22673	0.000595339	0.211843	0.279593	184.257	0.468469	259.892	0.559066	385.816	0.838551	619.66	0.140026	89.051	0.419299	366.872	0.698795	570.548	0.936866	805.865
0.0105065	5.22661	0.00105057	0.280753	0.27973	114.217	0.46852	171.353	0.55915	234.864	0.838598	367.011	0.140441	56.084	0.419383	202.151	0.698846	324.069	0.936882	447.358
0.0153754	5.2264	0.00162914	0.348578	0.27993	82.7999	0.468593	127.823	0.559274	168.841	0.83867	260.729	0.141043	41.0508	0.419515	139.546	0.698925	226.323	0.936907	309.624
0.0202437	5.22609	0.00232677	0.415096	0.280194	64.9725	0.468687	101.941	0.55944	131.815	0.838766	202.194	0.141828	32.4734	0.419696	106.576	0.699031	173.894	0.936942	236.742
0.0251111	5.22574	0.00313846	0.480102	0.280521	53.4918	0.468803	84.7848	0.559645	108.127	0.838886	165.134	0.142791	26.9458	0.419925	86.2324	0.699165	141.201	0.936986	191.639
0.0299773	5.22528	0.00405873	0.543427	0.280911	45.4852	0.46894	72.5798	0.559891	91.6724	0.83903	139.566	0.143928	23.0992	0.420202	72.4314	0.699328	118.868	0.93704	160.975
0.0348421	5.22475	0.00508177	0.60494	0.281365	39.5865	0.469099	63.4542	0.560178	79.5796	0.839199	120.863	0.145233	20.2767	0.420527	62.4569	0.699518	102.645	0.937102	138.774
0.0397053	5.22413	0.00620146	0.664527	0.28188	35.0629	0.46928	56.3739	0.560505	70.3188	0.839392	106.588	0.1467	18.1239	0.4209	54.9137	0.699736	90.3276	0.937174	121.958
0.0445667	5.22344	0.00741155	0.722103	0.282457	31.4857	0.469482	50.7213	0.560872	63.0009	0.839609	95.3363	0.148321	16.4326	0.421322	49.011	0.699981	80.6585	0.937256	108.779
0.0494259	5.22266	0.00870578	0.777612	0.283096	28.5878	0.469707	46.1049	0.561279	57.0736	0.83985	86.2401	0.150089	15.0727	0.42179	44.2678	0.700255	72.867	0.937348	98.174
0.0542828	5.22179	0.010078	0.83102	0.283795	26.194	0.469955	42.2641	0.561726	52.1759	0.840115	78.7347	0.151999	13.9585	0.422307	40.3741	0.700556	66.4555	0.937449	89.4554
0.0591372	5.22084	0.0115221	0.882319	0.284554	24.1843	0.470226	39.019	0.562213	48.0618	0.840404	72.4368	0.154042	13.0312	0.42287	37.1214	0.700885	61.0877	0.937559	82.1613
0.0639887	5.21981	0.0130325	0.931514	0.285373	22.4743	0.470519	36.2415	0.562739	44.5579	0.840717	67.0772	0.156212	12.2493	0.423481	34.3644	0.701241	56.5284	0.93768	75.9692
0.0688371	5.21867	0.0146034	0.978631	0.28625	21.0023	0.470836	33.8376	0.563305	41.5383	0.841055	62.461	0.158502	11.5826	0.424139	31.9985	0.701625	52.6081	0.93781	70.647
0.073682	5.21746	0.0162298	1.02371	0.287185	19.7227	0.471177	31.737	0.563909	38.9097	0.841416	58.444	0.160905	11.0087	0.424843	29.9467	0.702036	49.2018	0.937951	66.0236
0.0785234	5.21615	0.0179067	1.06679	0.288177	18.6007	0.471542	29.8861	0.564553	36.6011	0.841801	54.9168	0.163087	10.5708	0.425593	28.1508	0.702475	46.2149	0.938101	61.97
0.0833608	5.21474	0.0196295	1.10792	0.289225	17.6094	0.471931	28.243	0.565235	34.5579	0.842211	51.7953	0.165008	10.2361	0.426389	26.5663	0.702941	43.5746	0.938262	58.3871
0.0881939	5.21324	0.0213939	1.14718	0.290329	16.7277	0.472345	26.7749	0.565956	32.7372	0.842644	49.0136	0.166637	9.98277	0.427231	25.1583	0.703435	41.2243	0.938433	55.1975
0.0930225	5.21163	0.023196	1.18463	0.291487	15.9388	0.472785	25.4554	0.566715	31.1048	0.843101	46.5191	0.167951	9.79588	0.428119	23.8993	0.703956	39.1189	0.938615	52.3399
0.0978461	5.20993	0.0250321	1.22033	0.292698	15.2291	0.47325	24.2633	0.567512	29.6332	0.843582	44.2698	0.16893	9.66543	0.429051	22.7673	0.704504	37.2222	0.938807	49.7651
0.102665	5.20812	0.0268988	1.25436	0.293962	14.5877	0.473741	23.1812	0.568347	28.3	0.844086	42.2315	0.169563	9.58485	0.430029	21.7441	0.705079	35.5048	0.93901	47.4332
0.107477	5.20621	0.0287932	1.2868	0.295277	14.0055	0.474259	22.1947	0.569219	27.0868	0.844615	40.3758	0.170481	9.47281	0.43105	20.8151	0.705681	33.9427	0.939224	45.3115
0.112284	5.20419	0.0307124	1.3177	0.296643	13.4748	0.474803	21.2918	0.570128	25.9783	0.845166	38.6794	0.171489	9.35584	0.432116	19.9682	0.70631	32.5158	0.939448	43.3728
0.117085	5.20205	0.0326539	1.34715	0.298058	12.9893	0.475376	20.4625	0.571074	24.9617	0.845742	37.1229	0.172877	9.20434	0.433225	19.1931	0.706965	31.2074	0.939684	41.5945
0.121879	5.1998	0.0346154	1.37521	0.299522	12.5438	0.475976	19.6984	0.572057	24.0262	0.846341	35.6896	0.174661	9.02431	0.434377	18.4813	0.707648	30.0036	0.939931	39.9576
0.126666	5.19742	0.0365947	1.40195	0.301033	12.1336	0.476605	18.9921	0.573076	23.1626	0.846963	34.3657	0.176857	8.82232	0.435572	17.8256	0.708357	28.8923	0.94019	38.4458
0.131445	5.19492	0.0385901	1.42745	0.30259	11.755	0.477263	18.3375	0.574131	22.3631	0.847609	33.1391	0.179487	8.605	0.43681	17.2196	0.709092	27.8634	0.940459	37.0455
0.136216	5.19229	0.0405996	1.45175	0.304193	11.4045	0.47795	17.7292	0.575222	21.621	0.848279	31.9996	0.182573	8.37865	0.438089	16.6582	0.709854	26.9083	0.940741	35.7447
0.140979	5.18953	0.0426219	1.47492	0.30584	11.0792	0.478668	17.1627	0.576348	20.9303	0.848971	30.9384	0.185726	8.17386	0.439411	16.1368	0.710643	26.0192	0.941034	34.5333
0.145732	5.18663	0.0446554	1.49702	0.30753	10.7767	0.479416	16.6339	0.577509	20.2861	0.849687	29.9477	0.188942	7.9879	0.440773	15.6513	0.711457	25.1897	0.941339	33.4025
0.150476	5.18359	0.0464356	1.51546	0.309038	10.5299	0.480196	16.1392	0.578705	19.6839	0.850426	29.0207	0.19222	7.81848	0.442175	15.1983	0.712298	24.4141	0.941657	32.3444
0.15521	5.18039	0.0479587	1.53059	0.310348	10.3309	0.481007	15.6756	0.579935	19.1198	0.851188	28.1517	0.195554	7.66368	0.443618	14.7747	0.713164	23.6874	0.941986	31.3524
0.159933	5.17705	0.0492216	1.54272	0.311448	10.1737	0.481851	15.2404	0.581199	18.5905	0.851973	27.3353	0.198942	7.5218	0.445101	14.378	0.714056	23.0051	0.942328	30.4204
0.164645	5.17353	0.0502222	1.55206	0.312328	10.0539	0.482729	14.8311	0.582498	18.0928	0.852781	26.5671	0.20238	7.39144	0.446623	14.0056	0.714975	22.3634	0.942682	29.5433
0.169345	5.16986	0.050959	1.55881	0.312982	9.96815	0.483639	14.4455	0.583829	17.6241	0.853612	25.8428	0.205867	7.27135	0.448184	13.6556	0.715918	21.7588	0.943049	28.7163
0.174031	5.16601	0.051431	1.56306	0.313403	9.9143	0.484584	14.0819	0.585194	17.1821	0.854465	25.159	0.209399	7.16046	0.449783	13.326	0.716887	21.1883	0.943429	27.9353
0.178705	5.16197	0.0521102	1.5691	0.314011	9.83828	0.485564	13.7384	0.586592	16.7645	0.855341	24.5124	0.212974	7.05784	0.451419	13.0152	0.717882	20.6491	0.943821	27.1967
0.183364	5.15775	0.0528491	1.57557	0.314677	9.75743	0.48658	13.4135	0.588022	16.3695	0.85624	23.9	0.216589	6.96267	0.453094	12.7218	0.718901	20.1387	0.944227	26.497
0.188008	5.15332	0.0538554	1.5842	0.315591	9.65035	0.487631	13.1059	0.589484	15.9954	0.857162	23.3193	0.220242	6.87423	0.454804	12.4443	0.719946	19.655	0.944646	25.8333
0.192636	5.14869	0.05513	1.59484	0.31676	9.51949	0.48872	12.8143	0.590978	15.6405	0.858106	22.7679	0.223932	6.79188	0.456552	12.1815	0.721016	19.1959	0.945078	25.203
0.197247	5.14385	0.056674	1.60732	0.318192	9.36768	0.489845	12.5375	0.592504	15.3035	0.859072	22.2436	0.227656	6.71508	0.458335	11.9325	0.72211	18.7597	0.945523	24.6035
0.201841	5.13877	0.0584886	1.62145	0.319898	9.19805	0.491009	12.2746	0.594061	14.9832	0.86006	21.7446	0.231413	6.64332	0.460154	11.6961	0.723229	18.3448	0.945982	24.0328
0.206415	5.13346	0.0605748	1.637	0.32189	9.01384	0.492211	12.0246	0.595648	14.6783	0.861071	21.2692	0.2352	6.57615	0.462007	11.4716	0.724373	17.9496	0.946455	23.4889
0.210969	5.1279	0.0626647	1.65189	0.323917	8.83997	0.493452	11.7866	0.597267	14.3878	0.862104	20.8157	0.239017	6.51319	0.463895	11.258	0.72554	17.5728	0.946942	22.9698
0.215501	5.12208	0.0647578	1.66614	0.325979	8.67565	0.494733	11.56	0.598915	14.1108	0.863158	20.3826	0.242861	6.45408	0.465816	11.0547	0.726732	17.2133	0.947443	22.4741
0.220012	5.11598	0.0668538	1.6798	0.328075	8.52016	0.496054	11.3439	0.600594	13.8464	0.864235	19.9687	0.246731	6.3985	0.467771	10.8609	0.727949	16.8698	0.947958	22.0001
0.224498	5.1096	0.068952	1.69289	0.330205	8.37288	0.497416	11.1377	0.602302	13.5938	0.865334	19.5727	0.250626	6.34617	0.469502	10.6994	0.729188	16.5414	0.948487	21.5465
0.228959	5.10292	0.0710523	1.70545	0.332367	8.23321	0.49882	10.9409	0.604039	13.3523	0.866454	19.1936	0.254544	6.29683	0.470996	10.5668	0.730452	16.2271	0.949031	21.112
0.233393	5.09593	0.0731543	1.71749	0.334563	8.10064	0.500077	10.7766	0.605805	13.1211	0.867595	18.8302	0.258484	6.25025	0.472246	10.4605	0.731739	15.926	0.949589	20.6955
0.237799	5.08861	0.0752577	1.72905	0.336791	7.97469	0.501174	10.6415	0.6076	12.8996	0.868759	18.4817	0.262446	6.20622	0.473242	10.3786	0.73305	15.6375	0.950162	20.2958
0.242174	5.08095	0.0773623	1.74016	0.339051	7.85492	0.502099	10.5331	0.609424	12.6874	0.869943	18.1473	0.266427	6.16455	0.473979	10.3194	0.734384	15.3606	0.95075	19.9121
0.246519	5.07293	0.0794678	1.75083	0.341343	7.74093	0.502842	10.4495	0.611275	12.4838	0.871149	17.826	0.270427	6.12506	0.474453	10.2821	0.735741	15.0948	0.951352	19.5434
0.250829	5.06453	0.0815741	1.76108	0.343667	7.63238	0.503395	10.3892	0.613154	12.2883	0.872376	17.5171	0.274444	6.08759	0.475138	10.229	0.737121	14.8395	0.95197	19.1888
0.255104	5.05574	0.0836809	1.77095	0.346024	7.52892	0.503751	10.351	0.615061	12.1006	0.873624	17.22	0.278478	6.052	0.475885	10.1723	0.738523	14.594	0.952603	18.8476
0.259342	5.04655	0.0857882	1.78044	0.348412	7.43027	0.504268	10.2969	0.616994	11.9202	0.874893	16.934	0.282528	6.01816	0.476908	10.0965	0.739949	14.3578	0.953252	18.5191
0.26354	5.03692	0.0878958	1.78957	0.350833	7.33613	0.504835	10.2389	0.618955	11.7466	0.876184	16.6586	0.286593	5.98595	0.478212	10.0029	0.741396	14.1304	0.953915	18.2025
0.267697	5.02686	0.0900036	1.79837	0.353288	7.24628	0.505615	10.1614	0.620942	11.5796	0.877494	16.3931	0.290672	5.95525	0.479805	9.89296	0.742866	13.9114	0.954595	17.8973
0.271811	5.01634	0.0921113	1.80685	0.355775	7.16046	0.506616	10.0658	0.622955	11.4187	0.878826	16.1371	0.294764	5.92597	0.481694	9.76838	0.744358	13.7003	0.95529	17.6028
0.275878	5.00534	0.0942191	1.81503	0.358297	7.07848	0.507849	9.95341	0.624995	11.2637	0.880178	15.8901	0.298868	5.89801	0.48389	9.63094	0.745872	13.4967	0.956002	17.3186
0.279897	4.99384	0.0963267	1.82291	0.360853	7.00014	0.509327	9.82602	0.62706	11.1143	0.88155	15.6516	0.302984	5.87128	0.486114	9.49907	0.747408	13.3003	0.956729	17.0441
0.283867	4.98185	0.0984342	1.83052	0.363446	6.92527	0.511065	9.68545	0.62888	10.9885	0.882943	15.4213	0.30711	5.8457	0.488368	9.37247	0.748965	13.1106	0.957472	16.7788
0.287783	4.96933	0.100541	1.83786	0.366075	6.85369	0.512848	9.55061	0.630447	10.8842	0.884356	15.1986	0.311247	5.8212	0.49065	9.25085	0.750543	12.9274	0.958232	16.5224
0.291645	4.95628	0.102648	1.84495	0.368742	6.78526	0.514677	9.42119	0.631753	10.8	0.885789	14.9833	0.315393	5.79771	0.492959	9.13394	0.752143	12.7504	0.959008	16.2743
0.29545	4.94268	0.104755	1.85181	0.371448	6.71985	0.516551	9.29694	0.632792	10.7348	0.887242	14.775	0.319547	5.77517	0.495296	9.0215	0.753764	12.5792	0.959801	16.0343
0.299196	4.92853	0.106861	1.85843	0.374194	6.65732	0.518471	9.1776	0.63356	10.6875	0.888715	14.5735	0.32371	5.75352	0.49766	8.91329	0.755405	12.4136	0.96061	15.8018
0.302881	4.91382	0.108967	1.86484	0.376982	6.59756	0.520436	9.06293	0.634053	10.6575	0.890207	14.3783	0.32788	5.7327	0.50005	8.8091	0.757068	12.2533	0.961436	15.5767
0.306503	4.89854	0.111072	1.87103	0.379812	6.54045	0.522448	8.95271	0.634764	10.6148	0.891719	14.1892	0.332056	5.71267	0.502466	8.70873	0.758751	12.0981	0.962279	15.3585
0.310061	4.8827	0.113177	1.87703	0.382687	6.4859	0.524507	8.84674	0.63554	10.569	0.893251	14.0059	0.336239	5.69337	0.504907	8.61198	0.760454	11.9477	0.96314	15.147
0.313553	4.86629	0.115282	1.88284	0.385608	6.4338	0.526611	8.74481	0.6366	10.5075	0.894802	13.8282	0.340428	5.67477	0.507374	8.51868	0.762177	11.8021	0.964017	14.9419
0.316978	4.84932	0.117386	1.88847	0.388575	6.38407	0.528762	8.64675	0.63795	10.4313	0.896373	13.6558	0.344621	5.65681	0.509866	8.42867	0.763921	11.6608	0.964912	14.7428
0.319907	4.83409	0.119489	1.89392	0.391591	6.33662	0.530959	8.55237	0.639593	10.3411	0.897962	13.4886	0.348819	5.63947	0.512382	8.34178	0.765684	11.5238	0.965824	14.5497
0.322362	4.82077	0.121592	1.89921	0.394656	6.29137	0.533202	8.46152	0.641538	10.2382	0.899571	13.3263	0.35302	5.6227	0.514922	8.25787	0.767467	11.391	0.966754	14.3621
0.324364	4.80954	0.123695	1.90433	0.397772	6.24824	0.535491	8.37403	0.643792	10.1236	0.901198	13.1686	0.357225	5.60648	0.517485	8.1768	0.769036	11.2783	0.967701	14.1799
0.325928	4.80052	0.125797	1.9093	0.400939	6.20715	0.537826	8.28976	0.646069	10.0127	0.902844	13.0155	0.361433	5.59076	0.520072	8.09845	0.770386	11.1846	0.968667	14.0029
0.327067	4.79381	0.127898	1.91413	0.404159	6.16803	0.540206	8.20858	0.648369	9.90534	0.904509	12.8667	0.365642	5.57553	0.522681	8.02269	0.77151	11.1086	0.96965	13.8308
0.327792	4.78948	0.129999	1.91882	0.407431	6.13079	0.542632	8.13033	0.650692	9.80132	0.906192	12.722	0.369854	5.56075	0.525313	7.9494	0.772404	11.0495	0.970652	13.6635
0.328827	4.78321	0.132099	1.92337	0.410757	6.09538	0.545103	8.05491	0.653038	9.70052	0.907894	12.5813	0.374067	5.54639	0.527967	7.87848	0.773064	11.0065	0.971672	13.5008
0.329944	4.77633	0.134199	1.92779	0.414136	6.06172	0.547619	7.98219	0.655406	9.60279	0.909614	12.4445	0.37828	5.53244	0.530642	7.80983	0.773488	10.9793	0.97271	13.3425
0.331448	4.76688	0.136298	1.93209	0.417569	6.02973	0.550179	7.91205	0.657796	9.50802	0.911353	12.3113	0.382494	5.51886	0.533339	7.74334	0.774099	10.9404	0.973767	13.1885
0.333327	4.75477	0.138397	1.93627	0.421054	5.99935	0.552783	7.84439	0.660208	9.41608	0.913109	12.1817	0.386707	5.50565	0.536057	7.67893	0.774765	10.8986	0.974842	13.0385
0.335565	4.73989	0.140496	1.94034	0.424592	5.9705	0.55543	7.77911	0.662642	9.32686	0.914883	12.0556	0.39092	5.49276	0.538796	7.61651	0.775675	10.8424	0.975936	12.8925
0.338141	4.72213	0.142594	1.94429	0.428182	5.94312	0.558121	7.71611	0.665097	9.24024	0.916675	11.9327	0.395131	5.48019	0.541555	7.556	0.776832	10.7724	0.977049	12.7502
0.341033	4.70135	0.144691	1.94814	0.431823	5.91713	0.560854	7.65529	0.667574	9.15613	0.918485	11.813	0.399341	5.46792	0.544335	7.49732	0.778241	10.6893	0.978182	12.6117
0.343859	4.68018	0.146788	1.95189	0.435513	5.89247	0.563629	7.59656	0.670071	9.07442	0.920312	11.6963	0.403548	5.45593	0.547134	7.44039	0.779906	10.594	0.979333	12.4767
0.346618	4.65866	0.148884	1.95554	0.439252	5.86907	0.566445	7.53984	0.67259	8.99503	0.921919	11.5971	0.407753	5.4442	0.549953	7.38516	0.781835	10.4875	0.980504	12.345
0.349312	4.63681	0.15098	1.9591	0.443037	5.84686	0.569303	7.48505	0.675129	8.91787	0.923299	11.5142	0.411955	5.43272	0.552791	7.33154	0.783782	10.3838	0.981693	12.2167
0.351943	4.61466	0.153076	1.96256	0.446868	5.82578	0.5722	7.43211	0.677688	8.84285	0.924447	11.4468	0.416153	5.42146	0.555648	7.27948	0.785746	10.2829	0.982903	12.0916
0.354513	4.59226	0.155171	1.96594	0.450742	5.80577	0.575138	7.38094	0.680267	8.76989	0.92536	11.3943	0.420346	5.41043	0.558524	7.22893	0.787729	10.1847	0.984132	11.9695
0.357023	4.56963	0.157266	1.96923	0.454658	5.78676	0.578114	7.33148	0.682867	8.69891	0.926033	11.356	0.424535	5.39959	0.561419	7.17981	0.789729	10.089	0.985381	11.8504
0.359476	4.5468	0.15936	1.97244	0.458613	5.7687	0.581129	7.28365	0.685486	8.62985	0.926465	11.3317	0.428719	5.38895	0.564332	7.13208	0.791747	9.99584	0.986486	11.749
0.361874	4.52381	0.161454	1.97558	0.462606	5.75152	0.584182	7.2374	0.688125	8.56264	0.927088	11.297	0.432898	5.37848	0.567263	7.08569	0.793782	9.90502	0.98744	11.6642
0.364218	4.5007	0.163547	1.97864	0.466636	5.73518	0.587272	7.19266	0.690783	8.4972	0.927767	11.2597	0.43707	5.36818	0.570212	7.04059	0.795834	9.81651	0.988237	11.5952
0.36651	4.47748	0.16564	1.98162	0.470699	5.71963	0.590398	7.14937	0.69346	8.43349	0.928694	11.2094	0.441236	5.35803	0.573178	6.99673	0.797904	9.73021	0.988873	11.5414
0.368754	4.45418	0.167733	1.98454	0.474794	5.7048	0.59356	7.10747	0.696157	8.37142	0.929872	11.1466	0.445395	5.34803	0.576163	6.95407	0.79999	9.64606	0.989343	11.5022
0.37095	4.43085	0.169825	1.98739	0.478919	5.69066	0.596757	7.06691	0.698872	8.31096	0.931306	11.0719	0.449546	5.33816	0.579164	6.91257	0.802093	9.56397	0.989645	11.4773
0.373101	4.40749	0.171917	1.99017	0.483072	5.67716	0.599989	7.02764	0.701606	8.25204	0.932999	10.986	0.453689	5.3284	0.582183	6.87218	0.804213	9.48389	0.990082	11.4417
0.375209	4.38415	0.174009	1.99288	0.487252	5.66427	0.603254	6.9896	0.704359	8.19462	0.934957	10.8896	0.457824	5.31877	0.58522	6.83287	0.806349	9.40573	0.990559	11.4034
0.377277	4.36083	0.1761	1.99554	0.491457	5.65193	0.606552	6.95276	0.70713	8.13864	0.936932	10.7954	0.46195	5.30923	0.588273	6.79461	0.808501	9.32945	0.991212	11.3518
0.379305	4.33756	0.178191	1.99814	0.495684	5.64011	0.609882	6.91706	0.709919	8.08405	0.938923	10.7035	0.466066	5.29979	0.591342	6.75735	0.81067	9.25497	0.992045	11.2873
0.381296	4.31436	0.180281	2.00068	0.499932	5.62878	0.613244	6.88247	0.712726	8.03082	0.94093	10.6136	0.470173	5.29043	0.594429	6.72106	0.812855	9.18225	0.993062	11.2106
0.383252	4.29125	0.182372	2.00316	0.504201	5.6179	0.616637	6.84893	0.715551	7.97889	0.942954	10.5258	0.474269	5.28116	0.597532	6.68572	0.815055	9.11121	0.99427	11.1223
0.385174	4.26825	0.184462	2.00559	0.508487	5.60745	0.62006	6.81641	0.718394	7.92822	0.944993	10.44	0.478354	5.27195	0.600652	6.65129	0.817272	9.04182	0.995676	11.0232
0.387064	4.24537	0.186551	2.00797	0.51279	5.59739	0.623512	6.78487	0.721255	7.87878	0.947048	10.3561	0.482427	5.2628	0.603788	6.61774	0.819504	8.97401	0.997102	10.9263
0.388925	4.22262	0.18864	2.0103	0.517108	5.58769	0.626994	6.75428	0.724133	7.83053	0.949119	10.2741	0.486488	5.25371	0.606941	6.58505	0.821751	8.90774	0.99855	10.8315
0.390756	4.20002	0.190729	2.01258	0.521439	5.57834	0.630504	6.72459	0.727029	7.78342	0.951206	10.1939	0.490537	5.24466	0.61011	6.55319	0.824014	8.84296	1.00002	10.7389
0.392561	4.17758	0.192818	2.01481	0.525784	5.56931	0.634041	6.69579	0.729942	7.73743	0.953308	10.1154	0.494573	5.23566	0.613295	6.52213	0.826292	8.77962		
0.39434	4.15531	0.194907	2.017	0.53014	5.56057	0.637605	6.66782	0.732872	7.69252	0.955426	10.0386	0.498595	5.22669	0.616496	6.49186	0.828585	8.71768		
0.396095	4.13322	0.196995	2.01914	0.534506	5.55211	0.641196	6.64066	0.735819	7.64865	0.957559	9.9635	0.502604	5.21775	0.619714	6.46234	0.830893	8.65711		
0.397826	4.11132	0.199083	2.02124	0.538881	5.5439	0.644812	6.61429	0.738783	7.6058	0.959707	9.88998	0.506597	5.20883	0.622948	6.43355	0.833216	8.59785		
0.399536	4.08962	0.20117	2.0233	0.543264	5.53593	0.648453	6.58867	0.741764	7.56394	0.96187	9.818	0.510576	5.19992	0.626198	6.40548	0.835554	8.53987		
0.401226	4.06811	0.203258	2.02531	0.547654	5.52818	0.652118	6.56378	0.744762	7.52303	0.964047	9.74753	0.514539	5.19103	0.629464	6.3781	0.837906	8.48313		
0.402896	4.04682	0.205345	2.02729	0.55205	5.52063	0.655808	6.53959	0.747776	7.48306	0.96624	9.67852	0.518486	5.18214	0.632746	6.3514	0.840273	8.4276		
0.404548	4.02574	0.207432	2.02922	0.556451	5.51328	0.65952	6.51607	0.750807	7.44399	0.968447	9.61094	0.522416	5.17324	0.636044	6.32535	0.842655	8.37324		
0.406182	4.00487	0.209518	2.03113	0.560857	5.5061	0.663255	6.4932	0.753855	7.40579	0.970669	9.54474	0.526329	5.16435	0.639359	6.29994	0.845051	8.32002		
0.4078	3.98422	0.211605	2.03299	0.565266	5.49909	0.667013	6.47096	0.756919	7.36845	0.972906	9.47988	0.530225	5.15544	0.642689	6.27515	0.847461	8.26791		
0.409403	3.9638	0.213691	2.03482	0.569678	5.49223	0.670791	6.44933	0.759999	7.33194	0.975156	9.41632	0.534102	5.14652	0.646036	6.25096	0.849885	8.21687		
0.410991	3.94361	0.215777	2.03661	0.574091	5.48551	0.674591	6.42828	0.763096	7.29623	0.977421	9.35404	0.537961	5.13758	0.649399	6.22736	0.852323	8.16688		
0.412566	3.92364	0.217863	2.03838	0.578506	5.47891	0.678411	6.40779	0.766209	7.26131	0.9797	9.29299	0.541801	5.12861	0.652778	6.20433	0.854775	8.1179		
0.414128	3.9039	0.219948	2.0401	0.582921	5.47244	0.682251	6.38785	0.769338	7.22715	0.981993	9.23314	0.545621	5.11962	0.656173	6.18186	0.857241	8.06992		
0.415678	3.88439	0.222034	2.0418	0.587337	5.46608	0.686111	6.36843	0.772483	7.19374	0.984299	9.17445	0.549421	5.1106	0.659584	6.15992	0.859721	8.02289		
0.417216	3.86512	0.224119	2.04347	0.591751	5.45982	0.689989	6.34951	0.775645	7.16105	0.98662	9.11691	0.5532	5.10154	0.663011	6.13852	0.862215	7.97681		
0.418744	3.84608	0.226204	2.04511	0.596164	5.45365	0.693885	6.33109	0.778823	7.12906	0.988954	9.06047	0.556959	5.09245	0.666455	6.11763	0.864722	7.93164		
0.420262	3.82726	0.228289	2.04672	0.600574	5.44757	0.697799	6.31313	0.782016	7.09776	0.991301	9.00511	0.560696	5.08332	0.669915	6.09725	0.867243	7.88735		
0.42177	3.80869	0.230373	2.0483	0.604982	5.44157	0.701731	6.29563	0.785226	7.06714	0.993662	8.9508	0.564411	5.07414	0.673391	6.07735	0.869777	7.84393		
0.423269	3.79034	0.232458	2.04985	0.609387	5.43564	0.705679	6.27858	0.788452	7.03716	0.996037	8.89752	0.568104	5.06491	0.676883	6.05793	0.872325	7.80136		
0.424761	3.77222	0.234542	2.05137	0.613789	5.42977	0.709644	6.26194	0.791694	7.00782	0.998424	8.84523	0.571774	5.05564	0.680392	6.03897	0.874886	7.75961		
0.426245	3.75433	0.236626	2.05287	0.618186	5.42397	0.713624	6.24572	0.794952	6.9791	1.00082	8.79391	0.575422	5.04632	0.683916	6.02047	0.87746	7.71866		
0.427721	3.73667	0.23871	2.05435	0.622578	5.41822	0.71762	6.22989	0.798226	6.95099			0.579045	5.03694	0.687457	6.00241	0.880047	7.67849		
0.429191	3.71924	0.240794	2.0558	0.626966	5.41251	0.721631	6.21444	0.801517	6.92347			0.582645	5.02751	0.691014	5.98478	0.882648	7.63908		
0.430654	3.70203	0.242878	2.05722	0.631348	5.40685	0.725656	6.19937	0.804823	6.89653			0.586221	5.01803	0.694586	5.96757	0.885262	7.60041		
0.432112	3.68505	0.244961	2.05862	0.635723	5.40123	0.729695	6.18465	0.808146	6.87015			0.589773	5.00848	0.698175	5.95076	0.887888	7.56247		
0.433565	3.66829	0.247044	2.06	0.640092	5.39564	0.733748	6.17027	0.811484	6.84432			0.5933	4.99888	0.70178	5.93436	0.890528	7.52524		
0.435012	3.65175	0.249128	2.06136	0.644455	5.39008	0.737814	6.15623	0.814839	6.81904			0.596801	4.98922	0.7054	5.91835	0.893181	7.4887		
0.436455	3.63543	0.251211	2.06269	0.64881	5.38454	0.741892	6.14251	0.818211	6.79427			0.600278	4.9795	0.709036	5.90271	0.895846	7.45283		
0.437893	3.61932	0.253294	2.06401	0.653157	5.37903	0.745983	6.1291	0.821598	6.77003			0.603729	4.96972	0.712688	5.88745	0.898525	7.41762		
0.439328	3.60343	0.255376	2.0653	0.657496	5.37353	0.750086	6.11599	0.825002	6.74628			0.607154	4.95987	0.716355	5.87254	0.901216	7.38305		
0.440759	3.58776	0.257459	2.06657	0.661827	5.36805	0.7542	6.10317	0.828422	6.72303			0.610554	4.94997	0.720037	5.85799	0.90392	7.3491		
0.442187	3.57229	0.259541	2.06782	0.666149	5.36259	0.758325	6.09063	0.831859	6.70026			0.613927	4.94001	0.723735	5.84377	0.906637	7.31578		
0.443612	3.55703	0.261624	2.06905	0.670462	5.35712	0.76246	6.07836	0.835313	6.67796			0.617275	4.92998	0.727447	5.82989	0.909366	7.28305		
0.445035	3.54197	0.263706	2.07027	0.674765	5.35167	0.766606	6.06635	0.838783	6.65613			0.620596	4.91989	0.731174	5.81633	0.912108	7.2509		
0.446455	3.52712	0.265788	2.07146	0.679059	5.34622	0.770761	6.0546	0.84227	6.63474			0.62389	4.90975	0.734916	5.80309	0.914863	7.21933		
0.447873	3.51246	0.26787	2.07264	0.683342	5.34076	0.774926	6.04308	0.845773	6.6138			0.627158	4.89954	0.738672	5.79015	0.91763	7.18831		
0.449289	3.49801	0.269952	2.07379	0.687615	5.33531	0.779099	6.0318	0.849294	6.5933			0.6304	4.88928	0.742442	5.77751	0.92041	7.15785		
0.450703	3.48375	0.272034	2.07494	0.691877	5.32985	0.783281	6.02075	0.852832	6.57322			0.633615	4.87896	0.746226	5.76516	0.923202	7.12792		
0.452116	3.46969	0.274115	2.07606	0.696128	5.32438	0.787471	6.00992	0.856387	6.55355			0.636803	4.86858	0.750024	5.75309	0.926006	7.09851		
0.453528	3.45581	0.276197	2.07717	0.700368	5.31891	0.791669	5.99929	0.859959	6.5343			0.639965	4.85815	0.753835	5.74129	0.928823	7.06961		
0.454938	3.44212	0.278278	2.07826	0.704596	5.31342	0.795873	5.98887	0.863548	6.51545			0.643101	4.84767	0.757659	5.72975	0.931653	7.04121		
0.456348	3.42862	0.28036	2.07933	0.708812	5.30792	0.800085	5.97865	0.867155	6.49699			0.646209	4.83713	0.761496	5.71848	0.934495	7.01331		
0.457758	3.4153	0.282441	2.08039	0.713016	5.30241	0.804303	5.96861	0.870779	6.47892			0.649292	4.82654	0.765345	5.70745	0.937349	6.98588		
0.459166	3.40216	0.284522	2.08144	0.717208	5.29688	0.808527	5.95876	0.874422	6.46123			0.652348	4.8159	0.769207	5.69667	0.940216	6.95892		
0.460575	3.3892	0.286603	2.08247	0.721386	5.29133	0.812757	5.94909	0.878082	6.44391			0.655378	4.80522	0.77308	5.68612	0.943094	6.93242		
0.461983	3.37642	0.288684	2.08348	0.725552	5.28576	0.816992	5.93958	0.88176	6.42696			0.658381	4.79449	0.776965	5.6758	0.945985	6.90638		
0.463392	3.36381	0.290765	2.08448	0.729705	5.28017	0.821232	5.93024	0.885456	6.41037			0.661359	4.78372	0.78086	5.66569	0.948889	6.88077		
0.464801	3.35137	0.292845	2.08547	0.733844	5.27457	0.825476	5.92105	0.88917	6.39413			0.664311	4.77291	0.784767	5.6558	0.951804	6.85559		
0.46621	3.33909	0.294926	2.08645	0.737969	5.26893	0.829725	5.91201	0.892902	6.37823			0.667237	4.76205	0.788684	5.64612	0.954732	6.83084		
0.467619	3.32699	0.297007	2.08741	0.742081	5.26328	0.833977	5.90312	0.896653	6.36268			0.670138	4.75116	0.792611	5.63664	0.957672	6.8065		
0.469029	3.31505	0.299087	2.08835	0.746178	5.2576	0.838233	5.89437	0.900423	6.34747			0.673014	4.74024	0.796547	5.62735	0.960623	6.78257		
0.47044	3.30326	0.301167	2.08929	0.750261	5.25189	0.842491	5.88576	0.904211	6.33258			0.675864	4.72928	0.800493	5.61824	0.963587	6.75903		
0.471851	3.29164	0.303248	2.09021	0.75433	5.24615	0.846752	5.87727	0.908018	6.31801			0.67869	4.71829	0.804448	5.60932	0.966563	6.73589		
0.473263	3.28017	0.305328	2.09112	0.758384	5.24039	0.851016	5.86891	0.911843	6.30377			0.68149	4.70727	0.808411	5.60057	0.969551	6.71312		
0.474677	3.26886	0.307408	2.09201	0.762423	5.2346	0.855281	5.86067	0.915688	6.28983			0.684267	4.69623	0.812383	5.59199	0.972552	6.69073		
0.476091	3.2577	0.309488	2.0929	0.766446	5.22878	0.859548	5.85254	0.919552	6.27621			0.687019	4.68516	0.816362	5.58357	0.975564	6.66871		
0.477507	3.24669	0.311568	2.09377	0.770455	5.22293	0.863816	5.84453	0.923435	6.26288			0.689747	4.67407	0.820348	5.57531	0.978588	6.64705		
0.478924	3.23582	0.313648	2.09464	0.774448	5.21705	0.868085	5.83662	0.927337	6.24985			0.692452	4.66295	0.824342	5.5672	0.981623	6.62574		
0.480342	3.2251	0.315728	2.09549	0.778426	5.21113	0.872355	5.82881	0.931258	6.23712			0.695133	4.65182	0.828342	5.55923	0.984671	6.60477		
0.481762	3.21453	0.317807	2.09633	0.782387	5.20519	0.876625	5.8211	0.935199	6.22467			0.697791	4.64067	0.832348	5.55141	0.987731	6.58415		
0.483183	3.20409	0.319887	2.09716	0.786333	5.19921	0.880895	5.81349	0.939159	6.2125			0.700426	4.62951	0.83636	5.54372	0.990802	6.56386		
0.484606	3.1938	0.321967	2.09798	0.790263	5.19321	0.885164	5.80597	0.943138	6.20061			0.703038	4.61834	0.840377	5.53615	0.993885	6.54389		
0.486031	3.18364	0.324046	2.09878	0.794177	5.18716	0.889433	5.79854	0.947137	6.18899			0.705628	4.60716	0.844399	5.52872	0.99698	6.52424		
0.487457	3.17361	0.326125	2.09958	0.798074	5.18109	0.893702	5.79119	0.951156	6.17764			0.708196	4.59597	0.848426	5.5214	1.00009	6.50491		
0.488885	3.16372	0.328205	2.10037	0.801955	5.17498	0.897969	5.78392	0.955194	6.16655			0.710743	4.58477	0.852457	5.5142				
0.490315	3.15396	0.330284	2.10115	0.805819	5.16884	0.902235	5.77673	0.959251	6.15572			0.713267	4.57357	0.856492	5.50711				
0.491747	3.14433	0.332363	2.10192	0.809666	5.16267	0.906499	5.76961	0.963328	6.14514			0.715771	4.56236	0.860531	5.50013				
0.493181	3.13482	0.334443	2.10268	0.813497	5.15646	0.910762	5.76257	0.967424	6.1348			0.718253	4.55116	0.864572	5.49325				
0.494617	3.12544	0.336522	2.10343	0.817311	5.15022	0.915023	5.7556	0.971539	6.12472			0.720715	4.53996	0.868616	5.48647				
0.496055	3.11618	0.338601	2.10417	0.821108	5.14395	0.919281	5.7487	0.975674	6.11486			0.723157	4.52876	0.872663	5.47978				
0.497495	3.10704	0.34068	2.1049	0.824888	5.13764	0.923538	5.74186	0.979828	6.10525			0.725579	4.51757	0.876712	5.47318				
0.498937	3.09802	0.342759	2.10563	0.82865	5.1313	0.927791	5.73509	0.984	6.09586			0.727981	4.50638	0.880762	5.46667				
0.500382	3.08912	0.344837	2.10634	0.832396	5.12492	0.932043	5.72838	0.988192	6.0867			0.730363	4.4952	0.884813	5.46024				
0.501829	3.08033	0.346916	2.10705	0.836124	5.11852	0.936291	5.72172	0.992403	6.07775			0.732726	4.48403	0.888865	5.45389				
0.503277	3.07166	0.348995	2.10774	0.839835	5.11208	0.940537	5.71513	0.996632	6.06902			0.735071	4.47288	0.892918	5.44761				
0.504729	3.0631	0.351074	2.10843	0.843528	5.1056	0.944779	5.70859	1.00088	6.0605			0.737397	4.46174	0.896971	5.44141				
0.506182	3.05464	0.353152	2.10912	0.847204	5.0991	0.949019	5.70211					0.739705	4.45061	0.901024	5.43527				
0.507638	3.0463	0.355231	2.10979	0.850863	5.09256	0.953255	5.69568					0.741994	4.4395	0.905076	5.42921				
0.509096	3.03807	0.357309	2.11046	0.854504	5.08599	0.957488	5.6893					0.744266	4.42841	0.909128	5.4232				
0.510557	3.02994	0.359388	2.11112	0.858127	5.07939	0.961718	5.68297					0.746521	4.41734	0.913178	5.41725				
0.51202	3.02191	0.361466	2.11177	0.861733	5.07276	0.965945	5.67669					0.748759	4.40628	0.917227	5.41137				
0.513485	3.01399	0.363544	2.11241	0.865321	5.06609	0.970168	5.67046					0.750979	4.39525	0.921275	5.40553				
0.514953	3.00616	0.365623	2.11305	0.868892	5.0594	0.974388	5.66428					0.753184	4.38425	0.92532	5.39975				
0.516424	2.99844	0.367701	2.11368	0.872445	5.05268	0.978604	5.65815					0.755372	4.37327	0.929362	5.39401				
0.517897	2.99081	0.369779	2.1143	0.87598	5.04593	0.982817	5.65206					0.757544	4.36231	0.933402	5.38832				
0.519372	2.98328	0.371857	2.11492	0.879498	5.03915	0.987027	5.64602					0.7597	4.35138	0.937439	5.38267				
0.520851	2.97585	0.373935	2.11553	0.882998	5.03234	0.991233	5.64002					0.761841	4.34048	0.941473	5.37707				
0.522331	2.96851	0.376014	2.11613	0.886481	5.0255	0.995435	5.63406					0.763967	4.32961	0.945503	5.3715				
0.523814	2.96125	0.378092	2.11672	0.889946	5.01864	0.999634	5.62815					0.766078	4.31877	0.949529	5.36597				
0.5253	2.95409	0.380169	2.11731	0.893394	5.01175	1.00383	5.62228					0.768174	4.30796	0.953551	5.36048				
0.526789	2.94702	0.382247	2.1179	0.896824	5.00483							0.770256	4.29719	0.957568	5.35501				
0.528279	2.94004	0.384325	2.11847	0.900236	4.99789							0.772324	4.28644	0.961581	5.34958				
0.529773	2.93314	0.386403	2.11904	0.903631	4.99092							0.774379	4.27574	0.965588	5.34417				
0.531269	2.92633	0.388481	2.11961	0.907009	4.98393							0.776419	4.26506	0.96959	5.3388				
0.532768	2.9196	0.390559	2.12017	0.910369	4.97691							0.778447	4.25443	0.973587	5.33344				
0.534269	2.91296	0.392636	2.12072	0.913711	4.96987							0.780461	4.24383	0.977578	5.32811				
0.535774	2.9064	0.394714	2.12127	0.917037	4.96281							0.782463	4.23326	0.981563	5.3228				
0.53728	2.89991	0.396791	2.12181	0.920345	4.95573							0.784452	4.22274	0.985541	5.31751				
0.53879	2.89351	0.398869	2.12234	0.923636	4.94862							0.786429	4.21225	0.989513	5.31223				
0.540302	2.88718	0.400947	2.12287	0.92691	4.94149							0.788394	4.20181	0.993478	5.30698				
0.541816	2.88093	0.403024	2.1234	0.930167	4.93435							0.790347	4.19141	0.997437	5.30173				
0.543333	2.87476	0.405101	2.12392	0.933407	4.92718							0.792288	4.18104	1.00139	5.2965				
0.544853	2.86866	0.407179	2.12443	0.93663	4.92							0.794218	4.17072						
0.546376	2.86263	0.409256	2.12494	0.939836	4.9128							0.796137	4.16044						
0.547901	2.85668	0.411334	2.12544	0.943025	4.90558							0.798045	4.15021						
0.549429	2.8508	0.413411	2.12594	0.946198	4.89834							0.799943	4.14002						
0.550959	2.84498	0.415488	2.12644	0.949354	4.89109							0.80183	4.12987						
0.552492	2.83924	0.417565	2.12693	0.952493	4.88382							0.803706	4.11977						
0.554028	2.83357	0.419643	2.12741	0.955616	4.87653							0.805573	4.10971						
0.555566	2.82796	0.42172	2.12789	0.958722	4.86923							0.80743	4.09969						
0.557107	2.82242	0.423797	2.12837	0.961812	4.86192							0.809278	4.08973						
0.558651	2.81694	0.425874	2.12884	0.964886	4.8546							0.811116	4.07981						
0.560197	2.81153	0.427951	2.1293	0.967944	4.84726							0.812944	4.06993						
0.561746	2.80618	0.430028	2.12976	0.970985	4.83991							0.814764	4.06011						
0.563298	2.8009	0.432105	2.13022	0.974011	4.83255							0.816575	4.05033						
0.564852	2.79567	0.434182	2.13067	0.97702	4.82517							0.818378	4.04059						
0.566408	2.79051	0.436259	2.13112	0.980014	4.81779							0.820172	4.03091						
0.567967	2.7854	0.438336	2.13156	0.982992	4.8104							0.821958	4.02127						
0.569529	2.78036	0.440412	2.132	0.985955	4.803							0.823736	4.01168						
0.571093	2.77537	0.442489	2.13244	0.988901	4.79559							0.825506	4.00214						
0.57266	2.77044	0.444566	2.13287	0.991833	4.78817							0.827268	3.99265						
0.57423	2.76557	0.446643	2.1333	0.994749	4.78074							0.829023	3.98321						
0.575802	2.76075	0.448719	2.13372	0.997649	4.77331							0.83077	3.97382						
0.577376	2.75599	0.450796	2.13414	1.00054	4.76587							0.83251	3.96448						
0.578954	2.75128	0.452873	2.13456									0.834244	3.95518						
0.580533	2.74663	0.454949	2.13497									0.83597	3.94594						
0.582115	2.74203	0.457026	2.13538									0.83769	3.93674						
0.5837	2.73748	0.459103	2.13579									0.839403	3.9276						
0.585287	2.73298	0.461179	2.13619									0.84111	3.9185						
0.586877	2.72853	0.463256	2.13658									0.842811	3.90945						
0.588469	2.72413	0.465332	2.13698									0.844506	3.90046						
0.590063	2.71978	0.467408	2.13737									0.846195	3.89151						
0.59166	2.71548	0.469485	2.13776									0.847878	3.88262						
0.59326	2.71123	0.471561	2.13814									0.849555	3.87377						
0.594861	2.70703	0.473638	2.13852									0.851227	3.86498						
0.596466	2.70287	0.475714	2.1389									0.852893	3.85623						
0.598072	2.69875	0.47779	2.13927									0.854555	3.84753						
0.599682	2.69468	0.479867	2.13964									0.856211	3.83889						
0.601293	2.69066	0.481943	2.14001									0.857862	3.83029						
0.602907	2.68668	0.484019	2.14037									0.859509	3.82174						
0.604523	2.68275	0.486095	2.14074									0.861151	3.81325						
0.606142	2.67885	0.488171	2.14109									0.862788	3.8048						
0.607763	2.675	0.490248	2.14145									0.864421	3.7964						
0.609386	2.67119	0.492324	2.1418									0.866049	3.78805						
0.611011	2.66742	0.4944	2.14215									0.867673	3.77975						
0.612639	2.6637	0.496476	2.1425									0.869294	3.7715						
0.614269	2.66001	0.498552	2.14284									0.87091	3.7633						
0.615902	2.65636	0.500628	2.14318									0.872522	3.75515						
0.617537	2.65275	0.502704	2.14352									0.87413	3.74705						
0.619174	2.64918	0.50478	2.14385									0.875735	3.739						
0.620813	2.64565	0.506856	2.14419									0.877336	3.73099						
0.622454	2.64215	0.508932	2.14452									0.878934	3.72303						
0.624098	2.63869	0.511008	2.14484									0.880528	3.71513						
0.625744	2.63527	0.513084	2.14517									0.882119	3.70727						
0.627392	2.63189	0.51516	2.14549									0.883707	3.69945						
0.629043	2.62854	0.517235	2.14581									0.885292	3.69169						
0.630695	2.62522	0.519311	2.14612									0.886874	3.68397						
0.63235	2.62194	0.521387	2.14644									0.888453	3.6763						
0.634007	2.61869	0.523463	2.14675									0.890029	3.66868						
0.635666	2.61548	0.525539	2.14706									0.891602	3.66111						
0.637327	2.6123	0.527614	2.14737									0.893173	3.65358						
0.63899	2.60915	0.52969	2.14767									0.894741	3.6461						
0.640655	2.60604	0.531766	2.14797									0.896307	3.63866						
0.642323	2.60296	0.533841	2.14827									0.89787	3.63127						
0.643992	2.59991	0.535917	2.14857									0.899431	3.62393						
0.645664	2.59689	0.537993	2.14886									0.90099	3.61663						
0.647338	2.5939	0.540068	2.14916									0.902546	3.60938						
0.649013	2.59094	0.542144	2.14945									0.9041	3.60218						
0.650691	2.58801	0.54422	2.14973									0.905653	3.59502						
0.652371	2.58512	0.546295	2.15002									0.907203	3.5879						
0.654053	2.58225	0.548371	2.1503									0.908752	3.58083						
0.655737	2.57941	0.550446	2.15058									0.910298	3.57381						
0.657422	2.57659	0.552522	2.15086									0.911843	3.56683						
0.65911	2.57381	0.554597	2.15114									0.913387	3.55989						
0.6608	2.57105	0.556673	2.15142									0.914928	3.55299						
0.662492	2.56833	0.558748	2.15169									0.916468	3.54614						
0.664185	2.56563	0.560823	2.15196									0.918007	3.53934						
0.665881	2.56295	0.562899	2.15223									0.919544	3.53257						
0.667578	2.5603	0.564974	2.1525									0.921079	3.52585						
0.669278	2.55768	0.56705	2.15276									0.922614	3.51918						
0.670979	2.55509	0.569125	2.15303									0.924147	3.51254						
0.672682	2.55252	0.5712	2.15329									0.925679	3.50595						
0.674387	2.54997	0.573275	2.15355									0.927209	3.4994						
0.676094	2.54745	0.575351	2.15381									0.928739	3.49289						
0.677803	2.54495	0.577426	2.15406									0.930268	3.48642						
0.679514	2.54248	0.579501	2.15432									0.931795	3.47999						
0.681226	2.54004	0.581577	2.15457									0.933322	3.47361						
0.68294	2.53761	0.583652	2.15482									0.934847	3.46726						
0.684657	2.53521	0.585727	2.15507									0.936372	3.46096						
0.686374	2.53284	0.587802	2.15531									0.937896	3.45469						
0.688094	2.53048	0.589877	2.15556									0.939419	3.44847						
0.689816	2.52815	0.591952	2.1558									0.940941	3.44229						
0.691539	2.52584	0.594028	2.15604									0.942463	3.43614						
0.693264	2.52355	0.596103	2.15628									0.943984	3.43004						
0.694991	2.52129	0.598178	2.15652									0.945505	3.42397						
0.696719	2.51904	0.600253	2.15676									0.947025	3.41794						
0.698449	2.51682	0.602328	2.15699									0.948544	3.41195						
0.700181	2.51462	0.604403	2.15723									0.950063	3.406						
0.701915	2.51244	0.606478	2.15746									0.951581	3.40009						
0.70365	2.51028	0.608553	2.15769									0.9531	3.39421						
0.705387	2.50814	0.610628	2.15792									0.954617	3.38837						
0.707126	2.50602	0.612703	2.15814									0.956135	3.38257						
0.708866	2.50392	0.614778	2.15837									0.957652	3.37681						
0.710608	2.50184	0.616853	2.15859									0.959168	3.37108						
0.712351	2.49978	0.618928	2.15882									0.960685	3.36539						
0.714097	2.49773	0.621003	2.15904									0.962201	3.35974						
0.715843	2.49571	0.623078	2.15926									0.963718	3.35412						
0.717592	2.49371	0.625152	2.15947									0.965234	3.34854						
0.719342	2.49172	0.627227	2.15969									0.96675	3.343						
0.721093	2.48975	0.629302	2.15991									0.968265	3.33748						
0.722847	2.4878	0.631377	2.16012									0.969781	3.33201						
0.724601	2.48587	0.633452	2.16033									0.971297	3.32657						
0.726358	2.48396	0.635527	2.16054									0.972813	3.32116						
0.728116	2.48206	0.637601	2.16075									0.974329	3.31579						
0.729875	2.48018	0.639676	2.16096									0.975845	3.31045						
0.731636	2.47832	0.641751	2.16117									0.977361	3.30515						
0.733398	2.47647	0.643826	2.16137									0.978877	3.29988						
0.735162	2.47464	0.6459	2.16158									0.980393	3.29464						
0.736928	2.47283	0.647975	2.16178									0.98191	3.28944						
0.738695	2.47104	0.65005	2.16198									0.983426	3.28427						
0.740463	2.46926	0.652124	2.16218									0.984943	3.27913						
0.742233	2.46749	0.654199	2.16238									0.98646	3.27403						
0.744005	2.46574	0.656274	2.16258									0.987978	3.26896						
0.745777	2.46401	0.658348	2.16277									0.989495	3.26392						
0.747552	2.46229	0.660423	2.16297									0.991013	3.25891						
0.749327	2.46059	0.662498	2.16316									0.992532	3.25393						
0.751105	2.4589	0.664572	2.16336									0.99405	3.24899						
0.752883	2.45723	0.666647	2.16355									0.995569	3.24407						
0.754663	2.45557	0.668721	2.16374									0.997089	3.23919						
0.756445	2.45393	0.670796	2.16393									0.998609	3.23434						
0.758227	2.4523	0.672871	2.16411									1.00013	3.22951						
0.760012	2.45069	0.674945	2.1643																
0.761797	2.44909	0.67702	2.16449																
0.763584	2.4475	0.679094	2.16467																
0.765372	2.44593	0.681169	2.16485																
0.767162	2.44437	0.683243	2.16504																
0.768953	2.44282	0.685317	2.16522																
0.770745	2.44129	0.687392	2.1654																
0.772539	2.43977	0.689466	2.16558																
0.774334	2.43827	0.691541	2.16575																
0.77613	2.43677	0.693615	2.16593																
0.777927	2.43529	0.69569	2.16611																
0.779726	2.43383	0.697764	2.16628																
0.781526	2.43237	0.699838	2.16645																
0.783328	2.43093	0.701913	2.16663																
0.78513	2.4295	0.703987	2.1668																
0.786934	2.42808	0.706061	2.16697																
0.788739	2.42667	0.708136	2.16714																
0.790546	2.42528	0.71021	2.16731																
0.792353	2.4239	0.712284	2.16747																
0.794162	2.42253	0.714358	2.16764																
0.795972	2.42117	0.716433	2.16781																
0.797784	2.41982	0.718507	2.16797																
0.799596	2.41848	0.720581	2.16813																
0.80141	2.41716	0.722655	2.1683																
0.803225	2.41584	0.72473	2.16846																
0.805041	2.41454	0.726804	2.16862																
0.806858	2.41324	0.728878	2.16878																
0.808676	2.41196	0.730952	2.16894																
0.810496	2.41069	0.733026	2.1691																
0.812317	2.40943	0.735101	2.16925																
0.814139	2.40818	0.737175	2.16941																
0.815962	2.40694	0.739249	2.16956																
0.817786	2.40571	0.741323	2.16972																
0.819611	2.40449	0.743397	2.16987																
0.821438	2.40327	0.745471	2.17002																
0.823265	2.40207	0.747545	2.17018																
0.825094	2.40088	0.749619	2.17033																
0.826923	2.3997	0.751693	2.17048																
0.828754	2.39853	0.753767	2.17063																
0.830586	2.39737	0.755841	2.17077																
0.832419	2.39621	0.757915	2.17092																
0.834253	2.39507	0.759989	2.17107																
0.836088	2.39393	0.762063	2.17122																
0.837925	2.39281	0.764137	2.17136																
0.839762	2.39169	0.766211	2.1715																
0.8416	2.39058	0.768285	2.17165																
0.843439	2.38948	0.770359	2.17179																
0.84528	2.38839	0.772433	2.17193																
0.847121	2.38731	0.774507	2.17207																
0.848964	2.38624	0.776581	2.17221																
0.850807	2.38517	0.778655	2.17235																
0.852651	2.38412	0.780729	2.17249																
0.854497	2.38307	0.782803	2.17263																
0.856343	2.38203	0.784876	2.17277																
0.858191	2.381	0.78695	2.17291																
0.860039	2.37997	0.789024	2.17304																
0.861888	2.37896	0.791098	2.17318																
0.863739	2.37795	0.793172	2.17331																
0.86559	2.37695	0.795246	2.17344																
0.867442	2.37596	0.797319	2.17358																
0.869296	2.37497	0.799393	2.17371																
0.87115	2.374	0.801467	2.17384																
0.873005	2.37303	0.803541	2.17397																
0.874861	2.37206	0.805614	2.1741																
0.876718	2.37111	0.807688	2.17423																
0.878576	2.37016	0.809762	2.17436																
0.880435	2.36922	0.811836	2.17449																
0.882295	2.36829	0.813909	2.17462																
0.884155	2.36736	0.815983	2.17474																
0.886017	2.36644	0.818057	2.17487																
0.887879	2.36553	0.82013	2.175																
0.889743	2.36463	0.822204	2.17512																
0.891607	2.36373	0.824278	2.17524																
0.893472	2.36284	0.826351	2.17537																
0.895338	2.36195	0.828425	2.17549																
0.897205	2.36107	0.830499	2.17561																
0.899073	2.3602	0.832572	2.17574																
0.900942	2.35934	0.834646	2.17586																
0.902811	2.35848	0.836719	2.17598																
0.904681	2.35763	0.838793	2.1761																
0.906553	2.35678	0.840866	2.17622																
0.908425	2.35594	0.84294	2.17634																
0.910297	2.35511	0.845013	2.17645																
0.912171	2.35428	0.847087	2.17657																
0.914046	2.35346	0.849161	2.17669																
0.915921	2.35264	0.851234	2.1768																
0.917797	2.35183	0.853308	2.17692																
0.919674	2.35103	0.855381	2.17704																
0.921552	2.35023	0.857454	2.17715																
0.923431	2.34944	0.859528	2.17726																
0.92531	2.34866	0.861601	2.17738																
0.92719	2.34788	0.863675	2.17749																
0.929071	2.3471	0.865748	2.1776																
0.930953	2.34633	0.867822	2.17771																
0.932836	2.34557	0.869895	2.17783																
0.934719	2.34481	0.871969	2.17794																
0.936603	2.34406	0.874042	2.17805																
0.938488	2.34331	0.876115	2.17816																
0.940374	2.34257	0.878189	2.17827																
0.94226	2.34184	0.880262	2.17837																
0.944147	2.3411	0.882335	2.17848																
0.946035	2.34038	0.884409	2.17859																
0.947924	2.33966	0.886482	2.1787																
0.949813	2.33894	0.888555	2.1788																
0.951703	2.33823	0.890629	2.17891																
0.953594	2.33753	0.892702	2.17901																
0.955486	2.33683	0.894775	2.17912																
0.957378	2.33613	0.896849	2.17922																
0.959271	2.33544	0.898922	2.17933																
0.961165	2.33476	0.900995	2.17943																
0.963059	2.33408	0.903068	2.17953																
0.964954	2.3334	0.905142	2.17964																
0.96685	2.33273	0.907215	2.17974																
0.968747	2.33206	0.909288	2.17984																
0.970644	2.3314	0.911361	2.17994																
0.972542	2.33074	0.913434	2.18004																
0.974441	2.33009	0.915508	2.18014																
0.97634	2.32944	0.917581	2.18024																
0.97824	2.3288	0.919654	2.18034																
0.980141	2.32816	0.921727	2.18044																
0.982042	2.32753	0.9238	2.18054																
0.983944	2.3269	0.925873	2.18064																
0.985847	2.32627	0.927947	2.18073																
0.98775	2.32565	0.93002	2.18083																
0.989654	2.32503	0.932093	2.18093																
0.991559	2.32442	0.934166	2.18102																
0.993464	2.32381	0.936239	2.18112																
0.99537	2.32321	0.938312	2.18121																
0.997277	2.3226	0.940385	2.18131																
0.999184	2.32201	0.942458	2.1814																
1.00109	2.32142	0.944531	2.1815																
		0.946604	2.18159																
		0.948677	2.18168																
		0.95075	2.18178																
		0.952823	2.18187																
		0.954896	2.18196																
		0.956969	2.18205																
		0.959042	2.18214																
		0.961115	2.18223																
		0.963188	2.18232																
		0.965261	2.18241																
		0.967334	2.1825																
		0.969407	2.18259																
		0.97148	2.18268																
		0.973553	2.18277																
		0.975626	2.18286																
		0.977699	2.18294																
		0.979772	2.18303																
		0.981844	2.18312																
		0.983917	2.1832																
		0.98599	2.18329																
		0.988063	2.18337																
		0.990136	2.18346																
		0.992209	2.18354																
		0.994282	2.18363																
		0.996354	2.18371																
		0.998427	2.1838																
		1.0005	2.18388																
