Sym0		Asym0		Sym1		Sym2		Sym3		Sym4		Asym1		Asym2		Asym3		Asym4	
468  Points		497  Points		229  Points		195  Points		180  Points		126  Points		337  Points		206  Points		169  Points		104  Points	
Freq (MHz)	Vph (m/ms)	Freq (MHz)	Vph (m/ms)	Freq (MHz)	Vph (m/ms)	Freq (MHz)	Vph (m/ms)	Freq (MHz)	Vph (m/ms)	Freq (MHz)	Vph (m/ms)	Freq (MHz)	Vph (m/ms)	Freq (MHz)	Vph (m/ms)	Freq (MHz)	Vph (m/ms)	Freq (MHz)	Vph (m/ms)
0.00313638	5.30057	0.000145584	0.105749	0.279523	449.013	0.469562	19228.8	0.559025	966.496	0.838528	2185.86	0.139807	204.244	0.419264	1939.06	0.698773	2114.39	0.939124	2898.3
0.00807476	5.30048	0.000408139	0.176807	0.2796	179.897	0.469573	491.126	0.559072	370.222	0.83855	637.531	0.140048	86.6524	0.419301	365.271	0.698798	553.644	0.939131	747.883
0.0130128	5.30031	0.000800761	0.247143	0.279744	112.531	0.469606	248.757	0.559161	228.996	0.838598	373.207	0.140482	55.1366	0.419387	201.666	0.698851	318.546	0.939149	429.342
0.0179502	5.30006	0.00132032	0.316488	0.279953	81.9147	0.469661	166.576	0.559292	165.79	0.838671	263.841	0.141108	40.553	0.419523	139.316	0.698933	223.618	0.939175	301.104
0.0228867	5.2997	0.00196285	0.384612	0.280228	64.4304	0.469737	125.223	0.559464	129.951	0.838768	204.06	0.141921	32.1721	0.419709	106.444	0.699044	172.294	0.939211	231.858
0.0278221	5.29926	0.00272348	0.451268	0.280568	53.1277	0.469836	100.33	0.559678	106.872	0.838891	166.378	0.142916	26.7484	0.419945	86.148	0.699183	140.146	0.939257	188.511
0.0327561	5.29873	0.00359689	0.516286	0.280973	45.2256	0.469956	83.7027	0.559934	90.7721	0.839038	140.453	0.144089	22.9635	0.42023	72.3738	0.699351	118.121	0.939312	158.823
0.0376886	5.29812	0.00457715	0.579492	0.281443	39.3935	0.470099	71.8116	0.560232	78.9029	0.839211	121.528	0.145433	20.1811	0.420565	62.4162	0.699548	102.089	0.939376	137.217
0.0426191	5.29742	0.00565809	0.640763	0.281977	34.915	0.470264	62.8865	0.56057	69.7924	0.839408	107.106	0.146941	18.056	0.42095	54.8842	0.699774	89.8985	0.93945	120.789
0.0475477	5.29663	0.00683341	0.700005	0.282575	31.3701	0.470451	55.9417	0.56095	62.5805	0.83963	95.7512	0.148607	16.3849	0.421383	48.9896	0.700028	80.3177	0.939533	107.877
0.0524738	5.29575	0.00809662	0.757144	0.283236	28.496	0.470661	50.3846	0.561372	56.7308	0.839877	86.5802	0.150423	15.0402	0.421865	44.2524	0.700311	72.5903	0.939627	97.4618
0.0573972	5.29478	0.00944131	0.812132	0.283959	26.1204	0.470894	45.8378	0.561834	51.8917	0.840149	79.0188	0.152383	13.9377	0.422397	40.3633	0.700622	66.2268	0.93973	88.8829
0.0623178	5.29371	0.0108613	0.86496	0.284744	24.125	0.471151	42.0492	0.562337	47.8229	0.840445	72.678	0.154479	13.0199	0.422977	37.1144	0.700961	60.8958	0.939843	81.6944
0.0672352	5.29255	0.0123505	0.915618	0.285591	22.4264	0.47143	38.8442	0.562881	44.3547	0.840766	67.2847	0.156703	12.2457	0.423605	34.3605	0.701329	56.3656	0.939966	75.5839
0.0721491	5.29129	0.0139032	0.96413	0.286497	20.9638	0.471734	36.098	0.563465	41.3639	0.841113	62.6418	0.159049	11.5855	0.424281	31.9972	0.701726	52.4686	0.940099	70.3259
0.0770592	5.28994	0.0155138	1.01053	0.287463	19.692	0.472062	33.7191	0.564089	38.7588	0.841483	58.603	0.16151	11.0171	0.425005	29.9476	0.702151	49.0812	0.940242	65.7537
0.0819653	5.28848	0.0171771	1.05486	0.288488	18.5766	0.472414	31.6386	0.564753	36.4697	0.841879	55.0581	0.163744	10.5833	0.425777	28.1536	0.702603	46.1098	0.940396	61.7416
0.0868669	5.28692	0.0188884	1.09717	0.28957	17.5909	0.472791	29.8042	0.565457	34.4429	0.842299	51.9218	0.165709	10.2518	0.426596	26.5709	0.703085	43.4827	0.94056	58.1927
0.0917637	5.28526	0.0206431	1.13754	0.290709	16.7141	0.473193	28.1747	0.5662	32.636	0.842743	49.1277	0.167376	10.0008	0.427462	25.1645	0.703594	41.1434	0.940735	55.0313
0.0966556	5.28348	0.0224371	1.17601	0.291904	15.9295	0.473621	26.718	0.566983	31.0155	0.843212	46.6228	0.168719	9.81564	0.428375	23.9069	0.704131	39.0475	0.94092	52.1973
0.101542	5.2816	0.0242665	1.21268	0.293154	15.2237	0.474075	25.4082	0.567804	29.5542	0.843706	44.3647	0.169721	9.6864	0.429333	22.7762	0.704696	37.1589	0.941116	49.6424
0.106423	5.27961	0.0261278	1.24761	0.294458	14.5857	0.474555	24.2243	0.568664	28.23	0.844224	42.3186	0.170368	9.60657	0.430338	21.7542	0.705289	35.4487	0.941323	47.3274
0.111297	5.27749	0.0280178	1.28088	0.295814	14.0065	0.475063	23.1493	0.569563	27.0246	0.844766	40.4564	0.171306	9.49557	0.431388	20.8264	0.70591	33.8927	0.941542	45.2201
0.116165	5.27525	0.0299337	1.31255	0.297222	13.4785	0.475598	22.1689	0.570499	25.9231	0.845332	38.7543	0.172337	9.37969	0.432484	19.9806	0.706558	32.4713	0.941772	43.2939
0.121026	5.27289	0.0318725	1.34271	0.298681	12.9956	0.47616	21.2713	0.571474	24.9127	0.845923	37.1928	0.173756	9.22961	0.433624	19.2065	0.707234	31.1678	0.942013	41.5263
0.125879	5.27041	0.033832	1.37144	0.300189	12.5524	0.476752	20.4467	0.572486	23.9827	0.846538	35.7551	0.175579	9.05126	0.434808	18.4957	0.707938	29.9683	0.942265	39.8988
0.130724	5.26779	0.0358099	1.39878	0.301746	12.1444	0.477372	19.6867	0.573535	23.1241	0.847177	34.4274	0.177823	8.85116	0.436036	17.8409	0.708669	28.861	0.94253	38.3952
0.135561	5.26503	0.0378043	1.42483	0.30335	11.7677	0.478022	18.9841	0.574621	22.3291	0.847841	33.1974	0.18051	8.63588	0.437308	17.2358	0.709427	27.8357	0.942806	37.0021
0.140389	5.26213	0.0398134	1.44965	0.305001	11.419	0.478702	18.3327	0.575743	21.591	0.848528	32.0549	0.183661	8.41168	0.438622	16.6753	0.710212	26.8837	0.943094	35.7077
0.145208	5.25909	0.0418354	1.47329	0.306696	11.0954	0.479413	17.7274	0.576902	20.9041	0.849239	30.991	0.18688	8.20884	0.439979	16.1547	0.711024	25.9976	0.943395	34.502
0.150016	5.25589	0.0438691	1.49583	0.308436	10.7945	0.480156	17.1636	0.578096	20.2633	0.849974	29.9979	0.190163	8.02466	0.441379	15.67	0.711864	25.1708	0.943707	33.3762
0.154814	5.25253	0.0456497	1.51462	0.309988	10.5491	0.48093	16.6372	0.579327	19.6642	0.850733	29.0688	0.193508	7.85689	0.442819	15.2178	0.712729	24.3977	0.944033	32.3226
0.159601	5.249	0.047173	1.53002	0.311335	10.3511	0.481736	16.1447	0.580592	19.103	0.851515	28.1979	0.19691	7.70359	0.444301	14.795	0.713622	23.6732	0.944371	31.3346
0.164376	5.24531	0.0484363	1.54237	0.312467	10.1948	0.482576	15.6831	0.581892	18.5764	0.852322	27.3798	0.200366	7.56312	0.445824	14.399	0.714541	22.993	0.944721	30.4063
0.169138	5.24144	0.0494372	1.55188	0.313373	10.0756	0.483449	15.2498	0.583227	18.0812	0.853151	26.61	0.203872	7.43405	0.447386	14.0274	0.715487	22.3533	0.945085	29.5324
0.173886	5.23738	0.0501744	1.55873	0.314046	9.99031	0.484357	14.8422	0.584596	17.6148	0.854004	25.8845	0.207428	7.31516	0.448989	13.678	0.716459	21.7505	0.945461	28.7083
0.178621	5.23313	0.0506465	1.56306	0.314479	9.93677	0.4853	14.4583	0.585999	17.1749	0.854881	25.1994	0.211028	7.20539	0.45063	13.3491	0.717457	21.1817	0.945851	27.93
0.18334	5.22867	0.051326	1.5692	0.315105	9.86116	0.486279	14.0962	0.587435	16.7594	0.855781	24.5517	0.214672	7.10381	0.45231	13.039	0.718481	20.6441	0.946255	27.1938
0.188044	5.22401	0.0520652	1.57578	0.31579	9.78076	0.487294	13.7542	0.588905	16.3663	0.856704	23.9383	0.218356	7.00961	0.454028	12.7462	0.719531	20.1352	0.946671	26.4963
0.192731	5.21912	0.0530718	1.58454	0.31673	9.67428	0.488345	13.4306	0.590408	15.9939	0.85765	23.3567	0.222079	6.92209	0.455784	12.4694	0.720607	19.6529	0.947102	25.8347
0.197399	5.214	0.054347	1.59535	0.317932	9.54414	0.489435	13.1243	0.591943	15.6407	0.858619	22.8044	0.225838	6.8406	0.457577	12.2073	0.721708	19.1952	0.947546	25.2062
0.202049	5.20864	0.0558916	1.60802	0.319405	9.39319	0.490562	12.8339	0.59351	15.3054	0.859612	22.2795	0.229631	6.76459	0.459407	11.9588	0.722834	18.7603	0.948005	24.6085
0.206679	5.20302	0.057707	1.62236	0.321159	9.22453	0.491729	12.5583	0.595109	14.9865	0.860627	21.7799	0.233457	6.69358	0.461272	11.7231	0.723986	18.3466	0.948477	24.0393
0.211288	5.19714	0.0597942	1.63813	0.323206	9.04139	0.492935	12.2965	0.59674	14.6831	0.861665	21.3038	0.237313	6.62712	0.463173	11.4991	0.725163	17.9525	0.948964	23.4968
0.215874	5.19099	0.0618851	1.65321	0.32529	8.86854	0.494181	12.0476	0.598402	14.394	0.862725	20.8498	0.241199	6.56483	0.465109	11.2861	0.726365	17.5769	0.949465	22.9791
0.220436	5.18454	0.0639792	1.66765	0.32741	8.7052	0.495468	11.8107	0.600095	14.1183	0.863808	20.4162	0.245112	6.50634	0.46708	11.0833	0.727592	17.2184	0.94998	22.4846
0.224973	5.17779	0.066076	1.68147	0.329564	8.55066	0.496796	11.5851	0.601818	13.8552	0.864914	20.0019	0.249051	6.45135	0.469085	10.8902	0.728844	16.8759	0.950511	22.0117
0.229484	5.17072	0.0681752	1.69471	0.331753	8.4043	0.498167	11.37	0.603572	13.6037	0.866041	19.6056	0.253015	6.39958	0.470859	10.7291	0.73012	16.5484	0.951056	21.5592
0.233966	5.16332	0.0702764	1.70739	0.333976	8.26552	0.499579	11.1648	0.605355	13.3633	0.867191	19.2261	0.257002	6.35076	0.472391	10.5969	0.73142	16.2351	0.951616	21.1257
0.238418	5.15556	0.0723793	1.71956	0.336233	8.13382	0.501035	10.969	0.607168	13.1332	0.868364	18.8624	0.261011	6.30467	0.473672	10.4909	0.732744	15.9349	0.952192	20.7101
0.242838	5.14744	0.0744836	1.73123	0.338523	8.00871	0.502339	10.8055	0.60901	12.9128	0.869558	18.5137	0.265041	6.2611	0.474693	10.4092	0.734093	15.6472	0.952782	20.3114
0.247225	5.13895	0.0765889	1.74243	0.340846	7.88977	0.503478	10.6711	0.610881	12.7016	0.870774	18.179	0.26909	6.21986	0.475449	10.3503	0.735465	15.3712	0.953388	19.9285
0.251577	5.13005	0.0786952	1.75319	0.343202	7.7766	0.504437	10.5633	0.612781	12.499	0.872012	17.8575	0.273158	6.18078	0.475934	10.313	0.736861	15.1062	0.95401	19.5605
0.255891	5.12073	0.0808022	1.76353	0.345592	7.66884	0.505208	10.4801	0.614709	12.3045	0.873272	17.5485	0.277243	6.1437	0.476636	10.2602	0.73828	14.8516	0.954647	19.2067
0.260166	5.11098	0.0829097	1.77346	0.348014	7.56618	0.505782	10.4201	0.616665	12.1176	0.874554	17.2512	0.281345	6.10848	0.477402	10.2036	0.739722	14.6069	0.955301	18.8662
0.264399	5.10078	0.0850176	1.78302	0.350471	7.4683	0.506152	10.3822	0.618649	11.938	0.875856	16.9651	0.285462	6.07498	0.47845	10.128	0.741188	14.3714	0.95597	18.5383
0.268588	5.09011	0.0871258	1.79221	0.352961	7.37495	0.506688	10.3283	0.62066	11.7653	0.877181	16.6896	0.289593	6.04309	0.479787	10.0347	0.742677	14.1448	0.956655	18.2224
0.272731	5.07895	0.0892341	1.80106	0.355486	7.28587	0.507276	10.2706	0.622698	11.5991	0.878526	16.4241	0.293739	6.01269	0.481418	9.9252	0.744188	13.9264	0.957356	17.9177
0.276826	5.0673	0.0913423	1.80958	0.358046	7.20084	0.508085	10.1936	0.624763	11.439	0.879893	16.168	0.297897	5.98369	0.483354	9.80105	0.745722	13.716	0.958074	17.6239
0.280871	5.05512	0.0934506	1.8178	0.360642	7.11964	0.509125	10.0985	0.626854	11.2848	0.881281	15.9209	0.302067	5.95598	0.485603	9.66408	0.747278	13.5131	0.958809	17.3402
0.284863	5.0424	0.0955586	1.82571	0.363275	7.04209	0.510404	9.98679	0.628972	11.1362	0.882689	15.6824	0.306248	5.9295	0.487882	9.53268	0.748857	13.3172	0.95956	17.0662
0.288799	5.02914	0.0976665	1.83335	0.365946	6.96801	0.511938	9.86016	0.630838	11.0109	0.884119	15.452	0.31044	5.90415	0.49019	9.40654	0.750458	13.1282	0.960328	16.8015
0.292678	5.01532	0.0997741	1.84072	0.368655	6.89724	0.513742	9.72047	0.632445	10.9072	0.885569	15.2294	0.314641	5.87986	0.492527	9.28537	0.75208	12.9456	0.961113	16.5455
0.296498	5.00093	0.101881	1.84784	0.371404	6.82963	0.515592	9.58648	0.633784	10.8235	0.88704	15.0141	0.318851	5.85657	0.494892	9.1689	0.753724	12.7691	0.961914	16.2979
0.300255	4.98596	0.103988	1.85471	0.374195	6.76505	0.517489	9.45792	0.634849	10.7585	0.888531	14.8059	0.32307	5.83422	0.497284	9.05689	0.75539	12.5985	0.962734	16.0583
0.30395	4.9704	0.106095	1.86135	0.377028	6.70336	0.519434	9.33452	0.635636	10.7115	0.890042	14.6043	0.327296	5.81273	0.499704	8.94911	0.757077	12.4334	0.96357	15.8263
0.307578	4.95426	0.108201	1.86777	0.379906	6.64445	0.521426	9.21601	0.636142	10.6816	0.891574	14.4092	0.331529	5.79207	0.502151	8.84534	0.758786	12.2736	0.964424	15.6016
0.31114	4.93754	0.110306	1.87398	0.382828	6.58821	0.523466	9.10218	0.636871	10.6392	0.893126	14.2201	0.335768	5.77217	0.504624	8.74537	0.760515	12.119	0.965295	15.3838
0.314634	4.92023	0.112412	1.87998	0.385797	6.53453	0.525554	8.99279	0.637666	10.5936	0.894697	14.0369	0.340013	5.753	0.507123	8.64903	0.762265	11.9692	0.966185	15.1727
0.318058	4.90234	0.114516	1.8858	0.388815	6.48332	0.527689	8.88764	0.638753	10.5325	0.896289	13.8593	0.344263	5.73451	0.509647	8.55612	0.764035	11.824	0.967092	14.9679
0.321411	4.8839	0.11662	1.89143	0.391881	6.43449	0.529872	8.78653	0.640136	10.4566	0.8979	13.687	0.348517	5.71665	0.512196	8.46649	0.765826	11.6832	0.968017	14.7693
0.324693	4.8649	0.118724	1.89688	0.394998	6.38795	0.532103	8.68928	0.64182	10.3669	0.899531	13.5199	0.352775	5.6994	0.51477	8.37998	0.767637	11.5467	0.968961	14.5765
0.327495	4.8479	0.120827	1.90217	0.398167	6.34361	0.534382	8.5957	0.643814	10.2645	0.901181	13.3576	0.357036	5.68271	0.517369	8.29645	0.769469	11.4143	0.969922	14.3892
0.329841	4.83311	0.12293	1.90729	0.401388	6.30139	0.536708	8.50565	0.646123	10.1505	0.90285	13.2001	0.361301	5.66655	0.519991	8.21575	0.771081	11.3021	0.970903	14.2074
0.331751	4.82067	0.125032	1.91226	0.404662	6.26122	0.539081	8.41895	0.648457	10.0402	0.904539	13.047	0.365567	5.65089	0.522636	8.13775	0.772467	11.2087	0.971901	14.0307
0.333242	4.8107	0.127133	1.91708	0.40799	6.223	0.541502	8.33547	0.650814	9.93343	0.906247	12.8983	0.369835	5.6357	0.525305	8.06234	0.773621	11.133	0.972919	13.859
0.334327	4.8033	0.129234	1.92177	0.411373	6.18668	0.543969	8.25505	0.653194	9.82997	0.907973	12.7538	0.374104	5.62095	0.527996	7.98941	0.774539	11.0741	0.973955	13.6921
0.335018	4.79853	0.131334	1.92631	0.414809	6.15216	0.546483	8.17758	0.655598	9.72972	0.909719	12.6132	0.378374	5.60661	0.53071	7.91883	0.775217	11.0313	0.975011	13.5297
0.336003	4.79164	0.133434	1.93073	0.4183	6.11937	0.549043	8.10292	0.658024	9.63254	0.911483	12.4765	0.382643	5.59267	0.533446	7.85051	0.775652	11.0042	0.976085	13.3717
0.337066	4.78409	0.135534	1.93502	0.421845	6.08824	0.551649	8.03095	0.660473	9.53829	0.913266	12.3435	0.386912	5.57909	0.536203	7.78435	0.776279	10.9654	0.977179	13.218
0.338497	4.77374	0.137633	1.93919	0.425442	6.05869	0.5543	7.96156	0.662944	9.44687	0.915067	12.214	0.391181	5.56586	0.538982	7.72027	0.776963	10.9238	0.978292	13.0684
0.340283	4.7605	0.139731	1.94325	0.429092	6.03066	0.556996	7.89463	0.665437	9.35815	0.916886	12.088	0.395447	5.55296	0.541781	7.65817	0.777898	10.8678	0.979425	12.9226
0.342408	4.7443	0.141829	1.94719	0.432794	6.00406	0.559737	7.83008	0.667952	9.27203	0.918724	11.9653	0.399712	5.54035	0.544601	7.59797	0.779086	10.798	0.980577	12.7807
0.344853	4.72502	0.143926	1.95103	0.436545	5.97882	0.562521	7.76779	0.670488	9.1884	0.92058	11.8457	0.403974	5.52804	0.547442	7.5396	0.780532	10.7153	0.981749	12.6425
0.347596	4.70258	0.146023	1.95477	0.440345	5.95488	0.565349	7.70768	0.673046	9.10718	0.922453	11.7292	0.408233	5.516	0.550303	7.48298	0.782242	10.6204	0.982941	12.5078
0.350274	4.67982	0.14812	1.95841	0.444192	5.93216	0.56822	7.64964	0.675625	9.02826	0.9241	11.6301	0.412488	5.5042	0.553183	7.42804	0.784222	10.5143	0.984153	12.3765
0.352889	4.65679	0.150216	1.96195	0.448085	5.9106	0.571132	7.59361	0.678225	8.95155	0.925515	11.5473	0.41674	5.49265	0.556084	7.37472	0.78622	10.411	0.985386	12.2485
0.355442	4.63351	0.152311	1.9654	0.452021	5.89013	0.574087	7.5395	0.680846	8.87698	0.926692	11.48	0.420987	5.48131	0.559003	7.32296	0.788237	10.3105	0.986638	12.1236
0.357935	4.61002	0.154406	1.96877	0.455998	5.87069	0.577082	7.48722	0.683487	8.80447	0.927628	11.4275	0.425229	5.47019	0.561942	7.27269	0.790272	10.2127	0.987911	12.0019
0.36037	4.58635	0.156501	1.97205	0.460016	5.85221	0.580117	7.43671	0.686149	8.73393	0.928318	11.3893	0.429465	5.45925	0.564899	7.22386	0.792325	10.1174	0.989205	11.8831
0.362751	4.56254	0.158595	1.97525	0.464071	5.83465	0.583192	7.38789	0.688831	8.66531	0.928761	11.3651	0.433695	5.4485	0.567875	7.17641	0.794395	10.0245	0.990349	11.7819
0.365077	4.53862	0.160689	1.97837	0.468162	5.81793	0.586306	7.34069	0.691533	8.59851	0.9294	11.3305	0.437919	5.43791	0.570869	7.1303	0.796484	9.9341	0.991337	11.6973
0.367353	4.51462	0.162783	1.98142	0.472287	5.80201	0.589458	7.29506	0.694254	8.5335	0.930096	11.2931	0.442136	5.42748	0.573882	7.08547	0.79859	9.84595	0.992163	11.6286
0.369579	4.49056	0.164876	1.98439	0.476443	5.78684	0.592648	7.25093	0.696996	8.47019	0.931046	11.2429	0.446345	5.41719	0.576912	7.04188	0.800713	9.76002	0.992822	11.5749
0.371759	4.46648	0.166968	1.98729	0.480629	5.77236	0.595874	7.20823	0.699756	8.40854	0.932254	11.1802	0.450546	5.40703	0.579961	6.99949	0.802854	9.67622	0.993309	11.5358
0.373894	4.4424	0.169061	1.99013	0.484844	5.75854	0.599136	7.16692	0.702536	8.34847	0.933723	11.1056	0.454738	5.397	0.583027	6.95826	0.805011	9.59449	0.993622	11.511
0.375986	4.41835	0.171153	1.99289	0.489084	5.74532	0.602434	7.12694	0.705335	8.28995	0.935458	11.0199	0.458921	5.38708	0.586111	6.91813	0.807186	9.51475	0.994075	11.4755
0.378037	4.39435	0.173244	1.9956	0.493348	5.73268	0.605766	7.08823	0.708153	8.23292	0.937465	10.9236	0.463095	5.37726	0.589212	6.87908	0.809377	9.43694	0.994569	11.4373
0.38005	4.37041	0.175335	1.99824	0.497635	5.72056	0.609132	7.05075	0.71099	8.17732	0.939489	10.8296	0.467259	5.36754	0.59233	6.84108	0.811585	9.361	0.995245	11.3858
0.382026	4.34656	0.177426	2.00082	0.501943	5.70894	0.612531	7.01444	0.713845	8.12312	0.94153	10.7378	0.471411	5.3579	0.595466	6.80408	0.81381	9.28685	0.996108	11.3216
0.383967	4.32282	0.179517	2.00335	0.50627	5.69777	0.615962	6.97927	0.716719	8.07026	0.943587	10.6481	0.475553	5.34834	0.598618	6.76805	0.81605	9.21445	0.997162	11.2451
0.385875	4.29921	0.181607	2.00582	0.510615	5.68704	0.619425	6.94519	0.719611	8.0187	0.94566	10.5605	0.479683	5.33884	0.601788	6.73296	0.818307	9.14374	0.998414	11.1571
0.387751	4.27573	0.183697	2.00824	0.514975	5.6767	0.622919	6.91216	0.722522	7.9684	0.94775	10.4749	0.4838	5.3294	0.604975	6.69878	0.82058	9.07467	0.99987	11.0582
0.389598	4.2524	0.185786	2.0106	0.519351	5.66673	0.626443	6.88014	0.72545	7.91933	0.949856	10.3911	0.487905	5.32002	0.608178	6.66549	0.822869	9.00717	1.00135	10.9616
0.391416	4.22924	0.187876	2.01292	0.52374	5.65711	0.629997	6.84908	0.728397	7.87143	0.951978	10.3093	0.491996	5.31068	0.611398	6.63305	0.825174	8.94121		
0.393208	4.20625	0.189965	2.01518	0.528141	5.64781	0.63358	6.81896	0.731361	7.82469	0.954115	10.2292	0.496074	5.30138	0.614635	6.60144	0.827494	8.87674		
0.394974	4.18345	0.192053	2.0174	0.532552	5.6388	0.63719	6.78974	0.734343	7.77905	0.956269	10.1509	0.500137	5.29211	0.617888	6.57063	0.82983	8.81371		
0.396716	4.16084	0.194142	2.01958	0.536974	5.63008	0.640829	6.76138	0.737343	7.73449	0.958438	10.0743	0.504185	5.28286	0.621159	6.5406	0.832181	8.75207		
0.398436	4.13844	0.19623	2.0217	0.541404	5.62161	0.644494	6.73385	0.74036	7.69097	0.960623	9.99933	0.508218	5.27363	0.624445	6.51133	0.834547	8.69179		
0.400134	4.11624	0.198318	2.02379	0.545841	5.61338	0.648185	6.70712	0.743394	7.64847	0.962823	9.92597	0.512234	5.26442	0.627749	6.4828	0.836929	8.63283		
0.401812	4.09426	0.200406	2.02583	0.550285	5.60537	0.651901	6.68117	0.746446	7.60695	0.965038	9.85416	0.516234	5.2552	0.631069	6.45497	0.839326	8.57514		
0.40347	4.0725	0.202493	2.02783	0.554735	5.59757	0.655642	6.65596	0.749515	7.56639	0.967269	9.78385	0.520217	5.24599	0.634405	6.42785	0.841737	8.51869		
0.405111	4.05097	0.20458	2.0298	0.559189	5.58996	0.659408	6.63146	0.752602	7.52675	0.969514	9.71501	0.524183	5.23678	0.637758	6.40139	0.844164	8.46344		
0.406735	4.02966	0.206667	2.03172	0.563646	5.58253	0.663197	6.60765	0.755705	7.48802	0.971775	9.64759	0.52813	5.22755	0.641128	6.37559	0.846605	8.40937		
0.408342	4.00859	0.208754	2.03361	0.568107	5.57526	0.667009	6.58451	0.758826	7.45016	0.97405	9.58155	0.532058	5.21831	0.644514	6.35043	0.849061	8.35642		
0.409935	3.98775	0.21084	2.03546	0.57257	5.56815	0.670843	6.56201	0.761964	7.41316	0.97634	9.51686	0.535967	5.20906	0.647917	6.32588	0.851531	8.30459		
0.411513	3.96714	0.212927	2.03728	0.577034	5.56117	0.674699	6.54013	0.765118	7.37698	0.978644	9.45347	0.539857	5.19977	0.651336	6.30194	0.854016	8.25382		
0.413078	3.94678	0.215013	2.03906	0.581498	5.55432	0.678577	6.51884	0.76829	7.34161	0.980963	9.39134	0.543726	5.19046	0.654772	6.27859	0.856514	8.2041		
0.41463	3.92666	0.217099	2.04081	0.585962	5.5476	0.682474	6.49812	0.771478	7.30702	0.983296	9.33045	0.547575	5.18112	0.658225	6.2558	0.859028	8.15539		
0.416171	3.90677	0.219184	2.04253	0.590426	5.54098	0.686392	6.47795	0.774683	7.27319	0.985643	9.27077	0.551402	5.17174	0.661694	6.23358	0.861555	8.10767		
0.4177	3.88713	0.22127	2.04421	0.594888	5.53446	0.690329	6.45832	0.777906	7.24011	0.988005	9.21225	0.555208	5.16233	0.66518	6.2119	0.864097	8.06091		
0.419218	3.86773	0.223355	2.04587	0.599348	5.52804	0.694285	6.43921	0.781144	7.20776	0.99038	9.15486	0.558991	5.15287	0.668682	6.19074	0.866652	8.01509		
0.420727	3.84857	0.22544	2.04749	0.603806	5.5217	0.69826	6.42059	0.7844	7.17611	0.992769	9.09859	0.562752	5.14336	0.672202	6.1701	0.869221	7.97017		
0.422227	3.82965	0.227525	2.04909	0.60826	5.51544	0.702252	6.40245	0.787673	7.14514	0.995172	9.04339	0.56649	5.13381	0.675737	6.14996	0.871804	7.92614		
0.423718	3.81097	0.22961	2.05065	0.61271	5.50925	0.706261	6.38477	0.790962	7.11485	0.997588	8.98924	0.570205	5.12421	0.67929	6.13031	0.874401	7.88298		
0.425201	3.79253	0.231694	2.0522	0.617156	5.50313	0.710288	6.36753	0.794268	7.08521	1.00002	8.93611	0.573895	5.11455	0.682858	6.11113	0.877012	7.84066		
0.426677	3.77432	0.233778	2.05371	0.621598	5.49706	0.71433	6.35073	0.797591	7.05621			0.577562	5.10484	0.686444	6.09242	0.879636	7.79915		
0.428145	3.75635	0.235863	2.0552	0.626034	5.49105	0.718388	6.33434	0.800931	7.02783			0.581204	5.09507	0.690046	6.07416	0.882274	7.75845		
0.429607	3.73862	0.237947	2.05666	0.630464	5.48508	0.722461	6.31835	0.804288	7.00005			0.584821	5.08524	0.693664	6.05634	0.884925	7.71853		
0.431063	3.72112	0.24003	2.0581	0.634888	5.47916	0.726549	6.30274	0.807662	6.97287			0.588412	5.07536	0.697299	6.03895	0.887589	7.67936		
0.432513	3.70385	0.242114	2.05951	0.639305	5.47327	0.730651	6.28751	0.811052	6.94628			0.591979	5.06541	0.700949	6.02198	0.890267	7.64094		
0.433958	3.68681	0.244198	2.0609	0.643715	5.46742	0.734767	6.27264	0.81446	6.92024			0.595519	5.0554	0.704616	6.00541	0.892959	7.60324		
0.435399	3.66999	0.246281	2.06227	0.648118	5.46159	0.738896	6.25811	0.817885	6.89476			0.599033	5.04533	0.7083	5.98924	0.895663	7.56624		
0.436834	3.6534	0.248365	2.06361	0.652512	5.45579	0.743038	6.24392	0.821327	6.86982			0.602521	5.03519	0.711999	5.97346	0.898381	7.52994		
0.438266	3.63704	0.250448	2.06494	0.656898	5.45001	0.747192	6.23005	0.824787	6.84541			0.605982	5.02499	0.715713	5.95805	0.901112	7.4943		
0.439694	3.62089	0.252531	2.06624	0.661276	5.44424	0.751358	6.21649	0.828264	6.82152			0.609417	5.01473	0.719444	5.94302	0.903856	7.45932		
0.441118	3.60496	0.254613	2.06752	0.665645	5.43849	0.755535	6.20324	0.831758	6.79813			0.612824	5.0044	0.72319	5.92833	0.906613	7.42498		
0.44254	3.58925	0.256696	2.06878	0.670004	5.43275	0.759723	6.19027	0.83527	6.77524			0.616205	4.99401	0.726951	5.914	0.909383	7.39127		
0.443958	3.57375	0.258779	2.07002	0.674353	5.42702	0.763921	6.17758	0.838799	6.75284			0.619558	4.98356	0.730727	5.9	0.912166	7.35817		
0.445374	3.55846	0.260861	2.07124	0.678692	5.42129	0.76813	6.16516	0.842346	6.73091			0.622884	4.97304	0.734519	5.88633	0.914962	7.32567		
0.446788	3.54338	0.262944	2.07245	0.68302	5.41556	0.772347	6.153	0.845911	6.70944			0.626183	4.96246	0.738324	5.87298	0.917771	7.29375		
0.4482	3.5285	0.265026	2.07363	0.687338	5.40983	0.776574	6.14109	0.849494	6.68843			0.629454	4.95183	0.742145	5.85994	0.920593	7.2624		
0.44961	3.51383	0.267108	2.0748	0.691645	5.4041	0.780809	6.12942	0.853095	6.66787			0.632698	4.94113	0.745979	5.8472	0.923427	7.23161		
0.451018	3.49936	0.26919	2.07594	0.69594	5.39836	0.785052	6.11798	0.856715	6.64775			0.635914	4.93037	0.749827	5.83475	0.926275	7.20137		
0.452425	3.48508	0.271272	2.07707	0.700223	5.39261	0.789303	6.10677	0.860352	6.62806			0.639103	4.91956	0.753689	5.82258	0.929135	7.17165		
0.453831	3.471	0.273354	2.07819	0.704495	5.38686	0.793561	6.09577	0.864008	6.60879			0.642265	4.90869	0.757564	5.8107	0.932008	7.14246		
0.455236	3.45711	0.275435	2.07929	0.708754	5.38109	0.797826	6.08498	0.867683	6.58994			0.645399	4.89777	0.761452	5.79908	0.934893	7.11378		
0.456641	3.44341	0.277517	2.08037	0.713	5.3753	0.802097	6.07439	0.871377	6.57149			0.648506	4.8868	0.765352	5.78772	0.937791	7.0856		
0.458045	3.4299	0.279598	2.08143	0.717234	5.36951	0.806373	6.06399	0.875089	6.55344			0.651585	4.87577	0.769265	5.77661	0.940702	7.05791		
0.459448	3.41657	0.28168	2.08249	0.721454	5.36369	0.810656	6.05378	0.87882	6.53578			0.654638	4.8647	0.77319	5.76574	0.943626	7.0307		
0.460851	3.40343	0.283761	2.08352	0.725662	5.35786	0.814943	6.04374	0.882571	6.51851			0.657664	4.85358	0.777127	5.75511	0.946561	7.00395		
0.462255	3.39046	0.285842	2.08454	0.729855	5.352	0.819234	6.03388	0.886341	6.50161			0.660662	4.84241	0.781074	5.74471	0.94951	6.97767		
0.463658	3.37767	0.287923	2.08555	0.734035	5.34613	0.82353	6.02418	0.89013	6.48508			0.663635	4.83121	0.785033	5.73452	0.952471	6.95183		
0.465062	3.36506	0.290004	2.08654	0.7382	5.34023	0.82783	6.01464	0.893939	6.46892			0.666581	4.81996	0.789002	5.72456	0.955444	6.92643		
0.466466	3.35262	0.292085	2.08752	0.742352	5.3343	0.832132	6.00525	0.897768	6.45312			0.6695	4.80868	0.792981	5.71479	0.95843	6.90146		
0.46787	3.34034	0.294166	2.08848	0.746488	5.32836	0.836438	5.99601	0.901616	6.43767			0.672394	4.79735	0.796969	5.70523	0.961428	6.87691		
0.469275	3.32824	0.296246	2.08943	0.75061	5.32238	0.840746	5.9869	0.905484	6.42257			0.675261	4.786	0.800968	5.69586	0.964438	6.85277		
0.470681	3.3163	0.298327	2.09037	0.754717	5.31638	0.845056	5.97793	0.909373	6.4078			0.678103	4.77461	0.804974	5.68668	0.967461	6.82904		
0.472088	3.30451	0.300407	2.0913	0.758809	5.31035	0.849368	5.9691	0.913281	6.39337			0.68092	4.7632	0.80899	5.67768	0.970496	6.80571		
0.473496	3.29289	0.302488	2.09221	0.762885	5.3043	0.853681	5.96038	0.91721	6.37927			0.683711	4.75175	0.813013	5.66885	0.973544	6.78276		
0.474905	3.28143	0.304568	2.09311	0.766946	5.29821	0.857995	5.95178	0.92116	6.36549			0.686478	4.74029	0.817045	5.66019	0.976603	6.7602		
0.476315	3.27012	0.306649	2.094	0.770991	5.29209	0.86231	5.9433	0.925129	6.35202			0.68922	4.7288	0.821083	5.65168	0.979675	6.73801		
0.477726	3.25896	0.308729	2.09488	0.77502	5.28594	0.866625	5.93493	0.92912	6.33887			0.691937	4.71729	0.825128	5.64334	0.982759	6.71618		
0.479139	3.24796	0.310809	2.09574	0.779033	5.27976	0.87094	5.92667	0.933131	6.32602			0.69463	4.70576	0.82918	5.63514	0.985855	6.69471		
0.480553	3.2371	0.312889	2.09659	0.78303	5.27355	0.875255	5.9185	0.937162	6.31347			0.6973	4.69422	0.833238	5.62709	0.988963	6.67359		
0.481968	3.22639	0.314969	2.09744	0.787011	5.26731	0.879568	5.91044	0.941214	6.30122			0.699946	4.68266	0.837302	5.61918	0.992083	6.65282		
0.483386	3.21582	0.317049	2.09827	0.790974	5.26103	0.883881	5.90247	0.945287	6.28926			0.702569	4.67109	0.84137	5.6114	0.995215	6.63239		
0.484804	3.20539	0.319128	2.09909	0.794922	5.25472	0.888193	5.89458	0.94938	6.27758			0.705169	4.65951	0.845444	5.60374	0.998359	6.61228		
0.486225	3.1951	0.321208	2.0999	0.798852	5.24838	0.892503	5.88679	0.953494	6.26618			0.707746	4.64793	0.849522	5.59621	1.00152	6.5925		
0.487647	3.18494	0.323288	2.1007	0.802765	5.242	0.896811	5.87908	0.957629	6.25505			0.710301	4.63634	0.853604	5.5888				
0.489072	3.17493	0.325368	2.10149	0.806662	5.23559	0.901118	5.87145	0.961784	6.24419			0.712834	4.62474	0.85769	5.58151				
0.490498	3.16504	0.327447	2.10227	0.810541	5.22915	0.905422	5.86389	0.96596	6.2336			0.715345	4.61315	0.861779	5.57432				
0.491926	3.15529	0.329527	2.10304	0.814402	5.22267	0.909724	5.85642	0.970156	6.22326			0.717834	4.60156	0.865871	5.56723				
0.493356	3.14566	0.331606	2.10381	0.818247	5.21616	0.914023	5.84901	0.974373	6.21317			0.720303	4.58997	0.869965	5.56025				
0.494788	3.13616	0.333685	2.10456	0.822074	5.20961	0.918319	5.84168	0.978609	6.20334			0.72275	4.57838	0.874061	5.55336				
0.496223	3.12679	0.335765	2.1053	0.825883	5.20303	0.922613	5.83441	0.982866	6.19374			0.725177	4.5668	0.878159	5.54657				
0.497659	3.11754	0.337844	2.10604	0.829675	5.19642	0.926904	5.82721	0.987143	6.18438			0.727584	4.55523	0.882259	5.53986				
0.499098	3.10841	0.339923	2.10676	0.833449	5.18977	0.931191	5.82007	0.991439	6.17525			0.729971	4.54367	0.886359	5.53323				
0.500539	3.0994	0.342002	2.10748	0.837205	5.18309	0.935475	5.813	0.995755	6.16635			0.732338	4.53213	0.89046	5.52669				
0.501982	3.09051	0.344081	2.10818	0.840943	5.17637	0.939756	5.80598	1.00009	6.15767			0.734686	4.52059	0.894561	5.52022				
0.503427	3.08173	0.34616	2.10888	0.844663	5.16963	0.944033	5.79903					0.737015	4.50907	0.898662	5.51383				
0.504875	3.07306	0.348239	2.10957	0.848366	5.16284	0.948307	5.79213					0.739326	4.49757	0.902762	5.5075				
0.506325	3.06451	0.350318	2.11026	0.85205	5.15603	0.952577	5.78529					0.741618	4.48609	0.906862	5.50124				
0.507778	3.05607	0.352397	2.11093	0.855716	5.14919	0.956844	5.77851					0.743892	4.47463	0.910961	5.49505				
0.509233	3.04774	0.354476	2.1116	0.859364	5.14231	0.961107	5.77178					0.746148	4.46318	0.915058	5.48892				
0.510691	3.03951	0.356554	2.11226	0.862994	5.1354	0.965367	5.7651					0.748387	4.45176	0.919153	5.48284				
0.51215	3.03139	0.358633	2.11291	0.866606	5.12846	0.969622	5.75848					0.750608	4.44037	0.923246	5.47682				
0.513613	3.02337	0.360711	2.11356	0.8702	5.12149	0.973875	5.75191					0.752813	4.429	0.927336	5.47084				
0.515078	3.01546	0.36279	2.11419	0.873775	5.11449	0.978123	5.74538					0.755001	4.41766	0.931424	5.46492				
0.516545	3.00765	0.364869	2.11482	0.877333	5.10746	0.982369	5.73891					0.757172	4.40634	0.935509	5.45904				
0.518015	2.99993	0.366947	2.11545	0.880872	5.1004	0.98661	5.73249					0.759328	4.39506	0.93959	5.45321				
0.519488	2.99231	0.369025	2.11606	0.884393	5.09331	0.990848	5.72611					0.761468	4.38381	0.943667	5.44742				
0.520963	2.98479	0.371104	2.11667	0.887896	5.08619	0.995082	5.71979					0.763593	4.37258	0.94774	5.44166				
0.522441	2.97736	0.373182	2.11727	0.891381	5.07905	0.999313	5.71351					0.765702	4.36139	0.951809	5.43595				
0.523921	2.97003	0.37526	2.11787	0.894848	5.07188	1.00354	5.70728					0.767797	4.35024	0.955873	5.43026				
0.525404	2.96279	0.377339	2.11846	0.898297	5.06468							0.769877	4.33912	0.959933	5.42461				
0.52689	2.95564	0.379417	2.11904	0.901728	5.05745							0.771942	4.32803	0.963987	5.41899				
0.528378	2.94858	0.381495	2.11962	0.905141	5.05021							0.773994	4.31698	0.968035	5.4134				
0.529869	2.9416	0.383573	2.12019	0.908535	5.04293							0.776032	4.30597	0.972078	5.40783				
0.531362	2.93471	0.385651	2.12076	0.911912	5.03563							0.778056	4.295	0.976115	5.40229				
0.532858	2.92791	0.387729	2.12131	0.915271	5.02831							0.780067	4.28407	0.980145	5.39676				
0.534357	2.92119	0.389807	2.12187	0.918613	5.02097							0.782065	4.27318	0.984169	5.39126				
0.535859	2.91455	0.391885	2.12241	0.921936	5.0136							0.78405	4.26233	0.988186	5.38578				
0.537363	2.908	0.393963	2.12296	0.925242	5.00622							0.786023	4.25152	0.992196	5.38031				
0.53887	2.90152	0.396041	2.12349	0.92853	4.99881							0.787984	4.24075	0.996199	5.37486				
0.540379	2.89513	0.398118	2.12402	0.931801	4.99138							0.789932	4.23003	1.00019	5.36943				
0.541891	2.88881	0.400196	2.12455	0.935054	4.98393							0.791869	4.21935						
0.543406	2.88257	0.402274	2.12506	0.93829	4.97647							0.793794	4.20871						
0.544924	2.8764	0.404351	2.12558	0.941508	4.96898							0.795708	4.19812						
0.546444	2.87031	0.406429	2.12609	0.944709	4.96148							0.797611	4.18758						
0.547967	2.86429	0.408507	2.12659	0.947893	4.95396							0.799503	4.17708						
0.549492	2.85835	0.410584	2.12709	0.95106	4.94642							0.801385	4.16663						
0.55102	2.85247	0.412662	2.12758	0.954209	4.93887							0.803256	4.15622						
0.552551	2.84666	0.414739	2.12807	0.957342	4.93131							0.805117	4.14587						
0.554085	2.84093	0.416817	2.12856	0.960458	4.92373							0.806968	4.13556						
0.555621	2.83526	0.418894	2.12903	0.963557	4.91613							0.80881	4.1253						
0.55716	2.82966	0.420972	2.12951	0.966639	4.90853							0.810641	4.11508						
0.558701	2.82413	0.423049	2.12998	0.969705	4.90091							0.812464	4.10492						
0.560245	2.81866	0.425126	2.13044	0.972754	4.89328							0.814278	4.09481						
0.561792	2.81325	0.427203	2.1309	0.975787	4.88564							0.816082	4.08475						
0.563341	2.80791	0.429281	2.13136	0.978804	4.87798							0.817878	4.07473						
0.564893	2.80263	0.431358	2.13181	0.981804	4.87032							0.819665	4.06477						
0.566448	2.79741	0.433435	2.13226	0.984788	4.86265							0.821444	4.05486						
0.568005	2.79225	0.435512	2.1327	0.987756	4.85497							0.823215	4.045						
0.569565	2.78716	0.437589	2.13314	0.990708	4.84728							0.824978	4.03519						
0.571127	2.78212	0.439666	2.13358	0.993644	4.83958							0.826734	4.02543						
0.572692	2.77714	0.441744	2.13401	0.996564	4.83188							0.828481	4.01572						
0.57426	2.77221	0.443821	2.13444	0.999468	4.82417							0.830222	4.00606						
0.57583	2.76735	0.445898	2.13486	1.00236	4.81646							0.831955	3.99646						
0.577402	2.76253	0.447974	2.13528									0.833681	3.98691						
0.578978	2.75778	0.450051	2.13569									0.8354	3.9774						
0.580555	2.75307	0.452128	2.1361									0.837112	3.96796						
0.582136	2.74843	0.454205	2.13651									0.838818	3.95856						
0.583718	2.74383	0.456282	2.13692									0.840517	3.94921						
0.585304	2.73928	0.458359	2.13732									0.84221	3.93992						
0.586892	2.73479	0.460436	2.13771									0.843897	3.93068						
0.588482	2.73035	0.462512	2.13811									0.845578	3.92149						
0.590075	2.72595	0.464589	2.1385									0.847254	3.91236						
0.59167	2.72161	0.466666	2.13888									0.848923	3.90328						
0.593268	2.71731	0.468743	2.13927									0.850587	3.89425						
0.594868	2.71306	0.470819	2.13964									0.852246	3.88527						
0.59647	2.70886	0.472896	2.14002									0.8539	3.87634						
0.598075	2.70471	0.474972	2.14039									0.855548	3.86747						
0.599683	2.7006	0.477049	2.14076									0.857191	3.85864						
0.601293	2.69653	0.479126	2.14113									0.85883	3.84987						
0.602905	2.69251	0.481202	2.14149									0.860464	3.84115						
0.60452	2.68854	0.483279	2.14185									0.862093	3.83249						
0.606137	2.68461	0.485355	2.14221									0.863718	3.82387						
0.607756	2.68072	0.487432	2.14257									0.865338	3.81531						
0.609378	2.67687	0.489508	2.14292									0.866954	3.8068						
0.611002	2.67306	0.491584	2.14326									0.868566	3.79833						
0.612628	2.6693	0.493661	2.14361									0.870174	3.78993						
0.614257	2.66557	0.495737	2.14395									0.871779	3.78157						
0.615888	2.66189	0.497813	2.14429									0.873379	3.77326						
0.617521	2.65824	0.49989	2.14463									0.874976	3.765						
0.619157	2.65464	0.501966	2.14496									0.876569	3.7568						
0.620795	2.65107	0.504042	2.14529									0.878158	3.74864						
0.622435	2.64754	0.506118	2.14562									0.879744	3.74054						
0.624077	2.64405	0.508195	2.14595									0.881327	3.73248						
0.625722	2.64059	0.510271	2.14627									0.882907	3.72447						
0.627369	2.63717	0.512347	2.14659									0.884484	3.71652						
0.629018	2.63379	0.514423	2.14691									0.886058	3.70861						
0.630669	2.63044	0.516499	2.14722									0.887628	3.70076						
0.632322	2.62713	0.518575	2.14754									0.889196	3.69295						
0.633978	2.62385	0.520652	2.14785									0.890762	3.68519						
0.635635	2.62061	0.522728	2.14816									0.892324	3.67748						
0.637295	2.61739	0.524804	2.14846									0.893885	3.66982						
0.638957	2.61422	0.52688	2.14876									0.895442	3.6622						
0.640621	2.61107	0.528956	2.14906									0.896997	3.65464						
0.642288	2.60796	0.531032	2.14936									0.89855	3.64712						
0.643956	2.60488	0.533108	2.14966									0.900101	3.63965						
0.645626	2.60183	0.535184	2.14995									0.901649	3.63223						
0.647299	2.59881	0.537259	2.15024									0.903196	3.62485						
0.648973	2.59583	0.539335	2.15053									0.90474	3.61752						
0.65065	2.59287	0.541411	2.15082									0.906283	3.61024						
0.652328	2.58994	0.543487	2.15111									0.907823	3.60301						
0.654009	2.58705	0.545563	2.15139									0.909362	3.59582						
0.655692	2.58418	0.547639	2.15167									0.910899	3.58867						
0.657376	2.58134	0.549715	2.15195									0.912434	3.58158						
0.659063	2.57853	0.55179	2.15222									0.913968	3.57452						
0.660752	2.57575	0.553866	2.1525									0.9155	3.56752						
0.662442	2.57299	0.555942	2.15277									0.917031	3.56055						
0.664135	2.57026	0.558018	2.15304									0.91856	3.55364						
0.665829	2.56756	0.560093	2.15331									0.920088	3.54676						
0.667526	2.56489	0.562169	2.15357									0.921615	3.53993						
0.669224	2.56224	0.564245	2.15384									0.92314	3.53315						
0.670925	2.55962	0.56632	2.1541									0.924664	3.52641						
0.672627	2.55703	0.568396	2.15436									0.926187	3.51971						
0.674331	2.55446	0.570472	2.15462									0.927709	3.51305						
0.676037	2.55191	0.572547	2.15488									0.92923	3.50644						
0.677744	2.54939	0.574623	2.15513									0.93075	3.49987						
0.679454	2.5469	0.576698	2.15538									0.932269	3.49335						
0.681166	2.54443	0.578774	2.15563									0.933787	3.48686						
0.682879	2.54198	0.580849	2.15588									0.935304	3.48042						
0.684594	2.53956	0.582925	2.15613									0.93682	3.47402						
0.686311	2.53716	0.585	2.15638									0.938336	3.46766						
0.68803	2.53478	0.587076	2.15662									0.939851	3.46134						
0.68975	2.53243	0.589151	2.15686									0.941365	3.45506						
0.691473	2.5301	0.591227	2.1571									0.942879	3.44882						
0.693197	2.52779	0.593302	2.15734									0.944392	3.44262						
0.694923	2.5255	0.595378	2.15758									0.945904	3.43646						
0.69665	2.52324	0.597453	2.15781									0.947416	3.43035						
0.698379	2.52099	0.599528	2.15805									0.948928	3.42427						
0.70011	2.51877	0.601604	2.15828									0.950439	3.41823						
0.701843	2.51657	0.603679	2.15851									0.95195	3.41223						
0.703578	2.51439	0.605755	2.15874									0.95346	3.40627						
0.705314	2.51223	0.60783	2.15897									0.95497	3.40034						
0.707051	2.51009	0.609905	2.15919									0.95648	3.39446						
0.708791	2.50797	0.61198	2.15942									0.95799	3.38861						
0.710532	2.50587	0.614056	2.15964									0.959499	3.3828						
0.712275	2.50379	0.616131	2.15986									0.961008	3.37703						
0.714019	2.50172	0.618206	2.16008									0.962517	3.3713						
0.715765	2.49968	0.620281	2.1603									0.964026	3.3656						
0.717513	2.49766	0.622357	2.16052									0.965535	3.35994						
0.719262	2.49565	0.624432	2.16073									0.967044	3.35431						
0.721013	2.49367	0.626507	2.16095									0.968553	3.34872						
0.722765	2.4917	0.628582	2.16116									0.970062	3.34317						
0.724519	2.48975	0.630657	2.16137									0.971571	3.33765						
0.726275	2.48782	0.632732	2.16158									0.97308	3.33217						
0.728032	2.4859	0.634808	2.16179									0.974589	3.32673						
0.729791	2.484	0.636883	2.16199									0.976098	3.32132						
0.731551	2.48212	0.638958	2.1622									0.977607	3.31594						
0.733313	2.48026	0.641033	2.1624									0.979117	3.3106						
0.735076	2.47841	0.643108	2.16261									0.980626	3.30529						
0.736841	2.47658	0.645183	2.16281									0.982136	3.30001						
0.738607	2.47477	0.647258	2.16301									0.983646	3.29477						
0.740375	2.47297	0.649333	2.16321									0.985157	3.28957						
0.742144	2.47119	0.651408	2.16341									0.986667	3.28439						
0.743915	2.46943	0.653483	2.1636									0.988178	3.27925						
0.745687	2.46768	0.655558	2.1638									0.98969	3.27415						
0.74746	2.46595	0.657633	2.16399									0.991201	3.26907						
0.749236	2.46423	0.659708	2.16418									0.992714	3.26403						
0.751012	2.46252	0.661783	2.16438									0.994226	3.25902						
0.75279	2.46084	0.663858	2.16457									0.995739	3.25404						
0.754569	2.45916	0.665933	2.16476									0.997252	3.24909						
0.75635	2.45751	0.668008	2.16494									0.998766	3.24418						
0.758132	2.45586	0.670082	2.16513									1.00028	3.23929						
0.759916	2.45423	0.672157	2.16532																
0.761701	2.45262	0.674232	2.1655																
0.763487	2.45101	0.676307	2.16568																
0.765275	2.44943	0.678382	2.16587																
0.767064	2.44785	0.680457	2.16605																
0.768854	2.44629	0.682531	2.16623																
0.770646	2.44475	0.684606	2.16641																
0.772439	2.44321	0.686681	2.16658																
0.774233	2.44169	0.688756	2.16676																
0.776029	2.44019	0.690831	2.16694																
0.777826	2.43869	0.692905	2.16711																
0.779624	2.43721	0.69498	2.16728																
0.781424	2.43574	0.697055	2.16746																
0.783224	2.43429	0.699129	2.16763																
0.785027	2.43284	0.701204	2.1678																
0.78683	2.43141	0.703279	2.16797																
0.788635	2.42999	0.705353	2.16814																
0.790441	2.42858	0.707428	2.1683																
0.792248	2.42719	0.709503	2.16847																
0.794056	2.4258	0.711577	2.16864																
0.795866	2.42443	0.713652	2.1688																
0.797676	2.42307	0.715727	2.16896																
0.799488	2.42172	0.717801	2.16913																
0.801302	2.42038	0.719876	2.16929																
0.803116	2.41906	0.72195	2.16945																
0.804932	2.41774	0.724025	2.16961																
0.806749	2.41643	0.726099	2.16977																
0.808566	2.41514	0.728174	2.16992																
0.810386	2.41386	0.730248	2.17008																
0.812206	2.41258	0.732323	2.17024																
0.814027	2.41132	0.734397	2.17039																
0.81585	2.41007	0.736472	2.17055																
0.817674	2.40883	0.738546	2.1707																
0.819499	2.40759	0.740621	2.17085																
0.821325	2.40637	0.742695	2.171																
0.823152	2.40516	0.74477	2.17115																
0.82498	2.40396	0.746844	2.1713																
0.826809	2.40276	0.748918	2.17145																
0.82864	2.40158	0.750993	2.1716																
0.830471	2.40041	0.753067	2.17175																
0.832304	2.39924	0.755142	2.1719																
0.834137	2.39809	0.757216	2.17204																
0.835972	2.39694	0.75929	2.17219																
0.837808	2.39581	0.761365	2.17233																
0.839645	2.39468	0.763439	2.17247																
0.841483	2.39356	0.765513	2.17262																
0.843322	2.39245	0.767588	2.17276																
0.845162	2.39135	0.769662	2.1729																
0.847003	2.39026	0.771736	2.17304																
0.848845	2.38917	0.77381	2.17318																
0.850688	2.3881	0.775885	2.17332																
0.852532	2.38703	0.777959	2.17346																
0.854377	2.38597	0.780033	2.17359																
0.856223	2.38492	0.782107	2.17373																
0.85807	2.38388	0.784182	2.17387																
0.859918	2.38285	0.786256	2.174																
0.861767	2.38182	0.78833	2.17413																
0.863617	2.38081	0.790404	2.17427																
0.865468	2.3798	0.792478	2.1744																
0.86732	2.37879	0.794552	2.17453																
0.869173	2.3778	0.796627	2.17466																
0.871027	2.37681	0.798701	2.1748																
0.872882	2.37583	0.800775	2.17493																
0.874738	2.37486	0.802849	2.17505																
0.876594	2.3739	0.804923	2.17518																
0.878452	2.37294	0.806997	2.17531																
0.880311	2.37199	0.809071	2.17544																
0.88217	2.37105	0.811145	2.17557																
0.88403	2.37012	0.813219	2.17569																
0.885892	2.36919	0.815294	2.17582																
0.887754	2.36827	0.817368	2.17594																
0.889617	2.36735	0.819442	2.17607																
0.891481	2.36645	0.821516	2.17619																
0.893346	2.36555	0.82359	2.17631																
0.895212	2.36465	0.825664	2.17643																
0.897078	2.36377	0.827738	2.17656																
0.898946	2.36289	0.829812	2.17668																
0.900814	2.36201	0.831886	2.1768																
0.902683	2.36115	0.83396	2.17692																
0.904554	2.36029	0.836034	2.17704																
0.906425	2.35943	0.838107	2.17715																
0.908296	2.35859	0.840181	2.17727																
0.910169	2.35774	0.842255	2.17739																
0.912043	2.35691	0.844329	2.17751																
0.913917	2.35608	0.846403	2.17762																
0.915792	2.35526	0.848477	2.17774																
0.917668	2.35444	0.850551	2.17785																
0.919545	2.35363	0.852625	2.17797																
0.921422	2.35282	0.854699	2.17808																
0.923301	2.35202	0.856772	2.17819																
0.92518	2.35123	0.858846	2.17831																
0.92706	2.35044	0.86092	2.17842																
0.928941	2.34966	0.862994	2.17853																
0.930822	2.34889	0.865068	2.17864																
0.932705	2.34811	0.867142	2.17875																
0.934588	2.34735	0.869215	2.17886																
0.936472	2.34659	0.871289	2.17897																
0.938356	2.34584	0.873363	2.17908																
0.940242	2.34509	0.875437	2.17919																
0.942128	2.34434	0.87751	2.1793																
0.944015	2.34361	0.879584	2.1794																
0.945903	2.34287	0.881658	2.17951																
0.947791	2.34215	0.883732	2.17962																
0.949681	2.34142	0.885805	2.17972																
0.951571	2.34071	0.887879	2.17983																
0.953461	2.34	0.889953	2.17993																
0.955353	2.33929	0.892026	2.18004																
0.957245	2.33859	0.8941	2.18014																
0.959138	2.33789	0.896174	2.18024																
0.961031	2.3372	0.898247	2.18035																
0.962926	2.33651	0.900321	2.18045																
0.964821	2.33583	0.902395	2.18055																
0.966716	2.33515	0.904468	2.18065																
0.968613	2.33448	0.906542	2.18075																
0.97051	2.33381	0.908615	2.18085																
0.972408	2.33315	0.910689	2.18095																
0.974306	2.33249	0.912763	2.18105																
0.976206	2.33183	0.914836	2.18115																
0.978106	2.33118	0.91691	2.18125																
0.980006	2.33054	0.918983	2.18135																
0.981907	2.3299	0.921057	2.18144																
0.983809	2.32926	0.92313	2.18154																
0.985712	2.32863	0.925204	2.18164																
0.987615	2.328	0.927277	2.18173																
0.989519	2.32738	0.929351	2.18183																
0.991424	2.32676	0.931424	2.18193																
0.993329	2.32614	0.933498	2.18202																
0.995235	2.32553	0.935571	2.18212																
0.997141	2.32492	0.937645	2.18221																
0.999049	2.32432	0.939718	2.1823																
1.00096	2.32372	0.941792	2.1824																
		0.943865	2.18249																
		0.945939	2.18258																
		0.948012	2.18267																
		0.950085	2.18276																
		0.952159	2.18286																
		0.954232	2.18295																
		0.956306	2.18304																
		0.958379	2.18313																
		0.960452	2.18322																
		0.962526	2.1833																
		0.964599	2.18339																
		0.966672	2.18348																
		0.968746	2.18357																
		0.970819	2.18366																
		0.972892	2.18374																
		0.974966	2.18383																
		0.977039	2.18392																
		0.979112	2.184																
		0.981186	2.18409																
		0.983259	2.18417																
		0.985332	2.18426																
		0.987405	2.18434																
		0.989479	2.18443																
		0.991552	2.18451																
		0.993625	2.18459																
		0.995698	2.18468																
		0.997771	2.18476																
		0.999845	2.18484																
		1.00192	2.18492																
