Sym0		Asym0		Sym1		Sym2		Sym3		Sym4		Asym1		Asym2		Asym3		Asym4	
469  Points		496  Points		235  Points		200  Points		187  Points		130  Points		340  Points		213  Points		175  Points		110  Points	
Freq (MHz)	Vph (m/ms)	Freq (MHz)	Vph (m/ms)	Freq (MHz)	Vph (m/ms)	Freq (MHz)	Vph (m/ms)	Freq (MHz)	Vph (m/ms)	Freq (MHz)	Vph (m/ms)	Freq (MHz)	Vph (m/ms)	Freq (MHz)	Vph (m/ms)	Freq (MHz)	Vph (m/ms)	Freq (MHz)	Vph (m/ms)
0.00330693	5.13244	0.00047977	0.18857	0.279519	519.677	0.467029	616.567	0.559023	1135.39	0.838528	1877.53	0.139793	230.946	0.419263	2856.54	0.698773	2314.17	0.934044	5604.19
0.00808864	5.13234	0.000891716	0.256539	0.279585	190.25	0.467056	276.502	0.559063	392.585	0.838551	608.392	0.140005	91.0899	0.419294	388.787	0.698795	566.445	0.934051	850.402
0.01287	5.13217	0.00142604	0.323537	0.279713	116.486	0.467103	178.225	0.559143	237.352	0.838597	363.029	0.140401	56.8725	0.419372	208.626	0.698844	322.74	0.934066	460.118
0.0176508	5.13195	0.00207887	0.389349	0.279902	83.9801	0.467171	131.503	0.559262	170.12	0.838667	258.712	0.140977	41.4592	0.419496	142.596	0.69892	225.673	0.93409	315.384
0.0224309	5.13164	0.00284561	0.453771	0.280152	65.6917	0.46726	104.2	0.55942	132.591	0.83876	200.978	0.141732	32.7167	0.419667	108.342	0.699023	173.509	0.934124	239.922
0.02721	5.13126	0.00372118	0.516635	0.280463	53.9732	0.467369	86.2951	0.559617	108.646	0.838876	164.322	0.14266	27.1021	0.419884	87.3803	0.699152	140.946	0.934167	193.604
0.0319879	5.1308	0.00470002	0.577794	0.280835	45.8279	0.4675	73.6494	0.559854	92.0428	0.839016	138.984	0.143756	23.2034	0.420148	73.2355	0.699309	118.685	0.934218	162.28
0.0367646	5.13028	0.00577635	0.637136	0.281267	39.841	0.467651	64.2437	0.560129	79.8561	0.839179	120.425	0.145016	20.3469	0.420458	63.0501	0.699492	102.507	0.93428	139.684
0.0415395	5.12968	0.00694409	0.694561	0.281759	35.2577	0.467823	56.975	0.560443	70.5322	0.839366	106.247	0.146433	18.1704	0.420815	55.368	0.699702	90.2199	0.93435	122.614
0.0463127	5.12901	0.00819732	0.750018	0.282311	31.6381	0.468017	51.1901	0.560796	63.1697	0.839575	95.062	0.148	16.4618	0.421218	49.369	0.699939	80.5712	0.93443	109.265
0.0510839	5.12825	0.00952998	0.803458	0.282921	28.7089	0.468233	46.4774	0.561188	57.2097	0.839808	86.0145	0.149712	15.0885	0.421667	44.5561	0.700202	72.7944	0.934519	98.5404
0.0558528	5.12742	0.0109362	0.854863	0.28359	26.2911	0.46847	42.5645	0.561618	52.2873	0.840065	78.5455	0.151562	13.9637	0.422161	40.6103	0.700492	66.3936	0.934618	89.735
0.0606193	5.12651	0.0124103	0.904238	0.284316	24.2628	0.468729	39.2642	0.562087	48.154	0.840344	72.2755	0.153542	13.0279	0.422702	37.3177	0.700809	61.0339	0.934726	82.3764
0.0653829	5.12552	0.0139467	0.951586	0.2851	22.5377	0.46901	36.4435	0.562594	44.6347	0.840647	66.9377	0.155646	12.2389	0.423287	34.5293	0.701152	56.4808	0.934844	76.1354
0.0701437	5.12445	0.0155404	0.996949	0.28594	21.0535	0.469314	34.0053	0.563138	41.6027	0.840973	62.3389	0.157868	11.5662	0.423918	32.1382	0.701522	52.5655	0.934971	70.7754
0.0749012	5.12329	0.0171864	1.04036	0.286837	19.7637	0.469641	31.877	0.563721	38.9639	0.841322	58.3358	0.1602	10.9871	0.424594	30.0657	0.701919	49.163	0.935108	66.1224
0.0796553	5.12205	0.01888	1.08186	0.287788	18.6331	0.469991	30.0034	0.564341	36.6468	0.841694	54.8201	0.162319	10.5452	0.425315	28.2528	0.702342	46.1791	0.935256	62.0452
0.0844056	5.12073	0.0206169	1.12152	0.288793	17.6344	0.470364	28.3416	0.564999	34.5963	0.842089	51.7081	0.164185	10.2075	0.42608	26.654	0.702791	43.5413	0.935413	58.4433
0.0891519	5.11931	0.0223933	1.15939	0.289852	16.7463	0.470762	26.8577	0.565693	32.7694	0.842507	48.9343	0.165768	9.95183	0.426889	25.2339	0.703266	41.193	0.93558	55.2382
0.0938938	5.1178	0.0242054	1.19553	0.290963	15.9518	0.471183	25.525	0.566425	31.1315	0.842948	46.4465	0.167045	9.76321	0.427742	23.9645	0.703768	39.0892	0.935757	52.368
0.0986312	5.1162	0.0260497	1.23003	0.292126	15.2373	0.47163	24.3216	0.567194	29.6552	0.843413	44.2028	0.167997	9.63154	0.428639	22.8234	0.704296	37.1938	0.935944	49.7828
0.103364	5.1145	0.0279232	1.26293	0.293339	14.5915	0.472101	23.2298	0.567998	28.3179	0.8439	42.1692	0.168612	9.55022	0.429579	21.7924	0.70485	35.4774	0.936142	47.4422
0.108091	5.11271	0.0298229	1.29431	0.294603	14.0053	0.472597	22.2349	0.568839	27.1009	0.84441	40.3177	0.169505	9.43713	0.430562	20.8564	0.70543	33.9161	0.936351	45.3132
0.112812	5.11081	0.0317464	1.32424	0.295915	13.471	0.47312	21.3247	0.569717	25.9891	0.844942	38.6249	0.170485	9.31907	0.431587	20.0033	0.706036	32.4899	0.93657	43.3684
0.117528	5.10881	0.0336912	1.35279	0.297276	12.9823	0.473669	20.489	0.570629	24.9695	0.845498	37.0714	0.171835	9.16613	0.432655	19.2227	0.706668	31.1821	0.936799	41.585
0.122238	5.10671	0.035655	1.38002	0.298683	12.5338	0.474244	19.7192	0.571577	24.0313	0.846076	35.6408	0.17357	8.98439	0.433764	18.506	0.707325	29.9786	0.93704	39.9436
0.12694	5.10449	0.0376361	1.40599	0.300136	12.1209	0.474847	19.0079	0.572561	23.1652	0.846677	34.3192	0.175707	8.78045	0.434915	17.8457	0.708008	28.8676	0.937291	38.4282
0.131636	5.10215	0.0396325	1.43077	0.301635	11.7397	0.475478	18.3489	0.573579	22.3634	0.8473	33.0946	0.178267	8.56102	0.436107	17.2357	0.708717	27.839	0.937553	37.0246
0.136324	5.0997	0.0416426	1.45442	0.303177	11.3868	0.476137	17.7366	0.574632	21.6191	0.847946	31.9569	0.18127	8.33243	0.43734	16.6706	0.709451	26.8839	0.937827	35.7211
0.141004	5.09713	0.043665	1.47699	0.304762	11.0593	0.476825	17.1664	0.575719	20.9265	0.848615	30.8972	0.184341	8.12557	0.438613	16.1457	0.710211	25.9949	0.938112	34.5074
0.145676	5.09443	0.0456982	1.49854	0.30639	10.7548	0.477542	16.6343	0.57684	20.2804	0.849306	29.9078	0.187474	7.93771	0.439926	15.657	0.710996	25.1655	0.938408	33.3745
0.150339	5.09159	0.0474781	1.51653	0.307842	10.5063	0.478288	16.1366	0.577995	19.6765	0.850019	28.9821	0.190667	7.76653	0.441278	15.2011	0.711806	24.3899	0.938716	32.3147
0.154992	5.08862	0.0490007	1.53131	0.309103	10.3059	0.479065	15.6702	0.579183	19.1108	0.850755	28.114	0.193917	7.61008	0.44267	14.7749	0.712641	23.663	0.939036	31.3211
0.159636	5.08551	0.0502631	1.54316	0.310163	10.1476	0.479874	15.2324	0.580404	18.5799	0.851512	27.2986	0.19722	7.46669	0.444099	14.3755	0.713501	22.9807	0.939367	30.3878
0.164268	5.08225	0.0512632	1.5523	0.311012	10.0269	0.480713	14.8208	0.581658	18.0808	0.852292	26.5311	0.200572	7.3349	0.445567	14.0008	0.714386	22.3388	0.939711	29.5095
0.16889	5.07884	0.0519997	1.5589	0.311641	9.9406	0.481585	14.4331	0.582944	17.6107	0.853094	25.8076	0.203973	7.21347	0.447073	13.6485	0.715295	21.7341	0.940066	28.6815
0.1735	5.07527	0.0524715	1.56306	0.312047	9.88638	0.482489	14.0673	0.584263	17.1674	0.853918	25.1244	0.207418	7.10133	0.448616	13.3169	0.71623	21.1633	0.940434	27.8997
0.178097	5.07153	0.0531504	1.56898	0.312633	9.80982	0.483426	13.7219	0.585614	16.7485	0.854764	24.4783	0.210906	6.99754	0.450196	13.0041	0.717188	20.6239	0.940814	27.1602
0.182681	5.06761	0.053889	1.57531	0.313276	9.72839	0.484397	13.3952	0.586996	16.3523	0.855632	23.8663	0.214434	6.90126	0.451812	12.7088	0.718171	20.1133	0.941206	26.4599
0.187251	5.06352	0.0548946	1.58375	0.314157	9.62055	0.485402	13.0859	0.588409	15.977	0.856522	23.286	0.218	6.81178	0.453464	12.4295	0.719178	19.6293	0.941612	25.7956
0.191806	5.05923	0.0561685	1.59418	0.315283	9.48875	0.486442	12.7926	0.589853	15.621	0.857433	22.7349	0.221603	6.72846	0.455151	12.1651	0.72021	19.1699	0.942029	25.1648
0.196346	5.05475	0.0577116	1.60642	0.316664	9.33585	0.487518	12.5143	0.591328	15.283	0.858366	22.2109	0.225239	6.65074	0.456874	11.9144	0.721265	18.7334	0.94246	24.5649
0.200868	5.05005	0.059525	1.62028	0.318309	9.16497	0.48863	12.2498	0.592834	14.9616	0.85932	21.7122	0.228908	6.5781	0.458631	11.6765	0.722344	18.3182	0.942904	23.9938
0.205374	5.04514	0.06161	1.63556	0.32023	8.97939	0.489778	11.9984	0.594369	14.6558	0.860296	21.2369	0.232608	6.51011	0.460422	11.4505	0.723447	17.9227	0.94336	23.4494
0.20986	5.04001	0.0636987	1.65019	0.322185	8.80421	0.490963	11.759	0.595934	14.3644	0.861293	20.7835	0.236337	6.44638	0.462246	11.2356	0.724573	17.5456	0.94383	22.9301
0.214327	5.03463	0.0657905	1.66421	0.324174	8.63863	0.492186	11.531	0.597528	14.0865	0.862311	20.3505	0.240093	6.38654	0.464104	11.0309	0.725722	17.1857	0.944314	22.434
0.218773	5.02901	0.0678851	1.67766	0.326197	8.48193	0.493447	11.3136	0.599152	13.8212	0.863351	19.9367	0.243875	6.33027	0.465994	10.8359	0.726895	16.8419	0.944811	21.9598
0.223198	5.02313	0.0699822	1.69056	0.328252	8.33347	0.494747	11.1062	0.600804	13.5677	0.864412	19.5408	0.247683	6.27728	0.467667	10.6733	0.728091	16.5131	0.945321	21.5059
0.227598	5.01697	0.0720813	1.70294	0.330339	8.19267	0.496087	10.9081	0.602485	13.3253	0.865493	19.1617	0.251513	6.22733	0.469112	10.5398	0.72931	16.1985	0.945845	21.0712
0.231974	5.01053	0.0741821	1.71482	0.332457	8.059	0.497286	10.7427	0.604194	13.0933	0.866596	18.7983	0.255367	6.18016	0.470321	10.4328	0.730552	15.8971	0.946384	20.6545
0.236324	5.00378	0.0762843	1.72624	0.334607	7.93197	0.498333	10.6067	0.605931	12.871	0.867719	18.4498	0.259241	6.13558	0.471285	10.3503	0.731816	15.6082	0.946936	20.2547
0.240646	4.99672	0.0783878	1.73721	0.336788	7.81115	0.499215	10.4976	0.607696	12.658	0.868864	18.1153	0.263135	6.09338	0.471998	10.2907	0.733103	15.331	0.947502	19.8708
0.244939	4.98934	0.0804923	1.74777	0.339	7.69614	0.499924	10.4134	0.609488	12.4536	0.870028	17.7939	0.267048	6.05339	0.472457	10.2531	0.734413	15.0648	0.948082	19.5019
0.249201	4.98161	0.0825977	1.75792	0.341242	7.58658	0.500451	10.3526	0.611307	12.2575	0.871214	17.485	0.270979	6.01546	0.473119	10.1997	0.735744	14.8091	0.948677	19.1472
0.25343	4.97352	0.0847036	1.76769	0.343515	7.48213	0.500791	10.3142	0.613152	12.069	0.872419	17.1878	0.274927	5.97943	0.473842	10.1426	0.737098	14.5633	0.949287	18.8059
0.257625	4.96506	0.08681	1.77709	0.345819	7.38248	0.501284	10.2597	0.615024	11.8878	0.873645	16.9017	0.278892	5.94518	0.474832	10.0662	0.738473	14.3267	0.949911	18.4772
0.261783	4.9562	0.0889168	1.78615	0.348153	7.28738	0.501825	10.2013	0.616923	11.7136	0.874891	16.6261	0.282871	5.91257	0.476094	9.972	0.73987	14.099	0.95055	18.1605
0.265903	4.94694	0.0910237	1.79488	0.350519	7.19655	0.502569	10.1233	0.618847	11.5459	0.876158	16.3605	0.286864	5.88151	0.477635	9.86132	0.741289	13.8796	0.951203	17.8552
0.269982	4.93726	0.0931308	1.8033	0.352916	7.10976	0.503524	10.0269	0.620797	11.3844	0.877444	16.1043	0.290871	5.85188	0.479464	9.73588	0.742729	13.6681	0.951872	17.5606
0.27402	4.92714	0.0952379	1.81142	0.355345	7.02681	0.5047	9.9137	0.622772	11.2287	0.87875	15.8572	0.294891	5.82359	0.481589	9.59747	0.744191	13.4642	0.952556	17.2763
0.278012	4.91656	0.0973449	1.81926	0.357807	6.94749	0.506109	9.78533	0.624772	11.0787	0.880077	15.6185	0.298923	5.79655	0.483744	9.46466	0.745673	13.2673	0.953255	17.0017
0.281958	4.90552	0.0994519	1.82683	0.360302	6.87163	0.507766	9.64365	0.626536	10.9523	0.881422	15.388	0.302965	5.77069	0.485926	9.33716	0.747177	13.0773	0.95397	16.7363
0.285855	4.89399	0.101559	1.83413	0.362831	6.79906	0.509466	9.5077	0.628053	10.8476	0.882788	15.1651	0.307019	5.74593	0.488136	9.21466	0.748701	12.8937	0.9547	16.4797
0.289701	4.88196	0.103665	1.8412	0.365396	6.72962	0.511209	9.37719	0.629319	10.763	0.884173	14.9496	0.311082	5.72219	0.490374	9.0969	0.750246	12.7163	0.955445	16.2316
0.293494	4.86942	0.105771	1.84802	0.367997	6.66319	0.512996	9.25185	0.630326	10.6975	0.885577	14.7412	0.315154	5.69942	0.492638	8.98363	0.751811	12.5447	0.956207	15.9914
0.297231	4.85636	0.107877	1.85463	0.370635	6.59962	0.514827	9.13143	0.63107	10.6499	0.887	14.5394	0.319235	5.67756	0.494928	8.87462	0.753396	12.3787	0.956984	15.7588
0.300912	4.84277	0.109982	1.86101	0.373312	6.53881	0.516701	9.01569	0.631548	10.6198	0.888443	14.344	0.323324	5.65655	0.497245	8.76965	0.755002	12.2181	0.957777	15.5336
0.304533	4.82865	0.112087	1.8672	0.376029	6.48063	0.51862	8.90441	0.632237	10.577	0.889905	14.1546	0.32742	5.63633	0.499587	8.66852	0.756628	12.0625	0.958587	15.3153
0.307639	4.81591	0.114192	1.87318	0.378786	6.42499	0.520583	8.79738	0.632988	10.5309	0.891386	13.9712	0.331522	5.61687	0.501955	8.57104	0.758273	11.9118	0.959412	15.1036
0.31025	4.80472	0.116296	1.87898	0.381587	6.37179	0.52259	8.69441	0.634016	10.4692	0.892885	13.7932	0.335631	5.59812	0.504347	8.47702	0.759938	11.7658	0.960255	14.8984
0.312382	4.79524	0.1184	1.8846	0.384431	6.32095	0.524642	8.59531	0.635323	10.3926	0.894403	13.6206	0.339745	5.58003	0.506763	8.38631	0.761623	11.6242	0.961113	14.6992
0.314051	4.7876	0.120503	1.89005	0.38732	6.27237	0.526737	8.4999	0.636916	10.302	0.89594	13.4532	0.343865	5.56256	0.509204	8.29874	0.763326	11.4868	0.961988	14.5059
0.315268	4.7819	0.122606	1.89534	0.390256	6.22597	0.528878	8.40802	0.638801	10.1985	0.897495	13.2906	0.347989	5.54569	0.511668	8.21417	0.765049	11.3536	0.96288	14.3182
0.316043	4.77822	0.124708	1.90046	0.39324	6.18169	0.531062	8.31952	0.640985	10.0834	0.899069	13.1327	0.352116	5.52937	0.514155	8.13247	0.766566	11.2406	0.963789	14.1359
0.317151	4.77288	0.12681	1.90544	0.396272	6.13944	0.53329	8.23425	0.643192	9.972	0.900661	12.9793	0.356248	5.51358	0.516665	8.05348	0.76787	11.1466	0.964715	13.9587
0.318347	4.767	0.128911	1.91027	0.399355	6.09916	0.535563	8.15206	0.645422	9.86409	0.902271	12.8303	0.360382	5.49829	0.519198	7.97711	0.768957	11.0704	0.965658	13.7865
0.31996	4.75891	0.131012	1.91496	0.402488	6.06077	0.537879	8.07283	0.647674	9.75954	0.903899	12.6853	0.364519	5.48345	0.521752	7.90323	0.769821	11.0111	0.966618	13.619
0.321978	4.7485	0.133112	1.91952	0.405673	6.02421	0.540239	7.99643	0.649948	9.65821	0.905545	12.5444	0.368658	5.46906	0.524329	7.83173	0.770459	10.9681	0.967596	13.4562
0.324384	4.73564	0.135212	1.92395	0.408909	5.9894	0.542642	7.92274	0.652245	9.55998	0.907209	12.4073	0.372798	5.45508	0.526926	7.7625	0.770868	10.9407	0.968591	13.2977
0.327159	4.72021	0.137312	1.92826	0.412198	5.95629	0.545088	7.85165	0.654562	9.4647	0.908891	12.2739	0.376939	5.44149	0.529545	7.69546	0.771459	10.9017	0.969604	13.1435
0.330281	4.70204	0.13941	1.93245	0.415539	5.92481	0.547577	7.78304	0.656901	9.37226	0.91059	12.1441	0.381081	5.42828	0.532185	7.63051	0.772103	10.8598	0.970634	12.9934
0.333335	4.6834	0.141509	1.93652	0.418933	5.89489	0.550108	7.71683	0.659262	9.28254	0.912306	12.0176	0.385223	5.4154	0.534845	7.56756	0.772982	10.8034	0.971682	12.8472
0.336321	4.66431	0.143607	1.94049	0.422378	5.86646	0.552681	7.6529	0.661643	9.19544	0.91404	11.8945	0.389364	5.40286	0.537525	7.50652	0.774101	10.7332	0.972749	12.7048
0.339241	4.64478	0.145704	1.94435	0.425875	5.83946	0.555295	7.59116	0.664045	9.11085	0.915791	11.7745	0.393505	5.39063	0.540226	7.44733	0.775463	10.6499	0.973833	12.566
0.342095	4.62486	0.147801	1.94811	0.429422	5.81382	0.55795	7.53153	0.666467	9.02867	0.91756	11.6576	0.397644	5.37868	0.542945	7.38991	0.777073	10.5543	0.974936	12.4308
0.344884	4.60456	0.149897	1.95178	0.433019	5.78949	0.560646	7.47393	0.66891	8.94881	0.919114	11.5581	0.401782	5.36701	0.545684	7.33419	0.778938	10.4474	0.976057	12.299
0.347608	4.58392	0.151993	1.95535	0.436664	5.76639	0.563382	7.41826	0.671373	8.87119	0.92045	11.4751	0.405918	5.3556	0.548442	7.28009	0.78082	10.3434	0.977196	12.1705
0.35027	4.56296	0.154089	1.95883	0.440355	5.74446	0.566157	7.36446	0.673856	8.79571	0.921561	11.4075	0.41005	5.34443	0.551219	7.22756	0.78272	10.2422	0.978354	12.0451
0.352871	4.54172	0.156184	1.96222	0.444093	5.72365	0.568971	7.31244	0.676358	8.7223	0.922444	11.3549	0.41418	5.33349	0.554015	7.17655	0.784638	10.1436	0.979531	11.9228
0.355413	4.52022	0.158279	1.96553	0.447874	5.70389	0.571823	7.26214	0.67888	8.65088	0.923096	11.3165	0.418307	5.32277	0.556828	7.12698	0.786572	10.0476	0.980726	11.8035
0.357896	4.49851	0.160373	1.96876	0.451697	5.68512	0.574714	7.21349	0.681421	8.58138	0.923515	11.2922	0.422429	5.31224	0.55966	7.07881	0.788524	9.95404	0.981784	11.7019
0.360325	4.47661	0.162467	1.97191	0.45556	5.66729	0.577641	7.16643	0.683982	8.51374	0.924117	11.2574	0.426547	5.30191	0.562509	7.03198	0.790493	9.86289	0.982696	11.617
0.362699	4.45454	0.16456	1.97498	0.459462	5.65034	0.580605	7.12089	0.686561	8.44787	0.924775	11.2199	0.43066	5.29175	0.565376	6.98645	0.792478	9.77404	0.983459	11.5478
0.365022	4.43235	0.166653	1.97799	0.4634	5.63422	0.583605	7.07682	0.689159	8.38373	0.925672	11.1695	0.434768	5.28176	0.568261	6.94217	0.79448	9.68741	0.984067	11.4939
0.367295	4.41006	0.168746	1.98092	0.467374	5.61888	0.58664	7.03416	0.691776	8.32124	0.926813	11.1066	0.43887	5.27192	0.571163	6.89909	0.796499	9.60293	0.984518	11.4547
0.36952	4.38769	0.170838	1.98378	0.47138	5.60426	0.58971	6.99284	0.694411	8.26037	0.9282	11.0317	0.442965	5.26222	0.574082	6.85718	0.798534	9.52052	0.984807	11.4297
0.371699	4.36528	0.17293	1.98658	0.475417	5.59034	0.592814	6.95284	0.697064	8.20104	0.929839	10.9455	0.447054	5.25266	0.577017	6.81639	0.800585	9.44011	0.985225	11.3941
0.373835	4.34285	0.175021	1.98932	0.479483	5.57705	0.595951	6.91408	0.699736	8.1432	0.931735	10.8489	0.451136	5.24322	0.57997	6.77668	0.802652	9.36164	0.985681	11.3556
0.37593	4.32041	0.177113	1.99199	0.483576	5.56436	0.599121	6.87653	0.702425	8.08682	0.933647	10.7545	0.455211	5.2339	0.582939	6.73802	0.804735	9.28504	0.986306	11.3039
0.377984	4.298	0.179204	1.99461	0.487696	5.55224	0.602323	6.84013	0.705132	8.03183	0.935575	10.6623	0.459277	5.22469	0.585924	6.70037	0.806834	9.21025	0.987103	11.2393
0.380001	4.27564	0.181294	1.99716	0.491838	5.54063	0.605557	6.80485	0.707856	7.9782	0.937519	10.5722	0.463335	5.21557	0.588926	6.6637	0.808949	9.13721	0.988076	11.1624
0.381981	4.25333	0.183384	1.99967	0.496004	5.52952	0.608821	6.77065	0.710599	7.92587	0.939479	10.4841	0.467383	5.20654	0.591944	6.62797	0.811079	9.06586	0.989231	11.0739
0.383928	4.23111	0.185474	2.00211	0.500189	5.51886	0.612116	6.73748	0.713358	7.87481	0.941454	10.398	0.471423	5.19759	0.594978	6.59317	0.813224	8.99616	0.990576	10.9745
0.385842	4.20899	0.187564	2.00451	0.504394	5.50862	0.61544	6.7053	0.716134	7.82498	0.943445	10.3139	0.475452	5.18872	0.598029	6.55925	0.815385	8.92804	0.99194	10.8773
0.387725	4.18698	0.189653	2.00686	0.508617	5.49879	0.618792	6.67408	0.718928	7.77634	0.945451	10.2316	0.479471	5.17991	0.601095	6.52618	0.817561	8.86146	0.993325	10.7824
0.389579	4.16509	0.191742	2.00915	0.512855	5.48932	0.622173	6.64378	0.721738	7.72885	0.947472	10.1511	0.483479	5.17116	0.604177	6.49396	0.819752	8.79638	0.994729	10.6895
0.391405	4.14334	0.193831	2.0114	0.517109	5.4802	0.625582	6.61437	0.724566	7.68248	0.949509	10.0724	0.487476	5.16247	0.607274	6.46253	0.821957	8.73274	0.996153	10.5987
0.393204	4.12174	0.195919	2.01361	0.521376	5.4714	0.629018	6.58582	0.72741	7.63719	0.95156	9.99538	0.491461	5.15382	0.610388	6.43189	0.824178	8.67051	0.997598	10.5099
0.394979	4.1003	0.198007	2.01576	0.525656	5.46289	0.63248	6.5581	0.73027	7.59294	0.953627	9.92001	0.495434	5.14521	0.613517	6.40202	0.826413	8.60963	0.999063	10.423
0.396731	4.07903	0.200095	2.01788	0.529946	5.45467	0.635967	6.53117	0.733147	7.54972	0.955708	9.84623	0.499394	5.13663	0.616662	6.37287	0.828663	8.55008	1.00055	10.338
0.39846	4.05793	0.202183	2.01995	0.534247	5.4467	0.63948	6.505	0.73604	7.50748	0.957804	9.774	0.50334	5.12808	0.619822	6.34445	0.830927	8.4918		
0.400168	4.03702	0.20427	2.02199	0.538557	5.43898	0.643018	6.47958	0.738949	7.46621	0.959915	9.70329	0.507273	5.11955	0.622998	6.31671	0.833205	8.43478		
0.401856	4.0163	0.206357	2.02398	0.542875	5.43148	0.646579	6.45486	0.741875	7.42586	0.96204	9.63404	0.511192	5.11104	0.62619	6.28966	0.835498	8.37896		
0.403525	3.99577	0.208444	2.02593	0.5472	5.42419	0.650164	6.43084	0.744816	7.38642	0.96418	9.56621	0.515096	5.10254	0.629397	6.26326	0.837804	8.32431		
0.405176	3.97545	0.21053	2.02785	0.551531	5.41709	0.653772	6.40748	0.747773	7.34785	0.966333	9.49976	0.518984	5.09405	0.632619	6.2375	0.840125	8.2708		
0.406811	3.95533	0.212617	2.02973	0.555867	5.41017	0.657403	6.38476	0.750746	7.31014	0.968501	9.43466	0.522857	5.08555	0.635858	6.21235	0.842459	8.2184		
0.40843	3.93542	0.214703	2.03158	0.560208	5.40342	0.661055	6.36265	0.753735	7.27326	0.970683	9.37086	0.526714	5.07706	0.639111	6.18782	0.844808	8.16708		
0.410034	3.91572	0.216789	2.03339	0.564553	5.39683	0.664728	6.34114	0.75674	7.23719	0.972879	9.30834	0.530554	5.06855	0.64238	6.16387	0.84717	8.11681		
0.411623	3.89624	0.218875	2.03517	0.5689	5.39038	0.668422	6.32021	0.75976	7.2019	0.975088	9.24705	0.534377	5.06003	0.645665	6.14049	0.849546	8.06755		
0.4132	3.87697	0.22096	2.03691	0.573249	5.38406	0.672137	6.29983	0.762796	7.16738	0.977312	9.18696	0.538182	5.0515	0.648966	6.11767	0.851935	8.01929		
0.414764	3.85792	0.223046	2.03863	0.5776	5.37786	0.675871	6.27999	0.765847	7.1336	0.979549	9.12804	0.541969	5.04295	0.652282	6.0954	0.854337	7.97199		
0.416316	3.83909	0.225131	2.04031	0.581952	5.37178	0.679624	6.26067	0.768914	7.10054	0.981799	9.07026	0.545738	5.03437	0.655613	6.07365	0.856753	7.92563		
0.417858	3.82048	0.227216	2.04196	0.586303	5.3658	0.683396	6.24184	0.771996	7.06819	0.984063	9.01359	0.549488	5.02577	0.658961	6.05242	0.859183	7.88019		
0.419389	3.80209	0.2293	2.04359	0.590655	5.35992	0.687187	6.2235	0.775093	7.03652	0.98634	8.958	0.553218	5.01713	0.662324	6.03169	0.861625	7.83563		
0.42091	3.78392	0.231385	2.04518	0.595005	5.35413	0.690995	6.20563	0.778206	7.00553	0.98863	8.90346	0.556929	5.00847	0.665702	6.01145	0.864081	7.79194		
0.422422	3.76597	0.233469	2.04675	0.599354	5.34842	0.694821	6.18821	0.781334	6.97518	0.990933	8.84995	0.560619	4.99976	0.669096	5.99169	0.86655	7.7491		
0.423926	3.74824	0.235553	2.04829	0.6037	5.34279	0.698663	6.17123	0.784477	6.94547	0.993249	8.79743	0.564289	4.99101	0.672506	5.9724	0.869031	7.70708		
0.425421	3.73073	0.237637	2.04981	0.608044	5.33722	0.702522	6.15466	0.787635	6.91638	0.995578	8.74589	0.567937	4.98223	0.675932	5.95356	0.871526	7.66586		
0.42691	3.71344	0.239721	2.0513	0.612384	5.33172	0.706398	6.13851	0.790809	6.8879	0.99792	8.69529	0.571564	4.9734	0.679373	5.93516	0.874033	7.62543		
0.428391	3.69637	0.241805	2.05276	0.616721	5.32627	0.710288	6.12275	0.793998	6.86	1.00027	8.64562	0.575169	4.96452	0.68283	5.9172	0.876554	7.58575		
0.429866	3.67951	0.243888	2.0542	0.621054	5.32087	0.714194	6.10737	0.797201	6.83268			0.578752	4.95559	0.686302	5.89966	0.879087	7.54683		
0.431334	3.66287	0.245972	2.05562	0.625382	5.31552	0.718115	6.09235	0.800421	6.80593			0.582313	4.94662	0.68979	5.88253	0.881633	7.50862		
0.432797	3.64645	0.248055	2.05701	0.629704	5.31021	0.72205	6.0777	0.803655	6.77972			0.58585	4.93759	0.693293	5.8658	0.884191	7.47113		
0.434255	3.63023	0.250138	2.05838	0.634022	5.30494	0.725999	6.06339	0.806904	6.75404			0.589364	4.92851	0.696813	5.84946	0.886762	7.43433		
0.435708	3.61423	0.252221	2.05973	0.638333	5.2997	0.729962	6.04941	0.810169	6.72889			0.592855	4.91937	0.700347	5.83351	0.889345	7.3982		
0.437157	3.59844	0.254303	2.06105	0.642638	5.29449	0.733938	6.03576	0.813449	6.70425			0.596322	4.91018	0.703897	5.81792	0.891942	7.36273		
0.438601	3.58285	0.256386	2.06236	0.646937	5.2893	0.737926	6.02241	0.816744	6.68012			0.599765	4.90093	0.707462	5.80271	0.89455	7.3279		
0.440042	3.56747	0.258469	2.06365	0.651228	5.28414	0.741927	6.00937	0.820054	6.65647			0.603184	4.89163	0.711042	5.78784	0.897171	7.29371		
0.441479	3.55229	0.260551	2.06491	0.655512	5.27899	0.74594	5.99662	0.82338	6.6333			0.606579	4.88227	0.714637	5.77332	0.899804	7.26012		
0.442913	3.53731	0.262633	2.06616	0.659788	5.27385	0.749965	5.98416	0.826721	6.61059			0.609949	4.87285	0.718248	5.75914	0.90245	7.22714		
0.444344	3.52253	0.264715	2.06738	0.664055	5.26873	0.754001	5.97196	0.830077	6.58835			0.613293	4.86337	0.721873	5.74529	0.905108	7.19474		
0.445773	3.50794	0.266797	2.06859	0.668314	5.26361	0.758048	5.96004	0.833449	6.56655			0.616613	4.85384	0.725512	5.73175	0.907778	7.16292		
0.447199	3.49355	0.268879	2.06978	0.672565	5.2585	0.762105	5.94836	0.836836	6.54519			0.619908	4.84424	0.729167	5.71853	0.91046	7.13165		
0.448624	3.47936	0.270961	2.07095	0.676806	5.25339	0.766173	5.93693	0.840239	6.52427			0.623178	4.8346	0.732835	5.70561	0.913155	7.10094		
0.450046	3.46535	0.273042	2.07211	0.681037	5.24828	0.77025	5.92575	0.843658	6.50376			0.626422	4.82489	0.736518	5.69298	0.915861	7.07076		
0.451467	3.45153	0.275124	2.07324	0.685259	5.24317	0.774336	5.91479	0.847092	6.48367			0.629641	4.81513	0.740214	5.68065	0.91858	7.0411		
0.452887	3.43789	0.277205	2.07436	0.689471	5.23805	0.778432	5.90406	0.850542	6.46398			0.632835	4.80532	0.743925	5.66859	0.921311	7.01196		
0.454305	3.42444	0.279286	2.07547	0.693672	5.23293	0.782537	5.89354	0.854008	6.44468			0.636003	4.79545	0.747648	5.6568	0.924054	6.98332		
0.455723	3.41117	0.281367	2.07656	0.697862	5.22779	0.786649	5.88324	0.85749	6.42578			0.639146	4.78552	0.751385	5.64528	0.926809	6.95516		
0.457139	3.39808	0.283448	2.07763	0.702042	5.22265	0.79077	5.87313	0.860987	6.40726			0.642263	4.77555	0.755135	5.63402	0.929576	6.92749		
0.458555	3.38516	0.285529	2.07869	0.70621	5.2175	0.794899	5.86322	0.864501	6.38911			0.645355	4.76553	0.758897	5.623	0.932355	6.90029		
0.459971	3.37241	0.28761	2.07973	0.710366	5.21233	0.799034	5.8535	0.868031	6.37132			0.648421	4.75545	0.762672	5.61223	0.935146	6.87355		
0.461386	3.35984	0.289691	2.08076	0.714511	5.20714	0.803177	5.84396	0.871578	6.3539			0.651462	4.74533	0.76646	5.60169	0.937949	6.84727		
0.462802	3.34743	0.291771	2.08177	0.718644	5.20194	0.807326	5.8346	0.87514	6.33683			0.654478	4.73516	0.770258	5.59138	0.940764	6.82142		
0.464217	3.33519	0.293852	2.08277	0.722764	5.19672	0.811482	5.8254	0.878719	6.32011			0.657469	4.72495	0.774069	5.58129	0.943591	6.796		
0.465633	3.32312	0.295932	2.08375	0.726872	5.19148	0.815643	5.81637	0.882315	6.30373			0.660435	4.7147	0.77789	5.57142	0.94643	6.77101		
0.467048	3.31121	0.298013	2.08472	0.730967	5.18621	0.81981	5.80751	0.885928	6.28769			0.663376	4.7044	0.781723	5.56176	0.94928	6.74644		
0.468465	3.29945	0.300093	2.08568	0.735049	5.18093	0.823982	5.79879	0.889557	6.27197			0.666292	4.69407	0.785566	5.55229	0.952143	6.72227		
0.469882	3.28786	0.302173	2.08663	0.739118	5.17562	0.828159	5.79022	0.893203	6.25658			0.669184	4.6837	0.789419	5.54302	0.955017	6.6985		
0.471299	3.27642	0.304253	2.08756	0.743174	5.17029	0.832341	5.78179	0.896866	6.2415			0.672051	4.67329	0.793282	5.53395	0.957903	6.67512		
0.472717	3.26513	0.306333	2.08848	0.747216	5.16493	0.836527	5.7735	0.900546	6.22674			0.674894	4.66285	0.797154	5.52505	0.9608	6.65212		
0.474137	3.25399	0.308413	2.08939	0.751244	5.15954	0.840716	5.76535	0.904243	6.21228			0.677713	4.65238	0.801036	5.51633	0.96371	6.6295		
0.475557	3.243	0.310493	2.09029	0.755258	5.15413	0.84491	5.75732	0.907957	6.19813			0.680508	4.64187	0.804926	5.50778	0.966631	6.60725		
0.476978	3.23216	0.312573	2.09117	0.759257	5.14869	0.849106	5.74941	0.911689	6.18427			0.683279	4.63134	0.808825	5.4994	0.969564	6.58536		
0.478401	3.22146	0.314652	2.09204	0.763243	5.14322	0.853306	5.74162	0.915438	6.1707			0.686027	4.62079	0.812731	5.49118	0.972508	6.56382		
0.479825	3.2109	0.316732	2.0929	0.767214	5.13772	0.857508	5.73395	0.919204	6.15742			0.688752	4.61021	0.816646	5.48311	0.975464	6.54263		
0.48125	3.20049	0.318811	2.09376	0.77117	5.13219	0.861712	5.72639	0.922989	6.14442			0.691453	4.59961	0.820568	5.47519	0.978432	6.52178		
0.482677	3.19021	0.320891	2.0946	0.775111	5.12663	0.865918	5.71893	0.92679	6.1317			0.694132	4.58899	0.824496	5.46741	0.981411	6.50126		
0.484105	3.18006	0.32297	2.09542	0.779037	5.12104	0.870126	5.71158	0.93061	6.11925			0.696789	4.57835	0.828431	5.45978	0.984402	6.48107		
0.485534	3.17005	0.325049	2.09624	0.782948	5.11542	0.874336	5.70432	0.934447	6.10707			0.699423	4.5677	0.832373	5.45227	0.987404	6.46121		
0.486966	3.16018	0.327128	2.09705	0.786843	5.10977	0.878546	5.69716	0.938303	6.09515			0.702035	4.55703	0.83632	5.4449	0.990418	6.44165		
0.488399	3.15043	0.329208	2.09785	0.790723	5.10408	0.882757	5.69009	0.942176	6.08349			0.704626	4.54635	0.840272	5.43765	0.993443	6.42241		
0.489834	3.14081	0.331287	2.09864	0.794588	5.09837	0.886969	5.68311	0.946067	6.07208			0.707195	4.53566	0.84423	5.43052	0.99648	6.40347		
0.49127	3.13131	0.333366	2.09942	0.798436	5.09262	0.891181	5.67621	0.949976	6.06093			0.709743	4.52496	0.848192	5.4235	0.999528	6.38484		
0.492709	3.12194	0.335444	2.10019	0.802269	5.08683	0.895393	5.6694	0.953903	6.05002			0.71227	4.51426	0.852159	5.4166	1.00259	6.36649		
0.49415	3.1127	0.337523	2.10095	0.806086	5.08102	0.899605	5.66266	0.957847	6.03935			0.714776	4.50355	0.85613	5.4098				
0.495592	3.10357	0.339602	2.1017	0.809886	5.07517	0.903816	5.656	0.96181	6.02892			0.717262	4.49284	0.860104	5.4031				
0.497037	3.09456	0.341681	2.10244	0.813671	5.06929	0.908027	5.64941	0.965791	6.01873			0.719728	4.48213	0.864082	5.3965				
0.498483	3.08567	0.343759	2.10317	0.817439	5.06337	0.912237	5.64289	0.96979	6.00876			0.722174	4.47141	0.868062	5.39				
0.499932	3.07689	0.345838	2.1039	0.821191	5.05743	0.916446	5.63644	0.973807	5.99901			0.7246	4.46071	0.872045	5.38359				
0.501383	3.06822	0.347917	2.10461	0.824927	5.05145	0.920653	5.63006	0.977841	5.98949			0.727007	4.45	0.87603	5.37726				
0.502836	3.05967	0.349995	2.10532	0.828646	5.04544	0.924859	5.62374	0.981894	5.98019			0.729396	4.4393	0.880017	5.37102				
0.504291	3.05123	0.352073	2.10602	0.832348	5.03939	0.929063	5.61748	0.985964	5.97109			0.731765	4.42861	0.884006	5.36485				
0.505749	3.04289	0.354152	2.10671	0.836034	5.03331	0.933265	5.61127	0.990052	5.96221			0.734116	4.41793	0.887995	5.35876				
0.507209	3.03467	0.35623	2.10739	0.839703	5.0272	0.937465	5.60513	0.994157	5.95353			0.736449	4.40726	0.891986	5.35275				
0.508671	3.02654	0.358308	2.10807	0.843355	5.02106	0.941663	5.59904	0.99828	5.94505			0.738764	4.3966	0.895977	5.34681				
0.510136	3.01852	0.360386	2.10874	0.84699	5.01489	0.945859	5.593	1.00242	5.93676			0.741061	4.38595	0.899968	5.34093				
0.511602	3.01061	0.362465	2.1094	0.850609	5.00868	0.950052	5.58702					0.743342	4.37532	0.903959	5.33511				
0.513072	3.00279	0.364543	2.11005	0.854211	5.00245	0.954243	5.58108					0.745605	4.3647	0.90795	5.32936				
0.514543	2.99507	0.366621	2.1107	0.857796	4.99618	0.958431	5.57519					0.747851	4.3541	0.911939	5.32367				
0.516018	2.98745	0.368699	2.11133	0.861364	4.98989	0.962616	5.56935					0.750081	4.34353	0.915928	5.31803				
0.517494	2.97993	0.370777	2.11196	0.864915	4.98356	0.966798	5.56356					0.752294	4.33297	0.919915	5.31244				
0.518973	2.9725	0.372854	2.11259	0.868449	4.9772	0.970977	5.55781					0.754492	4.32243	0.923901	5.3069				
0.520455	2.96516	0.374932	2.11321	0.871966	4.97082	0.975154	5.55211					0.756674	4.31191	0.927884	5.30141				
0.521939	2.95791	0.37701	2.11382	0.875466	4.9644	0.979327	5.54645					0.758841	4.30142	0.931866	5.29597				
0.523426	2.95076	0.379088	2.11442	0.87895	4.95796	0.983497	5.54083					0.760992	4.29096	0.935844	5.29056				
0.524915	2.94369	0.381165	2.11502	0.882416	4.95149	0.987663	5.53525					0.763128	4.28052	0.93982	5.2852				
0.526406	2.93671	0.383243	2.11561	0.885865	4.945	0.991827	5.52971					0.76525	4.2701	0.943793	5.27988				
0.527901	2.92982	0.38532	2.11619	0.889298	4.93847	0.995987	5.52421					0.767358	4.25972	0.947762	5.27459				
0.529397	2.92301	0.387398	2.11677	0.892714	4.93192	1.00014	5.51874					0.769451	4.24936	0.951727	5.26934				
0.530897	2.91629	0.389475	2.11734	0.896112	4.92535							0.771531	4.23903	0.955689	5.26412				
0.532399	2.90965	0.391553	2.11791	0.899494	4.91875							0.773597	4.22874	0.959646	5.25892				
0.533903	2.90309	0.39363	2.11847	0.902859	4.91212							0.775649	4.21847	0.963598	5.25376				
0.53541	2.89661	0.395708	2.11903	0.906208	4.90547							0.777689	4.20824	0.967546	5.24862				
0.53692	2.89021	0.397785	2.11957	0.909539	4.8988							0.779716	4.19804	0.971489	5.24351				
0.538432	2.88388	0.399862	2.12012	0.912855	4.89211							0.78173	4.18788	0.975427	5.23842				
0.539947	2.87764	0.401939	2.12066	0.916153	4.88539							0.783731	4.17775	0.979359	5.23335				
0.541465	2.87147	0.404017	2.12119	0.919435	4.87865							0.785721	4.16766	0.983285	5.2283				
0.542985	2.86537	0.406094	2.12171	0.9227	4.87189							0.787698	4.1576	0.987205	5.22327				
0.544507	2.85935	0.408171	2.12224	0.925949	4.86511							0.789664	4.14758	0.991119	5.21826				
0.546033	2.8534	0.410248	2.12275	0.929181	4.85831							0.791619	4.1376	0.995027	5.21326				
0.547561	2.84752	0.412325	2.12326	0.932397	4.8515							0.793562	4.12765	0.998928	5.20827				
0.549091	2.84171	0.414402	2.12377	0.935597	4.84466							0.795494	4.11775	1.00282	5.2033				
0.550624	2.83597	0.416479	2.12427	0.93878	4.8378							0.797415	4.10788						
0.55216	2.8303	0.418556	2.12477	0.941947	4.83093							0.799326	4.09806						
0.553698	2.82469	0.420632	2.12526	0.945099	4.82404							0.801227	4.08827						
0.555239	2.81915	0.422709	2.12574	0.948234	4.81714							0.803117	4.07853						
0.556783	2.81368	0.424786	2.12623	0.951353	4.81021							0.804997	4.06883						
0.558329	2.80827	0.426863	2.1267	0.954456	4.80328							0.806868	4.05916						
0.559877	2.80292	0.428939	2.12718	0.957544	4.79633							0.808729	4.04955						
0.561429	2.79764	0.431016	2.12764	0.960616	4.78936							0.810581	4.03997						
0.562982	2.79242	0.433093	2.12811	0.963672	4.78239							0.812423	4.03044						
0.564539	2.78726	0.435169	2.12857	0.966713	4.77539							0.814257	4.02095						
0.566098	2.78216	0.437246	2.12902	0.969738	4.76839							0.816082	4.01151						
0.567659	2.77712	0.439322	2.12947	0.972747	4.76138							0.817898	4.00211						
0.569223	2.77213	0.441399	2.12992	0.975742	4.75435							0.819706	3.99275						
0.57079	2.76721	0.443475	2.13036	0.978721	4.74732							0.821506	3.98344						
0.572359	2.76234	0.445552	2.1308	0.981685	4.74027							0.823298	3.97417						
0.573931	2.75752	0.447628	2.13123	0.984634	4.73322							0.825082	3.96495						
0.575505	2.75276	0.449705	2.13166	0.987568	4.72615							0.826858	3.95578						
0.577082	2.74806	0.451781	2.13209	0.990487	4.71908							0.828627	3.94665						
0.578661	2.74341	0.453857	2.13251	0.993391	4.712							0.830388	3.93756						
0.580242	2.73881	0.455934	2.13293	0.99628	4.70491							0.832142	3.92852						
0.581827	2.73426	0.45801	2.13334	0.999155	4.69782							0.83389	3.91953						
0.583413	2.72976	0.460086	2.13375	1.00202	4.69072							0.83563	3.91059						
0.585002	2.72532	0.462162	2.13416									0.837364	3.90169						
0.586594	2.72092	0.464238	2.13456									0.839091	3.89284						
0.588188	2.71658	0.466314	2.13496									0.840812	3.88403						
0.589784	2.71228	0.468391	2.13536									0.842526	3.87527						
0.591383	2.70803	0.470467	2.13575									0.844235	3.86656						
0.592985	2.70383	0.472543	2.13614									0.845937	3.8579						
0.594588	2.69967	0.474619	2.13653									0.847634	3.84928						
0.596194	2.69556	0.476695	2.13691									0.849325	3.84071						
0.597803	2.69149	0.478771	2.13729									0.851011	3.83219						
0.599414	2.68747	0.480846	2.13767									0.852691	3.82371						
0.601027	2.6835	0.482922	2.13804									0.854366	3.81528						
0.602643	2.67956	0.484998	2.13841									0.856036	3.8069						
0.604261	2.67567	0.487074	2.13878									0.857701	3.79856						
0.605881	2.67182	0.48915	2.13914									0.859361	3.79028						
0.607504	2.66802	0.491226	2.1395									0.861016	3.78204						
0.609128	2.66425	0.493301	2.13986									0.862667	3.77384						
0.610756	2.66053	0.495377	2.14021									0.864313	3.76569						
0.612385	2.65684	0.497453	2.14056									0.865954	3.75759						
0.614017	2.6532	0.499529	2.14091									0.867592	3.74954						
0.615651	2.64959	0.501604	2.14126									0.869225	3.74153						
0.617287	2.64603	0.50368	2.1416									0.870854	3.73357						
0.618926	2.6425	0.505755	2.14194									0.87248	3.72566						
0.620567	2.639	0.507831	2.14228									0.874101	3.71779						
0.62221	2.63555	0.509907	2.14261									0.875719	3.70997						
0.623855	2.63213	0.511982	2.14294									0.877333	3.7022						
0.625502	2.62875	0.514058	2.14327									0.878944	3.69447						
0.627152	2.6254	0.516133	2.1436									0.880551	3.68679						
0.628804	2.62209	0.518209	2.14392									0.882155	3.67915						
0.630458	2.61881	0.520284	2.14425									0.883755	3.67156						
0.632114	2.61557	0.52236	2.14456									0.885353	3.66401						
0.633772	2.61236	0.524435	2.14488									0.886947	3.65651						
0.635433	2.60918	0.52651	2.14519									0.888538	3.64906						
0.637095	2.60604	0.528586	2.14551									0.890127	3.64165						
0.63876	2.60293	0.530661	2.14581									0.891713	3.63428						
0.640426	2.59985	0.532736	2.14612									0.893296	3.62696						
0.642095	2.5968	0.534812	2.14642									0.894876	3.61968						
0.643766	2.59378	0.536887	2.14673									0.896454	3.61245						
0.645439	2.5908	0.538962	2.14703									0.898029	3.60526						
0.647114	2.58784	0.541037	2.14732									0.899602	3.59812						
0.648791	2.58492	0.543112	2.14762									0.901173	3.59102						
0.65047	2.58202	0.545188	2.14791									0.902742	3.58397						
0.652151	2.57916	0.547263	2.1482									0.904308	3.57695						
0.653834	2.57632	0.549338	2.14849									0.905872	3.56998						
0.655519	2.57351	0.551413	2.14877									0.907434	3.56306						
0.657206	2.57073	0.553488	2.14906									0.908994	3.55617						
0.658895	2.56798	0.555563	2.14934									0.910553	3.54933						
0.660586	2.56526	0.557638	2.14962									0.912109	3.54253						
0.662279	2.56256	0.559713	2.1499									0.913664	3.53578						
0.663973	2.55989	0.561788	2.15017									0.915217	3.52906						
0.66567	2.55724	0.563863	2.15045									0.916768	3.52239						
0.667369	2.55462	0.565938	2.15072									0.918318	3.51576						
0.669069	2.55203	0.568013	2.15099									0.919867	3.50917						
0.670772	2.54947	0.570088	2.15125									0.921413	3.50262						
0.672476	2.54692	0.572163	2.15152									0.922959	3.49612						
0.674182	2.54441	0.574238	2.15178									0.924503	3.48965						
0.67589	2.54192	0.576313	2.15204									0.926046	3.48322						
0.6776	2.53945	0.578388	2.1523									0.927588	3.47684						
0.679312	2.537	0.580463	2.15256									0.929128	3.47049						
0.681025	2.53458	0.582537	2.15282									0.930667	3.46419						
0.68274	2.53219	0.584612	2.15307									0.932206	3.45792						
0.684457	2.52981	0.586687	2.15332									0.933743	3.45169						
0.686176	2.52746	0.588762	2.15358									0.935279	3.44551						
0.687897	2.52514	0.590836	2.15382									0.936815	3.43936						
0.689619	2.52283	0.592911	2.15407									0.938349	3.43325						
0.691344	2.52055	0.594986	2.15432									0.939883	3.42718						
0.69307	2.51829	0.597061	2.15456									0.941416	3.42114						
0.694797	2.51605	0.599135	2.1548									0.942948	3.41515						
0.696527	2.51383	0.60121	2.15504									0.944479	3.40919						
0.698258	2.51163	0.603284	2.15528									0.94601	3.40327						
0.69999	2.50945	0.605359	2.15552									0.94754	3.39739						
0.701725	2.50729	0.607434	2.15575									0.949069	3.39154						
0.703461	2.50516	0.609508	2.15599									0.950598	3.38573						
0.705199	2.50304	0.611583	2.15622									0.952127	3.37996						
0.706938	2.50095	0.613657	2.15645									0.953655	3.37422						
0.708679	2.49887	0.615732	2.15668									0.955183	3.36853						
0.710422	2.49681	0.617806	2.15691									0.95671	3.36286						
0.712167	2.49477	0.619881	2.15713									0.958237	3.35723						
0.713913	2.49275	0.621955	2.15736									0.959763	3.35164						
0.71566	2.49075	0.62403	2.15758									0.961289	3.34608						
0.71741	2.48877	0.626104	2.1578									0.962815	3.34056						
0.71916	2.48681	0.628179	2.15802									0.964341	3.33508						
0.720913	2.48486	0.630253	2.15824									0.965867	3.32962						
0.722667	2.48293	0.632328	2.15846									0.967392	3.3242						
0.724422	2.48102	0.634402	2.15867									0.968917	3.31882						
0.726179	2.47913	0.636476	2.15889									0.970443	3.31347						
0.727938	2.47725	0.638551	2.1591									0.971968	3.30815						
0.729698	2.4754	0.640625	2.15931									0.973493	3.30287						
0.73146	2.47355	0.642699	2.15952									0.975018	3.29762						
0.733223	2.47173	0.644774	2.15973									0.976543	3.2924						
0.734988	2.46992	0.646848	2.15994									0.978068	3.28722						
0.736754	2.46813	0.648922	2.16014									0.979593	3.28207						
0.738522	2.46635	0.650996	2.16035									0.981119	3.27695						
0.740291	2.46459	0.653071	2.16055									0.982644	3.27186						
0.742061	2.46285	0.655145	2.16075									0.98417	3.26681						
0.743833	2.46112	0.657219	2.16095									0.985695	3.26179						
0.745607	2.4594	0.659293	2.16115									0.987221	3.25679						
0.747382	2.45771	0.661368	2.16135									0.988747	3.25183						
0.749158	2.45602	0.663442	2.16155									0.990274	3.24691						
0.750936	2.45435	0.665516	2.16174									0.9918	3.24201						
0.752715	2.4527	0.66759	2.16194									0.993327	3.23714						
0.754496	2.45106	0.669664	2.16213									0.994855	3.2323						
0.756278	2.44944	0.671738	2.16232									0.996382	3.22749						
0.758061	2.44783	0.673812	2.16251									0.99791	3.22272						
0.759846	2.44623	0.675886	2.1627									0.999438	3.21797						
0.761632	2.44465	0.67796	2.16289									1.00097	3.21325						
0.763419	2.44308	0.680035	2.16308																
0.765208	2.44152	0.682109	2.16327																
0.766998	2.43998	0.684183	2.16345																
0.76879	2.43845	0.686257	2.16363																
0.770583	2.43694	0.688331	2.16382																
0.772377	2.43544	0.690405	2.164																
0.774172	2.43395	0.692479	2.16418																
0.775969	2.43247	0.694552	2.16436																
0.777767	2.43101	0.696626	2.16454																
0.779567	2.42956	0.6987	2.16472																
0.781367	2.42812	0.700774	2.16489																
0.783169	2.42669	0.702848	2.16507																
0.784972	2.42528	0.704922	2.16524																
0.786777	2.42387	0.706996	2.16541																
0.788582	2.42248	0.70907	2.16559																
0.790389	2.42111	0.711144	2.16576																
0.792197	2.41974	0.713217	2.16593																
0.794007	2.41838	0.715291	2.1661																
0.795817	2.41704	0.717365	2.16626																
0.797629	2.4157	0.719439	2.16643																
0.799442	2.41438	0.721513	2.1666																
0.801256	2.41307	0.723586	2.16676																
0.803072	2.41177	0.72566	2.16693																
0.804888	2.41048	0.727734	2.16709																
0.806706	2.4092	0.729808	2.16725																
0.808525	2.40794	0.731881	2.16741																
0.810345	2.40668	0.733955	2.16757																
0.812166	2.40543	0.736029	2.16773																
0.813988	2.40419	0.738102	2.16789																
0.815811	2.40297	0.740176	2.16805																
0.817636	2.40175	0.74225	2.16821																
0.819462	2.40054	0.744323	2.16836																
0.821289	2.39935	0.746397	2.16852																
0.823116	2.39816	0.74847	2.16867																
0.824945	2.39698	0.750544	2.16882																
0.826776	2.39581	0.752618	2.16898																
0.828607	2.39465	0.754691	2.16913																
0.830439	2.3935	0.756765	2.16928																
0.832272	2.39236	0.758838	2.16943																
0.834107	2.39123	0.760912	2.16958																
0.835942	2.39011	0.762985	2.16973																
0.837779	2.389	0.765059	2.16987																
0.839616	2.38789	0.767132	2.17002																
0.841455	2.3868	0.769206	2.17017																
0.843295	2.38571	0.771279	2.17031																
0.845135	2.38463	0.773353	2.17046																
0.846977	2.38356	0.775426	2.1706																
0.84882	2.3825	0.777499	2.17074																
0.850663	2.38145	0.779573	2.17088																
0.852508	2.38041	0.781646	2.17102																
0.854354	2.37937	0.78372	2.17117																
0.8562	2.37834	0.785793	2.1713																
0.858048	2.37732	0.787866	2.17144																
0.859897	2.37631	0.78994	2.17158																
0.861747	2.3753	0.792013	2.17172																
0.863597	2.37431	0.794086	2.17186																
0.865449	2.37332	0.79616	2.17199																
0.867301	2.37234	0.798233	2.17213																
0.869155	2.37136	0.800306	2.17226																
0.871009	2.3704	0.80238	2.17239																
0.872865	2.36944	0.804453	2.17253																
0.874721	2.36849	0.806526	2.17266																
0.876578	2.36754	0.808599	2.17279																
0.878436	2.36661	0.810673	2.17292																
0.880295	2.36568	0.812746	2.17305																
0.882155	2.36476	0.814819	2.17318																
0.884016	2.36384	0.816892	2.17331																
0.885878	2.36293	0.818965	2.17344																
0.887741	2.36203	0.821039	2.17357																
0.889604	2.36114	0.823112	2.17369																
0.891469	2.36025	0.825185	2.17382																
0.893334	2.35937	0.827258	2.17395																
0.8952	2.35849	0.829331	2.17407																
0.897068	2.35762	0.831404	2.1742																
0.898935	2.35676	0.833477	2.17432																
0.900804	2.35591	0.83555	2.17444																
0.902674	2.35506	0.837624	2.17456																
0.904545	2.35422	0.839697	2.17469																
0.906416	2.35338	0.84177	2.17481																
0.908288	2.35255	0.843843	2.17493																
0.910161	2.35173	0.845916	2.17505																
0.912035	2.35091	0.847989	2.17517																
0.91391	2.3501	0.850062	2.17529																
0.915785	2.34929	0.852135	2.1754																
0.917662	2.34849	0.854208	2.17552																
0.919539	2.3477	0.856281	2.17564																
0.921417	2.34691	0.858354	2.17576																
0.923295	2.34613	0.860427	2.17587																
0.925175	2.34535	0.8625	2.17599																
0.927055	2.34458	0.864573	2.1761																
0.928936	2.34382	0.866645	2.17622																
0.930818	2.34306	0.868718	2.17633																
0.932701	2.3423	0.870791	2.17644																
0.934584	2.34155	0.872864	2.17655																
0.936469	2.34081	0.874937	2.17667																
0.938354	2.34007	0.87701	2.17678																
0.940239	2.33934	0.879083	2.17689																
0.942126	2.33861	0.881156	2.177																
0.944013	2.33789	0.883228	2.17711																
0.945901	2.33717	0.885301	2.17722																
0.94779	2.33646	0.887374	2.17733																
0.949679	2.33575	0.889447	2.17744																
0.95157	2.33505	0.89152	2.17754																
0.953461	2.33435	0.893592	2.17765																
0.955352	2.33366	0.895665	2.17776																
0.957245	2.33298	0.897738	2.17786																
0.959138	2.33229	0.899811	2.17797																
0.961032	2.33162	0.901883	2.17807																
0.962926	2.33094	0.903956	2.17818																
0.964821	2.33028	0.906029	2.17828																
0.966717	2.32961	0.908102	2.17839																
0.968614	2.32895	0.910174	2.17849																
0.970511	2.3283	0.912247	2.17859																
0.972409	2.32765	0.91432	2.17869																
0.974308	2.32701	0.916392	2.1788																
0.976207	2.32637	0.918465	2.1789																
0.978108	2.32573	0.920538	2.179																
0.980008	2.3251	0.92261	2.1791																
0.98191	2.32447	0.924683	2.1792																
0.983812	2.32385	0.926755	2.1793																
0.985714	2.32323	0.928828	2.1794																
0.987618	2.32262	0.930901	2.17949																
0.989522	2.32201	0.932973	2.17959																
0.991427	2.3214	0.935046	2.17969																
0.993332	2.3208	0.937118	2.17979																
0.995238	2.3202	0.939191	2.17988																
0.997145	2.31961	0.941263	2.17998																
0.999052	2.31902	0.943336	2.18008																
1.00096	2.31843	0.945409	2.18017																
		0.947481	2.18027																
		0.949553	2.18036																
		0.951626	2.18045																
		0.953698	2.18055																
		0.955771	2.18064																
		0.957843	2.18073																
		0.959916	2.18083																
		0.961988	2.18092																
		0.964061	2.18101																
		0.966133	2.1811																
		0.968205	2.18119																
		0.970278	2.18128																
		0.97235	2.18137																
		0.974423	2.18146																
		0.976495	2.18155																
		0.978567	2.18164																
		0.98064	2.18173																
		0.982712	2.18182																
		0.984784	2.1819																
		0.986857	2.18199																
		0.988929	2.18208																
		0.991001	2.18216																
		0.993074	2.18225																
		0.995146	2.18234																
		0.997218	2.18242																
		0.99929	2.18251																
		1.00136	2.18259																
