Sym0		Asym0		Sym1		Sym2		Sym3		Sym4		Asym1		Asym2		Asym3		Asym4	
468  Points		496  Points		227  Points		193  Points		179  Points		126  Points		337  Points		205  Points		168  Points		102  Points	
Freq (MHz)	Vph (m/ms)	Freq (MHz)	Vph (m/ms)	Freq (MHz)	Vph (m/ms)	Freq (MHz)	Vph (m/ms)	Freq (MHz)	Vph (m/ms)	Freq (MHz)	Vph (m/ms)	Freq (MHz)	Vph (m/ms)	Freq (MHz)	Vph (m/ms)	Freq (MHz)	Vph (m/ms)	Freq (MHz)	Vph (m/ms)
0.00155053	5.34033	0.000322772	0.157872	0.279524	435.278	0.470183	4895.58	0.559025	1005.79	0.838528	2104.7	0.139811	197.414	0.419264	1731.48	0.698773	2415.44	0.940366	2718.29
0.00652604	5.34029	0.000681525	0.228991	0.279604	177.654	0.470196	457.506	0.559071	375.846	0.838551	630.441	0.140061	85.4075	0.419303	357.207	0.698796	572.32	0.940374	736.026
0.0115013	5.34015	0.00116906	0.299153	0.279751	111.652	0.470231	239.983	0.55916	231.135	0.8386	370.767	0.140506	54.6374	0.419392	199.186	0.698849	324.641	0.940391	425.645
0.0164759	5.3399	0.0017815	0.368109	0.279965	81.4502	0.470288	162.666	0.559292	166.908	0.838674	262.62	0.141144	40.2889	0.419532	138.13	0.698931	226.604	0.940418	299.398
0.0214497	5.33958	0.00251424	0.435646	0.280246	64.1449	0.470368	123.042	0.559466	130.637	0.838774	203.33	0.141972	32.0118	0.419722	105.752	0.699043	174.061	0.940454	230.916
0.0264225	5.33915	0.00336201	0.501569	0.280593	52.9357	0.470469	98.952	0.559682	107.336	0.838899	165.892	0.142985	26.643	0.419963	85.6959	0.699183	141.313	0.9405	187.934
0.0313939	5.33863	0.00431879	0.56568	0.281007	45.0885	0.470593	82.7604	0.559941	91.1069	0.839049	140.108	0.144177	22.8911	0.420254	72.0561	0.699352	118.948	0.940556	158.446
0.0363637	5.33802	0.00537854	0.627866	0.281486	39.2915	0.470739	71.1311	0.560242	79.1562	0.839224	121.27	0.145542	20.1301	0.420595	62.1814	0.699551	102.707	0.94062	136.961
0.0413317	5.33732	0.00653476	0.688009	0.28203	34.8369	0.470908	62.3752	0.560585	69.9911	0.839425	106.906	0.147074	18.0198	0.420987	54.7041	0.699779	90.3774	0.940695	120.61
0.0462976	5.33653	0.00778088	0.746026	0.282639	31.3089	0.4711	55.5458	0.56097	62.7408	0.839651	95.5923	0.148764	16.3595	0.421428	48.8476	0.700036	80.6999	0.940779	107.749
0.0512612	5.33565	0.00911047	0.801875	0.283312	28.4475	0.471315	50.0707	0.561396	56.8631	0.839902	86.4509	0.150607	15.0229	0.421919	44.138	0.700321	72.9027	0.940873	97.3697
0.0562221	5.33467	0.0105172	0.855531	0.284049	26.0815	0.471553	45.5841	0.561864	52.003	0.840178	78.9118	0.152594	13.9268	0.42246	40.2696	0.700636	66.487	0.940977	88.8168
0.06118	5.3336	0.0119947	0.906984	0.284848	24.0937	0.471815	41.841	0.562374	47.9181	0.840479	72.5881	0.154718	13.014	0.42305	37.0366	0.70098	61.1161	0.941091	81.6474
0.0661347	5.33242	0.0135373	0.956256	0.28571	22.4012	0.4721	38.6711	0.562924	44.4373	0.840806	67.2083	0.156972	12.244	0.423689	34.2952	0.701352	56.5546	0.941215	75.5512
0.0710859	5.33115	0.0151391	1.00337	0.286632	20.9436	0.47241	35.9527	0.563516	41.4364	0.841157	62.5762	0.159348	11.5873	0.424377	31.9419	0.701754	52.6327	0.941349	70.3041
0.0760333	5.32977	0.0167951	1.04838	0.287615	19.676	0.472744	33.5959	0.564148	38.8232	0.841534	58.5463	0.161841	11.0218	0.425113	29.9005	0.702184	49.2252	0.941493	65.7405
0.0809765	5.32829	0.0185	1.09134	0.288658	18.564	0.473103	31.5336	0.564821	36.5274	0.841936	55.0086	0.164102	10.5903	0.425898	28.1134	0.702642	46.2374	0.941648	61.735
0.0859153	5.32671	0.0202494	1.1323	0.289759	17.5814	0.473488	29.714	0.565535	34.4951	0.842363	51.8785	0.166092	10.2604	0.42673	26.5364	0.70313	43.5965	0.941814	58.1914
0.0908493	5.32501	0.0220389	1.17135	0.290917	16.7072	0.473898	28.0969	0.566288	32.6837	0.842814	49.0895	0.167779	10.0107	0.42761	25.1348	0.703646	41.2458	0.94199	55.0342
0.0957782	5.32321	0.0238647	1.20854	0.292132	15.9249	0.474334	26.6506	0.567081	31.0593	0.843291	46.5891	0.169139	9.82649	0.428537	23.8815	0.70419	39.1402	0.942177	52.2035
0.100701	5.32129	0.025723	1.24395	0.293403	15.2211	0.474797	25.3496	0.567913	29.5947	0.843792	44.3347	0.170152	9.6979	0.429512	22.7543	0.704763	37.2433	0.942375	49.6514
0.105619	5.31925	0.0276106	1.27767	0.294728	14.5849	0.475286	24.1733	0.568785	28.2677	0.844318	42.292	0.170807	9.61848	0.430533	21.7356	0.705364	35.5259	0.942584	47.3386
0.11053	5.3171	0.0295245	1.30977	0.296107	14.0073	0.475804	23.1047	0.569696	27.06	0.844869	40.4327	0.171757	9.50804	0.431599	20.8106	0.705993	33.9639	0.942805	45.2331
0.115434	5.31481	0.0314619	1.34031	0.297538	13.4808	0.476349	22.13	0.570645	25.9564	0.845445	38.7332	0.1728	9.39275	0.432712	19.9672	0.70665	32.5371	0.943037	43.3084
0.120331	5.3124	0.0334203	1.36939	0.29902	12.9993	0.476923	21.2374	0.571633	24.9442	0.846045	37.1739	0.174235	9.24343	0.43387	19.1954	0.707335	31.229	0.94328	41.5421
0.125221	5.30986	0.0353975	1.39707	0.300553	12.5573	0.477526	20.4172	0.572658	24.0127	0.846669	35.7383	0.176079	9.06598	0.435073	18.4866	0.708048	30.0254	0.943536	39.9155
0.130102	5.30718	0.0373914	1.42343	0.302134	12.1504	0.478158	19.661	0.573721	23.1527	0.847318	34.4124	0.17835	8.8669	0.43632	17.8336	0.708789	28.9144	0.943803	38.4128
0.134975	5.30436	0.0394001	1.44852	0.303764	11.7747	0.478821	18.9618	0.574822	22.3565	0.847992	33.1841	0.181067	8.65273	0.437611	17.2302	0.709558	27.8859	0.944082	37.0204
0.139839	5.30139	0.0414221	1.47242	0.30544	11.427	0.479514	18.3136	0.57596	21.6175	0.84869	32.0431	0.184253	8.42968	0.438946	16.6712	0.710354	26.9311	0.944374	35.7265
0.144693	5.29827	0.0434558	1.49519	0.307162	11.1044	0.480239	17.7111	0.577134	20.9296	0.849412	30.9806	0.187508	8.22788	0.440324	16.152	0.711177	26.0424	0.944678	34.5213
0.149537	5.295	0.0452365	1.51416	0.308929	10.8044	0.480996	17.1497	0.578345	20.2881	0.850158	29.9887	0.190828	8.04467	0.441744	15.6686	0.712028	25.2133	0.944994	33.3958
0.15437	5.29155	0.0467601	1.52972	0.310505	10.5596	0.481785	16.6256	0.579591	19.6883	0.850929	29.0608	0.194209	7.87777	0.443207	15.2176	0.712906	24.4382	0.945324	32.3425
0.159191	5.28795	0.0480235	1.54218	0.311873	10.3622	0.482608	16.1352	0.580874	19.1265	0.851724	28.191	0.197647	7.72529	0.444711	14.7959	0.713812	23.7119	0.945666	31.3548
0.164001	5.28416	0.0490246	1.55178	0.313022	10.2063	0.483464	15.6755	0.582191	18.5993	0.852542	27.3739	0.20114	7.58556	0.446256	14.4009	0.714744	23.0301	0.946021	30.4266
0.168797	5.28019	0.0497618	1.5587	0.313942	10.0875	0.484355	15.2439	0.583544	18.1037	0.853385	26.605	0.204684	7.45719	0.447842	14.0302	0.715702	22.3888	0.946389	29.5529
0.173579	5.27602	0.0502341	1.56306	0.314624	10.0025	0.485281	14.838	0.584931	17.6369	0.854251	25.8803	0.208276	7.33894	0.449467	13.6818	0.716688	21.7847	0.946771	28.729
0.178347	5.27166	0.0509137	1.56926	0.315064	9.94909	0.486243	14.4556	0.586353	17.1967	0.855141	25.1961	0.211914	7.22977	0.451133	13.3538	0.7177	21.2147	0.947166	27.9507
0.1831	5.26708	0.0516531	1.57589	0.315699	9.87371	0.487241	14.0948	0.587809	16.7809	0.856054	24.5491	0.215595	7.12875	0.452837	13.0445	0.718739	20.676	0.947575	27.2146
0.187836	5.26229	0.0526599	1.58473	0.316395	9.79354	0.488276	13.7541	0.589298	16.3875	0.856991	23.9364	0.219316	7.03508	0.45458	12.7524	0.719803	20.1661	0.947997	26.5171
0.192555	5.25727	0.0539353	1.59562	0.317349	9.68738	0.489349	13.4318	0.590821	16.0149	0.857952	23.3555	0.223076	6.94804	0.456361	12.4763	0.720894	19.6829	0.948434	25.8555
0.197256	5.25201	0.0554803	1.6084	0.318569	9.55764	0.490461	13.1266	0.592376	15.6615	0.858936	22.8039	0.226872	6.867	0.45818	12.2149	0.722011	19.2244	0.948885	25.2271
0.201937	5.24651	0.0572961	1.62284	0.320064	9.40715	0.491611	12.8373	0.593964	15.326	0.859943	22.2795	0.230703	6.79143	0.460035	11.9671	0.723153	18.7887	0.949349	24.6294
0.206598	5.24074	0.0593838	1.63873	0.321844	9.239	0.492802	12.5627	0.595585	15.007	0.860974	21.7805	0.234566	6.72082	0.461927	11.732	0.724321	18.3742	0.949829	24.0602
0.211237	5.2347	0.0614753	1.65392	0.323922	9.05643	0.494032	12.3019	0.597237	14.7035	0.862027	21.305	0.23846	6.65474	0.463855	11.5086	0.725515	17.9796	0.950323	23.5177
0.215853	5.22837	0.0635698	1.66845	0.326037	8.88414	0.495304	12.0539	0.598921	14.4143	0.863103	20.8514	0.242383	6.59279	0.465818	11.2962	0.726734	17.6033	0.950831	23
0.220444	5.22174	0.0656672	1.68236	0.328188	8.72133	0.496618	11.818	0.600636	14.1386	0.864203	20.4184	0.246333	6.53464	0.467816	11.094	0.727978	17.2443	0.951355	22.5054
0.22501	5.2148	0.0677669	1.69568	0.330374	8.56731	0.497973	11.5932	0.602382	13.8754	0.865325	20.0046	0.250309	6.47997	0.469849	10.9013	0.729247	16.9013	0.951893	22.0326
0.229548	5.20753	0.0698685	1.70844	0.332595	8.42144	0.499372	11.3789	0.604158	13.6239	0.866469	19.6087	0.25431	6.42849	0.471647	10.7407	0.730541	16.5735	0.952447	21.58
0.234057	5.19991	0.0719718	1.72067	0.334851	8.28314	0.500814	11.1745	0.605965	13.3835	0.867637	19.2296	0.258334	6.37995	0.4732	10.6089	0.731859	16.2597	0.953016	21.1465
0.238535	5.19193	0.0740765	1.7324	0.33714	8.15191	0.5023	10.9795	0.607801	13.1534	0.868826	18.8664	0.26238	6.33412	0.474499	10.5032	0.733202	15.9592	0.953601	20.7309
0.242981	5.18358	0.0761823	1.74365	0.339464	8.02725	0.503632	10.8166	0.609668	12.933	0.870038	18.5181	0.266446	6.29079	0.475534	10.4217	0.734569	15.6711	0.954201	20.3321
0.247392	5.17483	0.078289	1.75445	0.341822	7.90876	0.504794	10.6828	0.611563	12.7217	0.871273	18.1838	0.270532	6.24978	0.4763	10.363	0.735961	15.3948	0.954816	19.9492
0.251767	5.16568	0.0803963	1.76483	0.344213	7.79603	0.505773	10.5754	0.613487	12.5191	0.872529	17.8627	0.274637	6.21092	0.476792	10.3258	0.737376	15.1296	0.955448	19.5812
0.256104	5.15609	0.0825042	1.7748	0.346638	7.68871	0.50656	10.4926	0.61544	12.3247	0.873807	17.554	0.278758	6.17404	0.477503	10.2731	0.738815	14.8747	0.956096	19.2274
0.2604	5.14606	0.0846124	1.78439	0.349097	7.58648	0.507146	10.4328	0.617421	12.1379	0.875108	17.2571	0.282896	6.13901	0.478279	10.2167	0.740278	14.6298	0.956759	18.8868
0.264654	5.13556	0.0867209	1.79362	0.351591	7.48904	0.507524	10.395	0.619431	11.9583	0.87643	16.9714	0.287049	6.10569	0.479342	10.1413	0.741764	14.3941	0.95744	18.5589
0.268862	5.12457	0.0888294	1.80249	0.354119	7.39611	0.508071	10.3414	0.621468	11.7857	0.877773	16.6962	0.291217	6.07396	0.480696	10.0483	0.743274	14.1672	0.958136	18.243
0.273024	5.11309	0.090938	1.81104	0.356683	7.30746	0.508672	10.284	0.623532	11.6195	0.879138	16.431	0.295398	6.04372	0.48235	9.93909	0.744806	13.9487	0.95885	17.9383
0.277135	5.10109	0.0930465	1.81927	0.359283	7.22286	0.509498	10.2073	0.625623	11.4595	0.880525	16.1752	0.299592	6.01486	0.484311	9.8153	0.746361	13.7382	0.959579	17.6444
0.281195	5.08856	0.0951547	1.82721	0.36192	7.14209	0.510559	10.1126	0.627741	11.3054	0.881933	15.9285	0.303797	5.9873	0.48659	9.67873	0.747939	13.5351	0.960326	17.3607
0.285201	5.07548	0.0972628	1.83486	0.364594	7.06497	0.511865	10.0014	0.629886	11.1568	0.883362	15.6902	0.308013	5.96094	0.488899	9.54772	0.74954	13.3391	0.96109	17.0868
0.289151	5.06183	0.0993705	1.84224	0.367308	6.99133	0.513431	9.8753	0.631776	11.0316	0.884812	15.4602	0.31224	5.93571	0.491238	9.42195	0.751163	13.15	0.961871	16.822
0.293041	5.04761	0.101478	1.84937	0.370061	6.92101	0.515272	9.73623	0.633403	10.928	0.886283	15.2378	0.316476	5.91153	0.493605	9.30114	0.752808	12.9673	0.962669	16.566
0.296871	5.03281	0.103585	1.85625	0.372856	6.85385	0.517161	9.60287	0.634759	10.8443	0.887775	15.0228	0.320721	5.88834	0.496	9.18503	0.754475	12.7907	0.963485	16.3184
0.300638	5.01742	0.105692	1.8629	0.375693	6.78972	0.519098	9.47492	0.635838	10.7794	0.889288	14.8148	0.324973	5.86608	0.498424	9.07336	0.756163	12.62	0.964318	16.0788
0.304339	5.00143	0.107798	1.86933	0.378574	6.72849	0.521083	9.35211	0.636635	10.7324	0.890821	14.6135	0.329233	5.84468	0.500874	8.96591	0.757874	12.4549	0.965169	15.8468
0.307974	4.98484	0.109904	1.87554	0.381501	6.67005	0.523117	9.2342	0.637147	10.7026	0.892375	14.4187	0.3335	5.82409	0.503352	8.86246	0.759605	12.2951	0.966038	15.6221
0.311541	4.96766	0.112009	1.88155	0.384474	6.61429	0.525199	9.12095	0.637885	10.6602	0.893949	14.2299	0.337772	5.80427	0.505857	8.7628	0.761358	12.1404	0.966925	15.4044
0.315038	4.94988	0.114114	1.88737	0.387494	6.56109	0.52733	9.01213	0.63869	10.6146	0.895543	14.0469	0.34205	5.78516	0.508387	8.66676	0.763132	11.9905	0.96783	15.1933
0.318464	4.93152	0.116218	1.893	0.390565	6.51037	0.529509	8.90754	0.639791	10.5535	0.897157	13.8695	0.346333	5.76672	0.510943	8.57415	0.764927	11.8453	0.968753	14.9885
0.321819	4.91259	0.118321	1.89845	0.393685	6.46203	0.531737	8.80698	0.641191	10.4777	0.898791	13.6975	0.35062	5.74892	0.513524	8.48481	0.766742	11.7046	0.969695	14.7899
0.325101	4.89311	0.120424	1.90374	0.396858	6.41599	0.534013	8.71027	0.642897	10.3881	0.900445	13.5306	0.35491	5.7317	0.516131	8.39858	0.768578	11.5681	0.970655	14.5971
0.328311	4.87309	0.122527	1.90886	0.400083	6.37214	0.536338	8.61724	0.644915	10.2857	0.902118	13.3686	0.359204	5.71505	0.518761	8.31532	0.770434	11.4356	0.971634	14.41
0.33105	4.85522	0.124629	1.91383	0.403361	6.33042	0.538711	8.52771	0.647254	10.1719	0.903811	13.2113	0.363499	5.69892	0.521415	8.23488	0.772068	11.3234	0.972632	14.2282
0.33334	4.83969	0.126731	1.91865	0.406694	6.29074	0.541132	8.44153	0.649617	10.0617	0.905524	13.0585	0.367797	5.68328	0.524093	8.15715	0.773473	11.23	0.973649	14.0515
0.335205	4.82665	0.128832	1.92333	0.410081	6.25301	0.5436	8.35856	0.652003	9.95501	0.907255	12.91	0.372096	5.6681	0.526795	8.08199	0.774643	11.1543	0.974685	13.8798
0.33666	4.81622	0.130932	1.92787	0.413523	6.21717	0.546117	8.27865	0.654413	9.85167	0.909006	12.7656	0.376395	5.65336	0.529519	8.0093	0.775573	11.0954	0.97574	13.7129
0.337719	4.80848	0.133032	1.93228	0.417019	6.18312	0.54868	8.20167	0.656847	9.75152	0.910776	12.6253	0.380695	5.63903	0.532265	7.93896	0.77626	11.0526	0.976814	13.5506
0.338392	4.8035	0.135131	1.93657	0.42057	6.1508	0.55129	8.1275	0.659303	9.65445	0.912565	12.4888	0.384995	5.62509	0.535034	7.87088	0.776701	11.0255	0.977908	13.3927
0.339353	4.7963	0.13723	1.94074	0.424174	6.12013	0.553947	8.05601	0.661782	9.56032	0.914372	12.356	0.389293	5.6115	0.537824	7.80495	0.777337	10.9868	0.979022	13.239
0.34039	4.78843	0.139329	1.94479	0.427832	6.09102	0.556649	7.98709	0.664284	9.46901	0.916199	12.2267	0.39359	5.59826	0.540636	7.74109	0.77803	10.9451	0.980155	13.0894
0.341785	4.77764	0.141427	1.94873	0.431542	6.06341	0.559397	7.92063	0.666808	9.38041	0.918043	12.1009	0.397886	5.58534	0.543469	7.67921	0.778977	10.8891	0.981309	12.9438
0.343525	4.76386	0.143524	1.95256	0.435302	6.03722	0.56219	7.85653	0.669354	9.29441	0.919906	11.9784	0.402178	5.57271	0.546323	7.61923	0.780182	10.8194	0.982482	12.8019
0.345596	4.74702	0.145621	1.95629	0.439113	6.01237	0.565027	7.79469	0.671921	9.2109	0.921787	11.859	0.406468	5.56037	0.549197	7.56107	0.781647	10.7367	0.983676	12.6637
0.347979	4.72702	0.147717	1.95993	0.442971	5.9888	0.567908	7.73501	0.674511	9.12979	0.923687	11.7427	0.410754	5.54829	0.552092	7.50466	0.78338	10.6418	0.98489	12.5291
0.350651	4.70379	0.149813	1.96346	0.446875	5.96643	0.570832	7.67741	0.677122	9.05099	0.925357	11.6437	0.415037	5.53646	0.555006	7.44992	0.785387	10.5357	0.986125	12.3978
0.35326	4.68029	0.151909	1.96691	0.450824	5.9452	0.573798	7.6218	0.679754	8.97441	0.926791	11.5611	0.419314	5.52486	0.55794	7.3968	0.787412	10.4325	0.98738	12.2699
0.355806	4.65655	0.154004	1.97027	0.454816	5.92504	0.576807	7.5681	0.682407	8.89996	0.927984	11.4939	0.423587	5.51347	0.560894	7.34523	0.789455	10.332	0.988656	12.1451
0.358293	4.63261	0.156099	1.97354	0.458848	5.90588	0.579856	7.51623	0.685081	8.82757	0.928932	11.4415	0.427854	5.50229	0.563867	7.29515	0.791517	10.2342	0.989953	12.0235
0.360722	4.6085	0.158193	1.97674	0.462919	5.88767	0.582946	7.46611	0.687775	8.75715	0.929632	11.4034	0.432115	5.49129	0.566858	7.24651	0.793598	10.139	0.991271	11.9048
0.363095	4.58425	0.160287	1.97985	0.467026	5.87035	0.586076	7.41768	0.69049	8.68865	0.930081	11.3792	0.43637	5.48047	0.569869	7.19925	0.795696	10.0462	0.992436	11.8037
0.365415	4.55991	0.16238	1.98289	0.471168	5.85386	0.589244	7.37087	0.693225	8.62198	0.930728	11.3446	0.440617	5.4698	0.572898	7.15332	0.797812	9.95578	0.993443	11.7192
0.367684	4.53549	0.164473	1.98585	0.475343	5.83815	0.592451	7.32561	0.69598	8.55708	0.931434	11.3073	0.444857	5.45929	0.575945	7.10867	0.799946	9.86768	0.994284	11.6504
0.369904	4.51103	0.166566	1.98875	0.479548	5.82316	0.595696	7.28184	0.698755	8.4939	0.932397	11.2572	0.449089	5.44892	0.579011	7.06526	0.802098	9.7818	0.994955	11.5968
0.372077	4.48655	0.168658	1.99157	0.483782	5.80886	0.598978	7.23951	0.701549	8.43237	0.933621	11.1946	0.453312	5.43868	0.582095	7.02305	0.804266	9.69806	0.995451	11.5578
0.374205	4.46208	0.17075	1.99434	0.488043	5.79518	0.602295	7.19854	0.704363	8.37243	0.93511	11.1202	0.457525	5.42855	0.585196	6.98198	0.806452	9.61638	0.995771	11.5329
0.376291	4.43765	0.172842	1.99703	0.492328	5.7821	0.605648	7.1589	0.707196	8.31403	0.936869	11.0346	0.461729	5.41853	0.588315	6.94203	0.808656	9.5367	0.996231	11.4975
0.378336	4.41328	0.174933	1.99967	0.496637	5.76957	0.609036	7.12052	0.710049	8.25713	0.938903	10.9385	0.465923	5.40861	0.591452	6.90315	0.810876	9.45895	0.996735	11.4593
0.380342	4.38898	0.177024	2.00224	0.500967	5.75756	0.612457	7.08337	0.71292	8.20166	0.940954	10.8447	0.470106	5.39877	0.594606	6.86531	0.813113	9.38307	0.997424	11.4079
0.382312	4.36478	0.179114	2.00476	0.505317	5.74602	0.615912	7.04738	0.715811	8.14758	0.943022	10.753	0.474277	5.38902	0.597778	6.82847	0.815366	9.30899	0.998303	11.3437
0.384247	4.3407	0.181204	2.00723	0.509684	5.73493	0.619399	7.01252	0.71872	8.09484	0.945106	10.6635	0.478437	5.37933	0.600967	6.79261	0.817636	9.23665	0.999377	11.2673
0.386149	4.31675	0.183294	2.00964	0.514069	5.72425	0.622918	6.97875	0.721647	8.04341	0.947208	10.576	0.482584	5.36971	0.604173	6.75768	0.819922	9.16601	1.00065	11.1793
0.388019	4.29295	0.185384	2.01199	0.518468	5.71396	0.626467	6.94601	0.724593	7.99324	0.949325	10.4906	0.486718	5.36014	0.607396	6.72366	0.822225	9.097		
0.38986	4.2693	0.187473	2.0143	0.522882	5.70403	0.630047	6.91427	0.727558	7.94429	0.951459	10.407	0.490838	5.35062	0.610636	6.69053	0.824544	9.02957		
0.391672	4.24583	0.189562	2.01656	0.527307	5.69443	0.633656	6.8835	0.73054	7.89653	0.953609	10.3253	0.494945	5.34114	0.613893	6.65824	0.826878	8.96368		
0.393458	4.22254	0.191651	2.01877	0.531744	5.68515	0.637294	6.85365	0.733541	7.84991	0.955775	10.2454	0.499036	5.33169	0.617167	6.62679	0.829229	8.89928		
0.395219	4.19945	0.193739	2.02094	0.536191	5.67615	0.64096	6.8247	0.73656	7.8044	0.957957	10.1672	0.503113	5.32226	0.620458	6.59614	0.831595	8.83632		
0.396955	4.17656	0.195828	2.02306	0.540646	5.66741	0.644653	6.7966	0.739596	7.75997	0.960155	10.0908	0.507174	5.31286	0.623766	6.56627	0.833976	8.77476		
0.39867	4.15387	0.197916	2.02513	0.545109	5.65893	0.648373	6.76932	0.742651	7.71658	0.962368	10.016	0.511218	5.30346	0.627091	6.53715	0.836373	8.71455		
0.400362	4.1314	0.200003	2.02717	0.549579	5.65068	0.652119	6.74284	0.745723	7.67421	0.964597	9.94274	0.515246	5.29408	0.630432	6.50877	0.838786	8.65566		
0.402035	4.10916	0.202091	2.02917	0.554055	5.64264	0.65589	6.71712	0.748813	7.63283	0.966841	9.87108	0.519256	5.28469	0.633791	6.4811	0.841213	8.59804		
0.403689	4.08714	0.204178	2.03112	0.558535	5.6348	0.659686	6.69214	0.75192	7.5924	0.969101	9.80092	0.523249	5.2753	0.637166	6.45412	0.843656	8.54167		
0.405325	4.06535	0.206265	2.03304	0.563019	5.62715	0.663506	6.66787	0.755045	7.55289	0.971376	9.73222	0.527222	5.2659	0.640558	6.42782	0.846114	8.4865		
0.406943	4.0438	0.208352	2.03492	0.567506	5.61966	0.667349	6.64428	0.758187	7.51429	0.973665	9.66494	0.531177	5.25649	0.643966	6.40217	0.848586	8.4325		
0.408546	4.02249	0.210438	2.03677	0.571995	5.61234	0.671215	6.62135	0.761347	7.47657	0.97597	9.59904	0.535113	5.24705	0.647392	6.37715	0.851073	8.37963		
0.410134	4.00141	0.212524	2.03857	0.576485	5.60515	0.675103	6.59906	0.764524	7.4397	0.978289	9.53449	0.539028	5.23759	0.650835	6.35276	0.853575	8.32787		
0.411708	3.98058	0.21461	2.04035	0.580976	5.59811	0.679013	6.57737	0.767719	7.40366	0.980623	9.47123	0.542922	5.22811	0.654294	6.32897	0.856092	8.27718		
0.413268	3.96	0.216696	2.04209	0.585467	5.59118	0.682943	6.55627	0.77093	7.36843	0.982972	9.40924	0.546796	5.21859	0.65777	6.30577	0.858623	8.22754		
0.414816	3.93965	0.218782	2.0438	0.589957	5.58437	0.686894	6.53574	0.774159	7.33398	0.985335	9.34849	0.550648	5.20903	0.661263	6.28313	0.861168	8.17891		
0.416351	3.91956	0.220867	2.04548	0.594445	5.57767	0.690865	6.51576	0.777405	7.3003	0.987712	9.28893	0.554478	5.19943	0.664773	6.26105	0.863728	8.13127		
0.417876	3.89971	0.222953	2.04713	0.598932	5.57106	0.694854	6.4963	0.780669	7.26736	0.990103	9.23054	0.558285	5.18979	0.6683	6.23952	0.866302	8.08459		
0.419391	3.88011	0.225038	2.04875	0.603415	5.56455	0.698862	6.47736	0.783949	7.23515	0.992509	9.17329	0.562069	5.18011	0.671843	6.21851	0.868889	8.03884		
0.420896	3.86075	0.227123	2.05034	0.607896	5.55811	0.702888	6.4589	0.787247	7.20364	0.994928	9.11714	0.56583	5.17037	0.675404	6.19802	0.871492	7.99401		
0.422391	3.84164	0.229207	2.0519	0.612372	5.55174	0.706932	6.44091	0.790562	7.17282	0.997361	9.06207	0.569567	5.16059	0.678981	6.17802	0.874108	7.95006		
0.423878	3.82277	0.231292	2.05343	0.616844	5.54545	0.710993	6.42338	0.793894	7.14268	0.999808	9.00805	0.57328	5.15074	0.682575	6.15851	0.876737	7.90698		
0.425357	3.80414	0.233376	2.05494	0.621311	5.53921	0.715069	6.40629	0.797244	7.11319	1.00227	8.95504	0.576968	5.14085	0.686186	6.13948	0.879381	7.86474		
0.426829	3.78576	0.235461	2.05642	0.625773	5.53303	0.719162	6.38962	0.800611	7.08434			0.580631	5.13089	0.689813	6.12091	0.882039	7.82331		
0.428293	3.76761	0.237545	2.05788	0.630229	5.5269	0.72327	6.37336	0.803995	7.05611			0.584269	5.12087	0.693457	6.1028	0.88471	7.78269		
0.429752	3.74971	0.239629	2.05931	0.634679	5.52081	0.727393	6.35749	0.807397	7.02849			0.587881	5.1108	0.697118	6.08512	0.887395	7.74285		
0.431204	3.73204	0.241712	2.06072	0.639121	5.51476	0.73153	6.34201	0.810816	7.00147			0.591466	5.10066	0.700795	6.06787	0.890093	7.70377		
0.43265	3.71461	0.243796	2.0621	0.643557	5.50874	0.73568	6.32689	0.814252	6.97503			0.595026	5.09045	0.704488	6.05103	0.892805	7.66543		
0.434092	3.69741	0.245879	2.06346	0.647984	5.50276	0.739844	6.31212	0.817707	6.94916			0.598559	5.08018	0.708198	6.0346	0.89553	7.62781		
0.435528	3.68044	0.247963	2.0648	0.652404	5.4968	0.744021	6.29769	0.821179	6.92384			0.602065	5.06985	0.711924	6.01857	0.898269	7.5909		
0.436961	3.66369	0.250046	2.06612	0.656815	5.49086	0.748209	6.28359	0.824669	6.89907			0.605544	5.05945	0.715666	6.00292	0.901021	7.55467		
0.438389	3.64718	0.252129	2.06742	0.661217	5.48494	0.75241	6.26981	0.828176	6.87483			0.608996	5.04899	0.719423	5.98764	0.903787	7.51912		
0.439813	3.63088	0.254212	2.06869	0.66561	5.47904	0.756621	6.25633	0.831702	6.85111			0.61242	5.03846	0.723197	5.97273	0.906565	7.48423		
0.441234	3.61481	0.256295	2.06995	0.669993	5.47314	0.760844	6.24315	0.835246	6.8279			0.615817	5.02787	0.726985	5.95818	0.909357	7.44997		
0.442653	3.59896	0.258377	2.07118	0.674366	5.46726	0.765076	6.23025	0.838807	6.80519			0.619186	5.01721	0.730789	5.94397	0.912162	7.41634		
0.444068	3.58332	0.26046	2.0724	0.678729	5.46137	0.769318	6.21762	0.842388	6.78296			0.622527	5.00649	0.734608	5.93009	0.91498	7.38333		
0.445481	3.5679	0.262542	2.07359	0.683081	5.45549	0.77357	6.20525	0.845986	6.76122			0.625841	4.9957	0.738442	5.91654	0.917811	7.35091		
0.446891	3.55269	0.264625	2.07477	0.687422	5.44961	0.77783	6.19314	0.849604	6.73994			0.629126	4.98486	0.74229	5.9033	0.920656	7.31907		
0.4483	3.53768	0.266707	2.07593	0.691752	5.44373	0.782098	6.18127	0.85324	6.71912			0.632384	4.97395	0.746153	5.89038	0.923513	7.28781		
0.449707	3.52288	0.268789	2.07708	0.69607	5.43784	0.786374	6.16964	0.856894	6.69875			0.635614	4.96298	0.750029	5.87775	0.926383	7.2571		
0.451112	3.50828	0.270871	2.0782	0.700377	5.43195	0.790658	6.15823	0.860568	6.67883			0.638816	4.95196	0.753919	5.86541	0.929266	7.22694		
0.452516	3.49389	0.272953	2.07931	0.704671	5.42604	0.794948	6.14704	0.864261	6.65933			0.64199	4.94088	0.757823	5.85335	0.932162	7.19731		
0.453919	3.47969	0.275034	2.0804	0.708952	5.42012	0.799245	6.13606	0.867973	6.64027			0.645136	4.92974	0.761739	5.84156	0.935071	7.1682		
0.455321	3.46569	0.277116	2.08148	0.713221	5.41419	0.803547	6.12527	0.871705	6.62162			0.648254	4.91856	0.765668	5.83004	0.937993	7.13961		
0.456723	3.45187	0.279197	2.08254	0.717476	5.40825	0.807855	6.11468	0.875456	6.60338			0.651345	4.90732	0.76961	5.81877	0.940927	7.11151		
0.458124	3.43825	0.281279	2.08359	0.721719	5.40228	0.812168	6.10428	0.879227	6.58554			0.654408	4.89603	0.773563	5.80775	0.943875	7.0839		
0.459524	3.42482	0.28336	2.08462	0.725947	5.3963	0.816485	6.09406	0.883017	6.5681			0.657444	4.88469	0.777528	5.79697	0.946834	7.05677		
0.460925	3.41156	0.285441	2.08563	0.730162	5.3903	0.820807	6.084	0.886828	6.55104			0.660453	4.87331	0.781505	5.78642	0.949807	7.03011		
0.462325	3.39849	0.287523	2.08663	0.734362	5.38428	0.825132	6.07411	0.890659	6.53437			0.663435	4.86189	0.785492	5.7761	0.952792	7.00391		
0.463726	3.3856	0.289604	2.08762	0.738549	5.37823	0.82946	6.06438	0.89451	6.51807			0.666389	4.85042	0.78949	5.76599	0.95579	6.97815		
0.465127	3.37289	0.291684	2.08859	0.74272	5.37216	0.833791	6.0548	0.898382	6.50214			0.669317	4.83892	0.793498	5.75609	0.9588	6.95283		
0.466528	3.36035	0.293765	2.08955	0.746877	5.36607	0.838124	6.04537	0.902274	6.48657			0.672219	4.82738	0.797515	5.7464	0.961823	6.92795		
0.46793	3.34798	0.295846	2.0905	0.751019	5.35995	0.84246	6.03608	0.906187	6.47135			0.675094	4.81581	0.801542	5.7369	0.964859	6.90348		
0.469333	3.33578	0.297927	2.09143	0.755146	5.3538	0.846797	6.02692	0.910121	6.45649			0.677944	4.8042	0.805578	5.72759	0.967906	6.87943		
0.470736	3.32374	0.300007	2.09235	0.759257	5.34762	0.851135	6.01788	0.914075	6.44196			0.680767	4.79257	0.809622	5.71846	0.970967	6.85578		
0.472141	3.31187	0.302088	2.09326	0.763352	5.34142	0.855473	6.00898	0.918051	6.42778			0.683565	4.78091	0.813674	5.70951	0.974039	6.83253		
0.473546	3.30016	0.304168	2.09416	0.767432	5.33518	0.859812	6.00019	0.922048	6.41392			0.686338	4.76923	0.817734	5.70073	0.977124	6.80967		
0.474952	3.28861	0.306249	2.09504	0.771496	5.32892	0.864151	5.99151	0.926066	6.40039			0.689086	4.75752	0.8218	5.69211	0.980222	6.78718		
0.47636	3.27721	0.308329	2.09592	0.775543	5.32262	0.86849	5.98295	0.930105	6.38718			0.691809	4.74579	0.825874	5.68365	0.983331	6.76507		
0.477769	3.26597	0.310409	2.09678	0.779575	5.31629	0.872828	5.97449	0.934166	6.37428			0.694507	4.73405	0.829954	5.67534	0.986453	6.74332		
0.479179	3.25488	0.312489	2.09763	0.783589	5.30993	0.877166	5.96613	0.938247	6.36168			0.697182	4.72229	0.83404	5.66717	0.989587	6.72194		
0.480591	3.24394	0.314569	2.09846	0.787587	5.30354	0.881502	5.95786	0.942351	6.34939			0.699833	4.71051	0.838132	5.65915	0.992733	6.7009		
0.482005	3.23315	0.316649	2.09929	0.791568	5.29711	0.885836	5.94969	0.946475	6.3374			0.70246	4.69873	0.842229	5.65126	0.995892	6.68021		
0.483419	3.2225	0.318729	2.10011	0.795532	5.29066	0.890169	5.94161	0.950621	6.3257			0.705063	4.68694	0.84633	5.6435	0.999062	6.65985		
0.484836	3.212	0.320809	2.10092	0.79948	5.28416	0.894499	5.93362	0.954788	6.31428			0.707644	4.67514	0.850436	5.63586	1.00224	6.63983		
0.486255	3.20163	0.322889	2.10171	0.803409	5.27764	0.898828	5.92571	0.958976	6.30314			0.710202	4.66333	0.854546	5.62835				
0.487675	3.1914	0.324969	2.1025	0.807322	5.27108	0.903154	5.91787	0.963186	6.29228			0.712738	4.65153	0.858659	5.62094				
0.489097	3.18131	0.327048	2.10328	0.811217	5.26448	0.907477	5.91012	0.967416	6.28168			0.715252	4.63972	0.862775	5.61365				
0.490521	3.17136	0.329128	2.10404	0.815094	5.25786	0.911797	5.90244	0.971668	6.27135			0.717744	4.62792	0.866894	5.60646				
0.491947	3.16153	0.331207	2.1048	0.818954	5.25119	0.916114	5.89484	0.97594	6.26127			0.720215	4.61612	0.871015	5.59938				
0.493375	3.15184	0.333287	2.10555	0.822796	5.2445	0.920428	5.8873	0.980233	6.25144			0.722664	4.60432	0.875138	5.59239				
0.494805	3.14227	0.335366	2.10629	0.82662	5.23777	0.924739	5.87983	0.984546	6.24186			0.725093	4.59253	0.879263	5.58549				
0.496238	3.13283	0.337445	2.10702	0.830426	5.231	0.929047	5.87243	0.98888	6.23252			0.727501	4.58076	0.883389	5.57868				
0.497672	3.12352	0.339525	2.10774	0.834214	5.2242	0.933351	5.8651	0.993234	6.22342			0.72989	4.56899	0.887515	5.57196				
0.499109	3.11432	0.341604	2.10845	0.837984	5.21737	0.937651	5.85783	0.997608	6.21455			0.732258	4.55724	0.891642	5.56531				
0.500548	3.10525	0.343683	2.10915	0.841735	5.2105	0.941948	5.85062	1.002	6.2059			0.734607	4.5455	0.895769	5.55875				
0.501989	3.09629	0.345762	2.10985	0.845469	5.2036	0.946241	5.84346					0.736936	4.53378	0.899896	5.55225				
0.503433	3.08746	0.347841	2.11054	0.849184	5.19667	0.95053	5.83637					0.739247	4.52207	0.904021	5.54583				
0.504879	3.07873	0.34992	2.11122	0.852881	5.1897	0.954816	5.82934					0.741539	4.51039	0.908146	5.53947				
0.506327	3.07012	0.351999	2.11189	0.85656	5.18271	0.959098	5.82236					0.743813	4.49872	0.91227	5.53318				
0.507778	3.06162	0.354078	2.11255	0.86022	5.17568	0.963376	5.81544					0.746069	4.48708	0.916392	5.52695				
0.509231	3.05323	0.356157	2.11321	0.863862	5.16861	0.96765	5.80858					0.748307	4.47547	0.920511	5.52077				
0.510687	3.04495	0.358235	2.11386	0.867485	5.16152	0.971921	5.80176					0.750528	4.46388	0.924628	5.51465				
0.512145	3.03677	0.360314	2.1145	0.87109	5.15439	0.976188	5.79501					0.752732	4.45231	0.928743	5.50858				
0.513605	3.0287	0.362393	2.11513	0.874676	5.14724	0.980451	5.7883					0.754919	4.44077	0.932854	5.50255				
0.515069	3.02074	0.364471	2.11576	0.878244	5.14005	0.984711	5.78165					0.75709	4.42927	0.936962	5.49658				
0.516534	3.01287	0.36655	2.11638	0.881794	5.13284	0.988967	5.77505					0.759244	4.41779	0.941066	5.49065				
0.518003	3.0051	0.368629	2.11699	0.885325	5.1256	0.99322	5.76849					0.761383	4.40635	0.945167	5.48475				
0.519474	2.99743	0.370707	2.1176	0.888838	5.11833	0.997469	5.76199					0.763506	4.39494	0.949263	5.4789				
0.520947	2.98986	0.372785	2.1182	0.892332	5.11103	1.00171	5.75554					0.765614	4.38356	0.953354	5.47308				
0.522423	2.98239	0.374864	2.11879	0.895808	5.1037							0.767707	4.37222	0.95744	5.4673				
0.523902	2.97501	0.376942	2.11937	0.899266	5.09635							0.769785	4.36092	0.961522	5.46155				
0.525383	2.96772	0.37902	2.11995	0.902705	5.08897							0.771848	4.34965	0.965597	5.45582				
0.526867	2.96052	0.381099	2.12053	0.906126	5.08156							0.773898	4.33842	0.969667	5.45013				
0.528354	2.95341	0.383177	2.1211	0.909529	5.07414							0.775933	4.32723	0.973731	5.44446				
0.529843	2.94639	0.385255	2.12166	0.912914	5.06668							0.777955	4.31608	0.977788	5.43881				
0.531335	2.93946	0.387333	2.12221	0.91628	5.05921							0.779964	4.30497	0.981839	5.43319				
0.53283	2.93261	0.389411	2.12276	0.919629	5.05171							0.781959	4.2939	0.985883	5.42758				
0.534327	2.92585	0.391489	2.12331	0.922959	5.04419							0.783941	4.28288	0.98992	5.422				
0.535827	2.91917	0.393567	2.12384	0.926272	5.03664							0.785911	4.27189	0.99395	5.41643				
0.53733	2.91257	0.395645	2.12438	0.929566	5.02908							0.787869	4.26096	0.997972	5.41087				
0.538835	2.90606	0.397723	2.1249	0.932843	5.0215							0.789815	4.25006	1.00199	5.40533				
0.540343	2.89962	0.399801	2.12542	0.936102	5.01389							0.791748	4.23921						
0.541854	2.89326	0.401879	2.12594	0.939344	5.00627							0.79367	4.22841						
0.543368	2.88698	0.403957	2.12645	0.942567	4.99863							0.795581	4.21766						
0.544884	2.88077	0.406034	2.12696	0.945773	4.99097							0.797481	4.20695						
0.546402	2.87464	0.408112	2.12746	0.948962	4.9833							0.799369	4.19629						
0.547924	2.86859	0.41019	2.12795	0.952134	4.97561							0.801247	4.18567						
0.549448	2.8626	0.412267	2.12844	0.955288	4.96791							0.803115	4.17511						
0.550975	2.85669	0.414345	2.12893	0.958425	4.96019							0.804972	4.16459						
0.552505	2.85085	0.416422	2.12941	0.961544	4.95245							0.80682	4.15413						
0.554037	2.84508	0.4185	2.12989	0.964647	4.9447							0.808658	4.14371						
0.555572	2.83938	0.420578	2.13036	0.967733	4.93694							0.810486	4.13335						
0.557109	2.83374	0.422655	2.13083	0.970802	4.92917							0.812304	4.12303						
0.558649	2.82817	0.424732	2.13129	0.973854	4.92139							0.814114	4.11277						
0.560192	2.82267	0.42681	2.13175	0.976889	4.91359							0.815915	4.10255						
0.561738	2.81723	0.428887	2.1322	0.979908	4.90579							0.817707	4.09239						
0.563286	2.81186	0.430965	2.13265	0.98291	4.89797							0.81949	4.08228						
0.564836	2.80654	0.433042	2.13309	0.985896	4.89015							0.821265	4.07222						
0.56639	2.80129	0.435119	2.13353	0.988866	4.88231							0.823032	4.06222						
0.567946	2.79611	0.437196	2.13397	0.99182	4.87447							0.824791	4.05226						
0.569504	2.79098	0.439274	2.1344	0.994757	4.86663							0.826542	4.04236						
0.571066	2.78591	0.441351	2.13483	0.997679	4.85877							0.828285	4.03252						
0.57263	2.7809	0.443428	2.13526	1.00058	4.85091							0.830021	4.02272						
0.574196	2.77594	0.445505	2.13568									0.83175	4.01298						
0.575765	2.77105	0.447582	2.13609									0.833472	4.00329						
0.577336	2.76621	0.449659	2.13651									0.835187	3.99366						
0.578911	2.76142	0.451736	2.13692									0.836895	3.98407						
0.580487	2.75669	0.453813	2.13732									0.838596	3.97454						
0.582066	2.75201	0.45589	2.13772									0.840291	3.96507						
0.583648	2.74739	0.457967	2.13812									0.84198	3.95565						
0.585232	2.74282	0.460044	2.13852									0.843663	3.94628						
0.586819	2.7383	0.462121	2.13891									0.845339	3.93696						
0.588408	2.73383	0.464198	2.13929									0.84701	3.9277						
0.59	2.72941	0.466275	2.13968									0.848675	3.9185						
0.591594	2.72504	0.468352	2.14006									0.850335	3.90934						
0.593191	2.72072	0.470428	2.14044									0.851989	3.90024						
0.59479	2.71644	0.472505	2.14081									0.853638	3.89119						
0.596392	2.71222	0.474582	2.14118									0.855282	3.8822						
0.597996	2.70804	0.476659	2.14155									0.856921	3.87326						
0.599603	2.70391	0.478735	2.14191									0.858555	3.86437						
0.601212	2.69982	0.480812	2.14227									0.860185	3.85554						
0.602823	2.69578	0.482889	2.14263									0.861809	3.84675						
0.604437	2.69178	0.484965	2.14299									0.86343	3.83803						
0.606053	2.68782	0.487042	2.14334									0.865046	3.82935						
0.607671	2.68391	0.489118	2.14369									0.866657	3.82073						
0.609292	2.68004	0.491195	2.14403									0.868265	3.81215						
0.610915	2.67621	0.493271	2.14438									0.869869	3.80364						
0.612541	2.67242	0.495348	2.14472									0.871468	3.79517						
0.614168	2.66868	0.497424	2.14505									0.873064	3.78675						
0.615799	2.66497	0.499501	2.14539									0.874656	3.77839						
0.617431	2.66131	0.501577	2.14572									0.876245	3.77008						
0.619066	2.65768	0.503654	2.14605									0.87783	3.76182						
0.620703	2.65409	0.50573	2.14638									0.879412	3.75361						
0.622342	2.65054	0.507806	2.1467									0.880991	3.74546						
0.623983	2.64703	0.509883	2.14702									0.882566	3.73735						
0.625627	2.64355	0.511959	2.14734									0.884138	3.72929						
0.627273	2.64012	0.514035	2.14766									0.885707	3.72129						
0.628921	2.63671	0.516112	2.14797									0.887274	3.71333						
0.630572	2.63335	0.518188	2.14828									0.888837	3.70543						
0.632224	2.63001	0.520264	2.14859									0.890398	3.69758						
0.633879	2.62672	0.52234	2.14889									0.891957	3.68977						
0.635536	2.62346	0.524416	2.1492									0.893512	3.68201						
0.637195	2.62023	0.526493	2.1495									0.895066	3.67431						
0.638856	2.61703	0.528569	2.1498									0.896616	3.66665						
0.64052	2.61387	0.530645	2.15009									0.898165	3.65904						
0.642185	2.61074	0.532721	2.15039									0.899711	3.65148						
0.643853	2.60764	0.534797	2.15068									0.901255	3.64397						
0.645522	2.60458	0.536873	2.15097									0.902798	3.63651						
0.647194	2.60154	0.538949	2.15126									0.904338	3.62909						
0.648868	2.59854	0.541025	2.15154									0.905876	3.62172						
0.650544	2.59556	0.543101	2.15183									0.907412	3.6144						
0.652222	2.59262	0.545177	2.15211									0.908947	3.60713						
0.653902	2.58971	0.547253	2.15238									0.910479	3.5999						
0.655584	2.58682	0.549329	2.15266									0.91201	3.59272						
0.657268	2.58397	0.551405	2.15294									0.91354	3.58558						
0.658954	2.58114	0.553481	2.15321									0.915068	3.57849						
0.660642	2.57835	0.555557	2.15348									0.916594	3.57145						
0.662331	2.57558	0.557633	2.15375									0.91812	3.56445						
0.664023	2.57283	0.559709	2.15401									0.919643	3.5575						
0.665717	2.57012	0.561784	2.15428									0.921166	3.55059						
0.667413	2.56743	0.56386	2.15454									0.922687	3.54373						
0.669111	2.56477	0.565936	2.1548									0.924207	3.53691						
0.67081	2.56213	0.568012	2.15506									0.925726	3.53014						
0.672512	2.55952	0.570088	2.15532									0.927244	3.52341						
0.674215	2.55694	0.572163	2.15557									0.92876	3.51672						
0.675921	2.55438	0.574239	2.15582									0.930276	3.51008						
0.677628	2.55185	0.576315	2.15608									0.931791	3.50348						
0.679337	2.54934	0.578391	2.15633									0.933305	3.49692						
0.681048	2.54686	0.580466	2.15657									0.934818	3.4904						
0.682761	2.5444	0.582542	2.15682									0.93633	3.48393						
0.684475	2.54196	0.584618	2.15706									0.937842	3.4775						
0.686191	2.53955	0.586693	2.15731									0.939353	3.47111						
0.68791	2.53716	0.588769	2.15755									0.940863	3.46476						
0.68963	2.53479	0.590844	2.15778									0.942373	3.45846						
0.691351	2.53245	0.59292	2.15802									0.943882	3.45219						
0.693075	2.53012	0.594996	2.15826									0.945391	3.44597						
0.6948	2.52782	0.597071	2.15849									0.946899	3.43978						
0.696527	2.52555	0.599147	2.15872									0.948407	3.43364						
0.698256	2.52329	0.601222	2.15895									0.949914	3.42753						
0.699986	2.52106	0.603298	2.15918									0.951421	3.42147						
0.701718	2.51884	0.605373	2.15941									0.952927	3.41544						
0.703452	2.51665	0.607449	2.15964									0.954434	3.40946						
0.705188	2.51448	0.609524	2.15986									0.95594	3.40351						
0.706925	2.51233	0.6116	2.16008									0.957446	3.3976						
0.708664	2.51019	0.613675	2.16031									0.958951	3.39173						
0.710405	2.50808	0.61575	2.16053									0.960457	3.3859						
0.712147	2.50599	0.617826	2.16074									0.961962	3.3801						
0.713891	2.50392	0.619901	2.16096									0.963467	3.37434						
0.715636	2.50186	0.621977	2.16118									0.964973	3.36862						
0.717384	2.49983	0.624052	2.16139									0.966478	3.36294						
0.719132	2.49781	0.626127	2.1616									0.967983	3.35729						
0.720883	2.49582	0.628203	2.16181									0.969488	3.35168						
0.722635	2.49384	0.630278	2.16202									0.970993	3.34611						
0.724388	2.49188	0.632353	2.16223									0.972499	3.34057						
0.726143	2.48994	0.634429	2.16244									0.974004	3.33507						
0.7279	2.48801	0.636504	2.16265									0.97551	3.3296						
0.729658	2.4861	0.638579	2.16285									0.977015	3.32417						
0.731418	2.48421	0.640654	2.16305									0.978521	3.31877						
0.733179	2.48234	0.64273	2.16325									0.980027	3.31341						
0.734942	2.48048	0.644805	2.16345									0.981534	3.30808						
0.736706	2.47864	0.64688	2.16365									0.98304	3.30279						
0.738472	2.47682	0.648955	2.16385									0.984547	3.29753						
0.74024	2.47501	0.65103	2.16405									0.986054	3.2923						
0.742008	2.47322	0.653105	2.16424									0.987562	3.28711						
0.743779	2.47145	0.655181	2.16444									0.98907	3.28195						
0.74555	2.46969	0.657256	2.16463									0.990578	3.27683						
0.747324	2.46795	0.659331	2.16482									0.992087	3.27173						
0.749098	2.46622	0.661406	2.16501									0.993596	3.26667						
0.750874	2.46451	0.663481	2.1652									0.995105	3.26165						
0.752652	2.46281	0.665556	2.16539									0.996615	3.25665						
0.754431	2.46113	0.667631	2.16558									0.998126	3.25169						
0.756211	2.45946	0.669706	2.16576									0.999636	3.24675						
0.757993	2.45781	0.671781	2.16595									1.00115	3.24185						
0.759776	2.45617	0.673856	2.16613																
0.761561	2.45455	0.675931	2.16631																
0.763347	2.45294	0.678006	2.16649																
0.765134	2.45134	0.680081	2.16667																
0.766922	2.44976	0.682156	2.16685																
0.768712	2.44819	0.684231	2.16703																
0.770504	2.44664	0.686306	2.16721																
0.772296	2.44509	0.688381	2.16738																
0.77409	2.44357	0.690456	2.16756																
0.775886	2.44205	0.692531	2.16773																
0.777682	2.44055	0.694606	2.1679																
0.77948	2.43906	0.696681	2.16807																
0.781279	2.43758	0.698756	2.16824																
0.78308	2.43612	0.70083	2.16841																
0.784882	2.43467	0.702905	2.16858																
0.786685	2.43323	0.70498	2.16875																
0.788489	2.4318	0.707055	2.16891																
0.790295	2.43039	0.70913	2.16908																
0.792101	2.42898	0.711205	2.16924																
0.79391	2.42759	0.713279	2.16941																
0.795719	2.42621	0.715354	2.16957																
0.797529	2.42484	0.717429	2.16973																
0.799341	2.42349	0.719504	2.16989																
0.801154	2.42214	0.721578	2.17005																
0.802968	2.42081	0.723653	2.17021																
0.804783	2.41948	0.725728	2.17037																
0.8066	2.41817	0.727802	2.17052																
0.808418	2.41687	0.729877	2.17068																
0.810236	2.41558	0.731952	2.17084																
0.812056	2.4143	0.734027	2.17099																
0.813878	2.41303	0.736101	2.17114																
0.8157	2.41177	0.738176	2.17129																
0.817523	2.41052	0.74025	2.17145																
0.819348	2.40928	0.742325	2.1716																
0.821174	2.40805	0.7444	2.17175																
0.823	2.40684	0.746474	2.1719																
0.824828	2.40563	0.748549	2.17204																
0.826657	2.40443	0.750623	2.17219																
0.828487	2.40324	0.752698	2.17234																
0.830319	2.40206	0.754773	2.17248																
0.832151	2.40089	0.756847	2.17263																
0.833984	2.39973	0.758922	2.17277																
0.835819	2.39858	0.760996	2.17292																
0.837654	2.39743	0.763071	2.17306																
0.839491	2.3963	0.765145	2.1732																
0.841329	2.39517	0.76722	2.17334																
0.843168	2.39406	0.769294	2.17348																
0.845007	2.39295	0.771369	2.17362																
0.846848	2.39185	0.773443	2.17376																
0.84869	2.39077	0.775517	2.1739																
0.850533	2.38968	0.777592	2.17403																
0.852377	2.38861	0.779666	2.17417																
0.854221	2.38755	0.781741	2.17431																
0.856067	2.38649	0.783815	2.17444																
0.857914	2.38545	0.785889	2.17457																
0.859762	2.38441	0.787964	2.17471																
0.861611	2.38338	0.790038	2.17484																
0.863461	2.38235	0.792113	2.17497																
0.865311	2.38134	0.794187	2.1751																
0.867163	2.38033	0.796261	2.17523																
0.869016	2.37933	0.798336	2.17536																
0.87087	2.37834	0.80041	2.17549																
0.872724	2.37736	0.802484	2.17562																
0.87458	2.37638	0.804558	2.17575																
0.876436	2.37541	0.806633	2.17588																
0.878294	2.37445	0.808707	2.176																
0.880152	2.37349	0.810781	2.17613																
0.882011	2.37255	0.812856	2.17625																
0.883872	2.37161	0.81493	2.17638																
0.885733	2.37067	0.817004	2.1765																
0.887595	2.36975	0.819078	2.17663																
0.889458	2.36883	0.821152	2.17675																
0.891321	2.36792	0.823227	2.17687																
0.893186	2.36701	0.825301	2.17699																
0.895052	2.36612	0.827375	2.17711																
0.896918	2.36522	0.829449	2.17723																
0.898786	2.36434	0.831523	2.17735																
0.900654	2.36346	0.833597	2.17747																
0.902523	2.36259	0.835672	2.17759																
0.904393	2.36172	0.837746	2.17771																
0.906264	2.36087	0.83982	2.17782																
0.908135	2.36001	0.841894	2.17794																
0.910008	2.35917	0.843968	2.17806																
0.911881	2.35833	0.846042	2.17817																
0.913755	2.35749	0.848116	2.17829																
0.91563	2.35667	0.85019	2.1784																
0.917506	2.35585	0.852264	2.17851																
0.919383	2.35503	0.854338	2.17863																
0.92126	2.35422	0.856412	2.17874																
0.923138	2.35342	0.858486	2.17885																
0.925017	2.35262	0.860561	2.17896																
0.926897	2.35183	0.862635	2.17907																
0.928778	2.35104	0.864709	2.17918																
0.930659	2.35026	0.866783	2.17929																
0.932542	2.34949	0.868856	2.1794																
0.934425	2.34872	0.87093	2.17951																
0.936308	2.34795	0.873004	2.17962																
0.938193	2.3472	0.875078	2.17973																
0.940078	2.34644	0.877152	2.17984																
0.941964	2.3457	0.879226	2.17994																
0.943851	2.34495	0.8813	2.18005																
0.945739	2.34422	0.883374	2.18015																
0.947627	2.34349	0.885448	2.18026																
0.949516	2.34276	0.887522	2.18036																
0.951406	2.34204	0.889596	2.18047																
0.953297	2.34132	0.89167	2.18057																
0.955188	2.34061	0.893743	2.18067																
0.95708	2.33991	0.895817	2.18078																
0.958973	2.33921	0.897891	2.18088																
0.960866	2.33851	0.899965	2.18098																
0.962761	2.33782	0.902039	2.18108																
0.964656	2.33713	0.904113	2.18118																
0.966551	2.33645	0.906187	2.18128																
0.968448	2.33577	0.90826	2.18138																
0.970345	2.3351	0.910334	2.18148																
0.972242	2.33444	0.912408	2.18158																
0.974141	2.33377	0.914482	2.18168																
0.97604	2.33312	0.916555	2.18178																
0.97794	2.33246	0.918629	2.18187																
0.97984	2.33181	0.920703	2.18197																
0.981741	2.33117	0.922777	2.18207																
0.983643	2.33053	0.92485	2.18216																
0.985546	2.32989	0.926924	2.18226																
0.987449	2.32926	0.928998	2.18235																
0.989353	2.32864	0.931071	2.18245																
0.991257	2.32801	0.933145	2.18254																
0.993162	2.32739	0.935219	2.18264																
0.995068	2.32678	0.937293	2.18273																
0.996975	2.32617	0.939366	2.18282																
0.998882	2.32556	0.94144	2.18292																
1.00079	2.32496	0.943513	2.18301																
		0.945587	2.1831																
		0.947661	2.18319																
		0.949734	2.18328																
		0.951808	2.18337																
		0.953882	2.18346																
		0.955955	2.18355																
		0.958029	2.18364																
		0.960102	2.18373																
		0.962176	2.18382																
		0.964249	2.18391																
		0.966323	2.18399																
		0.968396	2.18408																
		0.97047	2.18417																
		0.972544	2.18426																
		0.974617	2.18434																
		0.976691	2.18443																
		0.978764	2.18451																
		0.980837	2.1846																
		0.982911	2.18468																
		0.984984	2.18477																
		0.987058	2.18485																
		0.989131	2.18493																
		0.991205	2.18502																
		0.993278	2.1851																
		0.995352	2.18518																
		0.997425	2.18526																
		0.999498	2.18535																
		1.00157	2.18543																
