Sym0		Asym0		Sym1		Sym2		Sym3		Sym4		Asym1		Asym2		Asym3		Asym4	
468  Points		496  Points		228  Points		194  Points		180  Points		126  Points		337  Points		206  Points		168  Points		103  Points	
Freq (MHz)	Vph (m/ms)	Freq (MHz)	Vph (m/ms)	Freq (MHz)	Vph (m/ms)	Freq (MHz)	Vph (m/ms)	Freq (MHz)	Vph (m/ms)	Freq (MHz)	Vph (m/ms)	Freq (MHz)	Vph (m/ms)	Freq (MHz)	Vph (m/ms)	Freq (MHz)	Vph (m/ms)	Freq (MHz)	Vph (m/ms)
0.00479035	5.31951	0.000366162	0.1678	0.279524	442.352	0.469856	8057.14	0.559026	941.161	0.838528	2145.94	0.139809	200.936	0.419264	1834.03	0.698773	2056.53	0.939713	2569.02
0.0097463	5.31939	0.000742647	0.2385	0.279602	178.82	0.469869	474.61	0.559074	366.445	0.838551	634.091	0.140054	86.0554	0.419302	361.374	0.698798	549.595	0.939722	724.266
0.0147018	5.31919	0.00124699	0.308239	0.279747	112.11	0.469903	244.524	0.559164	227.546	0.838599	372.026	0.140493	54.8978	0.419389	200.474	0.698852	317.203	0.93974	421.564
0.0196565	5.31887	0.0018752	0.376757	0.279959	81.6924	0.469959	164.701	0.559296	165.03	0.838672	263.25	0.141125	40.4268	0.419527	138.747	0.698935	222.955	0.939767	297.312
0.0246103	5.31849	0.00262261	0.443839	0.280236	64.2938	0.470037	124.181	0.559471	129.484	0.838771	203.707	0.141945	32.0956	0.419715	106.112	0.699047	171.901	0.939803	229.637
0.0295628	5.31801	0.00348377	0.509278	0.28058	53.0359	0.470137	99.673	0.559687	106.557	0.838895	166.143	0.142949	26.6981	0.419954	85.9314	0.699188	139.886	0.939849	187.062
0.034514	5.31745	0.00445292	0.572922	0.280989	45.16	0.470259	83.2539	0.559945	90.5453	0.839043	140.287	0.144131	22.929	0.420242	72.2217	0.699358	117.936	0.939904	157.809
0.0394634	5.3168	0.00552379	0.634627	0.281463	39.3448	0.470403	71.4878	0.560246	78.7322	0.839217	121.404	0.145485	20.1568	0.42058	62.3038	0.699556	101.952	0.939969	136.472
0.0444108	5.31606	0.00669002	0.694296	0.282002	34.8777	0.47057	62.6434	0.560587	69.6595	0.839416	107.01	0.147004	18.0387	0.420967	54.798	0.699784	89.7925	0.940044	120.22
0.049356	5.31522	0.00794516	0.751856	0.282605	31.3408	0.470759	55.7536	0.560971	62.4743	0.83964	95.6745	0.148682	16.3727	0.421404	48.9217	0.70004	80.2335	0.940128	107.43
0.0542986	5.31429	0.0092827	0.807255	0.283272	28.4728	0.470972	50.2355	0.561396	56.6442	0.839889	86.5178	0.15051	15.0319	0.421891	44.1976	0.700325	72.5219	0.940222	97.1029
0.0592386	5.31327	0.0106963	0.860472	0.284002	26.1018	0.471207	45.7174	0.561862	51.8198	0.840163	78.9671	0.152483	13.9325	0.422427	40.3185	0.700639	66.1702	0.940326	88.5894
0.0641754	5.31215	0.01218	0.91151	0.284794	24.11	0.471466	41.9504	0.562369	47.7624	0.840461	72.6346	0.154592	13.0171	0.423011	37.0772	0.700981	60.8484	0.940439	81.4506
0.0691089	5.31094	0.0137279	0.960386	0.285647	22.4144	0.471748	38.7621	0.562917	44.3032	0.840785	67.2478	0.156831	12.2449	0.423645	34.3292	0.701352	56.3253	0.940563	75.3788
0.0740388	5.30963	0.0153344	1.00713	0.286561	20.9542	0.472055	36.0291	0.563506	41.3197	0.841134	62.6101	0.159191	11.5864	0.424326	31.9708	0.701752	52.4341	0.940697	70.1515
0.0789647	5.30821	0.0169941	1.05178	0.287535	19.6843	0.472386	33.6607	0.564135	38.7206	0.841507	58.5756	0.161667	11.0194	0.425056	29.9251	0.70218	49.0513	0.940841	65.604
0.0838863	5.3067	0.0187025	1.0944	0.288569	18.5706	0.472741	31.5889	0.564805	36.4365	0.841906	55.0342	0.163914	10.5866	0.425834	28.1344	0.702637	46.0839	0.940996	61.6121
0.0888034	5.30507	0.0204546	1.13505	0.28966	17.5863	0.473121	29.7614	0.565514	34.4138	0.842329	51.9009	0.165891	10.2559	0.42666	26.5543	0.703122	43.46	0.941161	58.0799
0.0937155	5.30334	0.0222465	1.17379	0.290808	16.7108	0.473527	28.1379	0.566264	32.6104	0.842777	49.1093	0.167568	10.0055	0.427532	25.1503	0.703635	41.1235	0.941337	54.9323
0.0986223	5.3015	0.0240742	1.21071	0.292013	15.9273	0.473959	26.6861	0.567052	30.9929	0.84325	46.6065	0.168919	9.82079	0.428452	23.8947	0.704176	39.0299	0.941523	52.11
0.103523	5.29954	0.0259341	1.24587	0.293272	15.2224	0.474417	25.3805	0.56788	29.5342	0.843747	44.3502	0.169926	9.69186	0.429418	22.7657	0.704746	37.1433	0.941721	49.5651
0.108419	5.29747	0.027823	1.27935	0.294586	14.5853	0.474902	24.2002	0.568747	28.2122	0.844269	42.3058	0.170577	9.61222	0.43043	21.7453	0.705344	35.4348	0.94193	47.2586
0.113307	5.29527	0.0297379	1.31123	0.295953	14.0068	0.475414	23.1282	0.569652	27.0089	0.844815	40.4449	0.17152	9.50149	0.431489	20.8188	0.705969	33.8804	0.942149	45.1587
0.118189	5.29295	0.031676	1.34157	0.297372	13.4796	0.475954	22.1505	0.570596	25.9091	0.845386	38.7441	0.172557	9.3859	0.432592	19.9742	0.706623	32.4604	0.942381	43.2388
0.123064	5.29051	0.033635	1.37046	0.298842	12.9973	0.476522	21.2553	0.571578	24.9003	0.845981	37.1836	0.173984	9.23617	0.433741	19.2012	0.707304	31.1581	0.942623	41.4769
0.12793	5.28793	0.0356126	1.39797	0.300362	12.5547	0.477119	20.4328	0.572597	23.9717	0.846601	35.747	0.175817	9.05826	0.434934	18.4913	0.708013	29.9597	0.942878	39.8542
0.132789	5.28521	0.0376068	1.42416	0.301931	12.1472	0.477745	19.6746	0.573654	23.1144	0.847245	34.4201	0.178073	8.85864	0.436171	17.8374	0.708749	28.8533	0.943144	38.355
0.137639	5.28236	0.0396157	1.44911	0.303547	11.771	0.478401	18.9736	0.574748	22.3205	0.847913	33.1909	0.180775	8.64389	0.437452	17.2331	0.709513	27.8289	0.943422	36.9657
0.142479	5.27936	0.0416377	1.47288	0.30521	11.4228	0.479087	18.3237	0.575879	21.5835	0.848605	32.0492	0.183942	8.42024	0.438776	16.6733	0.710305	26.8777	0.943712	35.6747
0.14731	5.2762	0.0436714	1.49553	0.306918	11.0997	0.479805	17.7197	0.577046	20.8975	0.849321	30.9859	0.187179	8.21789	0.440143	16.1534	0.711123	25.9923	0.944015	34.472
0.15213	5.27289	0.045452	1.5144	0.308671	10.7992	0.480554	17.157	0.578249	20.2576	0.850062	29.9934	0.190479	8.03417	0.441552	15.6693	0.711969	25.1662	0.94433	33.3489
0.156939	5.26941	0.0469755	1.52988	0.310233	10.5541	0.481335	16.6317	0.579488	19.6593	0.850826	29.0649	0.193841	7.86682	0.443003	15.2177	0.712841	24.3937	0.944657	32.2978
0.161737	5.26576	0.0482388	1.54228	0.311591	10.3564	0.482149	16.1402	0.580762	19.0989	0.851614	28.1945	0.19726	7.71391	0.444496	14.7954	0.713741	23.6698	0.944997	31.312
0.166522	5.26193	0.0492398	1.55183	0.312731	10.2003	0.482997	15.6796	0.582072	18.5729	0.852426	27.3769	0.200734	7.57379	0.446029	14.3999	0.714667	22.9902	0.945351	30.3857
0.171293	5.25792	0.049977	1.55871	0.313644	10.0812	0.483879	15.247	0.583416	18.0783	0.853262	26.6076	0.204258	7.44506	0.447603	14.0287	0.71562	22.3509	0.945717	29.5136
0.176051	5.25372	0.0504492	1.56306	0.314321	9.99609	0.484795	14.8402	0.584795	17.6126	0.854122	25.8824	0.207831	7.32647	0.449216	13.6798	0.716599	21.7487	0.946096	28.6912
0.180795	5.24932	0.0511287	1.56923	0.314757	9.94262	0.485747	14.457	0.586208	17.1732	0.855005	25.1978	0.211449	7.21699	0.450869	13.3513	0.717604	21.1803	0.946489	27.9144
0.185522	5.2447	0.051868	1.57583	0.315387	9.86712	0.486735	14.0956	0.587654	16.7582	0.855911	24.5504	0.215111	7.11568	0.452561	13.0416	0.718636	20.643	0.946896	27.1796
0.190233	5.23987	0.0528748	1.58463	0.316078	9.78683	0.487759	13.7541	0.589134	16.3656	0.856841	23.9373	0.218813	7.02173	0.454291	12.7492	0.719694	20.1346	0.947316	26.4834
0.194927	5.23481	0.05415	1.59548	0.317024	9.6805	0.488821	13.4312	0.590647	15.9937	0.857794	23.356	0.222553	6.93443	0.456059	12.4726	0.720777	19.6526	0.947749	25.8229
0.199601	5.2295	0.0556948	1.6082	0.318235	9.55055	0.489921	13.1254	0.592193	15.6409	0.85877	22.8041	0.22633	6.85316	0.457864	12.2109	0.721887	19.1952	0.948197	25.1955
0.204256	5.22395	0.0575104	1.62259	0.319718	9.39982	0.49106	12.8355	0.593771	15.306	0.859769	22.2794	0.230141	6.77736	0.459706	11.9627	0.723022	18.7606	0.948659	24.5988
0.208891	5.21813	0.0595979	1.63841	0.321485	9.23141	0.492237	12.5604	0.595381	14.9875	0.860792	21.7801	0.233985	6.70654	0.461584	11.7273	0.724182	18.3472	0.949135	24.0306
0.213503	5.21204	0.061689	1.65355	0.323547	9.04854	0.493455	12.2991	0.597023	14.6844	0.861837	21.3043	0.237859	6.64026	0.463498	11.5036	0.725368	17.9535	0.949626	23.4889
0.218092	5.20566	0.0637833	1.66803	0.325645	8.87595	0.494713	12.0506	0.598696	14.3957	0.862905	20.8505	0.241762	6.57814	0.465447	11.2909	0.726579	17.5781	0.950131	22.972
0.222656	5.19898	0.0658805	1.68189	0.32778	8.71286	0.496013	11.8142	0.600401	14.1203	0.863996	20.4172	0.245693	6.51981	0.46743	11.0884	0.727815	17.2198	0.950651	22.4782
0.227193	5.19198	0.0679799	1.69517	0.329949	8.55857	0.497354	11.5889	0.602136	13.8575	0.865109	20.0031	0.24965	6.46497	0.469448	10.8955	0.729075	16.8776	0.951186	22.0061
0.231703	5.18465	0.0700813	1.70789	0.332153	8.41244	0.498738	11.3742	0.603901	13.6064	0.866245	19.607	0.253631	6.41334	0.471234	10.7346	0.73036	16.5504	0.951736	21.5542
0.236184	5.17698	0.0721844	1.72009	0.334392	8.2739	0.500164	11.1695	0.605696	13.3663	0.867403	19.2277	0.257636	6.36465	0.472776	10.6026	0.73167	16.2373	0.9523	21.1213
0.240633	5.16894	0.0742888	1.73179	0.336664	8.14242	0.501635	10.974	0.607521	13.1364	0.868584	18.8643	0.261662	6.31869	0.474065	10.4968	0.733004	15.9374	0.952881	20.7063
0.245049	5.16053	0.0763944	1.74301	0.33897	8.01753	0.502952	10.8108	0.609376	12.9163	0.869787	18.5157	0.26571	6.27524	0.475093	10.4152	0.734362	15.6499	0.953476	20.3081
0.24943	5.15171	0.0785009	1.75379	0.34131	7.89879	0.504101	10.6766	0.611259	12.7053	0.871011	18.1812	0.269776	6.23411	0.475854	10.3563	0.735744	15.3741	0.954087	19.9257
0.253775	5.14249	0.0806081	1.76415	0.343683	7.78583	0.50507	10.569	0.613171	12.503	0.872258	17.8599	0.273862	6.19513	0.476342	10.3191	0.73715	15.1093	0.954714	19.5582
0.258081	5.13283	0.0827157	1.7741	0.346089	7.67829	0.505849	10.486	0.615112	12.3087	0.873527	17.5511	0.277964	6.15815	0.477048	10.2663	0.738579	14.8549	0.955357	19.2048
0.262346	5.12273	0.0848238	1.78367	0.348529	7.57583	0.506428	10.4261	0.617081	12.1221	0.874817	17.254	0.282083	6.12301	0.477819	10.2098	0.740032	14.6103	0.956016	18.8648
0.266567	5.11216	0.0869321	1.79288	0.351003	7.47816	0.506802	10.3883	0.619078	11.9427	0.876129	16.9681	0.286217	6.0896	0.478874	10.1344	0.741508	14.3751	0.956691	18.5373
0.270743	5.1011	0.0890405	1.80174	0.353512	7.38501	0.507343	10.3345	0.621102	11.7702	0.877463	16.6927	0.290366	6.05779	0.480219	10.0412	0.743008	14.1486	0.957382	18.2217
0.274872	5.08955	0.0911489	1.81028	0.356055	7.29613	0.507937	10.277	0.623153	11.6042	0.878818	16.4273	0.294529	6.02746	0.481861	9.9318	0.74453	13.9304	0.95809	17.9175
0.27895	5.07747	0.0932572	1.8185	0.358634	7.2113	0.508755	10.2001	0.625231	11.4444	0.880194	16.1714	0.298704	5.99853	0.483809	9.80782	0.746075	13.7201	0.958814	17.6239
0.282977	5.06486	0.0953654	1.82643	0.36125	7.13031	0.509804	10.1052	0.627336	11.2903	0.881591	15.9245	0.30289	5.9709	0.486073	9.67105	0.747642	13.5174	0.959555	17.3406
0.286948	5.05171	0.0974734	1.83407	0.363902	7.05297	0.511096	9.99371	0.629467	11.1419	0.883009	15.6861	0.307088	5.94447	0.488366	9.53983	0.749232	13.3217	0.960312	17.0669
0.290863	5.03799	0.099581	1.84145	0.366593	6.9791	0.512645	9.86734	0.631346	11.0168	0.884449	15.4559	0.311297	5.91918	0.490688	9.41387	0.750844	13.1328	0.961087	16.8025
0.294718	5.0237	0.101688	1.84857	0.369324	6.90854	0.514467	9.72795	0.632962	10.9132	0.885909	15.2334	0.315515	5.89495	0.49304	9.29287	0.752477	12.9503	0.961879	16.5468
0.298513	5.00883	0.103795	1.85545	0.372094	6.84114	0.516335	9.59426	0.63431	10.8296	0.88739	15.0182	0.319741	5.8717	0.495419	9.17657	0.754133	12.774	0.962688	16.2995
0.302244	4.99337	0.105902	1.86209	0.374907	6.77677	0.518252	9.46599	0.635382	10.7647	0.888891	14.8101	0.323976	5.84939	0.497826	9.06472	0.75581	12.6035	0.963514	16.0601
0.30591	4.97732	0.108008	1.86851	0.377763	6.7153	0.520216	9.34287	0.636174	10.7177	0.890413	14.6087	0.328218	5.82795	0.500261	8.9571	0.757509	12.4386	0.964358	15.8284
0.309509	4.96068	0.110114	1.87472	0.380664	6.65661	0.522227	9.22464	0.636683	10.6879	0.891955	14.4137	0.332467	5.80732	0.502722	8.85348	0.759229	12.279	0.96522	15.6039
0.31304	4.94346	0.112219	1.88073	0.38361	6.6006	0.524287	9.11108	0.637416	10.6455	0.893517	14.2247	0.336722	5.78746	0.50521	8.75366	0.76097	12.1244	0.966099	15.3864
0.316501	4.92564	0.114324	1.88655	0.386604	6.54715	0.526395	9.00197	0.638217	10.6	0.895099	14.0417	0.340983	5.76832	0.507724	8.65746	0.762732	11.9748	0.966996	15.1755
0.319892	4.90726	0.116428	1.89218	0.389646	6.49618	0.528551	8.89708	0.639311	10.539	0.896702	13.8642	0.345249	5.74985	0.510264	8.56469	0.764515	11.8297	0.967912	14.9709
0.323211	4.88831	0.118531	1.89763	0.392739	6.44758	0.530756	8.79623	0.640702	10.4632	0.898324	13.692	0.349518	5.73202	0.512828	8.4752	0.766318	11.6891	0.968845	14.7725
0.326458	4.86881	0.120634	1.90292	0.395882	6.40127	0.533008	8.69924	0.642397	10.3736	0.899965	13.525	0.353792	5.71479	0.515418	8.38883	0.768142	11.5527	0.969798	14.5799
0.329229	4.8514	0.122737	1.90804	0.399077	6.35717	0.535308	8.60592	0.644403	10.2713	0.901627	13.3628	0.358069	5.69811	0.518031	8.30542	0.769986	11.4204	0.970768	14.3929
0.331549	4.83625	0.124839	1.91301	0.402326	6.31519	0.537657	8.51611	0.646727	10.1575	0.903307	13.2054	0.362348	5.68197	0.520669	8.22485	0.771609	11.3083	0.971757	14.2112
0.333436	4.82352	0.126941	1.91783	0.405628	6.27525	0.540053	8.42966	0.649075	10.0474	0.905007	13.0525	0.366629	5.66632	0.52333	8.14698	0.773004	11.215	0.972765	14.0347
0.33491	4.81333	0.129042	1.92251	0.408984	6.23727	0.542496	8.34642	0.651447	9.94073	0.906727	12.9039	0.370912	5.65113	0.526014	8.07169	0.774166	11.1394	0.973792	13.8632
0.335983	4.80576	0.131142	1.92706	0.412395	6.20117	0.544987	8.26625	0.653842	9.83742	0.908465	12.7594	0.375195	5.63639	0.528721	7.99887	0.77509	11.0805	0.974838	13.6964
0.336665	4.80089	0.133242	1.93147	0.41586	6.16688	0.547524	8.18901	0.65626	9.73731	0.910222	12.619	0.379479	5.62206	0.53145	7.92841	0.775773	11.0378	0.975903	13.5342
0.337639	4.79385	0.135341	1.93576	0.419379	6.13431	0.550108	8.11458	0.658702	9.64026	0.911998	12.4824	0.383763	5.60811	0.534201	7.8602	0.776211	11.0106	0.976987	13.3764
0.338688	4.78614	0.13744	1.93993	0.422952	6.1034	0.552738	8.04284	0.661165	9.54615	0.913792	12.3494	0.388047	5.59453	0.536974	7.79415	0.776842	10.972	0.978091	13.2229
0.340102	4.77558	0.139539	1.94398	0.426579	6.07406	0.555413	7.97367	0.663652	9.45486	0.915605	12.2201	0.392329	5.5813	0.539769	7.73018	0.777531	10.9303	0.979214	13.0734
0.341866	4.76208	0.141637	1.94793	0.430257	6.04623	0.558134	7.90697	0.66616	9.36627	0.917437	12.0941	0.396609	5.56839	0.542584	7.66818	0.778472	10.8744	0.980358	12.9278
0.343965	4.74556	0.143734	1.95176	0.433987	6.01983	0.560899	7.84263	0.66869	9.28028	0.919286	11.9715	0.400887	5.55577	0.545421	7.60808	0.779668	10.8047	0.981521	12.7861
0.346379	4.72594	0.145831	1.9555	0.437766	5.99478	0.563709	7.78055	0.671242	9.19678	0.921154	11.852	0.405162	5.54345	0.548277	7.54981	0.781124	10.722	0.982704	12.648
0.349088	4.70311	0.147927	1.95913	0.441594	5.97101	0.566562	7.72064	0.673816	9.11568	0.92304	11.7356	0.409434	5.53139	0.551154	7.49329	0.782845	10.6272	0.983907	12.5134
0.351732	4.67999	0.150023	1.96267	0.445468	5.94846	0.569458	7.66282	0.676411	9.03687	0.924698	11.6365	0.413703	5.51958	0.554051	7.43845	0.784838	10.5212	0.98513	12.3823
0.354314	4.65661	0.152119	1.96612	0.449388	5.92706	0.572396	7.60699	0.679026	8.96029	0.926122	11.5538	0.417967	5.508	0.556967	7.38523	0.78685	10.4181	0.986374	12.2544
0.356834	4.63301	0.154214	1.96949	0.45335	5.90674	0.575376	7.55307	0.681663	8.88584	0.927307	11.4866	0.422226	5.49664	0.559903	7.33356	0.78888	10.3177	0.987639	12.1297
0.359296	4.60922	0.156309	1.97276	0.457354	5.88744	0.578397	7.50098	0.684321	8.81344	0.928248	11.4342	0.42648	5.48549	0.562858	7.28338	0.790928	10.2199	0.988924	12.0081
0.361701	4.58527	0.158403	1.97596	0.461397	5.86909	0.581458	7.45066	0.686998	8.74301	0.928943	11.396	0.430728	5.47452	0.565831	7.23463	0.792995	10.1247	0.99023	11.8894
0.364052	4.56119	0.160497	1.97908	0.465478	5.85164	0.58456	7.40203	0.689697	8.6745	0.929389	11.3718	0.43497	5.46374	0.568824	7.18728	0.795079	10.032	0.991385	11.7884
0.36635	4.53703	0.16259	1.98212	0.469593	5.83504	0.587699	7.35502	0.692415	8.60782	0.930032	11.3372	0.439205	5.45312	0.571835	7.14125	0.797182	9.94165	0.992382	11.7039
0.368599	4.5128	0.164683	1.98509	0.473742	5.81922	0.590878	7.30956	0.695153	8.54291	0.930733	11.2999	0.443433	5.44265	0.574864	7.09651	0.799301	9.8536	0.993215	11.6352
0.370799	4.48854	0.166776	1.98799	0.477921	5.80413	0.594093	7.2656	0.69791	8.47971	0.931689	11.2497	0.447653	5.43232	0.577911	7.05301	0.801439	9.76775	0.99388	11.5816
0.372953	4.46427	0.168868	1.99082	0.482131	5.78974	0.597346	7.22308	0.700688	8.41815	0.932904	11.187	0.451864	5.42212	0.580976	7.0107	0.803593	9.68405	0.994372	11.5426
0.375064	4.44002	0.17096	1.99358	0.486367	5.77599	0.600635	7.18193	0.703484	8.3582	0.934383	11.1125	0.456067	5.41205	0.584059	6.96955	0.805765	9.60241	0.994688	11.5178
0.377133	4.4158	0.173052	1.99628	0.490629	5.76284	0.603959	7.14211	0.7063	8.29978	0.936129	11.0268	0.46026	5.40208	0.58716	6.9295	0.807954	9.52276	0.995145	11.4823
0.379162	4.39166	0.175143	1.99892	0.494915	5.75025	0.607317	7.10356	0.709135	8.24284	0.938149	10.9307	0.464443	5.39221	0.590278	6.89054	0.810159	9.44503	0.995644	11.4442
0.381154	4.36759	0.177234	2.0015	0.499222	5.73818	0.610709	7.06623	0.711989	8.18735	0.940186	10.8368	0.468616	5.38244	0.593413	6.85261	0.812381	9.36917	0.996327	11.3928
0.38311	4.34363	0.179324	2.00403	0.50355	5.7266	0.614135	7.03008	0.714861	8.13324	0.94224	10.7451	0.472778	5.37274	0.596566	6.81568	0.81462	9.29511	0.997198	11.3286
0.385031	4.31979	0.181414	2.00649	0.507897	5.71548	0.617593	6.99506	0.717753	8.08048	0.94431	10.6554	0.476928	5.36312	0.599736	6.77973	0.816875	9.2228	0.998262	11.2522
0.386921	4.29608	0.183504	2.00891	0.51226	5.70477	0.621082	6.96112	0.720662	8.02902	0.946396	10.5679	0.481066	5.35357	0.602923	6.74472	0.819147	9.15217	0.999525	11.1643
0.38878	4.27252	0.185594	2.01127	0.51664	5.69445	0.624603	6.92823	0.72359	7.97882	0.948499	10.4823	0.485192	5.34407	0.606127	6.71062	0.821434	9.08318	1.001	11.0655
0.39061	4.24912	0.187683	2.01358	0.521033	5.68451	0.628153	6.89635	0.726536	7.92983	0.950619	10.3987	0.489304	5.33462	0.609348	6.6774	0.823738	9.01576		
0.392412	4.2259	0.189772	2.01584	0.52544	5.6749	0.631733	6.86543	0.7295	7.88203	0.952754	10.3169	0.493403	5.32521	0.612585	6.64504	0.826057	8.94988		
0.394188	4.20286	0.191861	2.01806	0.529858	5.6656	0.635342	6.83544	0.732482	7.83538	0.954905	10.2369	0.497487	5.31584	0.61584	6.6135	0.828392	8.88549		
0.39594	4.18001	0.193949	2.02023	0.534286	5.6566	0.638979	6.80634	0.735482	7.78983	0.957072	10.1587	0.501557	5.3065	0.619111	6.58277	0.830743	8.82254		
0.397668	4.15737	0.196038	2.02235	0.538724	5.64788	0.642644	6.7781	0.7385	7.74536	0.959255	10.0821	0.505611	5.29717	0.622399	6.55282	0.833109	8.76098		
0.399375	4.13493	0.198126	2.02443	0.54317	5.6394	0.646335	6.7507	0.741535	7.70194	0.961453	10.0072	0.509649	5.28787	0.625704	6.52362	0.835491	8.70077		
0.40106	4.11271	0.200213	2.02647	0.547623	5.63116	0.650052	6.72409	0.744588	7.65953	0.963667	9.93394	0.513671	5.27857	0.629026	6.49515	0.837887	8.64188		
0.402726	4.09071	0.202301	2.02847	0.552082	5.62314	0.653794	6.69825	0.747659	7.6181	0.965896	9.8622	0.517676	5.26928	0.632364	6.46741	0.840299	8.58427		
0.404374	4.06894	0.204388	2.03043	0.556546	5.61532	0.657562	6.67315	0.750747	7.57762	0.968141	9.79197	0.521664	5.25998	0.635719	6.44035	0.842726	8.52789		
0.406004	4.0474	0.206475	2.03235	0.561015	5.60769	0.661353	6.64876	0.753852	7.53808	0.9704	9.72319	0.525633	5.25068	0.63909	6.41396	0.845168	8.47272		
0.407617	4.02609	0.208561	2.03424	0.565486	5.60024	0.665168	6.62506	0.756974	7.49943	0.972674	9.65584	0.529584	5.24137	0.642479	6.38824	0.847624	8.41871		
0.409215	4.00501	0.210648	2.03608	0.569961	5.59294	0.669006	6.60202	0.760114	7.46166	0.974964	9.58987	0.533516	5.23203	0.645884	6.36314	0.850095	8.36584		
0.410798	3.98418	0.212734	2.0379	0.574437	5.58579	0.672866	6.57961	0.763271	7.42475	0.977267	9.52524	0.537428	5.22268	0.649305	6.33867	0.852581	8.31408		
0.412368	3.96358	0.21482	2.03968	0.578914	5.57878	0.676747	6.55782	0.766445	7.38866	0.979586	9.46191	0.54132	5.2133	0.652744	6.3148	0.855081	8.26338		
0.413924	3.94323	0.216906	2.04142	0.583391	5.5719	0.68065	6.53663	0.769636	7.35337	0.981919	9.39985	0.545192	5.20389	0.656199	6.29152	0.857596	8.21373		
0.415469	3.92312	0.218992	2.04314	0.587867	5.56514	0.684573	6.516	0.772844	7.31887	0.984266	9.33903	0.549042	5.19445	0.659671	6.26881	0.860125	8.16509		
0.417001	3.90325	0.221077	2.04482	0.592343	5.55848	0.688516	6.49592	0.776069	7.28514	0.986628	9.2794	0.552871	5.18497	0.663159	6.24665	0.862668	8.11743		
0.418523	3.88363	0.223163	2.04647	0.596817	5.55192	0.692478	6.47637	0.779311	7.25214	0.989003	9.22095	0.556677	5.17545	0.666665	6.22504	0.865226	8.07074		
0.420035	3.86425	0.225248	2.04809	0.601288	5.54545	0.696459	6.45734	0.78257	7.21988	0.991393	9.16362	0.560461	5.16588	0.670187	6.20395	0.867797	8.02498		
0.421537	3.84512	0.227332	2.04968	0.605756	5.53907	0.700458	6.4388	0.785846	7.18831	0.993797	9.10741	0.564222	5.15627	0.673725	6.18338	0.870382	7.98014		
0.423031	3.82622	0.229417	2.05125	0.610221	5.53276	0.704475	6.42073	0.789139	7.15744	0.996214	9.05227	0.56796	5.1466	0.677281	6.16331	0.872981	7.93617		
0.424516	3.80757	0.231502	2.05279	0.614682	5.52652	0.708509	6.40312	0.79245	7.12723	0.998645	8.99818	0.571674	5.13689	0.680853	6.14373	0.875594	7.89307		
0.425994	3.78916	0.233586	2.0543	0.619138	5.52034	0.712559	6.38596	0.795777	7.09768	1.00109	8.94511	0.575363	5.12712	0.684442	6.12462	0.878221	7.85082		
0.427464	3.77098	0.23567	2.05578	0.62359	5.51422	0.716626	6.36922	0.799121	7.06877			0.579028	5.11729	0.688047	6.10598	0.880862	7.80938		
0.428927	3.75304	0.237754	2.05724	0.628035	5.50815	0.720708	6.35289	0.802483	7.04048			0.582668	5.1074	0.691669	6.08779	0.883516	7.76874		
0.430384	3.73534	0.239838	2.05868	0.632475	5.50213	0.724805	6.33696	0.805861	7.0128			0.586283	5.09746	0.695308	6.07003	0.886183	7.72888		
0.431836	3.71788	0.241922	2.06009	0.636907	5.49615	0.728916	6.32141	0.809257	6.98571			0.589872	5.08745	0.698962	6.05271	0.888864	7.68977		
0.433282	3.70064	0.244006	2.06148	0.641333	5.4902	0.733041	6.30624	0.81267	6.9592			0.593435	5.07738	0.702634	6.0358	0.891559	7.65141		
0.434723	3.68363	0.246089	2.06284	0.645752	5.48428	0.73718	6.29142	0.8161	6.93326			0.596972	5.06725	0.706321	6.0193	0.894267	7.61377		
0.436159	3.66686	0.248172	2.06418	0.650163	5.47839	0.741332	6.27694	0.819548	6.90787			0.600482	5.05705	0.710024	6.0032	0.896988	7.57684		
0.437591	3.6503	0.250256	2.0655	0.654565	5.47253	0.745496	6.26279	0.823013	6.88302			0.603966	5.04679	0.713744	5.98748	0.899723	7.54059		
0.439019	3.63397	0.252338	2.0668	0.658959	5.46668	0.749673	6.24897	0.826496	6.85871			0.607423	5.03647	0.717479	5.97214	0.90247	7.50502		
0.440444	3.61786	0.254421	2.06808	0.663344	5.46085	0.75386	6.23545	0.829996	6.83491			0.610853	5.02608	0.72123	5.95716	0.905231	7.4701		
0.441865	3.60197	0.256504	2.06934	0.66772	5.45503	0.758059	6.22223	0.833514	6.81162			0.614255	5.01563	0.724996	5.94254	0.908005	7.43582		
0.443283	3.5863	0.258587	2.07058	0.672086	5.44922	0.762268	6.20929	0.83705	6.78883			0.617631	5.00511	0.728778	5.92826	0.910792	7.40217		
0.444699	3.57083	0.260669	2.0718	0.676441	5.44341	0.766488	6.19663	0.840604	6.76652			0.620978	4.99453	0.732574	5.91432	0.913593	7.36913		
0.446112	3.55558	0.262752	2.073	0.680787	5.43761	0.770717	6.18424	0.844176	6.74469			0.624298	4.98388	0.736386	5.90071	0.916406	7.33668		
0.447524	3.54054	0.264834	2.07418	0.685121	5.43181	0.774955	6.1721	0.847767	6.72333			0.627591	4.97318	0.740212	5.88741	0.919232	7.30482		
0.448933	3.5257	0.266916	2.07534	0.689445	5.42601	0.779202	6.16022	0.851375	6.70242			0.630856	4.96241	0.744052	5.87442	0.922071	7.27353		
0.450341	3.51107	0.268998	2.07649	0.693757	5.42021	0.783456	6.14856	0.855002	6.68196			0.634093	4.95159	0.747907	5.86174	0.924923	7.2428		
0.451747	3.49663	0.27108	2.07761	0.698058	5.41439	0.787719	6.13714	0.858648	6.66195			0.637302	4.9407	0.751775	5.84934	0.927788	7.21261		
0.453152	3.48239	0.273162	2.07873	0.702346	5.40857	0.791989	6.12594	0.862312	6.64236			0.640484	4.92976	0.755657	5.83723	0.930665	7.18295		
0.454556	3.46835	0.275243	2.07982	0.706622	5.40274	0.796265	6.11495	0.865995	6.6232			0.643639	4.91877	0.759551	5.82539	0.933556	7.15382		
0.45596	3.4545	0.277325	2.0809	0.710886	5.39689	0.800548	6.10417	0.869697	6.60445			0.646765	4.90772	0.763459	5.81382	0.936459	7.12519		
0.457362	3.44084	0.279407	2.08196	0.715137	5.39103	0.804837	6.09358	0.873418	6.58611			0.649865	4.89662	0.767379	5.8025	0.939375	7.09707		
0.458765	3.42737	0.281488	2.08301	0.719375	5.38516	0.809131	6.08318	0.877159	6.56817			0.652937	4.88547	0.771312	5.79143	0.942303	7.06943		
0.460167	3.41408	0.283569	2.08405	0.723599	5.37926	0.813431	6.07297	0.880919	6.55063			0.655981	4.87427	0.775256	5.78061	0.945244	7.04227		
0.461569	3.40097	0.28565	2.08506	0.72781	5.37335	0.817734	6.06292	0.884698	6.53347			0.658999	4.86303	0.779211	5.77002	0.948198	7.01558		
0.46297	3.38804	0.287731	2.08607	0.732007	5.36741	0.822042	6.05305	0.888498	6.51669			0.66199	4.85174	0.783178	5.75965	0.951164	6.98935		
0.464373	3.37529	0.289812	2.08706	0.73619	5.36146	0.826354	6.04334	0.892317	6.50028			0.664954	4.84041	0.787155	5.74951	0.954143	6.96356		
0.465775	3.36271	0.291893	2.08803	0.740359	5.35548	0.830669	6.03378	0.896156	6.48423			0.667891	4.82904	0.791143	5.73957	0.957135	6.93821		
0.467178	3.3503	0.293974	2.08899	0.744513	5.34947	0.834986	6.02437	0.900015	6.46855			0.670802	4.81764	0.79514	5.72985	0.960138	6.9133		
0.468582	3.33806	0.296055	2.08994	0.748652	5.34344	0.839306	6.01511	0.903894	6.45322			0.673687	4.80619	0.799147	5.72031	0.963155	6.8888		
0.469986	3.32599	0.298136	2.09088	0.752776	5.33739	0.843628	6.00598	0.907794	6.43824			0.676546	4.79472	0.803163	5.71097	0.966183	6.86472		
0.471391	3.31409	0.300216	2.0918	0.756885	5.3313	0.847952	5.99698	0.911714	6.4236			0.679379	4.78322	0.807188	5.70182	0.969224	6.84104		
0.472797	3.30234	0.302297	2.09271	0.760979	5.32519	0.852277	5.98811	0.915655	6.40929			0.682187	4.77168	0.811221	5.69284	0.972278	6.81776		
0.474204	3.29075	0.304377	2.09361	0.765057	5.31905	0.856603	5.97936	0.919617	6.39531			0.684969	4.76013	0.815262	5.68403	0.975343	6.79486		
0.475613	3.27932	0.306457	2.0945	0.769119	5.31288	0.860929	5.97073	0.923599	6.38166			0.687727	4.74854	0.81931	5.67539	0.978421	6.77235		
0.477022	3.26805	0.308538	2.09537	0.773165	5.30667	0.865256	5.96221	0.927602	6.36832			0.69046	4.73694	0.823365	5.66691	0.981511	6.75021		
0.478433	3.25693	0.310618	2.09624	0.777196	5.30044	0.869582	5.9538	0.931626	6.35529			0.693168	4.72532	0.827427	5.65858	0.984614	6.72843		
0.479845	3.24595	0.312698	2.09709	0.781209	5.29417	0.873908	5.94549	0.935671	6.34258			0.695853	4.71368	0.831496	5.6504	0.987728	6.70701		
0.481259	3.23513	0.314778	2.09793	0.785207	5.28788	0.878233	5.93728	0.939737	6.33016			0.698513	4.70203	0.83557	5.64236	0.990855	6.68594		
0.482674	3.22444	0.316858	2.09876	0.789188	5.28155	0.882557	5.92917	0.943824	6.31804			0.70115	4.69036	0.839649	5.63446	0.993994	6.66522		
0.484091	3.21391	0.318938	2.09958	0.793152	5.27518	0.88688	5.92115	0.947932	6.3062			0.703764	4.67869	0.843734	5.62669	0.997144	6.64483		
0.48551	3.20351	0.321017	2.10039	0.797099	5.26879	0.891201	5.91321	0.952061	6.29466			0.706355	4.667	0.847823	5.61905	1.00031	6.62477		
0.48693	3.19325	0.323097	2.10119	0.801029	5.26236	0.89552	5.90537	0.956211	6.28339			0.708923	4.65531	0.851916	5.61152				
0.488353	3.18313	0.325177	2.10197	0.804942	5.25589	0.899837	5.8976	0.960381	6.27239			0.711469	4.64362	0.856013	5.60412				
0.489777	3.17314	0.327256	2.10275	0.808838	5.2494	0.904151	5.88991	0.964573	6.26167			0.713992	4.63192	0.860113	5.59682				
0.491203	3.16329	0.329336	2.10352	0.812716	5.24287	0.908463	5.8823	0.968785	6.2512			0.716495	4.62023	0.864216	5.58964				
0.492631	3.15356	0.331415	2.10428	0.816577	5.2363	0.912773	5.87476	0.973018	6.24099			0.718975	4.60854	0.868322	5.58255				
0.494061	3.14397	0.333495	2.10503	0.82042	5.2297	0.917079	5.8673	0.977271	6.23104			0.721434	4.59685	0.87243	5.57557				
0.495493	3.1345	0.335574	2.10577	0.824246	5.22307	0.921383	5.8599	0.981545	6.22133			0.723873	4.58517	0.87654	5.56868				
0.496928	3.12515	0.337653	2.1065	0.828054	5.2164	0.925683	5.85257	0.985839	6.21186			0.726291	4.57349	0.880652	5.56187				
0.498364	3.11593	0.339732	2.10723	0.831844	5.2097	0.92998	5.84531	0.990153	6.20263			0.728689	4.56183	0.884764	5.55516				
0.499803	3.10683	0.341812	2.10794	0.835616	5.20296	0.934274	5.83811	0.994486	6.19363			0.731067	4.55018	0.888877	5.54853				
0.501244	3.09784	0.343891	2.10865	0.83937	5.19619	0.938565	5.83097	0.998839	6.18485			0.733426	4.53854	0.892991	5.54197				
0.502688	3.08898	0.34597	2.10935	0.843106	5.18939	0.942851	5.82389	1.00321	6.1763			0.735765	4.52692	0.897104	5.53549				
0.504133	3.08023	0.348049	2.11004	0.846824	5.18255	0.947134	5.81687					0.738085	4.51531	0.901217	5.52908				
0.505581	3.07159	0.350128	2.11072	0.850524	5.17568	0.951414	5.80991					0.740387	4.50372	0.905329	5.52275				
0.507032	3.06306	0.352207	2.11139	0.854205	5.16878	0.95569	5.803					0.74267	4.49215	0.909441	5.51647				
0.508485	3.05465	0.354285	2.11206	0.857869	5.16185	0.959962	5.79616					0.744936	4.4806	0.91355	5.51026				
0.50994	3.04634	0.356364	2.11271	0.861514	5.15488	0.964231	5.78936					0.747183	4.46908	0.917658	5.5041				
0.511398	3.03814	0.358443	2.11336	0.865141	5.14789	0.968496	5.78262					0.749414	4.45757	0.921764	5.49801				
0.512858	3.03004	0.360521	2.11401	0.868749	5.14086	0.972757	5.77593					0.751627	4.4461	0.925867	5.49196				
0.514321	3.02205	0.3626	2.11464	0.87234	5.1338	0.977015	5.7693					0.753823	4.43465	0.929968	5.48597				
0.515786	3.01416	0.364679	2.11527	0.875912	5.12671	0.981269	5.76271					0.756003	4.42323	0.934065	5.48002				
0.517254	3.00637	0.366757	2.11589	0.879466	5.11959	0.985519	5.75618					0.758166	4.41184	0.938159	5.47412				
0.518725	2.99868	0.368836	2.11651	0.883001	5.11245	0.989766	5.74969					0.760314	4.40048	0.94225	5.46826				
0.520198	2.99108	0.370914	2.11711	0.886518	5.10527	0.994009	5.74326					0.762446	4.38915	0.946336	5.46243				
0.521673	2.98358	0.372992	2.11772	0.890017	5.09807	0.998249	5.73687					0.764562	4.37785	0.950418	5.45665				
0.523152	2.97618	0.375071	2.11831	0.893498	5.09084	1.00249	5.73054					0.766664	4.36659	0.954495	5.4509				
0.524633	2.96887	0.377149	2.1189	0.896961	5.08358							0.76875	4.35536	0.958568	5.44519				
0.526116	2.96165	0.379227	2.11948	0.900405	5.07629							0.770822	4.34417	0.962635	5.4395				
0.527602	2.95452	0.381305	2.12005	0.903831	5.06898							0.77288	4.33302	0.966697	5.43385				
0.529091	2.94748	0.383383	2.12062	0.907239	5.06165							0.774924	4.3219	0.970753	5.42822				
0.530582	2.94052	0.385462	2.12119	0.910629	5.05429							0.776954	4.31082	0.974803	5.42261				
0.532076	2.93365	0.38754	2.12174	0.914001	5.04691							0.778971	4.29979	0.978846	5.41703				
0.533573	2.92687	0.389618	2.1223	0.917355	5.0395							0.780975	4.28879	0.982883	5.41147				
0.535073	2.92017	0.391696	2.12284	0.920692	5.03207							0.782965	4.27783	0.986914	5.40593				
0.536575	2.91355	0.393774	2.12338	0.92401	5.02462							0.784943	4.26692	0.990937	5.40041				
0.538079	2.90702	0.395851	2.12391	0.92731	5.01715							0.786909	4.25605	0.994953	5.3949				
0.539587	2.90056	0.397929	2.12444	0.930593	5.00966							0.788862	4.24522	0.998961	5.38941				
0.541097	2.89418	0.400007	2.12497	0.933858	5.00215							0.790803	4.23444	1.00296	5.38393				
0.54261	2.88789	0.402085	2.12548	0.937106	4.99462							0.792733	4.2237						
0.544125	2.88166	0.404163	2.126	0.940336	4.98707							0.794652	4.21301						
0.545643	2.87551	0.40624	2.1265	0.943549	4.9795							0.796559	4.20236						
0.547164	2.86944	0.408318	2.12701	0.946744	4.97192							0.798455	4.19176						
0.548688	2.86344	0.410396	2.1275	0.949922	4.96432							0.80034	4.18121						
0.550214	2.85751	0.412473	2.128	0.953083	4.9567							0.802215	4.1707						
0.551743	2.85165	0.414551	2.12848	0.956226	4.94907							0.80408	4.16024						
0.553274	2.84586	0.416628	2.12896	0.959353	4.94143							0.805934	4.14983						
0.554808	2.84014	0.418706	2.12944	0.962462	4.93377							0.807779	4.13947						
0.556345	2.83449	0.420783	2.12992	0.965555	4.92609							0.809614	4.12916						
0.557885	2.8289	0.42286	2.13038	0.968631	4.91841							0.811439	4.1189						
0.559427	2.82339	0.424938	2.13085	0.97169	4.91071							0.813256	4.10869						
0.560971	2.81793	0.427015	2.13131	0.974733	4.903							0.815063	4.09853						
0.562519	2.81254	0.429093	2.13176	0.977759	4.89528							0.816862	4.08842						
0.564069	2.80721	0.43117	2.13221	0.980769	4.88755							0.818651	4.07836						
0.565622	2.80195	0.433247	2.13266	0.983763	4.87981							0.820433	4.06835						
0.567177	2.79675	0.435324	2.1331	0.98674	4.87206							0.822206	4.05839						
0.568735	2.7916	0.437401	2.13354	0.989701	4.86431							0.823971	4.04849						
0.570295	2.78652	0.439479	2.13397	0.992646	4.85654							0.825729	4.03863						
0.571858	2.78149	0.441556	2.1344	0.995575	4.84877							0.827478	4.02883						
0.573424	2.77653	0.443633	2.13483	0.998488	4.84099							0.82922	4.01908						
0.574992	2.77162	0.44571	2.13525	1.00139	4.83321							0.830955	4.00938						
0.576563	2.76676	0.447787	2.13567									0.832683	3.99974						
0.578136	2.76196	0.449864	2.13608									0.834403	3.99015						
0.579712	2.75722	0.451941	2.13649									0.836117	3.98061						
0.581291	2.75253	0.454018	2.1369									0.837824	3.97112						
0.582872	2.74789	0.456095	2.1373									0.839525	3.96169						
0.584455	2.74331	0.458172	2.1377									0.841219	3.9523						
0.586041	2.73878	0.460248	2.1381									0.842907	3.94298						
0.58763	2.7343	0.462325	2.13849									0.844589	3.9337						
0.589221	2.72986	0.464402	2.13888									0.846266	3.92448						
0.590814	2.72548	0.466479	2.13926									0.847936	3.91531						
0.59241	2.72115	0.468556	2.13964									0.849601	3.90619						
0.594009	2.71686	0.470632	2.14002									0.85126	3.89712						
0.59561	2.71263	0.472709	2.1404									0.852914	3.88811						
0.597213	2.70844	0.474786	2.14077									0.854563	3.87915						
0.598819	2.70429	0.476862	2.14114									0.856207	3.87025						
0.600427	2.70019	0.478939	2.1415									0.857846	3.86139						
0.602038	2.69614	0.481015	2.14187									0.85948	3.85259						
0.603651	2.69213	0.483092	2.14223									0.86111	3.84384						
0.605266	2.68816	0.485169	2.14258									0.862735	3.83515						
0.606884	2.68424	0.487245	2.14293									0.864355	3.8265						
0.608504	2.68036	0.489322	2.14329									0.865971	3.81791						
0.610126	2.67652	0.491398	2.14363									0.867583	3.80937						
0.611751	2.67273	0.493475	2.14398									0.869191	3.80088						
0.613378	2.66897	0.495551	2.14432									0.870795	3.79244						
0.615007	2.66526	0.497627	2.14466									0.872396	3.78406						
0.616639	2.66158	0.499704	2.14499									0.873992	3.77572						
0.618273	2.65795	0.50178	2.14532									0.875585	3.76744						
0.619909	2.65435	0.503856	2.14566									0.877174	3.75921						
0.621548	2.65079	0.505933	2.14598									0.87876	3.75103						
0.623189	2.64727	0.508009	2.14631									0.880342	3.7429						
0.624832	2.64378	0.510085	2.14663									0.881922	3.73482						
0.626477	2.64034	0.512162	2.14695									0.883498	3.72679						
0.628124	2.63693	0.514238	2.14727									0.885071	3.71881						
0.629774	2.63355	0.516314	2.14758									0.886641	3.71088						
0.631426	2.63021	0.51839	2.14789									0.888209	3.703						
0.63308	2.62691	0.520466	2.1482									0.889773	3.69517						
0.634736	2.62364	0.522542	2.14851									0.891335	3.68739						
0.636395	2.6204	0.524619	2.14881									0.892894	3.67966						
0.638055	2.6172	0.526695	2.14912									0.894451	3.67197						
0.639718	2.61403	0.528771	2.14942									0.896006	3.66434						
0.641383	2.61089	0.530847	2.14971									0.897558	3.65675						
0.64305	2.60778	0.532923	2.15001									0.899107	3.64922						
0.644718	2.60471	0.534999	2.1503									0.900655	3.64173						
0.64639	2.60167	0.537075	2.15059									0.9022	3.63428						
0.648063	2.59866	0.539151	2.15088									0.903744	3.62689						
0.649738	2.59568	0.541227	2.15117									0.905285	3.61954						
0.651415	2.59273	0.543303	2.15145									0.906825	3.61224						
0.653094	2.58981	0.545378	2.15173									0.908362	3.60498						
0.654776	2.58692	0.547454	2.15201									0.909898	3.59778						
0.656459	2.58406	0.54953	2.15229									0.911432	3.59062						
0.658144	2.58122	0.551606	2.15256									0.912965	3.5835						
0.659832	2.57842	0.553682	2.15284									0.914496	3.57643						
0.661521	2.57564	0.555758	2.15311									0.916025	3.56941						
0.663212	2.57289	0.557834	2.15338									0.917553	3.56243						
0.664905	2.57017	0.559909	2.15365									0.91908	3.55549						
0.6666	2.56748	0.561985	2.15391									0.920605	3.5486						
0.668297	2.56481	0.564061	2.15417									0.922129	3.54176						
0.669997	2.56217	0.566137	2.15444									0.923652	3.53496						
0.671697	2.55956	0.568212	2.15469									0.925173	3.5282						
0.6734	2.55697	0.570288	2.15495									0.926694	3.52149						
0.675105	2.5544	0.572364	2.15521									0.928213	3.51482						
0.676811	2.55186	0.574439	2.15546									0.929732	3.50819						
0.67852	2.54935	0.576515	2.15571									0.931249	3.5016						
0.68023	2.54686	0.578591	2.15596									0.932766	3.49506						
0.681942	2.54439	0.580666	2.15621									0.934281	3.48856						
0.683656	2.54195	0.582742	2.15646									0.935796	3.48211						
0.685372	2.53953	0.584817	2.1567									0.93731	3.47569						
0.687089	2.53714	0.586893	2.15695									0.938824	3.46932						
0.688809	2.53477	0.588968	2.15719									0.940337	3.46298						
0.69053	2.53242	0.591044	2.15743									0.941849	3.45669						
0.692253	2.53009	0.593119	2.15767									0.94336	3.45044						
0.693977	2.52779	0.595195	2.1579									0.944871	3.44423						
0.695704	2.52551	0.59727	2.15814									0.946381	3.43806						
0.697432	2.52325	0.599346	2.15837									0.947891	3.43193						
0.699162	2.52101	0.601421	2.1586									0.949401	3.42584						
0.700893	2.51879	0.603497	2.15883									0.95091	3.41978						
0.702627	2.51659	0.605572	2.15906									0.952419	3.41377						
0.704362	2.51441	0.607648	2.15929									0.953927	3.4078						
0.706098	2.51226	0.609723	2.15951									0.955435	3.40186						
0.707837	2.51012	0.611798	2.15974									0.956943	3.39597						
0.709577	2.50801	0.613874	2.15996									0.958451	3.39011						
0.711318	2.50591	0.615949	2.16018									0.959959	3.38429						
0.713062	2.50383	0.618024	2.1604									0.961466	3.3785						
0.714807	2.50178	0.6201	2.16062									0.962973	3.37276						
0.716553	2.49974	0.622175	2.16083									0.96448	3.36705						
0.718301	2.49772	0.62425	2.16105									0.965987	3.36138						
0.720051	2.49572	0.626325	2.16126									0.967494	3.35574						
0.721803	2.49373	0.628401	2.16147									0.969002	3.35014						
0.723556	2.49177	0.630476	2.16168									0.970509	3.34458						
0.72531	2.48982	0.632551	2.16189									0.972016	3.33905						
0.727066	2.48789	0.634626	2.1621									0.973523	3.33356						
0.728824	2.48598	0.636702	2.16231									0.97503	3.32811						
0.730583	2.48409	0.638777	2.16251									0.976538	3.32269						
0.732344	2.48221	0.640852	2.16271									0.978046	3.3173						
0.734106	2.48035	0.642927	2.16292									0.979553	3.31195						
0.73587	2.47851	0.645002	2.16312									0.981062	3.30663						
0.737635	2.47668	0.647077	2.16332									0.98257	3.30135						
0.739402	2.47487	0.649152	2.16352									0.984078	3.2961						
0.74117	2.47308	0.651227	2.16371									0.985587	3.29088						
0.74294	2.4713	0.653302	2.16391									0.987096	3.2857						
0.744711	2.46954	0.655377	2.1641									0.988606	3.28055						
0.746484	2.4678	0.657453	2.1643									0.990116	3.27543						
0.748258	2.46606	0.659528	2.16449									0.991626	3.27035						
0.750034	2.46435	0.661603	2.16468									0.993137	3.2653						
0.751811	2.46265	0.663678	2.16487									0.994648	3.26028						
0.753589	2.46096	0.665753	2.16506									0.996159	3.25529						
0.755369	2.45929	0.667828	2.16525									0.997671	3.25034						
0.75715	2.45764	0.669903	2.16543									0.999183	3.24541						
0.758933	2.456	0.671977	2.16562									1.0007	3.24052						
0.760717	2.45437	0.674052	2.1658																
0.762502	2.45276	0.676127	2.16598																
0.764289	2.45116	0.678202	2.16617																
0.766077	2.44957	0.680277	2.16635																
0.767867	2.448	0.682352	2.16653																
0.769657	2.44645	0.684427	2.1667																
0.77145	2.4449	0.686502	2.16688																
0.773243	2.44337	0.688577	2.16706																
0.775038	2.44185	0.690651	2.16723																
0.776834	2.44035	0.692726	2.16741																
0.778632	2.43886	0.694801	2.16758																
0.78043	2.43738	0.696876	2.16775																
0.78223	2.43591	0.698951	2.16792																
0.784032	2.43446	0.701025	2.16809																
0.785834	2.43302	0.7031	2.16826																
0.787638	2.43159	0.705175	2.16843																
0.789443	2.43017	0.70725	2.1686																
0.791249	2.42877	0.709324	2.16876																
0.793057	2.42737	0.711399	2.16893																
0.794866	2.42599	0.713474	2.16909																
0.796676	2.42462	0.715548	2.16925																
0.798487	2.42326	0.717623	2.16942																
0.8003	2.42191	0.719698	2.16958																
0.802113	2.42058	0.721772	2.16974																
0.803928	2.41925	0.723847	2.1699																
0.805744	2.41794	0.725922	2.17005																
0.807561	2.41663	0.727996	2.17021																
0.80938	2.41534	0.730071	2.17037																
0.811199	2.41406	0.732145	2.17052																
0.81302	2.41279	0.73422	2.17068																
0.814842	2.41153	0.736295	2.17083																
0.816665	2.41028	0.738369	2.17098																
0.818489	2.40904	0.740444	2.17114																
0.820314	2.4078	0.742518	2.17129																
0.822141	2.40658	0.744593	2.17144																
0.823968	2.40537	0.746667	2.17159																
0.825797	2.40417	0.748742	2.17174																
0.827627	2.40298	0.750816	2.17188																
0.829457	2.4018	0.752891	2.17203																
0.831289	2.40063	0.754965	2.17218																
0.833122	2.39947	0.75704	2.17232																
0.834956	2.39831	0.759114	2.17247																
0.836791	2.39717	0.761188	2.17261																
0.838628	2.39603	0.763263	2.17275																
0.840465	2.39491	0.765337	2.1729																
0.842303	2.39379	0.767412	2.17304																
0.844143	2.39268	0.769486	2.17318																
0.845983	2.39158	0.77156	2.17332																
0.847824	2.39049	0.773635	2.17346																
0.849667	2.38941	0.775709	2.17359																
0.85151	2.38834	0.777783	2.17373																
0.853355	2.38727	0.779858	2.17387																
0.8552	2.38621	0.781932	2.17401																
0.857047	2.38517	0.784006	2.17414																
0.858894	2.38413	0.786081	2.17428																
0.860742	2.38309	0.788155	2.17441																
0.862592	2.38207	0.790229	2.17454																
0.864442	2.38105	0.792303	2.17467																
0.866294	2.38004	0.794378	2.17481																
0.868146	2.37904	0.796452	2.17494																
0.869999	2.37805	0.798526	2.17507																
0.871854	2.37707	0.8006	2.1752																
0.873709	2.37609	0.802675	2.17533																
0.875565	2.37512	0.804749	2.17545																
0.877422	2.37416	0.806823	2.17558																
0.87928	2.3732	0.808897	2.17571																
0.881139	2.37225	0.810971	2.17584																
0.882999	2.37131	0.813045	2.17596																
0.884859	2.37038	0.81512	2.17609																
0.886721	2.36945	0.817194	2.17621																
0.888584	2.36853	0.819268	2.17633																
0.890447	2.36762	0.821342	2.17646																
0.892311	2.36671	0.823416	2.17658																
0.894177	2.36581	0.82549	2.1767																
0.896043	2.36492	0.827564	2.17682																
0.89791	2.36404	0.829638	2.17694																
0.899778	2.36316	0.831712	2.17706																
0.901646	2.36228	0.833786	2.17718																
0.903516	2.36142	0.835861	2.1773																
0.905386	2.36056	0.837935	2.17742																
0.907258	2.3597	0.840009	2.17754																
0.90913	2.35886	0.842083	2.17765																
0.911003	2.35802	0.844157	2.17777																
0.912877	2.35718	0.846231	2.17789																
0.914751	2.35635	0.848305	2.178																
0.916627	2.35553	0.850379	2.17812																
0.918503	2.35472	0.852452	2.17823																
0.92038	2.35391	0.854526	2.17834																
0.922258	2.3531	0.8566	2.17846																
0.924137	2.3523	0.858674	2.17857																
0.926016	2.35151	0.860748	2.17868																
0.927897	2.35072	0.862822	2.17879																
0.929778	2.34994	0.864896	2.1789																
0.93166	2.34917	0.86697	2.17901																
0.933542	2.3484	0.869044	2.17912																
0.935426	2.34763	0.871118	2.17923																
0.93731	2.34687	0.873191	2.17934																
0.939195	2.34612	0.875265	2.17945																
0.941081	2.34537	0.877339	2.17955																
0.942967	2.34463	0.879413	2.17966																
0.944855	2.34389	0.881487	2.17977																
0.946743	2.34316	0.883561	2.17987																
0.948631	2.34244	0.885634	2.17998																
0.950521	2.34171	0.887708	2.18008																
0.952411	2.341	0.889782	2.18019																
0.954302	2.34029	0.891856	2.18029																
0.956194	2.33958	0.89393	2.1804																
0.958087	2.33888	0.896003	2.1805																
0.95998	2.33818	0.898077	2.1806																
0.961874	2.33749	0.900151	2.1807																
0.963768	2.3368	0.902225	2.1808																
0.965664	2.33612	0.904298	2.18091																
0.96756	2.33544	0.906372	2.18101																
0.969456	2.33477	0.908446	2.18111																
0.971354	2.3341	0.910519	2.18121																
0.973252	2.33344	0.912593	2.1813																
0.975151	2.33278	0.914667	2.1814																
0.97705	2.33213	0.91674	2.1815																
0.97895	2.33148	0.918814	2.1816																
0.980851	2.33083	0.920888	2.1817																
0.982753	2.33019	0.922961	2.18179																
0.984655	2.32956	0.925035	2.18189																
0.986558	2.32893	0.927109	2.18199																
0.988462	2.3283	0.929182	2.18208																
0.990366	2.32768	0.931256	2.18218																
0.992271	2.32706	0.933329	2.18227																
0.994176	2.32644	0.935403	2.18236																
0.996082	2.32583	0.937476	2.18246																
0.997989	2.32523	0.93955	2.18255																
0.999897	2.32462	0.941624	2.18264																
1.0018	2.32403	0.943697	2.18274																
		0.945771	2.18283																
		0.947844	2.18292																
		0.949918	2.18301																
		0.951991	2.1831																
		0.954065	2.18319																
		0.956138	2.18328																
		0.958212	2.18337																
		0.960285	2.18346																
		0.962358	2.18355																
		0.964432	2.18364																
		0.966505	2.18373																
		0.968579	2.18381																
		0.970652	2.1839																
		0.972726	2.18399																
		0.974799	2.18408																
		0.976872	2.18416																
		0.978946	2.18425																
		0.981019	2.18433																
		0.983093	2.18442																
		0.985166	2.1845																
		0.987239	2.18459																
		0.989313	2.18467																
		0.991386	2.18475																
		0.993459	2.18484																
		0.995533	2.18492																
		0.997606	2.185																
		0.999679	2.18508																
		1.00175	2.18517																
