Sym0		Sym1		Sym2		Sym3		Sym4		Sym5		Sym6		Sym7		Asym1		Asym2		Asym3		Asym4		Asym5		Asym6		Asym7	
308  Points		309  Points		303  Points		293  Points		279  Points		214  Points		170  Points		93  Points		308  Points		301  Points		295  Points		248  Points		216  Points		175  Points		91  Points	
Freq (MHz)	Vph (m/ms)	Freq (MHz)	Vph (m/ms)	Freq (MHz)	Vph (m/ms)	Freq (MHz)	Vph (m/ms)	Freq (MHz)	Vph (m/ms)	Freq (MHz)	Vph (m/ms)	Freq (MHz)	Vph (m/ms)	Freq (MHz)	Vph (m/ms)	Freq (MHz)	Vph (m/ms)	Freq (MHz)	Vph (m/ms)	Freq (MHz)	Vph (m/ms)	Freq (MHz)	Vph (m/ms)	Freq (MHz)	Vph (m/ms)	Freq (MHz)	Vph (m/ms)	Freq (MHz)	Vph (m/ms)
2.20042	2.51411	2.20548	2.51369	0.491544	256.193	0.86603	560.843	1.29904	996.792	1.47417	868.05	1.73205	1256.56	2.16506	1567.99	0.216798	77.6021	0.649519	428.521	0.982778	789.998	1.08256	390.628	1.51555	914.041	1.94852	719.074	1.96558	955.995
2.19365	2.51468	2.1987	2.51425	0.492375	102.341	0.866063	195.208	1.29903	309.611	1.47428	321.144	1.73207	405.553	2.16507	506.655	0.217709	38.2873	0.64952	147.344	0.982859	237.607	1.08267	191.155	1.51556	333.05	1.94839	347.788	1.96579	397.247
2.18689	2.51528	2.19194	2.51483	0.493871	64.1093	0.866129	118.177	1.29902	183.266	1.4745	197.041	1.7321	241.801	2.16508	302.143	0.219224	25.5545	0.649522	88.9675	0.983028	139.854	1.08284	126.555	1.51558	203.624	1.94818	229.34	1.96616	250.753
2.18015	2.51589	2.18519	2.51543	0.495962	46.8063	0.866227	84.745	1.299	130.152	1.47481	142.141	1.73215	172.254	2.16509	215.257	0.221317	19.2934	0.649526	63.7218	0.983284	99.1069	1.08309	94.6035	1.51561	146.642	1.94789	171.06	1.96668	183.228
2.17342	2.51653	2.17845	2.51605	0.498563	36.962	0.866359	66.0634	1.29898	100.907	1.47523	111.186	1.73222	133.78	2.16512	167.182	0.223957	15.592	0.649532	49.6371	0.983625	76.7622	1.08341	75.5453	1.51566	114.58	1.94755	136.387	1.96734	144.382
2.1667	2.51718	2.17172	2.51669	0.501593	30.6204	0.866523	54.1356	1.29896	82.3919	1.47575	91.3176	1.73231	109.358	2.16514	136.661	0.226673	13.4252	0.649542	40.652	0.98405	62.6528	1.08381	62.8888	1.51571	94.0244	1.94717	113.391	1.96813	119.147
2.16	2.51786	2.16501	2.51735	0.504979	26.2007	0.866721	45.8607	1.29893	69.6175	1.47637	77.4871	1.73241	92.4779	2.16517	115.564	0.229273	12.0462	0.649556	34.4217	0.984557	52.9364	1.08428	53.874	1.51578	79.7238	1.94675	97.0243	1.96903	101.439
2.15332	2.51856	2.15831	2.51803	0.50866	22.9478	0.866954	39.7841	1.29889	60.2719	1.47709	67.3069	1.73253	80.1144	2.16521	100.111	0.231608	11.1298	0.649577	29.8477	0.985144	45.8391	1.08482	47.128	1.51586	69.2004	1.94632	84.7807	1.97003	88.3287
2.14664	2.51928	2.15163	2.51874	0.512586	20.4556	0.867221	35.133	1.29885	53.1381	1.4779	59.5017	1.73267	70.6687	2.16525	88.3035	0.233565	10.514	0.649606	26.3473	0.985808	40.4288	1.08545	41.8911	1.51595	61.1323	1.94587	75.2766	1.97112	78.2321
2.13998	2.52002	2.14496	2.51946	0.516717	18.4866	0.867524	31.4589	1.29881	47.5139	1.47882	53.3283	1.73283	63.2172	2.1653	78.9879	0.235064	10.1113	0.649646	23.5823	0.986548	36.1687	1.08615	37.7087	1.51605	54.7502	1.94541	67.6853	1.9723	70.2179
2.13334	2.52078	2.1383	2.52021	0.521021	16.8925	0.867864	28.4836	1.29877	42.9659	1.47983	48.3242	1.733	57.1888	2.16535	71.4508	0.236049	9.87293	0.649698	21.3432	0.987359	32.7279	1.08693	34.2922	1.51616	49.5757	1.94496	61.4822	1.97356	63.7028
2.12671	2.52156	2.13166	2.52097	0.525473	15.5761	0.868242	26.0254	1.29873	39.2124	1.48094	44.1868	1.73319	52.2115	2.16541	65.2272	0.237499	9.55379	0.649765	19.4932	0.988238	29.8911	1.08779	31.4495	1.51629	45.2958	1.94451	56.3186	1.97489	58.3024
2.12009	2.52237	2.12504	2.52176	0.53005	14.471	0.868658	23.9605	1.29869	36.0617	1.48214	40.7093	1.7334	48.0325	2.16548	60.0013	0.239119	9.23517	0.64985	17.9391	0.989182	27.5126	1.08874	29.0478	1.51643	41.697	1.94407	51.9535	1.97629	53.7537
2.11349	2.52319	2.11842	2.52257	0.534736	13.5305	0.869115	22.2017	1.29864	33.3796	1.48344	37.7461	1.73363	44.4742	2.16555	55.5511	0.241391	8.84312	0.649955	16.6153	0.990186	25.4899	1.08978	26.9924	1.51658	38.6288	1.94365	48.2152	1.97776	49.8701
2.1069	2.52405	2.11183	2.52341	0.539516	12.7204	0.869612	20.6859	1.2986	31.0687	1.48482	35.1913	1.73388	41.408	2.16562	51.7159	0.244375	8.4053	0.650084	15.4744	0.991247	23.7489	1.0909	25.2138	1.51674	35.982	1.94324	44.9778	1.97929	46.516
2.10033	2.52492	2.10524	2.52427	0.544378	12.0156	0.870152	19.3663	1.29857	29.057	1.4863	32.9663	1.73414	38.7384	2.16571	48.3763	0.248135	7.94728	0.650239	14.481	0.992361	22.2347	1.09211	23.6601	1.51691	33.6754	1.94284	42.147	1.98088	43.5902
2.09377	2.52582	2.09867	2.52515	0.548673	11.4722	0.870736	18.2072	1.29853	27.2899	1.48786	31.0114	1.73443	36.3933	2.16579	45.4422	0.252739	7.49008	0.650425	13.6086	0.993523	20.9059	1.09342	22.2915	1.5171	31.6474	1.94247	39.6509	1.98252	41.0158
2.08723	2.52674	2.09212	2.52605	0.552372	11.053	0.871365	17.1812	1.2985	25.7255	1.48951	29.2805	1.73474	34.3169	2.16589	42.8441	0.258254	7.04925	0.650645	12.8363	0.99473	19.7304	1.09482	21.0772	1.5173	29.8504	1.94211	37.4334	1.98423	38.7332
2.0807	2.52769	2.08558	2.52698	0.555456	10.7331	0.872042	16.2668	1.29848	24.3308	1.49124	27.7375	1.73506	32.4657	2.16599	40.5272	0.263988	6.67848	0.650902	12.1482	0.995976	18.6832	1.09632	19.9927	1.51752	28.2472	1.94178	35.4506	1.98599	36.6956
2.07419	2.52866	2.07905	2.52794	0.557908	10.4955	0.872768	15.4469	1.29846	23.0796	1.49306	26.3535	1.73541	30.8049	2.1661	38.4484	0.269914	6.36281	0.65116	11.607	0.997257	17.7445	1.09791	19.0186	1.51774	26.8081	1.94147	33.667	1.9878	34.8657
2.06769	2.52966	2.07254	2.52891	0.559718	10.3288	0.873544	14.7077	1.29845	21.9509	1.49496	25.1053	1.73577	29.3067	2.16621	36.5727	0.276009	6.09116	0.651407	11.183	0.998569	16.8981	1.09961	18.1392	1.51799	25.5091	1.94117	32.0541	1.98967	33.2135
2.06121	2.53068	2.06605	2.52992	0.560879	10.2255	0.874373	14.038	1.29845	20.9275	1.49694	23.974	1.73616	27.9484	2.16633	34.8718	0.282251	5.85516	0.65163	10.8557	0.999908	16.1312	1.10141	17.3414	1.51824	24.3308	1.9409	30.5887	1.99159	31.7142
2.05474	2.53173	2.05957	2.53095	0.562553	10.0814	0.875257	13.4286	1.29846	19.9955	1.499	22.944	1.73657	26.7112	2.16646	33.3224	0.288622	5.64839	0.651821	10.6106	1.00127	15.433	1.10332	16.6148	1.51851	23.2571	1.94066	29.2513	1.99356	30.3479
2.04828	2.53281	2.0531	2.532	0.564378	9.93023	0.876198	12.8718	1.29848	19.1432	1.50113	22.0025	1.737	25.5798	2.1666	31.9051	0.295102	5.46582	0.651969	10.4375	1.00265	14.7947	1.10532	15.9503	1.5188	22.2747	1.94043	28.0261	1.99559	29.0975
2.04184	2.53391	2.04665	2.53308	0.566868	9.73343	0.877198	12.3613	1.29852	18.3607	1.50333	21.1387	1.73746	24.5411	2.16674	30.6036	0.301679	5.3035	0.652067	10.3297	1.00405	14.2089	1.10744	15.3405	1.5191	21.3725	1.94023	26.8993	1.99767	27.949
2.03542	2.53503	2.04022	2.53419	0.570028	9.49794	0.87826	11.8915	1.29856	17.6399	1.50561	20.3433	1.73794	23.5843	2.16689	29.4045	0.308337	5.15826	0.652213	10.1788	1.00546	13.6693	1.10966	14.7791	1.51942	20.5411	1.94004	25.8598	1.9998	26.8906
2.02901	2.53619	2.0338	2.53532	0.573868	9.2314	0.879237	11.5119	1.29862	16.9738	1.50795	19.6086	1.73844	22.7001	2.16705	28.296	0.315065	5.02753	0.652379	10.0198	1.00687	13.1706	1.112	14.2608	1.51976	19.7724	1.93989	24.8978	2.00198	25.9121
2.02261	2.53737	2.02739	2.53648	0.578392	8.94162	0.880109	11.208	1.2987	16.3564	1.51037	18.9281	1.73896	21.8806	2.16722	27.2683	0.32185	4.90921	0.652616	9.81175	1.0083	12.7084	1.11444	13.7809	1.52011	19.0597	1.93975	24.0049	2.0042	25.0048
2.01623	2.53858	2.021	2.53767	0.583606	8.63606	0.880858	10.9693	1.29879	15.7826	1.51285	18.296	1.73951	21.1189	2.16739	26.3128	0.328683	4.80159	0.652937	9.56116	1.00972	12.2788	1.11698	13.3354	1.52048	18.3971	1.93963	23.1739	2.00648	24.1613
2.00987	2.53981	2.01462	2.53889	0.588839	8.35585	0.881469	10.7882	1.2989	15.248	1.51539	17.7073	1.74009	20.4091	2.16757	25.4223	0.335554	4.70323	0.653356	9.27546	1.01115	11.8783	1.11964	12.921	1.52086	17.7796	1.93954	22.3988	2.00881	23.3752
2.00352	2.54107	2.00826	2.54013	0.594086	8.09793	0.881929	10.659	1.29903	14.7487	1.518	17.1578	1.74069	19.7463	2.16776	24.5904	0.342454	4.61293	0.653895	8.9624	1.0124	11.5509	1.12241	12.5345	1.52127	17.2026	1.93947	21.6739	2.01119	22.6408
1.99718	2.54236	2.00191	2.5414	0.599343	7.8597	0.882228	10.5781	1.29918	14.2814	1.52066	16.6438	1.74132	19.1259	2.16796	23.8113	0.349375	4.52968	0.654579	8.62966	1.01346	11.2863	1.12528	12.1733	1.52169	16.6624	1.93942	20.9948	2.01362	21.9533
1.99086	2.54368	1.99558	2.54269	0.604604	7.63894	0.882665	10.4641	1.29934	13.8431	1.52338	16.162	1.74197	18.5439	2.16817	23.0804	0.35631	4.45261	0.655338	8.32231	1.01433	11.0769	1.12825	11.8352	1.52213	16.1555	1.93939	20.357	2.01609	21.3083
1.98455	2.54503	1.98926	2.54402	0.609866	7.43375	0.883148	10.3432	1.29953	13.4312	1.52616	15.7094	1.74266	17.9971	2.16839	22.3932	0.363252	4.381	0.656177	8.03771	1.01502	10.917	1.13093	11.5577	1.52259	15.6791	1.93939	19.7571	2.01861	20.7021
1.97825	2.54639	1.98296	2.54537	0.615124	7.2425	0.883821	10.1835	1.29974	13.0434	1.52899	15.2835	1.74337	17.4822	2.16861	21.746	0.370193	4.31421	0.657099	7.77359	1.01553	10.8024	1.13328	11.3328	1.52307	15.2304	1.9394	19.1918	2.02118	20.1313
1.97193	2.54775	1.97666	2.54674	0.620375	7.06375	0.884697	9.98909	1.29997	12.6778	1.53187	14.882	1.74411	16.9967	2.16885	21.1353	0.377127	4.2517	0.658111	7.52797	1.01586	10.7304	1.13526	11.1544	1.52358	14.8071	1.93944	18.6581	2.0238	19.5929
1.9649	2.54818	1.97031	2.54805	0.625613	6.89627	0.885795	9.7646	1.30023	12.3324	1.53481	14.5029	1.74489	16.538	2.1691	20.5582	0.384047	4.19299	0.659218	7.29912	1.01632	10.6286	1.13685	11.018	1.5241	14.4072	1.93949	18.1535	2.02647	19.0843
1.95718	2.54773	1.96296	2.54808	0.630835	6.73897	0.887139	9.51503	1.30051	12.0057	1.53778	14.1445	1.74569	16.1042	2.16935	20.012	0.390949	4.13768	0.660423	7.08554	1.01683	10.5203	1.13804	10.9201	1.52464	14.0288	1.93957	17.6756	2.02918	18.6031
1.94943	2.54723	1.95522	2.5476	0.636037	6.59088	0.888757	9.24556	1.30078	11.7351	1.54081	13.805	1.74653	15.6932	2.16962	19.4943	0.397826	4.08539	0.661733	6.88591	1.01752	10.3766	1.1388	10.8586	1.52521	13.6702	1.93967	17.2226	2.03194	18.1471
1.94168	2.54673	1.94747	2.54711	0.641215	6.45118	0.890459	8.99268	1.30102	11.5141	1.54387	13.483	1.7474	15.3033	2.16989	19.0029	0.404672	4.03582	0.663152	6.69904	1.01839	10.2006	1.13991	10.7716	1.5258	13.3299	1.93979	16.7923	2.03474	17.7146
1.93393	2.54623	1.93972	2.5466	0.646365	6.3191	0.892248	8.755	1.30123	11.3377	1.54698	13.1773	1.74831	14.9329	2.17018	18.5359	0.411482	3.98868	0.664685	6.5239	1.01944	9.99596	1.14113	10.6789	1.52642	13.0066	1.93993	16.3833	2.03759	17.3036
1.92618	2.54572	1.93197	2.5461	0.651484	6.194	0.894126	8.53129	1.30141	11.2021	1.55012	12.8866	1.74925	14.5808	2.17048	18.0915	0.418251	3.94372	0.666337	6.35957	1.02066	9.76661	1.14281	10.5558	1.52706	12.6991	1.94009	15.994	2.04048	16.9127
1.91843	2.5452	1.92422	2.54559	0.656568	6.07526	0.896096	8.32046	1.30154	11.1045	1.5533	12.6098	1.75023	14.2455	2.17079	17.6681	0.424973	3.90072	0.668114	6.20523	1.02207	9.51665	1.14496	10.4049	1.52772	12.4062	1.94026	15.6229	2.04342	16.5405
1.91068	2.54469	1.91647	2.54507	0.661614	5.96237	0.898161	8.12151	1.30163	11.0429	1.55651	12.346	1.75125	13.9259	2.17111	17.2643	0.431644	3.85948	0.670019	6.06013	1.02347	9.27977	1.14761	10.2292	1.52841	12.1269	1.94046	15.2689	2.0464	16.1857
1.90293	2.54417	1.90872	2.54456	0.666619	5.85486	0.900322	7.93355	1.30176	10.9557	1.55976	12.0942	1.75231	13.6211	2.17144	16.8787	0.438259	3.81983	0.672059	5.9236	1.02487	9.05498	1.15078	10.0321	1.52903	11.894	1.94068	14.9308	2.04942	15.8471
1.89519	2.54365	1.90098	2.54404	0.671578	5.75229	0.902584	7.7558	1.3019	10.8624	1.56261	11.884	1.75341	13.3299	2.17178	16.5101	0.444812	3.78162	0.674238	5.79506	1.02627	8.84138	1.15451	9.81702	1.52958	11.7026	1.94092	14.6076	2.05249	15.5236
1.88744	2.54313	1.89323	2.54352	0.67649	5.65427	0.904947	7.58752	1.3021	10.7382	1.56505	11.7113	1.75455	13.0516	2.17213	16.1576	0.4513	3.74469	0.676559	5.67395	1.02766	8.63816	1.15832	9.61297	1.53004	11.5492	1.94118	14.2982	2.0556	15.2143
1.8797	2.54261	1.88549	2.543	0.681352	5.56048	0.907414	7.42806	1.30236	10.5853	1.56708	11.5726	1.75574	12.7853	2.1725	15.8199	0.457719	3.70893	0.679028	5.55979	1.02906	8.44459	1.16221	9.41917	1.53042	11.4308	1.94146	14.002	2.05875	14.9182
1.87196	2.54208	1.87775	2.54248	0.68616	5.47058	0.909988	7.27683	1.30269	10.4062	1.5687	11.4656	1.75697	12.5304	2.17288	15.4963	0.464063	3.67423	0.681648	5.45213	1.03046	8.26001	1.16618	9.23488	1.5307	11.3453	1.94175	13.7179	2.06194	14.6346
1.86422	2.54156	1.87001	2.54195	0.690913	5.38431	0.912669	7.13328	1.3031	10.2041	1.56989	11.3883	1.75825	12.286	2.17327	15.1858	0.470331	3.64048	0.684424	5.35054	1.03186	8.08383	1.17023	9.05943	1.53088	11.2914	1.94207	13.4454	2.06518	14.3627
1.85648	2.54103	1.86227	2.54142	0.695608	5.3014	0.915459	6.99691	1.3036	9.98189	1.57065	11.3394	1.75941	12.0813	2.17368	14.8877	0.476518	3.6076	0.687359	5.25466	1.03327	7.91549	1.17435	8.89223	1.53114	11.2147	1.94241	13.1838	2.06845	14.1018
1.84875	2.5405	1.85453	2.5409	0.700244	5.22162	0.918361	6.86727	1.30413	9.76959	1.57175	11.27	1.76042	11.9125	2.17409	14.6013	0.482621	3.57551	0.690455	5.16414	1.03468	7.75451	1.17855	8.73272	1.53143	11.1326	1.94276	12.9323	2.07176	13.8512
1.84102	2.53997	1.8468	2.54037	0.704818	5.14476	0.921374	6.74393	1.3047	9.56653	1.57295	11.1957	1.76128	11.7767	2.17453	14.3259	0.488638	3.54414	0.693715	5.07866	1.03611	7.60041	1.18281	8.5804	1.53183	11.0229	1.94314	12.6904	2.07511	13.6104
1.83329	2.53944	1.83906	2.53983	0.70933	5.07064	0.924499	6.62652	1.3053	9.37216	1.57458	11.0963	1.76197	11.6717	2.17497	14.0609	0.494568	3.51344	0.697141	4.99791	1.03754	7.45279	1.18713	8.4348	1.53234	10.8874	1.94353	12.4577	2.0785	13.3789
1.82556	2.5389	1.83133	2.5393	0.713779	4.99908	0.927738	6.51466	1.30593	9.18593	1.57665	10.9735	1.76249	11.5958	2.17543	13.8057	0.500408	3.48335	0.700736	4.92162	1.03899	7.31127	1.19152	8.29549	1.53298	10.7281	1.94389	12.2619	2.08193	13.156
1.81783	2.53837	1.8236	2.53877	0.718164	4.92992	0.931089	6.40804	1.3066	9.00737	1.57916	10.829	1.76283	11.5478	2.1759	13.5598	0.506159	3.45384	0.704498	4.84952	1.04044	7.17548	1.19597	8.16208	1.53375	10.5475	1.94421	12.0999	2.08539	12.9413
1.81011	2.53783	1.81588	2.53823	0.722485	4.86302	0.934554	6.30635	1.30731	8.83604	1.58211	10.665	1.76331	11.4795	2.17639	13.3227	0.511818	3.42486	0.708429	4.78138	1.04192	7.04511	1.20047	8.03421	1.53466	10.3479	1.94448	11.9692	2.08889	12.7345
1.80238	2.5373	1.80815	2.5377	0.726741	4.79825	0.938131	6.20929	1.30805	8.67153	1.58551	10.4835	1.76385	11.4063	2.17689	13.094	0.517388	3.39639	0.712528	4.71696	1.04341	6.91986	1.20502	7.91154	1.5356	10.1562	1.9447	11.8679	2.09242	12.535
1.79466	2.53676	1.80043	2.53716	0.730933	4.7355	0.941819	6.1166	1.30883	8.51345	1.58892	10.3089	1.76459	11.3083	2.17741	12.8731	0.522869	3.36841	0.716794	4.65605	1.04492	6.79945	1.20963	7.79376	1.53658	9.97189	1.94487	11.7946	2.09553	12.3669
1.78695	2.53622	1.79271	2.53662	0.735062	4.67465	0.945617	6.02803	1.30965	8.36146	1.59234	10.1407	1.76554	11.1871	2.17794	12.6598	0.528262	3.3409	0.721226	4.59844	1.04645	6.68362	1.21428	7.68059	1.5376	9.79461	1.94497	11.7481	2.0982	12.2276
1.77923	2.53568	1.785	2.53608	0.739129	4.6156	0.949524	5.94335	1.31051	8.21523	1.59576	9.97872	1.76673	11.0442	2.17842	12.4797	0.533569	3.31385	0.72582	4.54393	1.04801	6.57214	1.21897	7.57175	1.53864	9.62396	1.94513	11.682	2.10043	12.1151
1.77152	2.53514	1.77729	2.53555	0.743134	4.55828	0.953538	5.86234	1.3114	8.07446	1.59919	9.82247	1.76815	10.8817	2.17884	12.3303	0.538793	3.28724	0.730574	4.49234	1.04959	6.46478	1.22371	7.46701	1.53973	9.4596	1.9453	11.611	2.10219	12.0278
1.76382	2.5346	1.76958	2.53501	0.74708	4.5026	0.957656	5.78478	1.31234	7.93886	1.60261	9.67166	1.76985	10.7016	2.17919	12.2095	0.543938	3.26108	0.735483	4.4435	1.05119	6.36134	1.22848	7.36613	1.54085	9.30121	1.94554	11.5158	2.1035	11.9645
1.75611	2.53407	1.76187	2.53447	0.750969	4.44849	0.961876	5.7105	1.31333	7.80818	1.60603	9.52602	1.77161	10.5281	2.17947	12.1157	0.549007	3.23536	0.740544	4.39723	1.05283	6.26163	1.23329	7.2689	1.54201	9.14847	1.94584	11.3978	2.10433	11.9244
1.74841	2.53353	1.75416	2.53393	0.754802	4.39588	0.966195	5.6393	1.31435	7.68217	1.60944	9.38524	1.77343	10.3609	2.17968	12.0477	0.554004	3.21009	0.745751	4.35338	1.05449	6.16547	1.23813	7.17512	1.54321	9.00112	1.94622	11.2583	2.10554	11.8674
1.74071	2.53299	1.74646	2.53339	0.758582	4.3447	0.97061	5.57102	1.31542	7.5606	1.61285	9.24909	1.77532	10.1995	2.17981	12.0046	0.558933	3.18527	0.7511	4.3118	1.05619	6.0727	1.24301	7.0846	1.54445	8.8589	1.94668	11.0991	2.10685	11.806
1.73302	2.53245	1.73877	2.53285	0.762311	4.29491	0.975118	5.50549	1.31654	7.44327	1.61624	9.11732	1.77728	10.0439	2.18001	11.9431	0.5638	3.1609	0.756584	4.27234	1.05792	5.98316	1.24791	6.99717	1.54573	8.72155	1.94722	10.9221	2.10864	11.7238
1.72533	2.53191	1.73107	2.53231	0.765993	4.24645	0.979715	5.44257	1.3177	7.32996	1.61962	8.9897	1.7793	9.89359	2.18022	11.8771	0.568608	3.13699	0.762197	4.23487	1.05969	5.8967	1.25283	6.91267	1.54705	8.58884	1.94779	10.7509	2.11092	11.6216
1.71764	2.53138	1.72338	2.53178	0.76963	4.19928	0.984398	5.3821	1.31891	7.22051	1.62298	8.86603	1.7814	9.74846	2.18052	11.7885	0.573365	3.11354	0.767933	4.19925	1.0615	5.81319	1.25778	6.83094	1.54842	8.46057	1.94837	10.5851	2.11369	11.5008
1.70995	2.53084	1.7157	2.53124	0.773224	4.15334	0.989162	5.32395	1.32016	7.11473	1.62633	8.7461	1.78357	9.60824	2.1809	11.6784	0.578073	3.09057	0.773786	4.16537	1.06335	5.7325	1.26274	6.75184	1.54983	8.33654	1.94898	10.4246	2.11696	11.3628
1.70228	2.53031	1.70801	2.53071	0.77678	4.10861	0.994004	5.268	1.32147	7.01246	1.62965	8.62974	1.78581	9.47273	2.18137	11.548	0.582739	3.06807	0.779747	4.13311	1.06524	5.65452	1.26773	6.67525	1.55129	8.21655	1.9496	10.269	2.12075	11.2091
1.6946	2.52978	1.70034	2.53017	0.7803	4.06503	0.998919	5.21412	1.32283	6.91354	1.63295	8.51677	1.78813	9.3417	2.18193	11.3989	0.587369	3.04606	0.785811	4.10236	1.06717	5.57913	1.27272	6.60102	1.5528	8.10043	1.95025	10.1183	2.12456	11.0601
1.68693	2.52925	1.69266	2.52964	0.783787	4.02259	1.0039	5.16219	1.32424	6.81783	1.63623	8.40702	1.79053	9.21498	2.18259	11.2326	0.591967	3.02453	0.791971	4.07301	1.06915	5.50622	1.27773	6.52905	1.55436	7.98801	1.95091	9.97207	2.12839	10.9157
1.67926	2.52872	1.68499	2.52911	0.787245	3.98123	1.00895	5.11212	1.3257	6.72521	1.63948	8.30036	1.793	9.09237	2.18326	11.0713	0.596538	3.0035	0.798218	4.04497	1.07118	5.4357	1.28275	6.45923	1.55596	7.87914	1.9516	9.83023	2.13226	10.7757
1.6716	2.5282	1.67733	2.52859	0.790678	3.94094	1.01406	5.0638	1.32721	6.63553	1.64269	8.19662	1.79556	8.9737	2.18396	10.9147	0.601087	2.98296	0.804547	4.01814	1.07327	5.36748	1.28777	6.39144	1.55762	7.77367	1.9523	9.69257	2.13615	10.6398
1.66395	2.52767	1.66967	2.52806	0.794087	3.90169	1.01923	5.01713	1.32878	6.54868	1.64588	8.09569	1.7982	8.85881	2.18467	10.7627	0.60562	2.96293	0.81095	3.99244	1.0754	5.30147	1.2928	6.32559	1.55933	7.67147	1.95303	9.55891	2.14006	10.5079
1.6563	2.52716	1.66201	2.52754	0.797476	3.86343	1.02444	4.97202	1.33041	6.46454	1.64904	7.99744	1.80091	8.74755	2.18541	10.615	0.610141	2.94339	0.81742	3.96779	1.07759	5.23758	1.29784	6.2616	1.56109	7.57239	1.95378	9.42908	2.144	10.3799
1.64865	2.52664	1.65436	2.52703	0.800849	3.82616	1.02971	4.92838	1.33209	6.38301	1.65216	7.90174	1.80371	8.63977	2.18616	10.4716	0.614654	2.92436	0.82395	3.94412	1.07984	5.17575	1.30287	6.19936	1.56291	7.47632	1.95455	9.30293	2.14796	10.2554
1.64101	2.52613	1.64672	2.52651	0.804209	3.78984	1.03502	4.88614	1.33384	6.304	1.65525	7.8085	1.8066	8.53532	2.18693	10.3321	0.619164	2.90583	0.830533	3.92133	1.08215	5.11589	1.3079	6.13879	1.56479	7.38314	1.95534	9.1803	2.15194	10.1345
1.63338	2.52562	1.63908	2.526	0.807558	3.75444	1.04036	4.84522	1.33564	6.22739	1.65831	7.7176	1.80956	8.43408	2.18772	10.1965	0.623674	2.8878	0.837162	3.89938	1.08452	5.05795	1.31292	6.07983	1.56672	7.29274	1.95615	9.06106	2.15595	10.0169
1.62575	2.52512	1.63145	2.5255	0.810899	3.71995	1.04574	4.80554	1.33751	6.15311	1.66133	7.62895	1.81261	8.33592	2.18854	10.0646	0.62819	2.87026	0.843832	3.8782	1.08696	5.00185	1.31793	6.02239	1.56872	7.20502	1.95698	8.94507	2.15997	9.90249
1.61813	2.52463	1.62382	2.525	0.814236	3.68635	1.05115	4.76704	1.33944	6.08106	1.66431	7.54246	1.81575	8.24071	2.18937	9.93627	0.632713	2.85322	0.850534	3.85772	1.08947	4.94754	1.32294	5.96641	1.57078	7.11988	1.95784	8.83221	2.16401	9.79118
1.61051	2.52414	1.6162	2.5245	0.817571	3.6536	1.05659	4.72966	1.34143	6.01117	1.66725	7.45804	1.81896	8.14834	2.19022	9.81135	0.637249	2.83667	0.857263	3.83789	1.09205	4.89495	1.32793	5.91181	1.57289	7.03722	1.95871	8.72235	2.16807	9.68283
1.6029	2.52365	1.60859	2.52401	0.820906	3.62169	1.06205	4.69332	1.34349	5.94336	1.67016	7.37562	1.82226	8.05869	2.1911	9.68972	0.641799	2.82061	0.864013	3.81866	1.0947	4.84404	1.33291	5.85854	1.57508	6.95695	1.95961	8.61539	2.17215	9.57731
1.5953	2.52317	1.60098	2.52353	0.824245	3.5906	1.06752	4.65798	1.34561	5.87756	1.67303	7.29512	1.82564	7.97167	2.19199	9.57126	0.646367	2.80503	0.870776	3.79997	1.09743	4.79476	1.33788	5.80653	1.57733	6.879	1.96054	8.51121	2.17624	9.47451
1.58771	2.5227	1.59338	2.52306	0.827589	3.56031	1.07301	4.62357	1.34781	5.81369	1.67587	7.21647	1.8291	7.88716	2.19291	9.45584	0.650957	2.78993	0.877547	3.78178	1.10024	4.74705	1.34282	5.75573	1.57964	6.80328	1.96148	8.40971	2.18034	9.37433
1.58012	2.52224	1.58579	2.52259	0.830942	3.5308	1.07851	4.59005	1.35007	5.7517	1.67867	7.13961	1.83264	7.80508	2.19386	9.34337	0.65557	2.7753	0.88432	3.76405	1.10314	4.70087	1.34774	5.70609	1.58202	6.72971	1.96245	8.3108	2.18446	9.27666
1.57254	2.52179	1.57821	2.52213	0.834304	3.50204	1.08401	4.55737	1.35241	5.69152	1.68144	7.06447	1.83626	7.72532	2.19482	9.23373	0.66021	2.76113	0.891088	3.74673	1.10612	4.65619	1.35265	5.65756	1.58448	6.65822	1.96344	8.21438	2.18858	9.18141
1.56497	2.52135	1.57063	2.52168	0.83768	3.47403	1.08952	4.52549	1.35482	5.63309	1.68417	6.99099	1.83995	7.6478	2.19581	9.12683	0.664878	2.74742	0.897845	3.72978	1.10919	4.61295	1.35752	5.61008	1.587	6.58874	1.96446	8.12036	2.19272	9.08849
1.55741	2.52091	1.56306	2.52124	0.841069	3.44674	1.09502	4.49435	1.3573	5.57635	1.68687	6.91912	1.84372	7.57243	2.19682	9.02256	0.669578	2.73416	0.904586	3.71317	1.11236	4.57113	1.36237	5.56362	1.5896	6.52121	1.96549	8.02866	2.19687	8.9978
1.54986	2.52049	1.5555	2.5208	0.844475	3.42016	1.10052	4.46392	1.35986	5.52126	1.68954	6.84881	1.84757	7.49913	2.19786	8.92084	0.674311	2.72134	0.911305	3.69685	1.11562	4.53068	1.36719	5.51813	1.59227	6.45556	1.96656	7.9392	2.20102	8.90926
1.54232	2.52008	1.54795	2.52038	0.847899	3.39426	1.10601	4.43416	1.3625	5.46775	1.69218	6.78002	1.85148	7.42781	2.19892	8.82158	0.679079	2.70896	0.917996	3.68081	1.11898	4.49158	1.37198	5.47356	1.59501	6.39173	1.96765	7.85191		
1.53479	2.51968	1.54041	2.51998	0.851344	3.36904	1.11148	4.40503	1.36522	5.41579	1.69479	6.71268	1.85547	7.35841	2.2	8.7247	0.683886	2.69702	0.924653	3.66499	1.12245	4.45378	1.37674	5.42989	1.59783	6.32966	1.96876	7.76671		
1.52726	2.51929	1.53288	2.51958	0.85481	3.34448	1.11694	4.37649	1.36801	5.36532	1.69737	6.64677	1.85952	7.29084			0.688732	2.6855	0.931271	3.64939	1.12602	4.41726	1.38147	5.38708	1.60073	6.26929	1.9699	7.68352		
1.51975	2.51892	1.52536	2.5192	0.858299	3.32055	1.12238	4.34853	1.37089	5.3163	1.69993	6.58224	1.86363	7.22504			0.693621	2.67439	0.937845	3.63396	1.1297	4.38199	1.38616	5.34508	1.6037	6.21058	1.97106	7.6023		
1.51225	2.51856	1.51786	2.51883	0.861814	3.29725	1.1278	4.32109	1.37385	5.26868	1.70247	6.51905	1.86781	7.16095			0.698553	2.66371	0.94437	3.61868	1.1335	4.34793	1.39082	5.30388	1.60675	6.15346	1.97225	7.52296		
1.50476	2.51822	1.51036	2.51848	0.865354	3.27456	1.13319	4.29417	1.37689	5.22242	1.70498	6.45716	1.87205	7.09848			0.703533	2.65343	0.95084	3.60353	1.13741	4.31507	1.39544	5.26344	1.60988	6.09789	1.97347	7.44546		
1.49729	2.5179	1.50287	2.51814	0.868923	3.25246	1.13856	4.26772	1.38002	5.17748	1.70748	6.39654	1.87635	7.03759			0.708562	2.64356	0.957251	3.5885	1.14145	4.28337	1.40002	5.22373	1.61308	6.04383	1.97472	7.36973		
1.48982	2.51759	1.4954	2.51782	0.87252	3.23095	1.14389	4.24172	1.38324	5.13383	1.70996	6.33716	1.8807	6.97821			0.713643	2.63409	0.963599	3.57354	1.1456	4.2528	1.40456	5.18473	1.61637	5.99121	1.97599	7.29572		
1.48237	2.51731	1.48794	2.51752	0.876148	3.21	1.14919	4.21616	1.38654	5.09142	1.71242	6.27898	1.88511	6.92029			0.718778	2.62502	0.969879	3.55866	1.14988	4.22334	1.40907	5.1464	1.61974	5.94001	1.97729	7.22337		
1.47494	2.51704	1.48049	2.51724	0.879807	3.1896	1.15446	4.191	1.38993	5.05023	1.71487	6.22197	1.88956	6.86376			0.723972	2.61635	0.976088	3.54383	1.15429	4.19496	1.41353	5.10874	1.62318	5.89016	1.97861	7.15264		
1.46751	2.5168	1.47306	2.51698	0.883499	3.16975	1.15969	4.16623	1.3934	5.0102	1.71731	6.16611	1.89407	6.80859			0.729228	2.60808	0.982223	3.52905	1.15883	4.16764	1.41796	5.07172	1.62671	5.84164	1.97997	7.08348		
1.46011	2.51658	1.46564	2.51674	0.887225	3.15042	1.16487	4.14182	1.39697	4.97131	1.71974	6.11136	1.89862	6.75471			0.73455	2.60022	0.98828	3.51429	1.16349	4.14134	1.42234	5.03531	1.63031	5.79439	1.98136	7.01584		
1.45271	2.51638	1.45824	2.51653	0.890985	3.13161	1.17002	4.11777	1.40062	4.93353	1.72216	6.0577	1.90321	6.70208			0.739944	2.59276	0.994258	3.49955	1.16829	4.11604	1.42669	4.9995	1.63399	5.74839	1.98277	6.94967		
1.44534	2.51621	1.45085	2.51634	0.894781	3.1133	1.17512	4.09405	1.40436	4.89682	1.72458	6.00511	1.90784	6.65065			0.745414	2.58572	1.00015	3.48482	1.17322	4.09171	1.431	4.96428	1.63775	5.70358	1.98422	6.88493		
1.43798	2.51607	1.44348	2.51617	0.898614	3.09549	1.18018	4.07065	1.40819	4.86115	1.72699	5.95355	1.91251	6.60038			0.750966	2.5791	1.00597	3.4701	1.17828	4.06832	1.43526	4.92962	1.64159	5.65993	1.98569	6.82159		
1.43064	2.51596	1.43612	2.51604	0.902484	3.07815	1.18519	4.04756	1.41211	4.82649	1.7294	5.903	1.91722	6.55123			0.756609	2.57292	1.0117	3.45539	1.18347	4.04584	1.4395	4.89552	1.6455	5.6174	1.9872	6.7596		
1.42331	2.51588	1.42878	2.51593	0.906394	3.06128	1.19015	4.02475	1.41612	4.79281	1.73182	5.85345	1.92196	6.50315			0.762349	2.56719	1.01734	3.44068	1.1888	4.02424	1.44369	4.86196	1.64949	5.57595	1.98874	6.69892		
1.41601	2.51583	1.42146	2.51586	0.910342	3.04487	1.19507	4.00223	1.42022	4.76007	1.73423	5.80486	1.92673	6.4561			0.768194	2.56192	1.0229	3.42597	1.19425	4.0035	1.44785	4.82892	1.65355	5.53556	1.99031	6.63953		
1.40872	2.51581	1.41416	2.51582	0.914331	3.02891	1.19994	3.97998	1.4244	4.72825	1.73665	5.75722	1.93153	6.41005			0.774154	2.55713	1.02838	3.41126	1.19983	3.98357	1.45197	4.79641	1.65769	5.49617	1.99191	6.58138		
1.40146	2.51583	1.40688	2.51581	0.918361	3.01339	1.20476	3.958	1.42867	4.69732	1.73908	5.71051	1.93635	6.36496			0.780236	2.55283	1.03377	3.39657	1.20553	3.96443	1.45606	4.7644	1.66189	5.45777	1.99355	6.52444		
1.39421	2.51589	1.39962	2.51584	0.922433	2.99829	1.20953	3.93626	1.43302	4.66724	1.74152	5.6647	1.9412	6.32079			0.786448	2.54903	1.03909	3.38189	1.21135	3.94605	1.46012	4.73289	1.66616	5.42031	1.99522	6.46867		
1.38699	2.51599	1.39239	2.51591	0.926549	2.98362	1.21425	3.91478	1.43746	4.638	1.74396	5.61979	1.94606	6.27752			0.792794	2.54573	1.04432	3.36723	1.21729	3.92839	1.46415	4.70187	1.6705	5.38377	1.99693	6.41406		
1.37979	2.51613	1.38517	2.51602	0.930708	2.96935	1.21892	3.89354	1.44197	4.60956	1.74642	5.57574	1.95095	6.2351			0.799277	2.54293	1.04948	3.3526	1.22335	3.91142	1.46816	4.67133	1.67491	5.34811	1.99867	6.36056		
1.37261	2.51632	1.37797	2.51617	0.934912	2.95549	1.22355	3.87253	1.44657	4.58189	1.74889	5.53253	1.95585	6.19352			0.805898	2.54062	1.05457	3.33801	1.22952	3.89511	1.47213	4.64128	1.67937	5.31329	2.00045	6.30816		
1.36546	2.51655	1.3708	2.51637	0.939162	2.94202	1.22813	3.85175	1.45125	4.55497	1.75138	5.49017	1.96077	6.15273			0.812651	2.53876	1.05959	3.32346	1.23579	3.87943	1.47609	4.61169	1.6839	5.2793	2.00227	6.25682		
1.35833	2.51683	1.36366	2.51661	0.943458	2.92894	1.23265	3.8312	1.456	4.52877	1.75388	5.44862	1.9657	6.11272			0.819531	2.53732	1.06454	3.30897	1.24216	3.86434	1.48002	4.58257	1.68848	5.2461	2.00412	6.20651		
1.35123	2.51716	1.35654	2.51691	0.947802	2.91624	1.23714	3.81088	1.46083	4.50327	1.75641	5.40786	1.97064	6.07345			0.826527	2.53627	1.06942	3.29454	1.24862	3.84981	1.48394	4.55391	1.69312	5.21366	2.00601	6.15721		
1.34415	2.51754	1.34944	2.51725	0.952195	2.90391	1.24158	3.79078	1.46572	4.47843	1.75895	5.3679	1.97558	6.03489			0.833629	2.53556	1.07425	3.28018	1.25518	3.83581	1.48784	4.52571	1.69781	5.18195	2.00795	6.10891		
1.3371	2.51798	1.34237	2.51765	0.956638	2.89195	1.24597	3.77089	1.47069	4.45423	1.76152	5.3287	1.98054	5.99703			0.840826	2.53514	1.07902	3.26591	1.26181	3.82231	1.49173	4.49797	1.70256	5.15095	2.00992	6.06156		
1.33008	2.51847	1.33533	2.5181	0.961131	2.88035	1.25032	3.75123	1.47572	4.43065	1.76411	5.29025	1.98549	5.95984			0.848105	2.53498	1.08374	3.25173	1.26853	3.80928	1.49561	4.47067	1.70735	5.12064	2.01193	6.01516		
1.32309	2.51903	1.32831	2.51861	0.965678	2.86911	1.25464	3.73178	1.48081	4.40767	1.76673	5.25255	1.99045	5.92328			0.855456	2.53504	1.08842	3.23765	1.27532	3.79669	1.49948	4.44383	1.71218	5.09097	2.01398	5.96967		
1.31612	2.51965	1.32133	2.51918	0.970278	2.85821	1.25891	3.71254	1.48596	4.38525	1.76938	5.21557	1.9954	5.88735			0.862868	2.53527	1.09304	3.22368	1.28218	3.78451	1.50335	4.41743	1.71706	5.06194	2.01608	5.92508		
1.30919	2.52033	1.31437	2.51981	0.974933	2.84766	1.26314	3.69352	1.49117	4.36338	1.77206	5.1793	2.00035	5.85202			0.870334	2.53566	1.09763	3.20983	1.28909	3.77272	1.50723	4.39148	1.72197	5.03351	2.01822	5.88138		
1.30229	2.52107	1.30744	2.52051	0.979645	2.83745	1.26734	3.67472	1.49644	4.34203	1.77477	5.14373	2.0053	5.81727			0.877846	2.53617	1.10218	3.1961	1.29607	3.76129	1.5111	4.36598	1.72693	5.00566	2.0204	5.83852		
1.29541	2.52188	1.30055	2.52127	0.984416	2.82758	1.2715	3.65613	1.50175	4.32118	1.77751	5.10885	2.01024	5.78308			0.885396	2.53678	1.1067	3.18252	1.30309	3.75019	1.51498	4.34092	1.73191	4.97838	2.02263	5.79651		
1.28857	2.52277	1.29368	2.5221	0.989248	2.81805	1.27564	3.63775	1.50711	4.30081	1.78029	5.07464	2.01517	5.74942			0.892979	2.53748	1.11119	3.16907	1.31015	3.73939	1.51887	4.3163	1.73693	4.95163	2.0249	5.75532		
1.28176	2.52372	1.28684	2.523	0.994142	2.80884	1.27974	3.61959	1.51251	4.28089	1.7831	5.0411	2.02009	5.71629			0.90059	2.53825	1.11566	3.15577	1.31726	3.72888	1.52278	4.29212	1.74198	4.9254	2.02722	5.71494		
1.27498	2.52475	1.28004	2.52398	0.999101	2.79997	1.28381	3.60164	1.51795	4.26141	1.78595	5.00821	2.025	5.68365			0.908226	2.53907	1.1201	3.14262	1.32439	3.71863	1.52671	4.26839	1.74705	4.89966	2.02959	5.67534		
1.26823	2.52586	1.27327	2.52503	1.00413	2.79143	1.28785	3.58391	1.52343	4.24234	1.78884	4.97596	2.02989	5.65151			0.915882	2.53993	1.12452	3.12962	1.33155	3.70861	1.53066	4.2451	1.75214	4.8744	2.03201	5.63651		
1.26151	2.52704	1.26653	2.52615	1.00922	2.78322	1.29187	3.56639	1.52894	4.22367	1.79178	4.94434	2.03477	5.61983			0.923556	2.54083	1.12893	3.11679	1.33873	3.69881	1.53463	4.22225	1.75725	4.8496	2.03448	5.59843		
1.25483	2.5283	1.25982	2.52735	1.01439	2.77533	1.29587	3.54908	1.53449	4.20537	1.79476	4.91334	2.03963	5.5886			0.931245	2.54176	1.13332	3.10413	1.34592	3.6892	1.53864	4.19985	1.76238	4.82524	2.03699	5.5611		
1.24818	2.52964	1.25315	2.52863	1.01964	2.76778	1.29984	3.53199	1.54005	4.18743	1.79778	4.88295	2.04447	5.55782			0.938947	2.54271	1.1377	3.09164	1.35312	3.67976	1.54268	4.1779	1.76752	4.8013	2.03956	5.52449		
1.24156	2.53107	1.2465	2.53	1.02496	2.76055	1.3038	3.51511	1.54564	4.16983	1.80085	4.85316	2.04929	5.52745			0.94666	2.54367	1.14207	3.07931	1.36033	3.67048	1.54676	4.15639	1.77268	4.77776	2.04219	5.48859		
1.23497	2.53257	1.23989	2.53144	1.03036	2.75366	1.30774	3.49845	1.55125	4.15255	1.80397	4.82397	2.05408	5.4975			0.954383	2.54465	1.14644	3.06717	1.36753	3.66133	1.55089	4.13533	1.77784	4.75461	2.04486	5.45338		
1.22842	2.53417	1.23331	2.53297	1.03585	2.74709	1.31166	3.482	1.55687	4.13558	1.80714	4.79535	2.05885	5.46794			0.962115	2.54563	1.1508	3.05519	1.37472	3.6523	1.55506	4.11473	1.78301	4.73184	2.04759	5.41886		
1.2219	2.53584	1.22677	2.53458	1.04143	2.74085	1.31557	3.46576	1.5625	4.11889	1.81036	4.76731	2.0636	5.43876			0.969853	2.54662	1.15516	3.0434	1.38189	3.64336	1.55929	4.09458	1.78819	4.70942	2.05038	5.38501		
1.2154	2.5376	1.22025	2.53628	1.0471	2.73495	1.31946	3.44974	1.56814	4.10248	1.81364	4.73983	2.06832	5.40995			0.977598	2.5476	1.15952	3.03179	1.38904	3.6345	1.56357	4.07488	1.79336	4.68734	2.05322	5.35182		
1.20894	2.53945	1.21377	2.53806	1.05286	2.72937	1.32335	3.43392	1.57378	4.08632	1.81697	4.71291	2.07301	5.3815			0.985348	2.54859	1.16388	3.02036	1.39617	3.6257	1.56792	4.05565	1.79854	4.66559	2.05611	5.31927		
1.20251	2.54138	1.20732	2.53992	1.05871	2.72412	1.32723	3.41833	1.57943	4.07041	1.82035	4.68654	2.07767	5.3534			0.993102	2.54957	1.16825	3.0091	1.40326	3.61695	1.57234	4.03687	1.80371	4.64416	2.05907	5.28735		
1.19611	2.54339	1.20089	2.54188	1.06466	2.7192	1.33109	3.40294	1.58507	4.05473	1.8238	4.66071	2.0823	5.32564			1.00086	2.55055	1.17263	2.99803	1.41031	3.60822	1.57683	4.01856	1.80887	4.62303	2.06209	5.25605		
1.18973	2.54549	1.19449	2.54391	1.07071	2.71459	1.33496	3.38776	1.59071	4.03926	1.82731	4.63541	2.0869	5.29821			1.00862	2.55152	1.17701	2.98714	1.41732	3.59951	1.5814	4.00072	1.81403	4.60219	2.06516	5.22536		
1.18338	2.54768	1.18813	2.54604	1.07685	2.7103	1.33881	3.37279	1.59634	4.024	1.83088	4.61063	2.09146	5.27109			1.01639	2.55248	1.1814	2.97644	1.42427	3.5908	1.58606	3.98334	1.81918	4.58163	2.06829	5.19527		
1.17706	2.54994	1.18179	2.54824	1.0831	2.7063	1.34267	3.35803	1.60195	4.00893	1.83451	4.58637	2.096	5.24429			1.02415	2.55344	1.1858	2.96591	1.43117	3.58207	1.5908	3.96644	1.82431	4.56133	2.07149	5.16577		
1.17076	2.55229	1.17547	2.55053	1.08943	2.7026	1.34652	3.34348	1.60756	3.99403	1.83821	4.56262	2.1005	5.21779			1.03192	2.55439	1.19021	2.95556	1.438	3.5733	1.59564	3.95001	1.82943	4.54129	2.07475	5.13684		
1.16449	2.55472	1.16918	2.5529	1.09586	2.69918	1.35037	3.32914	1.61314	3.97931	1.84197	4.53938	2.10496	5.19158			1.03969	2.55532	1.19463	2.94539	1.44477	3.5645	1.60057	3.93405	1.83454	4.5215	2.07807	5.10847		
1.15823	2.55722	1.1629	2.55534	1.10238	2.69602	1.35423	3.31499	1.6187	3.96474	1.8458	4.51662	2.10939	5.16566			1.04746	2.55625	1.19907	2.9354	1.45147	3.55564	1.6056	3.91857	1.83963	4.50195	2.08145	5.08066		
1.15199	2.55979	1.15665	2.55786	1.10897	2.69311	1.35808	3.30106	1.62424	3.95032	1.8497	4.49436	2.11379	5.14002			1.05523	2.55716	1.20353	2.92559	1.45808	3.54671	1.61074	3.90356	1.8447	4.48263	2.0849	5.0534		
1.14577	2.56243	1.15042	2.56045	1.11565	2.69043	1.36194	3.28732	1.62975	3.93603	1.85367	4.47257	2.11815	5.11465			1.063	2.55807	1.20799	2.91595	1.46461	3.53771	1.616	3.88902	1.84975	4.46352	2.08841	5.02666		
1.13956	2.56514	1.1442	2.56311	1.12241	2.68797	1.3658	3.27379	1.63523	3.92188	1.85771	4.45125	2.12248	5.08956			1.07078	2.55896	1.21248	2.90648	1.47106	3.52863	1.62136	3.87496	1.85477	4.44463	2.09198	5.00045		
1.13336	2.56791	1.13799	2.56584	1.12923	2.68571	1.36967	3.26045	1.64068	3.90784	1.86183	4.4304	2.12678	5.06473			1.07855	2.55984	1.21698	2.89719	1.47741	3.51946	1.62684	3.86136	1.85978	4.42595	2.09562	4.97475		
1.12717	2.57073	1.1318	2.56862	1.13612	2.68363	1.37354	3.24732	1.6461	3.89392	1.86601	4.41	2.13104	5.04016			1.08632	2.5607	1.22151	2.88807	1.48368	3.51019	1.63244	3.84823	1.86476	4.40746	2.09932	4.94955		
1.12098	2.5736	1.12561	2.57145	1.14307	2.68171	1.37742	3.23437	1.65149	3.8801	1.87027	4.39006	2.13526	5.01584			1.09409	2.56156	1.22605	2.87911	1.48984	3.50082	1.63815	3.83556	1.86971	4.38916	2.10309	4.92485		
1.1148	2.5765	1.11942	2.57433	1.15007	2.67995	1.38131	3.22163	1.65683	3.86639	1.8746	4.37055	2.13946	4.99178			1.10186	2.5624	1.23061	2.87033	1.49591	3.49134	1.64399	3.82333	1.87464	4.37105	2.10692	4.90063		
1.1086	2.57943	1.11323	2.57724	1.15712	2.67833	1.38521	3.20907	1.66214	3.85276	1.87901	4.35147	2.14362	4.96796			1.10963	2.56322	1.23519	2.86171	1.50188	3.48177	1.64995	3.81155	1.87954	4.35312	2.11081	4.87688		
1.1024	2.58239	1.10704	2.58018	1.16421	2.67683	1.38912	3.1967	1.6674	3.83923	1.88348	4.33282	2.14775	4.94439			1.1174	2.56404	1.23979	2.85325	1.50775	3.47209	1.65603	3.8002	1.88442	4.33537	2.11477	4.85359		
1.09619	2.58535	1.10084	2.58314	1.17135	2.67545	1.39304	3.18453	1.67262	3.82577	1.88804	4.31459	2.15186	4.92107			1.12517	2.56484	1.24442	2.84495	1.51351	3.46231	1.66223	3.78927	1.88927	4.31779	2.11879	4.83075		
1.08996	2.58831	1.09462	2.5861	1.17852	2.67417	1.39697	3.17253	1.6778	3.8124	1.89266	4.29676	2.15593	4.89798			1.13293	2.56562	1.24906	2.83682	1.51918	3.45244	1.66854	3.77875	1.89408	4.30038	2.12288	4.80836		
1.0837	2.59125	1.08838	2.58905	1.18573	2.67297	1.40091	3.16073	1.68294	3.79909	1.89736	4.27933	2.15997	4.87514			1.1407	2.5664	1.25373	2.82884	1.52475	3.44247	1.67498	3.76863	1.89888	4.28313	2.12703	4.78639		
1.07742	2.59417	1.08212	2.59199	1.19297	2.67187	1.40487	3.1491	1.68803	3.78586	1.90214	4.26229	2.16399	4.85253			1.14846	2.56715	1.25842	2.82102	1.53023	3.43241	1.68152	3.75889	1.90364	4.26604	2.13124	4.76485		
1.0711	2.59704	1.07583	2.5949	1.20023	2.67084	1.40884	3.13766	1.69307	3.7727	1.90698	4.24563	2.16799	4.83016			1.15622	2.5679	1.26314	2.81335	1.53561	3.42228	1.68817	3.74952	1.90838	4.24911	2.13551	4.74372		
1.06475	2.59986	1.0695	2.59776	1.20752	2.66987	1.41282	3.12639	1.69807	3.75961	1.9119	4.22934	2.17196	4.80802			1.16398	2.56863	1.26788	2.80583	1.5409	3.41208	1.69493	3.7405	1.91309	4.23234	2.13984	4.72299		
1.05835	2.60262	1.06313	2.60057	1.21483	2.66897	1.41682	3.1153	1.70302	3.74657	1.91688	4.21341	2.17591	4.78612			1.17173	2.56934	1.27265	2.79847	1.5461	3.40181	1.70179	3.73181	1.91777	4.21572	2.14423	4.70266		
1.0519	2.60529	1.05672	2.6033	1.22217	2.66812	1.42084	3.10438	1.70792	3.7336	1.92194	4.19783	2.17984	4.76445			1.17949	2.57005	1.27744	2.79125	1.55122	3.39149	1.70874	3.72344	1.92243	4.19926	2.14867	4.6827		
1.0454	2.60788	1.05026	2.60595	1.22952	2.66733	1.42487	3.09364	1.71278	3.7207	1.92706	4.18259	2.18375	4.74302			1.18724	2.57073	1.28226	2.78418	1.55626	3.38112	1.71579	3.71538	1.92706	4.18295	2.15317	4.66312		
1.03884	2.61036	1.04375	2.60851	1.23688	2.66658	1.42892	3.08307	1.71759	3.70785	1.93225	4.16769	2.18765	4.72182			1.19499	2.5714	1.2871	2.77725	1.56122	3.37072	1.72292	3.7076	1.93167	4.1668	2.15773	4.6439		
1.03223	2.61274	1.03718	2.61097	1.24426	2.66587	1.43298	3.07266	1.72236	3.69506	1.9375	4.1531	2.19153	4.70085			1.20273	2.57206	1.29197	2.77046	1.56611	3.36029	1.73013	3.70009	1.93626	4.1508	2.16234	4.62503		
1.02556	2.61501	1.03055	2.61333	1.25166	2.6652	1.43706	3.06242	1.72708	3.68234	1.94281	4.13883	2.1954	4.68011			1.21047	2.5727	1.29686	2.76382	1.57093	3.34984	1.73742	3.69283	1.94082	4.13495	2.167	4.6065		
1.01884	2.61716	1.02387	2.61556	1.25907	2.66456	1.44116	3.05235	1.73175	3.66967	1.94819	4.12486	2.19926	4.65961			1.21821	2.57333	1.30179	2.75731	1.57569	3.33939	1.74477	3.68581	1.94537	4.11925	2.17171	4.5883		
1.01206	2.6192	1.01713	2.61769	1.26649	2.66395	1.44528	3.04243	1.73638	3.65707	1.95362	4.11118	2.20311	4.63934			1.22595	2.57394	1.30674	2.75094	1.58039	3.32894	1.7522	3.679	1.9499	4.10371	2.17647	4.57042		
1.00522	2.62112	1.01033	2.6197	1.27392	2.66337	1.44942	3.03268	1.74097	3.64453	1.9591	4.09778					1.23368	2.57454	1.31171	2.74471	1.58503	3.31851	1.75968	3.6724	1.95442	4.08833	2.18127	4.55286		
0.998326	2.62293	1.00348	2.62159	1.28135	2.66282	1.45358	3.02308	1.74552	3.63206	1.96464	4.08465					1.2414	2.57511	1.31672	2.73861	1.58962	3.30809	1.76721	3.666	1.95892	4.0731	2.18612	4.53559		
0.991382	2.62464	0.996577	2.62337	1.2888	2.66229	1.45776	3.01364	1.75002	3.61965	1.97023	4.07178					1.24912	2.57568	1.32175	2.73264	1.59417	3.29769	1.77479	3.65976	1.96341	4.05804	2.19101	4.51862		
0.984389	2.62624	0.98962	2.62505	1.29625	2.66179	1.46195	3.00435	1.75449	3.6073	1.97586	4.05916					1.25684	2.57622	1.32682	2.72681	1.59867	3.28734	1.78241	3.65369	1.9679	4.04314	2.19594	4.50194		
0.977351	2.62774	0.982616	2.62662	1.30371	2.6613	1.46617	2.99521	1.75891	3.59503	1.98154	4.04678					1.26455	2.57675	1.33191	2.7211	1.60313	3.27702	1.79007	3.64775	1.97238	4.0284	2.20091	4.48552		
0.97027	2.62914	0.975566	2.6281	1.31118	2.66083	1.47041	2.98623	1.76331	3.58282	1.98726	4.03462					1.27225	2.57725	1.33704	2.71552	1.60756	3.26675	1.79776	3.64196	1.97686	4.01383				
0.963149	2.63046	0.968475	2.62948	1.31865	2.66037	1.47467	2.97739	1.76766	3.57068	1.99301	4.02269					1.27995	2.57774	1.34219	2.71007	1.61195	3.25653	1.80547	3.63627	1.98133	3.99944				
0.955992	2.63171	0.961344	2.63079	1.32613	2.65993	1.47895	2.9687	1.77198	3.55862	1.99881	4.01096					1.28764	2.57821	1.34738	2.70474	1.61631	3.24638	1.8132	3.6307	1.98582	3.98522				
0.948801	2.63288	0.954178	2.63201	1.33361	2.65951	1.48325	2.96015	1.77627	3.54663	2.00463	3.99943					1.29532	2.57866	1.3526	2.69954	1.62065	3.23629	1.82095	3.62521	1.99031	3.97118				
0.941579	2.63398	0.946979	2.63316	1.34109	2.65909	1.48758	2.95174	1.78053	3.53472	2.01048	3.98809					1.303	2.57908	1.35785	2.69447	1.62496	3.22626	1.82871	3.61981	1.99481	3.95732				
0.934329	2.63502	0.93975	2.63424	1.34858	2.65869	1.49193	2.94347	1.78476	3.52289	2.01636	3.97693					1.31066	2.57949	1.36313	2.68952	1.62925	3.21631	1.83646	3.61447	1.99933	3.94365				
0.927053	2.636	0.932493	2.63527	1.35606	2.65829	1.4963	2.93535	1.78896	3.51113	2.02226	3.96594					1.31831	2.57986	1.36845	2.68469	1.63352	3.20644	1.84422	3.60918	2.00386	3.93018				
0.919753	2.63693	0.925211	2.63624	1.36355	2.6579	1.50069	2.92735	1.79313	3.49946	2.02817	3.95511					1.32596	2.58021	1.3738	2.67999	1.63778	3.19664	1.85196	3.60394	2.00842	3.91691				
0.912433	2.63782	0.917906	2.63716	1.37105	2.65753	1.50511	2.9195	1.79728	3.48787	2.0341	3.94443					1.33358	2.58053	1.3792	2.67541	1.64202	3.18693	1.85969	3.59873	2.01302	3.90384				
0.905092	2.63866	0.91058	2.63803	1.37854	2.65715	1.50955	2.91177	1.80141	3.47636	2.04005	3.93389					1.3412	2.58082	1.38463	2.67096	1.64626	3.17731	1.8674	3.59353	2.01764	3.89098				
0.897734	2.63947	0.903235	2.63887	1.38604	2.65679	1.51401	2.90418	1.80551	3.46494	2.046	3.92348					1.3488	2.58108	1.3901	2.66663	1.65048	3.16777	1.87508	3.58834	2.0223	3.87834				
0.89036	2.64024	0.895872	2.63966	1.39353	2.65642	1.5185	2.89672	1.8096	3.45361	2.05195	3.91319					1.35638	2.5813	1.39561	2.66243	1.65469	3.15832	1.88273	3.58314	2.02701	3.86592				
0.882971	2.64098	0.888494	2.64043	1.40102	2.65607	1.52301	2.88939	1.81367	3.44237	2.05791	3.90303					1.36394	2.58148	1.40116	2.65836	1.6589	3.14897	1.89034	3.57792	2.03177	3.85374				
0.875568	2.64169	0.881102	2.64116	1.40852	2.65571	1.52755	2.88218	1.81771	3.43121	2.06387	3.89296					1.37148	2.58161	1.40676	2.65442	1.6631	3.13971	1.8979	3.57267	2.03659	3.84179				
0.868154	2.64238	0.873696	2.64187	1.41601	2.65536	1.53212	2.8751	1.82175	3.42015	2.06982	3.883					1.37899	2.5817	1.41241	2.65061	1.6673	3.13054	1.9054	3.56738	2.04146	3.8301				
0.860728	2.64305	0.866279	2.64255	1.42351	2.65501	1.5367	2.86814	1.82576	3.40918	2.07576	3.87313					1.38647	2.58173	1.41811	2.64694	1.6715	3.12147	1.91285	3.56203	2.04641	3.81865				
0.853293	2.6437	0.858851	2.64322	1.431	2.65466	1.54132	2.86131	1.82977	3.3983	2.08169	3.86335					1.39392	2.5817	1.42387	2.64342	1.6757	3.1125	1.92023	3.55661	2.05143	3.80747				
0.845848	2.64433	0.851413	2.64386	1.43848	2.65431	1.54596	2.85459	1.83376	3.38752	2.0876	3.85364					1.40134	2.5816	1.42969	2.64004	1.6799	3.10362	1.92753	3.55112	2.05653	3.79656				
0.838395	2.64495	0.843966	2.64449	1.44597	2.65396	1.55063	2.848	1.83774	3.37683	2.0935	3.844					1.40871	2.58142	1.43557	2.63681	1.6841	3.09485	1.93476	3.54553	2.06172	3.78592				
0.830936	2.64556	0.836512	2.6451	1.45345	2.6536	1.55532	2.84152	1.84171	3.36624	2.09938	3.83442					1.41603	2.58116	1.44152	2.63375	1.6883	3.08617	1.94189	3.53985	2.067	3.77557				
0.823469	2.64615	0.82905	2.64571	1.46093	2.65325	1.56004	2.83517	1.84568	3.35574	2.10523	3.8249					1.42331	2.58081	1.44754	2.63085	1.69251	3.07759	1.94893	3.53405	2.07239	3.76551				
0.815996	2.64674	0.821581	2.6463	1.46841	2.65289	1.56479	2.82892	1.84963	3.34534	2.11105	3.81543					1.43052	2.58036	1.45365	2.62813	1.69672	3.06911	1.95588	3.52813	2.07788	3.75575				
0.808518	2.64732	0.814107	2.64689	1.47588	2.65252	1.56956	2.8228	1.85358	3.33504	2.11684	3.80601					1.43767	2.57979	1.45984	2.62559	1.70094	3.06073	1.96271	3.52208	2.08348	3.74629				
0.801035	2.6479	0.806628	2.64747	1.48335	2.65216	1.57437	2.81679	1.85753	3.32484	2.12261	3.79662					1.44475	2.57911	1.46612	2.62324	1.70517	3.05245	1.96944	3.5159	2.0892	3.73714				
0.793548	2.64847	0.799144	2.64804	1.49081	2.65178	1.5792	2.81089	1.86147	3.31473	2.12833	3.78727					1.45176	2.5783	1.4725	2.62109	1.70941	3.04427	1.97604	3.50958	2.09504	3.7283				
0.786057	2.64904	0.791656	2.64862	1.49826	2.6514	1.58407	2.80511	1.86541	3.30472	2.13402	3.77795					1.45869	2.57737	1.47897	2.61913	1.71365	3.03619	1.98253	3.50311	2.10101	3.71977				
0.778564	2.64962	0.784164	2.64919	1.50571	2.65101	1.58896	2.79943	1.86934	3.29481	2.13967	3.76865					1.46554	2.57632	1.48555	2.61738	1.7179	3.0282	1.9889	3.49649	2.10711	3.71156				
0.771067	2.65019	0.77667	2.64976	1.51315	2.65061	1.59389	2.79387	1.87328	3.285	2.14528	3.75938					1.47232	2.57513	1.49223	2.61581	1.72217	3.02032	1.99515	3.48972	2.11333	3.70365				
0.763569	2.65077	0.769173	2.65034	1.52058	2.65019	1.59884	2.78842	1.87721	3.27528	2.15085	3.75012					1.47902	2.57384	1.49901	2.61444	1.72644	3.01253	2.00126	3.4828	2.11969	3.69606				
0.756068	2.65136	0.761674	2.65092	1.528	2.64977	1.60383	2.78309	1.88115	3.26566	2.15637	3.74088					1.48565	2.57243	1.50588	2.61324	1.73072	3.00484	2.00726	3.47574	2.12618	3.68877				
0.748567	2.65195	0.754173	2.65151	1.53541	2.64933	1.60885	2.77786	1.88508	3.25614	2.16184	3.73165					1.49222	2.57093	1.51284	2.61221	1.73502	2.99725	2.01313	3.46853	2.1328	3.68177				
0.741064	2.65256	0.746672	2.6521	1.54281	2.64888	1.61391	2.77274	1.88902	3.24672	2.16726	3.72243					1.49874	2.56935	1.51989	2.61134	1.73933	2.98975	2.01888	3.46119	2.13954	3.67507				
0.733562	2.65317	0.739169	2.65271	1.55019	2.64841	1.619	2.76774	1.89296	3.2374	2.17264	3.71321					1.5052	2.56771	1.52701	2.6106	1.74365	2.98235	2.02451	3.45372	2.14642	3.66865				
0.726059	2.6538	0.731666	2.65333	1.55757	2.64792	1.62413	2.76284	1.8969	3.22818	2.17796	3.704					1.51163	2.56601	1.5342	2.60998	1.74798	2.97505	2.03003	3.44612	2.15341	3.6625				
0.718557	2.65444	0.724164	2.65396	1.56493	2.64741	1.6293	2.75806	1.90085	3.21905	2.18324	3.6948					1.51802	2.56427	1.54145	2.60948	1.75233	2.96784	2.03543	3.43841	2.16052	3.65661				
0.711056	2.6551	0.716662	2.65461	1.57227	2.64688	1.6345	2.75339	1.9048	3.21001	2.18846	3.6856					1.52439	2.5625	1.54875	2.60906	1.75669	2.96072	2.04073	3.4306	2.16775	3.65096				
0.703557	2.65578	0.709161	2.65527	1.57959	2.64632	1.63975	2.74883	1.90876	3.20108	2.19363	3.6764					1.53074	2.56072	1.5561	2.60873	1.76107	2.95369	2.04592	3.42269	2.17508	3.64556				
0.696059	2.65648	0.701662	2.65596	1.58689	2.64573	1.64504	2.74439	1.91272	3.19224	2.19875	3.6672					1.53707	2.55893	1.56349	2.60846	1.76546	2.94676	2.05102	3.4147	2.18252	3.64037				
0.688564	2.65721	0.694166	2.65667	1.59417	2.64512	1.65037	2.74006	1.91669	3.1835	2.20382	3.658					1.54339	2.55714	1.57091	2.60826	1.76986	2.93992	2.05603	3.40663	2.19005	3.63539				
0.681072	2.65797	0.686671	2.6574	1.60143	2.64446	1.65575	2.73585	1.92066	3.17485							1.54971	2.55536	1.57836	2.60811	1.77428	2.93317	2.06095	3.3985	2.19767	3.63061				
0.673584	2.65876	0.67918	2.65817	1.60866	2.64378	1.66117	2.73176	1.92465	3.16629							1.55602	2.5536	1.58584	2.60801	1.77872	2.92651	2.0658	3.39031	2.20538	3.62602				
0.6661	2.65958	0.671693	2.65896	1.61586	2.64305	1.66665	2.72779	1.92864	3.15783							1.56234	2.55185	1.59335	2.60794	1.78317	2.91994	2.07057	3.38209						
0.658621	2.66045	0.66421	2.6598	1.62303	2.64228	1.67218	2.72395	1.93264	3.14947							1.56866	2.55013	1.60087	2.6079	1.78764	2.91346	2.07526	3.37382						
0.651148	2.66136	0.656733	2.66067	1.63017	2.64146	1.67776	2.72023	1.93665	3.14119							1.57499	2.54843	1.60841	2.6079	1.79212	2.90706	2.0799	3.36553						
0.643682	2.66231	0.649261	2.66159	1.63727	2.64059	1.6834	2.71663	1.94066	3.13301							1.58133	2.54677	1.61596	2.60791	1.79663	2.90075	2.08448	3.35722						
0.636223	2.66333	0.641797	2.66256	1.64433	2.63967	1.68911	2.71317	1.94469	3.12492							1.58767	2.54513	1.62353	2.60795	1.80114	2.89453	2.089	3.34891						
0.628773	2.6644	0.63434	2.66359	1.65135	2.63868	1.69487	2.70984	1.94873	3.11692							1.59403	2.54353	1.6311	2.608	1.80568	2.88839	2.09347	3.34059						
0.621332	2.66554	0.626892	2.66468	1.65833	2.63764	1.70071	2.70665	1.95278	3.10901							1.6004	2.54197	1.63869	2.60807	1.81023	2.88234	2.0979	3.33227						
0.613902	2.66676	0.619454	2.66584	1.66526	2.63652	1.70661	2.7036	1.95683	3.10119							1.60679	2.54044	1.64629	2.60816	1.8148	2.87636	2.10228	3.32396						
0.606485	2.66806	0.612027	2.66708	1.67213	2.63534	1.71258	2.70068	1.9609	3.09346							1.61319	2.53895	1.65389	2.60825	1.81939	2.87048	2.10663	3.31567						
0.599082	2.66946	0.604613	2.66841	1.67896	2.63409	1.71863	2.69791	1.96498	3.08581							1.61961	2.5375	1.6615	2.60835	1.82399	2.86467	2.11094	3.3074						
0.591694	2.67097	0.597214	2.66983	1.68573	2.63276	1.72475	2.69528	1.96908	3.07826							1.62604	2.53608	1.66911	2.60846	1.82862	2.85894	2.11522	3.29916						
0.584325	2.6726	0.589831	2.67137	1.69244	2.63136	1.73095	2.6928	1.97318	3.07079							1.63249	2.53471	1.67673	2.60857	1.83326	2.85329	2.11948	3.29095						
0.576976	2.67437	0.582466	2.67303	1.6991	2.62989	1.73722	2.69046	1.9773	3.06341							1.63896	2.53338	1.68435	2.60869	1.83792	2.84773	2.1237	3.28277						
0.56965	2.67629	0.575123	2.67484	1.7057	2.62834	1.74357	2.68825	1.98143	3.05611							1.64545	2.53208	1.69198	2.60882	1.84259	2.84224	2.12791	3.27462						
0.562351	2.6784	0.567804	2.6768	1.71224	2.62672	1.75	2.68619	1.98557	3.0489							1.65195	2.53083	1.69961	2.60895	1.84729	2.83682	2.13209	3.26652						
0.555082	2.6807	0.560512	2.67896	1.71874	2.62503	1.75651	2.68426	1.98972	3.04177							1.65848	2.52961	1.70724	2.60907	1.85201	2.83149	2.13626	3.25847						
0.547847	2.68325	0.553251	2.68132	1.72517	2.62327	1.76309	2.68245	1.99389	3.03472							1.66502	2.52844	1.71487	2.60921	1.85674	2.82623	2.14041	3.25046						
0.540652	2.68606	0.546026	2.68393	1.73156	2.62145	1.76974	2.68077	1.99807	3.02776							1.67158	2.5273	1.72251	2.60934	1.86149	2.82104	2.14455	3.2425						
0.533503	2.68919	0.538842	2.68682	1.7379	2.61958	1.77646	2.67921	2.00227	3.02087							1.67816	2.5262	1.73014	2.60947	1.86627	2.81593	2.14867	3.23459						
0.526406	2.69267	0.531705	2.69003	1.74419	2.61765	1.78324	2.67776	2.00648	3.01407							1.68476	2.52514	1.73778	2.6096	1.87106	2.81089	2.15279	3.22673						
0.519369	2.69657	0.524622	2.69361	1.75045	2.61569	1.79009	2.67642	2.0107	3.00735							1.69138	2.52412	1.74541	2.60973	1.87587	2.80593	2.15689	3.21893						
0.512402	2.70096	0.517602	2.69763	1.75667	2.61368	1.79699	2.67517	2.01494	3.00071							1.69802	2.52314	1.75304	2.60986	1.8807	2.80104	2.16099	3.21118						
0.505516	2.70592	0.510655	2.70216	1.76285	2.61164	1.80395	2.67401	2.01919	2.99414							1.70468	2.52219	1.76068	2.60998	1.88555	2.79622	2.16508	3.2035						
0.498723	2.71154	0.503791	2.70728	1.76901	2.60958	1.81096	2.67294	2.02346	2.98765							1.71136	2.52128	1.76831	2.61011	1.89042	2.79146	2.16917	3.19587						
0.492036	2.71793	0.497023	2.71308	1.77514	2.6075	1.81801	2.67194	2.02774	2.98124							1.71805	2.52041	1.77594	2.61023	1.89531	2.78678	2.17325	3.1883						
0.485472	2.72521	0.490366	2.71968	1.78125	2.6054	1.8251	2.67101	2.03204	2.97491							1.72477	2.51957	1.78357	2.61034	1.90022	2.78217	2.17734	3.18079						
0.479047	2.73353	0.483835	2.72721	1.78734	2.60329	1.83224	2.67015	2.03635	2.96865							1.7315	2.51876	1.7912	2.61046	1.90516	2.77763	2.18142	3.17334						
0.47278	2.74305	0.477449	2.73582	1.79341	2.60118	1.8394	2.66934	2.04068	2.96247							1.73826	2.518	1.79883	2.61057	1.91011	2.77316	2.1855	3.16595						
0.466689	2.75392	0.471224	2.74566	1.79947	2.59907	1.8466	2.66859	2.04502	2.95636							1.74503	2.51726	1.80645	2.61067	1.91508	2.76875	2.18958	3.15863						
0.460792	2.76634	0.46518	2.7569	1.80552	2.59696	1.85383	2.66789	2.04938	2.95032							1.75182	2.51656	1.81407	2.61077	1.92008	2.76441	2.19366	3.15137						
0.455104	2.78047	0.459334	2.76974	1.81157	2.59486	1.86109	2.66723	2.05375	2.94436							1.75864	2.51589	1.82169	2.61087	1.92509	2.76014	2.19774	3.14417						
0.449641	2.79652	0.453702	2.78434	1.81761	2.59277	1.86837	2.66661	2.05814	2.93847							1.76546	2.51525	1.82931	2.61096	1.93013	2.75593	2.20183	3.13703						
0.444413	2.81463	0.448298	2.80089	1.82364	2.59069	1.87568	2.66603	2.06255	2.93265							1.77231	2.51464	1.83692	2.61104	1.93519	2.75179								
0.439427	2.83499	0.44313	2.81956	1.82968	2.58863	1.883	2.66548	2.06697	2.9269							1.77918	2.51407	1.84453	2.61112	1.94027	2.74771								
0.434687	2.85774	0.438206	2.84051	1.83571	2.58658	1.89034	2.66496	2.07141	2.92121							1.78606	2.51352	1.85213	2.61119	1.94537	2.7437								
0.430192	2.88301	0.433528	2.86388	1.84175	2.58455	1.8977	2.66447	2.07586	2.9156							1.79296	2.513	1.85973	2.61125	1.9505	2.73975								
0.425941	2.91095	0.429096	2.88981	1.84779	2.58255	1.90507	2.664	2.08033	2.91006							1.79988	2.51251	1.86732	2.61131	1.95565	2.73587								
0.421929	2.94168	0.424905	2.91844	1.85384	2.58057	1.91246	2.66356	2.08482	2.90458							1.80682	2.51205	1.8749	2.61135	1.96082	2.73205								
0.41815	2.97534	0.420953	2.9499	1.85989	2.57861	1.91986	2.66314	2.08932	2.89917							1.81377	2.51162	1.88248	2.61139	1.96602	2.7283								
0.4146	3.01206	0.417232	2.98432	1.86595	2.57668	1.92727	2.66273	2.09384	2.89383							1.82074	2.51121	1.89006	2.61142	1.97124	2.7246								
0.411271	3.05202	0.413738	3.02185	1.87202	2.57477	1.93469	2.66235	2.09838	2.88856							1.82773	2.51083	1.89762	2.61144	1.97648	2.72098								
0.408159	3.09536	0.410464	3.06264	1.87809	2.57289	1.94213	2.66198	2.10293	2.88334							1.83473	2.51048	1.90518	2.61145	1.98175	2.71741								
0.405258	3.14229	0.407406	3.10687	1.88417	2.57103	1.94957	2.66162	2.10751	2.8782							1.84175	2.51015	1.91273	2.61144	1.98705	2.71391								
0.402564	3.19302	0.404558	3.15474	1.89027	2.56921	1.95701	2.66128	2.11209	2.87311							1.84879	2.50984	1.92027	2.61142	1.99237	2.71047								
0.400074	3.24778	0.401916	3.20646	1.89637	2.56741	1.96447	2.66095	2.1167	2.86809							1.85584	2.50956	1.9278	2.61139	1.99772	2.70709								
0.397784	3.30684	0.399477	3.26228	1.90249	2.56565	1.97193	2.66064	2.12132	2.86313							1.8629	2.5093	1.93532	2.61135	2.0031	2.70378								
0.395692	3.37049	0.397237	3.32247	1.90862	2.56391	1.97939	2.66033	2.12596	2.85824							1.86998	2.50906	1.94283	2.61129	2.0085	2.70054								
0.393795	3.43906	0.395194	3.38733	1.91475	2.5622	1.98687	2.66003	2.13062	2.8534							1.87708	2.50885	1.95033	2.61121	2.01394	2.69735								
0.39209	3.51291	0.393346	3.4572	1.92091	2.56052	1.99434	2.65974	2.13529	2.84863							1.88419	2.50865	1.95781	2.61112	2.0194	2.69424								
0.390578	3.59246	0.39169	3.53245	1.92707	2.55887	2.00182	2.65945	2.13999	2.84392							1.89132	2.50848	1.96528	2.611	2.0249	2.69119								
0.389255	3.67814	0.390226	3.61351	1.93325	2.55725	2.0093	2.65918	2.1447	2.83926							1.89846	2.50833	1.97273	2.61087	2.03043	2.6882								
0.38812	3.77048	0.38895	3.70082	1.93944	2.55566	2.01679	2.6589	2.14943	2.83467							1.90561	2.50819	1.98016	2.61071	2.036	2.68529								
0.387173	3.87002	0.387863	3.79492	1.94564	2.5541	2.02428	2.65864	2.15417	2.83013							1.91277	2.50808	1.98757	2.61053	2.0416	2.68244								
0.38641	3.97739	0.386963	3.89638	1.95186	2.55258	2.03177	2.65838	2.15894	2.82566							1.91995	2.50798	1.99497	2.61032	2.04723	2.67966								
0.385832	4.09331	0.386247	4.00584	1.9581	2.55108	2.03926	2.65812	2.16372	2.82124							1.92715	2.5079	2.00234	2.61009	2.05291	2.67696								
0.385436	4.21856	0.385715	4.12404	1.96437	2.54964	2.04676	2.65787	2.16852	2.81687							1.93435	2.50783	2.00968	2.60982	2.05863	2.67433								
0.385221	4.35404	0.385365	4.25178	1.97107	2.54877	2.05425	2.65762	2.17334	2.81257							1.94157	2.50779	2.017	2.60952	2.06439	2.67177								
0.385184	4.50077	0.385195	4.39001	1.97875	2.54917	2.06174	2.65737	2.17818	2.80832							1.9488	2.50776	2.02429	2.60919	2.07019	2.66929								
0.385324	4.6599	0.385203	4.53975	1.9865	2.54966	2.06924	2.65712	2.18304	2.80412							1.95604	2.50774	2.03155	2.60882	2.07605	2.66689								
0.385638	4.83274	0.385387	4.70221	1.99426	2.55014	2.07673	2.65688	2.18792	2.79999							1.9633	2.50774	2.03877	2.60841	2.08195	2.66458								
0.386051	4.99573	0.385744	4.87875	2.00202	2.55063	2.08423	2.65664	2.19282	2.79591							1.97056	2.50776	2.04596	2.60795	2.0879	2.66234								
0.386505	5.14465	0.386273	5.07095	2.00978	2.55112	2.09172	2.65639	2.19773	2.79188							1.97784	2.50779	2.05311	2.60745	2.09391	2.66019								
0.38695	5.27534	0.386969	5.2806	2.01754	2.5516	2.09921	2.65615	2.20267	2.78791							1.98513	2.50783	2.06022	2.6069	2.09998	2.65813								
0.387346	5.38385	0.387829	5.50982	2.0253	2.55208	2.1067	2.6559									1.99243	2.50789	2.06728	2.6063	2.1061	2.65616								
0.387661	5.46673	0.388851	5.76108	2.03307	2.55256	2.11419	2.65566									1.99973	2.50796	2.0743	2.60565	2.11229	2.65428								
0.38797	5.5454	0.39003	6.03726	2.04083	2.55304	2.12167	2.65541									2.00705	2.50804	2.08127	2.60494	2.11854	2.65249								
0.388195	5.60155	0.39136	6.3418	2.0486	2.55351	2.12915	2.65516									2.01438	2.50813	2.08819	2.60417	2.12486	2.6508								
0.388563	5.6917	0.392839	6.6788	2.05636	2.55399	2.13663	2.65491									2.02172	2.50824	2.09506	2.60335	2.13124	2.6492								
0.389096	5.81926	0.39446	7.0532	2.06413	2.55445	2.1441	2.65465									2.02907	2.50835	2.10188	2.60247	2.13769	2.6477								
0.389822	5.98929	0.396217	7.47102	2.0719	2.55492	2.15157	2.6544									2.03643	2.50848	2.10864	2.60152	2.14421	2.64629								
0.390778	6.20894	0.398104	7.93962	2.07966	2.55538	2.15903	2.65413									2.0438	2.50862	2.11535	2.60053	2.1508	2.64498								
0.392004	6.48828	0.399847	8.39648	2.08743	2.55585	2.16649	2.65386									2.05117	2.50876	2.12201	2.59947	2.15745	2.64376								
0.393547	6.84134	0.401403	8.82745	2.0952	2.5563	2.17394	2.65358									2.05856	2.50892	2.12863	2.59836	2.16416	2.64262								
0.39523	7.23435	0.402734	9.21687	2.10297	2.55676	2.18138	2.6533									2.06595	2.50908	2.13519	2.5972	2.17095	2.64157								
0.397045	7.67388	0.403814	9.5486	2.11074	2.55721	2.18882	2.65301									2.07335	2.50926	2.14171	2.596	2.17779	2.6406								
0.398988	8.16804	0.404623	9.80728	2.11851	2.55766	2.19624	2.65271									2.08076	2.50944	2.14818	2.59475	2.18469	2.63971								
0.401048	8.72699	0.405377	10.0572	2.12628	2.55811	2.20366	2.6524									2.08818	2.50963	2.15462	2.59346	2.19164	2.63889								
0.403218	9.36356	0.405907	10.2383	2.13405	2.55855											2.09561	2.50983	2.16101	2.59214	2.19865	2.63814								
0.405487	10.0943	0.406745	10.5339	2.14182	2.55899											2.10304	2.51004	2.16738	2.59078	2.2057	2.63745								
0.407842	10.9407	0.4079	10.9627	2.14958	2.55943											2.11048	2.51026	2.17371	2.5894										
0.41027	11.9316	0.409384	11.5544	2.15735	2.55987											2.11793	2.51048	2.18002	2.588										
0.412754	13.1064	0.411211	12.3552	2.16512	2.5603											2.12538	2.51071	2.18631	2.58658										
0.415272	14.52	0.413388	13.4383	2.17289	2.56073											2.13285	2.51094	2.19257	2.58515										
0.417801	16.252	0.415911	14.9236	2.18066	2.56115											2.14031	2.51118	2.19882	2.5837										
0.420309	18.4224	0.418438	16.753	2.18843	2.56158											2.14779	2.51143	2.20505	2.58225										
0.422757	21.2199	0.420935	19.0603	2.1962	2.562											2.15527	2.51168												
0.425098	24.9614	0.423361	22.0593	2.20397	2.56241											2.16276	2.51194												
0.427273	30.2222	0.425665	26.1153													2.17025	2.5122												
0.429211	38.1682	0.427788	31.9078													2.17775	2.51247												
0.430833	51.5797	0.429654	40.8629													2.18525	2.51275												
0.432053	79.1265	0.431182	56.5704													2.19276	2.51302												
0.432797	168.547	0.432289	91.4012													2.20028	2.5133												
		0.432902	235.644																										
