Sym0		Sym1		Sym2		Sym3		Sym4		Sym5		Sym6		Sym7		Asym1		Asym2		Asym3		Asym4		Asym5		Asym6		Asym7	
303  Points		303  Points		312  Points		294  Points		288  Points		224  Points		183  Points		115  Points		310  Points		307  Points		295  Points		263  Points		219  Points		183  Points		113  Points	
Freq (MHz)	Vph (m/ms)	Freq (MHz)	Vph (m/ms)	Freq (MHz)	Vph (m/ms)	Freq (MHz)	Vph (m/ms)	Freq (MHz)	Vph (m/ms)	Freq (MHz)	Vph (m/ms)	Freq (MHz)	Vph (m/ms)	Freq (MHz)	Vph (m/ms)	Freq (MHz)	Vph (m/ms)	Freq (MHz)	Vph (m/ms)	Freq (MHz)	Vph (m/ms)	Freq (MHz)	Vph (m/ms)	Freq (MHz)	Vph (m/ms)	Freq (MHz)	Vph (m/ms)	Freq (MHz)	Vph (m/ms)
2.201	2.56388	2.20143	2.56391	0.453235	246.219	0.866029	424.234	1.29904	1843.62	1.35844	3780.41	1.73205	1473.79	2.16506	5684.2	0.216683	99.387	0.649519	4474.76	0.905646	619.956	1.08254	924.16	1.51554	7810.87	1.81126	2545.28	1.94856	1481.51
2.19324	2.56349	2.19367	2.56351	0.455357	96.2038	0.866048	175.531	1.29899	361.122	1.35855	417.783	1.73206	425.807	2.16506	661.416	0.21746	42.8689	0.6495	213.818	0.905794	208.071	1.08257	266.391	1.51554	491.023	1.81131	502.571	1.94858	463.095
2.18548	2.56308	2.18591	2.5631	0.458639	60.1436	0.866082	110.662	1.29888	200.149	1.35883	221.154	1.73207	248.855	2.16504	351.135	0.218842	27.4749	0.649447	109.517	0.906089	125.051	1.08265	155.635	1.51554	253.479	1.81144	278.83	1.94861	274.445
2.17772	2.56267	2.17814	2.56269	0.462557	43.9768	0.866132	80.8048	1.2987	138.424	1.35928	150.417	1.7321	175.8	2.16501	239.008	0.220805	20.3365	0.64936	73.6021	0.906529	89.4167	1.08276	109.938	1.51554	170.834	1.81164	192.953	1.94866	195.009
2.16995	2.56224	2.17037	2.56227	0.466844	34.8114	0.866198	63.6382	1.29847	105.786	1.3599	113.997	1.73213	135.905	2.16497	181.157	0.22332	16.2413	0.649241	55.4194	0.907112	69.6134	1.08292	84.9928	1.51554	128.829	1.81191	147.532	1.94873	151.239
2.16218	2.56182	2.1626	2.56184	0.471366	28.9126	0.866282	52.4899	1.29819	85.5929	1.36068	91.8033	1.73216	110.769	2.16492	145.852	0.226348	13.6005	0.649091	44.4354	0.907837	57.0135	1.08311	69.2804	1.51554	103.405	1.81225	119.432	1.94882	123.518
2.1544	2.56138	2.15483	2.56141	0.476054	24.8001	0.866383	44.6676	1.29785	71.8654	1.36162	76.8661	1.73221	93.481	2.16486	122.062	0.229374	11.9695	0.648914	37.0808	0.908701	48.2949	1.08335	58.4765	1.51554	86.3609	1.81267	100.333	1.94893	104.388
2.14662	2.56094	2.14705	2.56097	0.480869	21.7705	0.866502	38.8763	1.29747	61.9261	1.36271	66.1296	1.73226	80.8618	2.1648	104.943	0.232216	10.8961	0.648711	31.8113	0.909701	41.906	1.08363	50.5926	1.51553	74.1406	1.81315	86.5099	1.94905	90.3907
2.13884	2.5605	2.13927	2.56052	0.485786	19.4465	0.866641	34.4162	1.29705	54.3966	1.36395	58.0424	1.73233	71.2452	2.16472	92.0347	0.234736	10.1667	0.648487	27.85	0.910833	37.0248	1.08395	44.5865	1.51553	64.95	1.81371	76.0421	1.9492	79.7054
2.13106	2.56005	2.13149	2.56007	0.490787	17.608	0.866801	30.8759	1.29661	48.495	1.36532	51.7332	1.7324	63.6736	2.16463	81.9528	0.23683	9.66908	0.648244	24.7635	0.912092	33.1753	1.08432	39.8593	1.51553	57.7867	1.81434	67.8412	1.94936	71.2812
2.12328	2.55959	2.1237	2.55961	0.495862	16.1175	0.866982	27.9978	1.29613	43.7448	1.36683	46.6749	1.73248	57.5575	2.16454	73.8609	0.238424	9.34024	0.647986	22.2906	0.913476	30.0628	1.08473	36.0422	1.51553	52.0465	1.81503	61.2434	1.94955	64.4691
2.11549	2.55913	2.11592	2.55915	0.501001	14.885	0.867187	25.612	1.29563	39.8389	1.36847	42.53	1.73257	52.514	2.16444	67.2225	0.239468	9.14429	0.647719	20.2651	0.914978	27.495	1.08519	32.896	1.51553	47.3437	1.8158	55.8211	1.94975	58.8471
2.10771	2.55866	2.10813	2.55869	0.506195	13.8492	0.867417	23.6025	1.29512	36.5706	1.37022	39.0722	1.73266	48.2839	2.16433	61.6784	0.240999	8.88047	0.647446	18.5755	0.916594	25.3409	1.0857	30.2583	1.51553	43.4203	1.81663	51.2863	1.94997	54.1284
2.09992	2.55819	2.10034	2.55821	0.511439	12.9666	0.867673	21.8869	1.2946	33.7955	1.3721	36.1445	1.73277	44.6851	2.16422	56.9785	0.242703	8.61531	0.647173	17.1449	0.918318	23.5087	1.08626	28.0155	1.51553	40.0976	1.81752	47.4379	1.95022	50.1117
2.09213	2.55771	2.09255	2.55774	0.516727	12.2056	0.867958	20.4052	1.29407	31.41	1.37408	33.634	1.73289	41.5861	2.1641	52.9436	0.245083	8.28655	0.646905	15.918	0.920145	21.9315	1.08687	26.0854	1.51554	37.2473	1.81849	44.1313	1.95048	46.6513
2.08434	2.55723	2.08476	2.55726	0.522054	11.5427	0.868273	19.113	1.29353	29.3374	1.37617	31.4579	1.73301	38.8896	2.16398	49.442	0.248192	7.9161	0.646647	14.8544	0.922069	20.5599	1.08754	24.4071	1.51555	34.7754	1.81951	41.26	1.95077	43.6392
2.07654	2.55674	2.07697	2.55677	0.527414	10.9603	0.86862	17.9761	1.293	27.52	1.37836	29.5538	1.73315	36.522	2.16385	46.3744	0.252088	7.52468	0.646405	13.9237	0.924083	19.3564	1.08827	22.9346	1.51556	32.6112	1.8206	38.7435	1.95109	40.9937
2.06875	2.55625	2.06918	2.55628	0.532109	10.5075	0.869002	16.9682	1.29248	25.9135	1.38064	27.8741	1.73329	34.4267	2.16372	43.6648	0.256832	7.12984	0.646184	13.1026	0.926181	18.2921	1.08905	21.6324	1.51558	30.7008	1.82175	36.52	1.95142	38.6517
2.06096	2.55575	2.06138	2.55578	0.536127	10.1559	0.869421	16.0689	1.29196	24.4833	1.38302	26.3815	1.73345	32.5593	2.16359	41.2541	0.262481	6.74506	0.645991	12.373	0.928357	17.3443	1.0899	20.473	1.5156	29.0019	1.82296	34.5415	1.95178	36.5641
2.05316	2.55525	2.05359	2.55528	0.539459	9.88627	0.86988	15.2615	1.29145	23.2019	1.38549	25.0467	1.73361	30.8845	2.16345	39.0954	0.268325	6.41816	0.645831	11.7206	0.930605	16.4949	1.09081	19.4341	1.51562	27.4813	1.82423	32.7695	1.95217	34.6915
2.04537	2.55475	2.04579	2.55478	0.542098	9.68528	0.87038	14.5328	1.29096	22.0473	1.38804	23.8459	1.73379	29.374	2.16332	37.1511	0.274337	6.13736	0.645712	11.134	0.932918	15.7294	1.09178	18.4983	1.51565	26.1123	1.82556	31.1736	1.95258	33.0025
2.03757	2.55424	2.038	2.55427	0.544042	9.54386	0.870924	13.8719	1.29048	21.0017	1.39068	22.7602	1.73398	28.0049	2.16319	35.3908	0.280497	5.89377	0.645644	10.6691	0.935289	15.0361	1.09283	17.651	1.51568	24.8734	1.82694	29.7288	1.95302	31.4713
2.02978	2.55373	2.0302	2.55375	0.545287	9.45603	0.871516	13.27	1.29002	20.0504	1.39339	21.7738	1.73418	26.7581	2.16305	33.7896	0.286783	5.68062	0.645618	10.3029	0.937711	14.4052	1.09395	16.8805	1.51573	23.7469	1.82838	28.4148	1.95349	30.077
2.02198	2.55321	2.0224	2.55324	0.547078	9.33326	0.872159	12.7196	1.28958	19.1812	1.39618	20.8739	1.7344	25.6181	2.16292	32.3269	0.293179	5.49261	0.645619	10.0188	0.940179	13.8287	1.09515	16.1769	1.51577	22.7181	1.82986	27.2145	1.95399	28.802
2.01418	2.55269	2.01461	2.55271	0.549026	9.20429	0.872854	12.2145	1.28916	18.384	1.39904	20.0497	1.73463	24.5717	2.16279	30.9854	0.299668	5.32559	0.645636	9.8053	0.942685	13.2997	1.09643	15.5321	1.51583	21.775	1.8314	26.114	1.95452	27.6317
2.00638	2.55216	2.00681	2.55219	0.551679	9.03594	0.873607	11.7494	1.28876	17.6502	1.40198	19.292	1.73487	23.6078	2.16266	29.7508	0.306236	5.17623	0.645658	9.65417	0.945223	12.8126	1.09778	14.9392	1.51589	20.9072	1.83298	25.1013	1.95508	26.5538
1.99859	2.55163	1.99901	2.55166	0.555037	8.83386	0.874418	11.32	1.28838	16.9727	1.40498	18.5933	1.73512	22.7171	2.16254	28.6106	0.312869	5.04184	0.645676	9.55994	0.947786	12.3627	1.09923	14.3924	1.51597	20.1061	1.83461	24.1664	1.95568	25.5579
1.99079	2.55109	1.99121	2.55112	0.559102	8.6043	0.875293	10.9223	1.28803	16.3452	1.40805	17.947	1.73539	21.8916	2.16242	27.5546	0.319555	4.92025	0.645709	9.42776	0.950368	11.9457	1.10076	13.8866	1.51605	19.3643	1.83629	23.3006	1.95631	24.6349
1.98299	2.55055	1.98342	2.55058	0.563874	8.3537	0.876109	10.5991	1.2877	15.7625	1.41118	17.3474	1.73567	21.1244	2.1623	26.5737	0.326283	4.80965	0.645752	9.2883	0.952964	11.5581	1.10239	13.4175	1.51614	18.6756	1.838	22.4967	1.95698	23.7773
1.97519	2.55001	1.97562	2.55004	0.569352	8.08826	0.876846	10.3393	1.2874	15.2199	1.41438	16.7897	1.73597	20.4095	2.16219	25.6602	0.333044	4.70855	0.645827	9.10537	0.955566	11.1968	1.10411	12.9814	1.51625	18.0343	1.83975	21.7482	1.95768	22.9783
1.96739	2.54946	1.96782	2.54949	0.574828	7.84375	0.877486	10.1345	1.28712	14.7135	1.41764	16.2697	1.73629	19.7419	2.16209	24.8074	0.339828	4.6157	0.645946	8.88449	0.95817	10.8593	1.10592	12.5751	1.51636	17.4358	1.84154	21.0495	1.95843	22.2323
1.9596	2.54891	1.96002	2.54894	0.580297	7.61772	0.878011	9.97862	1.28688	14.2399	1.42095	15.7838	1.73662	19.1169	2.16199	24.0094	0.346625	4.53005	0.64613	8.63191	0.960435	10.5827	1.10784	12.1958	1.51649	16.876	1.84336	20.396	1.95922	21.5342
1.9518	2.54836	1.95223	2.54839	0.585757	7.4081	0.878409	9.8673	1.28666	13.7959	1.42433	15.3288	1.73697	18.5308	2.1619	23.2612	0.353427	4.45071	0.646404	8.35426	0.962362	10.3586	1.10987	11.841	1.51663	16.3513	1.84521	19.7833	1.96005	20.8795
1.944	2.5478	1.94443	2.54783	0.591203	7.21311	0.878668	9.79745	1.28647	13.3789	1.42775	14.9018	1.73734	17.9798	2.16181	22.5583	0.360227	4.37691	0.646803	8.05818	0.96395	10.181	1.11199	11.5086	1.51679	15.8584	1.84709	19.2078	1.96093	20.2645
1.9362	2.54724	1.93663	2.54727	0.596631	7.03121	0.879049	9.69891	1.28631	12.9866	1.43123	14.5003	1.73772	17.4612	2.16174	21.8966	0.367017	4.30801	0.647297	7.78384	0.965202	10.0452	1.11423	11.1965	1.51696	15.3946	1.84899	18.6661	1.96186	19.6857
1.92841	2.54667	1.92883	2.5467	0.602038	6.86105	0.879472	9.59423	1.28617	12.6168	1.43476	14.1222	1.73813	16.9719	2.16167	21.2726	0.37379	4.24343	0.647894	7.52913	0.96612	9.94779	1.11657	10.9032	1.51714	14.9574	1.85091	18.1554	1.96284	19.14
1.92061	2.5461	1.92104	2.54613	0.607419	6.70147	0.880064	9.45577	1.28607	12.2678	1.43834	13.7656	1.73855	16.5098	2.16161	20.6833	0.380538	4.18269	0.648599	7.29221	0.966706	9.88652	1.11871	10.6616	1.51734	14.5446	1.85285	17.6731	1.96387	18.6248
1.91282	2.54553	1.91324	2.54556	0.612771	6.55144	0.88084	9.28682	1.28601	11.9377	1.44197	13.4286	1.739	16.0726	2.16156	20.1258	0.387255	4.12537	0.649419	7.07147	0.967547	9.79987	1.1206	10.4653	1.51756	14.1543	1.85481	17.2167	1.96496	18.1375
1.90502	2.54495	1.90545	2.54498	0.618089	6.41007	0.881822	9.09121	1.28597	11.6253	1.44564	13.1096	1.73947	15.6583	2.16151	19.5976	0.393934	4.07107	0.650362	6.86549	0.968458	9.70753	1.1222	10.3092	1.5178	13.7846	1.85678	16.7844	1.96611	17.6762
1.89723	2.54437	1.89765	2.5444	0.62337	6.27656	0.883035	8.87314	1.28596	11.329	1.44936	12.8074	1.73996	15.2652	2.16148	19.0965	0.400568	4.01949	0.651432	6.67304	0.969693	9.58493	1.1235	10.1897	1.51805	13.434	1.85876	16.3742	1.96731	17.2387
1.88943	2.54378	1.88986	2.54382	0.628611	6.15021	0.884511	8.63694	1.28599	11.0477	1.45312	12.5206	1.74047	14.8918	2.16146	18.6204	0.407153	3.97032	0.652638	6.493	0.971246	9.43458	1.12448	10.1038	1.51832	13.1011	1.86075	15.9844	1.96858	16.8234
1.88164	2.5432	1.88207	2.54323	0.633806	6.03039	0.886081	8.41461	1.28604	10.814	1.45692	12.2481	1.74101	14.5367	2.16144	18.1676	0.41368	3.92332	0.653984	6.3244	0.973112	9.25944	1.12511	10.0498	1.51862	12.7846	1.86274	15.6135	1.96991	16.4287
1.87385	2.5426	1.87427	2.54264	0.638954	5.91654	0.887749	8.20507	1.28611	10.6226	1.46075	11.9888	1.74157	14.1985	2.16144	17.7364	0.420146	3.87825	0.655478	6.16636	0.97528	9.06271	1.12602	9.97334	1.51894	12.4832	1.86472	15.2602	1.97131	16.0531
1.86606	2.54201	1.86648	2.54204	0.64405	5.80816	0.889517	8.00735	1.28618	10.4695	1.46463	11.7419	1.74216	13.8761	2.16145	17.3252	0.426543	3.83491	0.657125	6.0181	0.97774	8.84776	1.12704	9.89178	1.51927	12.1961	1.8667	14.9231	1.97278	15.6954
1.85827	2.54141	1.85869	2.54144	0.64909	5.7048	0.891389	7.82057	1.28624	10.3517	1.46854	11.5064	1.74278	13.5684	2.16147	16.9328	0.432867	3.79312	0.658931	5.87891	0.980166	8.64347	1.12843	9.78341	1.51964	11.9222	1.86868	14.6013	1.97432	15.3543
1.85048	2.54081	1.8509	2.54084	0.654071	5.60607	0.893369	7.64396	1.28629	10.2667	1.47248	11.2816	1.74343	13.2745	2.1615	16.5579	0.439112	3.75273	0.660902	5.74815	0.982558	8.44906	1.13024	9.65041	1.52002	11.6606	1.87065	14.2936	1.97594	15.0288
1.84269	2.54021	1.84312	2.54024	0.658991	5.5116	0.895459	7.4768	1.28633	10.2131	1.47645	11.0668	1.7441	12.9935	2.16154	16.1993	0.445274	3.7136	0.663042	5.62525	0.984915	8.26378	1.13248	9.49533	1.52043	11.4106	1.8726	13.9991	1.97763	14.7179
1.83491	2.53961	1.83534	2.53964	0.663847	5.42106	0.897662	7.31844	1.28638	10.137	1.47994	10.8872	1.74481	12.7245	2.1616	15.856	0.451349	3.67559	0.665358	5.50969	0.987235	8.08699	1.13519	9.32104	1.52087	11.1713	1.87453	13.717	1.9794	14.4207
1.82714	2.53901	1.82756	2.53904	0.668635	5.33417	0.899981	7.16831	1.28644	10.0557	1.48293	10.7394	1.74555	12.467	2.16167	15.527	0.457332	3.63861	0.667852	5.40098	0.989518	7.91808	1.1384	9.13054	1.52127	10.9711	1.87645	13.4464	1.98126	14.1363
1.81938	2.53843	1.8198	2.53846	0.673353	5.25065	0.902418	7.02585	1.28654	9.94717	1.48541	10.6207	1.74632	12.22	2.16175	15.2116	0.46322	3.60255	0.670529	5.29869	0.991766	7.75654	1.14171	8.94954	1.52163	10.8063	1.87835	13.1867	1.98319	13.864
1.81167	2.53792	1.81209	2.53794	0.678	5.17027	0.904975	6.89059	1.28667	9.81336	1.48738	10.529	1.74712	11.9831	2.16184	14.9088	0.469011	3.56733	0.673392	5.2024	0.993978	7.60187	1.14514	8.77739	1.52194	10.6738	1.88022	12.9371	1.98521	13.603
1.80339	2.53661	1.8048	2.53802	0.682572	5.0928	0.907653	6.76206	1.28684	9.65645	1.48883	10.4628	1.74797	11.7557	2.16194	14.6179	0.474701	3.53289	0.676444	5.11175	0.996155	7.45364	1.14867	8.61349	1.52219	10.5714	1.88207	12.6971	1.98731	13.3528
1.79584	2.5363	1.79626	2.53633	0.687069	5.01806	0.910455	6.63985	1.28707	9.4789	1.48976	10.4209	1.74884	11.5371	2.16206	14.3383	0.480291	3.49917	0.679686	5.02639	0.9983	7.31145	1.15231	8.4573	1.52238	10.4974	1.88389	12.4661	1.9895	13.1126
1.7881	2.53573	1.78853	2.53576	0.69149	4.94587	0.913381	6.52357	1.28738	9.28336	1.4911	10.3614	1.74976	11.3271	2.1622	14.0693	0.485779	3.4661	0.68312	4.94598	1.00041	7.17494	1.15604	8.30832	1.5225	10.4506	1.88568	12.2436	1.99178	12.8821
1.78034	2.53512	1.78077	2.53516	0.695834	4.87606	0.916431	6.41288	1.28772	9.09609	1.49256	10.2976	1.75059	11.1505	2.16234	13.8103	0.491164	3.43367	0.686746	4.87024	1.0025	7.04378	1.15987	8.16608	1.52268	10.3841	1.88744	12.0291	1.99414	12.6605
1.77257	2.5345	1.773	2.53453	0.7001	4.80849	0.919606	6.30743	1.28809	8.91658	1.49454	10.2124	1.75133	11.0046	2.1625	13.5608	0.496449	3.40182	0.690563	4.79887	1.00456	6.91766	1.16379	8.03016	1.52288	10.3128	1.88916	11.8222	1.99659	12.4475
1.7648	2.53387	1.76522	2.5339	0.704289	4.74303	0.922905	6.20692	1.28851	8.74439	1.49707	10.1069	1.75195	10.8869	2.16268	13.3203	0.501634	3.37055	0.694569	4.73161	1.0066	6.79632	1.1678	7.90016	1.52316	10.2175	1.89086	11.6225	1.99913	12.2426
1.75703	2.53323	1.75745	2.53326	0.708401	4.67957	0.926328	6.11106	1.28897	8.5791	1.50012	9.98272	1.75246	10.7958	2.16287	13.0883	0.506721	3.33982	0.698763	4.66819	1.00861	6.67949	1.1719	7.77572	1.52352	10.0995	1.89252	11.4295	2.00176	12.0453
1.74926	2.53259	1.74968	2.53262	0.712437	4.61799	0.929872	6.01958	1.28947	8.42032	1.50372	9.8416	1.75284	10.7299	2.16307	12.8644	0.511715	3.30964	0.703141	4.60839	1.01061	6.56695	1.17607	7.6565	1.52398	9.96068	1.89395	11.2666	2.00447	11.8553
1.74149	2.53194	1.74191	2.53197	0.716397	4.5582	0.933538	5.93223	1.29001	8.2677	1.50787	9.68538	1.75308	10.6881	2.16329	12.6481	0.516618	3.27999	0.707699	4.55197	1.0126	6.45846	1.18033	7.54218	1.52453	9.80282	1.89514	11.1314	2.00727	11.6722
1.73372	2.53129	1.73414	2.53132	0.720284	4.50012	0.937322	5.84877	1.2906	8.12091	1.51203	9.53495	1.75344	10.6287	2.16353	12.4391	0.521435	3.25087	0.712432	4.49871	1.01458	6.35385	1.18466	7.43247	1.5252	9.62805	1.89612	11.0221	2.01016	11.4956
1.72595	2.53064	1.72638	2.53067	0.724101	4.44366	0.941222	5.76898	1.29123	7.97964	1.5162	9.38997	1.75383	10.5649	2.16378	12.2371	0.526171	3.22229	0.717334	4.44842	1.01655	6.25292	1.18906	7.3271	1.52591	9.45978	1.89688	10.9372	2.01274	11.3468
1.71819	2.52998	1.71861	2.53002	0.727848	4.38875	0.945235	5.69266	1.2919	7.8436	1.52038	9.25015	1.75438	10.4795	2.16404	12.0416	0.530831	3.19425	0.7224	4.4009	1.01851	6.1555	1.19352	7.22582	1.52665	9.29765	1.89743	10.8756	2.01499	11.2235
1.71042	2.52932	1.71085	2.52936	0.731529	4.33533	0.949358	5.61959	1.29262	7.71253	1.52457	9.11521	1.75508	10.3736	2.16433	11.8524	0.535422	3.16675	0.727623	4.35596	1.02048	6.06143	1.19805	7.12839	1.52743	9.14136	1.89779	10.8366	2.01688	11.124
1.70266	2.52866	1.70309	2.5287	0.735147	4.28335	0.953587	5.54961	1.29339	7.58619	1.52876	8.98489	1.75596	10.2487	2.16462	11.6692	0.539948	3.13981	0.732995	4.31343	1.02245	5.97057	1.20263	7.03459	1.52824	8.99061	1.89829	10.781	2.0184	11.0467
1.6949	2.528	1.69533	2.52803	0.738704	4.23274	0.957919	5.48253	1.29421	7.46433	1.53295	8.85893	1.75702	10.1062	2.1649	11.5142	0.544417	3.11343	0.738509	4.27314	1.02443	5.88277	1.20727	6.94422	1.5291	8.84514	1.89883	10.7211	2.01953	10.9908
1.68715	2.52733	1.68757	2.52737	0.742205	4.18347	0.962348	5.41818	1.29507	7.34676	1.53714	8.73711	1.75829	9.948	2.16514	11.3854	0.548835	3.08762	0.744157	4.23495	1.02643	5.79791	1.21195	6.85708	1.53	8.7047	1.89957	10.6409	2.02026	10.9553
1.67939	2.52666	1.67982	2.5267	0.745653	4.13548	0.966871	5.35642	1.29599	7.23326	1.54133	8.61922	1.75961	9.79518	2.16535	11.2811	0.553208	3.06239	0.749931	4.19869	1.02844	5.71587	1.21668	6.77301	1.53094	8.56904	1.90049	10.5411	2.02131	10.9048
1.67164	2.52599	1.67206	2.52603	0.749052	4.08874	0.971483	5.29709	1.29695	7.12366	1.54552	8.50505	1.76099	9.64751	2.16552	11.2	0.557542	3.03774	0.755823	4.16424	1.03047	5.63654	1.22145	6.69182	1.53193	8.43794	1.90158	10.423	2.02247	10.8506
1.66389	2.52532	1.66432	2.52536	0.752405	4.0432	0.97618	5.24005	1.29797	7.01776	1.54969	8.39441	1.76243	9.50476	2.16565	11.1411	0.561844	3.01369	0.761823	4.13146	1.03252	5.5598	1.22626	6.61337	1.53296	8.3112	1.90285	10.2878	2.02405	10.7779
1.65615	2.52465	1.65657	2.52469	0.755716	3.99884	0.980956	5.18518	1.29905	6.91542	1.55386	8.28714	1.76392	9.3667	2.16573	11.1038	0.56612	2.99023	0.767924	4.10023	1.0346	5.48557	1.23111	6.53751	1.53403	8.18863	1.90428	10.137	2.02608	10.6876
1.6484	2.52398	1.64883	2.52401	0.758991	3.95563	0.985806	5.13235	1.30017	6.81647	1.55801	8.18306	1.76548	9.23314	2.16585	11.0506	0.570377	2.96738	0.774117	4.07043	1.03671	5.41374	1.23598	6.46411	1.53516	8.07003	1.90568	9.99059	2.02858	10.5808
1.64067	2.5233	1.64109	2.52334	0.762232	3.91352	0.990724	5.08144	1.30136	6.72078	1.56215	8.08201	1.76709	9.10389	2.16598	10.9933	0.574619	2.94513	0.780395	4.04196	1.03886	5.34424	1.24088	6.39302	1.53633	7.95524	1.90705	9.84846	2.03155	10.4588
1.63293	2.52263	1.63335	2.52266	0.765443	3.8725	0.995707	5.03234	1.30261	6.62819	1.56627	7.98386	1.76878	8.97877	2.16617	10.9164	0.578852	2.92349	0.786747	4.01472	1.04105	5.27697	1.2458	6.32414	1.53756	7.84411	1.9084	9.71039	2.03504	10.323
1.6252	2.52195	1.62562	2.52199	0.768629	3.83254	1.00075	4.98494	1.30391	6.53859	1.57037	7.88845	1.77053	8.8576	2.16641	10.8207	0.583083	2.90245	0.793167	3.98861	1.04328	5.21187	1.25075	6.25735	1.53884	7.73646	1.90973	9.57622	2.03859	10.1915
1.61747	2.52127	1.61789	2.52131	0.771794	3.7936	1.00584	4.93915	1.30528	6.45186	1.57445	7.79567	1.77235	8.74023	2.1667	10.7073	0.587314	2.88202	0.799646	3.96354	1.04556	5.14886	1.2557	6.19254	1.54017	7.63218	1.91104	9.44578	2.0422	10.064
1.60974	2.5206	1.61016	2.52063	0.77494	3.75567	1.01099	4.89488	1.3067	6.36788	1.5785	7.70538	1.77424	8.62651	2.16707	10.5773	0.591553	2.86219	0.806177	3.93943	1.04789	5.08787	1.26067	6.12962	1.54156	7.53111	1.91233	9.31893	2.04588	9.94048
1.60202	2.51992	1.60244	2.51996	0.778073	3.71873	1.01617	4.85204	1.3082	6.28654	1.58253	7.61747	1.77621	8.5163	2.1675	10.4322	0.595802	2.84297	0.812751	3.9162	1.05028	5.02885	1.26565	6.06848	1.543	7.43313	1.91361	9.19553	2.04962	9.82064
1.5943	2.51924	1.59473	2.51928	0.781196	3.68274	1.02139	4.81054	1.30976	6.20775	1.58652	7.53183	1.77825	8.40946	2.16796	10.2911	0.600067	2.82434	0.81936	3.89378	1.05273	4.97172	1.27064	6.00904	1.54451	7.33813	1.91487	9.07544	2.05342	9.70436
1.58659	2.51857	1.58701	2.5186	0.784312	3.64769	1.02665	4.77031	1.31138	6.13141	1.59048	7.44836	1.78037	8.30586	2.16843	10.1539	0.604351	2.80629	0.825998	3.8721	1.05524	4.91643	1.27562	5.95122	1.54607	7.24599	1.91611	8.95854	2.05728	9.59148
1.57888	2.51789	1.5793	2.51793	0.787425	3.61356	1.03193	4.73127	1.31308	6.05742	1.59441	7.36697	1.78256	8.20538	2.16892	10.0205	0.608658	2.78884	0.832656	3.85109	1.05783	4.86294	1.28061	5.89493	1.5477	7.1566	1.91735	8.8447	2.06119	9.48185
1.57118	2.51722	1.5716	2.51725	0.790537	3.58032	1.03724	4.69336	1.31485	5.98571	1.5983	7.28755	1.78484	8.10791	2.16943	9.89067	0.612991	2.77196	0.839327	3.8307	1.06049	4.81118	1.28559	5.84011	1.54939	7.06986	1.91857	8.73382	2.06516	9.37534
1.56348	2.51654	1.5639	2.51658	0.793654	3.54795	1.04256	4.6565	1.31669	5.91619	1.60215	7.21002	1.7872	8.01334	2.16996	9.76434	0.617355	2.75564	0.846004	3.81086	1.06322	4.76112	1.29057	5.78668	1.55115	6.98568	1.91979	8.62578	2.06917	9.27181
1.55579	2.51587	1.55621	2.51591	0.796776	3.51644	1.0479	4.62064	1.31861	5.84879	1.60597	7.13431	1.78964	7.92155	2.17052	9.64134	0.621751	2.73989	0.852679	3.79153	1.06604	4.71271	1.29553	5.73457	1.55297	6.90396	1.921	8.52048	2.07323	9.17114
1.5481	2.51521	1.54852	2.51524	0.799908	3.48577	1.05324	4.58571	1.3206	5.78343	1.60973	7.06033	1.79217	7.83246	2.17109	9.52155	0.626184	2.7247	0.859345	3.77265	1.06895	4.6659	1.30049	5.68372	1.55487	6.82462	1.92221	8.41784	2.07734	9.07321
1.54042	2.51454	1.54084	2.51458	0.803052	3.45591	1.05859	4.55167	1.32267	5.72005	1.61346	6.98802	1.79478	7.74597	2.17169	9.40486	0.630657	2.71005	0.865996	3.75418	1.07195	4.62066	1.30542	5.63407	1.55683	6.74758	1.92341	8.31774	2.08149	8.97791
1.53274	2.51388	1.53316	2.51391	0.806211	3.42684	1.06393	4.51846	1.32483	5.65857	1.61714	6.9173	1.79748	7.66197	2.1723	9.29115	0.635171	2.69594	0.872625	3.73607	1.07505	4.57695	1.31034	5.58557	1.55887	6.67275	1.92461	8.22011	2.08568	8.88513
1.52507	2.51322	1.52549	2.51325	0.809387	3.39856	1.06927	4.48603	1.32706	5.59895	1.62077	6.84811	1.80027	7.58039	2.17294	9.18031	0.639731	2.68236	0.879224	3.71827	1.07825	4.53473	1.31524	5.53816	1.56098	6.60006	1.92581	8.12487	2.08991	8.79478
1.5174	2.51256	1.51782	2.5126	0.812583	3.37104	1.0746	4.45434	1.32938	5.54111	1.62436	6.78039	1.80315	7.50115	2.17361	9.07225	0.644338	2.66931	0.885787	3.70076	1.08156	4.49397	1.32011	5.49179	1.56316	6.52945	1.92701	8.03192	2.09417	8.70675
1.50974	2.51191	1.51016	2.51195	0.815802	3.34426	1.07992	4.42334	1.33178	5.485	1.6279	6.7141	1.80611	7.42415	2.17429	8.96686	0.648997	2.65677	0.892307	3.68349	1.08497	4.45463	1.32496	5.44642	1.56542	6.46084	1.92822	7.9412	2.09847	8.62095
1.50209	2.51127	1.50251	2.51131	0.819045	3.31821	1.08522	4.39299	1.33428	5.43057	1.63138	6.64916	1.80916	7.34931	2.175	8.86405	0.653711	2.64475	0.898779	3.66642	1.08851	4.4167	1.32978	5.402	1.56776	6.39416	1.92943	7.85264	2.1028	8.5373
1.49445	2.51063	1.49487	2.51067	0.822314	3.29287	1.09049	4.36326	1.33686	5.37777	1.63482	6.58555	1.8123	7.27657	2.17573	8.76373	0.658482	2.63324	0.905195	3.64954	1.09217	4.38012	1.33457	5.35849	1.57018	6.32937	1.93064	7.76615	2.10717	8.45571
1.48681	2.51	1.48723	2.51003	0.825612	3.26822	1.09574	4.3341	1.33953	5.32654	1.63822	6.5232	1.81553	7.20585	2.17649	8.66582	0.663315	2.62224	0.91155	3.63279	1.09595	4.34488	1.33932	5.31585	1.57268	6.26638	1.93186	7.68169	2.11156	8.37611
1.47918	2.50937	1.4796	2.50941	0.828941	3.24425	1.10096	4.30548	1.34229	5.27684	1.64156	6.46209	1.81885	7.13708	2.17728	8.57024	0.668214	2.61174	0.917838	3.61617	1.09986	4.31095	1.34404	5.27403	1.57527	6.20516	1.93309	7.59918	2.11597	8.29842
1.47156	2.50876	1.47198	2.50879	0.832302	3.22094	1.10615	4.27738	1.34515	5.22863	1.64485	6.40216	1.82225	7.07018	2.17809	8.47691	0.673184	2.60175	0.924053	3.59963	1.1039	4.27829	1.34873	5.23302	1.57793	6.14564	1.93433	7.51856	2.12041	8.22256
1.46395	2.50815	1.46437	2.50818	0.835697	3.19828	1.1113	4.24977	1.34811	5.18184	1.6481	6.34338	1.82574	7.0051	2.17892	8.38576	0.678231	2.59228	0.930192	3.58317	1.10808	4.24688	1.35337	5.19277	1.58068	6.08777	1.93558	7.43977	2.12488	8.14847
1.45635	2.50755	1.45677	2.50758	0.839129	3.17625	1.11641	4.22261	1.35116	5.13646	1.6513	6.28573	1.82931	6.94176	2.17978	8.29672	0.683361	2.58333	0.936249	3.56677	1.11239	4.21668	1.35798	5.15325	1.58352	6.0315	1.93684	7.36276	2.12936	8.07608
1.44876	2.50696	1.44917	2.50699	0.842598	3.15484	1.12148	4.19588	1.3543	5.09242	1.65446	6.22915	1.83296	6.88011	2.18067	8.20972	0.688582	2.57491	0.942221	3.55039	1.11685	4.18767	1.36254	5.11444	1.58644	5.97677	1.93812	7.28748	2.13386	8.00534
1.44117	2.50638	1.44159	2.50641	0.846106	3.13404	1.1265	4.16956	1.35755	5.0497	1.65757	6.17364	1.8367	6.82008	2.18159	8.1247	0.693903	2.56704	0.948104	3.53404	1.12146	4.15981	1.36707	5.07631	1.58944	5.92355	1.93941	7.21387	2.13838	7.93617
1.4336	2.50582	1.43401	2.50585	0.849655	3.11382	1.13148	4.14362	1.36089	5.00825	1.66064	6.11915	1.84051	6.76161	2.18254	8.0416	0.699335	2.55974	0.953895	3.5177	1.1262	4.13308	1.37155	5.03883	1.59254	5.87178	1.94071	7.14189	2.14291	7.86852
1.42604	2.50527	1.42645	2.5053	0.853246	3.09418	1.13641	4.11805	1.36433	4.96804	1.66367	6.06567	1.8444	6.70465	2.18351	7.96036	0.704888	2.55304	0.959592	3.50136	1.1311	4.10743	1.37599	5.00198	1.59572	5.82142	1.94203	7.07148	2.14746	7.80235
1.41849	2.50473	1.4189	2.50476	0.85688	3.07511	1.14129	4.09283	1.36787	4.92902	1.66666	6.01316	1.84836	6.64914	2.18452	7.88092	0.710576	2.54696	0.965194	3.48502	1.13613	4.08284	1.38038	4.96574	1.59898	5.77242	1.94337	7.00261	2.15201	7.73758
1.41095	2.50421	1.41136	2.50423	0.86056	3.05659	1.14612	4.06794	1.37151	4.89116	1.66962	5.96161	1.8524	6.59503	2.18555	7.80323	0.716412	2.54153	0.970699	3.46867	1.14132	4.05927	1.38473	4.93009	1.60233	5.72474	1.94473	6.93523	2.15658	7.67418
1.40342	2.5037	1.40383	2.50373	0.864287	3.03861	1.15089	4.04337	1.37525	4.85442	1.67254	5.911	1.8565	6.54227	2.18662	7.72723	0.722407	2.53676	0.976108	3.45232	1.14664	4.03668	1.38904	4.89502	1.60577	5.67835	1.94611	6.86929	2.16115	7.6121
1.39591	2.50321	1.39632	2.50324	0.868062	3.02115	1.15561	4.0191	1.37909	4.81877	1.67543	5.8613	1.86067	6.49079	2.18772	7.65289	0.728571	2.53269	0.981422	3.43596	1.15211	4.01504	1.3933	4.8605	1.60929	5.63318	1.94751	6.80476	2.16572	7.55128
1.38841	2.50274	1.38882	2.50277	0.871886	3.00422	1.16027	3.99513	1.38303	4.78418	1.67829	5.81249	1.8649	6.44057	2.18885	7.58015	0.73491	2.52929	0.98664	3.4196	1.15771	3.99431	1.39753	4.82653	1.6129	5.58922	1.94894	6.7416	2.1703	7.49169
1.38092	2.5023	1.38133	2.50232	0.875762	2.9878	1.16487	3.97143	1.38706	4.7506	1.68113	5.76457	1.86919	6.39154	2.19001	7.50897	0.741424	2.52656	0.991766	3.40325	1.16345	3.97445	1.40171	4.79308	1.61659	5.54641	1.95039	6.67978	2.17488	7.43327
1.37345	2.50187	1.37386	2.50189	0.87969	2.97187	1.16942	3.94801	1.39119	4.718	1.68394	5.71751	1.87354	6.34367	2.19121	7.4393	0.748108	2.52445	0.996802	3.38691	1.16932	3.95542	1.40584	4.76016	1.62036	5.50472	1.95186	6.61925	2.17946	7.376
1.36599	2.50147	1.3664	2.50149	0.883672	2.95644	1.17392	3.92486	1.39542	4.68636	1.68673	5.67129	1.87794	6.29691	2.19245	7.37111	0.754951	2.52292	1.00175	3.3706	1.17532	3.93718	1.40994	4.72773	1.62421	5.46412	1.95336	6.55998	2.18403	7.31982
1.35855	2.50109	1.35896	2.50111	0.887711	2.94148	1.17836	3.90196	1.39973	4.65563	1.68951	5.6259	1.8824	6.25122	2.19372	7.30435	0.761939	2.52189	1.00661	3.35432	1.18144	3.9197	1.41401	4.69581	1.62815	5.42456	1.95488	6.50195	2.1886	7.26471
1.35113	2.50075	1.35154	2.50076	0.891806	2.927	1.18274	3.87932	1.40414	4.62578	1.69227	5.58134	1.8869	6.20656	2.19503	7.23898	0.769055	2.52131	1.0114	3.33809	1.18767	3.90292	1.41803	4.66438	1.63215	5.386	1.95644	6.44512	2.19316	7.21062
1.34373	2.50043	1.34413	2.50044	0.895962	2.91299	1.18707	3.85692	1.40864	4.59679	1.69502	5.53757	1.89145	6.16288	2.19637	7.17498	0.776282	2.52109	1.01611	3.32191	1.19401	3.88683	1.42203	4.63343	1.63623	5.34842	1.95802	6.38945	2.19771	7.15752
1.33634	2.50014	1.33674	2.50015	0.900179	2.89943	1.19134	3.83477	1.41322	4.56861	1.69776	5.4946	1.89604	6.12015	2.19775	7.11229	0.783603	2.52119	1.02074	3.30581	1.20046	3.87136	1.42599	4.60295	1.64039	5.31178	1.95964	6.33492	2.20225	7.10537
1.32897	2.49989	1.32938	2.4999	0.90446	2.88633	1.19557	3.81287	1.41788	4.54123	1.70049	5.4524	1.90067	6.07834	2.19918	7.0509	0.791003	2.52153	1.02531	3.28979	1.20701	3.8565	1.42992	4.57295	1.64461	5.27605	1.96128	6.28151		
1.32163	2.49967	1.32203	2.49968	0.908806	2.87367	1.19974	3.7912	1.42262	4.5146	1.70322	5.41097	1.90533	6.03741	2.20064	6.99076	0.79847	2.52208	1.02982	3.27387	1.21364	3.84219	1.43383	4.54342	1.64891	5.24118	1.96296	6.22918		
1.3143	2.49949	1.3147	2.4995	0.913221	2.86146	1.20386	3.76977	1.42744	4.48869	1.70595	5.3703	1.91003	5.99732			0.805993	2.52279	1.03427	3.25805	1.22037	3.82842	1.43771	4.51435	1.65326	5.20716	1.96467	6.17791		
1.307	2.49935	1.3074	2.49936	0.917707	2.84969	1.20793	3.74857	1.43234	4.46349	1.70868	5.33037	1.91475	5.95805			0.813563	2.52364	1.03866	3.24236	1.22716	3.81513	1.44157	4.48574	1.65768	5.17394	1.96642	6.12768		
1.29972	2.49925	1.30012	2.49926	0.922266	2.83835	1.21196	3.72762	1.4373	4.43895	1.71142	5.29117	1.9195	5.91956			0.82117	2.52459	1.04301	3.22679	1.23404	3.80229	1.44542	4.45759	1.66216	5.1415	1.96821	6.07845		
1.29247	2.4992	1.29286	2.4992	0.926903	2.82745	1.21595	3.70689	1.44234	4.41505	1.71417	5.25269	1.92428	5.88182			0.828811	2.52561	1.04731	3.21137	1.24097	3.78989	1.44925	4.4299	1.6667	5.10981	1.97003	6.03022		
1.28524	2.4992	1.28563	2.4992	0.93162	2.81699	1.21989	3.68641	1.44743	4.39175	1.71693	5.21492	1.92908	5.84481			0.836478	2.52671	1.05158	3.1961	1.24796	3.77787	1.45308	4.40267	1.67128	5.07884	1.97189	5.98294		
1.27803	2.49925	1.27843	2.49924	0.936421	2.80695	1.22379	3.66616	1.45258	4.36904	1.7197	5.17786	1.93389	5.80849			0.844168	2.52785	1.05581	3.18099	1.25501	3.76621	1.4569	4.37589	1.67592	5.04856	1.9738	5.93662		
1.27086	2.49935	1.27125	2.49934	0.94131	2.79736	1.22766	3.64615	1.45779	4.34689	1.72249	5.14149	1.93872	5.77284			0.851877	2.52903	1.06001	3.16605	1.26209	3.75489	1.46072	4.34958	1.68061	5.01894	1.97574	5.89121		
1.26371	2.49951	1.2641	2.4995	0.94629	2.78819	1.23149	3.62637	1.46305	4.32527	1.72531	5.1058	1.94356	5.73783			0.859602	2.53024	1.06418	3.15129	1.26922	3.74387	1.46454	4.32372	1.68534	4.98995	1.97773	5.84671		
1.25659	2.49973	1.25698	2.49972	0.951366	2.77946	1.23529	3.60684	1.46835	4.30414	1.72814	5.07079	1.94841	5.70345			0.867341	2.53146	1.06833	3.13671	1.27637	3.73313	1.46838	4.29833	1.6901	4.96158	1.97976	5.80309		
1.2495	2.50001	1.24989	2.5	0.956543	2.77116	1.23906	3.58754	1.4737	4.2835	1.731	5.03644	1.95326	5.66966			0.875091	2.5327	1.07246	3.12233	1.28355	3.72263	1.47222	4.2734	1.69491	4.93379	1.98183	5.76033		
1.24244	2.50036	1.24283	2.50034	0.961822	2.7633	1.2428	3.56848	1.47909	4.26331	1.7339	5.00275	1.95812	5.63644			0.882851	2.53395	1.07658	3.10814	1.29075	3.71236	1.47608	4.24894	1.69975	4.90656	1.98395	5.71843		
1.23542	2.50078	1.2358	2.50076	0.96721	2.75588	1.24651	3.54966	1.48451	4.24356	1.73682	4.96971	1.96298	5.60377			0.890619	2.5352	1.08068	3.09414	1.29796	3.70229	1.47997	4.22494	1.70462	4.87987	1.98612	5.67735		
1.22843	2.50128	1.22881	2.50125	0.972709	2.74889	1.2502	3.53108	1.48996	4.22421	1.73978	4.93731	1.96784	5.57164			0.898394	2.53644	1.08478	3.08036	1.30517	3.6924	1.48388	4.20142	1.70951	4.8537	1.98834	5.63708		
1.22147	2.50185	1.22185	2.50181	0.978323	2.74234	1.25387	3.51274	1.49543	4.20524	1.74277	4.90554	1.9727	5.54001			0.906174	2.53769	1.08887	3.06678	1.31238	3.68265	1.48783	4.17838	1.71443	4.82802	1.99061	5.59762		
1.21455	2.5025	1.21493	2.50246	0.984052	2.73622	1.25752	3.49465	1.50093	4.18665	1.74581	4.8744	1.97755	5.50888			0.91396	2.53892	1.09295	3.05341	1.31957	3.67303	1.49182	4.15582	1.71937	4.80281	1.99294	5.55893		
1.20766	2.50323	1.20804	2.50319	0.989898	2.73051	1.26115	3.47679	1.50644	4.16839	1.74889	4.84388	1.98238	5.47822			0.921749	2.54015	1.09704	3.04026	1.32675	3.66352	1.49585	4.13375	1.72433	4.77805	1.99531	5.52101		
1.20081	2.50405	1.20119	2.504	0.995862	2.72522	1.26476	3.45918	1.51197	4.15046	1.75201	4.81396	1.98721	5.44801			0.929542	2.54137	1.10112	3.02732	1.33391	3.6541	1.49993	4.11216	1.7293	4.75372	1.99774	5.48384		
1.194	2.50496	1.19438	2.5049	1.00194	2.72032	1.26837	3.44181	1.5175	4.13284	1.75518	4.78466	1.99203	5.41824			0.937337	2.54258	1.10521	3.01459	1.34103	3.64474	1.50407	4.09107	1.73428	4.7298	2.00022	5.44741		
1.18723	2.50596	1.1876	2.5059	1.00813	2.71581	1.27196	3.42468	1.52304	4.1155	1.75841	4.75594	1.99682	5.3889			0.945135	2.54377	1.10931	3.00208	1.34812	3.63542	1.50828	4.07049	1.73927	4.70628	2.00277	5.41171		
1.1805	2.50705	1.18087	2.50699	1.01444	2.71166	1.27554	3.40779	1.52858	4.09843	1.76168	4.72782	2.00161	5.35996			0.952934	2.54495	1.11342	2.98979	1.35516	3.62612	1.51256	4.05041	1.74426	4.68314	2.00537	5.37671		
1.17381	2.50825	1.17417	2.50818	1.02085	2.70785	1.27912	3.39113	1.53411	4.08162	1.76502	4.70028	2.00637	5.33142			0.960734	2.54611	1.11753	2.97771	1.36215	3.61682	1.51691	4.03084	1.74926	4.66036	2.00803	5.34241		
1.16716	2.50954	1.16752	2.50947	1.02735	2.70437	1.28269	3.37472	1.53964	4.06503	1.76841	4.67332	2.01111	5.30325			0.968535	2.54726	1.12166	2.96585	1.36908	3.60752	1.52134	4.0118	1.75425	4.63792	2.01075	5.30879		
1.16054	2.51094	1.1609	2.51086	1.03396	2.70118	1.28626	3.35855	1.54515	4.04867	1.77186	4.64692	2.01582	5.27545			0.976336	2.54839	1.1258	2.9542	1.37594	3.59817	1.52587	3.99327	1.75924	4.61581	2.01353	5.27584		
1.15397	2.51245	1.15433	2.51236	1.04064	2.69826	1.28982	3.34262	1.55065	4.03251	1.77538	4.62109	2.02051	5.248			0.984137	2.5495	1.12996	2.94277	1.38273	3.58878	1.53049	3.97528	1.76422	4.59402	2.01637	5.24356		
1.14744	2.51406	1.1478	2.51397	1.04741	2.6956	1.29339	3.32692	1.55612	4.01655	1.77896	4.59581	2.02518	5.22089			0.991938	2.5506	1.13413	2.93156	1.38944	3.57932	1.53522	3.95781	1.76919	4.57253	2.01928	5.21192		
1.14095	2.51578	1.1413	2.51569	1.05426	2.69316	1.29696	3.31145	1.56158	4.00076	1.78261	4.57108	2.02981	5.19411			0.999738	2.55168	1.13832	2.92055	1.39606	3.56978	1.54005	3.94089	1.77415	4.55133	2.02226	5.18092		
1.1345	2.51762	1.13485	2.51752	1.06117	2.69093	1.30053	3.29622	1.56701	3.98514	1.78633	4.5469	2.03442	5.16764			1.00754	2.55274	1.14253	2.90976	1.40259	3.56014	1.545	3.9245	1.7791	4.5304	2.02529	5.15053		
1.12809	2.51957	1.12844	2.51946	1.06814	2.68888	1.3041	3.28123	1.57241	3.96966	1.79012	4.52325	2.03899	5.14149			1.01534	2.55378	1.14676	2.89917	1.40902	3.5504	1.55006	3.90865	1.78403	4.50974	2.0284	5.12077		
1.12172	2.52163	1.12207	2.52151	1.07516	2.687	1.30768	3.26646	1.57777	3.95433	1.79399	4.50012	2.04354	5.11564			1.02313	2.55481	1.15101	2.88879	1.41535	3.54054	1.55526	3.89335	1.78894	4.48933	2.03157	5.0916		
1.11539	2.5238	1.11573	2.52368	1.08224	2.68527	1.31126	3.25192	1.5831	3.93913	1.79793	4.47752	2.04805	5.09008			1.03093	2.55581	1.15528	2.87862	1.42157	3.53055	1.56058	3.87858	1.79383	4.46916	2.03482	5.06302		
1.1091	2.5261	1.10944	2.52597	1.08936	2.68368	1.31486	3.23761	1.58839	3.92406	1.80195	4.45543	2.05253	5.0648			1.03872	2.5568	1.15958	2.86865	1.42768	3.52044	1.56603	3.86435	1.7987	4.44923	2.03813	5.03502		
1.10284	2.5285	1.10318	2.52837	1.09652	2.68221	1.31846	3.22352	1.59364	3.90909	1.80604	4.43385	2.05697	5.03979			1.04651	2.55777	1.1639	2.85888	1.43367	3.51018	1.57161	3.85065	1.80354	4.42952	2.04151	5.00759		
1.09662	2.53102	1.09696	2.53088	1.10372	2.68085	1.32208	3.20966	1.59885	3.89423	1.81022	4.41276	2.06138	5.01505			1.0543	2.55871	1.16824	2.84931	1.43955	3.49979	1.57734	3.83747	1.80836	4.41002	2.04496	4.98072		
1.09043	2.53366	1.09077	2.53351	1.11095	2.67958	1.3257	3.19602	1.604	3.87946	1.81447	4.39216	2.06576	4.99058			1.06209	2.55964	1.17261	2.83994	1.44531	3.48926	1.58319	3.82481	1.81315	4.39073	2.04848	4.95439		
1.08428	2.53641	1.08461	2.53625	1.1182	2.6784	1.32934	3.1826	1.60912	3.86479	1.8188	4.37204	2.0701	4.96636			1.06987	2.56055	1.17701	2.83076	1.45095	3.47859	1.58919	3.81265	1.81792	4.37165	2.05207	4.92859		
1.07815	2.53926	1.07849	2.5391	1.12549	2.6773	1.33299	3.16939	1.61418	3.85019	1.82322	4.3524	2.0744	4.9424			1.07765	2.56144	1.18144	2.82177	1.45648	3.4678	1.59532	3.80098	1.82265	4.35275	2.05573	4.90332		
1.07206	2.54223	1.07239	2.54206	1.1328	2.67627	1.33666	3.1564	1.61919	3.83568	1.82772	4.33321	2.07867	4.91868			1.08543	2.56231	1.18589	2.81298	1.46189	3.45688	1.60158	3.78979	1.82735	4.33405	2.05946	4.87856		
1.06599	2.5453	1.06632	2.54513	1.14013	2.67531	1.34034	3.14362	1.62414	3.82124	1.83229	4.31448	2.08291	4.8952			1.09321	2.56317	1.19037	2.80437	1.46719	3.44584	1.60798	3.77906	1.83203	4.31552	2.06326	4.8543		
1.05994	2.54846	1.06027	2.54829	1.14748	2.6744	1.34403	3.13105	1.62905	3.80687	1.83695	4.29619	2.08712	4.87196			1.10098	2.564	1.19488	2.79594	1.47238	3.43469	1.6145	3.76877	1.83667	4.29718	2.06713	4.83053		
1.05392	2.55173	1.05425	2.55155	1.15484	2.67354	1.34775	3.11869	1.6339	3.79257	1.84169	4.27833	2.09129	4.84896			1.10874	2.5648	1.19943	2.7877	1.47746	3.42345	1.62115	3.7589	1.84128	4.27901	2.07106	4.80724		
1.04791	2.55508	1.04824	2.55489	1.16222	2.67273	1.35148	3.10654	1.63869	3.77833	1.84651	4.26089	2.09543	4.8262			1.1165	2.56559	1.204	2.77964	1.48245	3.41212	1.62791	3.74944	1.84586	4.261	2.07507	4.78441		
1.04192	2.55851	1.04225	2.55832	1.16962	2.67197	1.35523	3.09458	1.64343	3.76415	1.85141	4.24387	2.09954	4.80366			1.12426	2.56636	1.2086	2.77176	1.48733	3.40072	1.63479	3.74036	1.8504	4.24317	2.07914	4.76204		
1.03594	2.56202	1.03627	2.56183	1.17702	2.67124	1.359	3.08283	1.64811	3.75004	1.85638	4.22724	2.10362	4.78136			1.13201	2.5671	1.21324	2.76406	1.49212	3.38926	1.64177	3.73165	1.85492	4.2255	2.08328	4.74012		
1.02996	2.56559	1.03029	2.56539	1.18444	2.67054	1.36279	3.07128	1.65274	3.73598	1.86143	4.211	2.10768	4.75928			1.13976	2.56783	1.21791	2.75653	1.49682	3.37775	1.64886	3.72327	1.85941	4.208	2.08748	4.71863		
1.02399	2.56921	1.02431	2.56902	1.19187	2.66987	1.36661	3.05992	1.65732	3.72199	1.86655	4.19514	2.1117	4.73744			1.1475	2.56853	1.22261	2.74917	1.50144	3.36621	1.65604	3.71522	1.86387	4.19066	2.09175	4.69756		
1.01801	2.57288	1.01833	2.57268	1.19931	2.66924	1.37044	3.04876	1.66184	3.70805	1.87175	4.17964	2.11571	4.71582			1.15523	2.5692	1.22734	2.74199	1.50599	3.35464	1.66331	3.70747	1.8683	4.17348	2.09608	4.6769		
1.01201	2.57657	1.01234	2.57637	1.20675	2.66862	1.37429	3.03779	1.66631	3.69418	1.87701	4.1645	2.11969	4.69443			1.16296	2.56985	1.23211	2.73497	1.51046	3.34307	1.67066	3.70001	1.8727	4.15646	2.10047	4.65664		
1.006	2.58027	1.00633	2.58007	1.2142	2.66804	1.37817	3.027	1.67072	3.68037	1.88234	4.1497	2.12365	4.67326			1.17067	2.57048	1.23692	2.72812	1.51487	3.3315	1.67809	3.6928	1.87708	4.1396	2.10492	4.63677		
0.999972	2.58397	1.0003	2.58377	1.22166	2.66747	1.38207	3.01641	1.67509	3.66662	1.88774	4.13522	2.12759	4.65233			1.17838	2.57108	1.24176	2.72144	1.51922	3.31994	1.68559	3.68584	1.88144	4.12291	2.10942	4.61727		
0.99391	2.58765	0.994242	2.58745	1.22912	2.66692	1.38599	3.00599	1.6794	3.65294	1.8932	4.12106	2.13152	4.63162			1.18608	2.57165	1.24664	2.71492	1.52351	3.3084	1.69314	3.67909	1.88577	4.10638	2.11398	4.59814		
0.987811	2.59128	0.988146	2.59109	1.23658	2.66638	1.38994	2.99576	1.68367	3.63932	1.89871	4.10721	2.13543	4.61114			1.19377	2.57219	1.25156	2.70857	1.52775	3.2969	1.70076	3.67256	1.89009	4.09001	2.11859	4.57936		
0.981669	2.59486	0.982006	2.59466	1.24405	2.66586	1.39392	2.98571	1.68789	3.62578	1.90428	4.09364	2.13934	4.59089			1.20145	2.57269	1.25652	2.70239	1.53194	3.28544	1.70842	3.66621	1.89439	4.07382	2.12325	4.56092		
0.975476	2.59836	0.975816	2.59817	1.25153	2.66536	1.39791	2.97584	1.69207	3.6123	1.9099	4.08035	2.14323	4.57088			1.20911	2.57317	1.26151	2.69636	1.53609	3.27404	1.71613	3.66003	1.89867	4.0578	2.12796	4.54281		
0.969227	2.60176	0.96957	2.60157	1.259	2.66486	1.40194	2.96614	1.6962	3.5989	1.91557	4.06733	2.14712	4.5511			1.21676	2.57361	1.26655	2.6905	1.54021	3.26269	1.72388	3.65401	1.90295	4.04195	2.13272	4.52502		
0.962918	2.60505	0.963264	2.60487	1.26648	2.66438	1.40599	2.95662	1.70029	3.58558	1.92128	4.05456	2.151	4.53155			1.2244	2.574	1.27164	2.68481	1.54429	3.25142	1.73165	3.64812	1.90722	4.02628	2.13752	4.50754		
0.956543	2.60821	0.956893	2.60804	1.27396	2.6639	1.41006	2.94726	1.70434	3.57233	1.92704	4.04203	2.15489	4.51224			1.23201	2.57436	1.27677	2.67927	1.54834	3.24021	1.73945	3.64236	1.91148	4.01079	2.14235	4.49035		
0.9501	2.61124	0.950454	2.61107	1.28144	2.66343	1.41417	2.93808	1.70835	3.55916	1.93283	4.02973	2.15878	4.49316			1.23961	2.57467	1.28195	2.67391	1.55236	3.22909	1.74727	3.63671	1.91575	3.99549	2.14723	4.47345		
0.943586	2.61411	0.943944	2.61396	1.28892	2.66297	1.4183	2.92906	1.71233	3.54608	1.93866	4.01765	2.16267	4.47433			1.24718	2.57493	1.28717	2.66871	1.55637	3.21805	1.7551	3.63114	1.92002	3.98039	2.15214	4.45682		
0.937002	2.61684	0.937363	2.6167	1.2964	2.66251	1.42246	2.92021	1.71628	3.53309	1.94451	4.00577	2.16657	4.45574			1.25473	2.57513	1.29246	2.66369	1.56035	3.20711	1.76293	3.62565	1.9243	3.96548	2.15709	4.44046		
0.930347	2.61942	0.930712	2.61928	1.30388	2.66205	1.42665	2.91152	1.72019	3.52018	1.95039	3.99409	2.17049	4.43739			1.26224	2.57526	1.29779	2.65884	1.56431	3.19625	1.77077	3.62023	1.92859	3.95077	2.16206	4.42436		
0.923623	2.62184	0.923992	2.62171	1.31135	2.6616	1.43087	2.90299	1.72407	3.50737	1.95629	3.98258	2.17441	4.41929			1.26972	2.57533	1.30319	2.65417	1.56826	3.1855	1.77859	3.61485	1.9329	3.93628	2.16706	4.40849		
0.916833	2.62411	0.917206	2.62399	1.31883	2.66115	1.43512	2.89462	1.72793	3.49464	1.96221	3.97124	2.17836	4.40144			1.27716	2.57532	1.30865	2.64968	1.5722	3.17485	1.78641	3.60951	1.93723	3.92201	2.17208	4.39286		
0.90998	2.62624	0.910356	2.62612	1.3263	2.66069	1.43939	2.88641	1.73175	3.48202	1.96814	3.96007	2.18233	4.38383			1.28456	2.57521	1.31418	2.64539	1.57613	3.1643	1.7942	3.60419	1.9416	3.90796	2.17713	4.37746		
0.903067	2.62823	0.903447	2.62812	1.33377	2.66024	1.4437	2.87836	1.73556	3.46949	1.97408	3.94904	2.18632	4.36648			1.29191	2.57501	1.31979	2.6413	1.58005	3.15386	1.80196	3.59887	1.946	3.89414	2.18219	4.36227		
0.896099	2.63009	0.896481	2.62999	1.34123	2.65978	1.44804	2.87046	1.73934	3.45706	1.98003	3.93814	2.19034	4.34939			1.2992	2.5747	1.32548	2.63741	1.58397	3.14353	1.80968	3.59354	1.95044	3.88057	2.18726	4.34728		
0.889079	2.63183	0.889464	2.63173	1.34869	2.65932	1.45242	2.86272	1.7431	3.44473	1.98597	3.92737	2.19439	4.33254			1.30643	2.57426	1.33126	2.63375	1.58788	3.13331	1.81737	3.58818	1.95493	3.86725	2.19235	4.33249		
0.882012	2.63345	0.882399	2.63337	1.35614	2.65885	1.45682	2.85512	1.74684	3.43251	1.99191	3.91672	2.19848	4.31596			1.31358	2.57369	1.33713	2.63031	1.5918	3.1232	1.825	3.58279	1.95948	3.8542	2.19745	4.31788		
0.8749	2.63498	0.87529	2.6349	1.36359	2.65838	1.46126	2.84768	1.75057	3.42039	1.99785	3.90617	2.2026	4.29964			1.32066	2.57297	1.3431	2.62712	1.59571	3.11321	1.83257	3.57734	1.96409	3.84141	2.20256	4.30346		
0.867749	2.63641	0.868141	2.63633	1.37103	2.6579	1.46574	2.84039	1.75428	3.40837	2.00377	3.89572					1.32765	2.5721	1.34919	2.62418	1.59962	3.10333	1.84007	3.57182	1.96878	3.82891				
0.860562	2.63775	0.860956	2.63768	1.37847	2.65741	1.47025	2.83325	1.75797	3.39646	2.00968	3.88536					1.33454	2.57105	1.35539	2.62149	1.60354	3.09357	1.8475	3.56621	1.97354	3.81671				
0.853342	2.63902	0.853737	2.63895	1.38589	2.65691	1.47479	2.82625	1.76166	3.38467	2.01557	3.87508					1.34135	2.56984	1.36171	2.61907	1.60746	3.08392	1.85484	3.5605	1.97839	3.80481				
0.846091	2.64021	0.846488	2.64015	1.3933	2.65639	1.47937	2.8194	1.76533	3.37298	2.02143	3.86486					1.34806	2.56846	1.36816	2.61691	1.61139	3.0744	1.86209	3.55468	1.98334	3.79323				
0.838814	2.64134	0.839213	2.64128	1.40071	2.65586	1.48399	2.8127	1.76899	3.3614	2.02727	3.8547					1.35468	2.56693	1.37473	2.61501	1.61532	3.06499	1.86923	3.54873	1.9884	3.78197				
0.831512	2.64242	0.831912	2.64236	1.4081	2.65531	1.48865	2.80615	1.77265	3.34993	2.03308	3.8446					1.36121	2.56524	1.38142	2.61335	1.61926	3.0557	1.87627	3.54263	1.99356	3.77106				
0.824189	2.64344	0.82459	2.64339	1.41548	2.65474	1.49335	2.79975	1.7763	3.33858	2.03885	3.83454					1.36766	2.56342	1.38822	2.61193	1.62321	3.04652	1.88319	3.53638	1.99885	3.76049				
0.816845	2.64442	0.817247	2.64437	1.42284	2.65415	1.4981	2.79349	1.77994	3.32733	2.04459	3.82452					1.37403	2.56149	1.39513	2.61072	1.62717	3.03747	1.88998	3.52995	2.00427	3.75027				
0.809483	2.64536	0.809886	2.64531	1.43019	2.65354	1.50288	2.78738	1.78358	3.3162	2.05028	3.81453					1.38035	2.55946	1.40214	2.60971	1.63114	3.02853	1.89664	3.52336	2.00983	3.74042				
0.802105	2.64626	0.802509	2.64621	1.43751	2.6529	1.50771	2.78142	1.78721	3.30519	2.05593	3.80457					1.38661	2.55736	1.40924	2.60887	1.63513	3.01971	1.90315	3.51657	2.01553	3.73094				
0.794712	2.64713	0.795117	2.64709	1.44482	2.65223	1.51259	2.7756	1.79085	3.29429	2.06153	3.79462					1.39284	2.5552	1.41641	2.60819	1.63912	3.011	1.90953	3.5096	2.02137	3.72184				
0.787306	2.64798	0.787711	2.64793	1.45211	2.65152	1.51752	2.76994	1.79448	3.2835	2.06708	3.78469					1.39902	2.55301	1.42365	2.60763	1.64313	3.00241	1.91576	3.50243	2.02737	3.7131				
0.779888	2.6488	0.780294	2.64875	1.45937	2.65078	1.5225	2.76444	1.79811	3.27282	2.07258	3.77477					1.40519	2.5508	1.43095	2.60719	1.64715	2.99394	1.92184	3.49506	2.03352	3.70474				
0.77246	2.6496	0.772866	2.64955	1.4666	2.64999	1.52753	2.75908	1.80174	3.26226	2.07803	3.76485					1.41133	2.54857	1.4383	2.60685	1.65119	2.98558	1.92777	3.48751	2.03982	3.69674				
0.765022	2.65038	0.765429	2.65034	1.4738	2.64916	1.53262	2.75389	1.80538	3.25181	2.08341	3.75494					1.41747	2.54635	1.4457	2.60658	1.65524	2.97733	1.93356	3.47976	2.04628	3.68911				
0.757575	2.65115	0.757982	2.6511	1.48097	2.64828	1.53776	2.74885	1.80902	3.24148	2.08874	3.74502					1.4236	2.54414	1.45313	2.60639	1.65931	2.9692	1.9392	3.47183	2.05289	3.68182				
0.750121	2.6519	0.750529	2.65186	1.48811	2.64735	1.54298	2.74398	1.81266	3.23126	2.09401	3.73509					1.42973	2.54195	1.46059	2.60626	1.66339	2.96118	1.94469	3.46373	2.05965	3.67488				
0.74266	2.65265	0.743068	2.65261	1.49521	2.64636	1.54825	2.73927	1.81631	3.22116	2.09922	3.72516					1.43586	2.53979	1.46809	2.60618	1.66749	2.95327	1.95004	3.45547	2.06655	3.66827				
0.735193	2.6534	0.735602	2.65336	1.50226	2.6453	1.5536	2.73473	1.81996	3.21116	2.10436	3.71522					1.44199	2.53766	1.4756	2.60614	1.67161	2.94548	1.95527	3.44705	2.0736	3.66198				
0.727721	2.65414	0.72813	2.6541	1.50926	2.64416	1.55902	2.73037	1.82362	3.20128	2.10945	3.70528					1.44814	2.53557	1.48314	2.60614	1.67575	2.93779	1.96036	3.4385	2.08078	3.65598				
0.720245	2.65488	0.720654	2.65484	1.51622	2.64296	1.56451	2.72618	1.82729	3.19151	2.11446	3.69532					1.4543	2.53353	1.49069	2.60617	1.6799	2.93021	1.96534	3.42983	2.08808	3.65026				
0.712765	2.65562	0.713174	2.65558	1.52312	2.64167	1.57009	2.72218	1.83096	3.18186	2.11942	3.68535					1.46047	2.53152	1.49826	2.60622	1.68407	2.92274	1.9702	3.42104	2.09551	3.64481				
0.705282	2.65637	0.705691	2.65632	1.52996	2.64029	1.57575	2.71836	1.83465	3.17231	2.12431	3.67537					1.46666	2.52956	1.50585	2.6063	1.68826	2.91538	1.97495	3.41216	2.10304	3.63961				
0.697797	2.65712	0.698206	2.65708	1.53675	2.63882	1.58149	2.71472	1.83834	3.16287	2.12914	3.66538					1.47286	2.52766	1.51344	2.60639	1.69247	2.90812	1.97961	3.4032	2.11069	3.63464				
0.69031	2.65788	0.690719	2.65784	1.54346	2.63726	1.58733	2.71128	1.84204	3.15355	2.13391	3.65538					1.47909	2.5258	1.52104	2.6065	1.6967	2.90097	1.98418	3.39417	2.11842	3.62989				
0.682822	2.65866	0.683231	2.65862	1.55011	2.6356	1.59326	2.70803	1.84575	3.14433	2.13861	3.64538					1.48533	2.52399	1.52865	2.60662	1.70095	2.89392	1.98866	3.38509	2.12625	3.62533				
0.675333	2.65945	0.675742	2.65941	1.5567	2.63384	1.59928	2.70497	1.84947	3.13522	2.14325	3.63537					1.49159	2.52224	1.53627	2.60676	1.70522	2.88698	1.99306	3.37596	2.13416	3.62096				
0.667844	2.66027	0.668254	2.66022	1.56321	2.63198	1.6054	2.70209	1.85321	3.12622	2.14784	3.62536					1.49788	2.52054	1.5439	2.6069	1.70951	2.88014	1.99739	3.3668	2.14214	3.61675				
0.660357	2.6611	0.660766	2.66105	1.56965	2.63002	1.61161	2.69941	1.85695	3.11733	2.15237	3.61535					1.50418	2.51889	1.55152	2.60705	1.71382	2.8734	2.00166	3.35763	2.15019	3.61269				
0.65287	2.66196	0.653279	2.66191	1.57603	2.62796	1.61791	2.6969	1.86071	3.10854	2.15684	3.60534					1.51051	2.51729	1.55916	2.6072	1.71815	2.86676	2.00587	3.34844	2.15829	3.60878				
0.645386	2.66285	0.645795	2.6628	1.58234	2.62582	1.62431	2.69457	1.86448	3.09986	2.16125	3.59534					1.51686	2.51575	1.56679	2.60736	1.7225	2.86022	2.01002	3.33925	2.16645	3.60498				
0.637905	2.66377	0.638313	2.66372	1.58858	2.62359	1.6308	2.69241	1.86826	3.09128	2.16561	3.58534					1.52324	2.51426	1.57443	2.60752	1.72687	2.85377	2.01413	3.33007	2.17466	3.60131				
0.630427	2.66473	0.630835	2.66468	1.59476	2.62128	1.63737	2.69041	1.87206	3.08281	2.16992	3.57536					1.52964	2.51283	1.58207	2.60768	1.73127	2.84743	2.01819	3.3209	2.18291	3.59773				
0.622953	2.66573	0.623361	2.66568	1.60089	2.6189	1.64402	2.68856	1.87587	3.07444	2.17419	3.56539					1.53606	2.51144	1.58971	2.60784	1.73569	2.84118	2.02221	3.31176	2.19119	3.59424				
0.615485	2.66678	0.615893	2.66672	1.60697	2.61645	1.65074	2.68685	1.87969	3.06617	2.1784	3.55544					1.5425	2.51011	1.59735	2.608	1.74013	2.83502	2.0262	3.30265	2.19949	3.59083				
0.608023	2.66789	0.60843	2.66782	1.61299	2.61396	1.65754	2.68528	1.88353	3.058	2.18257	3.5455					1.54897	2.50883	1.605	2.60816	1.74459	2.82896	2.03016	3.29357	2.20782	3.58749				
0.600568	2.66905	0.600975	2.66898	1.61898	2.61142	1.66441	2.68382	1.88738	3.04994	2.1867	3.5356					1.55547	2.5076	1.61264	2.60832	1.74908	2.823	2.03408	3.28453						
0.593121	2.67028	0.593528	2.67021	1.62493	2.60884	1.67133	2.68248	1.89125	3.04197	2.19078	3.52571					1.56199	2.50642	1.62028	2.60848	1.75359	2.81712	2.03799	3.27553						
0.585684	2.67159	0.58609	2.67151	1.63085	2.60624	1.67831	2.68123	1.89513	3.0341	2.19483	3.51586					1.56853	2.50529	1.62792	2.60863	1.75812	2.81134	2.04187	3.26658						
0.578258	2.67298	0.578664	2.6729	1.63673	2.60361	1.68535	2.68008	1.89903	3.02633	2.19884	3.50604					1.57509	2.50421	1.63556	2.60878	1.76268	2.80565	2.04573	3.25769						
0.570845	2.67447	0.57125	2.67439	1.6426	2.60098	1.69242	2.67902	1.90295	3.01866	2.20282	3.49625					1.58168	2.50317	1.64319	2.60892	1.76726	2.80005	2.04958	3.24885						
0.563446	2.67607	0.56385	2.67598	1.64845	2.59833	1.69954	2.67803	1.90688	3.01108							1.5883	2.50219	1.65083	2.60906	1.77187	2.79454	2.05341	3.24007						
0.556063	2.6778	0.556466	2.6777	1.65428	2.59569	1.7067	2.67711	1.91083	3.0036							1.59494	2.50125	1.65846	2.60919	1.7765	2.78912	2.05723	3.23135						
0.548699	2.67966	0.549101	2.67955	1.6601	2.59305	1.7139	2.67625	1.9148	2.99621							1.6016	2.50035	1.66609	2.60932	1.78115	2.78379	2.06104	3.22269						
0.541357	2.68168	0.541758	2.68157	1.66591	2.59043	1.72112	2.67545	1.91878	2.98892							1.60828	2.4995	1.67371	2.60944	1.78583	2.77854	2.06484	3.2141						
0.534039	2.68389	0.534438	2.68376	1.67172	2.58782	1.72838	2.6747	1.92278	2.98171							1.61499	2.49869	1.68133	2.60955	1.79054	2.77338	2.06864	3.20557						
0.526749	2.6863	0.527147	2.68616	1.67752	2.58523	1.73566	2.67399	1.9268	2.9746							1.62172	2.49793	1.68895	2.60966	1.79527	2.76831	2.07243	3.19711						
0.519492	2.68896	0.519888	2.6888	1.68332	2.58266	1.74296	2.67333	1.93084	2.96758							1.62848	2.49721	1.69656	2.60975	1.80003	2.76332	2.07621	3.18873						
0.512272	2.69189	0.512665	2.69172	1.68913	2.58011	1.75028	2.67271	1.93489	2.96065							1.63525	2.49653	1.70416	2.60984	1.80481	2.75842	2.08	3.18041						
0.505095	2.69514	0.505486	2.69495	1.69493	2.57759	1.75762	2.67212	1.93896	2.95381							1.64205	2.49588	1.71176	2.60991	1.80963	2.75361	2.08378	3.17217						
0.497967	2.69876	0.498355	2.69855	1.70075	2.57511	1.76498	2.67156	1.94306	2.94706							1.64887	2.49528	1.71935	2.60998	1.81447	2.74887	2.08756	3.164						
0.490897	2.70281	0.491282	2.70258	1.70657	2.57265	1.77236	2.67102	1.94717	2.94039							1.65572	2.49472	1.72694	2.61003	1.81934	2.74423	2.09135	3.1559						
0.483895	2.70737	0.484275	2.70711	1.71239	2.57023	1.77975	2.67052	1.95129	2.93381							1.66258	2.49419	1.73451	2.61007	1.82424	2.73966	2.09514	3.14787						
0.476969	2.71252	0.477346	2.71222	1.71823	2.56784	1.78715	2.67003	1.95544	2.92732							1.66947	2.4937	1.74208	2.61009	1.82917	2.73518	2.09893	3.13992						
0.470135	2.71837	0.470506	2.71803	1.72408	2.56549	1.79456	2.66957	1.95961	2.92091							1.67637	2.49324	1.74964	2.61011	1.83413	2.73079	2.10272	3.13205						
0.463405	2.72503	0.46377	2.72465	1.72994	2.56318	1.80198	2.66913	1.9638	2.91458							1.6833	2.49282	1.75718	2.6101	1.83912	2.72648	2.10652	3.12425						
0.456798	2.73266	0.457156	2.73222	1.73581	2.5609	1.80941	2.6687	1.968	2.90834							1.69025	2.49243	1.76472	2.61008	1.84414	2.72225	2.11033	3.11652						
0.450331	2.74141	0.450681	2.7409	1.74169	2.55866	1.81685	2.66829	1.97223	2.90218							1.69721	2.49208	1.77224	2.61004	1.8492	2.71811	2.11414	3.10887						
0.444026	2.75147	0.444366	2.75089	1.74759	2.55646	1.8243	2.66789	1.97648	2.8961							1.7042	2.49175	1.77975	2.60998	1.85429	2.71406	2.11796	3.1013						
0.437904	2.76307	0.438234	2.76239	1.7535	2.5543	1.83175	2.66751	1.98074	2.89011							1.7112	2.49146	1.78724	2.6099	1.85942	2.71009	2.12179	3.0938						
0.431988	2.77641	0.432306	2.77563	1.75943	2.55218	1.83921	2.66713	1.98503	2.88419							1.71823	2.49119	1.79472	2.6098	1.86458	2.70621	2.12563	3.08638						
0.4263	2.79175	0.426605	2.79085	1.76537	2.55011	1.84667	2.66677	1.98934	2.87835							1.72527	2.49096	1.80218	2.60967	1.86978	2.70241	2.12947	3.07903						
0.420859	2.80933	0.421149	2.80831	1.77133	2.54807	1.85414	2.66642	1.99367	2.87259							1.73233	2.49075	1.80962	2.60951	1.87503	2.69871	2.13332	3.07175						
0.415681	2.82939	0.415957	2.82823	1.77731	2.54607	1.86161	2.66607	1.99802	2.86691							1.73941	2.49057	1.81704	2.60933	1.88031	2.6951	2.13719	3.06455						
0.410779	2.85218	0.411039	2.85086	1.78331	2.54412	1.86908	2.66573	2.00239	2.86131							1.7465	2.49041	1.82444	2.60911	1.88564	2.69158	2.14106	3.05743						
0.406159	2.8779	0.406404	2.87642	1.78933	2.54222	1.87656	2.6654	2.00678	2.85578							1.75362	2.49028	1.83181	2.60886	1.89102	2.68815	2.14495	3.05038						
0.401825	2.90677	0.402054	2.90511	1.79538	2.54038	1.88404	2.66507	2.01119	2.85033							1.76075	2.49018	1.83915	2.60857	1.89644	2.68483	2.14885	3.0434						
0.397774	2.93896	0.397988	2.93711	1.80152	2.53867	1.89152	2.66475	2.01563	2.84495							1.76789	2.4901	1.84646	2.60824	1.90192	2.6816	2.15275	3.0365						
0.394003	2.97467	0.394202	2.97262	1.80712	2.53623	1.89899	2.66443	2.02009	2.83965							1.77505	2.49004	1.85374	2.60787	1.90745	2.67847	2.15667	3.02967						
0.390505	3.01408	0.390689	3.01182	1.81337	2.53472	1.90647	2.66411	2.02457	2.83443							1.78223	2.49	1.86099	2.60745	1.91304	2.67545	2.16061	3.02291						
0.387272	3.05738	0.387442	3.05491	1.81951	2.53305	1.91395	2.66379	2.02907	2.82927							1.78942	2.48999	1.86819	2.60698	1.91868	2.67254	2.16455	3.01622						
0.384297	3.10479	0.384453	3.10209	1.82563	2.53139	1.92143	2.66348	2.0336	2.82419							1.79663	2.49	1.87535	2.60645	1.92439	2.66973	2.16851	3.00961						
0.381572	3.15654	0.381714	3.1536	1.83177	2.52975	1.92891	2.66316	2.03815	2.81919							1.80385	2.49002	1.88247	2.60587	1.93017	2.66704	2.17248	3.00306						
0.37909	3.21289	0.37922	3.20969	1.83793	2.52815	1.93638	2.66285	2.04272	2.81426							1.81108	2.49007	1.88953	2.60522	1.93602	2.66447	2.17646	2.99659						
0.376846	3.27413	0.376962	3.27065	1.84409	2.52659	1.94385	2.66253	2.04732	2.8094							1.81833	2.49013	1.89655	2.6045	1.94194	2.66202	2.18046	2.99018						
0.374833	3.3406	0.374937	3.33682	1.85028	2.52506	1.95132	2.66221	2.05194	2.80461							1.8256	2.49021	1.90351	2.60372	1.94793	2.6597	2.18448	2.98385						
0.373048	3.41266	0.37314	3.40857	1.85649	2.52356	1.95879	2.66189	2.05659	2.79989							1.83287	2.49031	1.91041	2.60286	1.95401	2.6575	2.1885	2.97759						
0.371485	3.49073	0.371565	3.4863	1.86271	2.5221	1.96625	2.66157	2.06126	2.79524							1.84016	2.49043	1.91725	2.60192	1.96016	2.65542	2.19254	2.97139						
0.370142	3.57529	0.37021	3.57049	1.86895	2.52068	1.9737	2.66124	2.06596	2.79067							1.84746	2.49056	1.92402	2.6009	1.9664	2.65348	2.1966	2.96526						
0.369015	3.66685	0.369072	3.66166	1.87521	2.51929	1.98115	2.66091	2.07069	2.78617							1.85477	2.4907	1.93073	2.59981	1.97272	2.65166	2.20067	2.9592						
0.368102	3.76602	0.368146	3.76039	1.88148	2.51794	1.98859	2.66056	2.07544	2.78174							1.8621	2.49087	1.93738	2.59864	1.97913	2.64996								
0.367399	3.87345	0.367432	3.86736	1.88778	2.51663	1.99602	2.66022	2.08022	2.77738							1.86943	2.49104	1.94396	2.59739	1.98561	2.64839								
0.366905	3.98991	0.366927	3.9833	1.89409	2.51534	2.00345	2.65986	2.08503	2.77309							1.87678	2.49123	1.95048	2.59607	1.99218	2.64694								
0.366616	4.11625	0.366627	4.10907	1.90043	2.5141	2.01087	2.65949	2.08987	2.76887							1.88414	2.49143	1.95694	2.59468	1.99883	2.6456								
0.366531	4.25343	0.366531	4.24563	1.90678	2.51288	2.01827	2.65911	2.09474	2.76473							1.89151	2.49165	1.96334	2.59322	2.00555	2.64437								
0.366647	4.40255	0.366636	4.39407	1.91315	2.5117	2.02567	2.65872	2.09964	2.76066							1.89889	2.49187	1.96968	2.59169	2.01234	2.64325								
0.366961	4.56486	0.366939	4.55563	1.91953	2.51055	2.03305	2.65832	2.10457	2.75666							1.90628	2.49211	1.97597	2.59011	2.0192	2.64222								
0.367395	4.7182	0.367439	4.73175	1.92594	2.50944	2.04041	2.6579	2.10954	2.75274							1.91368	2.49236	1.98222	2.58849	2.02613	2.64129								
0.367881	4.85851	0.368132	4.92409	1.93236	2.50835	2.04776	2.65746	2.11454	2.74889							1.92109	2.49262	1.98842	2.58681	2.03311	2.64044								
0.368363	4.98177	0.369015	5.13455	1.9388	2.5073	2.05509	2.657	2.11958	2.74512							1.92851	2.49289	1.99458	2.5851	2.04015	2.63966								
0.368794	5.0842	0.370086	5.36539	1.94526	2.50628	2.06241	2.65652	2.12466	2.74143							1.93594	2.49317	2.00071	2.58336	2.04724	2.63896								
0.36914	5.16249	0.37134	5.61922	1.95174	2.50529	2.0697	2.65602	2.12978	2.73781							1.94337	2.49346	2.00681	2.58159	2.05437	2.63832								
0.369479	5.23683	0.372775	5.89914	1.95824	2.50433	2.07697	2.65549	2.13494	2.73428							1.95082	2.49376	2.01288	2.5798	2.06155	2.63773								
0.369726	5.28991	0.374388	6.20885	1.96475	2.5034	2.08421	2.65493	2.14014	2.73083							1.95827	2.49407	2.01893	2.578	2.06876	2.6372								
0.370133	5.37517	0.376173	6.55279	1.97128	2.50249	2.09142	2.65434	2.14539	2.72746							1.96574	2.49438	2.02496	2.57618	2.07601	2.63672								
0.370723	5.49587	0.378128	6.93634	1.97783	2.50162	2.09861	2.65371	2.15069	2.72418							1.97321	2.4947	2.03097	2.57436	2.08329	2.63628								
0.371531	5.65686	0.380248	7.36606	1.98439	2.50078	2.10576	2.65305	2.15605	2.721							1.98068	2.49503	2.03698	2.57254	2.0906	2.63588								
0.372599	5.86499	0.382226	7.78449	1.99098	2.49996	2.11287	2.65234	2.16146	2.7179							1.98817	2.49537	2.04297	2.57072	2.09793	2.63552								
0.373976	6.12988	0.384007	8.17865	1.99758	2.49917	2.11994	2.65159	2.16692	2.7149							1.99566	2.49571	2.04895	2.5689	2.10529	2.63518								
0.375719	6.46497	0.385543	8.53433	2.0042	2.49841	2.12696	2.65079	2.17245	2.712							2.00316	2.49606	2.05494	2.56709	2.11266	2.63487								
0.377633	6.83824	0.386797	8.83692	2.01083	2.49767	2.13394	2.64993	2.17804	2.7092							2.01067	2.49642	2.06091	2.56529	2.12006	2.63459								
0.379713	7.25595	0.387742	9.07263	2.01748	2.49697	2.14087	2.64902	2.18371	2.7065							2.01818	2.49678	2.06689	2.5635	2.12747	2.63433								
0.381954	7.7258	0.388627	9.30016	2.02415	2.49628	2.14774	2.64804	2.18944	2.70392							2.0257	2.49715	2.07287	2.56173	2.13489	2.63409								
0.384353	8.25743	0.389253	9.46487	2.03083	2.49562	2.15455	2.647	2.19525	2.70144							2.03322	2.49752	2.07885	2.55997	2.14233	2.63387								
0.386903	8.86298	0.390244	9.73347	2.03754	2.49499	2.16131	2.6459	2.20114	2.69908							2.04075	2.49789	2.08484	2.55823	2.14978	2.63366								
0.389601	9.55809	0.391621	10.1225	2.04425	2.49438	2.16799	2.64472									2.04829	2.49827	2.09083	2.5565	2.15724	2.63346								
0.39244	10.3631	0.393409	10.6582	2.05099	2.4938	2.17462	2.64348									2.05583	2.49866	2.09682	2.5548	2.16471	2.63328								
0.395414	11.3052	0.395639	11.3811	2.05774	2.49323	2.18118	2.64216									2.06338	2.49904	2.10283	2.55311	2.17218	2.63311								
0.398516	12.4211	0.398343	12.3548	2.0645	2.4927	2.18767	2.64077									2.07093	2.49944	2.10884	2.55145	2.17967	2.63295								
0.401739	13.7622	0.40156	13.682	2.07128	2.49218	2.19409	2.63931									2.07849	2.49983	2.11486	2.54981	2.18716	2.6328								
0.405074	15.4027	0.404889	15.3036	2.07808	2.49169	2.20045	2.63778									2.08605	2.50023	2.12089	2.5482	2.19465	2.63266								
0.408509	17.4528	0.408319	17.3276	2.08489	2.49121											2.09362	2.50062	2.12693	2.54661	2.20215	2.63252								
0.41203	20.0853	0.411836	19.9223	2.09172	2.49076											2.10118	2.50102	2.13298	2.54504										
0.415614	23.5856	0.415417	23.3647	2.09856	2.49033											2.10876	2.50143	2.13905	2.5435										
0.419231	28.4628	0.419033	28.1472	2.10542	2.48992											2.11633	2.50183	2.14512	2.54198										
0.422827	35.7219	0.422632	35.2348	2.11229	2.48953											2.12391	2.50223	2.15121	2.54049										
0.426302	47.6627	0.426118	46.8146	2.11917	2.48916											2.13149	2.50264	2.15732	2.53902										
0.429464	70.9663	0.429305	69.1338	2.12607	2.48881											2.13908	2.50304	2.16344	2.53758										
0.431918	136.718	0.431813	130.17	2.13299	2.48848											2.14666	2.50344	2.16957	2.53617										
0.433004	1623.44	0.432992	1019.23	2.13992	2.48817											2.15425	2.50384	2.17572	2.53479										
				2.14686	2.48787											2.16183	2.50424	2.18188	2.53344										
				2.15381	2.48759											2.16942	2.50463	2.18807	2.53211										
				2.16078	2.48733											2.177	2.50502	2.19427	2.53082										
				2.16777	2.48709											2.18458	2.5054	2.20049	2.52955										
				2.17476	2.48686											2.19215	2.50578												
				2.18177	2.48665											2.19972	2.50615												
				2.18879	2.48646											2.20728	2.5065												
				2.19582	2.48628																								
				2.20287	2.48611																								
