Sym0		Asym0		Sym1		Sym2		Sym3		Asym1		Asym2		Asym3		Asym4	
337  Points		377  Points		337  Points		319  Points		236  Points		344  Points		298  Points		230  Points		116  Points	
Freq (MHz)	Vph (m/ms)	Freq (MHz)	Vph (m/ms)	Freq (MHz)	Vph (m/ms)	Freq (MHz)	Vph (m/ms)	Freq (MHz)	Vph (m/ms)	Freq (MHz)	Vph (m/ms)	Freq (MHz)	Vph (m/ms)	Freq (MHz)	Vph (m/ms)	Freq (MHz)	Vph (m/ms)
0.353546	411.447	0.000302225	0.107426	1.00027	2.56633	0.435355	486.542	0.707108	1426.24	0.176814	177.266	0.530332	643.746	0.870674	6789.32	0.883889	1646.83
0.35351	173.477	0.000607475	0.152179	0.997821	2.5678	0.435431	210.018	0.707117	422.337	0.176952	81.3215	0.530342	264.862	0.870657	666.275	0.883938	515.346
0.353445	109.892	0.00101675	0.196649	0.99537	2.56929	0.435568	133.946	0.707136	247.874	0.177193	52.823	0.530359	166.735	0.870612	350.31	0.884037	305.499
0.353353	80.4023	0.00152875	0.240791	0.992919	2.57078	0.435766	98.3597	0.707164	175.418	0.177536	39.1654	0.530385	121.666	0.870541	237.608	0.884185	217.124
0.353232	63.3791	0.00214179	0.284533	0.990467	2.57228	0.436022	77.7384	0.707203	135.744	0.177979	31.1616	0.530419	95.7803	0.870444	179.759	0.884381	168.429
0.353084	52.2945	0.00285382	0.327803	0.988015	2.57379	0.436338	64.2869	0.707252	110.71	0.178521	25.9101	0.53046	78.9801	0.870324	144.553	0.884622	137.593
0.35291	44.5012	0.00366267	0.370551	0.985562	2.57531	0.436711	54.8229	0.70731	93.4748	0.17916	22.2048	0.53051	67.1966	0.870184	120.871	0.884906	116.316
0.352711	38.7217	0.00456574	0.412707	0.983108	2.57683	0.437142	47.8044	0.707378	80.8861	0.179893	19.4542	0.530568	58.4751	0.870026	103.849	0.885229	100.751
0.352487	34.2641	0.0055604	0.454228	0.980652	2.57836	0.437628	42.394	0.707457	71.2884	0.180719	17.3343	0.530634	51.7595	0.869853	91.0237	0.88559	88.8717
0.352241	30.7208	0.00664396	0.495081	0.978195	2.57989	0.438169	38.097	0.707545	63.7291	0.181636	15.6528	0.530708	46.4294	0.869667	81.0134	0.885986	79.5082
0.351973	27.8363	0.00781333	0.535217	0.975737	2.58143	0.438763	34.603	0.707643	57.6214	0.182639	14.2881	0.53079	42.0963	0.86947	72.9828	0.886414	71.9385
0.351685	25.4422	0.00906558	0.574609	0.973276	2.58298	0.439408	31.707	0.707751	52.5841	0.183726	13.1599	0.53088	38.5046	0.869265	66.3974	0.886872	65.6925
0.351379	23.4231	0.0103976	0.61323	0.970814	2.58452	0.440104	29.2682	0.707869	48.3586	0.184895	12.2127	0.530979	35.4791	0.869054	60.8992	0.887359	60.4515
0.351056	21.697	0.0118063	0.651062	0.968348	2.58607	0.440849	27.187	0.707997	44.7634	0.186142	11.4071	0.531085	32.8958	0.86884	56.2396	0.887872	55.9911
0.350717	20.2044	0.0132886	0.688081	0.96588	2.58763	0.441642	25.3905	0.708134	41.6674	0.187464	10.7143	0.5312	30.6645	0.868622	52.2404	0.888409	52.1493
0.350364	18.9008	0.0148412	0.72428	0.963409	2.58918	0.442479	23.8245	0.708282	38.9735	0.188675	10.1857	0.531324	28.7179	0.868404	48.7705	0.888971	48.806
0.349999	17.7525	0.0164613	0.759653	0.960934	2.59073	0.443362	22.4476	0.70844	36.6082	0.18975	9.78138	0.531455	27.0048	0.868185	45.7315	0.889554	45.8701
0.349622	16.7332	0.0181458	0.794195	0.958455	2.59229	0.444286	21.2278	0.708608	34.5149	0.190665	9.475	0.531595	25.4858	0.867968	43.0477	0.890158	43.2716
0.349237	15.8223	0.0198917	0.827905	0.955972	2.59384	0.445252	20.1399	0.708786	32.6494	0.191407	9.24877	0.531744	24.1296	0.867754	40.6605	0.890782	40.9557
0.348844	15.0034	0.0216962	0.860789	0.953485	2.59539	0.446257	19.1638	0.708974	30.9765	0.191962	9.09071	0.531901	22.9114	0.867542	38.5233	0.891426	38.8786
0.348445	14.2633	0.0235566	0.892851	0.950993	2.59694	0.447301	18.2833	0.709172	29.4678	0.192322	8.993	0.532066	21.8113	0.867335	36.5988	0.892087	37.0054
0.348041	13.5911	0.0254701	0.924098	0.948496	2.59848	0.44838	17.4851	0.70938	28.1004	0.192844	8.85705	0.532241	20.813	0.867133	34.8568	0.892766	35.3075
0.347633	12.9779	0.0274342	0.954546	0.945993	2.60002	0.449496	16.7584	0.709598	26.8553	0.193419	8.715	0.532423	19.9029	0.866935	33.2727	0.893463	33.7615
0.347224	12.4164	0.0294465	0.984203	0.943485	2.60155	0.450644	16.0941	0.709827	25.7169	0.194213	8.53077	0.532615	19.0699	0.866744	31.8258	0.894175	32.3479
0.346815	11.9002	0.0315044	1.01308	0.94097	2.60308	0.451826	15.4846	0.710066	24.6721	0.195238	8.31147	0.532815	18.3047	0.866558	30.4992	0.894904	31.0504
0.346406	11.4242	0.033606	1.0412	0.938449	2.6046	0.453038	14.9234	0.710314	23.7099	0.196505	8.06484	0.533024	17.5993	0.86638	29.2785	0.895649	29.8554
0.345999	10.9839	0.0357489	1.06858	0.935922	2.60611	0.45428	14.4051	0.710574	22.8208	0.19803	7.79871	0.533242	16.9471	0.866208	28.1515	0.896408	28.7513
0.345595	10.5754	0.037931	1.09522	0.933387	2.6076	0.455551	13.925	0.710843	21.9969	0.199828	7.52049	0.533469	16.3422	0.866044	27.1079	0.897182	27.728
0.345196	10.1955	0.0401506	1.12116	0.930844	2.60909	0.45685	13.4791	0.711123	21.2313	0.201676	7.26769	0.533705	15.7798	0.865887	26.1387	0.897972	26.7771
0.344802	9.84133	0.0424057	1.1464	0.928294	2.61057	0.458175	13.064	0.711413	20.518	0.20357	7.0371	0.53395	15.2554	0.865738	25.2364	0.898775	25.8912
0.344415	9.51039	0.0446945	1.17097	0.925735	2.61203	0.459525	12.6765	0.711713	19.8519	0.205509	6.82604	0.534205	14.7655	0.865597	24.3943	0.899592	25.0638
0.344035	9.2005	0.0470155	1.19489	0.923168	2.61347	0.460899	12.3141	0.712024	19.2285	0.20749	6.63222	0.534468	14.3068	0.865464	23.6065	0.900423	24.2894
0.343665	8.90978	0.0493669	1.21816	0.920592	2.61491	0.462297	11.9744	0.712346	18.6438	0.209511	6.45369	0.534741	13.8763	0.865339	22.868	0.901268	23.5631
0.343303	8.63653	0.0517474	1.24082	0.918008	2.61632	0.463717	11.6554	0.712678	18.0944	0.211569	6.2888	0.535024	13.4717	0.865223	22.1743	0.902126	22.8806
0.342953	8.37928	0.0541555	1.26287	0.915414	2.61772	0.465159	11.3553	0.71302	17.5771	0.213663	6.13608	0.535316	13.0906	0.865115	21.5215	0.902997	22.238
0.342613	8.1367	0.05659	1.28435	0.91281	2.6191	0.466621	11.0724	0.713373	17.0894	0.21579	5.99429	0.535617	12.731	0.865016	20.9062	0.903882	21.6319
0.342286	7.90761	0.0590493	1.30525	0.910197	2.62047	0.468103	10.8054	0.713737	16.6286	0.217949	5.86235	0.535928	12.3913	0.864926	20.3251	0.904779	21.0594
0.341972	7.69096	0.0615326	1.32561	0.907573	2.62181	0.469604	10.553	0.714111	16.1927	0.220138	5.73929	0.536249	12.0699	0.864844	19.7755	0.905689	20.5178
0.341672	7.48579	0.0640386	1.34544	0.90494	2.62313	0.471123	10.314	0.714496	15.7798	0.222355	5.62429	0.53658	11.7652	0.864772	19.2549	0.906612	20.0046
0.341386	7.29127	0.0665661	1.36475	0.902296	2.62443	0.472461	10.1158	0.714892	15.388	0.224599	5.5166	0.536921	11.4762	0.864708	18.7612	0.907547	19.5177
0.341115	7.10661	0.0691144	1.38357	0.899642	2.62571	0.473612	9.95387	0.715298	15.0158	0.226868	5.41557	0.537272	11.2015	0.864654	18.2923	0.908494	19.0551
0.340861	6.93113	0.0716823	1.4019	0.896977	2.62697	0.47457	9.82453	0.715715	14.6619	0.22916	5.32061	0.537633	10.9402	0.864608	17.8464	0.909454	18.6151
0.340622	6.76418	0.0742689	1.41976	0.894301	2.62821	0.475332	9.72507	0.716144	14.3248	0.231475	5.23122	0.538005	10.6914	0.864572	17.4218	0.910426	18.1961
0.340401	6.6052	0.0768735	1.43717	0.891615	2.62942	0.475895	9.65345	0.716583	14.0035	0.233812	5.14694	0.538386	10.4541	0.864544	17.0172	0.91141	17.7966
0.340197	6.45367	0.0794953	1.45415	0.888918	2.63061	0.476256	9.60828	0.717033	13.6968	0.236168	5.06734	0.538728	10.2562	0.864526	16.631	0.912406	17.4153
0.340012	6.3091	0.0821333	1.4707	0.88621	2.63178	0.476777	9.54422	0.717494	13.4039	0.238542	4.99206	0.539025	10.0937	0.864517	16.2622	0.913414	17.0509
0.339845	6.17106	0.084787	1.48684	0.883492	2.63292	0.477345	9.47574	0.717966	13.1238	0.240935	4.92076	0.539275	9.96329	0.864517	15.9095	0.914434	16.7025
0.339698	6.03915	0.0874556	1.50259	0.880763	2.63403	0.47812	9.38449	0.71845	12.8557	0.243343	4.85315	0.539476	9.86269	0.864526	15.5719	0.915465	16.369
0.339571	5.913	0.0901386	1.51795	0.878023	2.63513	0.479105	9.27208	0.718944	12.5988	0.245768	4.78894	0.539625	9.79008	0.864545	15.2486	0.916508	16.0494
0.339463	5.79226	0.0928352	1.53294	0.875273	2.6362	0.480303	9.14041	0.71945	12.3526	0.248207	4.7279	0.539721	9.74421	0.864572	14.9385	0.917562	15.743
0.339377	5.67663	0.095545	1.54757	0.872512	2.63724	0.481719	8.99162	0.719968	12.1163	0.25066	4.66979	0.53986	9.67906	0.864609	14.641	0.918628	15.4489
0.339311	5.56582	0.0982673	1.56185	0.86974	2.63827	0.483356	8.82797	0.720496	11.8894	0.253126	4.61442	0.540013	9.60928	0.864655	14.3553	0.919705	15.1664
0.339267	5.45955	0.101002	1.57579	0.866959	2.63926	0.485005	8.67145	0.721036	11.6713	0.255604	4.5616	0.540223	9.51609	0.86471	14.0807	0.920794	14.8949
0.339245	5.35759	0.103747	1.5894	0.864168	2.64024	0.486667	8.52161	0.721587	11.4616	0.258093	4.51114	0.540492	9.40095	0.864774	13.8166	0.921893	14.6337
0.339245	5.2597	0.106504	1.6027	0.861366	2.64119	0.488341	8.37802	0.72215	11.2598	0.260594	4.46291	0.540823	9.26561	0.864848	13.5624	0.923004	14.3823
0.339268	5.16567	0.109272	1.6157	0.858556	2.64212	0.490025	8.24031	0.722725	11.0654	0.263104	4.41676	0.541219	9.11208	0.86493	13.3176	0.924125	14.1401
0.339313	5.07529	0.11205	1.62839	0.855735	2.64302	0.491721	8.10814	0.723311	10.8781	0.265623	4.37254	0.541685	8.94248	0.865022	13.0816	0.925258	13.9067
0.339372	4.99938	0.114837	1.6408	0.852906	2.64391	0.493426	7.98117	0.723909	10.6975	0.268151	4.33016	0.542161	8.77953	0.865123	12.8541	0.926402	13.6815
0.339437	4.93666	0.117634	1.65293	0.850067	2.64477	0.495142	7.8591	0.72444	10.5453	0.270688	4.28948	0.542649	8.62287	0.865233	12.6345	0.927556	13.4642
0.3395	4.88613	0.12044	1.66479	0.847219	2.64561	0.496867	7.74167	0.724899	10.4192	0.273231	4.25041	0.543149	8.47215	0.865352	12.4224	0.928721	13.2544
0.339556	4.84701	0.123255	1.67639	0.844363	2.64643	0.498601	7.6286	0.725284	10.3174	0.275782	4.21286	0.54366	8.32705	0.86548	12.2176	0.929896	13.0517
0.339601	4.8187	0.126078	1.68773	0.841499	2.64723	0.500343	7.51968	0.725591	10.2384	0.278339	4.17673	0.544183	8.18727	0.865617	12.0195	0.931082	12.8557
0.339632	4.80079	0.128909	1.69883	0.838626	2.64801	0.502094	7.41466	0.725819	10.1811	0.280903	4.14194	0.544718	8.05254	0.865763	11.828	0.932279	12.6661
0.339678	4.7753	0.131747	1.70968	0.835746	2.64878	0.503853	7.31336	0.725966	10.1449	0.283471	4.10843	0.545264	7.9226	0.865918	11.6427	0.933486	12.4826
0.339731	4.74795	0.134594	1.72031	0.832858	2.64952	0.505619	7.21556	0.726178	10.0932	0.286045	4.07611	0.545823	7.79721	0.866082	11.4632	0.934703	12.305
0.339808	4.71134	0.137447	1.73071	0.829962	2.65024	0.507393	7.12111	0.726409	10.0377	0.288624	4.04492	0.546395	7.67614	0.866256	11.2894	0.935931	12.1329
0.339914	4.66597	0.140307	1.74089	0.82706	2.65095	0.509173	7.02982	0.726727	9.96328	0.291206	4.0148	0.546978	7.55918	0.866438	11.121	0.937168	11.9661
0.340054	4.61247	0.143174	1.75086	0.82415	2.65164	0.510959	6.94154	0.727133	9.87087	0.293793	3.9857	0.547575	7.44615	0.866629	10.9577	0.938416	11.8044
0.340237	4.55155	0.146048	1.76063	0.821234	2.65231	0.512752	6.85613	0.72763	9.76161	0.296382	3.95756	0.548184	7.33685	0.866802	10.8194	0.939674	11.6476
0.34047	4.48397	0.148927	1.77019	0.818311	2.65297	0.514551	6.77344	0.728221	9.63677	0.298975	3.93034	0.548805	7.23111	0.866956	10.7044	0.940942	11.4954
0.340729	4.4188	0.151813	1.77956	0.815382	2.65362	0.516355	6.69335	0.728911	9.49778	0.301571	3.90397	0.54944	7.12878	0.867087	10.6111	0.942219	11.3476
0.341013	4.35591	0.154704	1.78874	0.812447	2.65424	0.518164	6.61574	0.729614	9.36315	0.304169	3.87843	0.550088	7.02969	0.867192	10.5386	0.943507	11.2041
0.341324	4.29522	0.157601	1.79774	0.809506	2.65486	0.519979	6.54049	0.730328	9.23269	0.306769	3.85368	0.550748	6.93371	0.867271	10.4859	0.944804	11.0646
0.341661	4.23663	0.160503	1.80656	0.806559	2.65546	0.521798	6.4675	0.731055	9.10621	0.30937	3.82966	0.551422	6.8407	0.867322	10.4525	0.945942	10.9463
0.342024	4.18005	0.163411	1.81521	0.803607	2.65604	0.523621	6.39666	0.731795	8.98354	0.311973	3.80635	0.55211	6.75054	0.867397	10.4048	0.946918	10.8477
0.342414	4.12539	0.166323	1.82369	0.80065	2.65662	0.525449	6.32789	0.732547	8.86453	0.314577	3.78372	0.552811	6.6631	0.867478	10.3535	0.947729	10.7677
0.342831	4.07259	0.169241	1.832	0.797688	2.65718	0.52728	6.26108	0.733311	8.74901	0.317182	3.76172	0.553526	6.57827	0.867592	10.2846	0.948373	10.7054
0.343275	4.02157	0.172163	1.84016	0.794721	2.65773	0.529115	6.19616	0.734089	8.63684	0.319787	3.74034	0.554254	6.49595	0.867738	10.1988	0.948847	10.6601
0.343747	3.97225	0.175089	1.84816	0.79175	2.65827	0.530953	6.13304	0.734878	8.52789	0.322392	3.71954	0.554997	6.41603	0.867919	10.0971	0.949152	10.6313
0.344246	3.92457	0.17802	1.856	0.788774	2.6588	0.532795	6.07166	0.735681	8.42202	0.324998	3.69931	0.555753	6.33842	0.868138	9.98037	0.949591	10.5903
0.344773	3.87847	0.180955	1.86371	0.785793	2.65932	0.534639	6.01193	0.736497	8.31912	0.327603	3.6796	0.556524	6.26303	0.868397	9.8499	0.950068	10.5462
0.345328	3.83388	0.183894	1.87126	0.782809	2.65983	0.536486	5.9538	0.737325	8.21907	0.330207	3.6604	0.557309	6.18977	0.868665	9.72296	0.95072	10.4868
0.345911	3.79076	0.186838	1.87868	0.77982	2.66032	0.538335	5.89719	0.738166	8.12175	0.332811	3.64169	0.558108	6.11856	0.868941	9.59943	0.951548	10.4127
0.346523	3.74904	0.189784	1.88597	0.776828	2.66081	0.540186	5.84205	0.73902	8.02706	0.335414	3.62344	0.558923	6.04933	0.869227	9.47917	0.952553	10.3248
0.347163	3.70869	0.192735	1.89312	0.773832	2.6613	0.542039	5.78832	0.739888	7.93491	0.338015	3.60564	0.559751	5.982	0.869521	9.36206	0.953739	10.2239
0.347833	3.66964	0.195689	1.90014	0.770833	2.66177	0.543894	5.73594	0.740768	7.8452	0.340615	3.58826	0.560595	5.9165	0.869823	9.24797	0.955108	10.1108
0.348531	3.63185	0.198647	1.90704	0.76783	2.66223	0.545751	5.68486	0.741662	7.75784	0.343213	3.5713	0.561454	5.85276	0.870135	9.1368	0.956486	10.0006
0.349259	3.59529	0.201608	1.91381	0.764824	2.66269	0.547608	5.63504	0.742569	7.67274	0.34581	3.55472	0.562327	5.79073	0.870455	9.02843	0.957873	9.89323
0.350017	3.5599	0.204573	1.92047	0.761815	2.66314	0.549467	5.58642	0.743489	7.58982	0.348404	3.53852	0.563216	5.73034	0.870783	8.92277	0.95927	9.7885
0.350805	3.52565	0.20754	1.927	0.758803	2.66359	0.551327	5.53896	0.744423	7.50902	0.350996	3.52268	0.564121	5.67154	0.87112	8.81972	0.960674	9.68635
0.351623	3.49251	0.210511	1.93343	0.755789	2.66402	0.553187	5.49262	0.74537	7.43024	0.353585	3.50718	0.56504	5.61426	0.871466	8.71918	0.962088	9.58669
0.352471	3.46043	0.213484	1.93974	0.752771	2.66446	0.555048	5.44735	0.74633	7.35343	0.356172	3.49202	0.565976	5.55847	0.87182	8.62107	0.96351	9.48943
0.353351	3.42938	0.21646	1.94595	0.749751	2.66488	0.556909	5.40313	0.747304	7.27851	0.358755	3.47717	0.566927	5.5041	0.872183	8.52531	0.964941	9.39448
0.354261	3.39934	0.219439	1.95205	0.746728	2.6653	0.558771	5.3599	0.748292	7.20542	0.361336	3.46263	0.567893	5.45112	0.872555	8.43181	0.96638	9.30176
0.355203	3.37027	0.222421	1.95805	0.743703	2.66572	0.560632	5.31764	0.749293	7.1341	0.363913	3.44839	0.568876	5.39947	0.872934	8.34049	0.967828	9.21121
0.356177	3.34214	0.225022	1.96319	0.740675	2.66613	0.562494	5.27632	0.750308	7.06449	0.366487	3.43442	0.569875	5.34912	0.873323	8.25129	0.969283	9.12274
0.357184	3.31492	0.22724	1.96752	0.737646	2.66654	0.564354	5.23589	0.751336	6.99654	0.369057	3.42073	0.57089	5.30002	0.873719	8.16414	0.970748	9.03629
0.358223	3.28859	0.229075	1.97105	0.734614	2.66694	0.566215	5.19633	0.752378	6.93019	0.371624	3.4073	0.571921	5.25213	0.874125	8.07895	0.97222	8.95179
0.359295	3.26313	0.230527	1.97382	0.73158	2.66734	0.568074	5.15762	0.753435	6.8654	0.374186	3.39412	0.572969	5.20541	0.874538	7.99569	0.9737	8.86918
0.3604	3.23851	0.231595	1.97585	0.728545	2.66773	0.569933	5.11971	0.754505	6.8021	0.376745	3.38118	0.574034	5.15984	0.87496	7.91427	0.975188	8.78839
0.36154	3.21471	0.232279	1.97713	0.725507	2.66812	0.571791	5.0826	0.755588	6.74026	0.379299	3.36848	0.575114	5.11536	0.875391	7.83465	0.976684	8.70937
0.362714	3.1917	0.233262	1.97898	0.722468	2.66851	0.573648	5.04624	0.756686	6.67983	0.381849	3.356	0.576212	5.07196	0.87583	7.75676	0.978188	8.63207
0.363923	3.16947	0.23433	1.98097	0.719427	2.6689	0.575503	5.01062	0.757798	6.62076	0.384394	3.34373	0.577327	5.0296	0.876277	7.68055	0.9797	8.55642
0.365168	3.148	0.235784	1.98366	0.716385	2.66928	0.577358	4.9757	0.758923	6.56302	0.386934	3.33168	0.578458	4.98824	0.876732	7.60598	0.981219	8.48238
0.366449	3.12727	0.237624	1.98704	0.713341	2.66966	0.57921	4.94148	0.760063	6.50656	0.38947	3.31982	0.579606	4.94786	0.877196	7.53299	0.982746	8.4099
0.367767	3.10727	0.239849	1.99107	0.710295	2.67004	0.581061	4.90793	0.761217	6.45135	0.392001	3.30816	0.580772	4.90843	0.877668	7.46153	0.98428	8.33893
0.369122	3.08797	0.242461	1.99574	0.707248	2.67042	0.58291	4.87502	0.762385	6.39735	0.394526	3.29669	0.581955	4.86992	0.878149	7.39156	0.985822	8.26943
0.370515	3.06936	0.245461	2.00102	0.7042	2.67079	0.584758	4.84274	0.763566	6.34453	0.397047	3.2854	0.583155	4.8323	0.878638	7.32303	0.987371	8.20134
0.371946	3.05143	0.248463	2.00621	0.701151	2.67117	0.586603	4.81107	0.764762	6.29284	0.399562	3.27428	0.584372	4.79556	0.879135	7.2559	0.988927	8.13464
0.373418	3.03417	0.251466	2.01133	0.6981	2.67154	0.588446	4.77998	0.765972	6.24227	0.402072	3.26333	0.585607	4.75966	0.87964	7.19013	0.99049	8.06928
0.374929	3.01755	0.254471	2.01636	0.695049	2.67191	0.590288	4.74947	0.767196	6.19277	0.404576	3.25255	0.58686	4.72459	0.880154	7.12569	0.992061	8.00521
0.37648	3.00157	0.257479	2.02131	0.691996	2.67228	0.592126	4.71951	0.768435	6.14431	0.407075	3.24192	0.58813	4.69031	0.880675	7.06253	0.993638	7.94241
0.378073	2.98621	0.260488	2.02619	0.688942	2.67265	0.593963	4.6901	0.769687	6.09687	0.409568	3.23144	0.589417	4.65681	0.881206	7.00062	0.995222	7.88083
0.379708	2.97146	0.263498	2.03099	0.685888	2.67303	0.595797	4.6612	0.770954	6.05042	0.412055	3.22111	0.590723	4.62407	0.881744	6.93992	0.996813	7.82045
0.381385	2.95731	0.266511	2.03571	0.682833	2.6734	0.597628	4.63281	0.772234	6.00493	0.414536	3.21093	0.592046	4.59207	0.88229	6.8804	0.998411	7.76122
0.383106	2.94375	0.269524	2.04037	0.679776	2.67377	0.599457	4.60492	0.773529	5.96038	0.417011	3.20088	0.593387	4.56078	0.882845	6.82203	1.00001	7.70312
0.38487	2.93077	0.27254	2.04495	0.67672	2.67414	0.601283	4.57751	0.774838	5.91673	0.41948	3.19097	0.594746	4.53019	0.883408	6.76477		
0.386677	2.91834	0.275557	2.04946	0.673662	2.67451	0.603107	4.55056	0.776161	5.87398	0.421943	3.18118	0.596123	4.50028	0.883979	6.70861		
0.388529	2.90647	0.278575	2.05391	0.670604	2.67489	0.604927	4.52407	0.777498	5.83208	0.4244	3.17152	0.597518	4.47103	0.884559	6.6535		
0.390426	2.89513	0.281594	2.05829	0.667545	2.67526	0.606745	4.49802	0.778849	5.79102	0.42685	3.16199	0.598931	4.44243	0.885146	6.59941		
0.392367	2.88432	0.284615	2.0626	0.664486	2.67564	0.60856	4.4724	0.780214	5.75078	0.429294	3.15257	0.600362	4.41445	0.885742	6.54634		
0.394353	2.87402	0.287637	2.06685	0.661426	2.67602	0.610372	4.4472	0.781593	5.71133	0.431732	3.14327	0.601811	4.38709	0.886346	6.49423		
0.396383	2.86421	0.290661	2.07104	0.658366	2.6764	0.61218	4.4224	0.782986	5.67266	0.434163	3.13408	0.603278	4.36033	0.886958	6.44308		
0.398457	2.85489	0.293685	2.07516	0.655306	2.67678	0.613986	4.39801	0.784393	5.63474	0.436588	3.125	0.604763	4.33414	0.887578	6.39286		
0.400575	2.84603	0.296711	2.07922	0.652245	2.67717	0.615789	4.37399	0.785814	5.59756	0.439006	3.11602	0.606266	4.30853	0.888206	6.34354		
0.402737	2.83763	0.299737	2.08323	0.649185	2.67756	0.617588	4.35036	0.787249	5.5611	0.441418	3.10715	0.607788	4.28346	0.888843	6.2951		
0.404941	2.82966	0.302765	2.08718	0.646124	2.67795	0.619385	4.32709	0.788697	5.52533	0.443823	3.09838	0.609327	4.25894	0.889487	6.24752		
0.407186	2.82211	0.305794	2.09107	0.643063	2.67835	0.621178	4.30418	0.790159	5.49024	0.446222	3.0897	0.610884	4.23494	0.89014	6.20078		
0.409473	2.81497	0.308823	2.0949	0.640001	2.67874	0.622968	4.28162	0.791635	5.45582	0.448614	3.08112	0.61246	4.21145	0.890801	6.15485		
0.411799	2.80821	0.311854	2.09868	0.63694	2.67915	0.624755	4.2594	0.793125	5.42205	0.451	3.07264	0.614053	4.18847	0.89147	6.10972		
0.414164	2.80182	0.314885	2.1024	0.633879	2.67955	0.626538	4.23752	0.794628	5.38891	0.453379	3.06424	0.615665	4.16597	0.892147	6.06537		
0.416566	2.79578	0.317917	2.10608	0.630818	2.67997	0.628319	4.21595	0.796145	5.35639	0.455751	3.05594	0.617294	4.14395	0.892833	6.02179		
0.419004	2.79007	0.32095	2.1097	0.627757	2.68038	0.630096	4.19471	0.797675	5.32446	0.458117	3.04772	0.618942	4.1224	0.893526	5.97894		
0.421476	2.78468	0.323983	2.11326	0.624696	2.6808	0.631871	4.17377	0.799218	5.29313	0.460476	3.03958	0.620607	4.10129	0.894228	5.93682		
0.423982	2.77959	0.327017	2.11678	0.621636	2.68123	0.633642	4.15314	0.800775	5.26236	0.462829	3.03153	0.62229	4.08064	0.894938	5.8954		
0.426519	2.77479	0.330052	2.12025	0.618576	2.68166	0.635409	4.13281	0.802344	5.23216	0.465176	3.02356	0.62399	4.06041	0.895655	5.85468		
0.429087	2.77025	0.333087	2.12367	0.615517	2.6821	0.637174	4.11276	0.803927	5.2025	0.467516	3.01567	0.625708	4.0406	0.896381	5.81463		
0.431683	2.76597	0.336123	2.12705	0.612457	2.68255	0.638936	4.093	0.805523	5.17337	0.46985	3.00786	0.627444	4.02121	0.897115	5.77524		
0.434307	2.76193	0.339159	2.13037	0.609399	2.683	0.640694	4.07351	0.807132	5.14476	0.472177	3.00012	0.629197	4.00221	0.897858	5.7365		
0.436956	2.75811	0.342196	2.13365	0.606341	2.68346	0.64245	4.05429	0.808753	5.11666	0.474499	2.99247	0.630968	3.98361	0.898608	5.69839		
0.43963	2.75449	0.345233	2.13689	0.603283	2.68393	0.644203	4.03534	0.810388	5.08906	0.476814	2.98488	0.632755	3.9654	0.899366	5.66089		
0.442328	2.75108	0.348271	2.14008	0.600227	2.6844	0.645953	4.01665	0.812035	5.06194	0.479123	2.97737	0.63456	3.94755	0.900133	5.624		
0.445047	2.74785	0.351309	2.14323	0.597171	2.68489	0.647699	3.99821	0.813694	5.03529	0.481426	2.96993	0.636382	3.93007	0.900908	5.58769		
0.447787	2.7448	0.354347	2.14633	0.594116	2.68538	0.649443	3.98002	0.815366	5.0091	0.483723	2.96257	0.638221	3.91295	0.901691	5.55197		
0.450546	2.7419	0.357385	2.14939	0.591062	2.68589	0.651185	3.96208	0.81705	4.98337	0.486015	2.95527	0.640076	3.89617	0.902482	5.51681		
0.453324	2.73916	0.360424	2.15241	0.588009	2.6864	0.652923	3.94437	0.818746	4.95807	0.488301	2.94804	0.641948	3.87974	0.903281	5.4822		
0.456118	2.73656	0.363463	2.15539	0.584957	2.68692	0.654659	3.9269	0.820454	4.93321	0.490581	2.94089	0.643837	3.86363	0.904089	5.44813		
0.458929	2.73409	0.366502	2.15832	0.581906	2.68746	0.656392	3.90966	0.822174	4.90877	0.492856	2.9338	0.645742	3.84785	0.904904	5.41459		
0.461756	2.73175	0.369541	2.16122	0.578857	2.688	0.658123	3.89264	0.823905	4.88474	0.495125	2.92677	0.647663	3.83238	0.905728	5.38157		
0.464597	2.72953	0.37258	2.16408	0.575808	2.68856	0.659851	3.87585	0.825649	4.86111	0.497389	2.91982	0.6496	3.81722	0.90656	5.34906		
0.467451	2.72741	0.375619	2.1669	0.572762	2.68913	0.661577	3.85927	0.827403	4.83787	0.499648	2.91293	0.651552	3.80237	0.9074	5.31704		
0.470317	2.7254	0.378658	2.16968	0.569717	2.68972	0.663301	3.84291	0.829169	4.81502	0.501903	2.9061	0.653521	3.7878	0.908249	5.28552		
0.473196	2.72348	0.381697	2.17242	0.566673	2.69032	0.665022	3.82675	0.830947	4.79254	0.504152	2.89934	0.655505	3.77353	0.909105	5.25446		
0.476086	2.72165	0.384736	2.17513	0.563632	2.69094	0.666741	3.8108	0.832735	4.77043	0.506397	2.89264	0.657504	3.75953	0.90997	5.22388		
0.478986	2.71991	0.387774	2.1778	0.560592	2.69157	0.668458	3.79505	0.834534	4.74868	0.508637	2.88601	0.659519	3.74581	0.910843	5.19375		
0.481897	2.71824	0.390813	2.18043	0.557554	2.69222	0.670174	3.7795	0.836345	4.72728	0.510873	2.87944	0.661548	3.73235	0.911725	5.16408		
0.484816	2.71665	0.393851	2.18303	0.554518	2.69288	0.671887	3.76415	0.838165	4.70622	0.513104	2.87294	0.663592	3.71915	0.912614	5.13484		
0.487745	2.71513	0.396889	2.18559	0.551485	2.69356	0.673599	3.74898	0.839997	4.68549	0.515332	2.8665	0.66565	3.70621	0.913512	5.10603		
0.490681	2.71368	0.399927	2.18812	0.548454	2.69427	0.675308	3.73401	0.841838	4.6651	0.517555	2.86012	0.667723	3.69352	0.914418	5.07765		
0.493625	2.71228	0.402965	2.19061	0.545425	2.69499	0.677017	3.71922	0.84369	4.64503	0.519775	2.8538	0.66981	3.68106	0.915333	5.04968		
0.496577	2.71094	0.406002	2.19307	0.542399	2.69574	0.678723	3.70461	0.845551	4.62526	0.521992	2.84754	0.671911	3.66885	0.916255	5.02212		
0.499536	2.70966	0.409038	2.1955	0.539376	2.69651	0.680429	3.69018	0.847423	4.60581	0.524205	2.84135	0.674025	3.65686	0.917186	4.99496		
0.502501	2.70843	0.412074	2.19789	0.536356	2.6973	0.682133	3.67593	0.849304	4.58666	0.526415	2.83522	0.676153	3.6451	0.918126	4.96819		
0.505472	2.70725	0.41511	2.20025	0.533339	2.69812	0.683836	3.66185	0.851195	4.5678	0.528622	2.82914	0.678294	3.63356	0.919074	4.9418		
0.508449	2.70611	0.418145	2.20258	0.530325	2.69897	0.685537	3.64794	0.853095	4.54922	0.530826	2.82313	0.680448	3.62223	0.92003	4.91579		
0.511431	2.70502	0.421179	2.20488	0.527315	2.69984	0.687238	3.6342	0.855005	4.53093	0.533027	2.81718	0.682615	3.61111	0.920994	4.89015		
0.514418	2.70396	0.424213	2.20714	0.524309	2.70074	0.688938	3.62062	0.856923	4.51291	0.535226	2.8113	0.684795	3.60019	0.921967	4.86488		
0.51741	2.70295	0.427246	2.20938	0.521307	2.70168	0.690637	3.60721	0.858851	4.49516	0.537423	2.80547	0.686986	3.58948	0.922948	4.83996		
0.520407	2.70197	0.430279	2.21158	0.518309	2.70265	0.692335	3.59396	0.860787	4.47768	0.539618	2.7997	0.68919	3.57895	0.923938	4.81539		
0.523408	2.70102	0.43331	2.21375	0.515315	2.70365	0.694033	3.58086	0.862731	4.46045	0.541811	2.79399	0.691406	3.56862	0.924936	4.79116		
0.526413	2.70011	0.436341	2.21589	0.512326	2.7047	0.69573	3.56793	0.864684	4.44347	0.544002	2.78835	0.693633	3.55847	0.925943	4.76727		
0.529422	2.69923	0.439371	2.21801	0.509342	2.70578	0.697427	3.55514	0.866646	4.42674	0.546191	2.78276	0.695872	3.5485	0.926958	4.74372		
0.532435	2.69837	0.4424	2.22009	0.506364	2.7069	0.699123	3.54251	0.868615	4.41025	0.54838	2.77723	0.698122	3.53871	0.927982	4.72048		
0.535451	2.69754	0.445428	2.22214	0.503391	2.70807	0.70082	3.53003	0.870592	4.394	0.550567	2.77177	0.700382	3.52908	0.929014	4.69757		
0.53847	2.69674	0.448455	2.22417	0.500424	2.70929	0.702516	3.51769	0.872578	4.37798	0.552753	2.76636	0.702654	3.51963	0.930054	4.67498		
0.541492	2.69597	0.451481	2.22616	0.497464	2.71055	0.704213	3.5055	0.87457	4.36218	0.554939	2.76102	0.704936	3.51034	0.931104	4.65269		
0.544517	2.69521	0.454506	2.22813	0.49451	2.71187	0.705909	3.49345	0.87657	4.34661	0.557124	2.75573	0.707228	3.5012	0.932161	4.6307		
0.547545	2.69448	0.457529	2.23007	0.491563	2.71325	0.707606	3.48154	0.878578	4.33125	0.559308	2.7505	0.70953	3.49222	0.933228	4.60902		
0.550576	2.69377	0.460552	2.23198	0.488624	2.71469	0.709304	3.46977	0.880592	4.3161	0.561493	2.74533	0.711841	3.48339	0.934303	4.58763		
0.553608	2.69308	0.463573	2.23386	0.485693	2.71619	0.711002	3.45814	0.882613	4.30117	0.563678	2.74023	0.714162	3.47471	0.935387	4.56652		
0.556643	2.69241	0.466593	2.23572	0.482771	2.71776	0.7127	3.44665	0.884641	4.28643	0.565863	2.73518	0.716493	3.46618	0.936479	4.5457		
0.559681	2.69176	0.469611	2.23755	0.479858	2.7194	0.714399	3.43528	0.886676	4.2719	0.568048	2.73019	0.718832	3.45778	0.93758	4.52516		
0.56272	2.69112	0.472628	2.23935	0.476955	2.72112	0.716099	3.42405	0.888717	4.25756	0.570234	2.72526	0.72118	3.44952	0.93869	4.50489		
0.565761	2.6905	0.475644	2.24112	0.474061	2.72292	0.7178	3.41296	0.890764	4.24341	0.572421	2.72039	0.723537	3.44139	0.939809	4.4849		
0.568804	2.6899	0.478657	2.24287	0.471179	2.72481	0.719502	3.40198	0.892818	4.22945	0.574609	2.71558	0.725901	3.4334	0.940936	4.46517		
0.571849	2.68931	0.48167	2.24459	0.468309	2.7268	0.721205	3.39114	0.894877	4.21567	0.576798	2.71082	0.728274	3.42552	0.942073	4.44569		
0.574895	2.68873	0.484681	2.24628	0.465451	2.72888	0.722909	3.38042	0.896943	4.20207	0.578988	2.70613	0.730655	3.41778	0.943218	4.42648		
0.577943	2.68817	0.48769	2.24795	0.462606	2.73107	0.724615	3.36983	0.899013	4.18864	0.581181	2.70149	0.733043	3.41015	0.944372	4.40752		
0.580992	2.68762	0.490697	2.24959	0.459775	2.73338	0.726322	3.35936	0.90109	4.17539	0.583375	2.69692	0.735439	3.40264	0.945534	4.38881		
0.584042	2.68708	0.493702	2.2512	0.45696	2.73581	0.728031	3.349	0.903171	4.1623	0.58557	2.6924	0.737842	3.39524	0.946706	4.37034		
0.587094	2.68655	0.496706	2.25279	0.45416	2.73837	0.729741	3.33877	0.905258	4.14938	0.587768	2.68794	0.740252	3.38796	0.947887	4.35211		
0.590146	2.68604	0.499707	2.25436	0.451377	2.74106	0.731453	3.32866	0.90735	4.13663	0.589969	2.68354	0.742668	3.38078	0.949077	4.33412		
0.5932	2.68553	0.502707	2.25589	0.448612	2.74391	0.733167	3.31866	0.909446	4.12403	0.592172	2.6792	0.745091	3.37371	0.950276	4.31637		
0.596255	2.68504	0.505704	2.25741	0.445866	2.74692	0.734883	3.30878	0.911547	4.11158	0.594377	2.67492	0.74752	3.36675	0.951483	4.29884		
0.59931	2.68455	0.508699	2.25889	0.443141	2.75009	0.736602	3.29901	0.913653	4.09929	0.596586	2.67069	0.749955	3.35988	0.9527	4.28154		
0.602367	2.68407	0.511692	2.26036	0.440437	2.75345	0.738322	3.28935	0.915763	4.08715	0.598797	2.66652	0.752396	3.35311	0.953926	4.26447		
0.605424	2.6836	0.514683	2.26179	0.437756	2.757	0.740044	3.2798	0.917878	4.07515	0.601012	2.66241	0.754842	3.34644	0.955162	4.24761		
0.608482	2.68314	0.517672	2.2632	0.435099	2.76076	0.741769	3.27037	0.919996	4.06329	0.60323	2.65836	0.757294	3.33986	0.956406	4.23097		
0.61154	2.68268	0.520658	2.26459	0.432467	2.76473	0.743497	3.26104	0.922118	4.05158	0.605452	2.65437	0.759751	3.33337	0.957659	4.21454		
0.614599	2.68224	0.523641	2.26595	0.429862	2.76894	0.745227	3.25182	0.924244	4.04	0.607678	2.65043	0.762213	3.32697	0.958922	4.19833		
0.617659	2.68179	0.526622	2.26729	0.427286	2.7734	0.746959	3.2427	0.926374	4.02855	0.609907	2.64655	0.76468	3.32065	0.960195	4.18232		
0.620719	2.68136	0.5296	2.2686	0.424739	2.77813	0.748695	3.23369	0.928507	4.01724	0.612141	2.64273	0.767151	3.31442	0.961476	4.16651		
0.623779	2.68093	0.532576	2.26989	0.422224	2.78313	0.750433	3.22479	0.930644	4.00606	0.614378	2.63896	0.769626	3.30827	0.962767	4.15091		
0.626839	2.68051	0.535549	2.27115	0.419741	2.78842	0.752175	3.21598	0.932783	3.995	0.616621	2.63525	0.772106	3.3022	0.964067	4.1355		
0.6299	2.68009	0.538519	2.27239	0.417293	2.79403	0.753919	3.20728	0.934926	3.98407	0.618868	2.6316	0.774589	3.29621	0.965377	4.12029		
0.632961	2.67968	0.541486	2.2736	0.41488	2.79997	0.755666	3.19868	0.937072	3.97326	0.621119	2.62801	0.777076	3.29029	0.966696	4.10527		
0.636022	2.67927	0.54445	2.27479	0.412504	2.80625	0.757417	3.19017	0.93922	3.96257	0.623376	2.62447	0.779567	3.28445	0.968025	4.09044		
0.639083	2.67887	0.547411	2.27596	0.410166	2.8129	0.759171	3.18177	0.941371	3.95199	0.625637	2.62098	0.782061	3.27868	0.969363	4.0758		
0.642145	2.67847	0.550368	2.27709	0.407868	2.81993	0.760929	3.17346	0.943525	3.94153	0.627904	2.61756	0.784558	3.27297	0.970711	4.06134		
0.645206	2.67807	0.553323	2.27821	0.40561	2.82736	0.76269	3.16525	0.94568	3.93119	0.630176	2.61419	0.787059	3.26734	0.972069	4.04707		
0.648267	2.67768	0.556274	2.2793	0.403393	2.8352	0.764455	3.15713	0.947839	3.92095	0.632454	2.61087	0.789561	3.26177	0.973436	4.03297		
0.651328	2.67729	0.559222	2.28037	0.401219	2.84347	0.766223	3.1491	0.949999	3.91082	0.634737	2.60761	0.792067	3.25627	0.974813	4.01905		
0.654388	2.6769	0.562166	2.28141	0.399088	2.85219	0.767995	3.14117	0.952161	3.90079	0.637027	2.60441	0.794575	3.25083	0.9762	4.00531		
0.657449	2.67652	0.565107	2.28243	0.397	2.86137	0.769772	3.13334	0.954325	3.89087	0.639322	2.60126	0.797084	3.24545	0.977596	3.99174		
0.660509	2.67613	0.568044	2.28342	0.394957	2.87103	0.771552	3.12559	0.95649	3.88106	0.641623	2.59816	0.799596	3.24013	0.979003	3.97833		
0.663569	2.67575	0.570978	2.28439	0.392958	2.88118	0.773336	3.11793	0.958658	3.87134	0.643931	2.59512	0.80211	3.23487	0.980419	3.9651		
0.666628	2.67538	0.573907	2.28534	0.391003	2.89183	0.775124	3.11036	0.960826	3.86172	0.646245	2.59214	0.804626	3.22966	0.981845	3.95203		
0.669687	2.675	0.576833	2.28626	0.389093	2.90301	0.776917	3.10288	0.962996	3.85219	0.648565	2.5892	0.807143	3.22451	0.983282	3.93913		
0.672745	2.67463	0.579755	2.28716	0.387228	2.91472	0.778714	3.09549	0.965168	3.84276	0.650893	2.58633	0.809661	3.21941	0.984728	3.92638		
0.675803	2.67425	0.582672	2.28803	0.385407	2.92698	0.780516	3.08818	0.96734	3.83342	0.653227	2.5835	0.81218	3.21437	0.986184	3.9138		
0.67886	2.67388	0.585586	2.28888	0.38363	2.9398	0.782322	3.08096	0.969513	3.82418	0.655568	2.58073	0.814701	3.20938	0.987651	3.90137		
0.681916	2.67351	0.588496	2.2897	0.381897	2.95319	0.784132	3.07383	0.971687	3.81502	0.657916	2.57802	0.817222	3.20443	0.989127	3.8891		
0.684972	2.67314	0.591401	2.29051	0.380206	2.96716	0.785948	3.06678	0.973862	3.80594	0.660272	2.57535	0.819744	3.19953	0.990614	3.87698		
0.688027	2.67277	0.594302	2.29128	0.378559	2.98172	0.787768	3.05981	0.976037	3.79696	0.662634	2.57274	0.822266	3.19468	0.992112	3.86502		
0.69108	2.67239	0.597198	2.29203	0.376953	2.9969	0.789593	3.05292	0.978213	3.78806	0.665004	2.57019	0.824788	3.18988	0.993619	3.8532		
0.694133	2.67202	0.60009	2.29276	0.37539	3.01269	0.791424	3.04612	0.98039	3.77924	0.667382	2.56768	0.827311	3.18512	0.995137	3.84153		
0.697185	2.67165	0.602978	2.29347	0.373866	3.02912	0.793259	3.0394	0.982566	3.7705	0.669768	2.56523	0.829834	3.1804	0.996665	3.83		
0.700236	2.67128	0.605861	2.29415	0.372383	3.04619	0.795099	3.03275	0.984743	3.76184	0.672161	2.56282	0.832356	3.17572	0.998204	3.81862		
0.703286	2.6709	0.608739	2.29481	0.37094	3.06392	0.796945	3.02619	0.98692	3.75326	0.674562	2.56047	0.834878	3.17109	0.999753	3.80738		
0.706334	2.67053	0.611612	2.29544	0.369535	3.08232	0.798796	3.01971	0.989097	3.74475	0.676971	2.55818	0.8374	3.16649	1.00131	3.79628		
0.709382	2.67015	0.61448	2.29605	0.368169	3.10141	0.800653	3.0133	0.991274	3.73632	0.679388	2.55593	0.839921	3.16193				
0.712428	2.66978	0.617344	2.29664	0.36684	3.1212	0.802515	3.00697	0.99345	3.72797	0.681814	2.55373	0.842441	3.15741				
0.715472	2.66939	0.620203	2.2972	0.365548	3.14171	0.804383	3.00072	0.995626	3.71968	0.684248	2.55158	0.844961	3.15293				
0.718515	2.66901	0.623056	2.29774	0.364293	3.16296	0.806257	2.99455	0.997802	3.71147	0.68669	2.54949	0.847479	3.14848				
0.721556	2.66863	0.625905	2.29826	0.363073	3.18496	0.808137	2.98845	0.999977	3.70333	0.689141	2.54744	0.849996	3.14407				
0.724596	2.66824	0.628748	2.29875	0.361888	3.20773	0.810023	2.98242	1.00215	3.69525	0.6916	2.54544	0.852512	3.13969				
0.727634	2.66785	0.631587	2.29922	0.360738	3.23129	0.811914	2.97647			0.694068	2.54349	0.855027	3.13534				
0.73067	2.66746	0.63442	2.29967	0.359623	3.25566	0.813812	2.9706			0.696545	2.54159	0.857539	3.13102				
0.733705	2.66706	0.637248	2.30009	0.358541	3.28087	0.815717	2.96479			0.69903	2.53974	0.86005	3.12673				
0.736737	2.66666	0.64007	2.3005	0.357492	3.30694	0.817628	2.95906			0.701524	2.53793	0.862559	3.12248				
0.739767	2.66625	0.642887	2.30088	0.356476	3.33388	0.819545	2.95341			0.704028	2.53618	0.865067	3.11825				
0.742795	2.66584	0.645699	2.30123	0.355492	3.36173	0.821469	2.94782			0.70654	2.53447	0.867572	3.11405				
0.745821	2.66543	0.648506	2.30157	0.35454	3.39052	0.8234	2.94231			0.709061	2.5328	0.870074	3.10988				
0.748845	2.66501	0.651307	2.30188	0.35362	3.42027	0.825338	2.93686			0.711591	2.53119	0.872575	3.10573				
0.751866	2.66458	0.654103	2.30217	0.352732	3.45101	0.827283	2.93149			0.71413	2.52961	0.875073	3.10162				
0.754884	2.66415	0.656893	2.30244	0.351874	3.48278	0.829235	2.92619			0.716679	2.52809	0.877568	3.09752				
0.7579	2.66372	0.659678	2.30269	0.351047	3.5156	0.831194	2.92096			0.719236	2.52661	0.880061	3.09345				
0.760913	2.66328	0.662457	2.30292	0.35025	3.54951	0.833161	2.91579			0.721803	2.52517	0.88255	3.0894				
0.763923	2.66283	0.665231	2.30313	0.349483	3.58455	0.835135	2.9107			0.724379	2.52377	0.885037	3.08538				
0.766929	2.66237	0.668	2.30332	0.348746	3.62076	0.837118	2.90567			0.726964	2.52242	0.887521	3.08138				
0.769933	2.66191	0.670763	2.30348	0.348039	3.65818	0.839108	2.90071			0.729558	2.52112	0.890002	3.0774				
0.772933	2.66144	0.673521	2.30363	0.347361	3.69684	0.841106	2.89582			0.732162	2.51985	0.892479	3.07344				
0.77593	2.66096	0.676273	2.30376	0.346712	3.7368	0.843112	2.891			0.734774	2.51863	0.894953	3.06951				
0.778924	2.66047	0.67902	2.30387	0.346091	3.77811	0.845127	2.88624			0.737396	2.51744	0.897424	3.06559				
0.781913	2.65998	0.681762	2.30396	0.3455	3.8208	0.84715	2.88155			0.740027	2.5163	0.899891	3.06169				
0.784899	2.65947	0.684499	2.30403	0.344936	3.86494	0.849182	2.87693			0.742667	2.5152	0.902355	3.05781				
0.78788	2.65896	0.68723	2.30408	0.344401	3.91058	0.851222	2.87238			0.745316	2.51414	0.904815	3.05395				
0.790858	2.65843	0.689956	2.30412	0.343893	3.95778	0.853272	2.86789			0.747974	2.51311	0.907271	3.05011				
0.793831	2.65789	0.692677	2.30414	0.343414	4.0066	0.855331	2.86347			0.750642	2.51213	0.909723	3.04629				
0.796799	2.65735	0.695393	2.30414	0.342961	4.05711	0.8574	2.85911			0.753318	2.51118	0.912172	3.04248				
0.799763	2.65679	0.698104	2.30412	0.342536	4.10937	0.859478	2.85482			0.756003	2.51027	0.914616	3.03869				
0.802721	2.65622	0.70081	2.30409	0.342138	4.16346	0.861565	2.8506			0.758696	2.50939	0.917057	3.03491				
0.805675	2.65563	0.703511	2.30405	0.341767	4.21946	0.863663	2.84644			0.761399	2.50855	0.919493	3.03115				
0.808623	2.65504	0.706208	2.30399	0.341422	4.27744	0.865771	2.84235			0.76411	2.50775	0.921925	3.02741				
0.811565	2.65443	0.708899	2.30391	0.341104	4.33749	0.86789	2.83832			0.76683	2.50698	0.924353	3.02368				
0.814502	2.65381	0.711586	2.30382	0.340811	4.39971	0.870019	2.83436			0.769558	2.50624	0.926777	3.01997				
0.817433	2.65317	0.714269	2.30371	0.340545	4.46419	0.872159	2.83047			0.772295	2.50554	0.929196	3.01627				
0.820358	2.65251	0.716946	2.30359	0.340304	4.53103	0.87431	2.82664			0.77504	2.50487	0.931611	3.01258				
0.823276	2.65184	0.71962	2.30346	0.340089	4.60035	0.876473	2.82287			0.777794	2.50423	0.934022	3.00891				
0.826188	2.65116	0.722289	2.30332	0.339898	4.67225	0.878647	2.81917			0.780555	2.50362	0.936428	3.00525				
0.829093	2.65046	0.724954	2.30316	0.339733	4.74688	0.880833	2.81554			0.783325	2.50304	0.938829	3.00161				
0.83199	2.64974	0.727615	2.30299	0.339592	4.82435	0.883031	2.81197			0.786102	2.50249	0.941227	2.99797				
0.834881	2.649	0.730272	2.30281	0.339475	4.90481	0.885241	2.80847			0.788888	2.50197	0.943619	2.99435				
0.837763	2.64824	0.732925	2.30262	0.339382	4.98841	0.887464	2.80504			0.791681	2.50148	0.946007	2.99075				
0.840638	2.64747	0.735574	2.30242	0.339313	5.07531	0.8897	2.80167			0.794482	2.50102	0.948391	2.98715				
0.843505	2.64667	0.73822	2.3022	0.339268	5.16568	0.891949	2.79836			0.797291	2.50058	0.95077	2.98357				
0.846364	2.64586	0.740862	2.30198	0.339245	5.25972	0.894211	2.79513			0.800106	2.50017	0.953144	2.98				
0.849214	2.64503	0.7435	2.30175	0.339245	5.35761	0.896486	2.79195			0.80293	2.49979	0.955514	2.97644				
0.852055	2.64417	0.746135	2.30151	0.339267	5.45957	0.898776	2.78885			0.80576	2.49943	0.957879	2.9729				
0.854888	2.64329	0.748767	2.30126	0.339311	5.56584	0.901079	2.78581			0.808598	2.4991	0.960239	2.96936				
0.857711	2.64239	0.751395	2.30101	0.339377	5.67665	0.903397	2.78283			0.811442	2.49879	0.962595	2.96584				
0.860525	2.64147	0.754021	2.30075	0.339463	5.79228	0.905729	2.77993			0.814293	2.4985	0.964946	2.96233				
0.863329	2.64053	0.756643	2.30048	0.339571	5.91302	0.908075	2.77708			0.817151	2.49823	0.967293	2.95883				
0.866123	2.63956	0.759263	2.3002	0.339698	6.03917	0.910437	2.77431			0.820016	2.49799	0.969635	2.95534				
0.868908	2.63857	0.76188	2.29991	0.339845	6.17109	0.912813	2.77159			0.822887	2.49777	0.971973	2.95186				
0.871682	2.63755	0.764494	2.29963	0.340012	6.30913	0.915205	2.76895			0.825764	2.49757	0.974306	2.94839				
0.874446	2.63651	0.767106	2.29933	0.340197	6.45369	0.917612	2.76637			0.828648	2.49739	0.976635	2.94494				
0.877199	2.63545	0.769715	2.29903	0.340401	6.60523	0.920034	2.76385			0.831538	2.49723	0.978959	2.94149				
0.879942	2.63437	0.772322	2.29873	0.340622	6.76421	0.922472	2.7614			0.834434	2.49709	0.981279	2.93806				
0.882675	2.63325	0.774927	2.29842	0.340861	6.93115	0.924926	2.75901			0.837335	2.49697	0.983594	2.93463				
0.885396	2.63212	0.77753	2.2981	0.341115	7.10664	0.927395	2.75668			0.840243	2.49686	0.985905	2.93122				
0.888107	2.63096	0.78013	2.29778	0.341386	7.2913	0.929881	2.75442			0.843156	2.49677	0.988212	2.92782				
0.890808	2.62978	0.782729	2.29746	0.341672	7.48583	0.932382	2.75222			0.846074	2.4967	0.990514	2.92443				
0.893497	2.62857	0.785325	2.29714	0.341972	7.69099	0.934899	2.75009			0.848998	2.49665	0.992812	2.92105				
0.896176	2.62735	0.78792	2.29681	0.342286	7.90765	0.937431	2.74801			0.851928	2.49661	0.995106	2.91769				
0.898844	2.62609	0.790514	2.29648	0.342614	8.13674	0.93998	2.74599			0.854862	2.49659	0.997396	2.91433				
0.901501	2.62482	0.793106	2.29615	0.342953	8.37932	0.942544	2.74404			0.857802	2.49658	0.999682	2.91099				
0.904148	2.62353	0.795696	2.29582	0.343258	8.60263	0.945123	2.74214			0.860747	2.49659	1.00196	2.90765				
0.906785	2.62221	0.798285	2.29548	0.343524	8.80244	0.947718	2.7403			0.863696	2.49661						
0.909411	2.62087	0.800872	2.29514	0.343749	8.97468	0.950329	2.73851			0.86665	2.49664						
0.912028	2.61951	0.803459	2.29481	0.343929	9.11561	0.952954	2.73678			0.869609	2.49669						
0.914634	2.61814	0.806044	2.29447	0.344062	9.22203	0.955594	2.73511			0.872573	2.49675						
0.917231	2.61675	0.808628	2.29413	0.344186	9.3221	0.958249	2.73349			0.875541	2.49682						
0.919818	2.61533	0.811212	2.29379	0.344273	9.39298	0.960919	2.73192			0.878513	2.49691						
0.922397	2.61391	0.813794	2.29345	0.344409	9.50587	0.963602	2.7304			0.881489	2.497						
0.924966	2.61246	0.816375	2.2931	0.344597	9.66371	0.9663	2.72893			0.88447	2.49711						
0.927527	2.61101	0.818956	2.29276	0.344836	9.8708	0.969011	2.72751			0.887455	2.49723						
0.93008	2.60953	0.821536	2.29242	0.345128	10.1331	0.971735	2.72613			0.890443	2.49736						
0.932625	2.60805	0.824116	2.29208	0.345475	10.4586	0.974472	2.7248			0.893436	2.49749						
0.935162	2.60656	0.826694	2.29174	0.345877	10.8582	0.977222	2.72352			0.896432	2.49764						
0.937692	2.60505	0.829273	2.29141	0.346283	11.2886	0.979984	2.72227			0.899432	2.4978						
0.940215	2.60354	0.831851	2.29107	0.346692	11.7535	0.982758	2.72107			0.902436	2.49797						
0.942732	2.60201	0.834428	2.29073	0.347101	12.2571	0.985544	2.71991			0.905443	2.49814						
0.945242	2.60048	0.837006	2.2904	0.347511	12.8044	0.988341	2.71879			0.908454	2.49832						
0.947746	2.59894	0.839583	2.29006	0.347919	13.4014	0.991149	2.7177			0.911468	2.49852						
0.950245	2.5974	0.84216	2.28973	0.348324	14.055	0.993967	2.71665			0.914486	2.49871						
0.952738	2.59586	0.844736	2.2894	0.348725	14.7738	0.996796	2.71563			0.917506	2.49892						
0.955227	2.59431	0.847313	2.28907	0.34912	15.5678	0.999635	2.71465			0.92053	2.49914						
0.957711	2.59275	0.849889	2.28875	0.349508	16.4495	1.00248	2.7137			0.923557	2.49936						
0.960191	2.5912	0.852466	2.28842	0.349887	17.4344					0.926587	2.49958						
0.962667	2.58965	0.855043	2.2881	0.350256	18.5415					0.92962	2.49982						
0.965139	2.58809	0.857619	2.28778	0.350612	19.7954					0.932655	2.50006						
0.967608	2.58654	0.860196	2.28747	0.350956	21.2272					0.935694	2.5003						
0.970075	2.58499	0.862773	2.28715	0.351284	22.8778					0.938735	2.50056						
0.972538	2.58344	0.865351	2.28684	0.351596	24.8017					0.941779	2.50081						
0.974999	2.5819	0.867928	2.28653	0.351889	27.0731					0.944825	2.50108						
0.977458	2.58035	0.870506	2.28622	0.352163	29.7957					0.947874	2.50134						
0.979916	2.57882	0.873084	2.28592	0.352416	33.1195					0.950926	2.50162						
0.982371	2.57729	0.875663	2.28562	0.352646	37.2688					0.95398	2.50189						
0.984826	2.57576	0.878242	2.28532	0.352853	42.596					0.957037	2.50218						
0.987279	2.57424	0.880822	2.28502	0.353034	49.6868					0.960095	2.50246						
0.989732	2.57273	0.883402	2.28473	0.35319	59.5932					0.963156	2.50275						
0.992184	2.57123	0.885982	2.28444	0.353319	74.4116					0.96622	2.50305						
0.994635	2.56973	0.888563	2.28416	0.353421	99.0067					0.969285	2.50335						
0.997086	2.56825	0.891144	2.28387	0.353494	147.834					0.972353	2.50365						
0.999538	2.56677	0.893727	2.28359	0.353538	291.544					0.975422	2.50396						
1.00199	2.5653	0.896309	2.28332	0.353553	10359.3					0.978494	2.50426						
		0.898893	2.28304							0.981568	2.50458						
		0.901477	2.28277							0.984643	2.50489						
		0.904061	2.28251							0.987721	2.50521						
		0.906647	2.28224							0.990801	2.50553						
		0.909233	2.28198							0.993882	2.50586						
		0.91182	2.28173							0.996965	2.50618						
		0.914407	2.28147							1.00005	2.50651						
		0.916995	2.28122														
		0.919585	2.28098														
		0.922175	2.28074														
		0.924765	2.2805														
		0.927357	2.28026														
		0.929949	2.28003														
		0.932542	2.2798														
		0.935136	2.27957														
		0.937731	2.27935														
		0.940327	2.27913														
		0.942924	2.27891														
		0.945522	2.2787														
		0.94812	2.27849														
		0.95072	2.27829														
		0.95332	2.27809														
		0.955921	2.27789														
		0.958523	2.27769														
		0.961127	2.2775														
		0.963731	2.27731														
		0.966336	2.27712														
		0.968942	2.27694														
		0.971549	2.27676														
		0.974157	2.27659														
		0.976765	2.27641														
		0.979375	2.27624														
		0.981986	2.27608														
		0.984598	2.27591														
		0.98721	2.27575														
		0.989824	2.2756														
		0.992438	2.27544														
		0.995054	2.27529														
		0.99767	2.27514														
		1.00029	2.275														
