Sym0		Asym0		Sym1		Sym2		Sym3		Asym1		Asym2		Asym3		Asym4	
342  Points		381  Points		341  Points		319  Points		238  Points		345  Points		302  Points		236  Points		127  Points	
Freq (MHz)	Vph (m/ms)	Freq (MHz)	Vph (m/ms)	Freq (MHz)	Vph (m/ms)	Freq (MHz)	Vph (m/ms)	Freq (MHz)	Vph (m/ms)	Freq (MHz)	Vph (m/ms)	Freq (MHz)	Vph (m/ms)	Freq (MHz)	Vph (m/ms)	Freq (MHz)	Vph (m/ms)
0.353551	993.171	0.000249284	0.097579	1.00134	2.53195	0.417051	622.878	0.70711	681.544	0.176802	213.443	0.530331	858.541	0.834077	998.872	0.883887	1142.16
0.353514	230.378	0.000531471	0.142363	0.998903	2.53334	0.417134	225.714	0.707122	319.095	0.176926	88.1611	0.530337	295.251	0.834085	414.24	0.883908	452.732
0.35343	130.273	0.00091808	0.186917	0.996469	2.53474	0.417296	137.877	0.707143	208.318	0.177152	55.6144	0.53035	178.285	0.834099	261.306	0.883947	282.33
0.353301	90.7874	0.00140771	0.231142	0.994038	2.53616	0.417535	99.2929	0.707173	154.639	0.177479	40.6701	0.530369	127.7	0.834119	190.85	0.884004	205.133
0.353127	69.6499	0.00199875	0.27498	0.99161	2.53759	0.417851	77.6155	0.707212	122.96	0.177907	32.0993	0.530394	99.4783	0.834146	150.322	0.884078	161.095
0.35291	56.4788	0.00268924	0.318357	0.989184	2.53904	0.41824	63.7356	0.70726	102.057	0.178433	26.549	0.530426	81.4752	0.834179	123.994	0.884171	132.63
0.352652	47.4821	0.00347708	0.361227	0.986761	2.54051	0.418702	54.0916	0.707316	87.2306	0.179057	22.6671	0.530463	68.9919	0.834218	105.516	0.884282	112.72
0.352355	40.9451	0.00435969	0.403516	0.98434	2.54199	0.419235	47.004	0.707381	76.1682	0.179775	19.8036	0.530507	59.8275	0.834263	91.8327	0.88441	98.0124
0.352021	35.979	0.00533464	0.445192	0.981922	2.54348	0.419836	41.5776	0.707456	67.5982	0.180586	17.6071	0.530558	52.8139	0.834315	81.2926	0.884557	86.7046
0.351653	32.0776	0.00639897	0.486196	0.979505	2.54499	0.420502	37.2913	0.707539	60.7636	0.181487	15.8713	0.530615	47.2737	0.834373	72.9243	0.884721	77.7403
0.351253	28.9309	0.00754989	0.526499	0.977091	2.54652	0.421232	33.8212	0.707631	55.1861	0.182476	14.4668	0.530678	42.7869	0.834437	66.1195	0.884904	70.4598
0.350824	26.3389	0.00878438	0.566065	0.974679	2.54806	0.422022	30.9555	0.707732	50.5482	0.183549	13.3084	0.530748	39.0792	0.834507	60.4775	0.885104	64.4298
0.350368	24.1665	0.0100993	0.604866	0.972268	2.54961	0.42287	28.5497	0.707841	46.631	0.184703	12.3378	0.530824	35.9641	0.834584	55.7238	0.885322	59.3538
0.349889	22.3191	0.0114917	0.642882	0.96986	2.55118	0.423772	26.502	0.70796	43.2787	0.185936	11.5138	0.530907	33.31	0.834667	51.664	0.885558	55.0224
0.349388	20.7289	0.0129583	0.680088	0.967452	2.55276	0.424727	24.7385	0.708088	40.3776	0.187245	10.8062	0.530996	31.0218	0.834756	48.1566	0.885812	51.283
0.348869	19.3455	0.0144961	0.71648	0.965046	2.55435	0.425732	23.2042	0.708225	37.8423	0.188625	10.1926	0.531093	29.0288	0.834851	45.0961	0.886084	48.0222
0.348335	18.1309	0.0161019	0.752043	0.962641	2.55596	0.426784	21.8575	0.708371	35.6078	0.189885	9.72122	0.531196	27.2773	0.834952	42.4023	0.886374	45.1539
0.347787	17.0562	0.0177728	0.786779	0.960237	2.55758	0.427882	20.6664	0.708526	33.6237	0.190998	9.35877	0.531305	25.7261	0.835059	40.013	0.886681	42.6114
0.347227	16.0983	0.019506	0.820687	0.957833	2.55921	0.429021	19.6054	0.70869	31.8502	0.191946	9.08301	0.531422	24.3426	0.835172	37.8793	0.887007	40.3422
0.346659	15.2393	0.0212983	0.853763	0.95543	2.56085	0.430201	18.6547	0.708863	30.2555	0.192712	8.87875	0.531545	23.1012	0.835292	35.9625	0.88735	38.3046
0.346085	14.4647	0.0231472	0.886019	0.953028	2.56251	0.431419	17.798	0.709045	28.8139	0.193284	8.73571	0.531676	21.981	0.835417	34.231	0.88771	36.4651
0.345506	13.7626	0.0250497	0.917458	0.950625	2.56417	0.432673	17.0221	0.709237	27.5044	0.193654	8.64717	0.531813	20.9652	0.835548	32.6593	0.888089	34.7962
0.344924	13.1234	0.0270036	0.948095	0.948222	2.56585	0.433962	16.3163	0.709437	26.3098	0.194192	8.5238	0.531958	20.0399	0.835685	31.2263	0.888485	33.2752
0.344342	12.539	0.0290061	0.97794	0.945819	2.56754	0.435283	15.6716	0.709647	25.2155	0.194784	8.39468	0.53211	19.1935	0.835828	29.9143	0.888899	31.8834
0.34376	12.0027	0.031055	1.007	0.943416	2.56923	0.436635	15.0804	0.709866	24.2095	0.1956	8.2269	0.532269	18.4164	0.835977	28.7087	0.88933	30.6052
0.343181	11.5089	0.0331479	1.03531	0.941011	2.57093	0.438017	14.5364	0.710095	23.2816	0.196651	8.0267	0.532436	17.7004	0.836132	27.5971	0.889779	29.4272
0.342607	11.0528	0.0352827	1.06286	0.938605	2.57264	0.439426	14.0343	0.710332	22.423	0.197949	7.80093	0.53261	17.0386	0.836293	26.569	0.890245	28.3381
0.342038	10.6303	0.0374573	1.08968	0.936198	2.57436	0.440861	13.5694	0.71058	21.6262	0.199508	7.55654	0.532792	16.4252	0.836459	25.6152	0.890729	27.3283
0.341475	10.2378	0.0396698	1.11579	0.93379	2.57609	0.442322	13.1378	0.710836	20.8849	0.201344	7.30021	0.532982	15.855	0.836631	24.728	0.89123	26.3895
0.340921	9.87239	0.0419181	1.1412	0.931379	2.57782	0.443806	12.7361	0.711102	20.1935	0.203226	7.06651	0.533179	15.3236	0.836809	23.9007	0.891749	25.5145
0.340377	9.53135	0.0442007	1.16594	0.928965	2.57955	0.445313	12.3613	0.711378	19.5472	0.205153	6.8527	0.533384	14.8273	0.836993	23.1275	0.892285	24.6971
0.339843	9.21238	0.0465158	1.19001	0.92655	2.58129	0.446842	12.0108	0.711663	18.9416	0.207122	6.65643	0.533598	14.3627	0.837182	22.4032	0.892838	23.9317
0.339321	8.91346	0.0488618	1.21344	0.924131	2.58303	0.448391	11.6823	0.711958	18.3732	0.209131	6.47572	0.533819	13.9269	0.837377	21.7233	0.893409	23.2137
0.338811	8.63283	0.0512372	1.23625	0.921708	2.58478	0.44996	11.374	0.712262	17.8385	0.211177	6.30887	0.534049	13.5173	0.837578	21.0839	0.893997	22.5388
0.338315	8.36889	0.0536405	1.25846	0.919283	2.58652	0.451547	11.0839	0.712577	17.3347	0.213259	6.15438	0.534288	13.1316	0.837784	20.4815	0.894601	21.9033
0.337834	8.12025	0.0560705	1.28007	0.916853	2.58827	0.453152	10.8106	0.7129	16.8593	0.215375	6.011	0.534534	12.7679	0.837995	19.913	0.895223	21.3038
0.337368	7.88567	0.0585259	1.30112	0.914418	2.59001	0.454774	10.5526	0.713234	16.4098	0.217522	5.87761	0.53479	12.4242	0.838213	19.3755	0.895862	20.7374
0.336918	7.66403	0.0610054	1.32162	0.911979	2.59175	0.456412	10.3087	0.713578	15.9843	0.219699	5.75323	0.535054	12.0991	0.838436	18.8667	0.896517	20.2015
0.336485	7.45434	0.0635078	1.34158	0.909535	2.59349	0.458066	10.0778	0.713931	15.5809	0.221905	5.63701	0.535327	11.791	0.838664	18.3843	0.89719	19.6937
0.336069	7.25571	0.0660322	1.36102	0.907085	2.59523	0.459734	9.85887	0.714295	15.1979	0.224137	5.52821	0.535609	11.4988	0.838898	17.9263	0.897879	19.2118
0.335672	7.06731	0.0685774	1.37996	0.904629	2.59696	0.461199	9.67717	0.714669	14.8339	0.226394	5.42615	0.5359	11.2211	0.839137	17.491	0.898585	18.754
0.335294	6.88844	0.0711426	1.39842	0.902167	2.59868	0.462457	9.52852	0.715052	14.4875	0.228674	5.33026	0.536201	10.957	0.839381	17.0766	0.899308	18.3185
0.334936	6.71841	0.0737268	1.4164	0.899698	2.6004	0.463502	9.40969	0.715446	14.1574	0.230977	5.23999	0.536511	10.7056	0.839631	16.6817	0.900047	17.9038
0.334597	6.55662	0.0763291	1.43393	0.897222	2.60211	0.464332	9.31826	0.71585	13.8426	0.233301	5.15489	0.53683	10.4658	0.839887	16.305	0.900802	17.5083
0.33428	6.40254	0.0789488	1.45102	0.894738	2.6038	0.464944	9.25238	0.716264	13.542	0.235645	5.07454	0.53716	10.237	0.840148	15.9453	0.901574	17.1309
0.333984	6.25566	0.081585	1.46768	0.892246	2.60549	0.465336	9.21082	0.716689	13.2547	0.238007	4.99855	0.537499	10.0185	0.840414	15.6013	0.902362	16.7704
0.333709	6.11553	0.084237	1.48393	0.889747	2.60716	0.465901	9.15186	0.717124	12.9799	0.240387	4.92659	0.537803	9.83587	0.840685	15.2723	0.903166	16.4256
0.333457	5.98172	0.0869042	1.49978	0.887238	2.60882	0.466517	9.08882	0.71757	12.7167	0.242783	4.85835	0.538068	9.68563	0.840962	14.9571	0.903986	16.0955
0.333227	5.85384	0.0895858	1.51524	0.88472	2.61046	0.467357	9.00476	0.718026	12.4644	0.245194	4.79356	0.538291	9.56501	0.841245	14.6549	0.904822	15.7793
0.333021	5.73156	0.0922813	1.53033	0.882193	2.61209	0.468424	8.90115	0.718493	12.2225	0.24762	4.73196	0.53847	9.47185	0.841532	14.365	0.905674	15.4761
0.332838	5.61453	0.0949901	1.54505	0.879656	2.6137	0.469719	8.7797	0.71897	11.9902	0.250059	4.67333	0.538604	9.40457	0.841825	14.0866	0.906542	15.1851
0.332679	5.50247	0.0977115	1.55942	0.877109	2.61529	0.471246	8.64234	0.719459	11.7671	0.252512	4.61746	0.53869	9.36204	0.842123	13.8191	0.907426	14.9057
0.332545	5.39508	0.100445	1.57346	0.874552	2.61686	0.473007	8.49113	0.719958	11.5526	0.254976	4.56415	0.538815	9.30161	0.842427	13.5618	0.908325	14.6371
0.332435	5.29212	0.10319	1.58716	0.871984	2.61841	0.474779	8.34636	0.720468	11.3462	0.257451	4.51325	0.538952	9.23686	0.842735	13.3142	0.909239	14.3787
0.332351	5.19334	0.105947	1.60054	0.869405	2.61993	0.47656	8.20762	0.720989	11.1475	0.259936	4.46458	0.53914	9.15032	0.84305	13.0757	0.910169	14.1301
0.332292	5.09853	0.108714	1.61362	0.866815	2.62144	0.47835	8.07456	0.721521	10.9561	0.262431	4.41801	0.539382	9.04331	0.843369	12.8458	0.911114	13.8906
0.332259	5.00747	0.111492	1.6264	0.864214	2.62292	0.480148	7.94683	0.722064	10.7716	0.264936	4.3734	0.53968	8.91742	0.843694	12.6242	0.912075	13.6598
0.332252	4.91998	0.114279	1.63888	0.861601	2.62438	0.481955	7.82412	0.722618	10.5936	0.267448	4.33063	0.540037	8.77442	0.844024	12.4103	0.91305	13.4373
0.332267	4.8465	0.117076	1.65109	0.858976	2.62581	0.48377	7.70615	0.723184	10.4218	0.269968	4.28958	0.540457	8.61626	0.844359	12.2037	0.91404	13.2225
0.332296	4.78581	0.119882	1.66302	0.85634	2.62721	0.485591	7.59263	0.723761	10.256	0.272496	4.25015	0.540889	8.46411	0.844699	12.0042	0.915045	13.0152
0.332332	4.73693	0.122697	1.67469	0.853692	2.62859	0.48742	7.48333	0.724274	10.116	0.27503	4.21225	0.541332	8.31765	0.845045	11.8113	0.916064	12.8149
0.332367	4.69909	0.12552	1.68611	0.851031	2.62994	0.489256	7.37802	0.724717	9.99994	0.27757	4.17578	0.541786	8.17657	0.845396	11.6247	0.917099	12.6212
0.332397	4.67172	0.128352	1.69727	0.848359	2.63127	0.491098	7.27648	0.725089	9.90612	0.280116	4.14067	0.542252	8.04059	0.845753	11.4441	0.918147	12.434
0.332418	4.65439	0.131191	1.7082	0.845675	2.63257	0.492946	7.17851	0.725386	9.83327	0.282667	4.10683	0.54273	7.90946	0.846114	11.2693	0.91921	12.2529
0.33245	4.62975	0.134038	1.71889	0.842979	2.63384	0.494799	7.08393	0.725606	9.78045	0.285222	4.0742	0.54322	7.78293	0.846481	11.1	0.920287	12.0775
0.332489	4.60331	0.136892	1.72935	0.840271	2.63508	0.496658	6.99256	0.725748	9.74697	0.287782	4.0427	0.543722	7.66077	0.846854	10.9359	0.921378	11.9076
0.332548	4.56792	0.139753	1.7396	0.837551	2.63629	0.498522	6.90424	0.725952	9.69928	0.290345	4.01229	0.544236	7.54277	0.847231	10.7767	0.922483	11.7431
0.332631	4.52407	0.142621	1.74963	0.83482	2.63748	0.500391	6.81883	0.726176	9.64802	0.292912	3.98289	0.544763	7.42874	0.847614	10.6224	0.923602	11.5835
0.332746	4.47239	0.145495	1.75945	0.832077	2.63864	0.502264	6.73617	0.726483	9.57924	0.295481	3.95446	0.545303	7.31849	0.848003	10.4726	0.924734	11.4288
0.332901	4.41354	0.148376	1.76907	0.829322	2.63977	0.504141	6.65615	0.726875	9.49379	0.298053	3.92695	0.545856	7.21183	0.848346	10.3456	0.925881	11.2787
0.333105	4.34831	0.151262	1.7785	0.826557	2.64087	0.506022	6.57862	0.727356	9.39266	0.300628	3.9003	0.546421	7.10862	0.848641	10.2399	0.92704	11.133
0.333337	4.28541	0.154154	1.78773	0.82378	2.64195	0.507907	6.50348	0.727928	9.27702	0.303204	3.87449	0.547	7.0087	0.848888	10.1541	0.928213	10.9915
0.333599	4.22476	0.157052	1.79679	0.820993	2.643	0.509795	6.43062	0.728595	9.14812	0.305781	3.84945	0.547592	6.91191	0.849084	10.0874	0.929399	10.8541
0.333889	4.16626	0.159956	1.80566	0.818195	2.64402	0.511687	6.35993	0.729275	9.02314	0.30836	3.82516	0.548198	6.81813	0.849229	10.0389	0.930597	10.7205
0.334209	4.10981	0.162865	1.81435	0.815387	2.64502	0.513581	6.29132	0.729966	8.90189	0.310939	3.80158	0.548817	6.72723	0.849322	10.0082	0.931809	10.5907
0.334558	4.05534	0.165778	1.82288	0.812568	2.64599	0.515477	6.22469	0.73067	8.78423	0.313519	3.77868	0.549451	6.63909	0.849457	9.96429	0.932876	10.4805
0.334938	4.00276	0.168697	1.83124	0.80974	2.64694	0.517376	6.15995	0.731387	8.67001	0.316099	3.75642	0.550098	6.55359	0.849604	9.91706	0.933792	10.3886
0.335347	3.95199	0.17162	1.83944	0.806902	2.64787	0.519278	6.09704	0.732115	8.55907	0.318679	3.73477	0.55076	6.47062	0.849805	9.85356	0.934556	10.314
0.335787	3.90296	0.174548	1.84749	0.804055	2.64877	0.52118	6.03586	0.732857	8.4513	0.321258	3.71371	0.551436	6.39009	0.850061	9.77448	0.935163	10.2559
0.336257	3.85561	0.17748	1.85538	0.801199	2.64965	0.523085	5.97635	0.733611	8.34656	0.323837	3.6932	0.552127	6.31189	0.850373	9.68063	0.935611	10.2137
0.336758	3.80988	0.180417	1.86313	0.798334	2.6505	0.524991	5.91844	0.734377	8.24473	0.326415	3.67323	0.552832	6.23594	0.850744	9.57292	0.935898	10.1869
0.33729	3.76569	0.183357	1.87073	0.795461	2.65134	0.526898	5.86205	0.735156	8.1457	0.328991	3.65377	0.553552	6.16215	0.851174	9.45241	0.936313	10.1486
0.337854	3.723	0.186302	1.87819	0.79258	2.65215	0.528806	5.80714	0.735949	8.04937	0.331566	3.63479	0.554288	6.09044	0.851609	9.33507	0.936765	10.1074
0.338449	3.68175	0.189251	1.88551	0.78969	2.65294	0.530715	5.75364	0.736754	7.95563	0.33414	3.61628	0.555039	6.02072	0.85205	9.22079	0.937382	10.052
0.339077	3.64188	0.192203	1.8927	0.786793	2.65372	0.532625	5.7015	0.737572	7.86439	0.336711	3.59821	0.555805	5.95293	0.852496	9.10944	0.938167	9.98291
0.339736	3.60336	0.195159	1.89976	0.783889	2.65447	0.534535	5.65066	0.738403	7.77554	0.33928	3.58057	0.556586	5.887	0.852948	9.00092	0.939122	9.90085
0.340429	3.56612	0.198118	1.90669	0.780977	2.65521	0.536444	5.60107	0.739248	7.68901	0.341846	3.56334	0.557384	5.82285	0.853406	8.89512	0.940251	9.80657
0.341154	3.53014	0.20108	1.9135	0.778059	2.65593	0.538354	5.55268	0.740105	7.60472	0.34441	3.5465	0.558197	5.76043	0.853869	8.79195	0.941558	9.70096
0.341913	3.49536	0.204046	1.92019	0.775134	2.65663	0.540264	5.50546	0.740976	7.52257	0.346971	3.53003	0.559027	5.69967	0.854337	8.69131	0.942877	9.598
0.342705	3.46176	0.207015	1.92676	0.772203	2.65732	0.542173	5.45935	0.741861	7.44251	0.349529	3.51392	0.559872	5.64051	0.854811	8.59311	0.944207	9.4976
0.343531	3.42928	0.209987	1.93322	0.769265	2.65799	0.544082	5.41432	0.742759	7.36444	0.352083	3.49815	0.560735	5.58291	0.855291	8.49726	0.945548	9.39967
0.344392	3.3979	0.212963	1.93956	0.766322	2.65865	0.54599	5.37032	0.74367	7.28832	0.354634	3.48272	0.561613	5.52681	0.855777	8.40369	0.946901	9.30412
0.345288	3.36758	0.21594	1.9458	0.763372	2.65929	0.547896	5.32732	0.744595	7.21406	0.357181	3.4676	0.562509	5.47216	0.856268	8.31231	0.948266	9.21086
0.346219	3.3383	0.218921	1.95193	0.760418	2.65992	0.549802	5.28529	0.745534	7.14162	0.359724	3.45278	0.563421	5.41891	0.856764	8.22306	0.949641	9.11982
0.347187	3.31001	0.221904	1.95796	0.757458	2.66053	0.551706	5.24418	0.746487	7.07092	0.362263	3.43826	0.564351	5.36702	0.857267	8.13586	0.951027	9.03092
0.34819	3.28269	0.224506	1.96312	0.754493	2.66113	0.553609	5.20397	0.747454	7.00191	0.364798	3.42402	0.565297	5.31643	0.857775	8.05063	0.952424	8.9441
0.349231	3.25632	0.226726	1.96747	0.751524	2.66172	0.55551	5.16463	0.748434	6.93454	0.367328	3.41005	0.566261	5.26712	0.858289	7.96733	0.953832	8.85927
0.350309	3.23087	0.228562	1.97102	0.748549	2.6623	0.55741	5.12612	0.749428	6.86875	0.369853	3.39633	0.567242	5.21904	0.858808	7.88589	0.95525	8.77637
0.351425	3.20631	0.230015	1.97381	0.745571	2.66287	0.559307	5.08843	0.750437	6.80449	0.372374	3.38287	0.568241	5.17215	0.859334	7.80623	0.956679	8.69535
0.35258	3.18263	0.231083	1.97584	0.742588	2.66342	0.561203	5.05151	0.75146	6.74172	0.374889	3.36965	0.569258	5.12641	0.859865	7.72832	0.958118	8.61614
0.353774	3.1598	0.231767	1.97713	0.739601	2.66397	0.563096	5.01535	0.752496	6.68039	0.3774	3.35665	0.570293	5.08179	0.860402	7.6521	0.959567	8.53867
0.355008	3.13779	0.232751	1.97899	0.73661	2.66451	0.564986	4.97991	0.753547	6.62046	0.379905	3.34388	0.571346	5.03827	0.860945	7.5775	0.961026	8.46291
0.356283	3.1166	0.23382	1.98099	0.733615	2.66504	0.566875	4.94519	0.754613	6.56187	0.382404	3.33133	0.572416	4.99579	0.861494	7.50449	0.962495	8.38879
0.3576	3.0962	0.235275	1.98369	0.730616	2.66556	0.56876	4.91115	0.755692	6.5046	0.384898	3.31898	0.573505	4.95434	0.862049	7.43302	0.963974	8.31625
0.358959	3.07657	0.237115	1.98708	0.727615	2.66607	0.570643	4.87776	0.756786	6.4486	0.387386	3.30683	0.574613	4.91388	0.862609	7.36303	0.965462	8.24527
0.36036	3.0577	0.239342	1.99113	0.72461	2.66657	0.572523	4.84503	0.757895	6.39384	0.389869	3.29487	0.575739	4.87438	0.863176	7.29449	0.96696	8.17577
0.361806	3.03957	0.241955	1.99582	0.721601	2.66707	0.5744	4.81291	0.759017	6.34028	0.392345	3.2831	0.576884	4.83582	0.863748	7.22735	0.968468	8.10773
0.363296	3.02216	0.244956	2.00113	0.71859	2.66756	0.576273	4.78139	0.760155	6.28788	0.394815	3.2715	0.578047	4.79817	0.864327	7.16157	0.969984	8.04109
0.36483	3.00546	0.24796	2.00634	0.715576	2.66804	0.578144	4.75046	0.761307	6.23661	0.397278	3.26008	0.579229	4.76141	0.864911	7.09711	0.97151	7.97582
0.366411	2.98946	0.250965	2.01148	0.712559	2.66852	0.580011	4.7201	0.762473	6.18644	0.399736	3.24883	0.58043	4.7255	0.865502	7.03393	0.973045	7.91187
0.368038	2.97414	0.253971	2.01653	0.709539	2.66899	0.581875	4.69028	0.763654	6.13734	0.402186	3.23773	0.58165	4.69043	0.866099	6.97201	0.974589	7.84921
0.369712	2.95948	0.25698	2.0215	0.706517	2.66945	0.583735	4.661	0.76485	6.08927	0.40463	3.2268	0.582889	4.65617	0.866702	6.91129	0.976141	7.78779
0.371433	2.94547	0.259991	2.0264	0.703493	2.66991	0.585592	4.63223	0.76606	6.04221	0.407068	3.21601	0.584148	4.62271	0.86731	6.85176	0.977702	7.72759
0.373203	2.9321	0.263003	2.03122	0.700466	2.67037	0.587444	4.60397	0.767285	5.99614	0.409498	3.20537	0.585425	4.59001	0.867925	6.79337	0.979272	7.66856
0.37502	2.91935	0.266016	2.03596	0.697437	2.67082	0.589293	4.57619	0.768525	5.95102	0.411922	3.19487	0.586722	4.55806	0.868547	6.7361	0.98085	7.61068
0.376885	2.9072	0.269031	2.04063	0.694406	2.67127	0.591139	4.54889	0.769779	5.90683	0.414339	3.1845	0.588039	4.52684	0.869174	6.67991	0.982436	7.55391
0.378799	2.89564	0.272048	2.04523	0.691373	2.67172	0.59298	4.52205	0.771048	5.86354	0.416748	3.17427	0.589374	4.49633	0.869808	6.62478	0.98403	7.49823
0.380761	2.88465	0.275066	2.04976	0.688338	2.67216	0.594817	4.49566	0.772331	5.82113	0.419151	3.16417	0.590729	4.46651	0.870448	6.57067	0.985633	7.44359
0.382771	2.87422	0.278085	2.05422	0.685301	2.6726	0.59665	4.4697	0.77363	5.77958	0.421546	3.15419	0.592104	4.43737	0.871094	6.51757	0.987243	7.38998
0.384829	2.86432	0.281106	2.05861	0.682262	2.67303	0.59848	4.44417	0.774942	5.73886	0.423935	3.14433	0.593498	4.40887	0.871747	6.46544	0.988861	7.33736
0.386933	2.85494	0.284128	2.06294	0.679222	2.67346	0.600304	4.41905	0.77627	5.69895	0.426316	3.13459	0.594912	4.38102	0.872406	6.41426	0.990486	7.28571
0.389084	2.84606	0.287151	2.0672	0.676181	2.6739	0.602125	4.39433	0.777612	5.65983	0.428689	3.12496	0.596345	4.35379	0.873071	6.36401	0.992119	7.23501
0.391279	2.83766	0.290176	2.0714	0.673137	2.67433	0.603942	4.37	0.778969	5.62149	0.431056	3.11545	0.597798	4.32717	0.873743	6.31466	0.99376	7.18522
0.393519	2.82972	0.293201	2.07553	0.670093	2.67475	0.605754	4.34605	0.78034	5.58389	0.433415	3.10604	0.599271	4.30114	0.874421	6.26619	0.995408	7.13632
0.395802	2.82222	0.296228	2.07961	0.667047	2.67518	0.607562	4.32248	0.781725	5.54703	0.435766	3.09674	0.600763	4.27568	0.875106	6.21858	0.997062	7.0883
0.398127	2.81514	0.299255	2.08362	0.664	2.67561	0.609366	4.29926	0.783126	5.51088	0.438111	3.08754	0.602274	4.25078	0.875797	6.17181	0.998724	7.04112
0.400492	2.80845	0.302283	2.08758	0.660952	2.67603	0.611165	4.2764	0.78454	5.47543	0.440447	3.07845	0.603805	4.22643	0.876494	6.12585	1.00039	6.99477
0.402896	2.80215	0.305313	2.09148	0.657903	2.67646	0.61296	4.25388	0.785969	5.44065	0.442777	3.06945	0.605356	4.20262	0.877199	6.08068		
0.405337	2.79621	0.308343	2.09532	0.654853	2.67688	0.614751	4.2317	0.787413	5.40654	0.4451	3.06054	0.606926	4.17933	0.877909	6.0363		
0.407814	2.79061	0.311374	2.0991	0.651802	2.67731	0.616538	4.20984	0.78887	5.37307	0.447415	3.05173	0.608516	4.15654	0.878627	5.99267		
0.410325	2.78533	0.314405	2.10283	0.64875	2.67773	0.61832	4.18831	0.790342	5.34023	0.449722	3.04301	0.610124	4.13425	0.879351	5.94978		
0.412868	2.78035	0.317438	2.10651	0.645697	2.67816	0.620097	4.16709	0.791828	5.308	0.452023	3.03438	0.611753	4.11244	0.880081	5.90762		
0.415443	2.77566	0.320471	2.11014	0.642643	2.67859	0.621871	4.14617	0.793328	5.27637	0.454316	3.02584	0.6134	4.0911	0.880819	5.86616		
0.418046	2.77124	0.323505	2.11371	0.639589	2.67902	0.62364	4.12555	0.794842	5.24533	0.456603	3.01738	0.615066	4.07022	0.881563	5.8254		
0.420677	2.76706	0.326539	2.11723	0.636535	2.67945	0.625405	4.10522	0.79637	5.21485	0.458882	3.00901	0.616752	4.04979	0.882314	5.78531		
0.423335	2.76312	0.329574	2.1207	0.63348	2.67989	0.627166	4.08517	0.797912	5.18493	0.461154	3.00072	0.618456	4.0298	0.883071	5.74587		
0.426017	2.7594	0.332609	2.12413	0.630424	2.68032	0.628922	4.06541	0.799467	5.15556	0.46342	2.99251	0.620179	4.01023	0.883836	5.70708		
0.428722	2.75589	0.335644	2.1275	0.627368	2.68076	0.630675	4.04591	0.801036	5.12672	0.465678	2.98438	0.621921	3.99108	0.884607	5.66893		
0.43145	2.75257	0.33868	2.13083	0.624312	2.6812	0.632423	4.02668	0.802619	5.09839	0.46793	2.97634	0.623681	3.97234	0.885385	5.63138		
0.434198	2.74943	0.341717	2.13411	0.621255	2.68165	0.634167	4.00772	0.804215	5.07057	0.470176	2.96837	0.62546	3.95399	0.886171	5.59444		
0.436965	2.74645	0.344753	2.13734	0.618198	2.6821	0.635908	3.98901	0.805824	5.04324	0.472415	2.96048	0.627257	3.93602	0.886963	5.55809		
0.43975	2.74364	0.34779	2.14053	0.615141	2.68255	0.637644	3.97055	0.807447	5.0164	0.474647	2.95266	0.629073	3.91844	0.887762	5.52231		
0.442553	2.74097	0.350827	2.14367	0.612085	2.68301	0.639376	3.95233	0.809083	4.99002	0.476874	2.94492	0.630906	3.90122	0.888568	5.4871		
0.445372	2.73844	0.353865	2.14677	0.609028	2.68347	0.641105	3.93435	0.810731	4.96411	0.479094	2.93726	0.632757	3.88436	0.889381	5.45244		
0.448205	2.73604	0.356902	2.14983	0.605971	2.68394	0.64283	3.91661	0.812393	4.93865	0.481308	2.92966	0.634625	3.86785	0.890201	5.41833		
0.451053	2.73375	0.359939	2.15284	0.602914	2.68441	0.644551	3.8991	0.814067	4.91362	0.483517	2.92215	0.636511	3.85168	0.891029	5.38474		
0.453914	2.73158	0.362977	2.15581	0.599857	2.68489	0.646269	3.88182	0.815753	4.88902	0.48572	2.9147	0.638415	3.83584	0.891863	5.35166		
0.456787	2.72952	0.366014	2.15874	0.596801	2.68538	0.647984	3.86476	0.817452	4.86484	0.487917	2.90733	0.640335	3.82032	0.892705	5.3191		
0.459673	2.72755	0.369052	2.16163	0.593746	2.68587	0.649695	3.84792	0.819164	4.84108	0.490109	2.90002	0.642272	3.80513	0.893554	5.28703		
0.462569	2.72567	0.372089	2.16448	0.59069	2.68637	0.651402	3.83129	0.820887	4.81771	0.492297	2.89279	0.644226	3.79024	0.89441	5.25545		
0.465475	2.72388	0.375126	2.16729	0.587635	2.68688	0.653107	3.81487	0.822623	4.79473	0.494479	2.88563	0.646197	3.77565	0.895273	5.22435		
0.468391	2.72217	0.378163	2.17006	0.584581	2.6874	0.654808	3.79866	0.82437	4.77213	0.496656	2.87854	0.648183	3.76136	0.896144	5.19371		
0.471316	2.72054	0.381199	2.17279	0.581527	2.68792	0.656507	3.78265	0.826129	4.74991	0.498829	2.87152	0.650186	3.74735	0.897022	5.16353		
0.47425	2.71898	0.384236	2.17548	0.578474	2.68845	0.658202	3.76684	0.827899	4.72805	0.500997	2.86457	0.652204	3.73363	0.897908	5.1338		
0.477192	2.71748	0.387272	2.17814	0.575422	2.689	0.659895	3.75123	0.829681	4.70655	0.503161	2.85769	0.654238	3.72017	0.898801	5.10451		
0.480141	2.71605	0.390307	2.18076	0.57237	2.68955	0.661585	3.73581	0.831474	4.6854	0.505321	2.85087	0.656287	3.70698	0.899701	5.07565		
0.483097	2.71467	0.393342	2.18334	0.56932	2.69011	0.663272	3.72058	0.833279	4.66459	0.507478	2.84413	0.658351	3.69405	0.900609	5.04722		
0.48606	2.71335	0.396377	2.18588	0.566271	2.69069	0.664957	3.70554	0.835093	4.64411	0.50963	2.83745	0.66043	3.68137	0.901525	5.0192		
0.489029	2.71209	0.399411	2.18839	0.563223	2.69128	0.66664	3.69067	0.836919	4.62396	0.51178	2.83084	0.662523	3.66894	0.902448	4.99159		
0.492004	2.71087	0.402445	2.19087	0.560176	2.69188	0.668321	3.67599	0.838755	4.60413	0.513926	2.8243	0.664631	3.65674	0.903379	4.96438		
0.494985	2.7097	0.405478	2.19331	0.55713	2.69249	0.669999	3.66149	0.840602	4.58461	0.516069	2.81783	0.666753	3.64478	0.904317	4.93756		
0.497971	2.70857	0.40851	2.19571	0.554086	2.69312	0.671675	3.64716	0.842459	4.56539	0.51821	2.81143	0.668888	3.63305	0.905263	4.91112		
0.500961	2.70748	0.411541	2.19808	0.551044	2.69376	0.67335	3.63301	0.844326	4.54647	0.520348	2.80509	0.671037	3.62154	0.906217	4.88506		
0.503957	2.70643	0.414572	2.20042	0.548003	2.69442	0.675023	3.61902	0.846202	4.52784	0.522484	2.79883	0.6732	3.61025	0.907178	4.85937		
0.506957	2.70542	0.417602	2.20272	0.544964	2.69509	0.676694	3.6052	0.848089	4.5095	0.524617	2.79263	0.675375	3.59917	0.908148	4.83405		
0.50996	2.70444	0.420631	2.20499	0.541927	2.69578	0.678364	3.59155	0.849984	4.49143	0.526749	2.78649	0.677563	3.58829	0.909125	4.80909		
0.512968	2.70349	0.423659	2.20723	0.538892	2.69649	0.680032	3.57806	0.851889	4.47364	0.52888	2.78043	0.679763	3.57762	0.91011	4.78447		
0.51598	2.70258	0.426685	2.20943	0.535859	2.69722	0.6817	3.56473	0.853804	4.45611	0.531008	2.77443	0.681976	3.56714	0.911104	4.7602		
0.518995	2.70169	0.429711	2.2116	0.532828	2.69797	0.683366	3.55155	0.855727	4.43885	0.533136	2.7685	0.6842	3.55685	0.912105	4.73627		
0.522013	2.70083	0.432736	2.21374	0.5298	2.69874	0.685031	3.53853	0.857659	4.42184	0.535263	2.76264	0.686436	3.54674	0.913114	4.71267		
0.525034	2.7	0.43576	2.21585	0.526774	2.69953	0.686696	3.52567	0.859599	4.40507	0.537389	2.75684	0.688684	3.53682	0.914131	4.6894		
0.528058	2.69919	0.438782	2.21793	0.523751	2.70035	0.68836	3.51295	0.861548	4.38856	0.539515	2.75111	0.690942	3.52707	0.915157	4.66644		
0.531084	2.69841	0.441803	2.21998	0.520731	2.7012	0.690023	3.50039	0.863505	4.37228	0.54164	2.74545	0.693212	3.51749	0.91619	4.64381		
0.534114	2.69765	0.444823	2.22199	0.517715	2.70207	0.691686	3.48797	0.86547	4.35623	0.543766	2.73986	0.695492	3.50808	0.917232	4.62148		
0.537145	2.69691	0.447841	2.22398	0.514701	2.70296	0.693348	3.4757	0.867443	4.34042	0.545891	2.73433	0.697782	3.49884	0.918282	4.59946		
0.540179	2.69619	0.450858	2.22593	0.511691	2.70389	0.695011	3.46357	0.869423	4.32482	0.548017	2.72887	0.700082	3.48975	0.91934	4.57774		
0.543215	2.69549	0.453873	2.22785	0.508685	2.70485	0.696673	3.45159	0.871411	4.30945	0.550144	2.72348	0.702392	3.48081	0.920407	4.55631		
0.546253	2.6948	0.456886	2.22975	0.505683	2.70584	0.698335	3.43974	0.873406	4.29429	0.552271	2.71816	0.704711	3.47203	0.921482	4.53518		
0.549293	2.69413	0.459898	2.23161	0.502685	2.70687	0.699998	3.42803	0.875408	4.27934	0.5544	2.7129	0.707039	3.46339	0.922565	4.51433		
0.552335	2.69348	0.462908	2.23344	0.499692	2.70794	0.701661	3.41646	0.877418	4.26459	0.55653	2.70771	0.709377	3.45489	0.923657	4.49376		
0.555378	2.69285	0.465917	2.23525	0.496703	2.70904	0.703325	3.40502	0.879434	4.25004	0.558662	2.70258	0.711723	3.44654	0.924758	4.47346		
0.558423	2.69223	0.468923	2.23702	0.493719	2.71019	0.70499	3.39371	0.881456	4.23569	0.560796	2.69752	0.714077	3.43832	0.925867	4.45344		
0.561469	2.69162	0.471928	2.23877	0.490741	2.71138	0.706655	3.38254	0.883485	4.22154	0.562931	2.69253	0.716439	3.43023	0.926985	4.43368		
0.564516	2.69102	0.47493	2.24049	0.487768	2.71262	0.708321	3.37149	0.88552	4.20757	0.565069	2.68761	0.71881	3.42227	0.928111	4.41419		
0.567565	2.69044	0.47793	2.24218	0.484802	2.71391	0.709988	3.36058	0.887561	4.19378	0.567209	2.68275	0.721188	3.41443	0.929246	4.39495		
0.570615	2.68987	0.480929	2.24384	0.481842	2.71525	0.711656	3.34979	0.889608	4.18017	0.569352	2.67796	0.723573	3.40671	0.93039	4.37597		
0.573665	2.68931	0.483925	2.24547	0.478888	2.71665	0.713326	3.33913	0.89166	4.16674	0.571497	2.67323	0.725965	3.39912	0.931543	4.35724		
0.576717	2.68876	0.486918	2.24707	0.475942	2.71811	0.714997	3.32859	0.893718	4.15349	0.573646	2.66857	0.728364	3.39163	0.932705	4.33876		
0.57977	2.68823	0.489909	2.24864	0.473004	2.71963	0.71667	3.31817	0.895781	4.1404	0.575798	2.66398	0.73077	3.38427	0.933875	4.32052		
0.582823	2.6877	0.492898	2.25019	0.470074	2.72123	0.718344	3.30787	0.89785	4.12747	0.577954	2.65945	0.733182	3.377	0.935055	4.30252		
0.585877	2.68718	0.495884	2.25171	0.467153	2.72289	0.72002	3.29769	0.899923	4.11471	0.580113	2.65499	0.7356	3.36985	0.936244	4.28475		
0.588932	2.68666	0.498867	2.2532	0.46424	2.72463	0.721699	3.28763	0.902001	4.10211	0.582277	2.65059	0.738024	3.3628	0.937442	4.26722		
0.591987	2.68616	0.501848	2.25466	0.461338	2.72646	0.723379	3.27769	0.904083	4.08966	0.584444	2.64626	0.740454	3.35585	0.938648	4.24991		
0.595042	2.68566	0.504826	2.25609	0.458447	2.72837	0.725061	3.26787	0.90617	4.07737	0.586616	2.642	0.742889	3.349	0.939865	4.23283		
0.598098	2.68517	0.507801	2.2575	0.455567	2.73038	0.726746	3.25815	0.908261	4.06522	0.588792	2.6378	0.745329	3.34224	0.94109	4.21597		
0.601155	2.68469	0.510773	2.25887	0.452698	2.73249	0.728434	3.24855	0.910357	4.05322	0.590973	2.63367	0.747774	3.33558	0.942325	4.19933		
0.604211	2.68421	0.513741	2.26022	0.449843	2.73471	0.730123	3.23907	0.912456	4.04136	0.593159	2.6296	0.750224	3.329	0.943569	4.18291		
0.607268	2.68374	0.516707	2.26154	0.447001	2.73704	0.731816	3.22969	0.914559	4.02964	0.59535	2.62559	0.752678	3.32252	0.944823	4.1667		
0.610325	2.68328	0.519669	2.26284	0.444173	2.7395	0.733511	3.22042	0.916665	4.01805	0.597547	2.62165	0.755136	3.31612	0.946086	4.1507		
0.613382	2.68282	0.522628	2.2641	0.441361	2.74209	0.73521	3.21126	0.918775	4.00661	0.599749	2.61778	0.757598	3.3098	0.947358	4.1349		
0.616439	2.68236	0.525584	2.26534	0.438566	2.74481	0.736911	3.20221	0.920888	3.99529	0.601957	2.61397	0.760064	3.30357	0.948641	4.11931		
0.619496	2.68191	0.528536	2.26655	0.435788	2.7477	0.738616	3.19327	0.923005	3.9841	0.60417	2.61022	0.762533	3.29741	0.949933	4.10392		
0.622552	2.68146	0.531484	2.26773	0.433029	2.75074	0.740324	3.18443	0.925124	3.97303	0.60639	2.60654	0.765006	3.29133	0.951234	4.08872		
0.625609	2.68102	0.534428	2.26889	0.43029	2.75395	0.742036	3.17569	0.927246	3.96209	0.608616	2.60292	0.767482	3.28532	0.952546	4.07373		
0.628665	2.68057	0.537369	2.27001	0.427571	2.75736	0.743751	3.16706	0.92937	3.95127	0.610848	2.59937	0.76996	3.27939	0.953867	4.05892		
0.631721	2.68014	0.540306	2.27111	0.424876	2.76095	0.74547	3.15853	0.931497	3.94057	0.613087	2.59588	0.772442	3.27352	0.955198	4.0443		
0.634776	2.6797	0.543238	2.27218	0.422204	2.76477	0.747192	3.15009	0.933627	3.92999	0.615333	2.59245	0.774925	3.26773	0.95654	4.02987		
0.637831	2.67927	0.546167	2.27323	0.419557	2.7688	0.748919	3.14176	0.935758	3.91952	0.617586	2.58909	0.777411	3.262	0.957891	4.01563		
0.640886	2.67884	0.549091	2.27424	0.416938	2.77308	0.750649	3.13353	0.937892	3.90916	0.619846	2.58579	0.779899	3.25634	0.959253	4.00157		
0.643939	2.67841	0.552011	2.27523	0.414346	2.77762	0.752384	3.1254	0.940027	3.8989	0.622113	2.58255	0.782389	3.25074	0.960624	3.98768		
0.646993	2.67798	0.554926	2.27619	0.411785	2.78243	0.754123	3.11736	0.942164	3.88876	0.624388	2.57937	0.784881	3.2452	0.962006	3.97398		
0.650045	2.67755	0.557837	2.27712	0.409255	2.78753	0.755867	3.10942	0.944303	3.87872	0.626671	2.57626	0.787373	3.23972	0.963398	3.96045		
0.653097	2.67713	0.560743	2.27803	0.406759	2.79295	0.757615	3.10157	0.946443	3.86878	0.628961	2.57321	0.789867	3.2343	0.964801	3.94709		
0.656147	2.6767	0.563645	2.2789	0.404297	2.79869	0.759367	3.09382	0.948584	3.85894	0.631259	2.57022	0.792362	3.22893	0.966214	3.9339		
0.659197	2.67628	0.566541	2.27975	0.401871	2.80478	0.761125	3.08616	0.950726	3.84921	0.633566	2.56729	0.794858	3.22362	0.967637	3.92089		
0.662246	2.67585	0.569433	2.28057	0.399484	2.81124	0.762887	3.0786	0.95287	3.83956	0.635881	2.56443	0.797355	3.21836	0.969071	3.90804		
0.665293	2.67543	0.572319	2.28137	0.397135	2.81809	0.764655	3.07113	0.955014	3.83002	0.638204	2.56162	0.799852	3.21316	0.970516	3.89535		
0.66834	2.675	0.575201	2.28213	0.394828	2.82535	0.766427	3.06374	0.957159	3.82056	0.640536	2.55888	0.802349	3.208	0.971971	3.88282		
0.671385	2.67457	0.578077	2.28287	0.392564	2.83303	0.768205	3.05645	0.959305	3.8112	0.642876	2.55619	0.804846	3.2029	0.973437	3.87046		
0.674429	2.67414	0.580948	2.28358	0.390342	2.84116	0.769988	3.04925	0.961451	3.80192	0.645226	2.55357	0.807344	3.19784	0.974914	3.85825		
0.677472	2.67371	0.583813	2.28426	0.388165	2.84977	0.771777	3.04214	0.963597	3.79274	0.647584	2.551	0.809841	3.19282	0.976402	3.8462		
0.680513	2.67328	0.586673	2.28491	0.386034	2.85886	0.773572	3.03511	0.965744	3.78364	0.649952	2.5485	0.812337	3.18785	0.9779	3.8343		
0.683552	2.67285	0.589528	2.28554	0.38395	2.86845	0.775372	3.02817	0.967891	3.77462	0.652329	2.54605	0.814833	3.18293	0.97941	3.82256		
0.68659	2.67241	0.592377	2.28614	0.381913	2.87858	0.777178	3.02132	0.970038	3.76568	0.654715	2.54367	0.817328	3.17804	0.980931	3.81097		
0.689626	2.67197	0.59522	2.28671	0.379923	2.88924	0.77899	3.01455	0.972184	3.75683	0.657111	2.54134	0.819822	3.1732	0.982463	3.79952		
0.69266	2.67153	0.598057	2.28726	0.377981	2.90047	0.780809	3.00787	0.974331	3.74805	0.659516	2.53907	0.822315	3.1684	0.984006	3.78822		
0.695692	2.67108	0.600888	2.28777	0.376088	2.91228	0.782634	3.00128	0.976477	3.73936	0.661932	2.53686	0.824807	3.16363	0.98556	3.77707		
0.698723	2.67063	0.603714	2.28826	0.374243	2.92468	0.784465	2.99476	0.978622	3.73073	0.664357	2.5347	0.827297	3.15891	0.987126	3.76606		
0.701751	2.67018	0.606533	2.28873	0.372446	2.9377	0.786303	2.98833	0.980767	3.72219	0.666791	2.53261	0.829786	3.15421	0.988703	3.75519		
0.704777	2.66972	0.609346	2.28916	0.370697	2.95134	0.788147	2.98199	0.982911	3.71372	0.669236	2.53056	0.832273	3.14956	0.990291	3.74446		
0.7078	2.66926	0.612154	2.28957	0.368996	2.96562	0.789999	2.97573	0.985054	3.70532	0.671691	2.52858	0.834758	3.14494	0.991891	3.73388		
0.710821	2.66879	0.614955	2.28995	0.367342	2.98056	0.791857	2.96954	0.987197	3.69698	0.674157	2.52665	0.837241	3.14035	0.993503	3.72342		
0.71384	2.66831	0.61775	2.29031	0.365735	2.99617	0.793723	2.96344	0.989338	3.68872	0.676632	2.52478	0.839721	3.13579	0.995126	3.71311		
0.716855	2.66784	0.620538	2.29064	0.364174	3.01246	0.795596	2.95742	0.991478	3.68053	0.679118	2.52296	0.8422	3.13126	0.99676	3.70292		
0.719868	2.66735	0.623321	2.29095	0.362658	3.02946	0.797477	2.95148	0.993617	3.6724	0.681614	2.52119	0.844675	3.12677	0.998407	3.69287		
0.722878	2.66686	0.626097	2.29122	0.361187	3.04717	0.799365	2.94562	0.995755	3.66434	0.684121	2.51948	0.847149	3.1223	1.00006	3.68295		
0.725885	2.66636	0.628867	2.29148	0.35976	3.06561	0.801261	2.93985	0.997891	3.65635	0.686637	2.51782	0.849619	3.11786				
0.728889	2.66585	0.631631	2.29171	0.358377	3.08481	0.803165	2.93414	1.00003	3.64842	0.689165	2.51622	0.852086	3.11345				
0.731889	2.66534	0.634388	2.29191	0.357036	3.10476	0.805077	2.92852			0.691703	2.51466	0.854551	3.10907				
0.734886	2.66481	0.637139	2.29209	0.355737	3.1255	0.806998	2.92298			0.694251	2.51316	0.857012	3.10471				
0.737879	2.66428	0.639884	2.29225	0.35448	3.14703	0.808927	2.91751			0.69681	2.51171	0.85947	3.10038				
0.740869	2.66374	0.642622	2.29238	0.353262	3.16939	0.810865	2.91212			0.69938	2.51031	0.861924	3.09607				
0.743854	2.66319	0.645354	2.29249	0.352085	3.19258	0.812812	2.90681			0.70196	2.50895	0.864375	3.09179				
0.746835	2.66263	0.64808	2.29257	0.350946	3.21663	0.814768	2.90158			0.70455	2.50765	0.866822	3.08752				
0.749812	2.66206	0.6508	2.29264	0.349847	3.24156	0.816734	2.89642			0.707151	2.50639	0.869265	3.08328				
0.752785	2.66147	0.653514	2.29268	0.348785	3.2674	0.818709	2.89134			0.709763	2.50519	0.871705	3.07907				
0.755752	2.66088	0.656222	2.2927	0.34776	3.29417	0.820694	2.88634			0.712385	2.50402	0.87414	3.07487				
0.758715	2.66027	0.658923	2.2927	0.346772	3.32189	0.822688	2.88141			0.715017	2.50291	0.876572	3.07069				
0.761672	2.65965	0.661619	2.29268	0.34582	3.3506	0.824693	2.87656			0.717659	2.50184	0.878999	3.06654				
0.764625	2.65902	0.664309	2.29263	0.344904	3.38032	0.826709	2.87179			0.720312	2.50081	0.881422	3.0624				
0.767571	2.65837	0.666993	2.29257	0.344023	3.41109	0.828735	2.86709			0.722975	2.49983	0.88384	3.05828				
0.770512	2.65771	0.669671	2.29249	0.343176	3.44293	0.830772	2.86246			0.725648	2.49889	0.886255	3.05418				
0.773447	2.65703	0.672344	2.29239	0.342365	3.47588	0.83282	2.85792			0.728331	2.49799	0.888664	3.05009				
0.776376	2.65634	0.675011	2.29228	0.341587	3.50998	0.83488	2.85344			0.731024	2.49713	0.891069	3.04603				
0.779298	2.65563	0.677672	2.29214	0.340842	3.54526	0.836952	2.84905			0.733727	2.49631	0.893469	3.04198				
0.782214	2.6549	0.680329	2.29199	0.340131	3.58177	0.839035	2.84473			0.736439	2.49554	0.895865	3.03794				
0.785122	2.65416	0.68298	2.29182	0.339452	3.61954	0.841131	2.84048			0.739162	2.4948	0.898256	3.03392				
0.788024	2.65339	0.685626	2.29164	0.338806	3.65863	0.843239	2.83632			0.741893	2.4941	0.900641	3.02992				
0.790918	2.65261	0.688267	2.29144	0.338193	3.69908	0.84536	2.83222			0.744634	2.49343	0.903022	3.02593				
0.793804	2.65181	0.690903	2.29123	0.337611	3.74094	0.847495	2.82821			0.747384	2.49281	0.905398	3.02196				
0.796682	2.65099	0.693535	2.291	0.33706	3.78426	0.849642	2.82427			0.750144	2.49221	0.907769	3.018				
0.799551	2.65014	0.696161	2.29076	0.336541	3.82909	0.851804	2.8204			0.752912	2.49165	0.910135	3.01406				
0.802412	2.64928	0.698783	2.2905	0.336053	3.87551	0.853979	2.81661			0.75569	2.49113	0.912496	3.01013				
0.805265	2.64839	0.701401	2.29024	0.335596	3.92356	0.856168	2.8129			0.758476	2.49064	0.914851	3.00621				
0.808108	2.64748	0.704015	2.28996	0.335169	3.97332	0.858372	2.80927			0.76127	2.49018	0.917201	3.00231				
0.810942	2.64654	0.706624	2.28967	0.334773	4.02485	0.860591	2.80571			0.764073	2.48975	0.919547	2.99842				
0.813765	2.64558	0.70923	2.28937	0.334406	4.07822	0.862825	2.80222			0.766885	2.48935	0.921887	2.99454				
0.81658	2.6446	0.711832	2.28906	0.33407	4.13352	0.865075	2.79882			0.769704	2.48898	0.924221	2.99068				
0.819384	2.64359	0.71443	2.28874	0.333762	4.19083	0.86734	2.79549			0.772532	2.48864	0.926551	2.98683				
0.822177	2.64256	0.717024	2.28841	0.333484	4.25023	0.869621	2.79223			0.775367	2.48833	0.928875	2.98299				
0.82496	2.64149	0.719615	2.28808	0.333235	4.31182	0.871918	2.78905			0.77821	2.48804	0.931194	2.97916				
0.827732	2.64041	0.722202	2.28773	0.333015	4.3757	0.874231	2.78595			0.781061	2.48778	0.933508	2.97534				
0.830493	2.63929	0.724787	2.28738	0.332823	4.44196	0.876561	2.78292			0.783919	2.48755	0.935817	2.97154				
0.833242	2.63815	0.727368	2.28702	0.332659	4.51073	0.878908	2.77997			0.786784	2.48734	0.93812	2.96775				
0.83598	2.63698	0.729947	2.28665	0.332523	4.58211	0.881272	2.7771			0.789657	2.48715	0.940418	2.96397				
0.838707	2.63578	0.732522	2.28628	0.332415	4.65623	0.883653	2.7743			0.792536	2.48699	0.942712	2.9602				
0.841422	2.63456	0.735096	2.2859	0.332335	4.73324	0.886051	2.77157			0.795423	2.48685	0.944999	2.95644				
0.844125	2.6333	0.737666	2.28552	0.332281	4.81327	0.888466	2.76892			0.798316	2.48673	0.947282	2.9527				
0.846816	2.63202	0.740234	2.28513	0.332254	4.89647	0.890899	2.76634			0.801215	2.48664	0.94956	2.94897				
0.849495	2.63071	0.7428	2.28474	0.332254	4.98301	0.893349	2.76383			0.804121	2.48656	0.951833	2.94524				
0.852162	2.62937	0.745364	2.28435	0.33228	5.07307	0.895816	2.7614			0.807033	2.4865	0.954101	2.94153				
0.854817	2.62801	0.747925	2.28395	0.332332	5.16682	0.898302	2.75904			0.809951	2.48647	0.956363	2.93784				
0.85746	2.62662	0.750485	2.28355	0.33241	5.26449	0.900804	2.75674			0.812875	2.48645	0.958621	2.93415				
0.860092	2.6252	0.753043	2.28314	0.332512	5.36627	0.903324	2.75452			0.815805	2.48645	0.960874	2.93048				
0.862711	2.62376	0.755599	2.28274	0.33264	5.47241	0.905861	2.75237			0.818741	2.48646	0.963123	2.92681				
0.865319	2.62229	0.758154	2.28233	0.332792	5.58316	0.908415	2.75028			0.821682	2.48649	0.965366	2.92316				
0.867916	2.6208	0.760707	2.28192	0.332968	5.69879	0.910986	2.74826			0.824628	2.48654	0.967605	2.91952				
0.870501	2.61929	0.763259	2.28151	0.333168	5.8196	0.913574	2.7463			0.82758	2.48661	0.96984	2.9159				
0.873075	2.61775	0.765809	2.2811	0.333391	5.9459	0.916178	2.74441			0.830537	2.48669	0.97207	2.91228				
0.875639	2.61619	0.768359	2.28068	0.333637	6.07803	0.918799	2.74257			0.833499	2.48678	0.974295	2.90868				
0.878192	2.61461	0.770907	2.28027	0.333906	6.21639	0.921435	2.7408			0.836466	2.48689	0.976516	2.90509				
0.880734	2.61302	0.773454	2.27986	0.334196	6.36136	0.924088	2.73909			0.839438	2.48701	0.978733	2.90151				
0.883267	2.6114	0.776001	2.27945	0.334508	6.51341	0.926755	2.73744			0.842414	2.48714	0.980946	2.89795				
0.88579	2.60976	0.778546	2.27903	0.33484	6.67302	0.929438	2.73584			0.845395	2.48729	0.983154	2.89439				
0.888304	2.60812	0.781091	2.27862	0.335193	6.84072	0.932135	2.73429			0.848381	2.48745	0.985359	2.89085				
0.890809	2.60645	0.783636	2.27821	0.335566	7.01709	0.934847	2.7328			0.85137	2.48762	0.987559	2.88733				
0.893305	2.60477	0.786179	2.2778	0.335958	7.2028	0.937573	2.73136			0.854364	2.4878	0.989756	2.88381				
0.895793	2.60308	0.788723	2.2774	0.336368	7.39853	0.940312	2.72996			0.857362	2.48799	0.991949	2.88031				
0.898273	2.60138	0.791266	2.27699	0.336797	7.60509	0.943064	2.72862			0.860364	2.48819	0.994138	2.87682				
0.900747	2.59967	0.793808	2.27659	0.337242	7.82333	0.94583	2.72732			0.86337	2.48841	0.996324	2.87335				
0.903213	2.59795	0.796351	2.27619	0.337704	8.05424	0.948607	2.72606			0.86638	2.48863	0.998506	2.86989				
0.905672	2.59623	0.798893	2.27579	0.338119	8.26662	0.951397	2.72485			0.869394	2.48886	1.00068	2.86644				
0.908125	2.59449	0.801435	2.27539	0.338482	8.4565	0.954198	2.72368			0.872411	2.4891						
0.910573	2.59276	0.803977	2.27499	0.338788	8.62005	0.957011	2.72255			0.875432	2.48935						
0.913015	2.59101	0.806519	2.2746	0.339033	8.75379	0.959834	2.72146			0.878456	2.4896						
0.915452	2.58927	0.809062	2.27421	0.339216	8.85473	0.962668	2.7204			0.881483	2.48987						
0.917884	2.58753	0.811604	2.27383	0.339385	8.94962	0.965511	2.71938			0.884514	2.49014						
0.920313	2.58578	0.814147	2.27344	0.339504	9.0168	0.968365	2.7184			0.887548	2.49042						
0.922737	2.58404	0.816689	2.27306	0.33969	9.12374	0.971228	2.71744			0.890585	2.4907						
0.925158	2.58229	0.819233	2.27269	0.339947	9.2732	0.974099	2.71652			0.893625	2.491						
0.927575	2.58055	0.821776	2.27231	0.340275	9.46914	0.97698	2.71563			0.896669	2.49129						
0.92999	2.57881	0.82432	2.27195	0.340677	9.71706	0.979868	2.71476			0.899715	2.4916						
0.932402	2.57708	0.826864	2.27158	0.341155	10.0244	0.982765	2.71393			0.902763	2.49191						
0.934812	2.57535	0.829409	2.27122	0.341713	10.4009	0.985668	2.71312			0.905815	2.49223						
0.93722	2.57363	0.831954	2.27086	0.342278	10.8057	0.98858	2.71233			0.908869	2.49255						
0.939627	2.57192	0.8345	2.2705	0.34285	11.242	0.991498	2.71157			0.911926	2.49287						
0.942032	2.57021	0.837047	2.27015	0.343427	11.7136	0.994423	2.71083			0.914986	2.4932						
0.944436	2.56851	0.839594	2.26981	0.344007	12.2248	0.997354	2.71012			0.918048	2.49354						
0.946839	2.56682	0.842142	2.26946	0.344589	12.7807	1.00029	2.70942			0.921112	2.49388						
0.949242	2.56514	0.84469	2.26913	0.345171	13.3875					0.924179	2.49423						
0.951645	2.56347	0.847239	2.26879	0.345752	14.0524					0.927248	2.49457						
0.954047	2.56181	0.84979	2.26846	0.346329	14.7839					0.930319	2.49493						
0.95645	2.56016	0.85234	2.26813	0.346901	15.5928					0.933393	2.49528						
0.958853	2.55852	0.854892	2.26781	0.347466	16.4918					0.936469	2.49564						
0.961257	2.55689	0.857444	2.26749	0.348021	17.4968					0.939546	2.49601						
0.963661	2.55528	0.859998	2.26718	0.348563	18.6278					0.942626	2.49637						
0.966067	2.55367	0.862552	2.26687	0.349092	19.91					0.945708	2.49674						
0.968474	2.55209	0.865107	2.26657	0.349603	21.3759					0.948792	2.49711						
0.970882	2.55051	0.867664	2.26627	0.350095	23.0683					0.951878	2.49749						
0.973291	2.54895	0.870221	2.26597	0.350565	25.044					0.954965	2.49787						
0.975702	2.5474	0.872779	2.26568	0.351009	27.381					0.958055	2.49825						
0.978116	2.54587	0.875338	2.26539	0.351426	30.1888					0.961146	2.49863						
0.980531	2.54435	0.877898	2.26511	0.351813	33.6263					0.964239	2.49901						
0.982948	2.54285	0.880459	2.26483	0.352167	37.933					0.967334	2.4994						
0.985367	2.54136	0.883021	2.26456	0.352486	43.4877					0.97043	2.49979						
0.987789	2.53988	0.885584	2.26429	0.352767	50.9271					0.973528	2.50018						
0.990213	2.53842	0.888149	2.26402	0.353007	61.4098					0.976627	2.50057						
0.99264	2.53698	0.890714	2.26376	0.353206	77.2901					0.979728	2.50096						
0.995069	2.53555	0.893281	2.2635	0.353361	104.194					0.982831	2.50136						
0.997502	2.53414	0.895848	2.26325	0.353471	159.735					0.985935	2.50175						
0.999937	2.53274	0.898417	2.263	0.353535	341.797					0.989041	2.50215						
1.00238	2.53136	0.900987	2.26276							0.992148	2.50255						
		0.903557	2.26252							0.995256	2.50295						
		0.90613	2.26228							0.998366	2.50335						
		0.908703	2.26205							1.00148	2.50375						
		0.911277	2.26182														
		0.913852	2.2616														
		0.916429	2.26138														
		0.919007	2.26117														
		0.921586	2.26096														
		0.924166	2.26075														
		0.926747	2.26055														
		0.929329	2.26035														
		0.931913	2.26015														
		0.934498	2.25996														
		0.937084	2.25977														
		0.939671	2.25959														
		0.942259	2.25941														
		0.944848	2.25924														
		0.947439	2.25907														
		0.95003	2.2589														
		0.952623	2.25873														
		0.955217	2.25857														
		0.957812	2.25841														
		0.960408	2.25826														
		0.963006	2.25811														
		0.965604	2.25796														
		0.968204	2.25782														
		0.970805	2.25768														
		0.973406	2.25754														
		0.976009	2.25741														
		0.978614	2.25728														
		0.981219	2.25716														
		0.983825	2.25703														
		0.986432	2.25691														
		0.989041	2.25679														
		0.99165	2.25668														
		0.994261	2.25657														
		0.996872	2.25646														
		0.999485	2.25635														
		1.0021	2.25625														
