Sym0		Asym0		Sym1		Sym2		Sym3		Asym1		Asym2		Asym3	
414  Points		468  Points		414  Points		394  Points		285  Points		432  Points		364  Points		261  Points	
Freq (MHz)	Vph (m/ms)	Freq (MHz)	Vph (m/ms)	Freq (MHz)	Vph (m/ms)	Freq (MHz)	Vph (m/ms)	Freq (MHz)	Vph (m/ms)	Freq (MHz)	Vph (m/ms)	Freq (MHz)	Vph (m/ms)	Freq (MHz)	Vph (m/ms)
0.353553	770.368	6.96491e-006	0.0163133	1.00219	2.63287	0.491474	634.091	0.707107	3605.98	0.1768	221.435	0.530333	662.332	0.883884	1016.1
0.35355	254.237	7.0561e-005	0.0519349	0.999977	2.6335	0.491503	287.971	0.707112	626.991	0.176888	102.24	0.530343	306.132	0.883886	490.619
0.353545	152.237	0.00020042	0.0875069	0.997759	2.63412	0.491554	186.302	0.707126	343.351	0.177041	66.5111	0.53036	199.077	0.883889	323.382
0.353537	108.646	0.000396204	0.122967	0.995535	2.63473	0.491627	137.704	0.707147	236.411	0.177257	49.327	0.530384	147.501	0.883894	241.174
0.353527	84.4602	0.000657509	0.158294	0.993307	2.63533	0.491722	109.226	0.707175	180.27	0.177538	39.233	0.530416	117.155	0.8839	192.292
0.353514	69.0805	0.000983801	0.193455	0.991074	2.63592	0.49184	90.5188	0.707212	145.68	0.177881	32.5974	0.530455	97.1674	0.883907	159.886
0.353498	58.438	0.00137428	0.228395	0.988836	2.63651	0.491978	77.2912	0.707256	122.23	0.178287	27.907	0.530501	83.0091	0.883915	136.828
0.35348	50.636	0.00182831	0.263112	0.986594	2.63708	0.492139	67.4445	0.707308	105.286	0.178754	24.4189	0.530554	72.4546	0.883925	119.583
0.35346	44.671	0.00234476	0.297539	0.984347	2.63764	0.492321	59.8301	0.707367	92.4705	0.179281	21.7258	0.530615	64.2837	0.883937	106.198
0.353437	39.9626	0.0029227	0.331666	0.982095	2.63819	0.492525	53.7671	0.707435	82.4386	0.179869	19.5857	0.530682	57.771	0.883949	95.5091
0.353412	36.1514	0.003561	0.36546	0.979839	2.63874	0.49275	48.8256	0.70751	74.3726	0.180514	17.8455	0.530758	52.4586	0.883963	86.7751
0.353386	33.0033	0.00425833	0.398884	0.977578	2.63927	0.492996	44.7213	0.707593	67.7463	0.181216	16.404	0.53084	48.0426	0.883979	79.5051
0.353357	30.359	0.0050135	0.431927	0.975312	2.63979	0.493264	41.2586	0.707683	62.2061	0.181974	15.1914	0.53093	44.3141	0.883996	73.3593
0.353327	28.1065	0.00582516	0.464564	0.973043	2.64031	0.493552	38.2981	0.707781	57.5052	0.182786	14.158	0.531026	41.1242	0.884014	68.0958
0.353295	26.1648	0.00669178	0.496766	0.970769	2.64082	0.493862	35.7383	0.707887	53.4665	0.183651	13.2675	0.531131	38.3642	0.884034	63.5374
0.353261	24.4736	0.00761194	0.52852	0.968491	2.64131	0.494192	33.5034	0.708001	49.9595	0.184568	12.4928	0.531242	35.9527	0.884056	59.5512
0.353226	22.9874	0.0085842	0.559812	0.966208	2.6418	0.494542	31.5353	0.708123	46.8856	0.185534	11.8133	0.531361	33.8278	0.884079	56.0359
0.353191	21.6711	0.00960702	0.590628	0.963922	2.64228	0.494913	29.7891	0.708252	44.1694	0.186415	11.2859	0.531487	31.9412	0.884103	52.9128
0.353154	20.4971	0.0106788	0.620953	0.961632	2.64275	0.495305	28.2296	0.708389	41.752	0.187195	10.8774	0.53162	30.2552	0.884129	50.1196
0.353116	19.4435	0.0117981	0.650779	0.959337	2.64321	0.495716	26.8284	0.708534	39.5867	0.187858	10.5646	0.531761	28.7393	0.884157	47.6068
0.353078	18.4927	0.0129633	0.680099	0.957039	2.64367	0.496147	25.5627	0.708687	37.6361	0.188395	10.3318	0.531909	27.3692	0.884186	45.3341
0.353039	17.6303	0.0141728	0.708905	0.954737	2.64411	0.496597	24.414	0.708847	35.8698	0.188796	10.1683	0.532064	26.1247	0.884217	43.2687
0.353001	16.8447	0.0154252	0.737194	0.952431	2.64455	0.497067	23.3668	0.709015	34.2629	0.189056	10.0668	0.532227	24.9895	0.88425	41.3836
0.352962	16.1259	0.016719	0.764964	0.950122	2.64498	0.497556	22.4083	0.709191	32.7949	0.189434	9.92512	0.532397	23.9498	0.884284	39.656
0.352924	15.4658	0.0180527	0.792214	0.947809	2.64541	0.498064	21.5279	0.709375	31.4484	0.189849	9.77645	0.532574	22.994	0.884321	38.0671
0.352886	14.8575	0.0194248	0.818943	0.945493	2.64582	0.498591	20.7164	0.709567	30.2092	0.190423	9.58267	0.532759	22.1125	0.884359	36.6008
0.352849	14.2952	0.0208339	0.845153	0.943173	2.64623	0.499136	19.9661	0.709766	29.0648	0.191162	9.35057	0.532951	21.2969	0.884398	35.2435
0.352813	13.7738	0.0222786	0.870847	0.94085	2.64663	0.499699	19.2705	0.709973	28.0048	0.192077	9.08765	0.53315	20.5402	0.88444	33.9834
0.352778	13.2891	0.0237577	0.89603	0.938524	2.64702	0.500281	18.6237	0.710188	27.0203	0.193177	8.80161	0.533357	19.8361	0.884484	32.8105
0.352744	12.8373	0.0252697	0.920702	0.936195	2.64741	0.50088	18.021	0.710411	26.1034	0.194475	8.49995	0.533571	19.1795	0.884529	31.716
0.352712	12.4152	0.0268134	0.944873	0.933862	2.64779	0.501496	17.458	0.710642	25.2476	0.19581	8.22342	0.533792	18.5657	0.884577	30.6924
0.352682	12.0199	0.0283876	0.968545	0.931527	2.64816	0.50213	16.9309	0.71088	24.4468	0.197181	7.96915	0.534021	17.9906	0.884627	29.7329
0.352654	11.6491	0.029991	0.991727	0.929188	2.64853	0.502781	16.4365	0.711126	23.6961	0.198585	7.73464	0.534257	17.4509	0.884678	28.8318
0.352628	11.3004	0.0316226	1.01443	0.926847	2.64889	0.503448	15.9718	0.711381	22.9908	0.200021	7.51778	0.534501	16.9432	0.884732	27.9838
0.352605	10.9721	0.0332813	1.03665	0.924503	2.64925	0.504132	15.5343	0.711643	22.3269	0.201489	7.31673	0.534752	16.4649	0.884788	27.1845
0.352585	10.6623	0.0349659	1.05841	0.922156	2.6496	0.504832	15.1218	0.711913	21.7011	0.202986	7.12988	0.53501	16.0135	0.884846	26.4297
0.352568	10.3697	0.0366754	1.0797	0.919806	2.64994	0.505548	14.7321	0.71219	21.11	0.204512	6.95585	0.535276	15.5868	0.884907	25.7159
0.352555	10.0927	0.0384088	1.10055	0.917454	2.65028	0.506279	14.3634	0.712476	20.5509	0.206066	6.79342	0.53555	15.1828	0.884969	25.0397
0.352545	9.83023	0.0401653	1.12096	0.9151	2.65061	0.507027	14.0142	0.71277	20.0213	0.207646	6.64151	0.535831	14.7999	0.885034	24.3984
0.352539	9.58115	0.0419439	1.14093	0.912743	2.65094	0.507789	13.6829	0.713071	19.519	0.209251	6.49917	0.536119	14.4363	0.885102	23.7892
0.352537	9.34448	0.0437437	1.16047	0.910383	2.65126	0.508566	13.3682	0.71338	19.0418	0.21088	6.36557	0.536415	14.0908	0.885171	23.2099
0.352539	9.11933	0.045564	1.17961	0.908021	2.65157	0.509358	13.069	0.713698	18.588	0.212532	6.23995	0.536718	13.7619	0.885244	22.6582
0.352546	8.90489	0.0474038	1.19833	0.905657	2.65189	0.510164	12.7841	0.714023	18.1559	0.214207	6.12166	0.537029	13.4486	0.885318	22.1324
0.352558	8.70044	0.0492624	1.21666	0.903291	2.65219	0.510984	12.5125	0.714356	17.744	0.215902	6.01009	0.537347	13.1498	0.885396	21.6305
0.352574	8.50529	0.0511392	1.23461	0.900923	2.65249	0.511819	12.2534	0.714697	17.3509	0.217618	5.90471	0.537673	12.8644	0.885476	21.151
0.352596	8.31885	0.0530334	1.25217	0.898553	2.65279	0.512666	12.0059	0.715046	16.9754	0.219354	5.80504	0.538007	12.5917	0.885558	20.6925
0.352624	8.14056	0.0549443	1.26936	0.89618	2.65309	0.513528	11.7692	0.715403	16.6164	0.221107	5.71065	0.538348	12.3308	0.885643	20.2535
0.352657	7.96991	0.0568712	1.28619	0.893806	2.65338	0.514402	11.5428	0.715768	16.2727	0.222879	5.62114	0.538696	12.081	0.885731	19.833
0.352697	7.80643	0.0588137	1.30268	0.891429	2.65366	0.515175	11.3533	0.716141	15.9435	0.224667	5.53616	0.539053	11.8416	0.885822	19.4297
0.352742	7.64968	0.0607709	1.31881	0.889051	2.65394	0.515841	11.1972	0.716522	15.6278	0.226472	5.45538	0.539416	11.6119	0.885916	19.0426
0.352794	7.49929	0.0627425	1.33462	0.886671	2.65422	0.516397	11.0717	0.716911	15.3249	0.228292	5.37851	0.53974	11.4193	0.886012	18.6707
0.352853	7.35487	0.064728	1.35009	0.88429	2.65449	0.516839	10.9747	0.717307	15.0339	0.230127	5.30529	0.54002	11.2603	0.886111	18.3133
0.352918	7.2161	0.0667266	1.36525	0.881906	2.65476	0.517167	10.9046	0.717712	14.7543	0.231976	5.23547	0.540255	11.1324	0.886214	17.9694
0.352991	7.08265	0.0687381	1.3801	0.879521	2.65503	0.517377	10.8603	0.718125	14.4854	0.233839	5.16882	0.540442	11.0333	0.886319	17.6383
0.353071	6.95425	0.0707619	1.39464	0.877134	2.65529	0.517681	10.7973	0.718546	14.2265	0.235715	5.10515	0.540582	10.9617	0.886427	17.3193
0.353158	6.83062	0.0727975	1.40889	0.874746	2.65555	0.518012	10.7297	0.718975	13.9772	0.237603	5.04425	0.540671	10.9164	0.886539	17.0118
0.353253	6.71151	0.0748446	1.42285	0.872356	2.65581	0.518466	10.6394	0.719413	13.7368	0.239503	4.98597	0.540801	10.8519	0.886653	16.7152
0.353356	6.5967	0.0769026	1.43653	0.869965	2.65607	0.519043	10.5276	0.719858	13.5051	0.241414	4.93013	0.540942	10.7828	0.886771	16.4288
0.353467	6.48596	0.0789713	1.44994	0.867573	2.65632	0.519747	10.3959	0.720311	13.2814	0.243336	4.8766	0.541137	10.6902	0.886892	16.1523
0.353586	6.37909	0.0810503	1.46308	0.865178	2.65656	0.52058	10.2462	0.720772	13.0655	0.245269	4.82523	0.541385	10.5756	0.887016	15.885
0.353714	6.2759	0.0831391	1.47596	0.862783	2.65681	0.521547	10.0804	0.721242	12.8569	0.247211	4.7759	0.541689	10.4403	0.887144	15.6265
0.35385	6.17622	0.0852374	1.48859	0.860386	2.65705	0.522526	9.92065	0.721719	12.6552	0.249163	4.7285	0.542052	10.2864	0.887274	15.3765
0.353995	6.07988	0.0873449	1.50098	0.857988	2.65729	0.523515	9.76667	0.722205	12.4602	0.251123	4.68291	0.542474	10.1155	0.887409	15.1345
0.35415	5.98673	0.0894614	1.51312	0.855589	2.65753	0.524514	9.61814	0.722699	12.2714	0.253093	4.63903	0.542905	9.9507	0.887546	14.9
0.354313	5.89663	0.0915865	1.52503	0.853189	2.65777	0.525524	9.47478	0.723201	12.0887	0.25507	4.59678	0.543344	9.79153	0.887687	14.6729
0.354486	5.80942	0.0937198	1.53671	0.850787	2.658	0.526544	9.33634	0.723711	11.9117	0.257056	4.55606	0.54379	9.63775	0.887832	14.4527
0.354668	5.72499	0.0958611	1.54817	0.848384	2.65823	0.527574	9.20258	0.724163	11.762	0.259049	4.5168	0.544244	9.48911	0.88798	14.2392
0.35486	5.64322	0.0980102	1.55942	0.84598	2.65846	0.528614	9.07326	0.724552	11.6375	0.261049	4.47891	0.544706	9.34535	0.888132	14.032
0.355062	5.56399	0.100167	1.57045	0.843576	2.65869	0.529663	8.94817	0.724878	11.5366	0.263056	4.44234	0.545175	9.20625	0.888287	13.8308
0.355274	5.4872	0.102331	1.58128	0.84117	2.65891	0.530722	8.82711	0.725137	11.4583	0.26507	4.407	0.545653	9.07158	0.888446	13.6355
0.355466	5.42218	0.104501	1.5919	0.838763	2.65913	0.531789	8.7099	0.725329	11.4013	0.267089	4.37284	0.546138	8.94116	0.888609	13.4457
0.355637	5.36811	0.106679	1.60233	0.836355	2.65935	0.532866	8.59635	0.725453	11.3652	0.269115	4.33981	0.546631	8.81478	0.888775	13.2613
0.355782	5.32431	0.108863	1.61257	0.833946	2.65957	0.533951	8.4863	0.725631	11.3138	0.271146	4.30784	0.547132	8.69226	0.888946	13.082
0.3559	5.29024	0.111054	1.62263	0.831536	2.65979	0.535045	8.3796	0.725826	11.2584	0.273183	4.27689	0.547642	8.57345	0.88912	12.9076
0.355988	5.26551	0.113251	1.6325	0.829126	2.66001	0.536146	8.2761	0.726093	11.184	0.275224	4.2469	0.548158	8.45817	0.889297	12.7379
0.356045	5.24982	0.115453	1.6422	0.826714	2.66022	0.537256	8.17565	0.726433	11.0915	0.277271	4.21785	0.548683	8.34628	0.889479	12.5727
0.356128	5.22745	0.117662	1.65172	0.824302	2.66044	0.538374	8.07813	0.726848	10.9818	0.279322	4.18967	0.549216	8.23764	0.889665	12.4118
0.35622	5.20338	0.119876	1.66108	0.821889	2.66065	0.5395	7.98341	0.727341	10.8561	0.281378	4.16233	0.549757	8.13212	0.889855	12.2552
0.356347	5.17105	0.122095	1.67027	0.819475	2.66086	0.540633	7.89138	0.727914	10.7156	0.283437	4.1358	0.550306	8.02957	0.890023	12.122
0.356511	5.13081	0.12432	1.6793	0.81706	2.66107	0.541773	7.80192	0.728496	10.5791	0.285501	4.11004	0.550863	7.9299	0.890169	12.0107
0.356714	5.08311	0.12655	1.68817	0.814645	2.66128	0.542921	7.71494	0.729086	10.4463	0.287568	4.08501	0.551428	7.83297	0.890291	11.9203
0.356961	5.02845	0.128785	1.6969	0.812229	2.66149	0.544076	7.63033	0.729684	10.3171	0.289639	4.06068	0.552001	7.7387	0.890389	11.8499
0.357254	4.96739	0.131024	1.70547	0.809812	2.66169	0.545237	7.54799	0.730291	10.1915	0.291714	4.03703	0.552583	7.64696	0.890462	11.7986
0.357559	4.90804	0.133269	1.7139	0.807395	2.6619	0.546405	7.46784	0.730906	10.0691	0.293791	4.01402	0.553172	7.55767	0.890509	11.766
0.357875	4.85035	0.135517	1.72218	0.804977	2.66211	0.54758	7.3898	0.731529	9.95	0.295871	3.99163	0.553769	7.47074	0.890576	11.7195
0.358202	4.79425	0.137771	1.73033	0.802558	2.66231	0.548761	7.31377	0.732161	9.83397	0.297954	3.96984	0.554375	7.38607	0.89065	11.6694
0.358541	4.73968	0.140028	1.73834	0.800139	2.66251	0.549948	7.2397	0.7328	9.72092	0.30004	3.94861	0.554989	7.30359	0.890751	11.6019
0.358892	4.68659	0.14229	1.74622	0.797719	2.66272	0.551141	7.16749	0.733449	9.61073	0.302128	3.92793	0.555611	7.22321	0.890881	11.5177
0.359254	4.63493	0.144555	1.75397	0.795299	2.66292	0.55234	7.09709	0.734105	9.50331	0.304219	3.90778	0.556241	7.14486	0.89104	11.4176
0.359628	4.58465	0.146825	1.76159	0.792878	2.66312	0.553545	7.02843	0.73477	9.39856	0.306312	3.88812	0.556879	7.06847	0.891229	11.3024
0.360014	4.53569	0.149098	1.76909	0.790457	2.66332	0.554755	6.96145	0.735443	9.29639	0.308406	3.86896	0.557526	6.99397	0.89145	11.1732
0.360412	4.48803	0.151375	1.77647	0.788035	2.66353	0.555971	6.89608	0.736125	9.19669	0.310503	3.85026	0.558181	6.92129	0.891675	11.0471
0.360822	4.4416	0.153656	1.78374	0.785612	2.66373	0.557192	6.83226	0.736815	9.0994	0.312601	3.832	0.558844	6.85037	0.891905	10.9238
0.361245	4.39638	0.15594	1.79088	0.78319	2.66393	0.558418	6.76995	0.737514	9.00442	0.314701	3.81418	0.559516	6.78116	0.892139	10.8034
0.361679	4.35232	0.158228	1.79792	0.780767	2.66413	0.559649	6.7091	0.73822	8.91168	0.316802	3.79677	0.560196	6.71359	0.892377	10.6857
0.362126	4.30939	0.160519	1.80484	0.778343	2.66433	0.560885	6.64964	0.738936	8.8211	0.318904	3.77977	0.560884	6.64761	0.892619	10.5707
0.362586	4.26754	0.162813	1.81166	0.775919	2.66453	0.562125	6.59154	0.73966	8.73261	0.321008	3.76314	0.561581	6.58317	0.892866	10.4582
0.363058	4.22675	0.16511	1.81837	0.773495	2.66473	0.56337	6.53475	0.740392	8.64615	0.323113	3.74689	0.562286	6.52023	0.893117	10.3482
0.363543	4.18698	0.167411	1.82498	0.77107	2.66493	0.56462	6.47922	0.741132	8.56165	0.325219	3.731	0.562999	6.45872	0.893373	10.2406
0.364041	4.1482	0.169714	1.83148	0.768645	2.66513	0.565874	6.42491	0.741881	8.47904	0.327325	3.71546	0.563721	6.39861	0.893633	10.1354
0.364551	4.11038	0.17202	1.83789	0.76622	2.66533	0.567132	6.37179	0.742639	8.39827	0.329432	3.70024	0.564452	6.33986	0.893897	10.0324
0.365074	4.07348	0.174329	1.8442	0.763794	2.66553	0.568394	6.31982	0.743405	8.31928	0.33154	3.68535	0.565191	6.28242	0.894166	9.93153
0.365611	4.03749	0.176641	1.85042	0.761368	2.66574	0.56966	6.26895	0.74418	8.24201	0.333649	3.67077	0.565938	6.22624	0.894439	9.83281
0.36616	4.00238	0.178955	1.85655	0.758942	2.66594	0.57093	6.21916	0.744963	8.16642	0.335757	3.65649	0.566694	6.1713	0.894717	9.73614
0.366722	3.96812	0.181272	1.86258	0.756516	2.66614	0.572203	6.17041	0.745754	8.09244	0.337867	3.6425	0.567459	6.11756	0.895	9.64147
0.367298	3.93468	0.183592	1.86853	0.754089	2.66634	0.57348	6.12267	0.746554	8.02004	0.339976	3.62879	0.568232	6.06498	0.895287	9.54872
0.367887	3.90204	0.185914	1.87439	0.751662	2.66655	0.574761	6.0759	0.747362	7.94916	0.342085	3.61535	0.569014	6.01352	0.895578	9.45785
0.368489	3.87018	0.188239	1.88016	0.749235	2.66675	0.576045	6.03008	0.748179	7.87976	0.344195	3.60218	0.569804	5.96316	0.895875	9.36879
0.369104	3.83908	0.190565	1.88585	0.746808	2.66696	0.577332	5.98518	0.749005	7.8118	0.346304	3.58926	0.570603	5.91386	0.896176	9.28151
0.369733	3.80871	0.192895	1.89146	0.744381	2.66716	0.578622	5.94118	0.749839	7.74524	0.348413	3.57658	0.571411	5.86559	0.896481	9.19594
0.370375	3.77906	0.195226	1.89699	0.741953	2.66737	0.579915	5.89803	0.750681	7.68003	0.350522	3.56414	0.572227	5.81832	0.896791	9.11203
0.371031	3.7501	0.19756	1.90244	0.739526	2.66758	0.581212	5.85573	0.751532	7.61614	0.352631	3.55193	0.573052	5.77203	0.897106	9.02975
0.371701	3.72182	0.199895	1.90782	0.737098	2.66779	0.582511	5.81424	0.752391	7.55353	0.354739	3.53994	0.573886	5.72669	0.897425	8.94904
0.372384	3.6942	0.202233	1.91312	0.73467	2.66799	0.583812	5.77354	0.753259	7.49216	0.356846	3.52817	0.574729	5.68227	0.89775	8.86987
0.373081	3.66722	0.204573	1.91835	0.732242	2.66821	0.585117	5.73361	0.754136	7.43201	0.358953	3.51661	0.57558	5.63875	0.898079	8.79218
0.373792	3.64086	0.206914	1.9235	0.729814	2.66842	0.586424	5.69443	0.755021	7.37303	0.36106	3.50525	0.57644	5.59609	0.898412	8.71595
0.374517	3.61511	0.209258	1.92858	0.727386	2.66863	0.587733	5.65597	0.755914	7.3152	0.363165	3.49409	0.577309	5.55429	0.898751	8.64113
0.375255	3.58995	0.211604	1.9336	0.724958	2.66885	0.589045	5.61822	0.756816	7.25849	0.36527	3.48312	0.578187	5.51332	0.899094	8.56768
0.376008	3.56538	0.213951	1.93854	0.72253	2.66906	0.590359	5.58116	0.757727	7.20286	0.367374	3.47233	0.579074	5.47315	0.899442	8.49557
0.376775	3.54136	0.2163	1.94342	0.720102	2.66928	0.591675	5.54476	0.758646	7.14828	0.369477	3.46172	0.57997	5.43376	0.899795	8.42476
0.377555	3.51789	0.218651	1.94824	0.717674	2.6695	0.592993	5.50902	0.759573	7.09474	0.371579	3.45129	0.580874	5.39514	0.900153	8.35522
0.37835	3.49496	0.221004	1.95299	0.715246	2.66972	0.594314	5.4739	0.760509	7.0422	0.373679	3.44102	0.581788	5.35727	0.900515	8.28692
0.37916	3.47255	0.223358	1.95767	0.712818	2.66994	0.595636	5.4394	0.761454	6.99063	0.375779	3.43092	0.58271	5.32012	0.900883	8.21983
0.379983	3.45065	0.225714	1.9623	0.710391	2.67017	0.59696	5.4055	0.762407	6.94002	0.377877	3.42098	0.583641	5.28368	0.901255	8.15391
0.380821	3.42924	0.227768	1.96628	0.707963	2.67039	0.598286	5.37219	0.763368	6.89033	0.379975	3.41119	0.584582	5.24793	0.901632	8.08914
0.381674	3.40833	0.229521	1.96964	0.705535	2.67062	0.599614	5.33944	0.764338	6.84155	0.38207	3.40155	0.585531	5.21285	0.902014	8.02548
0.382541	3.38788	0.23097	1.97239	0.703108	2.67085	0.600943	5.30724	0.765316	6.79365	0.384164	3.39206	0.586489	5.17843	0.902401	7.96291
0.383423	3.3679	0.232117	1.97455	0.70068	2.67108	0.602273	5.27559	0.766303	6.74661	0.386257	3.38271	0.587457	5.14465	0.902793	7.90141
0.384319	3.34837	0.23296	1.97613	0.698253	2.67132	0.603606	5.24446	0.767298	6.70041	0.388349	3.3735	0.588433	5.11149	0.903189	7.84094
0.385231	3.32929	0.2335	1.97713	0.695826	2.67156	0.604939	5.21384	0.768302	6.65503	0.390438	3.36442	0.589419	5.07895	0.903591	7.78149
0.386157	3.31064	0.234276	1.97858	0.693399	2.6718	0.606274	5.18372	0.769314	6.61045	0.392526	3.35547	0.590413	5.047	0.903998	7.72303
0.387098	3.29241	0.235119	1.98014	0.690972	2.67204	0.607611	5.15409	0.770334	6.56664	0.394612	3.34665	0.591417	5.01563	0.904409	7.66553
0.388055	3.27459	0.236267	1.98225	0.688546	2.67228	0.608948	5.12493	0.771363	6.5236	0.396697	3.33796	0.59243	4.98483	0.904826	7.60897
0.389026	3.25718	0.237719	1.9849	0.68612	2.67253	0.610287	5.09623	0.7724	6.4813	0.398779	3.32938	0.593452	4.95459	0.905247	7.55334
0.390013	3.24017	0.239476	1.98808	0.683694	2.67278	0.611627	5.06799	0.773446	6.43973	0.40086	3.32092	0.594483	4.92489	0.905674	7.4986
0.391016	3.22355	0.241538	1.99177	0.681269	2.67304	0.612968	5.04019	0.774499	6.39887	0.402939	3.31257	0.595523	4.89572	0.906105	7.44474
0.392033	3.2073	0.243905	1.99596	0.678843	2.67329	0.61431	5.01282	0.775562	6.3587	0.405016	3.30434	0.596573	4.86707	0.906542	7.39175
0.393067	3.19143	0.246273	2.00009	0.676418	2.67355	0.615652	4.98587	0.776632	6.3192	0.407091	3.29621	0.597631	4.83893	0.906983	7.33959
0.394117	3.17593	0.248643	2.00417	0.673994	2.67382	0.616996	4.95934	0.777711	6.28037	0.409164	3.28819	0.598699	4.81128	0.90743	7.28825
0.395182	3.16078	0.251014	2.0082	0.67157	2.67408	0.618341	4.9332	0.778798	6.24218	0.411234	3.28027	0.599776	4.78411	0.907881	7.23772
0.396263	3.14599	0.253386	2.01218	0.669146	2.67435	0.619686	4.90746	0.779893	6.20463	0.413303	3.27245	0.600862	4.75742	0.908338	7.18797
0.397361	3.13154	0.25576	2.01611	0.666723	2.67463	0.621032	4.88209	0.780997	6.16769	0.415369	3.26472	0.601958	4.73119	0.9088	7.13899
0.398475	3.11743	0.258134	2.01999	0.6643	2.67491	0.622379	4.85711	0.782108	6.13135	0.417433	3.25709	0.603063	4.70542	0.909266	7.09076
0.399606	3.10366	0.26051	2.02383	0.661877	2.67519	0.623727	4.83249	0.783228	6.09561	0.419495	3.24956	0.604177	4.68009	0.909738	7.04326
0.400754	3.09021	0.262887	2.02762	0.659456	2.67548	0.625075	4.80822	0.784356	6.06045	0.421554	3.24211	0.6053	4.6552	0.910215	6.99649
0.401918	3.07708	0.265265	2.03136	0.657034	2.67577	0.626423	4.78431	0.785492	6.02584	0.423611	3.23475	0.606433	4.63073	0.910697	6.95041
0.4031	3.06427	0.267644	2.03506	0.654613	2.67606	0.627773	4.76074	0.786636	5.9918	0.425665	3.22748	0.607575	4.60667	0.911184	6.90503
0.404298	3.05177	0.270024	2.03871	0.652193	2.67636	0.629123	4.7375	0.787789	5.95829	0.427718	3.22029	0.608726	4.58302	0.911676	6.86032
0.405515	3.03957	0.272405	2.04232	0.649774	2.67667	0.630473	4.71459	0.788949	5.92531	0.429767	3.21318	0.609886	4.55978	0.912173	6.81628
0.406749	3.02768	0.274787	2.04589	0.647355	2.67697	0.631824	4.692	0.790117	5.89285	0.431814	3.20615	0.611056	4.53692	0.912675	6.77287
0.408001	3.01608	0.27717	2.04942	0.644936	2.67729	0.633175	4.66973	0.791294	5.8609	0.433859	3.1992	0.612235	4.51445	0.913182	6.73011
0.409271	3.00477	0.279554	2.0529	0.642519	2.67761	0.634526	4.64776	0.792478	5.82944	0.435901	3.19233	0.613424	4.49235	0.913695	6.68796
0.410559	2.99376	0.281938	2.05634	0.640102	2.67794	0.635878	4.62609	0.79367	5.79847	0.43794	3.18553	0.614622	4.47061	0.914212	6.64642
0.411867	2.98302	0.284324	2.05975	0.637686	2.67827	0.637231	4.60472	0.79487	5.76798	0.439977	3.1788	0.615829	4.44924	0.914735	6.60548
0.413192	2.97257	0.286711	2.06311	0.63527	2.6786	0.638583	4.58363	0.796078	5.73795	0.442011	3.17214	0.617045	4.42822	0.915262	6.56512
0.414537	2.96239	0.289098	2.06644	0.632856	2.67895	0.639936	4.56283	0.797294	5.70838	0.444042	3.16555	0.618271	4.40755	0.915795	6.52533
0.415902	2.95248	0.291486	2.06972	0.630442	2.6793	0.641289	4.5423	0.798518	5.67926	0.446071	3.15903	0.619506	4.38721	0.916333	6.48611
0.417286	2.94284	0.293875	2.07297	0.62803	2.67965	0.642643	4.52205	0.799749	5.65057	0.448097	3.15258	0.62075	4.36721	0.916876	6.44743
0.418689	2.93346	0.296265	2.07618	0.625618	2.68002	0.643996	4.50206	0.800988	5.62231	0.45012	3.14619	0.622004	4.34753	0.917425	6.40929
0.420113	2.92435	0.298655	2.07936	0.623207	2.68039	0.64535	4.48233	0.802235	5.59448	0.45214	3.13986	0.623267	4.32817	0.917978	6.37169
0.421557	2.91549	0.301047	2.0825	0.620797	2.68077	0.646704	4.46285	0.803489	5.56705	0.454157	3.1336	0.624539	4.30913	0.918536	6.3346
0.423021	2.90689	0.303439	2.08561	0.618389	2.68115	0.648058	4.44363	0.804751	5.54003	0.456172	3.12739	0.625821	4.29039	0.9191	6.29802
0.424506	2.89853	0.305831	2.08867	0.615981	2.68155	0.649413	4.42465	0.80602	5.51341	0.458184	3.12125	0.627111	4.27195	0.919669	6.26194
0.426012	2.89043	0.308224	2.09171	0.613575	2.68195	0.650768	4.40591	0.807297	5.48717	0.460193	3.11516	0.628411	4.25381	0.920243	6.22635
0.427539	2.88257	0.310618	2.09471	0.61117	2.68236	0.652122	4.3874	0.808582	5.46132	0.462198	3.10913	0.629721	4.23596	0.920822	6.19124
0.429088	2.87495	0.313013	2.09768	0.608766	2.68278	0.653477	4.36913	0.809873	5.43584	0.464202	3.10316	0.631039	4.21839	0.921406	6.1566
0.430658	2.86756	0.315408	2.10062	0.606363	2.68321	0.654832	4.35109	0.811173	5.41072	0.466202	3.09724	0.632367	4.2011	0.921995	6.12242
0.432249	2.86042	0.317804	2.10352	0.603962	2.68365	0.656187	4.33327	0.812479	5.38596	0.468199	3.09137	0.633704	4.18409	0.92259	6.0887
0.433862	2.8535	0.3202	2.10639	0.601562	2.6841	0.657543	4.31566	0.813793	5.36156	0.470193	3.08556	0.635051	4.16734	0.923189	6.05542
0.435497	2.84681	0.322597	2.10923	0.599164	2.68456	0.658898	4.29828	0.815114	5.3375	0.472185	3.0798	0.636406	4.15086	0.923794	6.02258
0.437154	2.84034	0.324995	2.11204	0.596767	2.68502	0.660254	4.2811	0.816442	5.31378	0.474173	3.07408	0.637771	4.13463	0.924404	5.99018
0.438832	2.83409	0.327393	2.11482	0.594372	2.68551	0.661609	4.26413	0.817777	5.29039	0.476159	3.06842	0.639145	4.11866	0.925019	5.95819
0.440533	2.82805	0.329792	2.11757	0.591979	2.686	0.662965	4.24736	0.81912	5.26732	0.478141	3.06281	0.640528	4.10294	0.92564	5.92662
0.442255	2.82223	0.332191	2.12029	0.589587	2.6865	0.664321	4.2308	0.820469	5.24458	0.480121	3.05724	0.64192	4.08746	0.926265	5.89545
0.443999	2.81661	0.33459	2.12298	0.587197	2.68702	0.665677	4.21443	0.821826	5.22215	0.482097	3.05172	0.643321	4.07223	0.926896	5.86469
0.445765	2.8112	0.33699	2.12564	0.584809	2.68755	0.667033	4.19825	0.823189	5.20003	0.484071	3.04625	0.644731	4.05723	0.927532	5.83432
0.447552	2.80598	0.339391	2.12828	0.582423	2.6881	0.66839	4.18226	0.824559	5.17821	0.486042	3.04082	0.64615	4.04246	0.928173	5.80434
0.44936	2.80096	0.341791	2.13088	0.580039	2.68866	0.669746	4.16646	0.825936	5.15668	0.488009	3.03544	0.647579	4.02791	0.928819	5.77473
0.45119	2.79612	0.344193	2.13346	0.577657	2.68923	0.671103	4.15084	0.82732	5.13545	0.489974	3.0301	0.649016	4.01359	0.92947	5.7455
0.453041	2.79147	0.346594	2.13601	0.575278	2.68982	0.672459	4.1354	0.828711	5.1145	0.491936	3.02481	0.650462	3.99949	0.930126	5.71663
0.454912	2.787	0.348996	2.13854	0.5729	2.69042	0.673816	4.12014	0.830108	5.09384	0.493895	3.01955	0.651917	3.98561	0.930788	5.68813
0.456803	2.78271	0.351399	2.14103	0.570525	2.69104	0.675173	4.10505	0.831512	5.07345	0.495851	3.01434	0.653381	3.97193	0.931455	5.65998
0.458714	2.77858	0.353802	2.14351	0.568153	2.69168	0.67653	4.09013	0.832922	5.05333	0.497804	3.00917	0.654854	3.95847	0.932127	5.63217
0.460644	2.77461	0.356205	2.14595	0.565784	2.69234	0.677888	4.07538	0.834339	5.03347	0.499754	3.00404	0.656336	3.9452	0.932804	5.60471
0.462594	2.77081	0.358608	2.14837	0.563417	2.69302	0.679245	4.0608	0.835763	5.01388	0.501701	2.99895	0.657826	3.93214	0.933487	5.57759
0.464562	2.76715	0.361012	2.15077	0.561053	2.69371	0.680603	4.04638	0.837193	4.99454	0.503646	2.9939	0.659325	3.91927	0.934174	5.5508
0.466548	2.76365	0.363416	2.15314	0.558692	2.69443	0.681961	4.03212	0.838629	4.97545	0.505587	2.98889	0.660833	3.9066	0.934867	5.52433
0.468552	2.76028	0.36582	2.15549	0.556334	2.69517	0.68332	4.01801	0.840071	4.95661	0.507526	2.98391	0.662349	3.89412	0.935565	5.49818
0.470573	2.75705	0.368225	2.15781	0.553979	2.69593	0.684678	4.00407	0.84152	4.93801	0.509462	2.97898	0.663874	3.88182	0.936268	5.47235
0.472611	2.75396	0.37063	2.16011	0.551628	2.69672	0.686037	3.99027	0.842974	4.91965	0.511395	2.97408	0.665408	3.86971	0.936976	5.44683
0.474665	2.75099	0.373035	2.16238	0.549281	2.69753	0.687396	3.97663	0.844435	4.90152	0.513326	2.96922	0.66695	3.85777	0.937689	5.42161
0.476734	2.74815	0.37544	2.16463	0.546937	2.69836	0.688756	3.96313	0.845902	4.88363	0.515253	2.96439	0.668501	3.84602	0.938408	5.3967
0.478818	2.74542	0.377845	2.16686	0.544597	2.69923	0.690115	3.94978	0.847375	4.86596	0.517178	2.9596	0.67006	3.83443	0.939132	5.37207
0.480917	2.7428	0.380251	2.16907	0.542261	2.70012	0.691475	3.93657	0.848854	4.84851	0.5191	2.95485	0.671628	3.82302	0.939861	5.34774
0.48303	2.74029	0.382657	2.17125	0.539929	2.70104	0.692836	3.92351	0.850338	4.83128	0.52102	2.95013	0.673203	3.81177	0.940595	5.3237
0.485157	2.73788	0.385063	2.17342	0.537602	2.70199	0.694197	3.91058	0.851828	4.81426	0.522937	2.94544	0.674787	3.80069	0.941334	5.29993
0.487296	2.73557	0.387469	2.17556	0.53528	2.70298	0.695558	3.89779	0.853325	4.79745	0.524851	2.94079	0.67638	3.78977	0.942079	5.27645
0.489448	2.73336	0.389875	2.17767	0.532962	2.70399	0.696919	3.88513	0.854826	4.78085	0.526763	2.93618	0.67798	3.77901	0.942828	5.25323
0.491612	2.73123	0.392282	2.17977	0.53065	2.70505	0.698281	3.87261	0.856334	4.76446	0.528672	2.9316	0.679588	3.76841	0.943583	5.23029
0.493788	2.72919	0.394688	2.18185	0.528343	2.70614	0.699644	3.86022	0.857847	4.74826	0.530579	2.92705	0.681205	3.75796	0.944343	5.20761
0.495975	2.72723	0.397095	2.1839	0.526041	2.70727	0.701007	3.84796	0.859365	4.73226	0.532483	2.92253	0.682829	3.74766	0.945108	5.18519
0.498172	2.72535	0.399502	2.18594	0.523745	2.70844	0.70237	3.83583	0.860889	4.71646	0.534385	2.91805	0.684462	3.7375	0.945879	5.16302
0.500379	2.72355	0.401908	2.18795	0.521456	2.70966	0.703734	3.82382	0.862418	4.70084	0.536285	2.9136	0.686102	3.7275	0.946654	5.14111
0.502596	2.72181	0.404315	2.18995	0.519172	2.71092	0.705099	3.81194	0.863953	4.68541	0.538182	2.90918	0.68775	3.71763	0.947435	5.11944
0.504822	2.72014	0.406722	2.19192	0.516896	2.71223	0.706464	3.80018	0.865492	4.67016	0.540077	2.90479	0.689406	3.70791	0.948221	5.09803
0.507057	2.71854	0.409129	2.19388	0.514626	2.71358	0.70783	3.78854	0.867037	4.65509	0.541969	2.90043	0.69107	3.69833	0.949012	5.07685
0.509301	2.717	0.411536	2.19582	0.512364	2.71499	0.709196	3.77702	0.868587	4.6402	0.54386	2.89611	0.692741	3.68888	0.949808	5.05591
0.511553	2.71551	0.413943	2.19773	0.510109	2.71646	0.710563	3.76561	0.870142	4.62549	0.545748	2.89182	0.69442	3.67956	0.95061	5.0352
0.513813	2.71408	0.416349	2.19963	0.507863	2.71798	0.711931	3.75432	0.871702	4.61094	0.547634	2.88756	0.696106	3.67037	0.951417	5.01473
0.51608	2.71271	0.418756	2.20151	0.505624	2.71956	0.713299	3.74315	0.873267	4.59657	0.549518	2.88333	0.697799	3.66132	0.952228	4.99448
0.518354	2.71138	0.421163	2.20337	0.503395	2.7212	0.714668	3.73208	0.874837	4.58236	0.5514	2.87913	0.6995	3.65239	0.953045	4.97446
0.520635	2.71011	0.42357	2.20521	0.501175	2.72291	0.716038	3.72113	0.876412	4.56831	0.55328	2.87496	0.701208	3.64358	0.953868	4.95465
0.522922	2.70887	0.425977	2.20704	0.498964	2.7247	0.717408	3.71029	0.877991	4.55443	0.555158	2.87081	0.702923	3.63489	0.954695	4.93507
0.525216	2.70769	0.428383	2.20884	0.496763	2.72655	0.71878	3.69955	0.879575	4.5407	0.557034	2.86671	0.704646	3.62633	0.955528	4.9157
0.527515	2.70654	0.43079	2.21063	0.494572	2.72848	0.720152	3.68893	0.881163	4.52712	0.558908	2.86262	0.706375	3.61788	0.956365	4.89654
0.52982	2.70544	0.433196	2.2124	0.492393	2.73049	0.721525	3.6784	0.882756	4.5137	0.56078	2.85857	0.708112	3.60955	0.957208	4.87759
0.532131	2.70437	0.435602	2.21416	0.490225	2.73258	0.722898	3.66799	0.884354	4.50043	0.562651	2.85455	0.709855	3.60134	0.958057	4.85884
0.534447	2.70334	0.438008	2.21589	0.488068	2.73477	0.724273	3.65767	0.885956	4.48731	0.56452	2.85056	0.711605	3.59323	0.95891	4.8403
0.536767	2.70234	0.440414	2.21761	0.485924	2.73704	0.725649	3.64745	0.887562	4.47433	0.566388	2.8466	0.713362	3.58523	0.959768	4.82195
0.539093	2.70138	0.44282	2.21931	0.483793	2.73941	0.727025	3.63734	0.889173	4.4615	0.568254	2.84267	0.715126	3.57735	0.960632	4.80381
0.541423	2.70045	0.445226	2.221	0.481675	2.74189	0.728403	3.62732	0.890788	4.4488	0.570118	2.83876	0.716896	3.56957	0.961501	4.78585
0.543757	2.69954	0.447631	2.22267	0.479571	2.74446	0.729781	3.6174	0.892407	4.43624	0.571981	2.83489	0.718672	3.56189	0.962375	4.76809
0.546096	2.69867	0.450037	2.22432	0.477481	2.74715	0.731161	3.60758	0.89403	4.42382	0.573842	2.83104	0.720456	3.55431	0.963254	4.75052
0.548438	2.69783	0.452442	2.22596	0.475406	2.74996	0.732541	3.59785	0.895657	4.41154	0.575703	2.82722	0.722245	3.54684	0.964139	4.73313
0.550784	2.69701	0.454846	2.22758	0.473347	2.75288	0.733923	3.58822	0.897288	4.39938	0.577561	2.82343	0.724041	3.53946	0.965029	4.71593
0.553134	2.69621	0.457251	2.22918	0.471303	2.75593	0.735306	3.57868	0.898923	4.38736	0.579419	2.81967	0.725843	3.53218	0.965924	4.69891
0.555488	2.69544	0.459655	2.23077	0.469276	2.75911	0.736689	3.56923	0.900562	4.37546	0.581275	2.81594	0.727651	3.525	0.966824	4.68207
0.557844	2.6947	0.462059	2.23235	0.467266	2.76242	0.738074	3.55987	0.902205	4.36369	0.583131	2.81223	0.729465	3.51791	0.967729	4.6654
0.560204	2.69397	0.464463	2.2339	0.465273	2.76587	0.739461	3.5506	0.903851	4.35204	0.584985	2.80855	0.731285	3.51091	0.968639	4.64891
0.562567	2.69327	0.466867	2.23545	0.463299	2.76948	0.740848	3.54142	0.905501	4.34051	0.586838	2.80491	0.733111	3.504	0.969555	4.63259
0.564933	2.69258	0.46927	2.23697	0.461343	2.77323	0.742236	3.53232	0.907155	4.3291	0.588691	2.80128	0.734942	3.49718	0.970476	4.61644
0.567302	2.69192	0.471672	2.23849	0.459405	2.77713	0.743626	3.52332	0.908812	4.31781	0.590542	2.79769	0.73678	3.49045	0.971402	4.60045
0.569673	2.69127	0.474075	2.23998	0.457487	2.7812	0.745017	3.51439	0.910473	4.30664	0.592393	2.79413	0.738623	3.48381	0.972333	4.58464
0.572047	2.69064	0.476477	2.24147	0.455589	2.78544	0.74641	3.50555	0.912137	4.29558	0.594243	2.79059	0.740471	3.47724	0.97327	4.56898
0.574423	2.69003	0.478879	2.24293	0.45371	2.78985	0.747803	3.4968	0.913805	4.28464	0.596092	2.78708	0.742325	3.47077	0.974211	4.55348
0.576802	2.68944	0.48128	2.24439	0.451853	2.79443	0.749198	3.48812	0.915475	4.2738	0.59794	2.78359	0.744184	3.46437	0.975158	4.53815
0.579183	2.68886	0.483681	2.24582	0.450015	2.7992	0.750595	3.47953	0.91715	4.26307	0.599788	2.78014	0.746049	3.45805	0.97611	4.52297
0.581566	2.6883	0.486081	2.24725	0.448199	2.80415	0.751992	3.47102	0.918827	4.25245	0.601636	2.77671	0.747919	3.45181	0.977068	4.50794
0.583951	2.68775	0.488482	2.24866	0.446404	2.8093	0.753392	3.46259	0.920507	4.24194	0.603483	2.77331	0.749794	3.44565	0.97803	4.49307
0.586339	2.68721	0.490881	2.25006	0.444631	2.81464	0.754792	3.45423	0.922191	4.23153	0.605329	2.76994	0.751674	3.43956	0.978998	4.47835
0.588728	2.68669	0.49328	2.25144	0.442879	2.82019	0.756194	3.44596	0.923877	4.22122	0.607176	2.76659	0.753559	3.43355	0.979971	4.46377
0.591119	2.68618	0.495679	2.25281	0.441149	2.82594	0.757598	3.43776	0.925567	4.21101	0.609022	2.76327	0.755449	3.42761	0.980949	4.44935
0.593512	2.68568	0.498077	2.25416	0.439441	2.83189	0.759003	3.42964	0.927259	4.20091	0.610867	2.75998	0.757344	3.42174	0.981933	4.43506
0.595906	2.6852	0.500475	2.2555	0.437754	2.83807	0.76041	3.42159	0.928954	4.1909	0.612713	2.75671	0.759243	3.41594	0.982921	4.42093
0.598303	2.68472	0.502872	2.25683	0.43609	2.84446	0.761818	3.41361	0.930652	4.18098	0.614559	2.75347	0.761147	3.41021	0.983915	4.40693
0.6007	2.68426	0.505269	2.25814	0.434447	2.85107	0.763228	3.40571	0.932353	4.17117	0.616404	2.75026	0.763056	3.40455	0.984914	4.39307
0.6031	2.68381	0.507665	2.25944	0.432826	2.8579	0.764639	3.39788	0.934056	4.16144	0.61825	2.74708	0.764969	3.39896	0.985919	4.37935
0.6055	2.68337	0.51006	2.26073	0.431227	2.86497	0.766053	3.39013	0.935762	4.15181	0.620095	2.74392	0.766886	3.39343	0.986928	4.36577
0.607902	2.68293	0.512455	2.262	0.429649	2.87227	0.767467	3.38244	0.937471	4.14226	0.621941	2.74078	0.768808	3.38797	0.987943	4.35232
0.610306	2.68251	0.51485	2.26326	0.428093	2.8798	0.768884	3.37483	0.939182	4.13281	0.623787	2.73768	0.770734	3.38257	0.988963	4.339
0.612711	2.6821	0.517243	2.26451	0.426558	2.88758	0.770302	3.36728	0.940896	4.12345	0.625633	2.7346	0.772664	3.37723	0.989988	4.32582
0.615117	2.68169	0.519636	2.26575	0.425045	2.89559	0.771722	3.3598	0.942612	4.11417	0.62748	2.73155	0.774599	3.37195	0.991019	4.31277
0.617524	2.68129	0.522029	2.26697	0.423552	2.90386	0.773143	3.35239	0.94433	4.10497	0.629327	2.72852	0.776537	3.36674	0.992055	4.29984
0.619932	2.68091	0.524421	2.26818	0.422081	2.91237	0.774567	3.34505	0.94605	4.09586	0.631174	2.72552	0.778479	3.36158	0.993096	4.28704
0.622341	2.68052	0.526812	2.26938	0.420629	2.92113	0.775992	3.33778	0.947773	4.08684	0.633022	2.72255	0.780425	3.35648	0.994142	4.27437
0.624752	2.68015	0.529202	2.27056	0.419198	2.93016	0.777419	3.33057	0.949498	4.07789	0.634871	2.7196	0.782375	3.35143	0.995194	4.26181
0.627163	2.67978	0.531592	2.27173	0.417788	2.93944	0.778848	3.32342	0.951225	4.06903	0.63672	2.71668	0.784328	3.34644	0.996251	4.24939
0.629575	2.67943	0.533981	2.27289	0.416397	2.94898	0.780278	3.31634	0.952955	4.06024	0.63857	2.71378	0.786285	3.34151	0.997313	4.23708
0.631989	2.67907	0.536369	2.27404	0.415025	2.95879	0.781711	3.30933	0.954686	4.05154	0.64042	2.71091	0.788246	3.33663	0.99838	4.22489
0.634403	2.67873	0.538756	2.27517	0.413673	2.96888	0.783145	3.30238	0.956419	4.04291	0.642272	2.70807	0.79021	3.3318	0.999453	4.21282
0.636818	2.67839	0.541143	2.27629	0.412341	2.97923	0.784582	3.29548	0.958154	4.03435	0.644124	2.70525	0.792177	3.32703	1.00053	4.20087
0.639234	2.67805	0.543528	2.2774	0.411027	2.98987	0.78602	3.28866	0.959891	4.02587	0.645977	2.70246	0.794148	3.32231		
0.64165	2.67773	0.545914	2.2785	0.409732	3.00078	0.78746	3.28189	0.96163	4.01747	0.647831	2.69969	0.796121	3.31763		
0.644068	2.6774	0.548298	2.27959	0.408455	3.01198	0.788903	3.27518	0.963371	4.00914	0.649686	2.69695	0.798098	3.31301		
0.646486	2.67709	0.550681	2.28066	0.407197	3.02348	0.790347	3.26854	0.965113	4.00087	0.651542	2.69424	0.800078	3.30843		
0.648904	2.67678	0.553063	2.28173	0.405956	3.03526	0.791793	3.26195	0.966857	3.99268	0.6534	2.69155	0.802061	3.3039		
0.651324	2.67647	0.555445	2.28278	0.404733	3.04735	0.793242	3.25542	0.968603	3.98456	0.655258	2.68889	0.804047	3.29942		
0.653744	2.67617	0.557825	2.28382	0.403528	3.05974	0.794692	3.24895	0.97035	3.97651	0.657118	2.68625	0.806036	3.29498		
0.656164	2.67587	0.560205	2.28484	0.402341	3.07244	0.796145	3.24254	0.972099	3.96852	0.658979	2.68363	0.808027	3.29059		
0.658585	2.67558	0.562584	2.28586	0.40117	3.08545	0.797599	3.23618	0.973849	3.9606	0.660841	2.68105	0.810021	3.28624		
0.661007	2.67529	0.564962	2.28686	0.400017	3.09879	0.799056	3.22988	0.975601	3.95275	0.662705	2.67848	0.812018	3.28194		
0.663429	2.67501	0.567338	2.28785	0.39888	3.11245	0.800515	3.22364	0.977354	3.94496	0.66457	2.67595	0.814017	3.27767		
0.665852	2.67473	0.569714	2.28884	0.39776	3.12643	0.801976	3.21745	0.979108	3.93723	0.666437	2.67343	0.816019	3.27345		
0.668275	2.67445	0.572089	2.28981	0.396656	3.14076	0.803439	3.21132	0.980864	3.92957	0.668306	2.67094	0.818023	3.26928		
0.670699	2.67418	0.574463	2.29076	0.395569	3.15543	0.804905	3.20524	0.982621	3.92197	0.670176	2.66848	0.82003	3.26514		
0.673123	2.67391	0.576835	2.29171	0.394498	3.17045	0.806372	3.19921	0.984379	3.91443	0.672047	2.66604	0.822038	3.26104		
0.675547	2.67365	0.579207	2.29265	0.393442	3.18582	0.807842	3.19324	0.986138	3.90695	0.67392	2.66363	0.824049	3.25698		
0.677972	2.67339	0.581577	2.29357	0.392403	3.20156	0.809314	3.18732	0.987899	3.89953	0.675796	2.66124	0.826062	3.25295		
0.680397	2.67313	0.583947	2.29448	0.391379	3.21767	0.810789	3.18146	0.98966	3.89217	0.677673	2.65888	0.828077	3.24897		
0.682823	2.67287	0.586315	2.29539	0.390372	3.23415	0.812266	3.17564	0.991423	3.88487	0.679551	2.65654	0.830094	3.24502		
0.685248	2.67262	0.588682	2.29628	0.389379	3.25103	0.813745	3.16988	0.993186	3.87762	0.681432	2.65422	0.832113	3.24111		
0.687674	2.67237	0.591048	2.29716	0.388402	3.26829	0.815226	3.16416	0.994951	3.87043	0.683315	2.65193	0.834134	3.23723		
0.690101	2.67213	0.593412	2.29803	0.38744	3.28596	0.81671	3.1585	0.996716	3.8633	0.6852	2.64967	0.836156	3.23339		
0.692527	2.67188	0.595776	2.29888	0.386493	3.30404	0.818196	3.15289	0.998483	3.85622	0.687086	2.64742	0.83818	3.22958		
0.694954	2.67164	0.598138	2.29973	0.385562	3.32254	0.819684	3.14732	1.00025	3.84919	0.688975	2.64521	0.840206	3.2258		
0.697381	2.6714	0.600499	2.30057	0.384645	3.34147	0.821175	3.14181			0.690866	2.64301	0.842234	3.22206		
0.699808	2.67117	0.602858	2.30139	0.383743	3.36083	0.822668	3.13634			0.692759	2.64084	0.844262	3.21835		
0.702235	2.67094	0.605217	2.30221	0.382856	3.38065	0.824164	3.13092			0.694655	2.6387	0.846293	3.21468		
0.704663	2.6707	0.607574	2.30301	0.381984	3.40093	0.825662	3.12555			0.696553	2.63657	0.848324	3.21103		
0.707091	2.67048	0.609929	2.3038	0.381126	3.42167	0.827163	3.12023			0.698453	2.63448	0.850357	3.20741		
0.709518	2.67025	0.612283	2.30459	0.380283	3.4429	0.828666	3.11495			0.700355	2.6324	0.852392	3.20383		
0.711946	2.67002	0.614636	2.30536	0.379454	3.46462	0.830172	3.10972			0.70226	2.63035	0.854427	3.20027		
0.714374	2.6698	0.616988	2.30612	0.37864	3.48685	0.83168	3.10453			0.704168	2.62832	0.856464	3.19674		
0.716802	2.66958	0.619338	2.30687	0.377839	3.50959	0.83319	3.09939			0.706078	2.62632	0.858501	3.19324		
0.71923	2.66936	0.621686	2.30761	0.377053	3.53286	0.834704	3.0943			0.70799	2.62434	0.86054	3.18977		
0.721658	2.66914	0.624034	2.30834	0.376282	3.55668	0.836219	3.08925			0.709905	2.62238	0.86258	3.18633		
0.724086	2.66892	0.626379	2.30906	0.375524	3.58106	0.837738	3.08424			0.711823	2.62044	0.86462	3.18291		
0.726514	2.66871	0.628723	2.30976	0.37478	3.606	0.839259	3.07928			0.713744	2.61853	0.866661	3.17952		
0.728942	2.66849	0.631066	2.31046	0.374051	3.63154	0.840782	3.07436			0.715667	2.61664	0.868703	3.17616		
0.73137	2.66828	0.633407	2.31115	0.373335	3.65768	0.842309	3.06948			0.717593	2.61478	0.870746	3.17282		
0.733798	2.66807	0.635746	2.31183	0.372633	3.68443	0.843837	3.06465			0.719521	2.61294	0.87279	3.1695		
0.736226	2.66786	0.638084	2.31249	0.371945	3.71182	0.845369	3.05986			0.721453	2.61112	0.874834	3.16621		
0.738654	2.66765	0.64042	2.31315	0.37127	3.73986	0.846903	3.05511			0.723387	2.60932	0.876878	3.16295		
0.741081	2.66744	0.642755	2.31379	0.37061	3.76857	0.84844	3.0504			0.725325	2.60754	0.878923	3.1597		
0.743509	2.66724	0.645088	2.31443	0.369962	3.79797	0.84998	3.04573			0.727265	2.60579	0.880969	3.15648		
0.745936	2.66703	0.647419	2.31506	0.369329	3.82808	0.851522	3.04111			0.729209	2.60406	0.883014	3.15329		
0.748363	2.66683	0.649748	2.31567	0.368708	3.85892	0.853067	3.03652			0.731155	2.60235	0.88506	3.15011		
0.750791	2.66662	0.652076	2.31628	0.368101	3.8905	0.854615	3.03198			0.733104	2.60067	0.887107	3.14696		
0.753217	2.66642	0.654402	2.31687	0.367508	3.92286	0.856166	3.02747			0.735057	2.599	0.889153	3.14383		
0.755644	2.66621	0.656727	2.31745	0.366928	3.95601	0.85772	3.023			0.737013	2.59736	0.8912	3.14072		
0.758071	2.66601	0.659049	2.31803	0.36636	3.98997	0.859276	3.01858			0.738972	2.59574	0.893247	3.13763		
0.760497	2.66581	0.66137	2.31859	0.365807	4.02478	0.860835	3.01419			0.740934	2.59415	0.895294	3.13456		
0.762923	2.66561	0.663689	2.31915	0.365266	4.06045	0.862397	3.00984			0.742899	2.59257	0.897341	3.13152		
0.765348	2.66541	0.666006	2.31969	0.364738	4.09702	0.863962	3.00553			0.744868	2.59102	0.899387	3.12849		
0.767774	2.6652	0.668321	2.32023	0.364223	4.1345	0.86553	3.00126			0.74684	2.58948	0.901434	3.12548		
0.770199	2.665	0.670634	2.32075	0.36372	4.17293	0.867101	2.99702			0.748815	2.58797	0.90348	3.12248		
0.772624	2.6648	0.672945	2.32127	0.363231	4.21234	0.868674	2.99282			0.750793	2.58648	0.905527	3.11951		
0.775048	2.6646	0.675255	2.32177	0.362754	4.25277	0.870251	2.98866			0.752775	2.58501	0.907573	3.11656		
0.777472	2.6644	0.677562	2.32226	0.36229	4.29423	0.87183	2.98453			0.754761	2.58356	0.909619	3.11362		
0.779896	2.6642	0.679868	2.32275	0.361838	4.33677	0.873413	2.98045			0.75675	2.58214	0.911664	3.1107		
0.782319	2.664	0.682172	2.32322	0.361399	4.38042	0.874999	2.97639			0.758742	2.58073	0.913709	3.1078		
0.784742	2.6638	0.684473	2.32369	0.360972	4.42522	0.876587	2.97238			0.760738	2.57935	0.915753	3.10491		
0.787164	2.6636	0.686773	2.32415	0.360558	4.47121	0.878179	2.9684			0.762737	2.57798	0.917798	3.10205		
0.789587	2.6634	0.68907	2.32459	0.360156	4.51842	0.879774	2.96445			0.76474	2.57664	0.919841	3.09919		
0.792008	2.6632	0.691366	2.32503	0.359765	4.56691	0.881371	2.96054			0.766747	2.57531	0.921884	3.09636		
0.794429	2.66299	0.693659	2.32545	0.359387	4.61671	0.882972	2.95666			0.768757	2.57401	0.923926	3.09353		
0.79685	2.66279	0.695951	2.32587	0.35902	4.66787	0.884576	2.95282			0.770771	2.57273	0.925968	3.09073		
0.79927	2.66259	0.69824	2.32628	0.358666	4.72044	0.886183	2.94902			0.772788	2.57146	0.928009	3.08794		
0.801689	2.66238	0.700527	2.32668	0.358323	4.77447	0.887794	2.94524			0.77481	2.57022	0.930049	3.08516		
0.804108	2.66218	0.702813	2.32707	0.357991	4.83001	0.889407	2.9415			0.776834	2.569	0.932088	3.0824		
0.806526	2.66197	0.705096	2.32745	0.357671	4.88713	0.891024	2.9378			0.778863	2.56779	0.934127	3.07965		
0.808944	2.66177	0.707376	2.32781	0.357363	4.94587	0.892644	2.93413			0.780895	2.56661	0.936164	3.07692		
0.811361	2.66156	0.709655	2.32818	0.357065	5.00631	0.894267	2.93049			0.782931	2.56545	0.938201	3.0742		
0.813777	2.66135	0.711932	2.32853	0.356779	5.06851	0.895893	2.92688			0.784971	2.5643	0.940237	3.07149		
0.816192	2.66115	0.714206	2.32887	0.356503	5.13253	0.897523	2.92331			0.787015	2.56318	0.942272	3.0688		
0.818607	2.66094	0.716478	2.3292	0.356239	5.19845	0.899156	2.91977			0.789062	2.56207	0.944305	3.06612		
0.821022	2.66073	0.718748	2.32953	0.355985	5.26635	0.900793	2.91626			0.791113	2.56098	0.946338	3.06345		
0.823435	2.66051	0.721016	2.32984	0.355742	5.3363	0.902433	2.91278			0.793168	2.55991	0.948369	3.0608		
0.825847	2.6603	0.723282	2.33015	0.355509	5.40839	0.904076	2.90933			0.795227	2.55887	0.9504	3.05815		
0.828259	2.66009	0.725545	2.33044	0.355286	5.48272	0.905722	2.90592			0.79729	2.55783	0.952429	3.05552		
0.83067	2.65987	0.727806	2.33073	0.355074	5.55937	0.907373	2.90254			0.799356	2.55682	0.954457	3.0529		
0.83308	2.65965	0.730065	2.33101	0.354872	5.63846	0.909026	2.89919			0.801427	2.55583	0.956484	3.0503		
0.835489	2.65943	0.732322	2.33128	0.354679	5.72007	0.910683	2.89587			0.803501	2.55485	0.958509	3.0477		
0.837898	2.65921	0.734576	2.33154	0.354496	5.80434	0.912344	2.89258			0.80558	2.55389	0.960533	3.04511		
0.840305	2.65899	0.736828	2.33179	0.354323	5.89138	0.914008	2.88932			0.807662	2.55295	0.962556	3.04254		
0.842711	2.65877	0.739078	2.33204	0.354159	5.98131	0.915676	2.88609			0.809748	2.55203	0.964577	3.03998		
0.845117	2.65854	0.741326	2.33227	0.354004	6.07427	0.917347	2.88289			0.811838	2.55113	0.966597	3.03742		
0.847521	2.65831	0.743572	2.3325	0.353858	6.17042	0.919023	2.87973			0.813932	2.55024	0.968616	3.03488		
0.849924	2.65808	0.745815	2.33272	0.353722	6.26989	0.920701	2.87659			0.816029	2.54937	0.970633	3.03235		
0.852326	2.65785	0.748056	2.33293	0.353593	6.37287	0.922384	2.87348			0.818131	2.54852	0.972648	3.02983		
0.854727	2.65762	0.750295	2.33313	0.353474	6.47951	0.92407	2.8704			0.820237	2.54769	0.974662	3.02731		
0.857126	2.65738	0.752531	2.33333	0.353362	6.59002	0.92576	2.86736			0.822346	2.54687	0.976675	3.02481		
0.859525	2.65714	0.754765	2.33352	0.353259	6.70459	0.927454	2.86434			0.82446	2.54607	0.978685	3.02232		
0.861922	2.6569	0.756997	2.33369	0.353163	6.82343	0.929152	2.86135			0.826577	2.54528	0.980695	3.01983		
0.864318	2.65665	0.759227	2.33386	0.353075	6.94679	0.930853	2.85838			0.828698	2.54451	0.982702	3.01736		
0.866713	2.65641	0.761454	2.33403	0.352995	7.0749	0.932559	2.85545			0.830824	2.54376	0.984708	3.01489		
0.869106	2.65616	0.76368	2.33418	0.352922	7.20804	0.934269	2.85255			0.832953	2.54303	0.986712	3.01244		
0.871497	2.6559	0.765903	2.33433	0.352856	7.34649	0.935982	2.84968			0.835086	2.54231	0.988715	3.00999		
0.873888	2.65565	0.768124	2.33447	0.352797	7.49056	0.9377	2.84683			0.837223	2.5416	0.990716	3.00755		
0.876277	2.65539	0.770342	2.3346	0.352745	7.64059	0.939422	2.84401			0.839364	2.54092	0.992715	3.00512		
0.878664	2.65513	0.772559	2.33473	0.352699	7.79695	0.941148	2.84122			0.841508	2.54024	0.994712	3.0027		
0.881049	2.65486	0.774773	2.33484	0.35266	7.96002	0.942878	2.83846			0.843657	2.53959	0.996708	3.00028		
0.883434	2.65459	0.776985	2.33495	0.352626	8.13024	0.944612	2.83573			0.845809	2.53895	0.998701	2.99788		
0.885816	2.65432	0.779195	2.33506	0.352598	8.30806	0.946351	2.83303			0.847965	2.53832	1.00069	2.99548		
0.888196	2.65404	0.781402	2.33515	0.352576	8.494	0.948094	2.83035			0.850125	2.53771				
0.890575	2.65376	0.783608	2.33524	0.352558	8.68862	0.949841	2.8277			0.852289	2.53711				
0.892952	2.65348	0.785811	2.33532	0.352546	8.8925	0.951593	2.82508			0.854457	2.53653				
0.895327	2.65319	0.788013	2.3354	0.352539	9.10633	0.953349	2.82249			0.856628	2.53596				
0.8977	2.6529	0.790212	2.33547	0.352537	9.33082	0.95511	2.81992			0.858804	2.53541				
0.900072	2.6526	0.792409	2.33553	0.352539	9.56678	0.956875	2.81738			0.860983	2.53487				
0.902441	2.6523	0.794604	2.33559	0.352543	9.78244	0.958645	2.81487			0.863165	2.53434				
0.904808	2.652	0.796797	2.33564	0.35255	9.97418	0.96042	2.81239			0.865352	2.53383				
0.907172	2.65169	0.798988	2.33568	0.352557	10.1385	0.9622	2.80994			0.867542	2.53333				
0.909535	2.65137	0.801177	2.33572	0.352563	10.2724	0.963984	2.80751			0.869736	2.53285				
0.911895	2.65105	0.803364	2.33575	0.352569	10.3731	0.965773	2.80511			0.871933	2.53238				
0.914253	2.65073	0.805549	2.33577	0.352574	10.4676	0.967567	2.80273			0.874134	2.53192				
0.916609	2.6504	0.807732	2.33579	0.352578	10.5343	0.969367	2.80039			0.876339	2.53147				
0.918961	2.65006	0.809913	2.33581	0.352584	10.6403	0.971171	2.79807			0.878547	2.53104				
0.921312	2.64972	0.812092	2.33582	0.352593	10.7879	0.97298	2.79578			0.880759	2.53062				
0.92366	2.64937	0.814269	2.33582	0.352606	10.9805	0.974795	2.79351			0.882974	2.53021				
0.926005	2.64902	0.816445	2.33582	0.352623	11.2229	0.976615	2.79128			0.885193	2.52981				
0.928347	2.64866	0.818618	2.33581	0.352644	11.5213	0.97844	2.78906			0.887416	2.52943				
0.930687	2.6483	0.82079	2.33579	0.352672	11.884	0.980271	2.78688			0.889642	2.52906				
0.933023	2.64793	0.82296	2.33578	0.352701	12.2702	0.982107	2.78473			0.891871	2.5287				
0.935357	2.64755	0.825128	2.33575	0.352732	12.6824	0.983948	2.7826			0.894104	2.52835				
0.937687	2.64716	0.827294	2.33572	0.352765	13.1231	0.985796	2.78049			0.89634	2.52801				
0.940015	2.64677	0.829458	2.33569	0.3528	13.5957	0.987649	2.77842			0.898579	2.52769				
0.942339	2.64637	0.831621	2.33565	0.352836	14.1034	0.989507	2.77637			0.900822	2.52737				
0.94466	2.64597	0.833782	2.33561	0.352872	14.6505	0.991372	2.77435			0.903068	2.52707				
0.946977	2.64556	0.835942	2.33557	0.35291	15.2416	0.993243	2.77236			0.905317	2.52677				
0.949292	2.64514	0.8381	2.33552	0.352948	15.8824	0.995119	2.77039			0.90757	2.52649				
0.951602	2.64471	0.840256	2.33546	0.352987	16.5792	0.997002	2.76845			0.909826	2.52622				
0.953909	2.64427	0.84241	2.3354	0.353026	17.3398	0.998891	2.76654			0.912085	2.52596				
0.956212	2.64383	0.844564	2.33534	0.353064	18.1733	1.00079	2.76465			0.914347	2.5257				
0.958512	2.64338	0.846715	2.33527	0.353102	19.0909					0.916612	2.52546				
0.960808	2.64292	0.848865	2.3352	0.35314	20.1057					0.91888	2.52523				
0.9631	2.64245	0.851014	2.33513	0.353177	21.2342					0.921152	2.52501				
0.965387	2.64197	0.853161	2.33505	0.353214	22.4965					0.923426	2.52479				
0.967671	2.64149	0.855307	2.33497	0.353249	23.9181					0.925704	2.52459				
0.969951	2.64099	0.857451	2.33488	0.353283	25.531					0.927984	2.52439				
0.972226	2.64049	0.859594	2.33479	0.353315	27.3766					0.930267	2.52421				
0.974498	2.63998	0.861735	2.3347	0.353346	29.5094					0.932553	2.52403				
0.976764	2.63946	0.863876	2.33461	0.353376	32.0019					0.934842	2.52386				
0.979027	2.63893	0.866014	2.33451	0.353403	34.9536					0.937134	2.5237				
0.981285	2.63839	0.868152	2.33441	0.353428	38.5043					0.939429	2.52355				
0.983538	2.63784	0.870289	2.33431	0.353452	42.8569					0.941726	2.5234				
0.985787	2.63728	0.872424	2.3342	0.353473	48.318					0.944027	2.52327				
0.988031	2.63671	0.874558	2.33409	0.353492	55.3728					0.94633	2.52314				
0.990271	2.63613	0.876691	2.33398	0.353508	64.8382					0.948635	2.52302				
0.992505	2.63555	0.878823	2.33387	0.353522	78.2048					0.950943	2.52291				
0.994735	2.63495	0.880953	2.33375	0.353534	98.5111					0.953254	2.5228				
0.996961	2.63434	0.883083	2.33363	0.353543	133.057					0.955568	2.5227				
0.999181	2.63373	0.885212	2.33351	0.353549	204.911					0.957883	2.52261				
1.0014	2.6331	0.887339	2.33339	0.353552	445.456					0.960202	2.52253				
		0.889466	2.33327							0.962523	2.52245				
		0.891591	2.33314							0.964846	2.52238				
		0.893716	2.33301							0.967172	2.52232				
		0.89584	2.33288							0.9695	2.52226				
		0.897963	2.33275							0.971831	2.52221				
		0.900085	2.33262							0.974164	2.52217				
		0.902206	2.33248							0.976499	2.52213				
		0.904326	2.33235							0.978837	2.5221				
		0.906446	2.33221							0.981176	2.52207				
		0.908565	2.33207							0.983518	2.52205				
		0.910683	2.33193							0.985862	2.52204				
		0.9128	2.33179							0.988209	2.52203				
		0.914917	2.33164							0.990557	2.52203				
		0.917033	2.3315							0.992907	2.52203				
		0.919148	2.33136							0.99526	2.52203				
		0.921263	2.33121							0.997615	2.52205				
		0.923377	2.33107							0.999971	2.52206				
		0.92549	2.33092							1.00233	2.52209				
		0.927603	2.33077												
		0.929716	2.33062												
		0.931827	2.33047												
		0.933939	2.33032												
		0.93605	2.33017												
		0.93816	2.33002												
		0.94027	2.32987												
		0.94238	2.32972												
		0.944489	2.32957												
		0.946598	2.32942												
		0.948706	2.32927												
		0.950815	2.32912												
		0.952922	2.32896												
		0.95503	2.32881												
		0.957137	2.32866												
		0.959244	2.32851												
		0.961351	2.32836												
		0.963457	2.3282												
		0.965564	2.32805												
		0.96767	2.3279												
		0.969775	2.32775												
		0.971881	2.3276												
		0.973987	2.32745												
		0.976092	2.3273												
		0.978197	2.32715												
		0.980302	2.327												
		0.982407	2.32685												
		0.984512	2.3267												
		0.986617	2.32655												
		0.988722	2.3264												
		0.990827	2.32626												
		0.992932	2.32611												
		0.995036	2.32596												
		0.997141	2.32582												
		0.999246	2.32567												
		1.00135	2.32553												
