Sym0		Asym0		Sym1		Sym2		Sym3		Asym1		Asym2		Asym3		Asym4	
346  Points		383  Points		346  Points		320  Points		243  Points		345  Points		308  Points		244  Points		137  Points	
Freq (MHz)	Vph (m/ms)	Freq (MHz)	Vph (m/ms)	Freq (MHz)	Vph (m/ms)	Freq (MHz)	Vph (m/ms)	Freq (MHz)	Vph (m/ms)	Freq (MHz)	Vph (m/ms)	Freq (MHz)	Vph (m/ms)	Freq (MHz)	Vph (m/ms)	Freq (MHz)	Vph (m/ms)
0.35353	397.108	0.000446875	0.130571	1.00102	2.49517	0.397929	514.627	0.707108	940.35	0.176803	209.474	0.530331	785.781	0.79581	2786.5	0.883885	1315.02
0.35343	170.84	0.00080611	0.175204	0.998548	2.49635	0.398059	203.95	0.707117	366.292	0.176928	87.4777	0.530335	286.138	0.795821	543.554	0.883898	477.613
0.35325	108.783	0.0012687	0.219518	0.996084	2.49754	0.3983	127.242	0.707133	227.448	0.177154	55.3424	0.530343	174.919	0.795845	301.158	0.883923	291.804
0.352995	79.7586	0.00183322	0.26347	0.993624	2.49876	0.398649	92.5202	0.707157	164.935	0.177482	40.525	0.530355	125.962	0.795883	208.285	0.883961	210.083
0.352668	62.9281	0.00249767	0.30697	0.99117	2.5	0.399102	72.7321	0.707188	129.379	0.17791	32.0092	0.530371	98.4181	0.795935	159.198	0.88401	164.125
0.352274	51.9363	0.00326011	0.349984	0.98872	2.50125	0.399655	59.956	0.707227	106.438	0.178436	26.4876	0.530391	80.7603	0.796001	128.841	0.884071	134.67
0.351819	44.1909	0.00411807	0.392439	0.986274	2.50253	0.400302	51.0309	0.707274	90.4092	0.179059	22.6225	0.530414	68.4761	0.796081	108.212	0.884145	114.183
0.351306	38.4368	0.00506903	0.434288	0.983833	2.50382	0.401038	44.4471	0.707328	78.5785	0.179777	19.7695	0.530442	59.4367	0.796175	93.2816	0.884231	99.1098
0.350744	33.9922	0.00611015	0.475478	0.981396	2.50513	0.401858	39.3927	0.707389	69.4878	0.180587	17.5803	0.530474	52.5066	0.796282	81.9753	0.884329	87.5552
0.350137	30.455	0.00723873	0.515981	0.978964	2.50646	0.402754	35.3919	0.707459	62.2842	0.181486	15.8494	0.53051	47.0247	0.796403	73.1169	0.884439	78.4164
0.349491	27.5724	0.0084516	0.55575	0.976536	2.50782	0.403723	32.1477	0.707536	56.4355	0.182473	14.4485	0.53055	42.5802	0.796538	65.9893	0.884561	71.0077
0.348811	25.1778	0.00974587	0.594765	0.974113	2.50919	0.404757	29.4651	0.707621	51.5924	0.183544	13.2929	0.530595	38.9041	0.796686	60.1308	0.884696	64.8805
0.348102	23.1568	0.0111183	0.632997	0.971693	2.51057	0.405853	27.2104	0.707713	47.5163	0.184696	12.3244	0.530643	35.813	0.796848	55.2303	0.884843	59.7291
0.34737	21.4282	0.0125659	0.670427	0.969278	2.51198	0.407006	25.2895	0.707813	44.0385	0.185926	11.502	0.530696	33.1777	0.797023	51.0708	0.885002	55.3376
0.346618	19.9327	0.0140856	0.707049	0.966867	2.51341	0.408211	23.6337	0.707921	41.0362	0.187231	10.7957	0.530754	30.9044	0.797211	47.4961	0.885174	51.5496
0.345851	18.6263	0.0156741	0.742843	0.96446	2.51486	0.409463	22.192	0.708037	38.4184	0.188608	10.1831	0.530816	28.9232	0.797412	44.3913	0.885359	48.2489
0.345072	17.4752	0.0173287	0.777815	0.962056	2.51632	0.41076	20.9258	0.70816	36.1156	0.190054	9.6473	0.530882	27.1814	0.797627	41.6694	0.885555	45.3472
0.344285	16.4533	0.0190461	0.811952	0.959657	2.51781	0.412099	19.8049	0.708292	34.0743	0.191368	9.23268	0.530954	25.6381	0.797854	39.2639	0.885764	42.7764
0.343493	15.5402	0.0208236	0.845262	0.957262	2.51931	0.413475	18.8059	0.708431	32.2525	0.192525	8.91211	0.53103	24.2611	0.798094	37.1227	0.885986	40.4831
0.342697	14.7194	0.0226585	0.877752	0.95487	2.52084	0.414887	17.9101	0.708578	30.6165	0.193508	8.66715	0.531111	23.0251	0.798347	35.2047	0.886221	38.4247
0.341902	13.9777	0.0245478	0.909423	0.952481	2.52238	0.416331	17.1024	0.708733	29.1394	0.194301	8.48511	0.531197	21.9094	0.798612	33.4766	0.886468	36.5669
0.341109	13.3043	0.0264891	0.940289	0.950097	2.52394	0.417806	16.3704	0.708896	27.7991	0.194893	8.35734	0.531288	20.8974	0.79889	31.9118	0.886728	34.8819
0.34032	12.6902	0.0284797	0.970358	0.947715	2.52552	0.41931	15.7042	0.709067	26.5775	0.195275	8.27811	0.531385	19.9752	0.79918	30.4881	0.887001	33.3467
0.339537	12.128	0.0305175	0.999647	0.945337	2.52712	0.42084	15.0952	0.709246	25.4596	0.19583	8.16756	0.531487	19.1315	0.799482	29.1874	0.887287	31.9422
0.338762	11.6116	0.0325999	1.02817	0.942962	2.52874	0.422395	14.5365	0.709434	24.4327	0.19644	8.05165	0.531594	18.3567	0.799796	27.9944	0.887586	30.6525
0.337996	11.1355	0.0347248	1.05594	0.94059	2.53038	0.423973	14.0221	0.709629	23.4862	0.19728	7.90073	0.531707	17.6426	0.800121	26.8963	0.887898	29.4641
0.337241	10.6954	0.0368901	1.08297	0.938221	2.53203	0.425574	13.547	0.709833	22.611	0.19836	7.72017	0.531826	16.9824	0.800459	25.8823	0.888223	28.3655
0.336499	10.2873	0.0390937	1.10929	0.935855	2.5337	0.427195	13.1069	0.710045	21.7994	0.199693	7.51593	0.531951	16.3704	0.800807	24.9431	0.888561	27.3471
0.335769	9.90804	0.041334	1.1349	0.933492	2.53539	0.428836	12.6981	0.710265	21.0447	0.20129	7.2941	0.532081	15.8013	0.801167	24.0707	0.888912	26.4004
0.335054	9.55467	0.0436089	1.15983	0.931131	2.5371	0.430495	12.3174	0.710494	20.3412	0.203166	7.06057	0.532218	15.2709	0.801538	23.2583	0.889277	25.518
0.334355	9.22471	0.0459168	1.1841	0.928772	2.53883	0.432172	11.962	0.710731	19.6839	0.205086	6.84688	0.532362	14.7754	0.801919	22.5	0.889655	24.6938
0.333672	8.91597	0.0482562	1.20772	0.926415	2.54057	0.433865	11.6296	0.710976	19.0683	0.207049	6.65072	0.532512	14.3115	0.802312	21.7904	0.890047	23.9221
0.333007	8.62653	0.0506253	1.23072	0.924061	2.54233	0.435574	11.3178	0.71123	18.4907	0.20905	6.47008	0.532669	13.8762	0.802714	21.1252	0.890452	23.1982
0.33236	8.3547	0.0530229	1.2531	0.921708	2.54411	0.437297	11.025	0.711493	17.9476	0.211089	6.30328	0.532832	13.467	0.803127	20.5002	0.890871	22.5178
0.331732	8.09898	0.0554475	1.27489	0.919357	2.5459	0.439035	10.7494	0.711765	17.4361	0.213163	6.14883	0.533003	13.0817	0.80355	19.912	0.891304	21.877
0.331123	7.85803	0.0578978	1.29611	0.917007	2.54771	0.440786	10.4896	0.712045	16.9535	0.215271	6.00546	0.533181	12.7182	0.803983	19.3575	0.891751	21.2727
0.330535	7.63067	0.0603727	1.31678	0.914659	2.54953	0.44255	10.2443	0.712334	16.4975	0.217409	5.87207	0.533366	12.3747	0.804425	18.8337	0.892211	20.7017
0.329968	7.41582	0.0628708	1.3369	0.912312	2.55137	0.444326	10.0123	0.712632	16.0659	0.219578	5.74768	0.533559	12.0497	0.804877	18.3383	0.892686	20.1614
0.329423	7.21253	0.0653912	1.3565	0.909965	2.55322	0.446114	9.7925	0.712939	15.6568	0.221774	5.63144	0.53376	11.7417	0.805338	17.869	0.893174	19.6494
0.3289	7.01995	0.0679329	1.37559	0.907619	2.55509	0.447912	9.58405	0.713255	15.2686	0.223996	5.52261	0.533969	11.4495	0.805808	17.4238	0.893677	19.1636
0.3284	6.83729	0.0704946	1.3942	0.905273	2.55697	0.449721	9.38607	0.71358	14.8996	0.226243	5.42051	0.534186	11.1718	0.806286	17.0009	0.894194	18.7021
0.327923	6.66386	0.0730758	1.41233	0.902927	2.55886	0.451306	9.22149	0.713914	14.5486	0.228513	5.32456	0.534411	10.9077	0.806773	16.5987	0.894725	18.263
0.327471	6.49901	0.0756753	1.43	0.900581	2.56076	0.452662	9.08666	0.714258	14.2142	0.230806	5.23423	0.534645	10.6562	0.807269	16.2157	0.895271	17.8449
0.327042	6.34217	0.0782924	1.44722	0.898235	2.56268	0.453788	8.97877	0.71461	13.8954	0.233118	5.14906	0.534887	10.4163	0.807772	15.8506	0.895832	17.4462
0.326638	6.19281	0.0809264	1.46402	0.895887	2.5646	0.45468	8.89567	0.714973	13.591	0.23545	5.06863	0.535138	10.1874	0.808284	15.5022	0.896406	17.0657
0.32626	6.05045	0.0835764	1.4804	0.893539	2.56654	0.455338	8.83577	0.715345	13.3001	0.237801	4.99256	0.535399	9.96872	0.808803	15.1692	0.896996	16.7022
0.325908	5.91465	0.0862417	1.49637	0.891189	2.56848	0.455759	8.79796	0.715726	13.0218	0.240168	4.92052	0.535669	9.75959	0.809329	14.8509	0.8976	16.3546
0.325581	5.78499	0.0889218	1.51195	0.888837	2.57044	0.456365	8.74431	0.716117	12.7555	0.242551	4.85219	0.535949	9.55943	0.809863	14.5461	0.898219	16.0218
0.325281	5.66111	0.0916158	1.52716	0.886483	2.5724	0.457026	8.6869	0.716518	12.5002	0.244949	4.78729	0.5362	9.39187	0.810404	14.2541	0.898853	15.703
0.325008	5.54267	0.0943234	1.542	0.884126	2.57436	0.457925	8.61031	0.716929	12.2554	0.247361	4.72559	0.536421	9.25384	0.810951	13.974	0.899502	15.3974
0.324762	5.42936	0.0970438	1.55649	0.881767	2.57633	0.459065	8.51584	0.717349	12.0204	0.249786	4.66685	0.536607	9.14287	0.811505	13.7053	0.900166	15.104
0.324543	5.32087	0.0997766	1.57063	0.879404	2.57831	0.460448	8.40499	0.71778	11.7947	0.252223	4.61086	0.536757	9.05709	0.812066	13.4471	0.900845	14.8223
0.324353	5.21695	0.102521	1.58444	0.877038	2.58028	0.462076	8.27949	0.718221	11.5778	0.254672	4.55744	0.536869	8.9951	0.812632	13.1989	0.901539	14.5516
0.32419	5.11734	0.105277	1.59793	0.874667	2.58226	0.46395	8.14116	0.718672	11.369	0.257132	4.50642	0.536942	8.95589	0.813205	12.9601	0.902248	14.2912
0.324057	5.02181	0.108044	1.6111	0.872293	2.58424	0.465831	8.00855	0.719134	11.1681	0.259601	4.45762	0.537047	8.90016	0.813783	12.7302	0.902972	14.0405
0.323952	4.93014	0.110821	1.62398	0.869913	2.58622	0.467719	7.88132	0.719606	10.9746	0.262079	4.41092	0.537162	8.84041	0.814367	12.5088	0.903712	13.7992
0.323876	4.84215	0.113609	1.63656	0.867528	2.5882	0.469612	7.75914	0.720088	10.7881	0.264566	4.36617	0.537321	8.7605	0.814956	12.2952	0.904467	13.5666
0.32383	4.75763	0.116406	1.64886	0.865137	2.59017	0.471512	7.64172	0.720581	10.6082	0.267061	4.32326	0.537526	8.66161	0.815551	12.0893	0.905238	13.3423
0.323814	4.68668	0.119212	1.66088	0.862739	2.59214	0.473416	7.52879	0.721085	10.4345	0.269563	4.28206	0.53778	8.54514	0.81615	11.8904	0.906023	13.1259
0.323819	4.6281	0.122027	1.67264	0.860335	2.5941	0.475326	7.4201	0.7216	10.2669	0.272071	4.24249	0.538085	8.4127	0.816754	11.6984	0.906825	12.9169
0.323835	4.58094	0.124851	1.68414	0.857924	2.59606	0.477241	7.3154	0.722125	10.1049	0.274586	4.20443	0.538445	8.26603	0.817363	11.5128	0.907641	12.7151
0.323856	4.54444	0.127683	1.69539	0.855505	2.59801	0.47916	7.21449	0.722662	9.94838	0.277106	4.16781	0.538817	8.12475	0.817977	11.3333	0.908474	12.5201
0.323876	4.51804	0.130523	1.7064	0.853078	2.59994	0.481084	7.11716	0.72321	9.79698	0.279631	4.13254	0.539201	7.98857	0.818594	11.1596	0.909321	12.3315
0.323891	4.50133	0.13337	1.71717	0.850643	2.60186	0.483011	7.02323	0.723696	9.66906	0.28216	4.09853	0.539596	7.85724	0.819216	10.9915	0.910185	12.149
0.323915	4.47757	0.136225	1.72771	0.848198	2.60377	0.484942	6.93251	0.724118	9.56283	0.284693	4.06573	0.540004	7.73052	0.819842	10.8287	0.911063	11.9724
0.323945	4.45208	0.139087	1.73803	0.845744	2.60567	0.486876	6.84485	0.724471	9.4769	0.28723	4.03407	0.540424	7.60817	0.820472	10.6709	0.911958	11.8014
0.323992	4.41798	0.141955	1.74813	0.84328	2.60754	0.488814	6.76008	0.724754	9.41013	0.28977	4.00347	0.540856	7.48999	0.821105	10.5179	0.912867	11.6357
0.324063	4.37574	0.144831	1.75802	0.840806	2.6094	0.490754	6.67808	0.724963	9.36169	0.292312	3.97389	0.541302	7.37578	0.821742	10.3695	0.913793	11.4751
0.324164	4.32596	0.147712	1.76771	0.838321	2.61124	0.492697	6.59869	0.725098	9.33097	0.294857	3.94528	0.54176	7.26536	0.822383	10.2255	0.914734	11.3194
0.324304	4.26932	0.1506	1.77721	0.835825	2.61306	0.494643	6.52181	0.725293	9.2872	0.297404	3.91758	0.542232	7.15855	0.823026	10.0858	0.91569	11.1684
0.324495	4.20657	0.153494	1.78651	0.833318	2.61485	0.49659	6.44731	0.725506	9.24013	0.299952	3.89074	0.542717	7.05518	0.823673	9.94998	0.916662	11.0218
0.324717	4.14612	0.156393	1.79562	0.830798	2.61662	0.49854	6.37507	0.725799	9.17696	0.302501	3.86472	0.543216	6.95511	0.82424	9.83481	0.917649	10.8795
0.324973	4.08786	0.159298	1.80456	0.828267	2.61837	0.500491	6.305	0.726173	9.0984	0.30505	3.83949	0.543729	6.85819	0.824724	9.73886	0.918652	10.7413
0.32526	4.03171	0.162208	1.81331	0.825723	2.62009	0.502443	6.237	0.726631	9.00536	0.3076	3.81499	0.544256	6.76429	0.825126	9.66102	0.919669	10.6071
0.325581	3.97758	0.165123	1.8219	0.823167	2.62178	0.504397	6.17098	0.727176	8.89886	0.31015	3.7912	0.544797	6.67328	0.825444	9.6004	0.920703	10.4766
0.325934	3.92538	0.168043	1.83032	0.820597	2.62344	0.506351	6.10684	0.727814	8.78003	0.312699	3.76809	0.545353	6.58503	0.825679	9.55635	0.921751	10.3497
0.326322	3.87505	0.170968	1.83858	0.818015	2.62508	0.508307	6.04451	0.728463	8.66468	0.315248	3.74561	0.545924	6.49943	0.82583	9.52838	0.922815	10.2263
0.326743	3.8265	0.173898	1.84668	0.815419	2.62668	0.510262	5.9839	0.729125	8.55267	0.317796	3.72374	0.54651	6.41638	0.826046	9.48849	0.923894	10.1063
0.327198	3.77966	0.176832	1.85462	0.81281	2.62826	0.512219	5.92496	0.729799	8.44385	0.320343	3.70245	0.547111	6.33578	0.826282	9.44553	0.924846	10.0043
0.327688	3.73448	0.17977	1.86242	0.810188	2.6298	0.514175	5.8676	0.730486	8.3381	0.322887	3.68171	0.547728	6.25752	0.826602	9.38777	0.925667	9.91928
0.328212	3.69088	0.182712	1.87007	0.807552	2.63131	0.516131	5.81176	0.731185	8.23529	0.32543	3.66151	0.548361	6.18152	0.827009	9.31579	0.926352	9.8502
0.328772	3.64882	0.185659	1.87758	0.804903	2.63279	0.518086	5.75738	0.731897	8.13533	0.327971	3.6418	0.549009	6.10769	0.827502	9.23032	0.926897	9.79638
0.329367	3.60824	0.188609	1.88495	0.80224	2.63423	0.520042	5.7044	0.732622	8.03809	0.330509	3.62258	0.549674	6.03595	0.828083	9.13218	0.927301	9.75723
0.329999	3.56908	0.191563	1.89219	0.799564	2.63564	0.521996	5.65276	0.733359	7.94347	0.333045	3.60382	0.550355	5.96622	0.828751	9.02229	0.92756	9.73238
0.330667	3.53129	0.19452	1.89929	0.796875	2.63702	0.523949	5.60241	0.73411	7.85137	0.335578	3.5855	0.551053	5.89843	0.829422	8.91522	0.927934	9.6969
0.331372	3.49483	0.197482	1.90627	0.794173	2.63837	0.525902	5.55331	0.734873	7.76171	0.338107	3.56761	0.551768	5.8325	0.830095	8.81084	0.928342	9.65868
0.332114	3.45966	0.200446	1.91312	0.791457	2.63968	0.527853	5.5054	0.73565	7.67439	0.340633	3.55011	0.552499	5.76837	0.830771	8.70907	0.9289	9.60728
0.332894	3.42573	0.203414	1.91985	0.78873	2.64097	0.529802	5.45864	0.73644	7.58933	0.343155	3.533	0.553248	5.70599	0.831449	8.60981	0.929611	9.54317
0.333713	3.39301	0.206385	1.92646	0.785989	2.64222	0.53175	5.41298	0.737244	7.50644	0.345673	3.51626	0.554015	5.64527	0.832129	8.51296	0.930478	9.46699
0.334571	3.36145	0.209359	1.93296	0.783236	2.64344	0.533696	5.36838	0.738061	7.42566	0.348187	3.49988	0.554799	5.58618	0.832811	8.41844	0.931505	9.37944
0.335468	3.33103	0.212336	1.93934	0.780471	2.64462	0.53564	5.32481	0.738892	7.34691	0.350696	3.48383	0.555601	5.52865	0.833496	8.32618	0.932698	9.28131
0.336406	3.3017	0.215316	1.94562	0.777695	2.64578	0.537581	5.28223	0.739737	7.27011	0.353201	3.46811	0.556421	5.47263	0.834183	8.23608	0.933904	9.18559
0.337385	3.27344	0.218298	1.95179	0.774907	2.64691	0.53952	5.2406	0.740595	7.19521	0.355701	3.4527	0.557259	5.41808	0.834872	8.14807	0.935125	9.09221
0.338405	3.24622	0.221284	1.95785	0.772107	2.64801	0.541457	5.19988	0.741468	7.12214	0.358196	3.4376	0.558116	5.36493	0.835563	8.06209	0.93636	9.00108
0.339467	3.22001	0.223887	1.96304	0.769297	2.64907	0.54339	5.16005	0.742354	7.05084	0.360685	3.42277	0.558991	5.31316	0.836256	7.97806	0.93761	8.91212
0.340573	3.19479	0.226108	1.96742	0.766476	2.65012	0.545321	5.12108	0.743255	6.98125	0.363169	3.40823	0.559886	5.26271	0.836952	7.89592	0.938873	8.82527
0.341722	3.17052	0.227946	1.97099	0.763645	2.65113	0.547249	5.08293	0.74417	6.91332	0.365647	3.39395	0.560799	5.21354	0.83765	7.8156	0.940149	8.74044
0.342917	3.14719	0.229399	1.97379	0.760804	2.65212	0.549174	5.04557	0.745099	6.84699	0.36812	3.37993	0.561731	5.16561	0.838349	7.73706	0.94144	8.65758
0.344156	3.12476	0.230468	1.97583	0.757954	2.65308	0.551095	5.00899	0.746043	6.78221	0.370586	3.36615	0.562683	5.11889	0.839051	7.66022	0.942743	8.57662
0.345442	3.10323	0.231153	1.97713	0.755094	2.65402	0.553013	4.97315	0.747001	6.71894	0.373046	3.35261	0.563655	5.07334	0.839756	7.58504	0.944061	8.4975
0.346775	3.08258	0.232137	1.979	0.752225	2.65493	0.554927	4.93803	0.747974	6.65712	0.3755	3.33929	0.564646	5.02891	0.840462	7.51146	0.945391	8.42015
0.348156	3.06277	0.233207	1.98101	0.749347	2.65582	0.556837	4.9036	0.748962	6.59672	0.377947	3.32619	0.565657	4.98559	0.841171	7.43944	0.946734	8.34453
0.349586	3.04379	0.234662	1.98373	0.746461	2.65669	0.558743	4.86985	0.749964	6.53769	0.380388	3.31331	0.566688	4.94333	0.841882	7.36892	0.948091	8.27058
0.351065	3.02562	0.236504	1.98714	0.743566	2.65753	0.560645	4.83674	0.750981	6.47998	0.382821	3.30062	0.567739	4.9021	0.842595	7.29987	0.94946	8.19824
0.352595	3.00825	0.238732	1.99121	0.740665	2.65836	0.562543	4.80427	0.752013	6.42357	0.385248	3.28813	0.568811	4.86188	0.843311	7.23223	0.950842	8.12746
0.354175	2.99165	0.241347	1.99593	0.737755	2.65917	0.564437	4.77241	0.75306	6.3684	0.387667	3.27583	0.569903	4.82263	0.844029	7.16596	0.952236	8.0582
0.355807	2.97581	0.24435	2.00126	0.734838	2.65995	0.566327	4.74114	0.754123	6.31445	0.390079	3.26371	0.571015	4.78433	0.84475	7.10103	0.953642	7.99042
0.35749	2.96071	0.247355	2.0065	0.731915	2.66072	0.568211	4.71045	0.7552	6.26168	0.392484	3.25177	0.572148	4.74696	0.845473	7.03739	0.955061	7.92406
0.359226	2.94633	0.250362	2.01166	0.728985	2.66147	0.570091	4.68031	0.756292	6.21006	0.394881	3.23999	0.573302	4.71047	0.846199	6.97501	0.956492	7.85908
0.361014	2.93265	0.253371	2.01674	0.726048	2.6622	0.571967	4.65071	0.7574	6.15954	0.39727	3.22838	0.574477	4.67486	0.846927	6.91385	0.957934	7.79545
0.362855	2.91965	0.256381	2.02173	0.723106	2.66292	0.573837	4.62163	0.758522	6.11011	0.399652	3.21693	0.575673	4.64009	0.847658	6.85387	0.959389	7.73312
0.364748	2.90731	0.259393	2.02665	0.720157	2.66362	0.575703	4.59306	0.759661	6.06174	0.402026	3.20562	0.57689	4.60614	0.848392	6.79506	0.960854	7.67205
0.366693	2.89562	0.262407	2.03149	0.717203	2.66431	0.577564	4.56499	0.760814	6.01438	0.404392	3.19447	0.578128	4.573	0.849128	6.73736	0.962331	7.61222
0.36869	2.88454	0.265422	2.03626	0.714244	2.66498	0.579419	4.53739	0.761983	5.96802	0.40675	3.18346	0.579387	4.54063	0.849867	6.68076	0.96382	7.55358
0.370738	2.87406	0.268439	2.04095	0.711279	2.66564	0.58127	4.51025	0.763167	5.92263	0.4091	3.17259	0.580668	4.50902	0.85061	6.62521	0.965319	7.49609
0.372836	2.86416	0.271457	2.04557	0.708309	2.66629	0.583115	4.48357	0.764367	5.87818	0.411441	3.16185	0.581969	4.47815	0.851355	6.5707	0.966829	7.43973
0.374983	2.85481	0.274477	2.05011	0.705335	2.66692	0.584955	4.45733	0.765582	5.83464	0.413775	3.15125	0.583293	4.44799	0.852103	6.5172	0.96835	7.38447
0.377178	2.84598	0.277498	2.05459	0.702356	2.66755	0.586789	4.43151	0.766812	5.792	0.4161	3.14077	0.584637	4.41854	0.852854	6.46467	0.969882	7.33027
0.379419	2.83766	0.28052	2.059	0.699373	2.66816	0.588618	4.40611	0.768058	5.75022	0.418418	3.13041	0.586003	4.38976	0.853609	6.4131	0.971424	7.27711
0.381706	2.82982	0.283543	2.06334	0.696386	2.66876	0.590442	4.38111	0.76932	5.70929	0.420726	3.12017	0.587391	4.36165	0.854366	6.36246	0.972976	7.22495
0.384036	2.82243	0.286567	2.06762	0.693394	2.66936	0.59226	4.35651	0.770597	5.66919	0.423027	3.11005	0.5888	4.33419	0.855127	6.31273	0.974538	7.17377
0.386408	2.81548	0.289593	2.07183	0.690399	2.66994	0.594073	4.33228	0.771889	5.62988	0.425319	3.10004	0.59023	4.30735	0.855892	6.26387	0.97611	7.12355
0.38882	2.80893	0.292619	2.07598	0.6874	2.67051	0.59588	4.30843	0.773197	5.59136	0.427603	3.09015	0.591682	4.28112	0.85666	6.21588	0.977692	7.07425
0.39127	2.80277	0.295647	2.08007	0.684398	2.67108	0.597682	4.28495	0.77452	5.5536	0.429879	3.08036	0.593155	4.2555	0.857431	6.16873	0.979284	7.02585
0.393757	2.79698	0.298675	2.0841	0.681393	2.67164	0.599478	4.26182	0.775859	5.51658	0.432146	3.07067	0.59465	4.23045	0.858206	6.12239	0.980885	6.97833
0.396279	2.79152	0.301705	2.08806	0.678384	2.67219	0.601268	4.23903	0.777213	5.48028	0.434405	3.06109	0.596166	4.20597	0.858985	6.07686	0.982495	6.93167
0.398834	2.78639	0.304735	2.09197	0.675373	2.67273	0.603053	4.21658	0.778582	5.44469	0.436656	3.05161	0.597703	4.18204	0.859767	6.0321	0.984114	6.88584
0.40142	2.78155	0.307765	2.09582	0.672358	2.67327	0.604832	4.19445	0.779966	5.40979	0.438899	3.04223	0.599261	4.15865	0.860554	5.98811	0.985742	6.84082
0.404035	2.777	0.310797	2.09961	0.669341	2.6738	0.606606	4.17265	0.781366	5.37556	0.441134	3.03295	0.60084	4.13579	0.861344	5.94486	0.987379	6.79659
0.406678	2.7727	0.313829	2.10335	0.666321	2.67433	0.608374	4.15116	0.782781	5.34198	0.443361	3.02376	0.602441	4.11344	0.862138	5.90233	0.989024	6.75314
0.409348	2.76866	0.316862	2.10703	0.663299	2.67485	0.610137	4.12998	0.784211	5.30904	0.44558	3.01466	0.604062	4.09158	0.862936	5.86051	0.990678	6.71043
0.412041	2.76484	0.319895	2.11066	0.660274	2.67537	0.611894	4.10909	0.785656	5.27672	0.447791	3.00565	0.605704	4.07021	0.863739	5.81938	0.99234	6.66846
0.414758	2.76123	0.322929	2.11424	0.657247	2.67588	0.613646	4.0885	0.787116	5.24501	0.449994	2.99674	0.607367	4.04932	0.864546	5.77893	0.99401	6.6272
0.417497	2.75783	0.325963	2.11777	0.654218	2.67639	0.615392	4.06819	0.78859	5.21389	0.45219	2.98791	0.60905	4.02889	0.865357	5.73915	0.995688	6.58663
0.420256	2.75461	0.328998	2.12124	0.651187	2.6769	0.617133	4.04816	0.79008	5.18335	0.454378	2.97917	0.610753	4.0089	0.866172	5.7	0.997374	6.54675
0.423034	2.75157	0.332033	2.12466	0.648155	2.6774	0.618868	4.0284	0.791584	5.15338	0.456559	2.97052	0.612477	3.98936	0.866992	5.66149	0.999067	6.50752
0.42583	2.74868	0.335068	2.12804	0.64512	2.6779	0.620598	4.00891	0.793103	5.12395	0.458733	2.96195	0.614221	3.97024	0.867817	5.6236	1.00077	6.46894
0.428643	2.74595	0.338103	2.13136	0.642084	2.6784	0.622324	3.98968	0.794636	5.09507	0.4609	2.95346	0.615984	3.95153	0.868646	5.58631		
0.431472	2.74336	0.341139	2.13464	0.639046	2.6789	0.624043	3.97071	0.796184	5.0667	0.46306	2.94506	0.617768	3.93324	0.86948	5.54961		
0.434315	2.7409	0.344175	2.13787	0.636006	2.6794	0.625758	3.95199	0.797745	5.03885	0.465213	2.93675	0.61957	3.91534	0.870319	5.51349		
0.437172	2.73856	0.34721	2.14105	0.632965	2.67989	0.627468	3.93351	0.799321	5.0115	0.46736	2.92851	0.621392	3.89782	0.871163	5.47794		
0.440041	2.73633	0.350246	2.14419	0.629923	2.68039	0.629173	3.91527	0.800911	4.98464	0.4695	2.92036	0.623234	3.88068	0.872012	5.44294		
0.442923	2.73422	0.353282	2.14729	0.62688	2.68088	0.630874	3.89727	0.802515	4.95825	0.471634	2.91228	0.625093	3.86391	0.872865	5.40849		
0.445816	2.7322	0.356318	2.15033	0.623835	2.68137	0.632569	3.8795	0.804133	4.93233	0.473762	2.90429	0.626972	3.84749	0.873724	5.37456		
0.44872	2.73028	0.359353	2.15334	0.62079	2.68187	0.63426	3.86196	0.805764	4.90687	0.475884	2.89637	0.628869	3.83143	0.874589	5.34116		
0.451634	2.72844	0.362389	2.1563	0.617743	2.68236	0.635947	3.84464	0.807409	4.88185	0.478001	2.88854	0.630784	3.8157	0.875458	5.30826		
0.454557	2.72669	0.365424	2.15922	0.614696	2.68286	0.637629	3.82754	0.809066	4.85726	0.480113	2.88078	0.632717	3.8003	0.876333	5.27587		
0.457489	2.72501	0.368459	2.1621	0.611648	2.68336	0.639307	3.81065	0.810737	4.8331	0.482219	2.8731	0.634667	3.78522	0.877213	5.24396		
0.460429	2.7234	0.371494	2.16493	0.608599	2.68386	0.64098	3.79398	0.812421	4.80935	0.48432	2.8655	0.636635	3.77045	0.878099	5.21253		
0.463376	2.72186	0.374528	2.16773	0.605549	2.68436	0.64265	3.77751	0.814118	4.786	0.486417	2.85798	0.63862	3.75599	0.878991	5.18158		
0.466331	2.72039	0.377561	2.17048	0.602499	2.68487	0.644316	3.76124	0.815828	4.76305	0.488509	2.85054	0.640621	3.74183	0.879888	5.15108		
0.469293	2.71897	0.380594	2.17319	0.599449	2.68538	0.645978	3.74518	0.81755	4.74049	0.490598	2.84317	0.642639	3.72795	0.880791	5.12104		
0.472261	2.71761	0.383627	2.17587	0.596398	2.68589	0.647636	3.72931	0.819284	4.7183	0.492682	2.83588	0.644674	3.71436	0.8817	5.09144		
0.475235	2.71631	0.386659	2.1785	0.593346	2.6864	0.649291	3.71364	0.82103	4.69648	0.494763	2.82867	0.646724	3.70104	0.882615	5.06227		
0.478215	2.71505	0.38969	2.1811	0.590295	2.68692	0.650942	3.69816	0.822789	4.67503	0.49684	2.82153	0.64879	3.68799	0.883536	5.03353		
0.4812	2.71384	0.392721	2.18366	0.587243	2.68745	0.65259	3.68287	0.824559	4.65392	0.498914	2.81447	0.650871	3.6752	0.884463	5.0052		
0.48419	2.71267	0.395751	2.18618	0.584191	2.68798	0.654236	3.66776	0.82634	4.63316	0.500985	2.80749	0.652967	3.66267	0.885397	4.97729		
0.487184	2.71154	0.398779	2.18866	0.581139	2.68852	0.655878	3.65283	0.828133	4.61273	0.503053	2.80059	0.655078	3.65038	0.886337	4.94978		
0.490183	2.71046	0.401807	2.1911	0.578088	2.68906	0.657517	3.63808	0.829937	4.59263	0.505119	2.79376	0.657204	3.63833	0.887283	4.92267		
0.493186	2.70941	0.404834	2.19351	0.575036	2.68961	0.659154	3.62351	0.831753	4.57285	0.507183	2.78701	0.659343	3.62651	0.888235	4.89594		
0.496193	2.70839	0.40786	2.19589	0.571985	2.69017	0.660788	3.60911	0.833579	4.55339	0.509245	2.78033	0.661497	3.61492	0.889194	4.86959		
0.499204	2.70741	0.410885	2.19822	0.568934	2.69073	0.66242	3.59489	0.835415	4.53423	0.511306	2.77374	0.663663	3.60355	0.89016	4.84362		
0.502218	2.70645	0.413908	2.20053	0.565883	2.69131	0.66405	3.58083	0.837262	4.51538	0.513365	2.76722	0.665843	3.5924	0.891133	4.81802		
0.505235	2.70553	0.41693	2.20279	0.562833	2.69189	0.665678	3.56694	0.839119	4.49681	0.515423	2.76077	0.668036	3.58146	0.892112	4.79277		
0.508255	2.70464	0.419951	2.20502	0.559784	2.69248	0.667304	3.55321	0.840986	4.47853	0.517481	2.75441	0.670241	3.57072	0.893098	4.76788		
0.511278	2.70377	0.422971	2.20722	0.556735	2.69308	0.668929	3.53965	0.842863	4.46053	0.519538	2.74812	0.672459	3.56019	0.894091	4.74334		
0.514304	2.70292	0.425989	2.20938	0.553687	2.69369	0.670551	3.52625	0.84475	4.44281	0.521595	2.7419	0.674688	3.54984	0.895091	4.71914		
0.517332	2.7021	0.429005	2.21151	0.55064	2.69431	0.672173	3.513	0.846646	4.42535	0.523651	2.73577	0.676929	3.53968	0.896098	4.69528		
0.520362	2.7013	0.43202	2.2136	0.547593	2.69495	0.673793	3.49991	0.848551	4.40815	0.525708	2.72971	0.679182	3.52971	0.897113	4.67175		
0.523395	2.70052	0.435033	2.21566	0.544548	2.6956	0.675412	3.48698	0.850465	4.39121	0.527766	2.72372	0.681445	3.51991	0.898135	4.64854		
0.52643	2.69976	0.438044	2.21768	0.541504	2.69626	0.677031	3.4742	0.852387	4.37452	0.529825	2.71782	0.683719	3.51029	0.899164	4.62565		
0.529466	2.69902	0.441054	2.21968	0.538461	2.69693	0.678648	3.46156	0.854319	4.35807	0.531884	2.71199	0.686003	3.50083	0.900201	4.60308		
0.532505	2.6983	0.444061	2.22164	0.53542	2.69762	0.680265	3.44908	0.856258	4.34186	0.533946	2.70624	0.688298	3.49154	0.901245	4.58081		
0.535544	2.6976	0.447067	2.22356	0.53238	2.69833	0.681882	3.43674	0.858206	4.32589	0.536008	2.70056	0.690602	3.48241	0.902297	4.55885		
0.538586	2.69691	0.45007	2.22546	0.529342	2.69905	0.683499	3.42455	0.860162	4.31014	0.538073	2.69496	0.692915	3.47344	0.903356	4.53719		
0.541629	2.69623	0.453071	2.22732	0.526305	2.69979	0.685115	3.4125	0.862125	4.29462	0.54014	2.68944	0.695238	3.46461	0.904423	4.51582		
0.544673	2.69557	0.45607	2.22914	0.523271	2.70055	0.686732	3.40059	0.864096	4.27931	0.542209	2.68399	0.697569	3.45593	0.905499	4.49474		
0.547718	2.69492	0.459067	2.23094	0.520238	2.70133	0.688349	3.38882	0.866074	4.26422	0.544281	2.67862	0.699909	3.4474	0.906582	4.47394		
0.550764	2.69429	0.462061	2.2327	0.517208	2.70213	0.689966	3.37718	0.868059	4.24934	0.546356	2.67333	0.702257	3.439	0.907673	4.45343		
0.553812	2.69367	0.465052	2.23443	0.51418	2.70296	0.691584	3.36569	0.870051	4.23466	0.548435	2.66811	0.704613	3.43074	0.908772	4.43319		
0.55686	2.69305	0.468041	2.23613	0.511154	2.7038	0.693203	3.35433	0.87205	4.22018	0.550516	2.66297	0.706976	3.42261	0.90988	4.41322		
0.559908	2.69245	0.471027	2.2378	0.508131	2.70467	0.694823	3.3431	0.874055	4.2059	0.552602	2.65791	0.709347	3.4146	0.910996	4.39352		
0.562958	2.69186	0.47401	2.23943	0.505111	2.70557	0.696444	3.33201	0.876066	4.19181	0.554691	2.65292	0.711725	3.40672	0.91212	4.37408		
0.566008	2.69128	0.47699	2.24103	0.502094	2.70649	0.698066	3.32104	0.878083	4.1779	0.556785	2.64801	0.71411	3.39896	0.913253	4.3549		
0.569059	2.69071	0.479967	2.2426	0.49908	2.70745	0.699689	3.31021	0.880107	4.16418	0.558883	2.64317	0.716501	3.39132	0.914395	4.33597		
0.57211	2.69014	0.482941	2.24414	0.49607	2.70843	0.701315	3.2995	0.882135	4.15063	0.560986	2.63841	0.718898	3.38379	0.915545	4.3173		
0.575161	2.68959	0.485911	2.24564	0.493063	2.70945	0.702942	3.28892	0.88417	4.13726	0.563094	2.63373	0.721301	3.37638	0.916703	4.29888		
0.578213	2.68904	0.488879	2.24712	0.49006	2.7105	0.704571	3.27846	0.886209	4.12406	0.565207	2.62912	0.72371	3.36907	0.917871	4.28069		
0.581264	2.6885	0.491842	2.24856	0.487061	2.71159	0.706202	3.26813	0.888254	4.11103	0.567326	2.62459	0.726125	3.36186	0.919048	4.26275		
0.584316	2.68796	0.494802	2.24997	0.484067	2.71272	0.707835	3.25792	0.890303	4.09816	0.56945	2.62013	0.728544	3.35476	0.920233	4.24505		
0.587368	2.68743	0.497758	2.25135	0.481077	2.71389	0.709471	3.24783	0.892357	4.08545	0.571581	2.61575	0.730968	3.34775	0.921428	4.22757		
0.59042	2.6869	0.500711	2.25269	0.478093	2.7151	0.711109	3.23787	0.894416	4.0729	0.573717	2.61144	0.733397	3.34084	0.922632	4.21033		
0.593471	2.68638	0.503659	2.25401	0.475113	2.71636	0.71275	3.22802	0.896478	4.0605	0.57586	2.60721	0.73583	3.33403	0.923845	4.19332		
0.596522	2.68587	0.506603	2.25529	0.472139	2.71767	0.714394	3.21828	0.898545	4.04826	0.578009	2.60305	0.738266	3.3273	0.925068	4.17652		
0.599573	2.68535	0.509544	2.25654	0.469172	2.71903	0.716041	3.20867	0.900615	4.03615	0.580166	2.59897	0.740707	3.32066	0.926299	4.15995		
0.602624	2.68485	0.512479	2.25776	0.46621	2.72045	0.717691	3.19917	0.90269	4.0242	0.582329	2.59496	0.743151	3.31411	0.927541	4.1436		
0.605674	2.68434	0.51541	2.25894	0.463256	2.72193	0.719345	3.18978	0.904767	4.01238	0.5845	2.59103	0.745599	3.30764	0.928792	4.12746		
0.608724	2.68384	0.518337	2.2601	0.460308	2.72347	0.721002	3.18051	0.906848	4.0007	0.586678	2.58717	0.74805	3.30125	0.930053	4.11153		
0.611772	2.68334	0.521259	2.26122	0.457369	2.72507	0.722663	3.17135	0.908932	3.98915	0.588864	2.58338	0.750503	3.29494	0.931324	4.09581		
0.614821	2.68284	0.524176	2.2623	0.454437	2.72676	0.724327	3.1623	0.911019	3.97774	0.591058	2.57967	0.752959	3.28871	0.932605	4.08029		
0.617868	2.68234	0.527088	2.26336	0.451514	2.72851	0.725996	3.15336	0.913109	3.96645	0.593261	2.57603	0.755417	3.28255	0.933896	4.06498		
0.620915	2.68185	0.529995	2.26438	0.448601	2.73035	0.727669	3.14453	0.915202	3.95529	0.595471	2.57247	0.757877	3.27646	0.935196	4.04987		
0.62396	2.68135	0.532897	2.26537	0.445698	2.73228	0.729346	3.13581	0.917296	3.94426	0.59769	2.56897	0.760339	3.27044	0.936507	4.03495		
0.627005	2.68086	0.535793	2.26633	0.442805	2.7343	0.731027	3.12719	0.919393	3.93334	0.599918	2.56556	0.762803	3.26449	0.937829	4.02023		
0.630048	2.68036	0.538684	2.26726	0.439924	2.73642	0.732714	3.11868	0.921492	3.92254	0.602156	2.56221	0.765268	3.25861	0.939161	4.0057		
0.63309	2.67987	0.541569	2.26815	0.437054	2.73865	0.734405	3.11028	0.923593	3.91186	0.604402	2.55894	0.767734	3.25278	0.940503	3.99137		
0.636131	2.67938	0.544448	2.26901	0.434198	2.74099	0.736101	3.10198	0.925696	3.90129	0.606658	2.55573	0.770201	3.24702	0.941856	3.97722		
0.63917	2.67888	0.547322	2.26984	0.431356	2.74346	0.737802	3.09378	0.9278	3.89084	0.608923	2.5526	0.772669	3.24132	0.943219	3.96325		
0.642208	2.67838	0.550189	2.27063	0.428528	2.74606	0.739508	3.08569	0.929905	3.88049	0.611198	2.54955	0.775137	3.23568	0.944593	3.94947		
0.645244	2.67788	0.553051	2.27139	0.425716	2.7488	0.74122	3.0777	0.932012	3.87024	0.613483	2.54656	0.777605	3.23009	0.945978	3.93586		
0.648279	2.67738	0.555906	2.27212	0.42292	2.75169	0.742938	3.06981	0.93412	3.86011	0.615779	2.54364	0.780074	3.22456	0.947374	3.92244		
0.651312	2.67688	0.558755	2.27282	0.420143	2.75474	0.744661	3.06202	0.936228	3.85007	0.618084	2.5408	0.782542	3.21908	0.948781	3.90919		
0.654343	2.67637	0.561597	2.27348	0.417385	2.75797	0.74639	3.05433	0.938337	3.84013	0.6204	2.53802	0.78501	3.21366	0.9502	3.89612		
0.657371	2.67586	0.564433	2.27411	0.414647	2.76138	0.748126	3.04674	0.940447	3.83029	0.622727	2.53532	0.787477	3.20828	0.951629	3.88321		
0.660398	2.67535	0.567262	2.27471	0.411931	2.76499	0.749868	3.03924	0.942558	3.82055	0.625065	2.53268	0.789944	3.20295	0.95307	3.87048		
0.663423	2.67483	0.570084	2.27527	0.409238	2.76882	0.751616	3.03184	0.944668	3.8109	0.627413	2.53012	0.792409	3.19767	0.954522	3.85791		
0.666445	2.67431	0.572899	2.27581	0.406569	2.77287	0.753371	3.02455	0.946779	3.80134	0.629773	2.52762	0.794874	3.19243	0.955986	3.84551		
0.669465	2.67378	0.575708	2.2763	0.403927	2.77718	0.755132	3.01734	0.94889	3.79188	0.632144	2.52519	0.797337	3.18723	0.957461	3.83327		
0.672482	2.67325	0.578509	2.27677	0.401313	2.78174	0.756901	3.01023	0.951	3.7825	0.634527	2.52283	0.799798	3.18208	0.958948	3.82119		
0.675496	2.67271	0.581303	2.27721	0.398729	2.78659	0.758677	3.00322	0.95311	3.7732	0.63692	2.52054	0.802258	3.17697	0.960446	3.80928		
0.678507	2.67217	0.584091	2.27761	0.396175	2.79174	0.76046	2.9963	0.95522	3.76399	0.639326	2.51832	0.804716	3.1719	0.961957	3.79752		
0.681516	2.67161	0.58687	2.27798	0.393655	2.79721	0.762251	2.98948	0.957329	3.75487	0.641743	2.51616	0.807171	3.16687	0.963479	3.78591		
0.684521	2.67106	0.589643	2.27832	0.391169	2.80302	0.76405	2.98274	0.959438	3.74582	0.644172	2.51406	0.809625	3.16188	0.965014	3.77447		
0.687523	2.67049	0.592408	2.27863	0.38872	2.80919	0.765856	2.97611	0.961545	3.73686	0.646613	2.51204	0.812075	3.15692	0.96656	3.76317		
0.690522	2.66991	0.595166	2.27891	0.38631	2.81576	0.767671	2.96956	0.963652	3.72797	0.649066	2.51007	0.814524	3.15199	0.968119	3.75202		
0.693517	2.66933	0.597917	2.27915	0.383939	2.82273	0.769495	2.9631	0.965758	3.71916	0.651531	2.50818	0.816969	3.1471	0.96969	3.74102		
0.696508	2.66874	0.60066	2.27937	0.381611	2.83013	0.771327	2.95674	0.967862	3.71042	0.654008	2.50634	0.819411	3.14225	0.971273	3.73017		
0.699495	2.66814	0.603395	2.27956	0.379326	2.83799	0.773167	2.95047	0.969965	3.70176	0.656498	2.50457	0.821851	3.13742	0.972869	3.71947		
0.702478	2.66752	0.606123	2.27971	0.377087	2.84633	0.775017	2.94428	0.972066	3.69317	0.658999	2.50286	0.824286	3.13263	0.974477	3.7089		
0.705457	2.6669	0.608844	2.27984	0.374894	2.85518	0.776876	2.93819	0.974166	3.68465	0.661513	2.50121	0.826719	3.12786	0.976098	3.69848		
0.708431	2.66626	0.611558	2.27994	0.372749	2.86455	0.778745	2.93219	0.976265	3.6762	0.664039	2.49962	0.829148	3.12313	0.977732	3.6882		
0.7114	2.66562	0.614264	2.28001	0.370653	2.87448	0.780623	2.92628	0.978361	3.66782	0.666577	2.4981	0.831573	3.11842	0.979378	3.67806		
0.714365	2.66496	0.616962	2.28005	0.368608	2.88498	0.782512	2.92046	0.980456	3.6595	0.669127	2.49663	0.833994	3.11374	0.981037	3.66806		
0.717324	2.66428	0.619654	2.28007	0.366613	2.89608	0.784411	2.91472	0.982548	3.65125	0.67169	2.49522	0.836411	3.10908	0.982708	3.65819		
0.720278	2.66359	0.622338	2.28006	0.36467	2.9078	0.78632	2.90908	0.984639	3.64307	0.674265	2.49386	0.838824	3.10445	0.984393	3.64845		
0.723226	2.66289	0.625015	2.28002	0.362779	2.92017	0.788241	2.90352	0.986727	3.63494	0.676851	2.49257	0.841232	3.09984	0.986091	3.63885		
0.726169	2.66217	0.627685	2.27996	0.36094	2.93319	0.790172	2.89806	0.988813	3.62688	0.67945	2.49132	0.843636	3.09526	0.987801	3.62938		
0.729105	2.66144	0.630348	2.27988	0.359154	2.9469	0.792115	2.89268	0.990896	3.61888	0.682061	2.49014	0.846036	3.0907	0.989525	3.62004		
0.732035	2.66069	0.633004	2.27976	0.35742	2.96131	0.794069	2.88739	0.992977	3.61094	0.684684	2.489	0.84843	3.08616	0.991262	3.61082		
0.734958	2.65992	0.635653	2.27963	0.355739	2.97644	0.796035	2.88219	0.995056	3.60305	0.687319	2.48792	0.85082	3.08164	0.993012	3.60173		
0.737874	2.65913	0.638296	2.27947	0.354109	2.99231	0.798014	2.87708	0.997131	3.59523	0.689965	2.48689	0.853205	3.07715	0.994775	3.59277		
0.740784	2.65833	0.640932	2.2793	0.352531	3.00894	0.800006	2.87205	0.999204	3.58746	0.692623	2.48591	0.855585	3.07267	0.996551	3.58393		
0.743685	2.6575	0.643562	2.2791	0.351004	3.02635	0.80201	2.86712	1.00127	3.57974	0.695293	2.48498	0.85796	3.06821	0.99834	3.57522		
0.746579	2.65665	0.646185	2.27888	0.349526	3.04455	0.804027	2.86227			0.697973	2.4841	0.86033	3.06378	1.00014	3.56662		
0.749465	2.65578	0.648803	2.27863	0.348099	3.06356	0.806058	2.85751			0.700666	2.48327	0.862694	3.05936				
0.752342	2.65489	0.651414	2.27838	0.34672	3.0834	0.808103	2.85284			0.703369	2.48248	0.865053	3.05495				
0.755211	2.65398	0.65402	2.2781	0.345389	3.1041	0.810163	2.84826			0.706083	2.48174	0.867407	3.05057				
0.75807	2.65304	0.656619	2.2778	0.344105	3.12567	0.812237	2.84377			0.708808	2.48104	0.869754	3.0462				
0.760921	2.65208	0.659214	2.27749	0.342867	3.14812	0.814325	2.83937			0.711544	2.48038	0.872097	3.04185				
0.763761	2.65109	0.661803	2.27716	0.341674	3.17149	0.81643	2.83506			0.71429	2.47977	0.874433	3.03751				
0.766592	2.65007	0.664386	2.27682	0.340527	3.1958	0.818549	2.83083			0.717047	2.47919	0.876764	3.03319				
0.769413	2.64903	0.666965	2.27646	0.339423	3.22107	0.820685	2.8267			0.719814	2.47866	0.879089	3.02889				
0.772222	2.64796	0.669539	2.27609	0.338362	3.24732	0.822837	2.82265			0.72259	2.47817	0.881408	3.0246				
0.775021	2.64686	0.672108	2.27571	0.337344	3.27458	0.825006	2.8187			0.725377	2.47771	0.883722	3.02032				
0.777809	2.64573	0.674672	2.27531	0.336367	3.30288	0.827191	2.81483			0.728173	2.47729	0.886029	3.01606				
0.780585	2.64458	0.677233	2.27491	0.335431	3.33225	0.829394	2.81105			0.730979	2.4769	0.88833	3.01181				
0.783349	2.64339	0.679789	2.27449	0.334535	3.36272	0.831615	2.80736			0.733793	2.47655	0.890626	3.00757				
0.786102	2.64217	0.682341	2.27406	0.333679	3.39433	0.833853	2.80377			0.736617	2.47623	0.892915	3.00335				
0.788841	2.64091	0.684889	2.27362	0.332862	3.4271	0.836109	2.80026			0.73945	2.47594	0.895199	2.99914				
0.791569	2.63963	0.687434	2.27318	0.332083	3.46108	0.838384	2.79684			0.742291	2.47569	0.897476	2.99495				
0.794284	2.63832	0.689975	2.27272	0.331342	3.4963	0.840678	2.79351			0.745141	2.47546	0.899748	2.99077				
0.796985	2.63697	0.692513	2.27226	0.330639	3.53281	0.84299	2.79026			0.747999	2.47526	0.902013	2.9866				
0.799674	2.63559	0.695047	2.27179	0.329972	3.57065	0.845321	2.78711			0.750865	2.4751	0.904273	2.98244				
0.802349	2.63417	0.697579	2.27132	0.329342	3.60987	0.847672	2.78404			0.753739	2.47495	0.906526	2.9783				
0.805011	2.63273	0.700108	2.27084	0.328748	3.65052	0.850041	2.78106			0.75662	2.47484	0.908774	2.97417				
0.80766	2.63125	0.702634	2.27036	0.32819	3.69264	0.85243	2.77816			0.759509	2.47475	0.911015	2.97005				
0.810295	2.62973	0.705158	2.26987	0.327667	3.7363	0.854839	2.77535			0.762406	2.47469	0.913251	2.96594				
0.812917	2.62819	0.707679	2.26938	0.327179	3.78155	0.857266	2.77262			0.765309	2.47464	0.915481	2.96185				
0.815526	2.62662	0.710199	2.26888	0.326725	3.82845	0.859714	2.76998			0.76822	2.47462	0.917705	2.95776				
0.818121	2.62501	0.712716	2.26838	0.326305	3.87707	0.86218	2.76742			0.771137	2.47463	0.919923	2.95369				
0.820703	2.62338	0.715231	2.26788	0.325919	3.92748	0.864666	2.76494			0.774061	2.47465	0.922136	2.94964				
0.823271	2.62171	0.717745	2.26738	0.325567	3.97976	0.867171	2.76254			0.776992	2.4747	0.924342	2.94559				
0.825828	2.62002	0.720257	2.26687	0.325248	4.03397	0.869695	2.76021			0.779928	2.47476	0.926544	2.94156				
0.828371	2.6183	0.722767	2.26637	0.324961	4.0902	0.872237	2.75797			0.782871	2.47484	0.92874	2.93754				
0.830902	2.61655	0.725276	2.26586	0.324708	4.14855	0.874798	2.7558			0.78582	2.47495	0.93093	2.93353				
0.833421	2.61478	0.727784	2.26536	0.324486	4.20909	0.877377	2.7537			0.788774	2.47506	0.933115	2.92954				
0.835928	2.61298	0.730291	2.26485	0.324297	4.27194	0.879974	2.75167			0.791734	2.4752	0.935295	2.92556				
0.838423	2.61116	0.732797	2.26435	0.324139	4.3372	0.882589	2.74971			0.7947	2.47535	0.937469	2.92159				
0.840908	2.60932	0.735302	2.26384	0.324013	4.40497	0.885221	2.74782			0.797671	2.47552	0.939638	2.91763				
0.843381	2.60747	0.737806	2.26334	0.323918	4.47538	0.887869	2.746			0.800647	2.4757	0.941803	2.91369				
0.845845	2.60559	0.740309	2.26284	0.323853	4.54856	0.890534	2.74424			0.803628	2.47589	0.943962	2.90976				
0.848299	2.60369	0.742812	2.26234	0.323819	4.62463	0.893215	2.74254			0.806614	2.4761	0.946117	2.90585				
0.850743	2.60178	0.745315	2.26184	0.323816	4.70375	0.895912	2.7409			0.809605	2.47633	0.948266	2.90195				
0.853178	2.59986	0.747817	2.26135	0.323842	4.78606	0.898624	2.73932			0.8126	2.47656	0.950412	2.89806				
0.855604	2.59793	0.750319	2.26086	0.323899	4.87175	0.90135	2.7378			0.8156	2.47681	0.952552	2.89419				
0.858023	2.59598	0.75282	2.26037	0.323984	4.96097	0.904091	2.73633			0.818605	2.47707	0.954688	2.89033				
0.860434	2.59402	0.755322	2.25988	0.324099	5.05393	0.906846	2.73491			0.821613	2.47733	0.95682	2.88648				
0.862837	2.59206	0.757824	2.2594	0.324242	5.15083	0.909614	2.73354			0.824626	2.47761	0.958948	2.88265				
0.865235	2.59009	0.760325	2.25892	0.324414	5.25188	0.912394	2.73222			0.827643	2.47791	0.961072	2.87884				
0.867625	2.58812	0.762827	2.25845	0.324614	5.35733	0.915187	2.73095			0.830664	2.4782	0.963191	2.87504				
0.87001	2.58614	0.765329	2.25798	0.324842	5.46744	0.917992	2.72972			0.833688	2.47851	0.965307	2.87125				
0.87239	2.58416	0.767832	2.25751	0.325098	5.58246	0.920809	2.72853			0.836716	2.47883	0.967419	2.86748				
0.874765	2.58218	0.770334	2.25705	0.32538	5.70272	0.923637	2.72739			0.839748	2.47916	0.969528	2.86373				
0.877135	2.5802	0.772838	2.25659	0.325689	5.82853	0.926475	2.72628			0.842784	2.47949	0.971633	2.85999				
0.879501	2.57823	0.775341	2.25614	0.326025	5.96024	0.929323	2.72521			0.845823	2.47983	0.973734	2.85627				
0.881864	2.57625	0.777846	2.25569	0.326386	6.09823	0.932181	2.72418			0.848865	2.48018	0.975833	2.85256				
0.884223	2.57428	0.78035	2.25525	0.326773	6.24293	0.935049	2.72318			0.85191	2.48054	0.977928	2.84887				
0.886579	2.57231	0.782856	2.25481	0.327185	6.39478	0.937926	2.72222			0.854959	2.4809	0.98002	2.8452				
0.888933	2.57036	0.785362	2.25437	0.327622	6.55429	0.940811	2.72128			0.85801	2.48127	0.982109	2.84154				
0.891285	2.5684	0.787869	2.25394	0.328083	6.72199	0.943705	2.72038			0.861065	2.48165	0.984196	2.8379				
0.893635	2.56646	0.790377	2.25352	0.328568	6.8985	0.946606	2.7195			0.864122	2.48203	0.98628	2.83428				
0.895983	2.56452	0.792885	2.2531	0.329076	7.08446	0.949515	2.71866			0.867182	2.48242	0.988361	2.83068				
0.898331	2.5626	0.795395	2.25269	0.329606	7.2806	0.952431	2.71783			0.870245	2.48281	0.99044	2.82709				
0.900677	2.56068	0.797905	2.25228	0.330159	7.48772	0.955355	2.71704			0.873311	2.48321	0.992517	2.82352				
0.903023	2.55878	0.800417	2.25188	0.330733	7.70673	0.958284	2.71627			0.876379	2.48361	0.994591	2.81997				
0.905369	2.55689	0.802929	2.25148	0.331251	7.90803	0.96122	2.71552			0.87945	2.48401	0.996664	2.81643				
0.907715	2.55501	0.805443	2.25109	0.331704	8.08789	0.964163	2.71479			0.882524	2.48443	0.998735	2.81292				
0.910061	2.55314	0.807957	2.25071	0.332087	8.24273	0.967111	2.71409			0.885599	2.48484	1.0008	2.80942				
0.912408	2.55129	0.810473	2.25033	0.332395	8.36929	0.970064	2.7134			0.888677	2.48526						
0.914755	2.54946	0.81299	2.24995	0.332624	8.46477	0.973023	2.71273			0.891758	2.48568						
0.917104	2.54763	0.815508	2.24958	0.332837	8.55449	0.975986	2.71209			0.89484	2.48611						
0.919453	2.54583	0.818027	2.24922	0.332987	8.618	0.978955	2.71146			0.897925	2.48654						
0.921804	2.54403	0.820547	2.24886	0.333222	8.71907	0.981928	2.71084			0.901012	2.48697						
0.924157	2.54226	0.823069	2.24851	0.333546	8.86025	0.984906	2.71024			0.904101	2.4874						
0.926512	2.5405	0.825591	2.24817	0.333962	9.04523	0.987887	2.70966			0.907192	2.48784						
0.928868	2.53876	0.828115	2.24783	0.334472	9.27909	0.990873	2.70909			0.910285	2.48828						
0.931227	2.53703	0.830641	2.24749	0.335083	9.56866	0.993862	2.70854			0.913379	2.48872						
0.933588	2.53532	0.833167	2.24716	0.335799	9.92304	0.996855	2.708			0.916476	2.48917						
0.935952	2.53363	0.835695	2.24684	0.336529	10.3034	0.999852	2.70747			0.919574	2.48961						
0.938318	2.53196	0.838225	2.24652	0.337272	10.7127	1.00285	2.70695			0.922675	2.49006						
0.940687	2.53031	0.840755	2.24621	0.338027	11.1543					0.925777	2.49051						
0.943059	2.52867	0.843287	2.2459	0.338793	11.6319					0.92888	2.49096						
0.945434	2.52706	0.845821	2.2456	0.339569	12.1501					0.931986	2.49142						
0.947813	2.52546	0.848356	2.2453	0.340352	12.7143					0.935092	2.49187						
0.950194	2.52388	0.850892	2.24501	0.341141	13.3306					0.938201	2.49233						
0.952579	2.52232	0.853429	2.24473	0.341934	14.0067					0.941311	2.49279						
0.954967	2.52077	0.855968	2.24445	0.34273	14.7514					0.944422	2.49324						
0.957359	2.51925	0.858509	2.24418	0.343525	15.5757					0.947535	2.4937						
0.959755	2.51775	0.86105	2.24391	0.344318	16.4929					0.95065	2.49416						
0.962155	2.51626	0.863593	2.24364	0.345105	17.5196					0.953766	2.49463						
0.964558	2.5148	0.866138	2.24339	0.345883	18.6765					0.956883	2.49509						
0.966965	2.51335	0.868684	2.24313	0.34665	19.99					0.960001	2.49555						
0.969377	2.51192	0.871232	2.24289	0.3474	21.494					0.963121	2.49601						
0.971792	2.51052	0.87378	2.24264	0.348132	23.2333					0.966242	2.49648						
0.974212	2.50913	0.876331	2.24241	0.348839	25.2679					0.969364	2.49694						
0.976636	2.50776	0.878883	2.24218	0.349518	27.6799					0.972487	2.4974						
0.979064	2.50641	0.881436	2.24195	0.350162	30.5856					0.975612	2.49787						
0.981496	2.50508	0.88399	2.24173	0.350768	34.1543					0.978738	2.49833						
0.983933	2.50377	0.886546	2.24151	0.351328	38.6432					0.981865	2.4988						
0.986374	2.50247	0.889104	2.2413	0.351838	44.4629					0.984993	2.49926						
0.98882	2.5012	0.891663	2.24109	0.352292	52.311					0.988122	2.49973						
0.99127	2.49995	0.894223	2.24089	0.352683	63.4773					0.991252	2.50019						
0.993725	2.49871	0.896784	2.24069	0.353007	80.6405					0.994383	2.50066						
0.996184	2.49749	0.899348	2.2405	0.353259	110.427					0.997515	2.50112						
0.998649	2.4963	0.901912	2.24031	0.353435	174.923					1.00065	2.50158						
1.00112	2.49512	0.904478	2.24012	0.353533	419.868												
		0.907045	2.23994														
		0.909614	2.23977														
		0.912184	2.2396														
		0.914755	2.23943														
		0.917328	2.23927														
		0.919902	2.23911														
		0.922477	2.23896														
		0.925054	2.23881														
		0.927632	2.23866														
		0.930212	2.23852														
		0.932792	2.23838														
		0.935374	2.23825														
		0.937958	2.23812														
		0.940542	2.23799														
		0.943128	2.23787														
		0.945715	2.23775														
		0.948304	2.23763														
		0.950893	2.23752														
		0.953484	2.23741														
		0.956076	2.23731														
		0.958669	2.23721														
		0.961264	2.23711														
		0.96386	2.23702														
		0.966456	2.23692														
		0.969054	2.23684														
		0.971653	2.23675														
		0.974254	2.23667														
		0.976855	2.23659														
		0.979458	2.23651														
		0.982061	2.23644														
		0.984666	2.23637														
		0.987271	2.2363														
		0.989878	2.23624														
		0.992486	2.23617														
		0.995095	2.23611														
		0.997705	2.23606														
		1.00032	2.236														
