Sym0		Asym0		Sym1		Sym2		Sym3		Asym1		Asym2		Asym3		Asym4	
335  Points		375  Points		334  Points		318  Points		233  Points		345  Points		295  Points		224  Points		108  Points	
Freq (MHz)	Vph (m/ms)	Freq (MHz)	Vph (m/ms)	Freq (MHz)	Vph (m/ms)	Freq (MHz)	Vph (m/ms)	Freq (MHz)	Vph (m/ms)	Freq (MHz)	Vph (m/ms)	Freq (MHz)	Vph (m/ms)	Freq (MHz)	Vph (m/ms)	Freq (MHz)	Vph (m/ms)
0.353552	1026.21	0.000335156	0.113113	1.00009	2.58602	0.447127	1136.95	0.707111	648.906	0.176782	459.599	0.530332	780.178	0.883863	833.972	0.894253	2014.23
0.353536	232.126	0.000653634	0.157825	0.997599	2.58746	0.447171	284.5	0.707126	311.755	0.176867	113.148	0.530341	285.395	0.883795	394.845	0.894316	551.203
0.353497	130.85	0.00107614	0.20228	0.995104	2.5889	0.447268	162.626	0.707152	205.167	0.177056	64.5796	0.53036	174.645	0.883681	258.625	0.894448	319.333
0.353438	91.0909	0.00160103	0.246367	0.992607	2.59035	0.447418	113.881	0.707187	152.898	0.177346	45.2393	0.530387	125.825	0.883525	192.265	0.894647	224.814
0.353358	69.8533	0.00222678	0.290057	0.990106	2.59179	0.44762	87.6429	0.707233	121.858	0.177738	34.8595	0.530424	98.3395	0.883333	152.988	0.894907	173.498
0.353257	56.6383	0.0029512	0.333259	0.987602	2.59324	0.447874	71.2514	0.70729	101.298	0.178229	28.393	0.530469	80.7127	0.88311	127.023	0.895223	141.28
0.353137	47.6209	0.00377211	0.37593	0.985094	2.59468	0.448179	60.0427	0.707357	86.6778	0.178818	23.9841	0.530524	68.4474	0.882862	108.581	0.895589	119.173
0.352998	41.0744	0.00468692	0.418005	0.982583	2.59613	0.448535	51.8967	0.707435	75.7484	0.179504	20.7898	0.530587	59.4207	0.882594	94.8067	0.896001	103.065
0.35284	36.105	0.00569305	0.459447	0.980067	2.59757	0.448941	45.7107	0.707523	67.2692	0.180283	18.3724	0.53066	52.4998	0.88231	84.1263	0.896452	90.807
0.352664	32.2035	0.00678754	0.500202	0.977547	2.59901	0.449397	40.8547	0.707622	60.4996	0.181154	16.4817	0.530741	47.025	0.882014	75.6028	0.89694	81.1668
0.352472	29.0587	0.00796761	0.540245	0.975021	2.60044	0.449901	36.9426	0.707731	54.9702	0.182114	14.9645	0.530832	42.5862	0.88171	68.6426	0.89746	73.3873
0.352264	26.4698	0.00923008	0.579538	0.972491	2.60187	0.450452	33.7243	0.707851	50.3689	0.183159	13.7216	0.530931	38.9149	0.881401	62.852	0.898008	66.9776
0.352041	24.301	0.0105719	0.618056	0.969955	2.60329	0.451049	31.0311	0.707981	46.4804	0.184288	12.6861	0.53104	35.8281	0.881089	57.9589	0.898583	61.6054
0.351804	22.4577	0.01199	0.655778	0.967414	2.60471	0.451692	28.7447	0.708122	43.1509	0.185496	11.8111	0.531158	33.1965	0.880776	53.7699	0.899182	57.038
0.351554	20.8716	0.0134812	0.692686	0.964866	2.60612	0.45238	26.78	0.708273	40.2683	0.186782	11.0628	0.531285	30.9266	0.880463	50.1432	0.899803	53.1073
0.351293	19.4923	0.0150425	0.728777	0.962312	2.60752	0.45311	25.074	0.708435	37.7482	0.187962	10.4943	0.531421	28.9486	0.880153	46.9728	0.900446	49.689
0.351022	18.2817	0.0166707	0.764037	0.959751	2.60891	0.453882	23.579	0.708607	35.5265	0.189011	10.0611	0.531566	27.2097	0.879846	44.1778	0.901107	46.6891
0.350741	17.2107	0.0183628	0.798464	0.957183	2.61029	0.454696	22.2585	0.70879	33.5532	0.189907	9.73373	0.531721	25.6691	0.879543	41.6953	0.901786	44.0354
0.350452	16.2565	0.0201161	0.832061	0.954607	2.61166	0.455549	21.0839	0.708984	31.7889	0.190633	9.49246	0.531885	24.2948	0.879245	39.4758	0.902483	41.6713
0.350157	15.4008	0.0219276	0.864833	0.952024	2.61302	0.45644	20.0325	0.709188	30.2021	0.191177	9.32412	0.532058	23.0613	0.878953	37.4795	0.903197	39.552
0.349855	14.6293	0.0237946	0.896784	0.949433	2.61437	0.457369	19.0861	0.709403	28.7675	0.19153	9.22018	0.532241	21.9481	0.878667	35.6746	0.903926	37.6413
0.349549	13.93	0.0257143	0.92792	0.946834	2.6157	0.458334	18.2298	0.709629	27.4641	0.192042	9.07567	0.532433	20.9384	0.878388	34.0348	0.904671	35.91
0.34924	13.2933	0.0276843	0.958259	0.944227	2.61702	0.459334	17.4516	0.709865	26.2748	0.192607	8.92483	0.532634	20.0186	0.878117	32.5384	0.90543	34.334
0.348928	12.7113	0.0297022	0.987807	0.94161	2.61832	0.460368	16.7413	0.710112	25.1853	0.193387	8.72945	0.532845	19.1771	0.877853	31.1676	0.906204	32.8934
0.348615	12.1771	0.0317654	1.01658	0.938985	2.6196	0.461435	16.0905	0.71037	24.1837	0.194395	8.49724	0.533066	18.4044	0.877598	29.9071	0.906992	31.5714
0.348302	11.6851	0.0338718	1.0446	0.936351	2.62087	0.462533	15.4921	0.710639	23.2596	0.195642	8.23657	0.533296	17.6925	0.87735	28.7443	0.907793	30.3541
0.347991	11.2306	0.0360193	1.07187	0.933708	2.62212	0.463663	14.9402	0.710918	22.4045	0.197145	7.95585	0.533536	17.0344	0.877111	27.6681	0.908607	29.2295
0.347681	10.8095	0.0382058	1.09841	0.931055	2.62335	0.464821	14.4296	0.711208	21.611	0.198919	7.66301	0.533785	16.4244	0.876881	26.6694	0.909435	28.1875
0.347374	10.4183	0.0404295	1.12425	0.928392	2.62457	0.466008	13.9559	0.711509	20.8727	0.200744	7.39749	0.534044	15.8573	0.876659	25.7401	0.910275	27.2193
0.347072	10.0538	0.0426884	1.1494	0.92572	2.62576	0.467223	13.5152	0.711821	20.1841	0.202618	7.15576	0.534314	15.3289	0.876447	24.8732	0.911128	26.3174
0.346775	9.71361	0.0449808	1.17387	0.923037	2.62693	0.468464	13.1044	0.712144	19.5402	0.204537	6.93491	0.534593	14.8353	0.876244	24.0626	0.911994	25.4752
0.346483	9.3953	0.0473051	1.19769	0.920345	2.62808	0.469731	12.7205	0.712478	18.937	0.2065	6.73245	0.534881	14.3733	0.87605	23.3031	0.912871	24.687
0.346199	9.09689	0.0496597	1.22088	0.917643	2.62922	0.471022	12.361	0.712823	18.3708	0.208504	6.54625	0.53518	13.9398	0.875865	22.59	0.913761	23.9478
0.345923	8.8166	0.052043	1.24345	0.914931	2.63033	0.472338	12.0236	0.713179	17.8381	0.210546	6.37451	0.535489	13.5325	0.87569	21.9193	0.914663	23.2532
0.345655	8.55287	0.0544539	1.26542	0.912208	2.63142	0.473676	11.7065	0.713546	17.3363	0.212626	6.21569	0.535808	13.149	0.875525	21.2872	0.915576	22.5994
0.345397	8.30432	0.0568908	1.2868	0.909476	2.63248	0.475036	11.4079	0.713924	16.8626	0.21474	6.06842	0.536138	12.7872	0.875369	20.6905	0.916501	21.9827
0.345149	8.06971	0.0593525	1.30763	0.906733	2.63353	0.476418	11.1261	0.714313	16.4149	0.216886	5.93154	0.536477	12.4455	0.875222	20.1264	0.917438	21.4003
0.344912	7.84793	0.061838	1.32791	0.903981	2.63455	0.47782	10.86	0.714713	15.991	0.219064	5.80403	0.536827	12.1222	0.875086	19.5923	0.918386	20.8493
0.344687	7.63799	0.0643459	1.34766	0.901219	2.63555	0.479242	10.6082	0.715125	15.5892	0.221271	5.685	0.537188	11.8159	0.874959	19.0859	0.919346	20.3272
0.344475	7.43902	0.0668754	1.3669	0.898446	2.63653	0.480497	10.3995	0.715547	15.2077	0.223506	5.57365	0.537559	11.5253	0.874841	18.605	0.920317	19.8319
0.344275	7.25019	0.0694253	1.38564	0.895665	2.63749	0.481578	10.2291	0.715981	14.8451	0.225767	5.46929	0.53794	11.2492	0.874734	18.1479	0.921299	19.3614
0.34409	7.0708	0.0719947	1.4039	0.892873	2.63843	0.482479	10.093	0.716427	14.5	0.228052	5.3713	0.538332	10.9867	0.874636	17.7128	0.922292	18.9138
0.343919	6.90018	0.0745828	1.42169	0.890072	2.63934	0.483196	9.98845	0.716883	14.1712	0.230361	5.27914	0.538735	10.7366	0.874548	17.2982	0.923296	18.4876
0.343763	6.73774	0.0771887	1.43904	0.887262	2.64024	0.483726	9.91315	0.717351	13.8577	0.232691	5.19231	0.539095	10.5283	0.87447	16.9026	0.924311	18.0812
0.343623	6.58293	0.0798116	1.45595	0.884443	2.64111	0.484067	9.86566	0.717831	13.5583	0.235042	5.11039	0.539408	10.3574	0.874402	16.5249	0.925337	17.6934
0.343499	6.43526	0.0824507	1.47244	0.881615	2.64196	0.484557	9.79834	0.718322	13.2721	0.237413	5.03297	0.539672	10.2204	0.874344	16.1638	0.926374	17.3229
0.343391	6.29429	0.0851053	1.48852	0.878778	2.64279	0.485093	9.72639	0.718824	12.9983	0.239802	4.9597	0.539884	10.1147	0.874295	15.8182	0.927421	16.9685
0.343301	6.15958	0.0877748	1.5042	0.875932	2.64361	0.485824	9.63052	0.719338	12.7362	0.242208	4.89027	0.540041	10.0385	0.874256	15.4873	0.928479	16.6293
0.343229	6.03076	0.0904585	1.5195	0.873078	2.6444	0.486755	9.51246	0.719864	12.485	0.244631	4.82439	0.540142	9.99036	0.874227	15.1701	0.929547	16.3043
0.343175	5.90749	0.0931557	1.53444	0.870216	2.64517	0.487889	9.37423	0.720401	12.2441	0.247069	4.7618	0.540289	9.92201	0.874208	14.8657	0.930626	15.9926
0.34314	5.78943	0.0958661	1.54901	0.867346	2.64593	0.489229	9.21809	0.720951	12.0128	0.249521	4.70226	0.540449	9.84884	0.874199	14.5735	0.931716	15.6935
0.343124	5.6763	0.0985888	1.56324	0.864468	2.64666	0.490781	9.04645	0.721511	11.7906	0.251987	4.64556	0.54067	9.75114	0.8742	14.2927	0.932816	15.4062
0.343128	5.5678	0.101324	1.57713	0.861583	2.64738	0.492347	8.88237	0.722084	11.577	0.254466	4.59149	0.540953	9.63051	0.87421	14.0227	0.933926	15.13
0.343151	5.4637	0.10407	1.59069	0.85869	2.64808	0.493927	8.72536	0.722669	11.3715	0.256956	4.5399	0.541302	9.48882	0.87423	13.7629	0.935046	14.8644
0.343195	5.36375	0.106827	1.60394	0.855791	2.64877	0.49552	8.57498	0.723265	11.1737	0.259458	4.4906	0.541718	9.32818	0.87426	13.5126	0.936176	14.6087
0.34326	5.26774	0.109594	1.61689	0.852884	2.64943	0.497126	8.43083	0.723873	10.9831	0.261971	4.44345	0.542206	9.15089	0.8743	13.2715	0.937316	14.3623
0.343346	5.17545	0.112372	1.62954	0.849971	2.65009	0.498745	8.29254	0.724413	10.8227	0.264493	4.39832	0.542706	8.9807	0.87435	13.039	0.938467	14.1249
0.343438	5.09793	0.11516	1.6419	0.847051	2.65072	0.500374	8.15974	0.724881	10.6898	0.267025	4.35507	0.543218	8.81721	0.874409	12.8147	0.939627	13.8959
0.343529	5.03387	0.117957	1.65399	0.844126	2.65134	0.502015	8.03214	0.725272	10.5826	0.269565	4.31359	0.543741	8.66004	0.874478	12.5981	0.940798	13.6749
0.343614	4.98226	0.120763	1.6658	0.841194	2.65195	0.503667	7.90943	0.725585	10.4995	0.272114	4.27377	0.544276	8.50885	0.874557	12.3889	0.941978	13.4614
0.343687	4.9423	0.123577	1.67736	0.838256	2.65255	0.50533	7.79134	0.725817	10.4393	0.27467	4.23551	0.544823	8.36332	0.874645	12.1867	0.943167	13.2552
0.343745	4.91338	0.1264	1.68866	0.835313	2.65313	0.507002	7.67762	0.725966	10.4011	0.277233	4.19873	0.545381	8.22313	0.874743	11.9912	0.944367	13.0558
0.343783	4.89508	0.129231	1.69972	0.832364	2.65369	0.508684	7.56803	0.726182	10.3468	0.279802	4.16334	0.545952	8.08802	0.874851	11.802	0.945576	12.8629
0.343839	4.86904	0.132069	1.71054	0.82941	2.65425	0.510375	7.46235	0.726418	10.2885	0.282378	4.12925	0.546535	7.95772	0.874968	11.6188	0.946795	12.6763
0.343904	4.8411	0.134915	1.72112	0.826451	2.65479	0.512075	7.36037	0.726741	10.2103	0.284959	4.0964	0.547131	7.832	0.875095	11.4415	0.948023	12.4956
0.343996	4.80369	0.137768	1.73149	0.823487	2.65532	0.513783	7.26192	0.727154	10.1132	0.287545	4.06471	0.547738	7.71062	0.875232	11.2696	0.94926	12.3205
0.344121	4.75734	0.140628	1.74164	0.820519	2.65585	0.5155	7.1668	0.72766	9.9985	0.290136	4.03413	0.548358	7.59337	0.875359	11.1241	0.950507	12.1508
0.344283	4.70266	0.143494	1.75157	0.817546	2.65636	0.517224	7.07485	0.728262	9.86753	0.292731	4.00459	0.548991	7.48006	0.875473	11.0032	0.951763	11.9863
0.344489	4.64039	0.146367	1.7613	0.814568	2.65685	0.518955	6.98592	0.728964	9.7218	0.29533	3.97604	0.549636	7.3705	0.875571	10.9052	0.953029	11.8267
0.344748	4.57131	0.149246	1.77083	0.811587	2.65734	0.520694	6.89986	0.729678	9.58075	0.297932	3.94843	0.550294	7.26452	0.875651	10.829	0.954303	11.6718
0.345031	4.50466	0.152131	1.78017	0.808601	2.65783	0.522439	6.81654	0.730405	9.44416	0.300538	3.92172	0.550965	7.16196	0.875711	10.7736	0.955587	11.5215
0.345337	4.44034	0.155022	1.78932	0.805612	2.6583	0.524191	6.73582	0.731145	9.31182	0.303147	3.89584	0.551649	7.06265	0.875751	10.7385	0.95688	11.3754
0.345668	4.37825	0.157918	1.79829	0.802619	2.65876	0.525949	6.65758	0.731897	9.18356	0.305758	3.87078	0.552346	6.96646	0.875808	10.6885	0.958014	11.2515
0.346023	4.31829	0.16082	1.80708	0.799622	2.65921	0.527712	6.58172	0.732662	9.05919	0.308371	3.84647	0.553057	6.87326	0.875872	10.6346	0.958985	11.1483
0.346403	4.26037	0.163727	1.8157	0.796622	2.65966	0.529481	6.50812	0.733439	8.93855	0.310986	3.82289	0.55378	6.78291	0.87596	10.5623	0.959793	11.0646
0.346808	4.20441	0.166639	1.82415	0.793619	2.6601	0.531256	6.43669	0.734229	8.82148	0.313603	3.80001	0.554517	6.69529	0.876075	10.4723	0.960433	10.9994
0.347238	4.15033	0.169555	1.83244	0.790612	2.66053	0.533035	6.36733	0.735032	8.70783	0.316221	3.77778	0.555267	6.61029	0.876218	10.3655	0.960906	10.952
0.347693	4.09804	0.172476	1.84057	0.787602	2.66096	0.534819	6.29995	0.735848	8.59746	0.31884	3.75619	0.556032	6.5278	0.876393	10.2431	0.961209	10.9219
0.348174	4.04748	0.175402	1.84854	0.78459	2.66138	0.536607	6.23446	0.736676	8.49024	0.32146	3.73519	0.556809	6.44772	0.876603	10.1064	0.961645	10.879
0.34868	3.99859	0.178332	1.85636	0.781574	2.66179	0.538399	6.17079	0.737518	8.38603	0.32408	3.71477	0.557601	6.36996	0.876823	9.9734	0.96212	10.8328
0.349213	3.95129	0.181267	1.86404	0.778556	2.66219	0.540195	6.10887	0.738372	8.28473	0.3267	3.69489	0.558406	6.29442	0.877051	9.84404	0.962768	10.7707
0.349771	3.90553	0.184205	1.87157	0.775536	2.66259	0.541995	6.04861	0.73924	8.18621	0.32932	3.67554	0.559226	6.22101	0.877289	9.71817	0.963591	10.6933
0.350356	3.86125	0.187147	1.87897	0.772512	2.66299	0.543798	5.98995	0.74012	8.09038	0.33194	3.65668	0.56006	6.14967	0.877537	9.59564	0.96459	10.6014
0.350967	3.81839	0.190093	1.88623	0.769487	2.66338	0.545605	5.93283	0.741014	7.99713	0.33456	3.6383	0.560908	6.08029	0.877793	9.47632	0.965768	10.4959
0.351605	3.77691	0.193043	1.89336	0.766459	2.66377	0.547414	5.87719	0.741921	7.90636	0.337179	3.62038	0.56177	6.01283	0.878059	9.36011	0.967128	10.3777
0.35227	3.73675	0.195997	1.90036	0.763429	2.66415	0.549226	5.82297	0.742841	7.81798	0.339797	3.6029	0.562647	5.94719	0.878335	9.24688	0.968496	10.2626
0.352962	3.69786	0.198953	1.90724	0.760397	2.66452	0.55104	5.77011	0.743775	7.7319	0.342413	3.58584	0.563538	5.88333	0.878619	9.13652	0.969873	10.1504
0.353681	3.6602	0.201914	1.91399	0.757363	2.6649	0.552857	5.71856	0.744721	7.64805	0.345029	3.56918	0.564444	5.82117	0.878913	9.02892	0.971258	10.0411
0.354428	3.62374	0.204877	1.92063	0.754327	2.66527	0.554676	5.66828	0.745681	7.56633	0.347643	3.5529	0.565365	5.76065	0.879216	8.92399	0.972651	9.93445
0.355203	3.58842	0.207844	1.92715	0.751289	2.66563	0.556496	5.61921	0.746655	7.48668	0.350255	3.53699	0.566301	5.70172	0.879528	8.82164	0.974052	9.83044
0.356006	3.55421	0.210813	1.93355	0.748249	2.666	0.558319	5.57131	0.747642	7.40903	0.352865	3.52144	0.567252	5.64431	0.87985	8.72177	0.975462	9.72894
0.356836	3.52108	0.213786	1.93985	0.745208	2.66636	0.560142	5.52454	0.748642	7.33329	0.355472	3.50623	0.568217	5.58839	0.88018	8.6243	0.976879	9.62989
0.357696	3.48898	0.216761	1.94603	0.742165	2.66671	0.561967	5.47885	0.749656	7.25942	0.358078	3.49135	0.569199	5.5339	0.88052	8.52913	0.978304	9.53319
0.358584	3.4579	0.219739	1.95212	0.73912	2.66707	0.563793	5.43422	0.750684	7.18735	0.360681	3.47678	0.570195	5.48079	0.880869	8.43621	0.979737	9.43876
0.359501	3.42778	0.22272	1.9581	0.736074	2.66742	0.56562	5.3906	0.751725	7.11701	0.363281	3.46251	0.571207	5.42901	0.881227	8.34544	0.981178	9.34652
0.360447	3.39862	0.22532	1.96323	0.733027	2.66777	0.567448	5.34795	0.75278	7.04836	0.365879	3.44853	0.572234	5.37853	0.881594	8.25677	0.982627	9.2564
0.361423	3.37037	0.227537	1.96754	0.729978	2.66812	0.569276	5.30624	0.753848	6.98132	0.368473	3.43483	0.573277	5.3293	0.88197	8.17011	0.984083	9.16834
0.362429	3.34301	0.229372	1.97107	0.726928	2.66846	0.571104	5.26544	0.75493	6.91586	0.371064	3.42139	0.574335	5.28128	0.882355	8.08541	0.985547	9.08225
0.363465	3.31651	0.230824	1.97383	0.723877	2.66881	0.572933	5.22553	0.756026	6.85193	0.373652	3.40822	0.575409	5.23443	0.882749	8.0026	0.987018	8.99809
0.364531	3.29085	0.231891	1.97585	0.720825	2.66915	0.574762	5.18646	0.757136	6.78947	0.376237	3.3953	0.576499	5.18872	0.883153	7.92162	0.988497	8.91578
0.365628	3.26601	0.232575	1.97713	0.717771	2.6695	0.576591	5.14821	0.758259	6.72843	0.378817	3.38261	0.577606	5.14411	0.883565	7.84242	0.989983	8.83527
0.366757	3.24196	0.233557	1.97897	0.714717	2.66984	0.578419	5.11076	0.759396	6.66879	0.381394	3.37016	0.578728	5.10057	0.883986	7.76493	0.991476	8.7565
0.367917	3.21869	0.234626	1.98096	0.711662	2.67018	0.580248	5.07408	0.760547	6.61048	0.383967	3.35792	0.579866	5.05807	0.884416	7.68911	0.992977	8.67941
0.36911	3.19617	0.236079	1.98365	0.708605	2.67052	0.582075	5.03814	0.761712	6.55347	0.386536	3.34591	0.58102	5.01657	0.884855	7.6149	0.994484	8.60396
0.370335	3.17438	0.237918	1.98701	0.705548	2.67086	0.583902	5.00292	0.762891	6.49773	0.389101	3.33409	0.582191	4.97604	0.885303	7.54227	0.995999	8.53009
0.371593	3.15331	0.240143	1.99103	0.70249	2.6712	0.585728	4.9684	0.764083	6.44321	0.391662	3.32248	0.583378	4.93647	0.885759	7.47114	0.997521	8.45775
0.372884	3.13294	0.242754	1.99569	0.699432	2.67155	0.587554	4.93455	0.765289	6.38988	0.394218	3.31106	0.584582	4.89781	0.886225	7.4015	0.999049	8.38691
0.37421	3.11325	0.245753	2.00096	0.696372	2.67189	0.589378	4.90136	0.76651	6.33771	0.396769	3.29983	0.585802	4.86004	0.8867	7.33328	1.00058	8.31751
0.37557	3.09423	0.248754	2.00614	0.693313	2.67223	0.591201	4.8688	0.767744	6.28665	0.399316	3.28878	0.587039	4.82315	0.887183	7.26646		
0.376966	3.07586	0.251756	2.01124	0.690252	2.67257	0.593023	4.83686	0.768992	6.23669	0.401858	3.2779	0.588293	4.78709	0.887675	7.20098		
0.378397	3.05813	0.254761	2.01626	0.687191	2.67292	0.594844	4.80552	0.770254	6.18778	0.404395	3.26718	0.589563	4.75186	0.888176	7.13681		
0.379864	3.04103	0.257767	2.0212	0.684129	2.67327	0.596663	4.77476	0.77153	6.1399	0.406927	3.25663	0.59085	4.71742	0.888686	7.07392		
0.381369	3.02454	0.260775	2.02607	0.681067	2.67361	0.598481	4.74456	0.772819	6.09302	0.409454	3.24624	0.592154	4.68376	0.889205	7.01227		
0.382911	3.00865	0.263785	2.03086	0.678005	2.67396	0.600296	4.7149	0.774123	6.04711	0.411975	3.23599	0.593475	4.65086	0.889732	6.95182		
0.384491	2.99335	0.266797	2.03557	0.674942	2.67431	0.602111	4.68578	0.77544	6.00214	0.414492	3.2259	0.594812	4.61869	0.890268	6.89254		
0.386111	2.97862	0.26981	2.04022	0.671879	2.67467	0.603923	4.65717	0.776771	5.9581	0.417003	3.21594	0.596167	4.58723	0.890813	6.8344		
0.387769	2.96447	0.272824	2.04479	0.668816	2.67502	0.605734	4.62906	0.778116	5.91494	0.419508	3.20613	0.597539	4.55646	0.891366	6.77737		
0.389468	2.95087	0.275841	2.04929	0.665753	2.67538	0.607543	4.60145	0.779475	5.87266	0.422008	3.19644	0.598928	4.52638	0.891929	6.72142		
0.391207	2.93781	0.278858	2.05373	0.662689	2.67574	0.609349	4.5743	0.780848	5.83123	0.424503	3.18689	0.600334	4.49695	0.8925	6.66651		
0.392987	2.92529	0.281877	2.0581	0.659626	2.67611	0.611154	4.54761	0.782234	5.79062	0.426991	3.17746	0.601758	4.46817	0.893079	6.61263		
0.394808	2.91329	0.284897	2.06241	0.656562	2.67647	0.612956	4.52138	0.783634	5.75081	0.429474	3.16815	0.603198	4.44001	0.893668	6.55975		
0.396672	2.9018	0.287919	2.06665	0.653498	2.67684	0.614756	4.49557	0.785047	5.71178	0.431951	3.15896	0.604656	4.41247	0.894265	6.50783		
0.398577	2.89082	0.290942	2.07083	0.650435	2.67722	0.616554	4.4702	0.786475	5.67352	0.434422	3.14988	0.606131	4.38551	0.89487	6.45686		
0.400525	2.88033	0.293965	2.07495	0.647371	2.6776	0.61835	4.44523	0.787915	5.636	0.436888	3.14092	0.607623	4.35914	0.895485	6.40682		
0.402515	2.87031	0.29699	2.079	0.644308	2.67798	0.620144	4.42067	0.789369	5.5992	0.439347	3.13206	0.609132	4.33333	0.896107	6.35767		
0.404547	2.86076	0.300017	2.083	0.641245	2.67837	0.621935	4.39651	0.790837	5.56311	0.4418	3.12331	0.610659	4.30807	0.896739	6.30939		
0.406622	2.85167	0.303044	2.08694	0.638182	2.67876	0.623723	4.37272	0.792318	5.5277	0.444247	3.11466	0.612203	4.28335	0.897379	6.26197		
0.408739	2.84302	0.306072	2.09083	0.63512	2.67916	0.62551	4.34931	0.793813	5.49296	0.446689	3.10611	0.613764	4.25916	0.898028	6.21539		
0.410897	2.83479	0.309101	2.09466	0.632058	2.67957	0.627294	4.32626	0.795321	5.45888	0.449124	3.09766	0.615343	4.23547	0.898685	6.16961		
0.413096	2.82698	0.312131	2.09843	0.628996	2.67998	0.629075	4.30357	0.796841	5.42543	0.451553	3.0893	0.616938	4.21229	0.899351	6.12463		
0.415335	2.81956	0.315162	2.10215	0.625935	2.68039	0.630854	4.28122	0.798376	5.39261	0.453976	3.08104	0.618551	4.18959	0.900026	6.08042		
0.417615	2.81253	0.318194	2.10582	0.622874	2.68082	0.632631	4.25922	0.799923	5.36039	0.456393	3.07286	0.620181	4.16736	0.900709	6.03697		
0.419932	2.80587	0.321226	2.10944	0.619814	2.68125	0.634405	4.23754	0.801483	5.32876	0.458803	3.06478	0.621828	4.1456	0.9014	5.99426		
0.422288	2.79957	0.32426	2.11301	0.616755	2.68168	0.636176	4.21618	0.803056	5.29771	0.461208	3.05678	0.623492	4.12429	0.9021	5.95227		
0.424679	2.7936	0.327294	2.11652	0.613696	2.68213	0.637945	4.19514	0.804642	5.26722	0.463606	3.04886	0.625174	4.10342	0.902809	5.91098		
0.427107	2.78795	0.330328	2.11999	0.610638	2.68258	0.639712	4.17441	0.80624	5.23728	0.465999	3.04102	0.626872	4.08299	0.903526	5.87038		
0.429568	2.78261	0.333363	2.12341	0.607581	2.68304	0.641477	4.15398	0.807852	5.20788	0.468385	3.03327	0.628587	4.06297	0.904252	5.83045		
0.432062	2.77756	0.336399	2.12678	0.604525	2.68351	0.643238	4.13384	0.809476	5.179	0.470765	3.02559	0.630319	4.04336	0.904986	5.79118		
0.434588	2.77279	0.339436	2.13011	0.60147	2.68399	0.644998	4.11399	0.811112	5.15063	0.47314	3.01799	0.632068	4.02416	0.905729	5.75255		
0.437144	2.76828	0.342473	2.13339	0.598416	2.68448	0.646755	4.09442	0.812761	5.12276	0.475508	3.01047	0.633833	4.00535	0.90648	5.71455		
0.439728	2.76402	0.34551	2.13662	0.595364	2.68498	0.64851	4.07512	0.814421	5.09538	0.477871	3.00302	0.635615	3.98691	0.90724	5.67716		
0.44234	2.76	0.348548	2.13981	0.592312	2.68549	0.650262	4.0561	0.816094	5.06848	0.480227	2.99564	0.637413	3.96886	0.908009	5.64037		
0.444978	2.75619	0.351586	2.14296	0.589262	2.68601	0.652013	4.03734	0.81778	5.04204	0.482578	2.98834	0.639228	3.95116	0.908785	5.60417		
0.447641	2.75259	0.354625	2.14607	0.586213	2.68655	0.653761	4.01883	0.819477	5.01606	0.484924	2.98111	0.641059	3.93383	0.909571	5.56854		
0.450327	2.74918	0.357664	2.14913	0.583166	2.6871	0.655507	4.00058	0.821185	4.99052	0.487263	2.97394	0.642907	3.91684	0.910364	5.53348		
0.453036	2.74596	0.360703	2.15215	0.58012	2.68766	0.65725	3.98258	0.822906	4.96541	0.489597	2.96685	0.64477	3.90019	0.911167	5.49897		
0.455765	2.74291	0.363742	2.15513	0.577076	2.68823	0.658992	3.96482	0.824638	4.94073	0.491925	2.95982	0.64665	3.88387	0.911978	5.46499		
0.458514	2.74002	0.366782	2.15807	0.574033	2.68882	0.660732	3.9473	0.826382	4.91646	0.494248	2.95286	0.648545	3.86787	0.912797	5.43154		
0.461282	2.73729	0.369822	2.16098	0.570993	2.68943	0.662469	3.93001	0.828136	4.89259	0.496566	2.94596	0.650456	3.85219	0.913625	5.39861		
0.464067	2.73469	0.372862	2.16384	0.567955	2.69005	0.664205	3.91295	0.829902	4.86913	0.498879	2.93913	0.652382	3.83682	0.914461	5.36618		
0.466869	2.73223	0.375902	2.16666	0.564919	2.69069	0.665939	3.89611	0.83168	4.84604	0.501186	2.93237	0.654324	3.82176	0.915306	5.33425		
0.469687	2.72989	0.378942	2.16945	0.561885	2.69134	0.667671	3.8795	0.833468	4.82334	0.503489	2.92566	0.656282	3.80698	0.916159	5.3028		
0.472519	2.72767	0.381982	2.1722	0.558853	2.69202	0.669401	3.8631	0.835266	4.80101	0.505786	2.91903	0.658254	3.7925	0.917021	5.27183		
0.475365	2.72555	0.385023	2.17491	0.555824	2.69271	0.67113	3.84691	0.837076	4.77904	0.508079	2.91245	0.660241	3.77829	0.917891	5.24132		
0.478224	2.72354	0.388063	2.17759	0.552798	2.69343	0.672857	3.83093	0.838896	4.75742	0.510367	2.90593	0.662243	3.76436	0.91877	5.21127		
0.481096	2.72163	0.391103	2.18023	0.549774	2.69417	0.674583	3.81516	0.840726	4.73614	0.51265	2.89948	0.66426	3.7507	0.919657	5.18166		
0.483979	2.7198	0.394143	2.18283	0.546753	2.69493	0.676307	3.79959	0.842567	4.71521	0.51493	2.89309	0.666291	3.7373	0.920553	5.1525		
0.486872	2.71806	0.397183	2.18541	0.543736	2.69572	0.67803	3.78421	0.844418	4.6946	0.517204	2.88675	0.668337	3.72416	0.921457	5.12376		
0.489776	2.7164	0.400222	2.18794	0.540722	2.69653	0.679751	3.76903	0.846278	4.67432	0.519475	2.88048	0.670396	3.71126	0.92237	5.09545		
0.49269	2.71482	0.403262	2.19045	0.537711	2.69737	0.681472	3.75403	0.848149	4.65436	0.521742	2.87427	0.67247	3.69861	0.923291	5.06754		
0.495612	2.7133	0.406301	2.19292	0.534705	2.69824	0.683191	3.73923	0.850029	4.6347	0.524005	2.86811	0.674557	3.68619	0.924221	5.04005		
0.498543	2.71185	0.409339	2.19535	0.531702	2.69914	0.684909	3.72461	0.851919	4.61535	0.526264	2.86202	0.676658	3.67401	0.925159	5.01295		
0.501482	2.71046	0.412378	2.19776	0.528703	2.70007	0.686626	3.71017	0.853818	4.59629	0.52852	2.85598	0.678772	3.66206	0.926106	4.98624		
0.504429	2.70913	0.415416	2.20013	0.525709	2.70103	0.688343	3.69591	0.855726	4.57752	0.530772	2.85	0.680899	3.65033	0.927062	4.95991		
0.507383	2.70786	0.418454	2.20247	0.52272	2.70203	0.690058	3.68182	0.857643	4.55904	0.533021	2.84408	0.683039	3.63881	0.928026	4.93396		
0.510343	2.70663	0.421491	2.20478	0.519735	2.70307	0.691773	3.66791	0.85957	4.54083	0.535267	2.83822	0.685192	3.6275	0.928998	4.90837		
0.51331	2.70546	0.424528	2.20706	0.516756	2.70415	0.693487	3.65416	0.861504	4.52289	0.53751	2.83241	0.687358	3.61641	0.929979	4.88315		
0.516283	2.70433	0.427564	2.20931	0.513782	2.70527	0.695201	3.64059	0.863448	4.50522	0.539751	2.82666	0.689536	3.60551	0.930969	4.85828		
0.519261	2.70324	0.4306	2.21153	0.510814	2.70644	0.696915	3.62717	0.8654	4.48781	0.541989	2.82097	0.691726	3.59481	0.931967	4.83376		
0.522245	2.7022	0.433635	2.21372	0.507853	2.70766	0.698628	3.61392	0.86736	4.47065	0.544224	2.81534	0.693927	3.5843	0.932974	4.80959		
0.525233	2.70119	0.436669	2.21588	0.504898	2.70893	0.700341	3.60083	0.869329	4.45375	0.546457	2.80976	0.696141	3.57398	0.933989	4.78575		
0.528227	2.70022	0.439703	2.21801	0.50195	2.71025	0.702053	3.5879	0.871305	4.43708	0.548688	2.80424	0.698366	3.56384	0.935013	4.76224		
0.531225	2.69928	0.442736	2.22011	0.49901	2.71163	0.703766	3.57512	0.87329	4.42066	0.550917	2.79877	0.700602	3.55388	0.936046	4.73905		
0.534227	2.69838	0.445768	2.22218	0.496078	2.71307	0.705479	3.56249	0.875281	4.40446	0.553145	2.79336	0.70285	3.54409	0.937087	4.71618		
0.537233	2.6975	0.448799	2.22422	0.493154	2.71457	0.707192	3.55001	0.877281	4.3885	0.555371	2.78801	0.705108	3.53447	0.938137	4.69363		
0.540243	2.69666	0.45183	2.22624	0.490239	2.71615	0.708905	3.53768	0.879288	4.37276	0.557595	2.78272	0.707377	3.52502	0.939196	4.67138		
0.543257	2.69584	0.454859	2.22823	0.487333	2.71779	0.710618	3.5255	0.881302	4.35724	0.559818	2.77748	0.709656	3.51573	0.940263	4.64943		
0.546273	2.69505	0.457888	2.23019	0.484438	2.71952	0.712332	3.51346	0.883323	4.34193	0.562041	2.77229	0.711946	3.5066	0.941339	4.62778		
0.549294	2.69429	0.460916	2.23212	0.481553	2.72133	0.714046	3.50156	0.885351	4.32684	0.564262	2.76716	0.714245	3.49762	0.942423	4.60643		
0.552317	2.69355	0.463942	2.23403	0.47868	2.72323	0.715761	3.48981	0.887386	4.31194	0.566483	2.76209	0.716554	3.4888	0.943517	4.58536		
0.555343	2.69283	0.466968	2.23591	0.475819	2.72523	0.717477	3.47818	0.889427	4.29726	0.568703	2.75707	0.718873	3.48012	0.944619	4.56457		
0.558371	2.69213	0.469992	2.23777	0.472971	2.72732	0.719194	3.4667	0.891475	4.28276	0.570923	2.75211	0.721201	3.47158	0.945729	4.54406		
0.561402	2.69145	0.473016	2.23959	0.470136	2.72953	0.720911	3.45535	0.893529	4.26846	0.573143	2.7472	0.723538	3.46318	0.946849	4.52382		
0.564436	2.69079	0.476038	2.2414	0.467316	2.73185	0.72263	3.44413	0.895589	4.25435	0.575362	2.74235	0.725884	3.45492	0.947977	4.50385		
0.567472	2.69015	0.479058	2.24317	0.464512	2.73429	0.724349	3.43304	0.897655	4.24043	0.577583	2.73756	0.728238	3.4468	0.949114	4.48415		
0.57051	2.68952	0.482078	2.24492	0.461724	2.73686	0.72607	3.42209	0.899727	4.22669	0.579803	2.73282	0.730601	3.4388	0.95026	4.4647		
0.57355	2.68892	0.485096	2.24665	0.458953	2.73958	0.727792	3.41125	0.901805	4.21312	0.582024	2.72813	0.732972	3.43093	0.951415	4.44551		
0.576592	2.68833	0.488113	2.24835	0.456201	2.74244	0.729515	3.40055	0.903888	4.19973	0.584246	2.7235	0.735351	3.42318	0.952578	4.42658		
0.579636	2.68775	0.491128	2.25002	0.453468	2.74547	0.73124	3.38996	0.905977	4.18651	0.586468	2.71892	0.737738	3.41555	0.953751	4.40788		
0.582681	2.68719	0.494141	2.25167	0.450757	2.74866	0.732966	3.3795	0.908071	4.17346	0.588692	2.7144	0.740133	3.40804	0.954932	4.38944		
0.585728	2.68664	0.497153	2.25329	0.448067	2.75204	0.734694	3.36916	0.91017	4.16057	0.590917	2.70994	0.742534	3.40065	0.956122	4.37123		
0.588777	2.6861	0.500164	2.25489	0.4454	2.7556	0.736424	3.35894	0.912273	4.14784	0.593143	2.70552	0.744943	3.39337	0.957321	4.35325		
0.591827	2.68557	0.503173	2.25647	0.442758	2.75938	0.738156	3.34884	0.914382	4.13527	0.595371	2.70117	0.747359	3.38619	0.958529	4.33551		
0.594878	2.68506	0.50618	2.25802	0.440142	2.76337	0.739889	3.33885	0.916495	4.12286	0.597601	2.69686	0.749781	3.37912	0.959747	4.318		
0.597931	2.68456	0.509185	2.25955	0.437553	2.76759	0.741624	3.32898	0.918613	4.11059	0.599833	2.69261	0.75221	3.37216	0.960973	4.30071		
0.600985	2.68407	0.512189	2.26105	0.434992	2.77206	0.743362	3.31922	0.920735	4.09847	0.602066	2.68842	0.754646	3.3653	0.962208	4.28365		
0.60404	2.68359	0.51519	2.26253	0.432462	2.77679	0.745102	3.30957	0.922862	4.0865	0.604302	2.68428	0.757087	3.35853	0.963452	4.2668		
0.607096	2.68312	0.51819	2.26399	0.429962	2.78179	0.746844	3.30003	0.924992	4.07467	0.606541	2.68019	0.759534	3.35187	0.964705	4.25017		
0.610152	2.68265	0.521187	2.26542	0.427496	2.78708	0.748588	3.29061	0.927127	4.06298	0.608782	2.67615	0.761987	3.34529	0.965967	4.23375		
0.61321	2.6822	0.524183	2.26683	0.425063	2.79268	0.750335	3.28129	0.929265	4.05143	0.611025	2.67217	0.764446	3.33881	0.967239	4.21753		
0.616269	2.68175	0.527176	2.26821	0.422665	2.79859	0.752084	3.27207	0.931407	4.04001	0.613272	2.66825	0.766909	3.33242	0.968519	4.20153		
0.619328	2.68131	0.530168	2.26958	0.420304	2.80485	0.753836	3.26296	0.933552	4.02872	0.615522	2.66437	0.769378	3.32611	0.969809	4.18572		
0.622388	2.68088	0.533156	2.27091	0.41798	2.81145	0.75559	3.25396	0.935701	4.01756	0.617775	2.66055	0.771852	3.31989	0.971108	4.17012		
0.625448	2.68046	0.536143	2.27223	0.415695	2.81842	0.757348	3.24506	0.937853	4.00652	0.620031	2.65679	0.77433	3.31376	0.972416	4.15471		
0.628509	2.68004	0.539127	2.27352	0.413449	2.82577	0.759108	3.23626	0.940008	3.99562	0.622291	2.65307	0.776813	3.3077	0.973733	4.13949		
0.631571	2.67963	0.542109	2.27479	0.411244	2.83352	0.760871	3.22756	0.942166	3.98483	0.624554	2.64941	0.7793	3.30172	0.97506	4.12447		
0.634633	2.67923	0.545089	2.27604	0.409079	2.84168	0.762637	3.21896	0.944327	3.97416	0.626822	2.6458	0.781791	3.29582	0.976396	4.10963		
0.637695	2.67883	0.548065	2.27726	0.406956	2.85027	0.764407	3.21046	0.946491	3.96361	0.629093	2.64224	0.784286	3.28999	0.977741	4.09498		
0.640758	2.67843	0.551039	2.27846	0.404874	2.85929	0.766179	3.20205	0.948657	3.95317	0.631368	2.63874	0.786785	3.28424	0.979096	4.08052		
0.643821	2.67804	0.554011	2.27964	0.402835	2.86876	0.767955	3.19374	0.950826	3.94284	0.633648	2.63529	0.789288	3.27856	0.98046	4.06623		
0.646885	2.67766	0.556979	2.28079	0.400838	2.8787	0.769734	3.18553	0.952997	3.93263	0.635932	2.63189	0.791794	3.27294	0.981834	4.05212		
0.649948	2.67728	0.559945	2.28193	0.398884	2.88912	0.771516	3.17741	0.955171	3.92252	0.638221	2.62854	0.794303	3.2674	0.983217	4.03819		
0.653011	2.6769	0.562908	2.28304	0.396972	2.90002	0.773302	3.16938	0.957346	3.91252	0.640514	2.62524	0.796815	3.26192	0.984609	4.02443		
0.656075	2.67653	0.565868	2.28412	0.395102	2.91143	0.775092	3.16144	0.959524	3.90262	0.642812	2.622	0.79933	3.2565	0.986011	4.01084		
0.659139	2.67616	0.568825	2.28519	0.393274	2.92335	0.776885	3.1536	0.961703	3.89283	0.645115	2.6188	0.801847	3.25115	0.987423	3.99742		
0.662202	2.6758	0.571779	2.28623	0.391487	2.93578	0.778682	3.14584	0.963884	3.88313	0.647424	2.61566	0.804367	3.24586	0.988844	3.98416		
0.665266	2.67544	0.57473	2.28725	0.389741	2.94875	0.780482	3.13818	0.966067	3.87353	0.649737	2.61257	0.80689	3.24062	0.990275	3.97107		
0.668329	2.67508	0.577677	2.28825	0.388036	2.96227	0.782287	3.1306	0.968251	3.86403	0.652056	2.60952	0.809414	3.23545	0.991715	3.95814		
0.671392	2.67472	0.580621	2.28922	0.386372	2.97633	0.784095	3.12311	0.970437	3.85463	0.654381	2.60653	0.811941	3.23033	0.993166	3.94537		
0.674455	2.67437	0.583562	2.29018	0.384746	2.99097	0.785908	3.1157	0.972624	3.84531	0.656711	2.60359	0.814469	3.22527	0.994625	3.93276		
0.677518	2.67402	0.586499	2.29111	0.38316	3.00618	0.787725	3.10838	0.974812	3.83609	0.659047	2.6007	0.816999	3.22026	0.996095	3.9203		
0.680581	2.67367	0.589433	2.29202	0.381612	3.02197	0.789546	3.10114	0.977001	3.82696	0.661388	2.59786	0.819531	3.2153	0.997575	3.908		
0.683643	2.67332	0.592363	2.2929	0.380101	3.03837	0.791371	3.09399	0.979192	3.81791	0.663736	2.59507	0.822064	3.21039	0.999064	3.89585		
0.686704	2.67297	0.59529	2.29377	0.378628	3.05537	0.7932	3.08692	0.981383	3.80895	0.66609	2.59233	0.824598	3.20554	1.00056	3.88385		
0.689765	2.67263	0.598212	2.29461	0.377191	3.073	0.795034	3.07993	0.983574	3.80008	0.66845	2.58964	0.827133	3.20073				
0.692826	2.67229	0.601131	2.29543	0.37579	3.09126	0.796873	3.07302	0.985767	3.79128	0.670817	2.58699	0.829668	3.19597				
0.695886	2.67194	0.604047	2.29623	0.374424	3.11018	0.798715	3.0662	0.98796	3.78257	0.67319	2.5844	0.832205	3.19125				
0.698945	2.6716	0.606958	2.297	0.373093	3.12976	0.800563	3.05945	0.990153	3.77394	0.675569	2.58185	0.834742	3.18658				
0.702004	2.67126	0.609865	2.29776	0.371796	3.15002	0.802415	3.05278	0.992347	3.76539	0.677956	2.57936	0.83728	3.18195				
0.705062	2.67092	0.612768	2.29849	0.370532	3.17098	0.804273	3.04618	0.994541	3.75692	0.680349	2.57691	0.839818	3.17736				
0.708119	2.67058	0.615667	2.2992	0.369302	3.19265	0.806134	3.03967	0.996735	3.74852	0.682749	2.57451	0.842356	3.17282				
0.711176	2.67024	0.618562	2.29989	0.368105	3.21506	0.808001	3.03323	0.998929	3.74019	0.685156	2.57215	0.844894	3.16831				
0.714231	2.66989	0.621453	2.30056	0.366939	3.23821	0.809874	3.02687	1.00112	3.73194	0.68757	2.56985	0.847431	3.16385				
0.717286	2.66955	0.624339	2.3012	0.365806	3.26213	0.811751	3.02058			0.689992	2.56759	0.849969	3.15942				
0.720339	2.66921	0.627221	2.30183	0.364703	3.28685	0.813633	3.01436			0.69242	2.56537	0.852506	3.15503				
0.723392	2.66886	0.630099	2.30243	0.363632	3.31237	0.81552	3.00822			0.694857	2.56321	0.855042	3.15068				
0.726443	2.66852	0.632972	2.30301	0.362591	3.33874	0.817413	3.00215			0.6973	2.56109	0.857578	3.14636				
0.729493	2.66817	0.63584	2.30357	0.361581	3.36596	0.819312	2.99616			0.699752	2.55902	0.860113	3.14207				
0.732542	2.66782	0.638704	2.30411	0.3606	3.39407	0.821216	2.99023			0.702211	2.55699	0.862647	3.13782				
0.73559	2.66748	0.641564	2.30462	0.359649	3.42309	0.823125	2.98438			0.704677	2.555	0.86518	3.1336				
0.738636	2.66712	0.644418	2.30512	0.358728	3.45305	0.825041	2.97859			0.707152	2.55307	0.867711	3.12941				
0.741681	2.66677	0.647269	2.3056	0.357835	3.48398	0.826962	2.97288			0.709634	2.55118	0.870241	3.12525				
0.744724	2.66641	0.650114	2.30605	0.356971	3.51591	0.828888	2.96724			0.712125	2.54933	0.87277	3.12112				
0.747766	2.66605	0.652954	2.30648	0.356136	3.54887	0.830821	2.96166			0.714623	2.54752	0.875297	3.11702				
0.750806	2.66569	0.65579	2.3069	0.355329	3.58291	0.83276	2.95615			0.71713	2.54576	0.877823	3.11295				
0.753844	2.66533	0.658621	2.30729	0.35455	3.61805	0.834705	2.95071			0.719644	2.54405	0.880346	3.10891				
0.75688	2.66496	0.661447	2.30766	0.353798	3.65433	0.836657	2.94534			0.722167	2.54237	0.882868	3.10489				
0.759915	2.66458	0.664268	2.30801	0.353075	3.69179	0.838614	2.94004			0.724698	2.54074	0.885387	3.1009				
0.762947	2.66421	0.667084	2.30835	0.352378	3.73048	0.840579	2.9348			0.727237	2.53915	0.887905	3.09693				
0.765978	2.66383	0.669895	2.30866	0.351709	3.77044	0.842549	2.92962			0.729785	2.53761	0.89042	3.09299				
0.769006	2.66344	0.672702	2.30895	0.351067	3.81171	0.844527	2.92452			0.732341	2.5361	0.892933	3.08908				
0.772032	2.66305	0.675503	2.30923	0.350451	3.85435	0.846511	2.91947			0.734905	2.53464	0.895443	3.08518				
0.775055	2.66266	0.678299	2.30948	0.349862	3.8984	0.848502	2.91449			0.737478	2.53321	0.89795	3.08131				
0.778076	2.66226	0.681091	2.30972	0.3493	3.94392	0.8505	2.90958			0.740059	2.53183	0.900455	3.07746				
0.781095	2.66185	0.683877	2.30994	0.348763	3.99097	0.852505	2.90473			0.742649	2.53049	0.902958	3.07363				
0.784111	2.66144	0.686659	2.31014	0.348253	4.0396	0.854518	2.89994			0.745247	2.52918	0.905457	3.06982				
0.787124	2.66102	0.689436	2.31032	0.347768	4.08989	0.856538	2.89521			0.747853	2.52792	0.907953	3.06604				
0.790134	2.6606	0.692207	2.31048	0.347309	4.14189	0.858565	2.89055			0.750468	2.52669	0.910447	3.06227				
0.793141	2.66017	0.694974	2.31063	0.346875	4.19569	0.8606	2.88595			0.753091	2.5255	0.912937	3.05852				
0.796145	2.65973	0.697736	2.31076	0.346466	4.25135	0.862643	2.88142			0.755723	2.52435	0.915424	3.05479				
0.799146	2.65929	0.700493	2.31087	0.346082	4.30895	0.864693	2.87694			0.758363	2.52324	0.917907	3.05108				
0.802143	2.65883	0.703246	2.31096	0.345723	4.36858	0.866752	2.87253			0.761012	2.52216	0.920388	3.04739				
0.805136	2.65837	0.705993	2.31104	0.345388	4.43032	0.868819	2.86817			0.763669	2.52112	0.922864	3.04371				
0.808126	2.6579	0.708736	2.3111	0.345078	4.49428	0.870894	2.86388			0.766334	2.52011	0.925338	3.04005				
0.811113	2.65742	0.711474	2.31115	0.344792	4.56055	0.872978	2.85965			0.769008	2.51914	0.927807	3.03641				
0.814095	2.65693	0.714207	2.31118	0.344529	4.62924	0.87507	2.85548			0.771689	2.51821	0.930274	3.03278				
0.817073	2.65644	0.716936	2.3112	0.34429	4.70046	0.877171	2.85137			0.774379	2.5173	0.932736	3.02917				
0.820046	2.65593	0.71966	2.3112	0.344074	4.77432	0.879282	2.84733			0.777078	2.51643	0.935195	3.02558				
0.823016	2.65541	0.72238	2.31119	0.343881	4.85097	0.881401	2.84334			0.779784	2.5156	0.937649	3.022				
0.82598	2.65488	0.725096	2.31116	0.34371	4.93054	0.88353	2.83941			0.782498	2.51479	0.9401	3.01843				
0.82894	2.65434	0.727807	2.31112	0.343562	5.01317	0.885668	2.83554			0.785221	2.51402	0.942547	3.01488				
0.831895	2.65378	0.730513	2.31107	0.343436	5.09902	0.887816	2.83174			0.787951	2.51328	0.94499	3.01134				
0.834844	2.65322	0.733216	2.311	0.343332	5.18825	0.889974	2.82799			0.790689	2.51257	0.94743	3.00782				
0.837789	2.65264	0.735914	2.31092	0.343249	5.28105	0.892142	2.8243			0.793435	2.51189	0.949865	3.00431				
0.840727	2.65205	0.738608	2.31083	0.343188	5.37761	0.894321	2.82067			0.796189	2.51124	0.952295	3.00081				
0.84366	2.65144	0.741299	2.31073	0.343147	5.47813	0.89651	2.81711			0.79895	2.51061	0.954722	2.99733				
0.846587	2.65082	0.743985	2.31061	0.343126	5.58283	0.898709	2.8136			0.801719	2.51002	0.957145	2.99386				
0.849507	2.65019	0.746668	2.31049	0.343125	5.69196	0.90092	2.81015			0.804495	2.50945	0.959563	2.9904				
0.852422	2.64954	0.749346	2.31035	0.343144	5.80578	0.903142	2.80676			0.807279	2.50891	0.961978	2.98695				
0.855329	2.64887	0.752021	2.3102	0.343182	5.92455	0.905375	2.80344			0.81007	2.5084	0.964388	2.98352				
0.85823	2.64819	0.754693	2.31005	0.343238	6.04859	0.90762	2.80017			0.812868	2.50791	0.966794	2.9801				
0.861124	2.64749	0.757361	2.30988	0.343313	6.17821	0.909876	2.79696			0.815674	2.50745	0.969195	2.97669				
0.86401	2.64678	0.760025	2.30971	0.343405	6.31378	0.912145	2.79381			0.818486	2.50701	0.971593	2.97329				
0.866889	2.64604	0.762687	2.30952	0.343515	6.45568	0.914426	2.79073			0.821305	2.5066	0.973986	2.9699				
0.86976	2.64529	0.765345	2.30933	0.343641	6.60432	0.91672	2.7877			0.824131	2.50621	0.976375	2.96653				
0.872624	2.64452	0.768	2.30913	0.343784	6.76017	0.919026	2.78473			0.826964	2.50584	0.97876	2.96316				
0.875479	2.64373	0.770651	2.30892	0.343942	6.92373	0.921345	2.78183			0.829804	2.5055	0.98114	2.95981				
0.878326	2.64292	0.7733	2.30871	0.344115	7.09555	0.923677	2.77898			0.83265	2.50518	0.983516	2.95646				
0.881164	2.6421	0.775946	2.30848	0.344302	7.27623	0.926023	2.77619			0.835502	2.50488	0.985888	2.95313				
0.883994	2.64125	0.77859	2.30825	0.344504	7.46645	0.928382	2.77347			0.838361	2.5046	0.988256	2.94981				
0.886815	2.64038	0.78123	2.30802	0.344718	7.66692	0.930754	2.7708			0.841226	2.50434	0.99062	2.9465				
0.889626	2.63949	0.783868	2.30778	0.344945	7.87847	0.933141	2.76819			0.844097	2.5041	0.992979	2.9432				
0.892429	2.63858	0.786504	2.30753	0.345183	8.10199	0.935542	2.76565			0.846974	2.50388	0.995334	2.93991				
0.895222	2.63764	0.789137	2.30728	0.345433	8.3385	0.937957	2.76316			0.849856	2.50368	0.997686	2.93664				
0.898005	2.63669	0.791768	2.30702	0.345692	8.58912	0.940386	2.76073			0.852745	2.5035	1.00003	2.93337				
0.900779	2.63571	0.794396	2.30676	0.345926	8.81999	0.94283	2.75836			0.85564	2.50334						
0.903542	2.63471	0.797022	2.30649	0.346131	9.02669	0.945289	2.75605			0.858539	2.50319						
0.906296	2.63369	0.799647	2.30622	0.346303	9.20498	0.947762	2.7538			0.861445	2.50306						
0.90904	2.63265	0.802269	2.30595	0.346442	9.35094	0.95025	2.75161			0.864356	2.50295						
0.911775	2.63159	0.80489	2.30567	0.346545	9.4612	0.952752	2.74947			0.867272	2.50285						
0.914498	2.6305	0.807508	2.30539	0.34664	9.56493	0.95527	2.74739			0.870193	2.50277						
0.917212	2.62939	0.810126	2.3051	0.346707	9.63841	0.957803	2.74537			0.873119	2.5027						
0.919916	2.62827	0.812741	2.30482	0.346812	9.75548	0.96035	2.74341			0.87605	2.50265						
0.92261	2.62712	0.815355	2.30453	0.346956	9.91925	0.962912	2.7415			0.878987	2.50261						
0.925294	2.62595	0.817967	2.30423	0.34714	10.1343	0.965489	2.73964			0.881928	2.50259						
0.927968	2.62476	0.820578	2.30394	0.347365	10.4068	0.96808	2.73784			0.884873	2.50258						
0.930632	2.62355	0.823188	2.30365	0.347632	10.7454	0.970687	2.73609			0.887823	2.50258						
0.933287	2.62232	0.825796	2.30335	0.347941	11.1616	0.973307	2.73439			0.890778	2.5026						
0.935932	2.62107	0.828403	2.30305	0.348253	11.6105	0.975942	2.73275			0.893737	2.50262						
0.938567	2.61981	0.831009	2.30275	0.348565	12.0962	0.978591	2.73115			0.8967	2.50266						
0.941194	2.61852	0.833615	2.30245	0.348878	12.6233	0.981254	2.7296			0.899668	2.50271						
0.943811	2.61722	0.836219	2.30215	0.34919	13.1973	0.98393	2.72811			0.90264	2.50277						
0.94642	2.61591	0.838822	2.30185	0.3495	13.8248	0.98662	2.72666			0.905615	2.50285						
0.949021	2.61458	0.841424	2.30155	0.349807	14.5135	0.989324	2.72525			0.908595	2.50293						
0.951613	2.61324	0.844026	2.30124	0.350109	15.2729	0.99204	2.72389			0.911578	2.50302						
0.954197	2.61188	0.846627	2.30094	0.350406	16.1143	0.994769	2.72257			0.914566	2.50313						
0.956774	2.61051	0.849228	2.30064	0.350696	17.0517	0.99751	2.7213			0.917557	2.50324						
0.959343	2.60913	0.851827	2.30034	0.350978	18.1028	1.00026	2.72007			0.920552	2.50336						
0.961905	2.60774	0.854427	2.30004	0.351251	19.2894					0.92355	2.50349						
0.96446	2.60634	0.857025	2.29974	0.351514	20.6396					0.926551	2.50363						
0.967009	2.60493	0.859624	2.29944	0.351765	22.1899					0.929556	2.50377						
0.969552	2.60352	0.862222	2.29914	0.352004	23.9883					0.932565	2.50393						
0.972088	2.6021	0.86482	2.29884	0.352229	26.0998					0.935576	2.50409						
0.97462	2.60067	0.867417	2.29855	0.35244	28.6141					0.938591	2.50426						
0.977146	2.59923	0.870014	2.29825	0.352635	31.6592					0.941609	2.50444						
0.979667	2.5978	0.872611	2.29796	0.352813	35.4231					0.94463	2.50462						
0.982183	2.59636	0.875208	2.29767	0.352974	40.1954					0.947654	2.50481						
0.984695	2.59491	0.877805	2.29738	0.353116	46.4447					0.950681	2.50501						
0.987204	2.59347	0.880402	2.29709	0.35324	54.9838					0.953711	2.50521						
0.989708	2.59202	0.882999	2.2968	0.353343	67.3558					0.956743	2.50542						
0.992209	2.59058	0.885596	2.29652	0.353427	86.8924					0.959778	2.50564						
0.994707	2.58913	0.888193	2.29623	0.353489	122.361					0.962816	2.50586						
0.997202	2.58769	0.89079	2.29595	0.353531	206.697					0.965856	2.50609						
0.999695	2.58625	0.893387	2.29567	0.353551	664.728					0.9689	2.50632						
1.00219	2.58481	0.895985	2.2954							0.971945	2.50655						
		0.898583	2.29512							0.974993	2.5068						
		0.901181	2.29485							0.978043	2.50704						
		0.903779	2.29458							0.981096	2.50729						
		0.906378	2.29432							0.984151	2.50755						
		0.908977	2.29405							0.987208	2.50781						
		0.911576	2.29379							0.990267	2.50807						
		0.914176	2.29353							0.993329	2.50834						
		0.916776	2.29327							0.996392	2.50861						
		0.919377	2.29302							0.999458	2.50888						
		0.921978	2.29277							1.00253	2.50916						
		0.92458	2.29252														
		0.927182	2.29227														
		0.929784	2.29203														
		0.932388	2.29179														
		0.934992	2.29155														
		0.937596	2.29131														
		0.940201	2.29108														
		0.942807	2.29085														
		0.945413	2.29063														
		0.94802	2.2904														
		0.950628	2.29018														
		0.953237	2.28996														
		0.955846	2.28975														
		0.958456	2.28954														
		0.961066	2.28933														
		0.963677	2.28912														
		0.96629	2.28892														
		0.968902	2.28872														
		0.971516	2.28852														
		0.97413	2.28833														
		0.976746	2.28814														
		0.979362	2.28795														
		0.981978	2.28776														
		0.984596	2.28758														
		0.987214	2.2874														
		0.989833	2.28722														
		0.992453	2.28705														
		0.995074	2.28688														
		0.997696	2.28671														
		1.00032	2.28655														
