Sym0		Asym0		Sym1		Sym2		Sym3		Asym1		Asym2		Asym3	
470  Points		492  Points		203  Points		143  Points		126  Points		368  Points		158  Points		126  Points	
Freq (MHz)	Vph (m/ms)	Freq (MHz)	Vph (m/ms)	Freq (MHz)	Vph (m/ms)	Freq (MHz)	Vph (m/ms)	Freq (MHz)	Vph (m/ms)	Freq (MHz)	Vph (m/ms)	Freq (MHz)	Vph (m/ms)	Freq (MHz)	Vph (m/ms)
0.00449975	7.36365	0.000434938	0.214935	0.279534	465.657	0.432654	2140.48	0.559052	624.578	0.139875	181.131	0.419264	2404.27	0.698771	194268
0.0113596	7.36314	0.000921621	0.311856	0.279675	182.556	0.432698	381.627	0.559161	306.091	0.140342	82.3637	0.419328	379.113	0.698798	747.144
0.0182172	7.36208	0.0015802	0.406538	0.279938	113.626	0.432803	209.537	0.559345	202.773	0.141155	53.5566	0.419486	205.855	0.698879	374.335
0.0250712	7.36054	0.00240187	0.498451	0.280324	82.5603	0.43297	144.458	0.559604	151.647	0.142307	39.8919	0.419736	141.351	0.699012	249.765
0.0319202	7.35852	0.00337612	0.587114	0.280831	64.9009	0.433199	110.259	0.559938	121.15	0.143788	31.9598	0.420079	107.68	0.6992	187.434
0.0387627	7.35598	0.00449134	0.67215	0.281459	53.5217	0.433491	89.1845	0.560346	100.898	0.145584	26.8075	0.420515	87.0116	0.69944	150.028
0.0455973	7.35293	0.00573567	0.753331	0.282205	45.587	0.433845	74.9004	0.560828	86.4774	0.147681	23.2115	0.421043	73.0399	0.699734	125.092
0.0524227	7.34938	0.00709667	0.830462	0.283068	39.7447	0.434264	64.5842	0.561384	75.6894	0.150064	20.5733	0.421662	62.9699	0.700081	107.284
0.0592371	7.3453	0.0085623	0.903469	0.284047	35.2684	0.434747	56.7874	0.562014	67.318	0.152716	18.5655	0.422373	55.3718	0.70048	93.934
0.0660391	7.34067	0.0101211	0.972355	0.28514	31.7331	0.435295	50.6901	0.562717	60.6354	0.15562	16.9938	0.423175	49.4384	0.700933	83.5553
0.0728269	7.33549	0.011762	1.03717	0.286343	28.8733	0.435911	45.7934	0.563493	55.1793	0.15876	15.7357	0.424066	44.6793	0.701439	75.2572
0.079599	7.32974	0.013475	1.098	0.287656	26.5147	0.436594	41.7762	0.564342	50.6421	0.16212	14.7103	0.425046	40.7796	0.701997	68.4725
0.0863533	7.3234	0.0152506	1.15501	0.289075	24.5382	0.437347	38.4228	0.565262	46.8109	0.165684	13.8618	0.426115	37.5276	0.702607	62.8229
0.0930882	7.31646	0.0170808	1.20835	0.290599	22.8596	0.43817	35.5826	0.566254	43.5342	0.169437	13.1507	0.427272	34.776	0.70327	58.0465
0.0998014	7.30889	0.0189579	1.25821	0.292223	21.4177	0.439066	33.1474	0.567317	40.7005	0.173364	12.5481	0.428515	32.4188	0.703984	53.9562
0.106491	7.30066	0.0208752	1.30478	0.293946	20.1668	0.440035	31.0374	0.568451	38.2267	0.177453	12.0326	0.429844	30.3781	0.704751	50.4149
0.113155	7.29175	0.0228269	1.34826	0.295765	19.0725	0.44108	29.1927	0.569655	36.0491	0.181691	11.5879	0.431258	28.5951	0.705569	47.3196
0.11979	7.28213	0.024808	1.38884	0.297677	18.1078	0.442202	27.5671	0.570928	34.118	0.186066	11.2013	0.432755	27.0249	0.706438	44.5916
0.126395	7.27177	0.0268138	1.42672	0.299679	17.2519	0.443403	26.1246	0.572269	32.3946	0.190567	10.863	0.434334	25.6322	0.707358	42.1696
0.132966	7.26064	0.0288406	1.46207	0.301769	16.4879	0.444686	24.8368	0.573679	30.8475	0.195186	10.5652	0.435995	24.3892	0.708328	40.0054
0.139501	7.24869	0.0306211	1.49097	0.303945	15.8023	0.446052	23.6808	0.575157	29.4514	0.199911	10.3015	0.437736	23.2736	0.70935	38.0603
0.145996	7.23588	0.0321481	1.51429	0.306203	15.1842	0.447502	22.638	0.576701	28.1858	0.204736	10.0667	0.439556	22.2673	0.710421	36.303
0.152448	7.22218	0.0334162	1.5327	0.308542	14.6245	0.44904	21.6934	0.578311	27.0335	0.209651	9.85686	0.441453	21.3555	0.711542	34.7078
0.158854	7.20753	0.0344221	1.54674	0.310961	14.1158	0.450667	20.8342	0.579987	25.9804	0.214649	9.66835	0.443427	20.5258	0.712712	33.2537
0.16521	7.19189	0.0351633	1.55677	0.313456	13.6517	0.452385	20.05	0.581728	25.0143	0.219724	9.49833	0.445475	19.7681	0.713931	31.9228
0.171512	7.17519	0.0356384	1.56306	0.316028	13.227	0.454197	19.332	0.583532	24.1254	0.224204	9.36336	0.447598	19.0737	0.715199	30.7006
0.177755	7.15739	0.0363221	1.57194	0.318675	12.8372	0.456103	18.6727	0.5854	23.3049	0.228062	9.25691	0.449792	18.4353	0.716515	29.5743
0.183935	7.13842	0.0370665	1.58138	0.321397	12.4785	0.458106	18.0656	0.58733	22.5455	0.231278	9.17431	0.452057	17.8466	0.71788	28.5333
0.190046	7.11823	0.0380804	1.59387	0.324193	12.1476	0.460208	17.5053	0.589322	21.8408	0.233836	9.11221	0.454392	17.3023	0.719291	27.5685
0.196084	7.09674	0.0393651	1.6091	0.327065	11.8418	0.46241	16.9871	0.591374	21.1854	0.235725	9.06825	0.456794	16.7979	0.72075	26.672
0.202044	7.07388	0.0409222	1.62672	0.330012	11.5586	0.464715	16.5068	0.593487	20.5744	0.236938	9.04084	0.459263	16.3292	0.722256	25.8369
0.207918	7.0496	0.0427526	1.64635	0.333037	11.296	0.467122	16.0608	0.59566	20.0036	0.238686	9.00238	0.461798	15.8929	0.723807	25.0573
0.213702	7.02382	0.0448573	1.66757	0.336141	11.052	0.469634	15.6459	0.597891	19.4693	0.240592	8.96181	0.464396	15.4858	0.725405	24.3279
0.219389	6.99648	0.0469657	1.6875	0.339326	10.8251	0.472252	15.2595	0.600179	18.9684	0.243195	8.90858	0.467057	15.1052	0.727048	23.6442
0.224972	6.96752	0.0490768	1.70624	0.342595	10.6139	0.474976	14.899	0.602525	18.4979	0.246502	8.8443	0.469779	14.7488	0.728736	23.0022
0.230445	6.93686	0.0511901	1.72387	0.345951	10.4172	0.477807	14.5622	0.604927	18.0552	0.250523	8.77079	0.472561	14.4145	0.730469	22.3982
0.235802	6.90447	0.0533049	1.74048	0.349398	10.2339	0.480746	14.2472	0.607385	17.638	0.255269	8.68994	0.475401	14.1004	0.732246	21.829
0.241036	6.87029	0.0554207	1.75614	0.352938	10.063	0.483792	13.9523	0.609898	17.2444	0.26075	8.60364	0.478298	13.8049	0.734066	21.2919
0.246141	6.8343	0.0575371	1.77092	0.356576	9.90358	0.486946	13.6758	0.612464	16.8725	0.266265	8.52358	0.481251	13.5263	0.73593	20.7843
0.251111	6.79648	0.0596538	1.78488	0.360314	9.75498	0.490208	13.4163	0.615084	16.5207	0.27181	8.44908	0.484258	13.2635	0.737837	20.3039
0.25594	6.75681	0.0617706	1.79809	0.363656	9.63371	0.493577	13.1726	0.617757	16.1874	0.277382	8.37959	0.487319	13.0152	0.739786	19.8486
0.260626	6.71532	0.0638871	1.8106	0.366569	9.53603	0.497052	12.9435	0.620481	15.8713	0.282977	8.31459	0.490432	12.7804	0.741776	19.4167
0.265162	6.67204	0.0660033	1.82245	0.369023	9.45903	0.500632	12.7279	0.623257	15.5712	0.288592	8.25363	0.493595	12.5579	0.743808	19.0063
0.269547	6.62702	0.0681189	1.83369	0.370992	9.40047	0.504317	12.5249	0.626083	15.286	0.294225	8.19633	0.496809	12.347	0.745882	18.6161
0.273779	6.58033	0.0702339	1.84437	0.372457	9.35868	0.508105	12.3336	0.628959	15.0147	0.299872	8.14232	0.50007	12.1468	0.747995	18.2446
0.277857	6.53206	0.0723482	1.85452	0.373402	9.33248	0.511995	12.1532	0.631884	14.7563	0.305532	8.0913	0.50338	11.9566	0.750149	17.8906
0.28178	6.48232	0.0744617	1.86417	0.37477	9.29555	0.515985	11.9829	0.634857	14.51	0.311201	8.04298	0.506736	11.7757	0.752343	17.5528
0.285552	6.43124	0.0765743	1.87337	0.376271	9.25639	0.520073	11.822	0.637879	14.2751	0.316877	7.9971	0.510138	11.6035	0.754575	17.2304
0.289173	6.37894	0.078686	1.88213	0.378335	9.20469	0.524257	11.67	0.640948	14.0508	0.322557	7.95345	0.513584	11.4395	0.756847	16.9223
0.292647	6.32558	0.0807968	1.89049	0.380983	9.14182	0.528535	11.5262	0.644063	13.8365	0.328239	7.9118	0.517074	11.2831	0.759157	16.6275
0.295979	6.2713	0.0829068	1.89847	0.384241	9.06939	0.532906	11.3901	0.647225	13.6316	0.333921	7.87198	0.520607	11.1338	0.761505	16.3454
0.299173	6.21626	0.0850157	1.9061	0.388141	8.98917	0.537367	11.2612	0.650433	13.4355	0.339601	7.83381	0.524182	10.9913	0.76389	16.0751
0.302235	6.16062	0.0871238	1.91339	0.392719	8.90308	0.541915	11.139	0.653685	13.2477	0.345276	7.79714	0.527799	10.855	0.766313	15.816
0.305171	6.10452	0.089231	1.92037	0.397403	8.82292	0.546548	11.0231	0.656983	13.0678	0.350944	7.76184	0.531457	10.7247	0.768773	15.5674
0.307986	6.04812	0.0913373	1.92706	0.402191	8.74825	0.551264	10.9132	0.660325	12.8953	0.356604	7.72776	0.535155	10.6001	0.771268	15.3288
0.310687	5.99154	0.0934426	1.93348	0.407078	8.67868	0.55606	10.8088	0.663711	12.7298	0.362252	7.6948	0.538892	10.4807	0.7738	15.0995
0.313281	5.93492	0.0955472	1.93963	0.41206	8.61379	0.560935	10.7095	0.667141	12.571	0.367887	7.66284	0.542669	10.3663	0.776368	14.8791
0.315773	5.87838	0.0976509	1.94554	0.417132	8.55322	0.565884	10.6152	0.670614	12.4184	0.373506	7.63178	0.546485	10.2567	0.778971	14.6671
0.31817	5.82203	0.0997538	1.95122	0.422287	8.49662	0.570906	10.5255	0.67413	12.2718	0.379108	7.60154	0.55034	10.1515	0.781609	14.463
0.320479	5.76597	0.101856	1.95667	0.427522	8.44365	0.575998	10.44	0.677689	12.1308	0.384691	7.57202	0.554232	10.0506	0.784281	14.2665
0.322704	5.71028	0.103957	1.96193	0.432829	8.394	0.581158	10.3586	0.681291	11.9952	0.390252	7.54315	0.557655	9.96591	0.786988	14.0772
0.324851	5.65505	0.106058	1.96698	0.438202	8.34739	0.586382	10.281	0.684936	11.8648	0.39579	7.51486	0.560596	9.89606	0.789729	13.8946
0.326927	5.60034	0.108158	1.97186	0.443636	8.30353	0.591669	10.207	0.688623	11.7392	0.401302	7.48707	0.563044	9.83985	0.792504	13.7186
0.328935	5.54622	0.110257	1.97655	0.449125	8.26219	0.597015	10.1363	0.692354	11.6183	0.406786	7.45972	0.564989	9.79637	0.795312	13.5487
0.33088	5.49274	0.112355	1.98108	0.454663	8.22313	0.602419	10.0687	0.696127	11.5017	0.412241	7.43275	0.566425	9.76493	0.798153	13.3846
0.332767	5.43993	0.114453	1.98546	0.460246	8.18615	0.607172	10.0123	0.699943	11.3895	0.417663	7.40611	0.567346	9.74504	0.801027	13.2262
0.334601	5.38785	0.116551	1.98968	0.465867	8.15105	0.611255	9.9659	0.703802	11.2812	0.423052	7.37975	0.568675	9.71676	0.803934	13.0731
0.336385	5.33651	0.118647	1.99376	0.471522	8.11766	0.614652	9.92864	0.707705	11.1769	0.428406	7.35361	0.570123	9.68644	0.806873	12.925
0.338122	5.28594	0.120743	1.99771	0.477206	8.08583	0.617351	9.89987	0.711652	11.0762	0.433721	7.32766	0.5721	9.64587	0.809844	12.7819
0.339817	5.23616	0.122839	2.00153	0.482915	8.05539	0.619343	9.8791	0.715644	10.9792	0.438996	7.30185	0.574613	9.59565	0.812847	12.6433
0.341471	5.18719	0.124934	2.00522	0.488645	8.02623	0.620621	9.86597	0.719681	10.8855	0.44423	7.27614	0.577672	9.53649	0.815882	12.5093
0.343089	5.13904	0.127028	2.0088	0.494391	7.99822	0.622462	9.84731	0.723763	10.7951	0.449419	7.2505	0.581285	9.46923	0.818948	12.3794
0.344674	5.09171	0.129122	2.01227	0.500151	7.97126	0.624468	9.82732	0.727893	10.7079	0.454563	7.22489	0.585468	9.39477	0.822046	12.2537
0.346226	5.04521	0.131216	2.01563	0.505922	7.94524	0.627206	9.80061	0.732071	10.6238	0.459659	7.19928	0.589687	9.3231	0.825175	12.1318
0.34775	4.99953	0.133309	2.01888	0.511699	7.92008	0.630682	9.76758	0.736297	10.5425	0.464706	7.17364	0.593944	9.25409	0.828334	12.0137
0.349247	4.95469	0.135402	2.02205	0.51748	7.8957	0.634907	9.72873	0.740574	10.4642	0.469702	7.14795	0.598239	9.18763	0.831524	11.8992
0.350719	4.91066	0.137494	2.02511	0.523262	7.87202	0.63989	9.6846	0.744902	10.3886	0.474644	7.12219	0.602571	9.12361	0.834745	11.7881
0.352169	4.86746	0.139586	2.02809	0.529043	7.84897	0.645641	9.63577	0.748717	10.3249	0.479532	7.09632	0.606941	9.06194	0.837996	11.6803
0.353597	4.82507	0.141677	2.03099	0.53482	7.8265	0.651426	9.58876	0.752001	10.2721	0.484364	7.07035	0.611349	9.00252	0.841277	11.5757
0.355006	4.78348	0.143768	2.0338	0.540592	7.80455	0.65724	9.54347	0.754741	10.2296	0.489139	7.04423	0.615794	8.94525	0.844587	11.4742
0.356397	4.74269	0.145859	2.03653	0.546355	7.78307	0.663081	9.49977	0.756922	10.1966	0.493854	7.01797	0.620276	8.89005	0.847928	11.3756
0.357772	4.70268	0.147949	2.03919	0.552109	7.76201	0.668946	9.45755	0.758535	10.1727	0.498509	6.99155	0.624797	8.83683	0.851298	11.2798
0.359132	4.66344	0.150039	2.04178	0.557851	7.74134	0.674832	9.41672	0.75957	10.1576	0.503102	6.96497	0.629354	8.78552	0.854697	11.1868
0.360478	4.62497	0.152129	2.0443	0.563579	7.721	0.680735	9.37718	0.761065	10.1361	0.507633	6.9382	0.633949	8.73604	0.858126	11.0963
0.361641	4.59206	0.154219	2.04675	0.569292	7.70098	0.686652	9.33883	0.762697	10.113	0.5121	6.91125	0.63858	8.68831	0.861583	11.0084
0.362626	4.56444	0.156308	2.04914	0.574989	7.68122	0.692579	9.30159	0.764929	10.0821	0.516504	6.88411	0.643248	8.64227	0.865069	10.9229
0.363435	4.54191	0.158397	2.05147	0.580667	7.66172	0.698514	9.26535	0.767772	10.0438	0.520842	6.85679	0.647952	8.59784	0.868584	10.8398
0.364072	4.52429	0.160485	2.05374	0.586325	7.64243	0.704452	9.23005	0.771242	9.99868	0.525115	6.82928	0.652691	8.55496	0.872127	10.7589
0.364539	4.51144	0.162574	2.05595	0.591963	7.62333	0.71039	9.19559	0.775358	9.94734	0.529322	6.80158	0.657465	8.51357	0.875698	10.6802
0.364838	4.50326	0.164662	2.05811	0.597578	7.60441	0.716324	9.16191	0.780144	9.89052	0.533463	6.77369	0.662273	8.4736	0.878833	10.6133
0.365266	4.49157	0.16675	2.06021	0.60317	7.58563	0.72225	9.12892	0.784999	9.83589	0.537538	6.74563	0.667115	8.435	0.881522	10.5576
0.36573	4.47895	0.168837	2.06226	0.608738	7.56698	0.728165	9.09656	0.789925	9.7834	0.541546	6.71739	0.671989	8.3977	0.883756	10.5123
0.366359	4.46193	0.170924	2.06427	0.614279	7.54844	0.734065	9.06476	0.794925	9.73302	0.545488	6.68899	0.676895	8.36165	0.885531	10.477
0.367153	4.44064	0.173012	2.06622	0.619794	7.53	0.739947	9.03346	0.8	9.68468	0.549365	6.66043	0.681832	8.3268	0.88684	10.4513
0.368108	4.41524	0.175099	2.06814	0.62528	7.51163	0.745806	9.00259	0.805154	9.63836	0.553176	6.63172	0.686798	8.29309	0.887679	10.435
0.369224	4.38591	0.177185	2.07	0.630738	7.49332	0.75164	8.97212	0.810387	9.594	0.556922	6.60288	0.691792	8.26046	0.888889	10.4118
0.370498	4.35287	0.179272	2.07183	0.636166	7.47507	0.757447	8.94198	0.815702	9.55156	0.560603	6.57391	0.696814	8.22888	0.890206	10.3867
0.371767	4.32049	0.181358	2.07361	0.641563	7.45685	0.763222	8.91214	0.821099	9.511	0.56422	6.54482	0.701862	8.19828	0.892004	10.353
0.373031	4.28874	0.183444	2.07536	0.646928	7.43865	0.768965	8.88256	0.826579	9.47226	0.567775	6.51564	0.706934	8.16863	0.894287	10.311
0.37429	4.25761	0.18553	2.07706	0.65226	7.42047	0.774673	8.85321	0.832144	9.43529	0.571267	6.48636	0.71203	8.13988	0.897061	10.2611
0.375545	4.22709	0.187616	2.07873	0.657559	7.40229	0.780345	8.82408	0.837793	9.40003	0.574697	6.457	0.717147	8.11198	0.900333	10.2038
0.376797	4.19716	0.189702	2.08036	0.662823	7.38411	0.78598	8.79513	0.843525	9.36643	0.578067	6.42758	0.722285	8.0849	0.904113	10.1396
0.378046	4.16782	0.191787	2.08196	0.668053	7.36591	0.791578	8.76638	0.84934	9.33443	0.581378	6.39811	0.727442	8.05858	0.90792	10.077
0.379293	4.13905	0.193872	2.08353	0.673246	7.34769	0.797138	8.7378	0.855236	9.30396	0.58463	6.3686	0.732617	8.033	0.911752	10.0159
0.380537	4.11083	0.195958	2.08506	0.678402	7.32943	0.802662	8.7094	0.861211	9.27496	0.587825	6.33906	0.737808	8.0081	0.915609	9.9564
0.38178	4.08316	0.198043	2.08656	0.683521	7.31114	0.80815	8.68119	0.867264	9.24735	0.590963	6.30951	0.743013	7.98387	0.919492	9.89834
0.383022	4.05603	0.200127	2.08803	0.688602	7.29281	0.813604	8.65317	0.873391	9.22108	0.594047	6.27997	0.748232	7.96025	0.923401	9.8417
0.384263	4.02941	0.202212	2.08947	0.693644	7.27443	0.819025	8.62536	0.879591	9.19608	0.597076	6.25043	0.753462	7.93722	0.927333	9.78644
0.385503	4.00331	0.204297	2.09088	0.698646	7.25599	0.824415	8.59776	0.885859	9.17227	0.600053	6.22091	0.758703	7.91474	0.931291	9.73251
0.386744	3.9777	0.206381	2.09226	0.703608	7.2375	0.829777	8.57041	0.892194	9.14959	0.602978	6.19143	0.763952	7.89279	0.935273	9.67987
0.387984	3.95259	0.208465	2.09361	0.70853	7.21894	0.835113	8.5433	0.898591	9.12798	0.605852	6.162	0.769209	7.87133	0.939279	9.62849
0.389225	3.92795	0.21055	2.09494	0.713411	7.20032	0.840424	8.51646	0.905048	9.10738	0.608678	6.13263	0.774471	7.85033	0.943308	9.57831
0.390467	3.90377	0.212634	2.09625	0.71825	7.18163	0.845713	8.48991	0.911562	9.08772	0.611455	6.10332	0.779738	7.82978	0.947362	9.52932
0.391709	3.88005	0.214718	2.09753	0.723047	7.16286	0.850984	8.46365	0.918128	9.06895	0.614186	6.07409	0.785008	7.80963	0.951438	9.48147
0.392953	3.85678	0.216802	2.09878	0.727801	7.14402	0.856236	8.43771	0.924745	9.05101	0.616871	6.04494	0.790279	7.78987	0.955538	9.43472
0.394198	3.83394	0.218885	2.10001	0.732513	7.12511	0.861474	8.41209	0.931409	9.03385	0.619512	6.0159	0.795551	7.77047	0.95966	9.38905
0.395445	3.81152	0.220969	2.10122	0.737181	7.10612	0.866699	8.3868	0.938117	9.01743	0.62211	5.98695	0.800822	7.75141	0.963805	9.34442
0.396693	3.78953	0.223052	2.10241	0.741806	7.08705	0.871912	8.36186	0.944866	9.00169	0.624665	5.95812	0.80609	7.73267	0.967972	9.30081
0.397944	3.76794	0.225136	2.10357	0.746387	7.06791	0.877116	8.33727	0.951654	8.98659	0.62718	5.92942	0.811355	7.71423	0.972161	9.25818
0.399196	3.74674	0.227219	2.10471	0.750925	7.04868	0.882312	8.31304	0.958479	8.9721	0.629654	5.90083	0.816615	7.69607	0.976372	9.21651
0.400451	3.72594	0.229302	2.10584	0.755418	7.02938	0.887502	8.28918	0.965337	8.95817	0.63209	5.87239	0.821869	7.67816	0.980604	9.17576
0.401708	3.70552	0.231385	2.10694	0.759866	7.01	0.892686	8.26567	0.972227	8.94477	0.634489	5.84409	0.827116	7.6605	0.984858	9.13591
0.402968	3.68546	0.233468	2.10802	0.764271	6.99055	0.897867	8.24253	0.979146	8.93187	0.63685	5.81593	0.832354	7.64306	0.989133	9.09695
0.404231	3.66577	0.235551	2.10909	0.768631	6.97102	0.903045	8.21976	0.986093	8.91943	0.639177	5.78793	0.837582	7.62583	0.993429	9.05883
0.405496	3.64644	0.237634	2.11013	0.772946	6.95142	0.90822	8.19735	0.993065	8.90743	0.641468	5.76008	0.8428	7.60879	0.997745	9.02155
0.406764	3.62745	0.239717	2.11116	0.777217	6.93175	0.913395	8.17531	1.00006	8.89583	0.643727	5.7324	0.848006	7.59193	1.00208	8.98507
0.408036	3.60881	0.2418	2.11217	0.781444	6.91201	0.918568	8.15362			0.645952	5.70489	0.853199	7.57524		
0.40931	3.59049	0.243882	2.11317	0.785626	6.89221	0.923742	8.13229			0.648147	5.67755	0.858378	7.55869		
0.410588	3.5725	0.245965	2.11414	0.789764	6.87234	0.928915	8.1113			0.65031	5.65039	0.863542	7.54229		
0.411869	3.55483	0.248047	2.11511	0.793858	6.85241	0.934089	8.09066			0.652444	5.62341	0.86869	7.52601		
0.413154	3.53747	0.25013	2.11605	0.797909	6.83242	0.939264	8.07035			0.654549	5.59661	0.873822	7.50985		
0.414442	3.52042	0.252212	2.11698	0.801915	6.81238	0.94444	8.05038			0.656626	5.57	0.878935	7.49379		
0.415733	3.50366	0.254294	2.1179	0.805878	6.79229	0.949616	8.03072			0.658676	5.54357	0.88403	7.47783		
0.417028	3.48719	0.256376	2.1188	0.809798	6.77215	0.954793	8.01138			0.6607	5.51734	0.889106	7.46195		
0.418327	3.47101	0.258459	2.11968	0.813676	6.75197	0.959971	7.99234			0.662698	5.49131	0.894161	7.44616		
0.419629	3.45511	0.260541	2.12055	0.81751	6.73174	0.965149	7.97361			0.664672	5.46547	0.899194	7.43042		
0.420935	3.43948	0.262622	2.12141	0.821303	6.71148	0.970327	7.95515			0.666622	5.43982	0.904206	7.41475		
0.422245	3.42411	0.264704	2.12226	0.825053	6.69118	0.975506	7.93698			0.668549	5.41438	0.909195	7.39913		
0.423559	3.40901	0.266786	2.12309	0.828763	6.67086	0.980684	7.91908			0.670453	5.38914	0.914161	7.38356		
0.424877	3.39416	0.268868	2.12391	0.83243	6.65051	0.985861	7.90144			0.672336	5.3641	0.919103	7.36803		
0.426199	3.37957	0.27095	2.12471	0.836058	6.63014	0.991037	7.88406			0.674197	5.33926	0.92402	7.35253		
0.427524	3.36522	0.273031	2.12551	0.839645	6.60975	0.996212	7.86691			0.676038	5.31463	0.928911	7.33706		
0.428854	3.35111	0.275113	2.12629	0.843192	6.58934	1.00138	7.85			0.67786	5.2902	0.933777	7.32161		
0.430187	3.33723	0.277195	2.12706	0.8467	6.56892					0.679662	5.26598	0.938615	7.30618		
0.431525	3.32359	0.279276	2.12782	0.850168	6.5485					0.681446	5.24196	0.943427	7.29076		
0.432867	3.31017	0.281357	2.12857	0.853598	6.52807					0.683212	5.21815	0.948211	7.27534		
0.434213	3.29697	0.283439	2.12931	0.85699	6.50765					0.684961	5.19454	0.952967	7.25994		
0.435562	3.28398	0.28552	2.13004	0.860345	6.48722					0.686693	5.17114	0.957695	7.24453		
0.436916	3.27121	0.287601	2.13075	0.863662	6.4668					0.688409	5.14794	0.962393	7.22912		
0.438274	3.25865	0.289683	2.13146	0.866943	6.4464					0.69011	5.12495	0.967063	7.21371		
0.439636	3.24629	0.291764	2.13216	0.870187	6.426					0.691795	5.10216	0.971702	7.19829		
0.441003	3.23413	0.293845	2.13284	0.873396	6.40562					0.693465	5.07958	0.976312	7.18286		
0.442373	3.22216	0.295926	2.13352	0.876569	6.38527					0.695122	5.0572	0.980891	7.16742		
0.443747	3.21039	0.298007	2.13419	0.879708	6.36493					0.696765	5.03503	0.985439	7.15197		
0.445126	3.1988	0.300088	2.13485	0.882812	6.34462					0.698395	5.01305	0.989957	7.1365		
0.446509	3.18739	0.302169	2.1355	0.885883	6.32435					0.700012	4.99128	0.994444	7.12102		
0.447896	3.17617	0.30425	2.13614	0.88892	6.3041					0.701616	4.9697	0.998899	7.10551		
0.449286	3.16512	0.306331	2.13677	0.891925	6.28389					0.703209	4.94833	1.00332	7.09		
0.450682	3.15425	0.308412	2.13739	0.894897	6.26371					0.70479	4.92716				
0.452081	3.14354	0.310492	2.13801	0.897837	6.24357					0.706361	4.90618				
0.453484	3.133	0.312573	2.13862	0.900746	6.22348					0.70792	4.88539				
0.454891	3.12262	0.314654	2.13921	0.903624	6.20343					0.709469	4.86481				
0.456303	3.11241	0.316735	2.13981	0.906472	6.18343					0.711009	4.84441				
0.457718	3.10235	0.318815	2.14039	0.909289	6.16348					0.712539	4.82421				
0.459138	3.09244	0.320896	2.14097	0.912077	6.14358					0.714059	4.8042				
0.460562	3.08269	0.322976	2.14154	0.914837	6.12373					0.715571	4.78438				
0.46199	3.07308	0.325057	2.1421	0.917567	6.10394					0.717073	4.76475				
0.463421	3.06361	0.327137	2.14265	0.920269	6.08421					0.718568	4.7453				
0.464857	3.05429	0.329218	2.1432	0.922944	6.06454					0.720055	4.72604				
0.466297	3.04511	0.331298	2.14374	0.925592	6.04493					0.721534	4.70696				
0.467741	3.03607	0.333379	2.14428	0.928212	6.02538					0.723005	4.68807				
0.469188	3.02716	0.335459	2.1448	0.930806	6.00589					0.72447	4.66936				
0.47064	3.01838	0.337539	2.14533	0.933375	5.98648					0.725927	4.65082				
0.472096	3.00973	0.33962	2.14584	0.935918	5.96713					0.727378	4.63247				
0.473555	3.00121	0.3417	2.14635	0.938436	5.94785					0.728823	4.61429				
0.475019	2.99281	0.34378	2.14685	0.940929	5.92865					0.730262	4.59628				
0.476486	2.98454	0.34586	2.14735	0.943398	5.90951					0.731694	4.57845				
0.477957	2.97638	0.34794	2.14784	0.945844	5.89045					0.733121	4.56079				
0.479432	2.96835	0.350021	2.14832	0.948266	5.87147					0.734543	4.5433				
0.480911	2.96043	0.352101	2.1488	0.950664	5.85256					0.735959	4.52598				
0.482394	2.95262	0.354181	2.14928	0.953041	5.83373					0.737371	4.50883				
0.48388	2.94492	0.356261	2.14974	0.955395	5.81497					0.738778	4.49184				
0.48537	2.93734	0.358341	2.15021	0.957728	5.7963					0.74018	4.47502				
0.486864	2.92986	0.360421	2.15067	0.960039	5.77771					0.741578	4.45835				
0.488362	2.92249	0.362501	2.15112	0.962329	5.7592					0.742971	4.44185				
0.489863	2.91522	0.364581	2.15156	0.964598	5.74077					0.744361	4.42551				
0.491368	2.90805	0.366661	2.15201	0.966847	5.72243					0.745747	4.40932				
0.492877	2.90098	0.368741	2.15244	0.969076	5.70416					0.747129	4.3933				
0.49439	2.89401	0.37082	2.15288	0.971286	5.68599					0.748508	4.37742				
0.495906	2.88714	0.3729	2.1533	0.973477	5.6679					0.749883	4.3617				
0.497425	2.88037	0.37498	2.15373	0.975648	5.64989					0.751256	4.34613				
0.498948	2.87368	0.37706	2.15414	0.977801	5.63198					0.752625	4.33071				
0.500475	2.86709	0.37914	2.15456	0.979936	5.61415					0.753991	4.31543				
0.502005	2.86059	0.381219	2.15497	0.982054	5.5964					0.755355	4.30031				
0.503539	2.85417	0.383299	2.15537	0.984153	5.57875					0.756716	4.28532				
0.505076	2.84785	0.385379	2.15577	0.986236	5.56118					0.758074	4.27049				
0.506617	2.84161	0.387459	2.15617	0.988302	5.54371					0.759431	4.25579				
0.508161	2.83545	0.389538	2.15656	0.990351	5.52632					0.760785	4.24123				
0.509709	2.82938	0.391618	2.15695	0.992384	5.50903					0.762137	4.22682				
0.51126	2.82338	0.393697	2.15733	0.994402	5.49182					0.763487	4.21254				
0.512814	2.81747	0.395777	2.15771	0.996403	5.4747					0.764835	4.19839				
0.514372	2.81164	0.397857	2.15809	0.99839	5.45768					0.766182	4.18439				
0.515933	2.80588	0.399936	2.15846	1.00036	5.44075					0.767527	4.17051				
0.517497	2.8002	0.402016	2.15882							0.76887	4.15677				
0.519064	2.79459	0.404095	2.15919							0.770212	4.14315				
0.520635	2.78906	0.406175	2.15955							0.771553	4.12967				
0.522209	2.7836	0.408254	2.15991							0.772893	4.11631				
0.523787	2.77821	0.410334	2.16026							0.774231	4.10308				
0.525367	2.77289	0.412413	2.16061							0.775569	4.08998				
0.526951	2.76764	0.414492	2.16096							0.776906	4.07699				
0.528537	2.76245	0.416572	2.1613							0.778241	4.06413				
0.530127	2.75733	0.418651	2.16164							0.779577	4.05139				
0.53172	2.75228	0.420731	2.16197							0.780911	4.03877				
0.533316	2.7473	0.42281	2.16231							0.782245	4.02627				
0.534915	2.74237	0.424889	2.16264							0.783578	4.01388				
0.536518	2.73751	0.426969	2.16296							0.784911	4.00161				
0.538123	2.73271	0.429048	2.16328							0.786244	3.98946				
0.539731	2.72797	0.431127	2.1636							0.787576	3.97741				
0.541342	2.72329	0.433206	2.16392							0.788908	3.96548				
0.542956	2.71866	0.435286	2.16423							0.79024	3.95366				
0.544573	2.7141	0.437365	2.16455							0.791572	3.94195				
0.546193	2.70959	0.439444	2.16485							0.792904	3.93035				
0.547816	2.70514	0.441523	2.16516							0.794236	3.91885				
0.549441	2.70074	0.443602	2.16546							0.795568	3.90746				
0.55107	2.69639	0.445682	2.16576							0.7969	3.89617				
0.552701	2.6921	0.447761	2.16606							0.798232	3.88499				
0.554335	2.68787	0.44984	2.16635							0.799565	3.87391				
0.555972	2.68368	0.451919	2.16664							0.800898	3.86293				
0.557611	2.67954	0.453998	2.16693							0.802231	3.85205				
0.559254	2.67546	0.456077	2.16722							0.803565	3.84127				
0.560899	2.67142	0.458156	2.1675							0.804899	3.83059				
0.562547	2.66743	0.460235	2.16778							0.806234	3.82				
0.564197	2.66349	0.462314	2.16806							0.80757	3.80952				
0.56585	2.65959	0.464393	2.16833							0.808905	3.79912				
0.567506	2.65575	0.466472	2.16861							0.810242	3.78882				
0.569164	2.65194	0.468551	2.16888							0.811579	3.77861				
0.570825	2.64819	0.47063	2.16915							0.812917	3.76849				
0.572488	2.64447	0.472709	2.16941							0.814256	3.75846				
0.574154	2.6408	0.474788	2.16968							0.815596	3.74853				
0.575823	2.63718	0.476867	2.16994							0.816936	3.73868				
0.577494	2.63359	0.478946	2.1702							0.818278	3.72892				
0.579167	2.63005	0.481025	2.17045							0.81962	3.71924				
0.580844	2.62655	0.483104	2.17071							0.820963	3.70966				
0.582522	2.62309	0.485183	2.17096							0.822307	3.70015				
0.584203	2.61967	0.487262	2.17121							0.823653	3.69073				
0.585886	2.61628	0.48934	2.17146							0.824999	3.6814				
0.587572	2.61294	0.491419	2.17171							0.826346	3.67214				
0.58926	2.60963	0.493498	2.17195							0.827695	3.66297				
0.590951	2.60637	0.495577	2.17219							0.829044	3.65387				
0.592643	2.60314	0.497656	2.17243							0.830395	3.64486				
0.594338	2.59994	0.499735	2.17267							0.831747	3.63593				
0.596036	2.59678	0.501813	2.17291							0.8331	3.62707				
0.597736	2.59366	0.503892	2.17314							0.834455	3.61829				
0.599438	2.59057	0.505971	2.17337							0.83581	3.60958				
0.601142	2.58752	0.50805	2.1736							0.837167	3.60095				
0.602848	2.5845	0.510128	2.17383							0.838525	3.5924				
0.604557	2.58151	0.512207	2.17406							0.839885	3.58392				
0.606268	2.57856	0.514286	2.17428							0.841246	3.57551				
0.607981	2.57564	0.516364	2.17451							0.842608	3.56718				
0.609697	2.57275	0.518443	2.17473							0.843972	3.55891				
0.611414	2.5699	0.520522	2.17495							0.845337	3.55072				
0.613134	2.56707	0.5226	2.17516							0.846703	3.54259				
0.614855	2.56428	0.524679	2.17538							0.848071	3.53454				
0.616579	2.56151	0.526758	2.17559							0.84944	3.52655				
0.618305	2.55878	0.528836	2.17581							0.850811	3.51863				
0.620033	2.55608	0.530915	2.17602							0.852183	3.51078				
0.621763	2.5534	0.532994	2.17623							0.853557	3.50299				
0.623495	2.55075	0.535072	2.17643							0.854933	3.49527				
0.625229	2.54814	0.537151	2.17664							0.856309	3.48762				
0.626965	2.54554	0.539229	2.17684							0.857688	3.48003				
0.628703	2.54298	0.541308	2.17705							0.859068	3.4725				
0.630443	2.54045	0.543387	2.17725							0.860449	3.46503				
0.632185	2.53794	0.545465	2.17745							0.861832	3.45763				
0.633929	2.53546	0.547544	2.17765							0.863217	3.45029				
0.635675	2.533	0.549622	2.17784							0.864603	3.44301				
0.637423	2.53057	0.551701	2.17804							0.865991	3.43579				
0.639173	2.52816	0.553779	2.17823							0.867381	3.42863				
0.640925	2.52579	0.555858	2.17842							0.868772	3.42152				
0.642678	2.52343	0.557936	2.17861							0.870165	3.41448				
0.644433	2.5211	0.560015	2.1788							0.871559	3.40749				
0.646191	2.51879	0.562093	2.17899							0.872955	3.40057				
0.64795	2.51651	0.564172	2.17918							0.874353	3.39369				
0.649711	2.51425	0.56625	2.17936							0.875753	3.38688				
0.651473	2.51202	0.568328	2.17955							0.877154	3.38012				
0.653238	2.5098	0.570407	2.17973							0.878557	3.37341				
0.655004	2.50761	0.572485	2.17991							0.879961	3.36676				
0.656772	2.50544	0.574564	2.18009							0.881367	3.36016				
0.658542	2.5033	0.576642	2.18027							0.882775	3.35362				
0.660313	2.50117	0.578721	2.18045							0.884185	3.34713				
0.662086	2.49907	0.580799	2.18062							0.885597	3.34069				
0.663861	2.49699	0.582877	2.1808							0.88701	3.3343				
0.665638	2.49493	0.584956	2.18097							0.888425	3.32796				
0.667416	2.49289	0.587034	2.18114							0.889841	3.32168				
0.669196	2.49087	0.589112	2.18131							0.89126	3.31544				
0.670978	2.48887	0.591191	2.18148							0.89268	3.30925				
0.672761	2.48689	0.593269	2.18165							0.894102	3.30312				
0.674546	2.48493	0.595347	2.18182							0.895525	3.29703				
0.676333	2.48299	0.597426	2.18199							0.896951	3.29099				
0.678121	2.48107	0.599504	2.18215							0.898378	3.28499				
0.679911	2.47916	0.601582	2.18232							0.899807	3.27905				
0.681702	2.47728	0.603661	2.18248							0.901237	3.27315				
0.683495	2.47541	0.605739	2.18264							0.90267	3.26729				
0.685289	2.47357	0.607817	2.1828							0.904104	3.26149				
0.687085	2.47174	0.609895	2.18296							0.90554	3.25572				
0.688883	2.46993	0.611974	2.18312							0.906978	3.25001				
0.690682	2.46813	0.614052	2.18328							0.908417	3.24433				
0.692483	2.46635	0.61613	2.18343							0.909859	3.2387				
0.694285	2.46459	0.618208	2.18359							0.911302	3.23312				
0.696088	2.46285	0.620287	2.18374							0.912747	3.22758				
0.697893	2.46113	0.622365	2.18389							0.914193	3.22208				
0.6997	2.45942	0.624443	2.18405							0.915642	3.21662				
0.701508	2.45772	0.626521	2.1842							0.917092	3.2112				
0.703318	2.45604	0.628599	2.18435							0.918544	3.20583				
0.705128	2.45438	0.630678	2.1845							0.919998	3.2005				
0.706941	2.45274	0.632756	2.18465							0.921454	3.1952				
0.708755	2.45111	0.634834	2.18479							0.922911	3.18995				
0.71057	2.44949	0.636912	2.18494							0.92437	3.18474				
0.712386	2.44789	0.63899	2.18508							0.925831	3.17957				
0.714204	2.44631	0.641069	2.18523							0.927294	3.17443				
0.716024	2.44474	0.643147	2.18537							0.928759	3.16934				
0.717844	2.44318	0.645225	2.18551							0.930225	3.16428				
0.719667	2.44164	0.647303	2.18565							0.931693	3.15926				
0.72149	2.44011	0.649381	2.1858							0.933163	3.15428				
0.723315	2.4386	0.651459	2.18594							0.934635	3.14934				
0.725141	2.4371	0.653537	2.18607							0.936108	3.14443				
0.726968	2.43562	0.655615	2.18621							0.937584	3.13956				
0.728797	2.43415	0.657693	2.18635							0.939061	3.13473				
0.730627	2.43269	0.659771	2.18648							0.940539	3.12993				
0.732458	2.43124	0.66185	2.18662							0.94202	3.12517				
0.734291	2.42981	0.663928	2.18675							0.943502	3.12044				
0.736125	2.42839	0.666006	2.18689							0.944986	3.11575				
0.73796	2.42699	0.668084	2.18702							0.946472	3.11109				
0.739796	2.42559	0.670162	2.18715							0.94796	3.10647				
0.741634	2.42421	0.67224	2.18728							0.949449	3.10188				
0.743473	2.42285	0.674318	2.18741							0.950941	3.09732				
0.745313	2.42149	0.676396	2.18754							0.952434	3.0928				
0.747154	2.42015	0.678474	2.18767							0.953928	3.08831				
0.748997	2.41882	0.680552	2.1878							0.955425	3.08385				
0.75084	2.4175	0.68263	2.18793							0.956923	3.07943				
0.752685	2.41619	0.684708	2.18805							0.958423	3.07503				
0.754531	2.41489	0.686786	2.18818							0.959925	3.07067				
0.756379	2.41361	0.688864	2.1883							0.961428	3.06634				
0.758227	2.41233	0.690942	2.18843							0.962933	3.06205				
0.760077	2.41107	0.69302	2.18855							0.96444	3.05778				
0.761927	2.40982	0.695098	2.18867							0.965949	3.05354				
0.763779	2.40858	0.697176	2.18879							0.96746	3.04934				
0.765632	2.40735	0.699254	2.18892							0.968972	3.04516				
0.767486	2.40613	0.701332	2.18904							0.970486	3.04101				
0.769342	2.40492	0.703409	2.18916							0.972001	3.0369				
0.771198	2.40372	0.705487	2.18927							0.973518	3.03281				
0.773056	2.40254	0.707565	2.18939							0.975037	3.02875				
0.774914	2.40136	0.709643	2.18951							0.976558	3.02472				
0.776774	2.40019	0.711721	2.18963							0.978081	3.02072				
0.778634	2.39904	0.713799	2.18974							0.979605	3.01674				
0.780496	2.39789	0.715877	2.18986							0.981131	3.0128				
0.782359	2.39675	0.717955	2.18997							0.982658	3.00888				
0.784223	2.39562	0.720033	2.19009							0.984188	3.00499				
0.786088	2.39451	0.722111	2.1902							0.985718	3.00113				
0.787954	2.3934	0.724188	2.19031							0.987251	2.99729				
0.789821	2.3923	0.726266	2.19042							0.988785	2.99348				
0.791689	2.39121	0.728344	2.19054							0.990321	2.9897				
0.793558	2.39013	0.730422	2.19065							0.991859	2.98594				
0.795429	2.38906	0.7325	2.19076							0.993398	2.98221				
0.7973	2.38799	0.734578	2.19087							0.994939	2.97851				
0.799172	2.38694	0.736656	2.19098							0.996482	2.97483				
0.801045	2.3859	0.738733	2.19108							0.998026	2.97118				
0.802919	2.38486	0.740811	2.19119							0.999572	2.96755				
0.804794	2.38383	0.742889	2.1913							1.00112	2.96394				
0.80667	2.38281	0.744967	2.19141												
0.808547	2.3818	0.747045	2.19151												
0.810425	2.3808	0.749122	2.19162												
0.812304	2.37981	0.7512	2.19172												
0.814184	2.37882	0.753278	2.19182												
0.816065	2.37784	0.755356	2.19193												
0.817947	2.37687	0.757433	2.19203												
0.819829	2.37591	0.759511	2.19213												
0.821713	2.37496	0.761589	2.19224												
0.823598	2.37401	0.763667	2.19234												
0.825483	2.37307	0.765744	2.19244												
0.827369	2.37214	0.767822	2.19254												
0.829257	2.37122	0.7699	2.19264												
0.831145	2.3703	0.771978	2.19274												
0.833034	2.3694	0.774055	2.19283												
0.834924	2.3685	0.776133	2.19293												
0.836814	2.3676	0.778211	2.19303												
0.838706	2.36671	0.780288	2.19313												
0.840599	2.36584	0.782366	2.19322												
0.842492	2.36496	0.784444	2.19332												
0.844386	2.3641	0.786522	2.19341												
0.846281	2.36324	0.788599	2.19351												
0.848177	2.36239	0.790677	2.1936												
0.850074	2.36154	0.792755	2.1937												
0.851972	2.3607	0.794832	2.19379												
0.85387	2.35987	0.79691	2.19388												
0.855769	2.35904	0.798988	2.19398												
0.857669	2.35823	0.801065	2.19407												
0.85957	2.35741	0.803143	2.19416												
0.861472	2.35661	0.80522	2.19425												
0.863374	2.35581	0.807298	2.19434												
0.865277	2.35501	0.809376	2.19443												
0.867181	2.35422	0.811453	2.19452												
0.869086	2.35344	0.813531	2.19461												
0.870992	2.35267	0.815609	2.1947												
0.872898	2.3519	0.817686	2.19478												
0.874805	2.35113	0.819764	2.19487												
0.876713	2.35038	0.821841	2.19496												
0.878622	2.34962	0.823919	2.19505												
0.880531	2.34888	0.825996	2.19513												
0.882441	2.34814	0.828074	2.19522												
0.884352	2.3474	0.830152	2.1953												
0.886264	2.34667	0.832229	2.19539												
0.888176	2.34595	0.834307	2.19547												
0.890089	2.34523	0.836384	2.19556												
0.892003	2.34452	0.838462	2.19564												
0.893917	2.34381	0.840539	2.19572												
0.895833	2.34311	0.842617	2.19581												
0.897748	2.34241	0.844694	2.19589												
0.899665	2.34172	0.846772	2.19597												
0.901582	2.34103	0.848849	2.19605												
0.9035	2.34035	0.850927	2.19613												
0.905419	2.33968	0.853004	2.19622												
0.907339	2.339	0.855082	2.1963												
0.909259	2.33834	0.857159	2.19638												
0.91118	2.33768	0.859237	2.19645												
0.913101	2.33702	0.861314	2.19653												
0.915023	2.33637	0.863392	2.19661												
0.916946	2.33572	0.865469	2.19669												
0.918869	2.33508	0.867547	2.19677												
0.920793	2.33444	0.869624	2.19685												
0.922718	2.33381	0.871702	2.19692												
0.924644	2.33318	0.873779	2.197												
0.92657	2.33256	0.875857	2.19708												
0.928496	2.33194	0.877934	2.19715												
0.930424	2.33132	0.880011	2.19723												
0.932352	2.33071	0.882089	2.19731												
0.93428	2.33011	0.884166	2.19738												
0.93621	2.3295	0.886244	2.19745												
0.938139	2.32891	0.888321	2.19753												
0.94007	2.32831	0.890398	2.1976												
0.942001	2.32773	0.892476	2.19768												
0.943933	2.32714	0.894553	2.19775												
0.945865	2.32656	0.896631	2.19782												
0.947798	2.32599	0.898708	2.1979												
0.949731	2.32541	0.900785	2.19797												
0.951666	2.32485	0.902863	2.19804												
0.9536	2.32428	0.90494	2.19811												
0.955536	2.32372	0.907018	2.19818												
0.957472	2.32317	0.909095	2.19825												
0.959408	2.32261	0.911172	2.19832												
0.961345	2.32207	0.91325	2.19839												
0.963283	2.32152	0.915327	2.19846												
0.965221	2.32098	0.917404	2.19853												
0.96716	2.32044	0.919482	2.1986												
0.969099	2.31991	0.921559	2.19867												
0.971039	2.31938	0.923636	2.19874												
0.972979	2.31886	0.925714	2.19881												
0.97492	2.31834	0.927791	2.19888												
0.976862	2.31782	0.929868	2.19894												
0.978804	2.3173	0.931946	2.19901												
0.980747	2.31679	0.934023	2.19908												
0.98269	2.31628	0.9361	2.19915												
0.984634	2.31578	0.938177	2.19921												
0.986578	2.31528	0.940255	2.19928												
0.988523	2.31478	0.942332	2.19934												
0.990468	2.31429	0.944409	2.19941												
0.992414	2.3138	0.946487	2.19948												
0.99436	2.31331	0.948564	2.19954												
0.996307	2.31283	0.950641	2.1996												
0.998255	2.31235	0.952718	2.19967												
1.0002	2.31187	0.954796	2.19973												
		0.956873	2.1998												
		0.95895	2.19986												
		0.961027	2.19992												
		0.963105	2.19999												
		0.965182	2.20005												
		0.967259	2.20011												
		0.969336	2.20017												
		0.971413	2.20024												
		0.973491	2.2003												
		0.975568	2.20036												
		0.977645	2.20042												
		0.979722	2.20048												
		0.981799	2.20054												
		0.983877	2.2006												
		0.985954	2.20066												
		0.988031	2.20072												
		0.990108	2.20078												
		0.992185	2.20084												
		0.994262	2.2009												
		0.996339	2.20096												
		0.998417	2.20102												
		1.00049	2.20107												
