Sym0		Asym0		Sym1		Sym2		Sym3		Asym1		Asym2		Asym3		Asym4	
470  Points		492  Points		199  Points		139  Points		123  Points		2  Points		367  Points		154  Points		122  Points	
Freq (MHz)	Vph (m/ms)	Freq (MHz)	Vph (m/ms)	Freq (MHz)	Vph (m/ms)	Freq (MHz)	Vph (m/ms)	Freq (MHz)	Vph (m/ms)	Freq (MHz)	Vph (m/ms)	Freq (MHz)	Vph (m/ms)	Freq (MHz)	Vph (m/ms)	Freq (MHz)	Vph (m/ms)
0.00220366	7.55521	0.000601699	0.25576	0.279569	311.771	0.437156	510.371	0.559021	1928.95	-9.52942e-009	8.74026	0.139761	798.391	0.419265	2315.84	0.698793	857.36
0.00924231	7.5548	0.00116364	0.354304	0.27976	153.007	0.437249	244.513	0.559085	457.703	1.02946e-005	0.0336286	0.140015	126.51	0.419333	376.848	0.698871	400.098
0.016279	7.55385	0.00189817	0.450232	0.280081	101.475	0.437406	160.815	0.559228	259.72			0.140635	68.9915	0.419499	205.191	0.699005	260.974
0.0233122	7.55231	0.00279515	0.542993	0.280531	75.9876	0.437629	119.845	0.55945	181.352			0.141616	47.6801	0.419764	141.044	0.699195	193.676
0.0303401	7.5502	0.00384302	0.632142	0.281109	60.8002	0.437918	95.546	0.559751	139.36			0.142949	36.6363	0.420126	107.509	0.699442	154
0.0373615	7.54755	0.0050293	0.717338	0.281814	50.73	0.438274	79.4692	0.56013	113.197			0.14462	29.9201	0.420586	86.9066	0.699745	127.842
0.0443746	7.54433	0.00634118	0.79836	0.282645	43.5718	0.438697	68.0497	0.560588	95.3384			0.146615	25.4309	0.421143	72.973	0.700105	109.302
0.0513777	7.54053	0.00776574	0.875067	0.283599	38.2283	0.439189	59.5235	0.561123	82.3768			0.148918	22.2368	0.421796	62.9273	0.70052	95.4788
0.0583692	7.53614	0.00929064	0.947429	0.284675	34.0917	0.43975	52.9175	0.561737	72.5443			0.151512	19.861	0.422545	55.3461	0.700991	84.7774
0.0653472	7.53114	0.010904	1.01548	0.28587	30.7984	0.440381	47.651	0.562428	64.8328			0.154379	18.0343	0.42339	49.4251	0.701518	76.2494
0.07231	7.52553	0.0125949	1.0793	0.287182	28.1174	0.441085	43.3563	0.563196	58.625			0.157502	16.5931	0.424329	44.6757	0.702101	69.2954
0.0792557	7.51929	0.0143532	1.13903	0.288608	25.8949	0.441861	39.7887	0.564041	53.5222			0.160862	15.4323	0.425362	40.7838	0.702739	63.5175
0.0861822	7.51238	0.0161699	1.19485	0.290146	24.0246	0.442713	36.7797	0.564962	49.255			0.164443	14.4815	0.426489	37.5384	0.703432	58.6418
0.0930873	7.5048	0.0180367	1.24695	0.291792	22.4305	0.44364	34.2088	0.565958	45.635			0.168227	13.6914	0.427707	34.7925	0.70418	54.4732
0.099969	7.49651	0.0199464	1.29553	0.293544	21.057	0.444646	31.9883	0.56703	42.5266			0.172201	13.027	0.429016	32.4403	0.704982	50.869
0.106825	7.4875	0.0218927	1.34081	0.295399	19.8626	0.445732	30.0521	0.568176	39.8294			0.176348	12.4623	0.430414	30.4041	0.705839	47.7226
0.113652	7.47773	0.0238699	1.38299	0.297354	18.8153	0.4469	28.35	0.569396	37.4679			0.180655	11.9781	0.431902	28.6252	0.706751	44.9525
0.120449	7.46717	0.0258733	1.42228	0.299406	17.8905	0.448151	26.8429	0.57069	35.3837			0.18511	11.5594	0.433477	27.0587	0.707716	42.4956
0.127212	7.45577	0.0278987	1.4589	0.301553	17.0685	0.449489	25.4999	0.572056	33.5314			0.189701	11.1947	0.435139	25.6695	0.708734	40.302
0.133938	7.44352	0.0296787	1.48877	0.30379	16.3338	0.450915	24.2966	0.573494	31.8749			0.194416	10.8751	0.436885	24.4299	0.709806	38.3321
0.140624	7.43036	0.0312055	1.51284	0.306117	15.6737	0.452431	23.2129	0.575003	30.3853			0.199246	10.5931	0.438715	23.3174	0.71093	36.5536
0.147266	7.41624	0.0324737	1.53182	0.30853	15.078	0.454039	22.2327	0.576583	29.0391			0.204181	10.3432	0.440628	22.3141	0.712107	34.9403
0.153862	7.40112	0.0334798	1.54627	0.311029	14.5381	0.455742	21.3424	0.578233	27.8169			0.209212	10.1204	0.442621	21.4051	0.713336	33.4705
0.160406	7.38495	0.0342212	1.55659	0.313609	14.047	0.457541	20.5309	0.579952	26.7028			0.214332	9.9209	0.444695	20.5782	0.714616	32.1262
0.166895	7.36768	0.0346964	1.56306	0.316272	13.5988	0.45944	19.7887	0.581739	25.6833			0.219532	9.74151	0.446846	19.8231	0.715948	30.8922
0.173325	7.34923	0.0353803	1.57219	0.319015	13.1884	0.461439	19.1081	0.583593	24.7472			0.224806	9.5795	0.449073	19.1311	0.717331	29.7556
0.17969	7.32956	0.0361249	1.58189	0.321838	12.8116	0.463541	18.4821	0.585514	23.885			0.229458	9.45074	0.451376	18.4952	0.718764	28.7057
0.185985	7.30859	0.0371392	1.5947	0.32474	12.4649	0.465748	17.9049	0.587501	23.0885			0.23346	9.3491	0.453753	17.9088	0.720248	27.733
0.192205	7.28625	0.0384245	1.61032	0.327723	12.145	0.468062	17.3716	0.589553	22.3508			0.236795	9.27015	0.456201	17.3669	0.721781	26.8295
0.198345	7.26249	0.0399822	1.62837	0.330786	11.8494	0.470483	16.8779	0.59167	21.6658			0.239446	9.21076	0.458721	16.8646	0.723363	25.9883
0.204397	7.23722	0.0418135	1.64844	0.333932	11.5758	0.473014	16.4199	0.593849	21.0282			0.241403	9.16869	0.461309	16.3981	0.724994	25.2032
0.210357	7.21037	0.0439192	1.67011	0.337162	11.322	0.475656	15.9943	0.596092	20.4334			0.242659	9.14245	0.463965	15.9638	0.726673	24.4691
0.216217	7.18189	0.0460285	1.69043	0.340478	11.0865	0.47841	15.5982	0.598396	19.8776			0.244469	9.10562	0.466687	15.5587	0.7284	23.7812
0.221971	7.15168	0.0481405	1.7095	0.343883	10.8677	0.481276	15.2291	0.600761	19.3571			0.246442	9.06675	0.469474	15.1801	0.730175	23.1354
0.227612	7.11971	0.0502546	1.72742	0.34738	10.6642	0.484256	14.8845	0.603186	18.8688			0.249135	9.01572	0.472323	14.8256	0.731996	22.528
0.233133	7.0859	0.0523701	1.74428	0.350973	10.4749	0.487349	14.5626	0.60567	18.4099			0.252556	8.95405	0.475235	14.4931	0.733863	21.9559
0.238528	7.05021	0.0544865	1.76015	0.354664	10.2987	0.490556	14.2614	0.608213	17.9781			0.256713	8.88346	0.478206	14.1808	0.735777	21.4162
0.243789	7.01262	0.0566035	1.77511	0.358457	10.1347	0.493877	13.9793	0.610814	17.571			0.261616	8.80573	0.481237	13.887	0.737736	20.9063
0.248912	6.97308	0.0587207	1.78923	0.362356	9.98194	0.497311	13.7148	0.613471	17.1869			0.267275	8.72266	0.484325	13.6102	0.73974	20.4238
0.25389	6.93161	0.0608378	1.80256	0.366362	9.83976	0.500857	13.4666	0.616185	16.8237			0.272964	8.64545	0.487469	13.349	0.741788	19.9668
0.258718	6.88822	0.0629546	1.81517	0.369944	9.72392	0.504516	13.2334	0.618954	16.4801			0.278681	8.5735	0.490668	13.1023	0.74388	19.5332
0.263392	6.84293	0.0650709	1.82711	0.373064	9.63073	0.508285	13.0142	0.621778	16.1546			0.28442	8.50626	0.49392	12.869	0.746016	19.1215
0.26791	6.7958	0.0671867	1.83842	0.375692	9.55735	0.512163	12.808	0.624655	15.8457			0.29018	8.44326	0.497225	12.6481	0.748195	18.73
0.272268	6.74691	0.0693018	1.84916	0.377799	9.50159	0.51615	12.6138	0.627586	15.5525			0.295957	8.38406	0.500581	12.4387	0.750416	18.3575
0.276467	6.69635	0.071416	1.85935	0.379366	9.46182	0.520243	12.4308	0.630569	15.2738			0.301748	8.3283	0.503987	12.2399	0.752679	18.0025
0.280506	6.64424	0.0735293	1.86903	0.380377	9.4369	0.52444	12.2582	0.633604	15.0086			0.30755	8.27563	0.507442	12.0511	0.754984	17.664
0.284386	6.5907	0.0756418	1.87825	0.38184	9.40179	0.528739	12.0953	0.636691	14.756			0.31336	8.22575	0.510944	11.8717	0.75733	17.3409
0.288111	6.53589	0.0777534	1.88702	0.383444	9.36457	0.533139	11.9414	0.639827	14.5153			0.319176	8.17841	0.514494	11.7008	0.759716	17.0322
0.291682	6.47995	0.079864	1.89539	0.385649	9.31546	0.537636	11.796	0.643014	14.2857			0.324996	8.13335	0.518089	11.5381	0.762143	16.737
0.295105	6.42305	0.0819737	1.90337	0.388475	9.25577	0.542228	11.6584	0.646251	14.0664			0.330815	8.09035	0.52173	11.383	0.76461	16.4545
0.298385	6.36535	0.0840824	1.91099	0.391949	9.18704	0.546914	11.5282	0.649536	13.8569			0.336633	8.04923	0.525415	11.235	0.767116	16.1839
0.301527	6.30702	0.0861902	1.91828	0.396101	9.11098	0.551689	11.4049	0.65287	13.6566			0.342447	8.00979	0.529143	11.0937	0.76966	15.9246
0.304537	6.24821	0.0882971	1.92525	0.400966	9.02936	0.556553	11.288	0.656252	13.4649			0.348254	7.97189	0.532915	10.9587	0.772243	15.6759
0.307421	6.18908	0.090403	1.93192	0.405933	8.95337	0.5615	11.1772	0.659682	13.2814			0.354051	7.93536	0.536728	10.8297	0.774865	15.4371
0.310187	6.12978	0.092508	1.93831	0.410998	8.88256	0.56653	11.0719	0.663159	13.1056			0.359838	7.90008	0.540584	10.7062	0.777523	15.2078
0.31284	6.07045	0.0946122	1.94444	0.416157	8.81651	0.571639	10.972	0.666683	12.937			0.36561	7.86592	0.54448	10.588	0.78022	14.9874
0.315388	6.01121	0.0967155	1.95032	0.421402	8.75484	0.576824	10.877	0.670254	12.7753			0.371367	7.83277	0.548418	10.4748	0.782953	14.7755
0.317836	5.95218	0.098818	1.95597	0.42673	8.69717	0.582082	10.7867	0.673871	12.6202			0.377106	7.80051	0.552395	10.3663	0.785722	14.5715
0.320192	5.89346	0.10092	1.9614	0.432132	8.64316	0.587411	10.7007	0.677535	12.4712			0.382824	7.76907	0.556413	10.2623	0.788528	14.3752
0.322461	5.83516	0.103021	1.96662	0.437604	8.59248	0.592807	10.6187	0.681246	12.3281			0.388519	7.73834	0.560471	10.1625	0.791369	14.186
0.324648	5.77734	0.105121	1.97165	0.443139	8.54485	0.598267	10.5406	0.685003	12.1905			0.39419	7.70825	0.564039	10.0788	0.794246	14.0037
0.32676	5.72009	0.10722	1.97649	0.448732	8.49998	0.603788	10.4661	0.688807	12.0583			0.399834	7.67871	0.567104	10.0098	0.797158	13.8279
0.328802	5.66346	0.109319	1.98115	0.454375	8.45762	0.609368	10.3949	0.692658	11.9311			0.405448	7.64966	0.569656	9.95425	0.800105	13.6583
0.330779	5.60752	0.111418	1.98565	0.460065	8.41753	0.615002	10.3269	0.696556	11.8087			0.411031	7.62103	0.571684	9.91131	0.803086	13.4946
0.332695	5.55231	0.113515	1.98999	0.465794	8.37952	0.620688	10.2618	0.700501	11.6909			0.416581	7.59275	0.573181	9.88026	0.806101	13.3364
0.334555	5.49786	0.115612	1.99418	0.471559	8.34338	0.626423	10.1996	0.704495	11.5776			0.422094	7.56478	0.574141	9.86063	0.809151	13.1837
0.336362	5.4442	0.117708	1.99822	0.477353	8.30894	0.631458	10.1474	0.708537	11.4684			0.42757	7.53706	0.575526	9.83271	0.812234	13.036
0.338121	5.39137	0.119804	2.00213	0.483174	8.27603	0.635775	10.1044	0.712629	11.3633			0.433005	7.50954	0.577036	9.80278	0.81535	12.8932
0.339836	5.33939	0.121899	2.00592	0.489015	8.24452	0.639362	10.0698	0.716771	11.262			0.438398	7.48218	0.579097	9.76274	0.818499	12.7551
0.341508	5.28825	0.123994	2.00958	0.494874	8.21427	0.642208	10.043	0.720964	11.1644			0.443747	7.45492	0.581717	9.7132	0.821681	12.6214
0.343143	5.23799	0.126088	2.01312	0.500747	8.18517	0.644306	10.0237	0.72521	11.0705			0.449049	7.42773	0.584906	9.65486	0.824896	12.492
0.344741	5.1886	0.128182	2.01655	0.50663	8.1571	0.645651	10.0114	0.729509	10.9799			0.454303	7.40059	0.588674	9.58855	0.828143	12.3667
0.346307	5.14009	0.130275	2.01988	0.512519	8.12996	0.647588	9.99404	0.733864	10.8927			0.459506	7.37344	0.593034	9.51518	0.831422	12.2453
0.347842	5.09246	0.132368	2.0231	0.518412	8.10368	0.649698	9.97537	0.738276	10.8088			0.464657	7.34626	0.597434	9.44459	0.834733	12.1277
0.34935	5.0457	0.134461	2.02623	0.524306	8.07816	0.652573	9.95037	0.742747	10.7279			0.469753	7.31903	0.601873	9.37665	0.838075	12.0136
0.350831	4.99982	0.136553	2.02926	0.530198	8.05334	0.656219	9.9194	0.747278	10.65			0.474794	7.29171	0.606352	9.31127	0.841449	11.903
0.352289	4.9548	0.138644	2.03221	0.536086	8.02915	0.660642	9.88287	0.751873	10.5751			0.479777	7.26429	0.610869	9.24832	0.844854	11.7957
0.353724	4.91064	0.140735	2.03507	0.541968	8.00552	0.665848	9.84122	0.756533	10.503			0.4847	7.23675	0.615426	9.18771	0.84829	11.6916
0.355139	4.86733	0.142826	2.03785	0.54784	7.98241	0.671842	9.79494	0.760649	10.4424			0.489562	7.20906	0.620021	9.12934	0.851756	11.5905
0.356535	4.82485	0.144917	2.04055	0.553702	7.95976	0.677854	9.75014	0.764199	10.3924			0.494362	7.18122	0.624656	9.07311	0.855253	11.4924
0.357914	4.78321	0.147007	2.04318	0.559551	7.93753	0.683879	9.70672	0.767165	10.3522			0.499099	7.15321	0.629329	9.01894	0.85878	11.3971
0.359278	4.74238	0.149097	2.04573	0.565386	7.91568	0.689914	9.66457	0.76953	10.3211			0.50377	7.12502	0.634041	8.96673	0.862337	11.3045
0.360627	4.70235	0.151187	2.04822	0.571204	7.89416	0.695953	9.62357	0.77128	10.2986			0.508376	7.09665	0.638791	8.91642	0.865924	11.2146
0.361962	4.66312	0.153276	2.05064	0.577004	7.87295	0.701994	9.58363	0.772406	10.2844			0.512915	7.06808	0.643578	8.86792	0.86954	11.1272
0.363116	4.62956	0.155365	2.053	0.582785	7.85201	0.708031	9.54464	0.77403	10.2641			0.517386	7.03932	0.648402	8.82115	0.873186	11.0422
0.364093	4.60141	0.157453	2.0553	0.588545	7.83131	0.71406	9.50652	0.775805	10.2425			0.52179	7.01037	0.653263	8.77604	0.87686	10.9595
0.364897	4.57845	0.159542	2.05753	0.594282	7.81082	0.720076	9.46917	0.778236	10.2136			0.526124	6.98121	0.65816	8.73252	0.880564	10.8791
0.365529	4.5605	0.16163	2.05972	0.599996	7.79052	0.726076	9.4325	0.781337	10.1778			0.53039	6.95187	0.663092	8.69053	0.884295	10.8009
0.365993	4.5474	0.163718	2.06184	0.605685	7.77038	0.732056	9.39645	0.785128	10.1358			0.534586	6.92234	0.668058	8.64999	0.88757	10.7344
0.366289	4.53907	0.165806	2.06392	0.611348	7.75039	0.73801	9.36093	0.789633	10.0882			0.538714	6.89263	0.673057	8.61084	0.890379	10.679
0.366714	4.52717	0.167893	2.06594	0.616983	7.73053	0.743936	9.32589	0.794884	10.0359			0.542772	6.86274	0.678088	8.57302	0.892713	10.634
0.367175	4.51431	0.169981	2.06792	0.62259	7.71076	0.749831	9.29126	0.800223	9.98581			0.546761	6.83269	0.683151	8.53647	0.894566	10.5989
0.367801	4.49698	0.172068	2.06985	0.628167	7.69109	0.75569	9.25699	0.805652	9.938			0.550682	6.80249	0.688243	8.50113	0.895933	10.5735
0.368589	4.4753	0.174155	2.07173	0.633714	7.67149	0.761512	9.22305	0.811171	9.8924			0.554534	6.77213	0.693364	8.46695	0.896809	10.5573
0.369538	4.44943	0.176241	2.07357	0.639228	7.65194	0.767295	9.1894	0.816783	9.84893			0.558319	6.74165	0.698513	8.43386	0.898071	10.5342
0.370646	4.41958	0.178328	2.07537	0.64471	7.63244	0.773038	9.15601	0.822488	9.80753			0.562037	6.71104	0.703687	8.40183	0.899447	10.5093
0.371913	4.38595	0.180414	2.07713	0.650159	7.61297	0.77874	9.12287	0.828285	9.76814			0.565688	6.68032	0.708886	8.37078	0.901323	10.4758
0.373174	4.353	0.1825	2.07885	0.655572	7.59352	0.7844	9.08996	0.834173	9.73067			0.569275	6.64951	0.714109	8.34069	0.903705	10.4341
0.37443	4.32069	0.184586	2.08053	0.66095	7.57407	0.790019	9.05729	0.840153	9.69505			0.572796	6.61862	0.719352	8.31149	0.9066	10.3845
0.375682	4.28903	0.186672	2.08217	0.666292	7.55463	0.795599	9.02486	0.846222	9.66121			0.576255	6.58766	0.724616	8.28314	0.910014	10.3276
0.37693	4.25798	0.188757	2.08378	0.671596	7.53517	0.80114	8.99267	0.852377	9.62906			0.579651	6.55665	0.729899	8.2556	0.913956	10.2638
0.378175	4.22755	0.190843	2.08535	0.676863	7.51569	0.806645	8.96075	0.858616	9.59852			0.582985	6.52559	0.735198	8.22883	0.917925	10.2016
0.379418	4.19772	0.192928	2.08689	0.68209	7.49618	0.812115	8.9291	0.864937	9.5695			0.58626	6.49452	0.740513	8.20278	0.92192	10.141
0.380658	4.16847	0.195013	2.0884	0.687278	7.47664	0.817554	8.89775	0.871335	9.54193			0.589475	6.46342	0.745842	8.17741	0.92594	10.0819
0.381896	4.13979	0.197098	2.08988	0.692425	7.45706	0.822963	8.86672	0.877807	9.51572			0.592632	6.43233	0.751184	8.15269	0.929985	10.0243
0.383133	4.11167	0.199183	2.09132	0.697531	7.43742	0.828346	8.83602	0.88435	9.49079			0.595733	6.40126	0.756535	8.12858	0.934056	9.96805
0.384368	4.0841	0.201268	2.09274	0.702596	7.41774	0.833705	8.80567	0.890959	9.46706			0.598779	6.37021	0.761897	8.10505	0.938152	9.91319
0.385603	4.05706	0.203352	2.09413	0.707619	7.39799	0.839043	8.77569	0.897632	9.44447			0.60177	6.3392	0.767265	8.08206	0.942272	9.85966
0.386838	4.03054	0.205437	2.09549	0.712598	7.37818	0.844362	8.74609	0.904365	9.42293			0.604709	6.30824	0.77264	8.05958	0.946416	9.80741
0.388073	4.00453	0.207521	2.09682	0.717535	7.35831	0.849665	8.7169	0.911153	9.40239			0.607596	6.27734	0.77802	8.03758	0.950585	9.75641
0.389308	3.97902	0.209606	2.09813	0.722427	7.33837	0.854955	8.68812	0.917994	9.38277			0.610432	6.24652	0.783402	8.01603	0.954777	9.70661
0.390543	3.95399	0.21169	2.09941	0.727275	7.31835	0.860233	8.65977	0.924884	9.36402			0.61322	6.21579	0.788787	7.9949	0.958992	9.65799
0.391779	3.92944	0.213774	2.10067	0.732079	7.29827	0.865502	8.63185	0.93182	9.34608			0.615959	6.18514	0.794171	7.97417	0.963231	9.6105
0.393017	3.90536	0.215858	2.10191	0.736837	7.2781	0.870763	8.60436	0.938799	9.32891			0.618653	6.15461	0.799554	7.95382	0.967493	9.56412
0.394255	3.88173	0.217941	2.10312	0.74155	7.25786	0.876018	8.57733	0.945818	9.31244			0.6213	6.12419	0.804935	7.93381	0.971777	9.5188
0.395495	3.85854	0.220025	2.1043	0.746218	7.23755	0.881268	8.55073	0.952875	9.29663			0.623904	6.09389	0.810312	7.91413	0.976084	9.47452
0.396737	3.83579	0.222109	2.10547	0.750839	7.21715	0.886516	8.52459	0.959966	9.28145			0.626465	6.06372	0.815683	7.89475	0.980413	9.43125
0.397981	3.81346	0.224192	2.10661	0.755415	7.19668	0.891762	8.49889	0.96709	9.26685			0.628984	6.03369	0.821048	7.87566	0.984765	9.38896
0.399226	3.79155	0.226276	2.10774	0.759944	7.17614	0.897006	8.47363	0.974243	9.25279			0.631463	6.0038	0.826405	7.85683	0.989137	9.34762
0.400474	3.77004	0.228359	2.10884	0.764427	7.15552	0.902251	8.44882	0.981424	9.23924			0.633902	5.97407	0.831753	7.83824	0.993532	9.3072
0.401724	3.74893	0.230442	2.10993	0.768864	7.13482	0.907497	8.42444	0.988631	9.22616			0.636302	5.9445	0.83709	7.81988	0.997947	9.26767
0.402977	3.7282	0.232525	2.11099	0.773254	7.11406	0.912744	8.40049	0.995861	9.21352			0.638666	5.9151	0.842417	7.80173	1.00238	9.22902
0.404232	3.70786	0.234608	2.11204	0.777598	7.09322	0.917992	8.37696	1.00311	9.2013			0.640993	5.88586	0.84773	7.78378		
0.40549	3.68788	0.236691	2.11307	0.781896	7.07232	0.923243	8.35385					0.643286	5.85681	0.85303	7.766		
0.406751	3.66826	0.238774	2.11408	0.786148	7.05135	0.928496	8.33115					0.645544	5.82793	0.858314	7.74839		
0.408015	3.649	0.240857	2.11507	0.790353	7.03032	0.933751	8.30884					0.647769	5.79924	0.863583	7.73093		
0.409282	3.63009	0.24294	2.11605	0.794513	7.00924	0.939009	8.28693					0.649962	5.77074	0.868835	7.71361		
0.410553	3.61151	0.245022	2.11701	0.798627	6.98809	0.94427	8.26539					0.652125	5.74244	0.874069	7.69642		
0.411826	3.59326	0.247105	2.11795	0.802696	6.9669	0.949533	8.24422					0.654257	5.71433	0.879284	7.67934		
0.413103	3.57534	0.249187	2.11888	0.806719	6.94565	0.954798	8.22342					0.656359	5.68642	0.884479	7.66236		
0.414383	3.55773	0.25127	2.11979	0.810698	6.92436	0.960065	8.20296					0.658434	5.65872	0.889654	7.64548		
0.415667	3.54043	0.253352	2.12069	0.814632	6.90303	0.965334	8.18283					0.660481	5.63122	0.894806	7.62868		
0.416955	3.52344	0.255434	2.12158	0.818522	6.88166	0.970604	8.16304					0.662501	5.60393	0.899937	7.61195		
0.418246	3.50674	0.257517	2.12245	0.822367	6.86026	0.975875	8.14356					0.664496	5.57685	0.905044	7.59529		
0.419541	3.49033	0.259599	2.1233	0.82617	6.83882	0.981147	8.12438					0.666465	5.54998	0.910126	7.57869		
0.420839	3.4742	0.261681	2.12415	0.829929	6.81736	0.986418	8.1055					0.668411	5.52333	0.915185	7.56214		
0.422141	3.45835	0.263763	2.12498	0.833646	6.79588	0.991689	8.0869					0.670333	5.49689	0.920217	7.54563		
0.423448	3.44278	0.265845	2.12579	0.83732	6.77438	0.996959	8.06857					0.672232	5.47067	0.925223	7.52916		
0.424758	3.42747	0.267927	2.1266	0.840953	6.75287	1.00223	8.05051					0.67411	5.44467	0.930203	7.51273		
0.426072	3.41241	0.270009	2.12739	0.844544	6.73135							0.675966	5.41888	0.935155	7.49631		
0.427389	3.39762	0.27209	2.12817	0.848094	6.70982							0.677801	5.39331	0.940079	7.47992		
0.428711	3.38307	0.274172	2.12894	0.851604	6.68829							0.679617	5.36796	0.944974	7.46354		
0.430037	3.36876	0.276254	2.12969	0.855074	6.66676							0.681413	5.34283	0.94984	7.44717		
0.431367	3.3547	0.278336	2.13044	0.858505	6.64523							0.683191	5.31792	0.954677	7.43081		
0.432701	3.34086	0.280417	2.13117	0.861896	6.62371							0.68495	5.29323	0.959483	7.41445		
0.434039	3.32726	0.282499	2.1319	0.865249	6.60221							0.686693	5.26876	0.964259	7.3981		
0.435381	3.31388	0.28458	2.13261	0.868564	6.58072							0.688418	5.24451	0.969004	7.38174		
0.436728	3.30072	0.286662	2.13332	0.871842	6.55925							0.690127	5.22047	0.973718	7.36537		
0.438078	3.28777	0.288743	2.13401	0.875083	6.53781							0.69182	5.19666	0.9784	7.34899		
0.439432	3.27504	0.290824	2.13469	0.878287	6.51639							0.693498	5.17306	0.983051	7.33261		
0.440791	3.26251	0.292906	2.13537	0.881456	6.495							0.695161	5.14967	0.987669	7.31621		
0.442154	3.25018	0.294987	2.13603	0.884589	6.47364							0.69681	5.12651	0.992255	7.2998		
0.443521	3.23805	0.297068	2.13669	0.887687	6.45232							0.698446	5.10356	0.996809	7.28338		
0.444892	3.22612	0.299149	2.13733	0.89075	6.43104							0.700068	5.08082	1.00133	7.26694		
0.446267	3.21438	0.301231	2.13797	0.89378	6.4098							0.701677	5.05829				
0.447646	3.20282	0.303312	2.1386	0.896777	6.3886							0.703274	5.03598				
0.44903	3.19144	0.305393	2.13922	0.89974	6.36745							0.704858	5.01388				
0.450417	3.18024	0.307474	2.13983	0.902672	6.34635							0.706432	4.99198				
0.451809	3.16922	0.309555	2.14043	0.905571	6.3253							0.707994	4.9703				
0.453205	3.15837	0.311636	2.14103	0.908439	6.3043							0.709545	4.94882				
0.454605	3.14769	0.313717	2.14162	0.911276	6.28337							0.711086	4.92755				
0.456009	3.13718	0.315797	2.1422	0.914083	6.26249							0.712617	4.90648				
0.457418	3.12682	0.317878	2.14277	0.91686	6.24167							0.714138	4.88561				
0.45883	3.11663	0.319959	2.14334	0.919607	6.22092							0.71565	4.86495				
0.460246	3.10659	0.32204	2.14389	0.922325	6.20023							0.717153	4.84448				
0.461667	3.0967	0.324121	2.14444	0.925015	6.17961							0.718647	4.82421				
0.463091	3.08697	0.326201	2.14499	0.927677	6.15905							0.720133	4.80414				
0.46452	3.07738	0.328282	2.14553	0.930312	6.13857							0.721611	4.78426				
0.465953	3.06793	0.330363	2.14606	0.932919	6.11816							0.723081	4.76458				
0.467389	3.05863	0.332443	2.14658	0.9355	6.09783							0.724544	4.74509				
0.46883	3.04946	0.334524	2.1471	0.938054	6.07757							0.726	4.72579				
0.470275	3.04043	0.336604	2.14761	0.940583	6.05739							0.727449	4.70667				
0.471723	3.03154	0.338685	2.14811	0.943087	6.03729							0.728891	4.68774				
0.473176	3.02278	0.340765	2.14861	0.945565	6.01727							0.730326	4.669				
0.474632	3.01414	0.342846	2.1491	0.94802	5.99733							0.731756	4.65044				
0.476093	3.00563	0.344926	2.14959	0.95045	5.97747							0.73318	4.63206				
0.477557	2.99725	0.347006	2.15007	0.952857	5.9577							0.734598	4.61386				
0.479026	2.98898	0.349087	2.15055	0.95524	5.93801							0.736011	4.59584				
0.480498	2.98084	0.351167	2.15102	0.957601	5.91841							0.737418	4.578				
0.481974	2.97281	0.353248	2.15148	0.95994	5.89889							0.738821	4.56033				
0.483453	2.9649	0.355328	2.15194	0.962256	5.87947							0.740218	4.54283				
0.484937	2.9571	0.357408	2.15239	0.964551	5.86013							0.741612	4.5255				
0.486424	2.94942	0.359488	2.15284	0.966825	5.84088							0.743	4.50835				
0.487915	2.94184	0.361569	2.15329	0.969079	5.82173							0.744385	4.49136				
0.48941	2.93437	0.363649	2.15372	0.971311	5.80266							0.745766	4.47453				
0.490909	2.927	0.365729	2.15416	0.973524	5.78369							0.747142	4.45787				
0.492411	2.91974	0.367809	2.15459	0.975717	5.76481							0.748515	4.44138				
0.493917	2.91258	0.369889	2.15501	0.977891	5.74602							0.749885	4.42504				
0.495427	2.90552	0.371969	2.15543	0.980046	5.72733							0.751251	4.40886				
0.49694	2.89855	0.374049	2.15584	0.982183	5.70874							0.752614	4.39284				
0.498457	2.89169	0.376129	2.15625	0.984301	5.69023							0.753975	4.37698				
0.499977	2.88491	0.378209	2.15666	0.986401	5.67183							0.755332	4.36127				
0.501501	2.87823	0.380289	2.15706	0.988484	5.65352							0.756686	4.34571				
0.503029	2.87165	0.382369	2.15745	0.99055	5.6353							0.758038	4.33031				
0.50456	2.86515	0.384449	2.15785	0.992599	5.61719							0.759388	4.31505				
0.506094	2.85874	0.386529	2.15823	0.994632	5.59917							0.760735	4.29994				
0.507632	2.85241	0.388609	2.15862	0.996648	5.58124							0.76208	4.28498				
0.509174	2.84617	0.390689	2.159	0.998648	5.56342							0.763423	4.27016				
0.510719	2.84002	0.392769	2.15937	1.00063	5.54569							0.764764	4.25548				
0.512267	2.83395	0.394849	2.15974									0.766104	4.24095				
0.513819	2.82795	0.396928	2.16011									0.767441	4.22655				
0.515374	2.82204	0.399008	2.16048									0.768777	4.2123				
0.516932	2.81621	0.401088	2.16084									0.770112	4.19818				
0.518494	2.81045	0.403168	2.16119									0.771445	4.18419				
0.520059	2.80477	0.405248	2.16155									0.772777	4.17034				
0.521627	2.79916	0.407327	2.1619									0.774107	4.15663				
0.523199	2.79363	0.409407	2.16224									0.775437	4.14304				
0.524773	2.78817	0.411487	2.16258									0.776766	4.12958				
0.526351	2.78277	0.413566	2.16292									0.778093	4.11625				
0.527932	2.77745	0.415646	2.16326									0.77942	4.10305				
0.529517	2.7722	0.417726	2.16359									0.780746	4.08997				
0.531104	2.76701	0.419805	2.16392									0.782072	4.07701				
0.532695	2.76189	0.421885	2.16425									0.783397	4.06418				
0.534288	2.75684	0.423965	2.16457									0.784721	4.05147				
0.535885	2.75185	0.426044	2.16489									0.786045	4.03888				
0.537485	2.74692	0.428124	2.1652									0.787369	4.0264				
0.539087	2.74205	0.430203	2.16552									0.788693	4.01405				
0.540693	2.73725	0.432283	2.16583									0.790016	4.00181				
0.542302	2.73251	0.434362	2.16613									0.791339	3.98968				
0.543914	2.72782	0.436442	2.16644									0.792662	3.97767				
0.545528	2.72319	0.438521	2.16674									0.793985	3.96576				
0.547146	2.71863	0.440601	2.16704									0.795309	3.95397				
0.548766	2.71411	0.44268	2.16734									0.796632	3.94229				
0.55039	2.70965	0.44476	2.16763									0.797955	3.93072				
0.552016	2.70525	0.446839	2.16792									0.799279	3.91925				
0.553645	2.7009	0.448918	2.16821									0.800603	3.90789				
0.555277	2.69661	0.450998	2.16849									0.801928	3.89663				
0.556911	2.69236	0.453077	2.16877									0.803252	3.88548				
0.558548	2.68817	0.455157	2.16905									0.804577	3.87443				
0.560189	2.68403	0.457236	2.16933									0.805903	3.86348				
0.561831	2.67994	0.459315	2.16961									0.807229	3.85263				
0.563477	2.67589	0.461395	2.16988									0.808556	3.84188				
0.565125	2.6719	0.463474	2.17015									0.809884	3.83122				
0.566776	2.66795	0.465553	2.17042									0.811212	3.82067				
0.568429	2.66405	0.467633	2.17068									0.812541	3.81021				
0.570086	2.6602	0.469712	2.17094									0.81387	3.79984				
0.571744	2.65639	0.471791	2.1712									0.815201	3.78957				
0.573406	2.65262	0.47387	2.17146									0.816532	3.77939				
0.57507	2.6489	0.475949	2.17172									0.817864	3.7693				
0.576736	2.64523	0.478029	2.17197									0.819197	3.7593				
0.578405	2.64159	0.480108	2.17222									0.820531	3.74939				
0.580076	2.638	0.482187	2.17247									0.821866	3.73957				
0.58175	2.63445	0.484266	2.17272									0.823202	3.72983				
0.583427	2.63094	0.486345	2.17297									0.824538	3.72019				
0.585106	2.62748	0.488425	2.17321									0.825876	3.71063				
0.586787	2.62405	0.490504	2.17345									0.827216	3.70115				
0.588471	2.62066	0.492583	2.17369									0.828556	3.69176				
0.590157	2.61731	0.494662	2.17393									0.829897	3.68245				
0.591845	2.61399	0.496741	2.17416									0.83124	3.67322				
0.593536	2.61072	0.49882	2.17439									0.832584	3.66407				
0.595229	2.60748	0.500899	2.17462									0.833929	3.655				
0.596924	2.60428	0.502978	2.17485									0.835275	3.64602				
0.598622	2.60111	0.505057	2.17508									0.836622	3.63711				
0.600322	2.59798	0.507137	2.17531									0.837971	3.62827				
0.602025	2.59489	0.509216	2.17553									0.839321	3.61952				
0.603729	2.59183	0.511295	2.17575									0.840673	3.61084				
0.605436	2.5888	0.513374	2.17597									0.842026	3.60223				
0.607145	2.5858	0.515453	2.17619									0.84338	3.5937				
0.608856	2.58284	0.517532	2.17641									0.844736	3.58525				
0.61057	2.57991	0.519611	2.17662									0.846093	3.57686				
0.612285	2.57702	0.52169	2.17683									0.847451	3.56855				
0.614003	2.57415	0.523769	2.17704									0.848811	3.56031				
0.615723	2.57132	0.525848	2.17725									0.850173	3.55214				
0.617445	2.56852	0.527926	2.17746									0.851536	3.54404				
0.619169	2.56575	0.530005	2.17767									0.8529	3.536				
0.620895	2.563	0.532084	2.17787									0.854266	3.52804				
0.622623	2.56029	0.534163	2.17808									0.855633	3.52014				
0.624353	2.55761	0.536242	2.17828									0.857003	3.51231				
0.626086	2.55495	0.538321	2.17848									0.858373	3.50455				
0.62782	2.55232	0.5404	2.17868									0.859745	3.49685				
0.629556	2.54973	0.542479	2.17887									0.861119	3.48921				
0.631295	2.54715	0.544558	2.17907									0.862495	3.48164				
0.633035	2.54461	0.546636	2.17926									0.863872	3.47413				
0.634777	2.54209	0.548715	2.17945									0.86525	3.46669				
0.636521	2.5396	0.550794	2.17965									0.866631	3.45931				
0.638267	2.53714	0.552873	2.17983									0.868013	3.45198				
0.640015	2.5347	0.554952	2.18002									0.869396	3.44472				
0.641765	2.53229	0.557031	2.18021									0.870781	3.43752				
0.643517	2.5299	0.559109	2.18039									0.872168	3.43038				
0.645271	2.52753	0.561188	2.18058									0.873557	3.4233				
0.647026	2.52519	0.563267	2.18076									0.874947	3.41627				
0.648784	2.52288	0.565346	2.18094									0.876339	3.4093				
0.650543	2.52059	0.567425	2.18112									0.877733	3.40239				
0.652304	2.51832	0.569503	2.1813									0.879128	3.39554				
0.654067	2.51608	0.571582	2.18148									0.880525	3.38874				
0.655831	2.51385	0.573661	2.18165									0.881924	3.382				
0.657598	2.51165	0.57574	2.18183									0.883325	3.37531				
0.659366	2.50948	0.577818	2.182									0.884727	3.36868				
0.661136	2.50732	0.579897	2.18217									0.886131	3.3621				
0.662907	2.50519	0.581976	2.18235									0.887537	3.35557				
0.664681	2.50308	0.584054	2.18251									0.888945	3.34909				
0.666456	2.50099	0.586133	2.18268									0.890354	3.34267				
0.668232	2.49892	0.588212	2.18285									0.891765	3.3363				
0.670011	2.49687	0.59029	2.18302									0.893178	3.32997				
0.671791	2.49484	0.592369	2.18318									0.894593	3.3237				
0.673573	2.49283	0.594448	2.18335									0.896009	3.31748				
0.675356	2.49084	0.596526	2.18351									0.897428	3.31131				
0.677141	2.48887	0.598605	2.18367									0.898848	3.30519				
0.678928	2.48693	0.600684	2.18383									0.900269	3.29911				
0.680716	2.48499	0.602762	2.18399									0.901693	3.29309				
0.682506	2.48308	0.604841	2.18415									0.903118	3.28711				
0.684297	2.48119	0.60692	2.1843									0.904545	3.28118				
0.68609	2.47932	0.608998	2.18446									0.905974	3.27529				
0.687885	2.47746	0.611077	2.18462									0.907405	3.26945				
0.689681	2.47562	0.613155	2.18477									0.908838	3.26366				
0.691478	2.4738	0.615234	2.18492									0.910272	3.25791				
0.693278	2.472	0.617313	2.18507									0.911708	3.2522				
0.695078	2.47021	0.619391	2.18523									0.913146	3.24654				
0.69688	2.46844	0.62147	2.18538									0.914586	3.24092				
0.698684	2.46669	0.623548	2.18552									0.916028	3.23535				
0.700489	2.46496	0.625627	2.18567									0.917471	3.22982				
0.702296	2.46324	0.627705	2.18582									0.918916	3.22433				
0.704104	2.46154	0.629784	2.18596									0.920363	3.21889				
0.705914	2.45985	0.631862	2.18611									0.921812	3.21348				
0.707724	2.45818	0.633941	2.18625									0.923263	3.20812				
0.709537	2.45652	0.636019	2.1864									0.924715	3.2028				
0.711351	2.45489	0.638098	2.18654									0.92617	3.19752				
0.713166	2.45326	0.640176	2.18668									0.927626	3.19228				
0.714983	2.45165	0.642255	2.18682									0.929084	3.18707				
0.7168	2.45006	0.644333	2.18696									0.930543	3.18191				
0.71862	2.44848	0.646412	2.1871									0.932005	3.17679				
0.720441	2.44692	0.64849	2.18723									0.933468	3.1717				
0.722263	2.44537	0.650569	2.18737									0.934933	3.16666				
0.724086	2.44383	0.652647	2.18751									0.9364	3.16165				
0.725911	2.44231	0.654726	2.18764									0.937869	3.15668				
0.727737	2.4408	0.656804	2.18778									0.939339	3.15174				
0.729564	2.43931	0.658882	2.18791									0.940811	3.14685				
0.731393	2.43783	0.660961	2.18804									0.942285	3.14199				
0.733223	2.43637	0.663039	2.18817									0.943761	3.13716				
0.735055	2.43491	0.665118	2.1883									0.945239	3.13237				
0.736887	2.43347	0.667196	2.18843									0.946719	3.12762				
0.738721	2.43205	0.669275	2.18856									0.9482	3.1229				
0.740556	2.43063	0.671353	2.18869									0.949683	3.11821				
0.742393	2.42923	0.673431	2.18882									0.951168	3.11356				
0.74423	2.42784	0.67551	2.18894									0.952654	3.10895				
0.746069	2.42647	0.677588	2.18907									0.954143	3.10437				
0.747909	2.4251	0.679666	2.18919									0.955633	3.09982				
0.74975	2.42375	0.681745	2.18932									0.957125	3.0953				
0.751593	2.42241	0.683823	2.18944									0.958618	3.09082				
0.753437	2.42108	0.685901	2.18957									0.960114	3.08637				
0.755281	2.41977	0.68798	2.18969									0.961611	3.08195				
0.757128	2.41846	0.690058	2.18981									0.96311	3.07757				
0.758975	2.41717	0.692136	2.18993									0.964611	3.07321				
0.760823	2.41589	0.694215	2.19005									0.966113	3.06889				
0.762673	2.41462	0.696293	2.19017									0.967617	3.0646				
0.764524	2.41336	0.698371	2.19029									0.969123	3.06034				
0.766375	2.41211	0.70045	2.1904									0.970631	3.05611				
0.768228	2.41087	0.702528	2.19052									0.972141	3.05191				
0.770083	2.40964	0.704606	2.19064									0.973652	3.04774				
0.771938	2.40843	0.706685	2.19075									0.975165	3.0436				
0.773794	2.40722	0.708763	2.19087									0.976679	3.03949				
0.775652	2.40603	0.710841	2.19098									0.978196	3.03541				
0.77751	2.40484	0.712919	2.1911									0.979714	3.03135				
0.77937	2.40367	0.714998	2.19121									0.981234	3.02733				
0.78123	2.4025	0.717076	2.19132									0.982755	3.02333				
0.783092	2.40135	0.719154	2.19143									0.984279	3.01936				
0.784955	2.4002	0.721232	2.19154									0.985804	3.01542				
0.786819	2.39907	0.723311	2.19165									0.98733	3.01151				
0.788684	2.39794	0.725389	2.19176									0.988859	3.00763				
0.79055	2.39682	0.727467	2.19187									0.990389	3.00377				
0.792417	2.39572	0.729545	2.19198									0.991921	2.99994				
0.794285	2.39462	0.731623	2.19209									0.993454	2.99613				
0.796154	2.39353	0.733702	2.19219									0.994989	2.99235				
0.798024	2.39245	0.73578	2.1923									0.996526	2.9886				
0.799895	2.39138	0.737858	2.19241									0.998065	2.98487				
0.801767	2.39032	0.739936	2.19251									0.999605	2.98117				
0.803641	2.38927	0.742014	2.19262									1.00115	2.9775				
0.805515	2.38823	0.744093	2.19272														
0.80739	2.38719	0.746171	2.19282														
0.809266	2.38616	0.748249	2.19293														
0.811143	2.38515	0.750327	2.19303														
0.813021	2.38414	0.752405	2.19313														
0.8149	2.38314	0.754483	2.19323														
0.816779	2.38214	0.756562	2.19333														
0.81866	2.38116	0.75864	2.19343														
0.820542	2.38018	0.760718	2.19353														
0.822425	2.37921	0.762796	2.19363														
0.824308	2.37825	0.764874	2.19373														
0.826193	2.3773	0.766952	2.19383														
0.828078	2.37635	0.76903	2.19393														
0.829964	2.37541	0.771108	2.19402														
0.831852	2.37448	0.773186	2.19412														
0.83374	2.37356	0.775264	2.19421														
0.835629	2.37265	0.777343	2.19431														
0.837519	2.37174	0.779421	2.1944														
0.839409	2.37084	0.781499	2.1945														
0.841301	2.36994	0.783577	2.19459														
0.843193	2.36906	0.785655	2.19469														
0.845087	2.36818	0.787733	2.19478														
0.846981	2.3673	0.789811	2.19487														
0.848876	2.36644	0.791889	2.19496														
0.850772	2.36558	0.793967	2.19505														
0.852669	2.36473	0.796045	2.19514														
0.854566	2.36388	0.798123	2.19523														
0.856464	2.36304	0.800201	2.19532														
0.858364	2.36221	0.802279	2.19541														
0.860264	2.36138	0.804357	2.1955														
0.862164	2.36056	0.806435	2.19559														
0.864066	2.35975	0.808513	2.19568														
0.865968	2.35894	0.810591	2.19577														
0.867871	2.35814	0.812669	2.19585														
0.869775	2.35735	0.814747	2.19594														
0.87168	2.35656	0.816825	2.19603														
0.873586	2.35578	0.818903	2.19611														
0.875492	2.355	0.820981	2.1962														
0.877399	2.35423	0.823059	2.19628														
0.879307	2.35347	0.825137	2.19637														
0.881215	2.35271	0.827215	2.19645														
0.883125	2.35196	0.829293	2.19653														
0.885035	2.35121	0.831371	2.19662														
0.886946	2.35047	0.833449	2.1967														
0.888857	2.34973	0.835527	2.19678														
0.89077	2.349	0.837605	2.19686														
0.892683	2.34828	0.839683	2.19695														
0.894596	2.34756	0.841761	2.19703														
0.896511	2.34684	0.843839	2.19711														
0.898426	2.34613	0.845916	2.19719														
0.900342	2.34543	0.847994	2.19727														
0.902259	2.34473	0.850072	2.19735														
0.904176	2.34404	0.85215	2.19743														
0.906094	2.34335	0.854228	2.1975														
0.908012	2.34267	0.856306	2.19758														
0.909932	2.34199	0.858384	2.19766														
0.911852	2.34132	0.860462	2.19774														
0.913773	2.34065	0.86254	2.19781														
0.915694	2.33999	0.864617	2.19789														
0.917616	2.33933	0.866695	2.19797														
0.919539	2.33868	0.868773	2.19804														
0.921462	2.33803	0.870851	2.19812														
0.923386	2.33739	0.872929	2.19819														
0.925311	2.33675	0.875007	2.19827														
0.927236	2.33611	0.877085	2.19834														
0.929163	2.33548	0.879162	2.19842														
0.931089	2.33486	0.88124	2.19849														
0.933017	2.33424	0.883318	2.19857														
0.934944	2.33362	0.885396	2.19864														
0.936873	2.33301	0.887474	2.19871														
0.938802	2.3324	0.889551	2.19878														
0.940732	2.3318	0.891629	2.19886														
0.942663	2.3312	0.893707	2.19893														
0.944594	2.33061	0.895785	2.199														
0.946525	2.33002	0.897863	2.19907														
0.948457	2.32943	0.89994	2.19914														
0.95039	2.32885	0.902018	2.19921														
0.952324	2.32827	0.904096	2.19928														
0.954258	2.3277	0.906174	2.19935														
0.956193	2.32713	0.908252	2.19942														
0.958128	2.32656	0.910329	2.19949														
0.960064	2.326	0.912407	2.19956														
0.962	2.32544	0.914485	2.19963														
0.963937	2.32489	0.916563	2.19969														
0.965875	2.32434	0.91864	2.19976														
0.967813	2.32379	0.920718	2.19983														
0.969752	2.32325	0.922796	2.1999														
0.971691	2.32271	0.924873	2.19996														
0.973631	2.32218	0.926951	2.20003														
0.975571	2.32165	0.929029	2.2001														
0.977512	2.32112	0.931107	2.20016														
0.979454	2.3206	0.933184	2.20023														
0.981396	2.32008	0.935262	2.20029														
0.983339	2.31956	0.93734	2.20036														
0.985282	2.31905	0.939417	2.20042														
0.987225	2.31854	0.941495	2.20049														
0.98917	2.31803	0.943573	2.20055														
0.991115	2.31753	0.945651	2.20061														
0.99306	2.31703	0.947728	2.20068														
0.995006	2.31653	0.949806	2.20074														
0.996952	2.31604	0.951884	2.2008														
0.998899	2.31555	0.953961	2.20087														
1.00085	2.31507	0.956039	2.20093														
		0.958117	2.20099														
		0.960194	2.20105														
		0.962272	2.20112														
		0.96435	2.20118														
		0.966427	2.20124														
		0.968505	2.2013														
		0.970582	2.20136														
		0.97266	2.20142														
		0.974738	2.20148														
		0.976815	2.20154														
		0.978893	2.2016														
		0.98097	2.20166														
		0.983048	2.20172														
		0.985126	2.20178														
		0.987203	2.20183														
		0.989281	2.20189														
		0.991358	2.20195														
		0.993436	2.20201														
		0.995514	2.20207														
		0.997591	2.20212														
		0.999669	2.20218														
		1.00175	2.20224														
