Sym0		Asym0		Sym1		Sym2		Sym3		Asym2		Asym3		Asym4	
470  Points		492  Points		196  Points		137  Points		119  Points		365  Points		151  Points		119  Points	
Freq (MHz)	Vph (m/ms)	Freq (MHz)	Vph (m/ms)	Freq (MHz)	Vph (m/ms)	Freq (MHz)	Vph (m/ms)	Freq (MHz)	Vph (m/ms)	Freq (MHz)	Vph (m/ms)	Freq (MHz)	Vph (m/ms)	Freq (MHz)	Vph (m/ms)
0.00105639	7.72496	0.000380076	0.205854	0.279518	806.619	0.440494	1074.47	0.559056	616.299	0.139847	216.041	0.419272	1042.46	0.698797	810.315
0.00825314	7.72444	0.000854644	0.307643	0.279638	218.77	0.440558	328.368	0.559178	304.097	0.140306	88.8569	0.419368	314.394	0.698881	389.55
0.015448	7.72344	0.00151012	0.407071	0.279895	126.654	0.44069	193.85	0.559383	201.906	0.141144	56.2169	0.419567	185.191	0.699025	256.451
0.0226392	7.72185	0.00233662	0.503428	0.280288	89.2178	0.440891	137.562	0.55967	151.172	0.142353	41.3528	0.419868	131.32	0.699228	191.178
0.0298252	7.71966	0.0033227	0.596201	0.280817	68.9407	0.441161	106.645	0.560039	120.857	0.143921	32.903	0.420271	101.786	0.69949	152.422
0.037004	7.71684	0.00445569	0.684984	0.28148	56.2397	0.441501	87.1079	0.560491	100.706	0.145833	27.4856	0.420777	83.1464	0.699811	126.758
0.044174	7.7134	0.00572228	0.769485	0.282276	47.5476	0.441911	73.6502	0.561024	86.3475	0.148073	23.7392	0.421384	70.32	0.700191	108.514
0.0513335	7.70933	0.00710895	0.849519	0.283203	41.2327	0.442393	63.8205	0.561639	75.6011	0.150623	21.0098	0.422091	60.96	0.70063	94.8817
0.0584804	7.70462	0.00860258	0.925018	0.284258	36.443	0.442947	56.3293	0.562335	67.2596	0.153465	18.9442	0.422899	53.833	0.701127	84.3112
0.0656129	7.69923	0.0101906	0.995988	0.285441	32.6899	0.443574	50.4336	0.563112	60.5994	0.156578	17.3348	0.423806	48.2286	0.701683	75.877
0.072729	7.69318	0.011861	1.0625	0.286747	29.6733	0.444277	45.675	0.56397	55.161	0.159946	16.0519	0.424812	43.7088	0.702297	68.9925
0.0798265	7.68642	0.0136034	1.12471	0.288175	27.1987	0.445055	41.7555	0.564907	50.6381	0.163548	15.01	0.425916	39.989	0.702969	63.2677
0.0869033	7.67894	0.0154076	1.18277	0.289721	25.1344	0.445912	38.4729	0.565923	46.819	0.167368	14.1505	0.427117	36.8759	0.703699	58.4335
0.093957	7.67072	0.017265	1.23689	0.291383	23.3881	0.446849	35.6851	0.567018	43.5526	0.171388	13.4324	0.428413	34.2341	0.704486	54.2981
0.100985	7.66173	0.0191677	1.28728	0.293157	21.8933	0.447867	33.2895	0.568191	40.728	0.175594	12.8254	0.429804	31.9654	0.70533	50.7209
0.107985	7.65194	0.0211089	1.33417	0.29504	20.6005	0.448968	31.21	0.569441	38.2624	0.179969	12.3075	0.431288	29.9972	0.706232	47.5968
0.114955	7.64131	0.0230826	1.37778	0.297029	19.4727	0.450156	29.3891	0.570768	36.0921	0.184501	11.8616	0.432865	28.2746	0.70719	44.8455
0.121891	7.62982	0.0250837	1.41835	0.299122	18.481	0.45143	27.7824	0.572172	34.1678	0.189176	11.4749	0.434532	26.7552	0.708205	42.4045
0.12879	7.61741	0.0271078	1.45609	0.301314	17.6032	0.452795	26.3552	0.57365	32.4506	0.193983	11.137	0.436289	25.406	0.709275	40.2246
0.135648	7.60405	0.0288872	1.48683	0.303604	16.8213	0.454252	25.0799	0.575204	30.9094	0.198911	10.8401	0.438134	24.2004	0.710402	38.2665
0.142464	7.58971	0.0304138	1.51155	0.305988	16.1212	0.455803	23.9344	0.576831	29.519	0.203949	10.5776	0.440066	23.1174	0.711583	36.4984
0.149232	7.5743	0.0316821	1.53104	0.308464	15.4913	0.45745	22.9005	0.57853	28.2586	0.209088	10.3443	0.442083	22.1398	0.712819	34.8943
0.155948	7.55781	0.0326883	1.54586	0.31103	14.9219	0.459197	21.9635	0.580303	27.1114	0.214319	10.1359	0.444183	21.2533	0.71411	33.4326
0.162609	7.54015	0.0334298	1.55643	0.313683	14.4053	0.461045	21.1111	0.582146	26.063	0.219636	9.94893	0.446366	20.4462	0.715455	32.0956
0.169209	7.52128	0.0339051	1.56306	0.316422	13.9349	0.462997	20.333	0.58406	25.1016	0.225029	9.78046	0.448629	19.7088	0.716853	30.8682
0.175745	7.50112	0.0345892	1.57241	0.319247	13.5051	0.465054	19.6206	0.586044	24.2172	0.230492	9.62803	0.450971	19.0327	0.718305	29.7376
0.18221	7.47961	0.0353339	1.58233	0.322155	13.1114	0.467219	18.9664	0.588096	23.401	0.235305	9.50667	0.45339	18.4108	0.719809	28.6931
0.188598	7.45669	0.0363486	1.59543	0.325148	12.7498	0.469494	18.3642	0.590217	22.6459	0.239444	9.41072	0.455885	17.8373	0.721366	27.7255
0.194905	7.43226	0.0376343	1.61139	0.328225	12.4168	0.471881	17.8086	0.592404	21.9453	0.242889	9.33611	0.458455	17.3069	0.722974	26.8267
0.201124	7.40627	0.0391925	1.62981	0.331387	12.1096	0.474381	17.2948	0.594658	21.2938	0.245626	9.27992	0.461096	16.8152	0.724634	25.9897
0.207248	7.37864	0.0410244	1.65027	0.334636	11.8257	0.476996	16.8188	0.596976	20.6867	0.247647	9.24009	0.463809	16.3584	0.726344	25.2087
0.213271	7.34929	0.0431309	1.67233	0.337973	11.5629	0.479727	16.3771	0.59936	20.1197	0.248943	9.21523	0.466591	15.9329	0.728105	24.4783
0.219186	7.31815	0.045241	1.69298	0.3414	11.3193	0.482576	15.9665	0.601807	19.5892	0.25081	9.18032	0.469441	15.5359	0.729916	23.7939
0.224985	7.28515	0.0473536	1.71234	0.344921	11.0934	0.485542	15.5843	0.604316	19.0919	0.252845	9.14345	0.472357	15.1648	0.731776	23.1514
0.230662	7.25025	0.0494684	1.73051	0.348537	10.8836	0.488628	15.2279	0.606888	18.6249	0.255622	9.09502	0.475337	14.8173	0.733685	22.5472
0.23621	7.21337	0.0515844	1.74758	0.352254	10.6887	0.491833	14.8953	0.60952	18.1857	0.259147	9.03642	0.47838	14.4913	0.735642	21.978
0.241621	7.17449	0.0537013	1.76363	0.356073	10.5075	0.495157	14.5845	0.612212	17.772	0.263428	8.96926	0.481485	14.185	0.737647	21.4411
0.246889	7.13358	0.0558186	1.77874	0.359998	10.3391	0.4986	14.2936	0.614964	17.3818	0.268475	8.89519	0.48465	13.8968	0.739699	20.9338
0.252009	7.09063	0.0579361	1.79298	0.364032	10.1825	0.502162	14.0212	0.617775	17.0132	0.274295	8.81588	0.487873	13.6252	0.741798	20.4539
0.256975	7.04565	0.0600535	1.80642	0.368179	10.0369	0.505841	13.7659	0.620643	16.6646	0.280142	8.74202	0.491154	13.369	0.743943	19.9993
0.261782	6.99868	0.0621704	1.81912	0.372439	9.90151	0.509638	13.5262	0.623568	16.3345	0.286012	8.67305	0.494491	13.1269	0.746133	19.5681
0.266428	6.94977	0.0642869	1.83112	0.376245	9.79137	0.51355	13.3012	0.626549	16.0216	0.291902	8.60844	0.497882	12.8979	0.748369	19.1586
0.270909	6.899	0.0664026	1.84249	0.37956	9.70286	0.517577	13.0896	0.629586	15.7246	0.297809	8.54777	0.501326	12.6811	0.75065	18.7693
0.275225	6.84646	0.0685176	1.85327	0.382349	9.63323	0.521716	12.8905	0.632677	15.4425	0.303729	8.49063	0.504823	12.4755	0.752975	18.3988
0.279375	6.79228	0.0706318	1.86349	0.384586	9.58034	0.525966	12.7031	0.635823	15.1742	0.309659	8.43667	0.50837	12.2804	0.755343	18.0458
0.283361	6.73659	0.072745	1.8732	0.386248	9.54264	0.530324	12.5265	0.639022	14.9188	0.315596	8.38558	0.511967	12.0951	0.757755	17.7092
0.287185	6.67954	0.0748573	1.88243	0.387319	9.51903	0.534788	12.3599	0.642275	14.6755	0.321538	8.33707	0.515613	11.9189	0.760209	17.388
0.29085	6.6213	0.0769686	1.89121	0.388869	9.48576	0.539357	12.2027	0.645579	14.4435	0.327482	8.29089	0.519307	11.7512	0.762705	17.0811
0.294361	6.56204	0.079079	1.89958	0.390568	9.4505	0.544026	12.0543	0.648936	14.2222	0.333424	8.24682	0.523048	11.5915	0.765243	16.7876
0.297722	6.50194	0.0811884	1.90756	0.392902	9.404	0.548795	11.914	0.652344	14.0108	0.339364	8.20464	0.526835	11.4392	0.767823	16.5068
0.30094	6.44115	0.0832968	1.91517	0.395891	9.34749	0.553659	11.7813	0.655803	13.8087	0.345296	8.16418	0.530667	11.2939	0.770443	16.2379
0.304021	6.37987	0.0854043	1.92245	0.399561	9.28245	0.558615	11.6557	0.659312	13.6155	0.351221	8.12526	0.534543	11.1552	0.773103	15.9802
0.306971	6.31824	0.0875108	1.9294	0.40394	9.21047	0.563662	11.5367	0.662872	13.4306	0.357134	8.08773	0.538464	11.0227	0.775803	15.733
0.309797	6.25644	0.0896164	1.93605	0.409062	9.13322	0.568795	11.4239	0.666482	13.2536	0.363033	8.05145	0.542428	10.8961	0.778542	15.4958
0.312507	6.19459	0.0917211	1.94242	0.414281	9.06124	0.574012	11.3169	0.670142	13.0839	0.368916	8.01629	0.546435	10.7749	0.781321	15.268
0.315106	6.13285	0.0938249	1.94853	0.419591	8.99411	0.579309	11.2154	0.673852	12.9213	0.374781	7.98213	0.550484	10.6589	0.784138	15.049
0.317602	6.07133	0.0959279	1.95439	0.424988	8.93142	0.584684	11.1189	0.677611	12.7654	0.380625	7.94886	0.554575	10.5478	0.786993	14.8385
0.32	6.01015	0.0980301	1.96001	0.430464	8.87277	0.590132	11.0271	0.68142	12.6157	0.386446	7.91639	0.558708	10.4414	0.789885	14.6359
0.322309	5.9494	0.100131	1.96542	0.436013	8.81781	0.595651	10.9398	0.68528	12.472	0.392241	7.88462	0.562882	10.3394	0.792815	14.4409
0.324533	5.88917	0.102232	1.97061	0.441629	8.76622	0.601236	10.8566	0.68919	12.334	0.398009	7.85347	0.567098	10.2416	0.795783	14.2531
0.326678	5.82954	0.104332	1.97561	0.447306	8.71767	0.606886	10.7773	0.69315	12.2015	0.403746	7.82286	0.570805	10.1595	0.798786	14.072
0.32875	5.77057	0.106431	1.98042	0.453037	8.6719	0.612596	10.7016	0.697162	12.074	0.40945	7.79271	0.573989	10.0919	0.801826	13.8975
0.330755	5.71233	0.10853	1.98505	0.458817	8.62865	0.618362	10.6293	0.701225	11.9516	0.41512	7.76295	0.57664	10.0375	0.804902	13.7291
0.332695	5.65486	0.110627	1.98952	0.464639	8.58768	0.624181	10.5602	0.705341	11.8338	0.420752	7.73353	0.578746	9.99543	0.808013	13.5666
0.334578	5.5982	0.112725	1.99383	0.470499	8.54877	0.630049	10.4941	0.709511	11.7206	0.426344	7.70439	0.580301	9.96502	0.81116	13.4096
0.336406	5.54238	0.114821	1.99798	0.476391	8.51173	0.635963	10.4307	0.713734	11.6116	0.431895	7.67547	0.5813	9.94579	0.814341	13.258
0.338183	5.48744	0.116917	2.002	0.48231	8.47639	0.641919	10.3699	0.718014	11.5068	0.437401	7.64672	0.582738	9.91845	0.817557	13.1115
0.339914	5.43338	0.119013	2.00588	0.488252	8.44258	0.647912	10.3116	0.722351	11.406	0.442861	7.61809	0.584306	9.88914	0.820807	12.9698
0.341601	5.38022	0.121108	2.00963	0.494213	8.41016	0.653162	10.2625	0.726747	11.3091	0.448273	7.58954	0.586448	9.84994	0.824092	12.8328
0.343249	5.32799	0.123202	2.01326	0.500188	8.37899	0.657655	10.2219	0.731203	11.2158	0.453634	7.56103	0.58917	9.80144	0.82741	12.7002
0.344859	5.27667	0.125296	2.01677	0.506174	8.34896	0.661382	10.1892	0.735722	11.1261	0.458942	7.53254	0.592482	9.74435	0.830761	12.5719
0.346435	5.22629	0.12739	2.02017	0.512167	8.31996	0.664335	10.1639	0.740305	11.0399	0.464196	7.50401	0.596396	9.67947	0.834146	12.4476
0.34798	5.17682	0.129483	2.02347	0.518165	8.29189	0.66651	10.1455	0.744956	10.957	0.469392	7.47542	0.600926	9.60771	0.837563	12.3272
0.349495	5.12828	0.131575	2.02666	0.524163	8.26466	0.667903	10.1339	0.749677	10.8774	0.47453	7.44675	0.605497	9.5387	0.841013	12.2105
0.350983	5.08066	0.133667	2.02976	0.53016	8.23819	0.669908	10.1173	0.75447	10.8009	0.479607	7.41797	0.610108	9.47231	0.844496	12.0974
0.352446	5.03395	0.135759	2.03276	0.536153	8.21241	0.672089	10.0995	0.759339	10.7275	0.484622	7.38906	0.61476	9.40844	0.84801	11.9878
0.353886	4.98814	0.137851	2.03568	0.542139	8.18726	0.675059	10.0756	0.764286	10.6571	0.489574	7.36001	0.619452	9.34697	0.851557	11.8814
0.355305	4.94322	0.139942	2.03851	0.548116	8.16267	0.678819	10.0459	0.769315	10.5897	0.49446	7.33078	0.624184	9.2878	0.855134	11.7782
0.356705	4.89919	0.142032	2.04126	0.554081	8.13859	0.683371	10.0107	0.773766	10.5332	0.49928	7.30139	0.628957	9.23084	0.858743	11.6781
0.358086	4.85602	0.144123	2.04394	0.560034	8.11497	0.688717	9.97043	0.777613	10.4868	0.504032	7.2718	0.633769	9.17599	0.862383	11.5809
0.359451	4.81371	0.146213	2.04654	0.565971	8.09176	0.694853	9.9254	0.780832	10.4495	0.508715	7.24202	0.63862	9.12316	0.866054	11.4864
0.360801	4.77224	0.148302	2.04907	0.571891	8.06892	0.700988	9.88153	0.783401	10.4208	0.513329	7.21204	0.64351	9.07227	0.869755	11.3947
0.362137	4.7316	0.150392	2.05152	0.577793	8.04641	0.707116	9.83869	0.785304	10.4001	0.517872	7.18186	0.648438	9.02323	0.873487	11.3056
0.36346	4.69178	0.152481	2.05392	0.583674	8.0242	0.713232	9.79679	0.786528	10.387	0.522344	7.15147	0.653404	8.97595	0.877248	11.219
0.364604	4.65772	0.15457	2.05625	0.589534	8.00226	0.719331	9.75571	0.788297	10.3685	0.526744	7.12088	0.658406	8.93037	0.881039	11.1348
0.365572	4.62917	0.156658	2.05852	0.59537	7.98055	0.725409	9.71538	0.790231	10.3486	0.531073	7.0901	0.663445	8.88642	0.88486	11.0529
0.366369	4.60587	0.158747	2.06073	0.601181	7.95905	0.73146	9.67569	0.792881	10.3221	0.535329	7.05912	0.668518	8.84401	0.888709	10.9733
0.366996	4.58766	0.160835	2.06289	0.606967	7.93773	0.737481	9.63657	0.796265	10.2895	0.539513	7.02795	0.673626	8.80307	0.892587	10.8959
0.367456	4.57438	0.162923	2.06499	0.612725	7.91658	0.743468	9.59794	0.800406	10.2514	0.543626	6.99661	0.678766	8.76355	0.89599	10.8301
0.36775	4.56594	0.16501	2.06704	0.618454	7.89556	0.749417	9.55976	0.805334	10.2083	0.547667	6.9651	0.683939	8.72537	0.898908	10.7752
0.368171	4.55386	0.167098	2.06904	0.624154	7.87466	0.755325	9.52196	0.811083	10.1612	0.551637	6.93343	0.689141	8.68847	0.901332	10.7306
0.368629	4.54083	0.169185	2.07099	0.629822	7.85385	0.761192	9.48452	0.816932	10.1164	0.555535	6.90161	0.694373	8.65279	0.903257	10.6959
0.369249	4.52326	0.171272	2.0729	0.635459	7.83313	0.767014	9.44739	0.82288	10.0738	0.559364	6.86966	0.699633	8.61827	0.904676	10.6707
0.370031	4.50128	0.173359	2.07476	0.641062	7.81248	0.772791	9.41056	0.828928	10.0334	0.563124	6.8376	0.704919	8.58486	0.905586	10.6547
0.370973	4.47506	0.175445	2.07658	0.646631	7.79187	0.778524	9.37402	0.835073	9.99507	0.566815	6.80543	0.710229	8.55249	0.906897	10.6318
0.372074	4.4448	0.177532	2.07835	0.652165	7.77131	0.784213	9.33776	0.841313	9.95871	0.570438	6.77316	0.715563	8.52112	0.908325	10.6071
0.373331	4.41073	0.179618	2.08009	0.657662	7.75076	0.78986	9.3018	0.847646	9.92422	0.573995	6.74082	0.720919	8.49069	0.910273	10.574
0.374583	4.37735	0.181704	2.08179	0.663122	7.73023	0.795466	9.26615	0.854067	9.8915	0.577486	6.70842	0.726294	8.46116	0.912746	10.5327
0.375831	4.34462	0.18379	2.08344	0.668544	7.7097	0.801033	9.23082	0.860575	9.86047	0.580913	6.67597	0.731688	8.43247	0.91575	10.4837
0.377075	4.31256	0.185876	2.08507	0.673927	7.68916	0.806564	9.19582	0.867163	9.83101	0.584276	6.64349	0.737099	8.40458	0.919293	10.4273
0.378315	4.28112	0.187961	2.08665	0.67927	7.6686	0.812062	9.16119	0.87383	9.80304	0.587578	6.611	0.742525	8.37745	0.923383	10.3642
0.379553	4.25031	0.190047	2.08821	0.684572	7.64802	0.81753	9.12695	0.88057	9.77647	0.590818	6.5785	0.747964	8.35104	0.9275	10.3026
0.380788	4.22011	0.192132	2.08972	0.689833	7.6274	0.82297	9.09311	0.88738	9.75121	0.594	6.54601	0.753415	8.32529	0.931643	10.2426
0.382021	4.19051	0.194217	2.09121	0.695052	7.60674	0.828387	9.05969	0.894255	9.72717	0.597122	6.51355	0.758876	8.30019	0.935811	10.1841
0.383252	4.16148	0.196302	2.09267	0.700227	7.58603	0.833783	9.02672	0.901191	9.70427	0.600188	6.48112	0.764346	8.27568	0.940005	10.1271
0.384482	4.13303	0.198387	2.0941	0.705359	7.56527	0.83916	8.99422	0.908184	9.68244	0.603199	6.44875	0.769822	8.25173	0.944223	10.0715
0.385712	4.10513	0.200472	2.09549	0.710447	7.54445	0.844522	8.96219	0.915232	9.6616	0.606155	6.41644	0.775304	8.22832	0.948467	10.0172
0.38694	4.07777	0.202556	2.09686	0.71549	7.52356	0.849871	8.93066	0.922329	9.6417	0.609058	6.38421	0.78079	8.2054	0.952735	9.96421
0.388169	4.05095	0.204641	2.0982	0.720488	7.50261	0.85521	8.89962	0.929474	9.62266	0.61191	6.35207	0.786277	8.18295	0.957028	9.91251
0.389398	4.02464	0.206725	2.09952	0.72544	7.48159	0.86054	8.8691	0.936662	9.60443	0.614711	6.32002	0.791766	8.16094	0.961344	9.86205
0.390627	3.99883	0.208809	2.10081	0.730345	7.4605	0.865863	8.83909	0.94389	9.58696	0.617463	6.28808	0.797253	8.13933	0.965684	9.81279
0.391857	3.97353	0.210894	2.10207	0.735204	7.43933	0.871182	8.8096	0.951156	9.5702	0.620168	6.25627	0.802738	8.11812	0.970048	9.76468
0.393088	3.9487	0.212978	2.10331	0.740016	7.41809	0.876498	8.78063	0.958457	9.5541	0.622826	6.22458	0.80822	8.09725	0.974435	9.7177
0.39432	3.92435	0.215061	2.10453	0.744781	7.39677	0.881813	8.75218	0.965791	9.53861	0.625439	6.19303	0.813696	8.07672	0.978845	9.67181
0.395553	3.90046	0.217145	2.10572	0.749498	7.37537	0.887127	8.72424	0.973154	9.5237	0.628009	6.16163	0.819165	8.05651	0.983277	9.62698
0.396788	3.87701	0.219229	2.10689	0.754167	7.35389	0.892441	8.69682	0.980545	9.50933	0.630535	6.13038	0.824627	8.03658	0.987732	9.58318
0.398025	3.85401	0.221313	2.10804	0.758789	7.33234	0.897757	8.66991	0.987962	9.49545	0.63302	6.09929	0.830079	8.01692	0.992209	9.54038
0.399264	3.83144	0.223396	2.10917	0.763362	7.31072	0.903075	8.64349	0.995401	9.48205	0.635465	6.06837	0.835521	7.99751	0.996708	9.49855
0.400504	3.80929	0.22548	2.11028	0.767887	7.28901	0.908395	8.61757	1.00286	9.46908	0.637871	6.03763	0.840951	7.97834	1.00123	9.45766
0.401748	3.78755	0.227563	2.11136	0.772364	7.26724	0.913719	8.59213			0.640239	6.00706	0.846367	7.95937		
0.402993	3.76622	0.229646	2.11243	0.776793	7.2454	0.919047	8.56717			0.64257	5.97669	0.85177	7.94061		
0.404242	3.74527	0.231729	2.11348	0.781174	7.22348	0.924378	8.54267			0.644865	5.9465	0.857157	7.92202		
0.405493	3.72471	0.233813	2.11451	0.785506	7.2015	0.929713	8.51863			0.647126	5.91652	0.862528	7.9036		
0.406746	3.70452	0.235896	2.11553	0.789791	7.17946	0.935052	8.49503			0.649353	5.88673	0.867881	7.88533		
0.408003	3.6847	0.237979	2.11652	0.794028	7.15736	0.940394	8.47185			0.651547	5.85715	0.873216	7.86721		
0.409263	3.66524	0.240061	2.1175	0.798218	7.1352	0.94574	8.4491			0.65371	5.82778	0.878531	7.8492		
0.410526	3.64613	0.242144	2.11846	0.802361	7.11299	0.95109	8.42675			0.655841	5.79863	0.883825	7.83131		
0.411792	3.62736	0.244227	2.11941	0.806456	7.09073	0.956443	8.4048			0.657944	5.76969	0.889097	7.81353		
0.413062	3.60892	0.24631	2.12034	0.810505	7.06843	0.961798	8.38322			0.660017	5.74096	0.894347	7.79584		
0.414335	3.59082	0.248392	2.12125	0.814507	7.04608	0.967156	8.36202			0.662063	5.71246	0.899574	7.77823		
0.415612	3.57303	0.250475	2.12215	0.818464	7.0237	0.972516	8.34117			0.664081	5.68418	0.904776	7.76069		
0.416892	3.55556	0.252557	2.12304	0.822375	7.00128	0.977878	8.32066			0.666073	5.65613	0.909954	7.74322		
0.418176	3.53839	0.25464	2.12391	0.82624	6.97884	0.98324	8.30048			0.66804	5.6283	0.915105	7.7258		
0.419463	3.52152	0.256722	2.12476	0.830061	6.95637	0.988602	8.28062			0.669983	5.6007	0.92023	7.70843		
0.420754	3.50495	0.258804	2.12561	0.833838	6.93387	0.993965	8.26107			0.671901	5.57333	0.925327	7.69111		
0.42205	3.48866	0.260886	2.12643	0.83757	6.91137	0.999326	8.24181			0.673797	5.54619	0.930397	7.67381		
0.423348	3.47265	0.262968	2.12725	0.841259	6.88885	1.00469	8.22283			0.67567	5.51929	0.935437	7.65655		
0.424651	3.45692	0.265051	2.12806	0.844906	6.86632					0.677522	5.49261	0.940449	7.63931		
0.425958	3.44145	0.267133	2.12885	0.848509	6.84379					0.679353	5.46616	0.94543	7.62209		
0.427269	3.42625	0.269215	2.12963	0.852071	6.82125					0.681163	5.43995	0.950381	7.60489		
0.428583	3.41131	0.271297	2.13039	0.855591	6.79873					0.682955	5.41397	0.955302	7.58769		
0.429902	3.39661	0.273378	2.13115	0.859071	6.77621					0.684727	5.38823	0.960191	7.5705		
0.431225	3.38217	0.27546	2.1319	0.86251	6.7537					0.686481	5.36271	0.965048	7.55331		
0.432552	3.36796	0.277542	2.13263	0.865909	6.73121					0.688217	5.33743	0.969873	7.53612		
0.433882	3.354	0.279624	2.13335	0.869268	6.70873					0.689936	5.31238	0.974665	7.51892		
0.435217	3.34026	0.281705	2.13406	0.872589	6.68629					0.691639	5.28755	0.979424	7.50172		
0.436557	3.32675	0.283787	2.13477	0.875872	6.66386					0.693326	5.26296	0.98415	7.48451		
0.4379	3.31346	0.285869	2.13546	0.879116	6.64147					0.694997	5.2386	0.988843	7.46728		
0.439247	3.30039	0.28795	2.13614	0.882324	6.61911					0.696654	5.21447	0.993502	7.45005		
0.440599	3.28753	0.290032	2.13681	0.885495	6.59679					0.698296	5.19056	0.998127	7.4328		
0.441955	3.27488	0.292113	2.13748	0.888629	6.57451					0.699924	5.16688	1.00272	7.41554		
0.443315	3.26243	0.294194	2.13813	0.891728	6.55227					0.701539	5.14342				
0.444679	3.25019	0.296276	2.13877	0.894792	6.53008					0.703141	5.12019				
0.446047	3.23814	0.298357	2.13941	0.897822	6.50794					0.70473	5.09718				
0.447419	3.22628	0.300438	2.14004	0.900817	6.48585					0.706307	5.0744				
0.448796	3.21461	0.30252	2.14066	0.903779	6.46382					0.707873	5.05183				
0.450177	3.20312	0.304601	2.14127	0.906708	6.44184					0.709427	5.02948				
0.451562	3.19182	0.306682	2.14187	0.909604	6.41992					0.71097	5.00735				
0.452951	3.18069	0.308763	2.14246	0.912469	6.39807					0.712503	4.98543				
0.454344	3.16973	0.310844	2.14305	0.915302	6.37628					0.714026	4.96373				
0.455742	3.15895	0.312925	2.14362	0.918104	6.35455					0.715539	4.94224				
0.457143	3.14833	0.315006	2.1442	0.920876	6.3329					0.717043	4.92095				
0.458549	3.13788	0.317087	2.14476	0.923618	6.31132					0.718538	4.89988				
0.459959	3.12759	0.319168	2.14531	0.92633	6.28981					0.720024	4.87902				
0.461373	3.11745	0.321249	2.14586	0.929014	6.26837					0.721502	4.85836				
0.462791	3.10747	0.32333	2.1464	0.931669	6.24702					0.722971	4.8379				
0.464213	3.09764	0.325411	2.14694	0.934296	6.22574					0.724433	4.81765				
0.465639	3.08796	0.327492	2.14747	0.936896	6.20454					0.725887	4.79759				
0.467069	3.07842	0.329573	2.14799	0.939469	6.18343					0.727334	4.77774				
0.468503	3.06903	0.331653	2.1485	0.942015	6.1624					0.728774	4.75808				
0.469942	3.05978	0.333734	2.14901	0.944535	6.14145					0.730208	4.73861				
0.471384	3.05066	0.335815	2.14952	0.947029	6.12059					0.731635	4.71934				
0.47283	3.04168	0.337896	2.15001	0.949499	6.09982					0.733056	4.70026				
0.47428	3.03283	0.339976	2.1505	0.951943	6.07914					0.734471	4.68136				
0.475735	3.02411	0.342057	2.15099	0.954364	6.05855					0.73588	4.66266				
0.477193	3.01552	0.344137	2.15146	0.95676	6.03805					0.737284	4.64414				
0.478655	3.00706	0.346218	2.15194	0.959133	6.01764					0.738683	4.6258				
0.480121	2.99872	0.348299	2.1524	0.961483	5.99733					0.740077	4.60764				
0.481591	2.99049	0.350379	2.15287	0.963811	5.97711					0.741466	4.58967				
0.483064	2.98239	0.35246	2.15332	0.966116	5.95699					0.74285	4.57187				
0.484542	2.9744	0.35454	2.15377	0.9684	5.93696					0.74423	4.55425				
0.486023	2.96653	0.35662	2.15422	0.970662	5.91703					0.745606	4.5368				
0.487508	2.95877	0.358701	2.15466	0.972903	5.8972					0.746977	4.51953				
0.488997	2.95112	0.360781	2.15509	0.975124	5.87747					0.748345	4.50242				
0.49049	2.94358	0.362862	2.15553	0.977325	5.85784					0.749709	4.48549				
0.491986	2.93614	0.364942	2.15595	0.979505	5.83831					0.75107	4.46872				
0.493486	2.92881	0.367022	2.15637	0.981667	5.81888					0.752428	4.45211				
0.49499	2.92158	0.369103	2.15679	0.983809	5.79955					0.753782	4.43567				
0.496498	2.91445	0.371183	2.1572	0.985933	5.78032					0.755133	4.4194				
0.498009	2.90742	0.373263	2.15761	0.988038	5.76119					0.756482	4.40328				
0.499524	2.90048	0.375343	2.15801	0.990126	5.74217					0.757827	4.38732				
0.501042	2.89365	0.377424	2.15841	0.992196	5.72325					0.75917	4.37151				
0.502564	2.8869	0.379504	2.1588	0.994248	5.70443					0.760511	4.35586				
0.504089	2.88025	0.381584	2.15919	0.996284	5.68572					0.76185	4.34037				
0.505618	2.87369	0.383664	2.15958	0.998303	5.66711					0.763186	4.32502				
0.507151	2.86721	0.385744	2.15996	1.00031	5.6486					0.76452	4.30983				
0.508687	2.86083	0.387824	2.16033							0.765852	4.29478				
0.510226	2.85453	0.389904	2.16071							0.767183	4.27988				
0.511769	2.84831	0.391984	2.16108							0.768511	4.26513				
0.513316	2.84218	0.394065	2.16144							0.769839	4.25051				
0.514865	2.83613	0.396145	2.1618							0.771164	4.23604				
0.516418	2.83016	0.398225	2.16216							0.772489	4.22171				
0.517975	2.82427	0.400305	2.16251							0.773812	4.20752				
0.519535	2.81846	0.402385	2.16286							0.775134	4.19346				
0.521098	2.81272	0.404465	2.16321							0.776455	4.17954				
0.522664	2.80706	0.406544	2.16355							0.777774	4.16575				
0.524234	2.80147	0.408624	2.16389							0.779094	4.1521				
0.525807	2.79596	0.410704	2.16423							0.780412	4.13857				
0.527383	2.79051	0.412784	2.16456							0.781729	4.12518				
0.528962	2.78514	0.414864	2.16489							0.783046	4.11191				
0.530544	2.77983	0.416944	2.16522							0.784363	4.09877				
0.53213	2.7746	0.419024	2.16554							0.785678	4.08576				
0.533719	2.76943	0.421104	2.16586							0.786994	4.07286				
0.53531	2.76432	0.423183	2.16618							0.788309	4.06009				
0.536905	2.75928	0.425263	2.16649							0.789624	4.04744				
0.538503	2.75431	0.427343	2.1668							0.790939	4.03491				
0.540104	2.74939	0.429423	2.16711							0.792254	4.0225				
0.541708	2.74454	0.431502	2.16742							0.793568	4.01021				
0.543315	2.73975	0.433582	2.16772							0.794883	3.99803				
0.544925	2.73502	0.435662	2.16802							0.796198	3.98596				
0.546538	2.73035	0.437742	2.16831							0.797512	3.97401				
0.548154	2.72573	0.439821	2.16861							0.798828	3.96216				
0.549772	2.72117	0.441901	2.1689							0.800143	3.95043				
0.551394	2.71667	0.443981	2.16918							0.801459	3.93881				
0.553019	2.71223	0.44606	2.16947							0.802775	3.9273				
0.554646	2.70783	0.44814	2.16975							0.804091	3.91589				
0.556276	2.70349	0.45022	2.17003							0.805408	3.90458				
0.557909	2.69921	0.452299	2.17031							0.806725	3.89339				
0.559544	2.69497	0.454379	2.17058							0.808043	3.88229				
0.561183	2.69079	0.456458	2.17086							0.809362	3.87129				
0.562824	2.68666	0.458538	2.17113							0.810681	3.8604				
0.564468	2.68257	0.460617	2.17139							0.812001	3.84961				
0.566114	2.67854	0.462697	2.17166							0.813322	3.83891				
0.567764	2.67455	0.464777	2.17192							0.814643	3.82831				
0.569416	2.67061	0.466856	2.17218							0.815966	3.81781				
0.57107	2.66672	0.468936	2.17244							0.817289	3.8074				
0.572727	2.66287	0.471015	2.1727							0.818613	3.79709				
0.574387	2.65907	0.473095	2.17295							0.819938	3.78687				
0.576049	2.65531	0.475174	2.1732							0.821263	3.77674				
0.577714	2.6516	0.477253	2.17345							0.82259	3.76671				
0.579381	2.64793	0.479333	2.1737							0.823918	3.75676				
0.581051	2.6443	0.481412	2.17394							0.825247	3.7469				
0.582724	2.64071	0.483492	2.17418							0.826577	3.73713				
0.584399	2.63717	0.485571	2.17442							0.827909	3.72745				
0.586076	2.63367	0.487651	2.17466							0.829241	3.71785				
0.587756	2.6302	0.48973	2.1749							0.830575	3.70834				
0.589438	2.62678	0.491809	2.17513							0.831909	3.69891				
0.591122	2.62339	0.493889	2.17537							0.833245	3.68957				
0.592809	2.62005	0.495968	2.1756							0.834582	3.68031				
0.594499	2.61674	0.498047	2.17583							0.835921	3.67113				
0.59619	2.61347	0.500127	2.17605							0.837261	3.66203				
0.597884	2.61023	0.502206	2.17628							0.838602	3.65301				
0.599581	2.60703	0.504285	2.1765							0.839944	3.64407				
0.601279	2.60387	0.506365	2.17672							0.841288	3.6352				
0.60298	2.60074	0.508444	2.17694							0.842633	3.62642				
0.604683	2.59765	0.510523	2.17716							0.84398	3.6177				
0.606389	2.59459	0.512602	2.17737							0.845328	3.60907				
0.608096	2.59157	0.514682	2.17759							0.846678	3.60051				
0.609806	2.58857	0.516761	2.1778							0.848029	3.59202				
0.611518	2.58561	0.51884	2.17801							0.849381	3.58361				
0.613232	2.58269	0.520919	2.17822							0.850735	3.57527				
0.614948	2.57979	0.522999	2.17843							0.85209	3.567				
0.616667	2.57693	0.525078	2.17863							0.853447	3.5588				
0.618387	2.5741	0.527157	2.17884							0.854806	3.55067				
0.62011	2.5713	0.529236	2.17904							0.856166	3.54261				
0.621835	2.56853	0.531315	2.17924							0.857528	3.53462				
0.623562	2.56578	0.533395	2.17944							0.858891	3.52669				
0.625291	2.56307	0.535474	2.17964							0.860256	3.51883				
0.627021	2.56039	0.537553	2.17983							0.861623	3.51104				
0.628754	2.55773	0.539632	2.18003							0.862991	3.50332				
0.630489	2.55511	0.541711	2.18022							0.86436	3.49566				
0.632226	2.55251	0.54379	2.18041							0.865732	3.48806				
0.633965	2.54994	0.545869	2.1806							0.867105	3.48053				
0.635706	2.5474	0.547948	2.18079							0.86848	3.47306				
0.637449	2.54488	0.550027	2.18098							0.869856	3.46565				
0.639194	2.54239	0.552107	2.18117							0.871234	3.4583				
0.640941	2.53992	0.554186	2.18135							0.872614	3.45102				
0.642689	2.53748	0.556265	2.18153							0.873995	3.44379				
0.64444	2.53507	0.558344	2.18172							0.875379	3.43662				
0.646192	2.53268	0.560423	2.1819							0.876764	3.42952				
0.647947	2.53032	0.562502	2.18208							0.87815	3.42247				
0.649703	2.52798	0.564581	2.18225							0.879539	3.41548				
0.651461	2.52566	0.56666	2.18243							0.880929	3.40854				
0.65322	2.52337	0.568739	2.18261							0.882321	3.40167				
0.654982	2.5211	0.570818	2.18278							0.883714	3.39484				
0.656745	2.51885	0.572897	2.18295							0.88511	3.38808				
0.65851	2.51663	0.574976	2.18312							0.886507	3.38137				
0.660277	2.51443	0.577055	2.18329							0.887906	3.37471				
0.662046	2.51225	0.579134	2.18346							0.889307	3.36811				
0.663816	2.5101	0.581213	2.18363							0.890709	3.36156				
0.665589	2.50796	0.583292	2.1838							0.892114	3.35506				
0.667362	2.50585	0.585371	2.18396							0.89352	3.34862				
0.669138	2.50376	0.58745	2.18413							0.894928	3.34222				
0.670915	2.50168	0.589529	2.18429							0.896338	3.33588				
0.672694	2.49963	0.591608	2.18445							0.897749	3.32959				
0.674475	2.4976	0.593687	2.18461							0.899162	3.32335				
0.676257	2.49559	0.595765	2.18477							0.900577	3.31715				
0.678041	2.4936	0.597844	2.18493							0.901994	3.31101				
0.679826	2.49163	0.599923	2.18509							0.903413	3.30492				
0.681613	2.48968	0.602002	2.18524							0.904834	3.29887				
0.683402	2.48775	0.604081	2.1854							0.906256	3.29287				
0.685192	2.48583	0.60616	2.18555							0.90768	3.28692				
0.686984	2.48394	0.608239	2.18571							0.909106	3.28101				
0.688778	2.48206	0.610318	2.18586							0.910534	3.27515				
0.690573	2.4802	0.612397	2.18601							0.911964	3.26934				
0.692369	2.47836	0.614475	2.18616							0.913396	3.26357				
0.694167	2.47654	0.616554	2.18631							0.914829	3.25784				
0.695967	2.47473	0.618633	2.18646							0.916264	3.25217				
0.697768	2.47294	0.620712	2.1866							0.917701	3.24653				
0.699571	2.47117	0.622791	2.18675							0.91914	3.24094				
0.701375	2.46942	0.62487	2.18689							0.920581	3.23539				
0.70318	2.46768	0.626948	2.18704							0.922023	3.22988				
0.704987	2.46596	0.629027	2.18718							0.923467	3.22442				
0.706796	2.46425	0.631106	2.18732							0.924914	3.219				
0.708606	2.46257	0.633185	2.18746							0.926362	3.21361				
0.710417	2.46089	0.635264	2.1876							0.927811	3.20827				
0.71223	2.45923	0.637342	2.18774							0.929263	3.20297				
0.714044	2.45759	0.639421	2.18788							0.930716	3.19772				
0.71586	2.45597	0.6415	2.18802							0.932172	3.1925				
0.717677	2.45435	0.643579	2.18816							0.933629	3.18732				
0.719495	2.45276	0.645657	2.18829							0.935088	3.18218				
0.721315	2.45118	0.647736	2.18843							0.936549	3.17707				
0.723136	2.44961	0.649815	2.18856							0.938011	3.17201				
0.724958	2.44806	0.651894	2.18869							0.939476	3.16698				
0.726782	2.44652	0.653972	2.18883							0.940942	3.16199				
0.728607	2.44499	0.656051	2.18896							0.94241	3.15704				
0.730434	2.44348	0.65813	2.18909							0.94388	3.15213				
0.732261	2.44199	0.660208	2.18922							0.945351	3.14725				
0.73409	2.4405	0.662287	2.18935							0.946825	3.14241				
0.735921	2.43903	0.664366	2.18948							0.9483	3.1376				
0.737752	2.43758	0.666444	2.1896							0.949777	3.13283				
0.739585	2.43613	0.668523	2.18973							0.951256	3.1281				
0.741419	2.4347	0.670602	2.18986							0.952737	3.1234				
0.743255	2.43329	0.672681	2.18998							0.954219	3.11873				
0.745092	2.43188	0.674759	2.1901							0.955703	3.1141				
0.74693	2.43049	0.676838	2.19023							0.957189	3.1095				
0.748769	2.42911	0.678916	2.19035							0.958677	3.10494				
0.750609	2.42774	0.680995	2.19047							0.960167	3.10041				
0.752451	2.42639	0.683074	2.19059							0.961658	3.09591				
0.754293	2.42504	0.685152	2.19071							0.963152	3.09144				
0.756137	2.42371	0.687231	2.19083							0.964647	3.08701				
0.757983	2.42239	0.68931	2.19095							0.966143	3.08261				
0.759829	2.42108	0.691388	2.19107							0.967642	3.07824				
0.761676	2.41979	0.693467	2.19119							0.969142	3.0739				
0.763525	2.4185	0.695545	2.19131							0.970644	3.0696				
0.765375	2.41723	0.697624	2.19142							0.972148	3.06532				
0.767226	2.41596	0.699703	2.19154							0.973654	3.06107				
0.769078	2.41471	0.701781	2.19165							0.975161	3.05686				
0.770931	2.41347	0.70386	2.19177							0.97667	3.05267				
0.772786	2.41224	0.705938	2.19188							0.978181	3.04852				
0.774641	2.41102	0.708017	2.19199							0.979693	3.04439				
0.776498	2.40981	0.710095	2.1921							0.981208	3.0403				
0.778356	2.40861	0.712174	2.19222							0.982724	3.03623				
0.780214	2.40742	0.714253	2.19233							0.984242	3.03219				
0.782074	2.40624	0.716331	2.19244							0.985761	3.02818				
0.783935	2.40507	0.71841	2.19255							0.987282	3.0242				
0.785797	2.40392	0.720488	2.19265							0.988805	3.02024				
0.78766	2.40277	0.722567	2.19276							0.99033	3.01631				
0.789524	2.40163	0.724645	2.19287							0.991856	3.01242				
0.79139	2.4005	0.726724	2.19298							0.993384	3.00854				
0.793256	2.39938	0.728802	2.19308							0.994914	3.0047				
0.795123	2.39827	0.730881	2.19319							0.996446	3.00088				
0.796991	2.39717	0.732959	2.19329							0.997979	2.99709				
0.798861	2.39607	0.735038	2.1934							0.999514	2.99332				
0.800731	2.39499	0.737116	2.1935							1.00105	2.98958				
0.802602	2.39392	0.739195	2.19361												
0.804475	2.39285	0.741273	2.19371												
0.806348	2.3918	0.743352	2.19381												
0.808222	2.39075	0.74543	2.19391												
0.810097	2.38971	0.747509	2.19401												
0.811974	2.38868	0.749587	2.19411												
0.813851	2.38766	0.751665	2.19421												
0.815729	2.38664	0.753744	2.19431												
0.817608	2.38564	0.755822	2.19441												
0.819488	2.38464	0.757901	2.19451												
0.821369	2.38365	0.759979	2.19461												
0.823251	2.38267	0.762058	2.1947												
0.825134	2.3817	0.764136	2.1948												
0.827018	2.38073	0.766214	2.1949												
0.828902	2.37978	0.768293	2.19499												
0.830788	2.37883	0.770371	2.19509												
0.832675	2.37788	0.77245	2.19518												
0.834562	2.37695	0.774528	2.19528												
0.83645	2.37602	0.776606	2.19537												
0.838339	2.3751	0.778685	2.19546												
0.840229	2.37419	0.780763	2.19555												
0.84212	2.37329	0.782842	2.19565												
0.844012	2.37239	0.78492	2.19574												
0.845905	2.3715	0.786998	2.19583												
0.847798	2.37061	0.789077	2.19592												
0.849693	2.36974	0.791155	2.19601												
0.851588	2.36887	0.793233	2.1961												
0.853484	2.368	0.795312	2.19619												
0.855381	2.36715	0.79739	2.19628												
0.857278	2.3663	0.799468	2.19636												
0.859177	2.36546	0.801547	2.19645												
0.861076	2.36462	0.803625	2.19654												
0.862976	2.36379	0.805703	2.19663												
0.864877	2.36297	0.807782	2.19671												
0.866779	2.36215	0.80986	2.1968												
0.868682	2.36134	0.811938	2.19688												
0.870585	2.36053	0.814017	2.19697												
0.872489	2.35974	0.816095	2.19705												
0.874394	2.35894	0.818173	2.19714												
0.8763	2.35816	0.820251	2.19722												
0.878206	2.35738	0.82233	2.1973												
0.880113	2.3566	0.824408	2.19739												
0.882021	2.35583	0.826486	2.19747												
0.88393	2.35507	0.828564	2.19755												
0.885839	2.35432	0.830643	2.19763												
0.88775	2.35356	0.832721	2.19771												
0.889661	2.35282	0.834799	2.19779												
0.891572	2.35208	0.836877	2.19787												
0.893485	2.35134	0.838956	2.19795												
0.895398	2.35062	0.841034	2.19803												
0.897312	2.34989	0.843112	2.19811												
0.899226	2.34918	0.84519	2.19819												
0.901142	2.34846	0.847269	2.19827												
0.903058	2.34776	0.849347	2.19835												
0.904974	2.34705	0.851425	2.19843												
0.906892	2.34636	0.853503	2.1985												
0.90881	2.34566	0.855582	2.19858												
0.910729	2.34498	0.85766	2.19866												
0.912648	2.3443	0.859738	2.19873												
0.914569	2.34362	0.861816	2.19881												
0.916489	2.34295	0.863894	2.19888												
0.918411	2.34228	0.865972	2.19896												
0.920333	2.34162	0.868051	2.19903												
0.922256	2.34096	0.870129	2.19911												
0.92418	2.34031	0.872207	2.19918												
0.926104	2.33966	0.874285	2.19925												
0.928029	2.33902	0.876363	2.19933												
0.929954	2.33838	0.878441	2.1994												
0.93188	2.33775	0.88052	2.19947												
0.933807	2.33712	0.882598	2.19954												
0.935734	2.3365	0.884676	2.19962												
0.937663	2.33588	0.886754	2.19969												
0.939591	2.33526	0.888832	2.19976												
0.941521	2.33465	0.89091	2.19983												
0.94345	2.33404	0.892988	2.1999												
0.945381	2.33344	0.895067	2.19997												
0.947312	2.33284	0.897145	2.20004												
0.949244	2.33225	0.899223	2.20011												
0.951176	2.33166	0.901301	2.20018												
0.953109	2.33107	0.903379	2.20025												
0.955043	2.33049	0.905457	2.20031												
0.956977	2.32992	0.907535	2.20038												
0.958912	2.32934	0.909613	2.20045												
0.960847	2.32877	0.911691	2.20052												
0.962783	2.32821	0.913769	2.20058												
0.96472	2.32765	0.915847	2.20065												
0.966657	2.32709	0.917925	2.20072												
0.968595	2.32654	0.920004	2.20078												
0.970533	2.32599	0.922082	2.20085												
0.972472	2.32544	0.92416	2.20092												
0.974411	2.3249	0.926238	2.20098												
0.976351	2.32436	0.928316	2.20105												
0.978292	2.32383	0.930394	2.20111												
0.980233	2.32329	0.932472	2.20117												
0.982175	2.32277	0.93455	2.20124												
0.984117	2.32224	0.936628	2.2013												
0.986059	2.32172	0.938706	2.20137												
0.988003	2.32121	0.940784	2.20143												
0.989947	2.32069	0.942862	2.20149												
0.991891	2.32018	0.94494	2.20155												
0.993836	2.31968	0.947018	2.20162												
0.995781	2.31918	0.949096	2.20168												
0.997727	2.31868	0.951174	2.20174												
0.999674	2.31818	0.953252	2.2018												
1.00162	2.31769	0.95533	2.20186												
		0.957408	2.20193												
		0.959486	2.20199												
		0.961564	2.20205												
		0.963642	2.20211												
		0.96572	2.20217												
		0.967798	2.20223												
		0.969876	2.20229												
		0.971954	2.20234												
		0.974032	2.2024												
		0.97611	2.20246												
		0.978188	2.20252												
		0.980266	2.20258												
		0.982344	2.20264												
		0.984421	2.20269												
		0.986499	2.20275												
		0.988577	2.20281												
		0.990655	2.20287												
		0.992733	2.20292												
		0.994811	2.20298												
		0.996889	2.20303												
		0.998967	2.20309												
		1.00104	2.20315												
