Sym0		Asym0		Sym1		Sym2		Sym3		Asym1		Asym2		Asym3		Asym4	
330  Points		373  Points		330  Points		316  Points		229  Points		344  Points		292  Points		213  Points		78  Points	
Freq (MHz)	Vph (m/ms)	Freq (MHz)	Vph (m/ms)	Freq (MHz)	Vph (m/ms)	Freq (MHz)	Vph (m/ms)	Freq (MHz)	Vph (m/ms)	Freq (MHz)	Vph (m/ms)	Freq (MHz)	Vph (m/ms)	Freq (MHz)	Vph (m/ms)	Freq (MHz)	Vph (m/ms)
0.353553	5262.05	3.23264e-005	0.0351803	1.00021	2.62129	0.475325	853.659	0.707109	987.578	0.176779	747.941	0.53033	7273.59	0.883883	967.687	0.950643	1876.87
0.353548	283.815	0.000168132	0.0801625	0.997525	2.62235	0.475364	273.934	0.707122	373.247	0.176851	124.995	0.530336	423.786	0.883882	422.524	0.950663	564.187
0.353534	145.835	0.000409513	0.125008	0.994834	2.62341	0.475443	163.168	0.707147	230.114	0.177027	68.2612	0.530353	218.258	0.883879	270.265	0.950705	332.005
0.353511	98.1233	0.000755704	0.169653	0.992134	2.62444	0.475563	116.208	0.707183	166.336	0.177305	47.0071	0.530381	146.983	0.883876	198.672	0.950769	235.22
0.353479	73.9306	0.00120552	0.214013	0.989427	2.62547	0.475722	90.2552	0.707231	130.244	0.177685	35.8931	0.530419	110.805	0.883872	157.065	0.950855	182.137
0.353439	59.3043	0.00175744	0.258013	0.986711	2.62647	0.475921	73.7935	0.707291	107.026	0.178165	29.0697	0.530468	88.9231	0.883866	129.867	0.950963	148.61
0.35339	49.5065	0.00240948	0.301564	0.983987	2.62746	0.47616	62.4237	0.707362	90.8381	0.178744	24.4607	0.530528	74.2622	0.88386	110.697	0.951092	125.514
0.353333	42.4844	0.00315974	0.344632	0.981254	2.62844	0.476438	54.1014	0.707446	78.9068	0.17942	21.1432	0.530599	63.7548	0.883853	96.4592	0.951243	108.638
0.353268	37.2046	0.00400579	0.387147	0.978512	2.62939	0.476755	47.7476	0.707541	69.749	0.18019	18.6446	0.53068	55.8552	0.883846	85.466	0.951416	95.768
0.353195	33.0899	0.00494502	0.429051	0.975762	2.63033	0.477111	42.7388	0.707647	62.4986	0.181052	16.6976	0.530772	49.7001	0.883837	76.722	0.95161	85.6295
0.353115	29.793	0.00597479	0.470308	0.973003	2.63126	0.477504	38.6896	0.707766	56.6162	0.182003	15.1398	0.530875	44.7693	0.883829	69.601	0.951825	77.4369
0.353029	27.0918	0.00709225	0.510877	0.970236	2.63216	0.477936	35.3492	0.707896	51.7482	0.183041	13.8668	0.530989	40.7309	0.88382	63.6894	0.952061	70.6795
0.352936	24.8383	0.00829427	0.550712	0.96746	2.63305	0.478405	32.5469	0.708038	47.6532	0.184162	12.8082	0.531114	37.3628	0.88381	58.7033	0.952319	65.0107
0.352837	22.9296	0.00957792	0.589791	0.964676	2.63392	0.47891	30.1629	0.708192	44.1608	0.185364	11.9152	0.53125	34.5112	0.883801	54.4412	0.952597	60.1875
0.352733	21.2921	0.01094	0.628087	0.961883	2.63477	0.479452	28.1105	0.708357	41.1473	0.186475	11.2443	0.531396	32.0658	0.883791	50.756	0.952896	56.0341
0.352624	19.8719	0.0123776	0.665587	0.959082	2.63561	0.48003	26.3254	0.708535	38.5206	0.187467	10.7373	0.531554	29.9457	0.883782	47.538	0.953216	52.4201
0.352511	18.6283	0.0138874	0.702269	0.956272	2.63642	0.480643	24.7588	0.708724	36.2108	0.188318	10.3566	0.531722	28.0902	0.883773	44.7037	0.953556	49.2471
0.352394	17.5304	0.0154663	0.738124	0.953454	2.63722	0.48129	23.3732	0.708925	34.1639	0.189009	10.0774	0.531901	26.4527	0.883764	42.1883	0.953916	46.4392
0.352275	16.554	0.0171114	0.773148	0.950628	2.63801	0.481972	22.1392	0.709137	32.3376	0.189528	9.88324	0.532091	24.9971	0.883757	39.9409	0.954297	43.9369
0.352152	15.6799	0.0188196	0.807341	0.947794	2.63877	0.482686	21.0334	0.709362	30.6981	0.189865	9.76364	0.532292	23.6947	0.88375	37.9208	0.954697	41.6931
0.352028	14.8928	0.0205881	0.840704	0.944952	2.63952	0.483434	20.037	0.709598	29.2181	0.190355	9.59772	0.532504	22.5226	0.883743	36.0953	0.955117	39.6697
0.351903	14.1805	0.022414	0.873242	0.942102	2.64025	0.484213	19.1347	0.709847	27.8757	0.190895	9.42496	0.532727	21.4622	0.883739	34.4375	0.955556	37.836
0.351777	13.5328	0.0242946	0.904956	0.939244	2.64097	0.485024	18.3138	0.710107	26.6524	0.191644	9.20187	0.532961	20.4984	0.883735	32.9253	0.956015	36.1665
0.351652	12.9412	0.0262272	0.935862	0.93638	2.64166	0.485866	17.564	0.710379	25.5332	0.192612	8.93768	0.533207	19.6186	0.883733	31.5403	0.956493	34.6401
0.351527	12.3989	0.0282094	0.965971	0.933507	2.64235	0.486737	16.8765	0.710663	24.5054	0.193814	8.64237	0.533463	18.8123	0.883733	30.2672	0.956989	33.2394
0.351404	11.8999	0.0302387	0.995294	0.930628	2.64301	0.487638	16.244	0.710959	23.5582	0.195266	8.32584	0.53373	18.0707	0.883734	29.093	0.957504	31.9495
0.351282	11.4393	0.0323127	1.02384	0.927742	2.64366	0.488568	15.6602	0.711267	22.6827	0.196985	7.99729	0.534009	17.3864	0.883738	28.0065	0.958038	30.7578
0.351164	11.0128	0.0344293	1.05164	0.924849	2.6443	0.489525	15.1197	0.711587	21.8709	0.198759	7.70084	0.534298	16.753	0.883744	26.9984	0.95859	29.6535
0.351049	10.6168	0.0365864	1.0787	0.921949	2.64492	0.49051	14.618	0.711918	21.1162	0.200584	7.43219	0.534599	16.1651	0.883752	26.0604	0.959159	28.6275
0.350938	10.2482	0.0387819	1.10503	0.919043	2.64553	0.491522	14.1512	0.712262	20.4129	0.202458	7.18776	0.534911	15.618	0.883763	25.1855	0.959747	27.6717
0.350832	9.9042	0.041014	1.13066	0.91613	2.64612	0.49256	13.7157	0.712618	19.7558	0.204379	6.96454	0.535235	15.1076	0.883777	24.3675	0.960352	26.7792
0.350731	9.58254	0.0432807	1.15561	0.913211	2.6467	0.493623	13.3085	0.712986	19.1406	0.206343	6.76	0.535569	14.6303	0.883794	23.601	0.960974	25.944
0.350636	9.28111	0.0455805	1.17989	0.910287	2.64727	0.49471	12.9271	0.713366	18.5635	0.208349	6.57197	0.535915	14.1832	0.883814	22.8815	0.961614	25.1607
0.350548	8.99809	0.0479116	1.20352	0.907357	2.64782	0.495822	12.5691	0.713758	18.0211	0.210394	6.39862	0.536272	13.7634	0.883837	22.2046	0.96227	24.4247
0.350467	8.73186	0.0502727	1.22651	0.904421	2.64836	0.496957	12.2324	0.714162	17.5102	0.212476	6.23836	0.536641	13.3685	0.883864	21.5667	0.962943	23.7319
0.350394	8.48102	0.052662	1.2489	0.90148	2.64889	0.498115	11.9153	0.714579	17.0284	0.214594	6.08982	0.537021	12.9964	0.883895	20.9646	0.963632	23.0786
0.350329	8.24429	0.0550785	1.27069	0.898533	2.6494	0.499295	11.6161	0.715007	16.5732	0.216745	5.95181	0.537413	12.6452	0.883929	20.3953	0.964338	22.4615
0.350274	8.02054	0.0575205	1.29191	0.895582	2.64991	0.500497	11.3333	0.715448	16.1424	0.218928	5.82329	0.537816	12.3133	0.883968	19.8563	0.965059	21.8778
0.350228	7.80877	0.0599871	1.31256	0.892625	2.6504	0.501561	11.0993	0.715901	15.7343	0.22114	5.70335	0.538231	11.999	0.884011	19.3451	0.965797	21.3248
0.350192	7.60806	0.0624769	1.33268	0.889664	2.65089	0.502481	10.9083	0.716366	15.347	0.22338	5.59119	0.538657	11.7011	0.884058	18.8598	0.96655	20.8001
0.350167	7.4176	0.064989	1.35227	0.886698	2.65136	0.503249	10.7559	0.716843	14.979	0.225648	5.48611	0.539095	11.4183	0.884109	18.3983	0.967318	20.3018
0.350153	7.23665	0.0675223	1.37135	0.883728	2.65183	0.503862	10.6389	0.717333	14.629	0.22794	5.38747	0.539486	11.1833	0.884166	17.959	0.968102	19.8278
0.350151	7.06454	0.0700756	1.38994	0.880754	2.65228	0.504316	10.5546	0.717835	14.2957	0.230256	5.29473	0.539827	10.9909	0.884227	17.5404	0.968901	19.3765
0.350162	6.90067	0.0726482	1.40805	0.877775	2.65272	0.504608	10.5015	0.71835	13.9779	0.232594	5.20738	0.540114	10.837	0.884293	17.141	0.969714	18.9462
0.350185	6.74448	0.0752393	1.42571	0.874793	2.65316	0.505029	10.4263	0.718877	13.6745	0.234953	5.12498	0.540343	10.7185	0.884364	16.7595	0.970542	18.5356
0.350221	6.59548	0.0778478	1.44291	0.871806	2.65359	0.505488	10.3459	0.719416	13.3847	0.237333	5.04714	0.540514	10.6331	0.88444	16.3948	0.971385	18.1433
0.350271	6.45319	0.080473	1.45968	0.868816	2.65401	0.506118	10.2388	0.719967	13.1076	0.239731	4.97349	0.540624	10.5792	0.884522	16.0458	0.972242	17.7682
0.350335	6.31722	0.0831143	1.47604	0.865822	2.65442	0.50692	10.107	0.720532	12.8423	0.242147	4.90373	0.540783	10.5027	0.88461	15.7115	0.973112	17.4092
0.350414	6.18715	0.0857709	1.49199	0.862825	2.65482	0.507899	9.9528	0.721108	12.5882	0.24458	4.83754	0.540958	10.421	0.884703	15.391	0.973997	17.0652
0.350508	6.06265	0.088442	1.50755	0.859825	2.65522	0.50906	9.77875	0.721697	12.3445	0.247029	4.77468	0.541197	10.3119	0.884801	15.0834	0.974896	16.7354
0.350617	5.94339	0.0911272	1.52273	0.856821	2.65561	0.510408	9.5876	0.722299	12.1107	0.249493	4.7149	0.541505	10.1773	0.884906	14.7881	0.975807	16.4189
0.350742	5.82906	0.0938258	1.53755	0.853814	2.65599	0.511773	9.40503	0.722914	11.8861	0.251971	4.65799	0.541882	10.0196	0.885017	14.5043	0.976733	16.1149
0.350883	5.71939	0.0965372	1.55201	0.850805	2.65637	0.513154	9.2305	0.723541	11.6703	0.254462	4.60374	0.542334	9.84104	0.885133	14.2314	0.977671	15.8227
0.351041	5.61412	0.0992609	1.56612	0.847792	2.65674	0.514551	9.06349	0.724097	11.4889	0.256965	4.55198	0.542863	9.6444	0.885256	13.9687	0.978622	15.5417
0.351216	5.51301	0.101996	1.57991	0.844777	2.6571	0.515963	8.90353	0.724579	11.3391	0.259481	4.50254	0.543404	9.45603	0.885386	13.7156	0.979586	15.2712
0.351409	5.41584	0.104743	1.59337	0.841759	2.65746	0.517389	8.7502	0.724983	11.2183	0.262007	4.45527	0.543958	9.27544	0.885521	13.4718	0.980563	15.0106
0.35159	5.33422	0.107501	1.60651	0.838738	2.65781	0.51883	8.6031	0.725306	11.1248	0.264544	4.41003	0.544523	9.10217	0.885664	13.2366	0.981553	14.7595
0.351756	5.26678	0.110269	1.61936	0.835715	2.65816	0.520285	8.46187	0.725545	11.0571	0.267091	4.3667	0.545101	8.93579	0.885812	13.0097	0.982554	14.5173
0.351901	5.21244	0.113047	1.63191	0.83269	2.6585	0.521753	8.32615	0.725699	11.0142	0.269647	4.32515	0.545691	8.77592	0.885968	12.7906	0.983568	14.2836
0.35202	5.17037	0.115834	1.64418	0.829662	2.65884	0.523234	8.19566	0.725922	10.9532	0.272211	4.28528	0.546293	8.62219	0.88613	12.5789	0.984594	14.0579
0.352111	5.13992	0.118631	1.65618	0.826632	2.65917	0.524728	8.07008	0.726165	10.8877	0.274784	4.24698	0.546908	8.47427	0.8863	12.3743	0.985632	13.8398
0.35217	5.12065	0.121437	1.6679	0.8236	2.6595	0.526233	7.94916	0.726499	10.8	0.277364	4.21017	0.547535	8.33184	0.886476	12.1764	0.986682	13.629
0.352257	5.09324	0.124251	1.67937	0.820566	2.65982	0.527751	7.83264	0.726926	10.6913	0.279951	4.17476	0.548175	8.19462	0.886659	11.9849	0.987743	13.4251
0.352353	5.06382	0.127073	1.69059	0.817531	2.66015	0.52928	7.7203	0.727448	10.563	0.282545	4.14068	0.548827	8.06233	0.886825	11.8231	0.988816	13.2278
0.352488	5.02443	0.129904	1.70157	0.814493	2.66046	0.530819	7.61191	0.728069	10.4167	0.285145	4.10783	0.549492	7.93473	0.88697	11.6886	0.9899	13.0368
0.352666	4.97561	0.132741	1.7123	0.811453	2.66078	0.53237	7.50726	0.728794	10.2541	0.287751	4.07617	0.550169	7.81157	0.887093	11.5797	0.990995	12.8518
0.35289	4.91803	0.135587	1.72282	0.808412	2.66109	0.53393	7.40619	0.729533	10.0971	0.290362	4.04561	0.550859	7.69265	0.887193	11.4951	0.992101	12.6724
0.353167	4.85244	0.138439	1.7331	0.805369	2.6614	0.5355	7.30849	0.730284	9.94528	0.292978	4.01612	0.551562	7.57775	0.887267	11.4337	0.993218	12.4985
0.353503	4.77966	0.141298	1.74318	0.802324	2.6617	0.53708	7.21402	0.731048	9.79843	0.295598	3.98762	0.552278	7.46669	0.887315	11.3948	0.994347	12.3299
0.353859	4.70943	0.144163	1.75304	0.799278	2.662	0.538669	7.12262	0.731825	9.65632	0.298223	3.96007	0.553007	7.35929	0.887384	11.3393	0.995485	12.1662
0.354235	4.64163	0.147035	1.7627	0.796231	2.6623	0.540267	7.03413	0.732615	9.51872	0.300852	3.93342	0.553749	7.25537	0.887461	11.2796	0.996486	12.0275
0.354631	4.57616	0.149913	1.77217	0.793182	2.6626	0.541873	6.94842	0.733418	9.38545	0.303484	3.90762	0.554503	7.15478	0.887567	11.1995	0.997345	11.912
0.355048	4.51291	0.152797	1.78144	0.790131	2.6629	0.543487	6.86537	0.734234	9.25629	0.306119	3.88264	0.555271	7.05737	0.887703	11.0998	0.99806	11.8183
0.355486	4.45178	0.155686	1.79052	0.78708	2.66319	0.545109	6.78486	0.735064	9.13109	0.308757	3.85842	0.556052	6.963	0.887871	10.9817	0.998628	11.7454
0.355944	4.3927	0.158581	1.79943	0.784027	2.66348	0.546739	6.70677	0.735906	9.00966	0.311398	3.83494	0.556846	6.87153	0.888074	10.8464	0.999048	11.6925
0.356424	4.33556	0.161482	1.80816	0.780973	2.66377	0.548376	6.63098	0.736762	8.89184	0.314041	3.81216	0.557653	6.78285	0.888314	10.6954	0.999317	11.6589
0.356926	4.2803	0.164387	1.81672	0.777918	2.66406	0.55002	6.55742	0.737631	8.77748	0.316686	3.79005	0.558474	6.69684	0.888561	10.5487	0.999704	11.611
0.357449	4.22684	0.167297	1.82511	0.774861	2.66434	0.551671	6.48596	0.738513	8.66644	0.319332	3.76857	0.559308	6.61338	0.888816	10.4061	1.00013	11.5594
0.357993	4.1751	0.170212	1.83334	0.771804	2.66463	0.553328	6.41654	0.739408	8.55858	0.321981	3.7477	0.560156	6.53238	0.889079	10.2675		
0.35856	4.12501	0.173132	1.84141	0.768746	2.66491	0.554991	6.34906	0.740317	8.45378	0.32463	3.72741	0.561017	6.45372	0.889349	10.1328		
0.359149	4.07651	0.176056	1.84933	0.765687	2.6652	0.55666	6.28344	0.741239	8.35192	0.32728	3.70767	0.561891	6.37732	0.889627	10.0016		
0.35976	4.02955	0.178985	1.85711	0.762627	2.66548	0.558334	6.2196	0.742175	8.25287	0.329932	3.68846	0.56278	6.3031	0.889914	9.87403		
0.360394	3.98406	0.181917	1.86473	0.759566	2.66576	0.560014	6.15748	0.743123	8.15653	0.332583	3.66976	0.563682	6.23096	0.890208	9.7498		
0.36105	3.93998	0.184854	1.87222	0.756504	2.66605	0.561699	6.097	0.744085	8.06279	0.335235	3.65154	0.564597	6.16082	0.890509	9.62882		
0.361729	3.89727	0.187795	1.87957	0.753442	2.66633	0.563389	6.03811	0.745061	7.97156	0.337888	3.63378	0.565527	6.09261	0.890819	9.51098		
0.362432	3.85588	0.190739	1.88678	0.750379	2.66661	0.565084	5.98073	0.74605	7.88275	0.34054	3.61646	0.566471	6.02627	0.891137	9.39614		
0.363157	3.81575	0.193687	1.89386	0.747315	2.66689	0.566783	5.92481	0.747052	7.79626	0.343191	3.59958	0.567428	5.96171	0.891463	9.28421		
0.363905	3.77685	0.196638	1.90082	0.744251	2.66717	0.568486	5.87029	0.748068	7.71202	0.345843	3.58309	0.5684	5.89888	0.891797	9.17508		
0.364677	3.73913	0.199593	1.90765	0.741186	2.66746	0.570193	5.81713	0.749098	7.62993	0.348493	3.567	0.569385	5.8377	0.892139	9.06864		
0.365473	3.70254	0.202552	1.91436	0.738121	2.66774	0.571904	5.76527	0.750141	7.54992	0.351143	3.55129	0.570385	5.77814	0.892489	8.96481		
0.366292	3.66706	0.205513	1.92096	0.735055	2.66802	0.573619	5.71466	0.751197	7.47193	0.353792	3.53593	0.571399	5.72012	0.892848	8.86348		
0.367135	3.63264	0.208478	1.92744	0.731988	2.66831	0.575336	5.66526	0.752267	7.39588	0.356439	3.52092	0.572427	5.6636	0.893214	8.76458		
0.368002	3.59925	0.211446	1.9338	0.728922	2.66859	0.577057	5.61702	0.753351	7.3217	0.359085	3.50624	0.57347	5.60851	0.893589	8.66802		
0.368894	3.56685	0.214416	1.94006	0.725855	2.66888	0.578781	5.5699	0.754448	7.24933	0.36173	3.49188	0.574527	5.55483	0.893972	8.57372		
0.369809	3.53542	0.21739	1.94621	0.722787	2.66916	0.580508	5.52387	0.755559	7.17871	0.364373	3.47782	0.575598	5.50249	0.894363	8.48161		
0.370749	3.50492	0.220366	1.95226	0.719719	2.66945	0.582237	5.47888	0.756683	7.10978	0.367014	3.46407	0.576684	5.45145	0.894763	8.39161		
0.371714	3.47532	0.223345	1.9582	0.716651	2.66974	0.583969	5.43491	0.757821	7.04249	0.369653	3.45059	0.577785	5.40168	0.895171	8.30366		
0.372704	3.4466	0.225943	1.96331	0.713583	2.67004	0.585703	5.3919	0.758973	6.97678	0.372289	3.43739	0.5789	5.35312	0.895587	8.21768		
0.373719	3.41873	0.228159	1.96759	0.710515	2.67033	0.587439	5.34984	0.760138	6.91261	0.374924	3.42445	0.58003	5.30575	0.896011	8.13362		
0.374759	3.39168	0.229993	1.9711	0.707446	2.67063	0.589177	5.30869	0.761317	6.84991	0.377556	3.41177	0.581174	5.25952	0.896444	8.05142		
0.375825	3.36543	0.231443	1.97385	0.704377	2.67092	0.590916	5.26843	0.762509	6.78866	0.380185	3.39933	0.582334	5.2144	0.896885	7.97101		
0.376916	3.33995	0.23251	1.97586	0.701309	2.67122	0.592658	5.22901	0.763715	6.72879	0.382812	3.38712	0.583508	5.17036	0.897335	7.89234		
0.378033	3.31523	0.233193	1.97713	0.69824	2.67153	0.5944	5.19042	0.764934	6.67028	0.385436	3.37514	0.584697	5.12735	0.897792	7.81536		
0.379176	3.29124	0.234175	1.97896	0.695171	2.67183	0.596145	5.15262	0.766167	6.61307	0.388057	3.36338	0.585901	5.08536	0.898259	7.74001		
0.380346	3.26796	0.235243	1.98094	0.692103	2.67214	0.59789	5.1156	0.767414	6.55713	0.390675	3.35184	0.587121	5.04434	0.898733	7.66625		
0.381542	3.24538	0.236695	1.98361	0.689034	2.67246	0.599636	5.07932	0.768674	6.50242	0.393289	3.34049	0.588355	5.00427	0.899217	7.59403		
0.382766	3.22347	0.238533	1.98696	0.685966	2.67277	0.601384	5.04377	0.769948	6.4489	0.3959	3.32934	0.589604	4.96513	0.899708	7.52331		
0.384016	3.20222	0.240757	1.99096	0.682897	2.67309	0.603132	5.00893	0.771235	6.39654	0.398508	3.31839	0.590869	4.92688	0.900208	7.45403		
0.385294	3.18161	0.243366	1.99559	0.679829	2.67341	0.604881	4.97476	0.772536	6.34531	0.401112	3.30761	0.592149	4.88951	0.900717	7.38616		
0.3866	3.16163	0.246363	2.00083	0.676761	2.67374	0.60663	4.94125	0.77385	6.29517	0.403713	3.29702	0.593444	4.85297	0.901234	7.31967		
0.387934	3.14225	0.249362	2.00599	0.673694	2.67407	0.60838	4.90839	0.775178	6.24609	0.40631	3.28659	0.594754	4.81726	0.901759	7.2545		
0.389297	3.12348	0.252363	2.01106	0.670627	2.67441	0.61013	4.87615	0.776519	6.19804	0.408903	3.27633	0.59608	4.78235	0.902293	7.19062		
0.390689	3.10528	0.255366	2.01606	0.66756	2.67475	0.611881	4.84451	0.777873	6.15099	0.411492	3.26623	0.597421	4.74821	0.902836	7.128		
0.39211	3.08766	0.258371	2.02097	0.664493	2.6751	0.613632	4.81346	0.779241	6.10491	0.414077	3.25629	0.598777	4.71483	0.903387	7.06659		
0.393561	3.07059	0.261377	2.02582	0.661428	2.67545	0.615383	4.78298	0.780622	6.05978	0.416657	3.2465	0.600149	4.68219	0.903946	7.00638		
0.395043	3.05406	0.264385	2.03058	0.658362	2.6758	0.617134	4.75305	0.782017	6.01557	0.419234	3.23685	0.601536	4.65025	0.904514	6.94732		
0.396555	3.03807	0.267395	2.03528	0.655297	2.67617	0.618885	4.72366	0.783425	5.97226	0.421806	3.22734	0.602939	4.61902	0.905091	6.88939		
0.398098	3.02261	0.270407	2.0399	0.652233	2.67653	0.620635	4.69479	0.784845	5.92982	0.424374	3.21798	0.604358	4.58846	0.905676	6.83255		
0.399673	3.00765	0.27342	2.04446	0.64917	2.67691	0.622386	4.66644	0.78628	5.88823	0.426937	3.20874	0.605791	4.55855	0.906269	6.77678		
0.401281	2.99321	0.276434	2.04894	0.646107	2.67729	0.624136	4.63857	0.787727	5.84746	0.429496	3.19963	0.607241	4.52929	0.906871	6.72204		
0.402921	2.97925	0.27945	2.05336	0.643045	2.67768	0.625886	4.61119	0.789187	5.80749	0.43205	3.19064	0.608706	4.50066	0.907482	6.66831		
0.404595	2.96578	0.282468	2.05771	0.639984	2.67807	0.627636	4.58428	0.79066	5.76831	0.4346	3.18178	0.610187	4.47264	0.908101	6.61557		
0.406302	2.95279	0.285487	2.062	0.636923	2.67848	0.629385	4.55782	0.792146	5.72988	0.437145	3.17303	0.611683	4.4452	0.908728	6.56379		
0.408044	2.94027	0.288507	2.06623	0.633864	2.67889	0.631134	4.53181	0.793646	5.6922	0.439685	3.1644	0.613195	4.41835	0.909365	6.51294		
0.409821	2.9282	0.291528	2.07039	0.630806	2.67931	0.632882	4.50623	0.795157	5.65525	0.44222	3.15588	0.614723	4.39206	0.910009	6.46301		
0.411633	2.91659	0.294551	2.0745	0.627748	2.67973	0.634629	4.48107	0.796682	5.61899	0.44475	3.14747	0.616266	4.36632	0.910662	6.41396		
0.413481	2.90542	0.297575	2.07854	0.624692	2.68017	0.636376	4.45632	0.798219	5.58343	0.447275	3.13915	0.617825	4.34112	0.911324	6.36579		
0.415365	2.89469	0.3006	2.08253	0.621637	2.68062	0.638123	4.43197	0.799769	5.54853	0.449795	3.13095	0.619399	4.31644	0.911994	6.31845		
0.417286	2.88439	0.303626	2.08646	0.618584	2.68108	0.639868	4.40802	0.801332	5.51428	0.452311	3.12284	0.620989	4.29227	0.912673	6.27195		
0.419243	2.8745	0.306653	2.09033	0.615532	2.68154	0.641613	4.38444	0.802907	5.48067	0.454821	3.11482	0.622595	4.2686	0.91336	6.22624		
0.421238	2.86503	0.309682	2.09415	0.612481	2.68202	0.643358	4.36124	0.804494	5.44768	0.457326	3.1069	0.624216	4.24541	0.914056	6.18133		
0.423271	2.85596	0.312711	2.09792	0.609431	2.68251	0.645101	4.3384	0.806094	5.4153	0.459826	3.09908	0.625853	4.2227	0.914761	6.13718		
0.425341	2.84729	0.315741	2.10163	0.606384	2.68302	0.646844	4.31591	0.807706	5.38351	0.462321	3.09134	0.627506	4.20045	0.915473	6.09378		
0.427448	2.839	0.318772	2.10529	0.603338	2.68353	0.648586	4.29377	0.80933	5.35229	0.464811	3.08368	0.629174	4.17865	0.916195	6.05111		
0.429593	2.83108	0.321804	2.1089	0.600294	2.68406	0.650327	4.27197	0.810966	5.32163	0.467295	3.07612	0.630857	4.15729	0.916925	6.00916		
0.431775	2.82353	0.324837	2.11246	0.597251	2.68461	0.652068	4.2505	0.812614	5.29152	0.469775	3.06863	0.632556	4.13636	0.917663	5.96791		
0.433994	2.81634	0.327871	2.11597	0.594211	2.68516	0.653807	4.22935	0.814274	5.26195	0.472249	3.06123	0.63427	4.11585	0.91841	5.92734		
0.43625	2.80949	0.330905	2.11944	0.591173	2.68574	0.655546	4.20851	0.815945	5.2329	0.474718	3.0539	0.636	4.09575	0.919166	5.88743		
0.438541	2.80297	0.33394	2.12285	0.588137	2.68633	0.657284	4.18799	0.817628	5.20436	0.477181	3.04665	0.637745	4.07605	0.91993	5.84818		
0.440868	2.79678	0.336976	2.12622	0.585103	2.68694	0.659022	4.16776	0.819323	5.17632	0.47964	3.03948	0.639505	4.05675	0.920702	5.80957		
0.443229	2.79089	0.340013	2.12955	0.582072	2.68756	0.660759	4.14783	0.821029	5.14876	0.482093	3.03238	0.641281	4.03783	0.921484	5.77158		
0.445624	2.78531	0.34305	2.13282	0.579044	2.68821	0.662495	4.12819	0.822747	5.12168	0.484542	3.02535	0.643072	4.01928	0.922273	5.7342		
0.448053	2.78001	0.346087	2.13606	0.576018	2.68887	0.66423	4.10883	0.824476	5.09507	0.486985	3.0184	0.644877	4.00109	0.923071	5.69741		
0.450513	2.77498	0.349126	2.13925	0.572995	2.68956	0.665965	4.08974	0.826216	5.0689	0.489423	3.01151	0.646698	3.98326	0.923878	5.66121		
0.453004	2.77021	0.352164	2.1424	0.569975	2.69026	0.667699	4.07093	0.827967	5.04318	0.491856	3.00469	0.648534	3.96578	0.924693	5.62558		
0.455525	2.7657	0.355204	2.14551	0.566959	2.69099	0.669432	4.05238	0.829729	5.01789	0.494284	2.99794	0.650384	3.94864	0.925517	5.59051		
0.458075	2.76142	0.358244	2.14857	0.563946	2.69175	0.671165	4.03409	0.831501	4.99303	0.496707	2.99126	0.65225	3.93183	0.926349	5.55598		
0.460652	2.75737	0.361284	2.1516	0.560936	2.69253	0.672898	4.01606	0.833285	4.96857	0.499125	2.98464	0.65413	3.91535	0.927189	5.52199		
0.463256	2.75353	0.364324	2.15459	0.55793	2.69334	0.674629	3.99827	0.835079	4.94452	0.501538	2.97808	0.656025	3.89919	0.928039	5.48853		
0.465885	2.74989	0.367365	2.15753	0.554928	2.69417	0.676361	3.98073	0.836883	4.92087	0.503947	2.97159	0.657934	3.88333	0.928896	5.45558		
0.468538	2.74645	0.370406	2.16044	0.551931	2.69504	0.678092	3.96342	0.838698	4.8976	0.50635	2.96515	0.659857	3.86778	0.929762	5.42313		
0.471215	2.74319	0.373448	2.16331	0.548938	2.69594	0.679822	3.94635	0.840522	4.87471	0.508749	2.95878	0.661795	3.85253	0.930637	5.39117		
0.473913	2.7401	0.37649	2.16614	0.545949	2.69687	0.681552	3.92951	0.842357	4.85219	0.511143	2.95247	0.663748	3.83757	0.93152	5.35969		
0.476631	2.73716	0.379532	2.16894	0.542966	2.69784	0.683282	3.9129	0.844202	4.83003	0.513533	2.94622	0.665714	3.82289	0.932412	5.32869		
0.47937	2.73438	0.382574	2.1717	0.539988	2.69885	0.685012	3.89651	0.846057	4.80822	0.515918	2.94002	0.667694	3.80848	0.933312	5.29815		
0.482127	2.73175	0.385617	2.17442	0.537015	2.69989	0.686741	3.88033	0.847921	4.78675	0.518299	2.93388	0.669688	3.79435	0.934221	5.26807		
0.484902	2.72924	0.388659	2.17711	0.534048	2.70098	0.68847	3.86437	0.849795	4.76563	0.520675	2.9278	0.671696	3.78048	0.935138	5.23843		
0.487693	2.72687	0.391702	2.17977	0.531088	2.70211	0.690199	3.84862	0.851678	4.74483	0.523047	2.92178	0.673717	3.76687	0.936064	5.20922		
0.4905	2.72461	0.394745	2.18239	0.528134	2.70329	0.691928	3.83307	0.853571	4.72435	0.525415	2.91581	0.675752	3.75352	0.936998	5.18044		
0.493322	2.72246	0.397788	2.18497	0.525187	2.70452	0.693657	3.81772	0.855473	4.7042	0.527778	2.9099	0.6778	3.74041	0.93794	5.15209		
0.496158	2.72042	0.400831	2.18753	0.522248	2.70581	0.695386	3.80257	0.857384	4.68435	0.530138	2.90404	0.679861	3.72754	0.938891	5.12414		
0.499007	2.71848	0.403874	2.19005	0.519316	2.70715	0.697116	3.78762	0.859303	4.6648	0.532494	2.89823	0.681936	3.71491	0.939851	5.0966		
0.501869	2.71663	0.406917	2.19254	0.516393	2.70855	0.698845	3.77286	0.861232	4.64555	0.534846	2.89248	0.684023	3.70251	0.940819	5.06945		
0.504743	2.71486	0.409959	2.19499	0.513478	2.71001	0.700575	3.75828	0.863169	4.62658	0.537194	2.88678	0.686123	3.69034	0.941796	5.04269		
0.507628	2.71318	0.413002	2.19742	0.510573	2.71155	0.702304	3.7439	0.865115	4.60791	0.539539	2.88113	0.688236	3.67839	0.942781	5.01631		
0.510523	2.71157	0.416045	2.19982	0.507677	2.71315	0.704035	3.72969	0.867069	4.5895	0.54188	2.87554	0.690361	3.66665	0.943774	4.9903		
0.513428	2.71004	0.419087	2.20218	0.504793	2.71483	0.705765	3.71566	0.869031	4.57137	0.544218	2.87	0.692498	3.65512	0.944776	4.96466		
0.516342	2.70857	0.422129	2.20451	0.501919	2.7166	0.707497	3.7018	0.871001	4.55351	0.546552	2.86451	0.694648	3.6438	0.945787	4.93938		
0.519265	2.70717	0.425171	2.20682	0.499057	2.71844	0.709228	3.68812	0.872979	4.5359	0.548884	2.85907	0.696809	3.63268	0.946806	4.91446		
0.522197	2.70583	0.428213	2.20909	0.496207	2.72039	0.710961	3.67461	0.874965	4.51856	0.551212	2.85368	0.698983	3.62176	0.947833	4.88988		
0.525136	2.70455	0.431255	2.21134	0.493371	2.72243	0.712694	3.66127	0.876959	4.50145	0.553538	2.84834	0.701168	3.61103	0.948869	4.86564		
0.528083	2.70331	0.434296	2.21356	0.490549	2.72457	0.714427	3.64809	0.87896	4.4846	0.555861	2.84305	0.703364	3.60049	0.949914	4.84174		
0.531037	2.70213	0.437337	2.21575	0.487741	2.72683	0.716162	3.63507	0.880969	4.46798	0.558181	2.83781	0.705572	3.59013	0.950967	4.81816		
0.533997	2.701	0.440377	2.21791	0.48495	2.7292	0.717897	3.62221	0.882985	4.4516	0.560498	2.83262	0.707791	3.57996	0.952028	4.79491		
0.536964	2.69991	0.443417	2.22004	0.482175	2.7317	0.719633	3.60951	0.885008	4.43544	0.562814	2.82748	0.710021	3.56996	0.953098	4.77198		
0.539936	2.69886	0.446457	2.22215	0.479417	2.73434	0.721371	3.59696	0.887038	4.41952	0.565127	2.82239	0.712261	3.56013	0.954177	4.74935		
0.542914	2.69786	0.449496	2.22423	0.476679	2.73711	0.723109	3.58456	0.889075	4.40381	0.567437	2.81735	0.714512	3.55046	0.955264	4.72703		
0.545898	2.69689	0.452535	2.22628	0.473959	2.74004	0.724849	3.57232	0.891119	4.38831	0.569746	2.81236	0.716774	3.54097	0.95636	4.70502		
0.548886	2.69596	0.455573	2.22831	0.471261	2.74313	0.726589	3.56022	0.893169	4.37303	0.572053	2.80741	0.719046	3.53163	0.957464	4.6833		
0.551879	2.69506	0.458611	2.23031	0.468584	2.74639	0.728331	3.54826	0.895226	4.35795	0.574359	2.80252	0.721328	3.52245	0.958576	4.66186		
0.554876	2.69419	0.461648	2.23229	0.465931	2.74983	0.730075	3.53645	0.897289	4.34308	0.576663	2.79767	0.72362	3.51342	0.959697	4.64072		
0.557878	2.69335	0.464684	2.23424	0.463301	2.75347	0.731819	3.52478	0.899358	4.32841	0.578965	2.79287	0.725921	3.50454	0.960827	4.61985		
0.560884	2.69254	0.46772	2.23616	0.460697	2.7573	0.733565	3.51325	0.901434	4.31393	0.581266	2.78812	0.728232	3.49581	0.961965	4.59926		
0.563894	2.69176	0.470755	2.23806	0.458119	2.76135	0.735313	3.50185	0.903515	4.29964	0.583566	2.78342	0.730553	3.48722	0.963112	4.57895		
0.566907	2.69101	0.473789	2.23994	0.455569	2.76562	0.737062	3.49059	0.905602	4.28554	0.585865	2.77877	0.732882	3.47877	0.964267	4.5589		
0.569923	2.69028	0.476823	2.24179	0.453047	2.77013	0.738813	3.47946	0.907695	4.27162	0.588163	2.77416	0.735221	3.47046	0.965431	4.53911		
0.572943	2.68957	0.479856	2.24362	0.450556	2.77489	0.740566	3.46847	0.909793	4.25788	0.59046	2.7696	0.737568	3.46228	0.966604	4.51958		
0.575966	2.68888	0.482888	2.24542	0.448095	2.77992	0.74232	3.4576	0.911897	4.24431	0.592756	2.76509	0.739924	3.45423	0.967784	4.5003		
0.578991	2.68822	0.485919	2.2472	0.445666	2.78521	0.744076	3.44686	0.914006	4.23092	0.595053	2.76062	0.742289	3.4463	0.968974	4.48127		
0.58202	2.68757	0.488949	2.24896	0.44327	2.79079	0.745834	3.43624	0.91612	4.2177	0.597349	2.7562	0.744661	3.4385	0.970172	4.46249		
0.585051	2.68695	0.491978	2.25069	0.440908	2.79667	0.747595	3.42575	0.918239	4.20464	0.599644	2.75183	0.747042	3.43083	0.971379	4.44395		
0.588085	2.68634	0.495006	2.2524	0.438581	2.80286	0.749357	3.41538	0.920363	4.19175	0.60194	2.74751	0.74943	3.42327	0.972594	4.42565		
0.59112	2.68575	0.498033	2.25409	0.436289	2.80937	0.751121	3.40513	0.922492	4.17901	0.604236	2.74323	0.751827	3.41583	0.973818	4.40758		
0.594159	2.68517	0.50106	2.25575	0.434033	2.81622	0.752887	3.395	0.924626	4.16643	0.606532	2.739	0.75423	3.4085	0.975051	4.38975		
0.597199	2.68462	0.504085	2.25739	0.431813	2.82341	0.754656	3.38499	0.926764	4.15401	0.608828	2.73481	0.756641	3.40128	0.976292	4.37214		
0.600241	2.68407	0.507109	2.25901	0.42963	2.83095	0.756427	3.37509	0.928906	4.14173	0.611125	2.73067	0.75906	3.39417	0.977542	4.35475		
0.603285	2.68354	0.510132	2.26061	0.427485	2.83886	0.7582	3.36531	0.931053	4.1296	0.613422	2.72658	0.761485	3.38716	0.9788	4.33759		
0.606331	2.68303	0.513153	2.26219	0.425377	2.84714	0.759976	3.35564	0.933204	4.11762	0.615721	2.72254	0.763917	3.38026	0.980067	4.32063		
0.609379	2.68252	0.516174	2.26374	0.423306	2.85581	0.761754	3.34608	0.935358	4.10578	0.61802	2.71854	0.766355	3.37346	0.981343	4.3039		
0.612428	2.68203	0.519193	2.26527	0.421273	2.86487	0.763535	3.33663	0.937517	4.09408	0.62032	2.71458	0.7688	3.36675	0.982627	4.28737		
0.615479	2.68155	0.522211	2.26678	0.419278	2.87434	0.765318	3.32728	0.93968	4.08251	0.622622	2.71067	0.771251	3.36015	0.98392	4.27105		
0.618531	2.68108	0.525227	2.26827	0.417319	2.88421	0.767104	3.31805	0.941846	4.07108	0.624924	2.70681	0.773709	3.35363	0.985222	4.25494		
0.621585	2.68063	0.528242	2.26974	0.415398	2.89451	0.768893	3.30892	0.944016	4.05977	0.627229	2.70299	0.776172	3.34721	0.986532	4.23902		
0.62464	2.68018	0.531256	2.27119	0.413513	2.90523	0.770684	3.29989	0.946189	4.0486	0.629535	2.69922	0.778641	3.34088	0.987852	4.2233		
0.627696	2.67974	0.534268	2.27262	0.411664	2.91639	0.772478	3.29096	0.948366	4.03755	0.631842	2.6955	0.781115	3.33463	0.98918	4.20778		
0.630753	2.67931	0.537278	2.27402	0.409852	2.928	0.774275	3.28214	0.950546	4.02663	0.634152	2.69182	0.783595	3.32848	0.990516	4.19245		
0.633811	2.67889	0.540287	2.27541	0.408074	2.94005	0.776075	3.27342	0.952728	4.01583	0.636463	2.68818	0.78608	3.3224	0.991862	4.1773		
0.63687	2.67848	0.543295	2.27678	0.406332	2.95257	0.777878	3.26479	0.954914	4.00515	0.638776	2.68459	0.78857	3.31641	0.993216	4.16235		
0.639931	2.67808	0.546301	2.27812	0.404624	2.96555	0.779684	3.25627	0.957103	3.99458	0.641092	2.68104	0.791065	3.31049	0.994579	4.14758		
0.642992	2.67768	0.549305	2.27945	0.40295	2.97901	0.781493	3.24784	0.959295	3.98413	0.64341	2.67754	0.793565	3.30465	0.995951	4.13299		
0.646054	2.6773	0.552307	2.28075	0.401309	2.99296	0.783306	3.2395	0.961489	3.9738	0.645731	2.67408	0.796069	3.29889	0.997332	4.11857		
0.649117	2.67691	0.555308	2.28204	0.399701	3.0074	0.785121	3.23126	0.963686	3.96357	0.648054	2.67067	0.798578	3.2932	0.998721	4.10434		
0.65218	2.67654	0.558306	2.2833	0.398125	3.02234	0.78694	3.22311	0.965885	3.95345	0.65038	2.6673	0.801091	3.28759	1.00012	4.09027		
0.655244	2.67617	0.561303	2.28455	0.396581	3.0378	0.788762	3.21506	0.968087	3.94344	0.652709	2.66397	0.803608	3.28205				
0.658309	2.67581	0.564298	2.28577	0.395068	3.05378	0.790587	3.20709	0.97029	3.93354	0.65504	2.66069	0.806129	3.27657				
0.661375	2.67545	0.567291	2.28698	0.393587	3.0703	0.792416	3.19922	0.972496	3.92373	0.657375	2.65746	0.808653	3.27116				
0.664441	2.6751	0.570282	2.28816	0.392135	3.08736	0.794248	3.19143	0.974704	3.91403	0.659713	2.65426	0.811181	3.26582				
0.667507	2.67476	0.573271	2.28933	0.390713	3.10497	0.796084	3.18373	0.976914	3.90443	0.662055	2.65111	0.813713	3.26054				
0.670574	2.67442	0.576258	2.29048	0.389321	3.12316	0.797923	3.17611	0.979126	3.89492	0.664399	2.648	0.816248	3.25533				
0.673641	2.67408	0.579242	2.29161	0.387958	3.14192	0.799766	3.16859	0.981339	3.88551	0.666748	2.64494	0.818786	3.25017				
0.676708	2.67375	0.582225	2.29272	0.386623	3.16129	0.801612	3.16114	0.983554	3.87619	0.6691	2.64192	0.821327	3.24508				
0.679776	2.67342	0.585205	2.29381	0.385316	3.18126	0.803462	3.15378	0.985771	3.86697	0.671455	2.63894	0.823871	3.24004				
0.682844	2.6731	0.588183	2.29488	0.384038	3.20186	0.805316	3.1465	0.987989	3.85783	0.673815	2.63601	0.826418	3.23506				
0.685913	2.67278	0.591158	2.29593	0.382787	3.2231	0.807174	3.13931	0.990208	3.84879	0.676179	2.63311	0.828967	3.23014				
0.688981	2.67246	0.594131	2.29696	0.381563	3.24499	0.809036	3.13219	0.992429	3.83983	0.678546	2.63026	0.831518	3.22527				
0.69205	2.67215	0.597102	2.29798	0.380366	3.26757	0.810901	3.12515	0.994651	3.83096	0.680918	2.62745	0.834072	3.22046				
0.695118	2.67184	0.60007	2.29897	0.379196	3.29083	0.812771	3.11819	0.996874	3.82217	0.683294	2.62469	0.836628	3.21569				
0.698187	2.67153	0.603035	2.29995	0.378052	3.31481	0.814644	3.11131	0.999098	3.81347	0.685675	2.62196	0.839186	3.21098				
0.701256	2.67123	0.605998	2.30091	0.376935	3.33952	0.816522	3.10451	1.00132	3.80484	0.68806	2.61928	0.841745	3.20631				
0.704324	2.67093	0.608959	2.30185	0.375843	3.36498	0.818403	3.09778			0.69045	2.61663	0.844307	3.2017				
0.707393	2.67063	0.611916	2.30277	0.374777	3.39122	0.820289	3.09113			0.692844	2.61403	0.846869	3.19713				
0.710462	2.67033	0.614871	2.30367	0.373737	3.41825	0.822179	3.08456			0.695243	2.61147	0.849434	3.1926				
0.71353	2.67004	0.617823	2.30456	0.372721	3.44611	0.824073	3.07805			0.697647	2.60896	0.851999	3.18813				
0.716598	2.66975	0.620772	2.30542	0.371731	3.47482	0.825971	3.07162			0.700056	2.60648	0.854566	3.18369				
0.719666	2.66946	0.623718	2.30627	0.370766	3.5044	0.827874	3.06526			0.702471	2.60404	0.857134	3.1793				
0.722734	2.66917	0.626662	2.3071	0.369825	3.53489	0.829781	3.05898			0.70489	2.60164	0.859703	3.17495				
0.725802	2.66888	0.629602	2.30791	0.368909	3.5663	0.831692	3.05276			0.707314	2.59928	0.862272	3.17064				
0.728869	2.66859	0.632539	2.30871	0.368017	3.59868	0.833608	3.04661			0.709744	2.59697	0.864842	3.16637				
0.731935	2.66831	0.635473	2.30948	0.36715	3.63205	0.835529	3.04054			0.71218	2.59469	0.867413	3.16213				
0.735002	2.66803	0.638404	2.31024	0.366306	3.66646	0.837454	3.03453			0.714621	2.59245	0.869984	3.15794				
0.738068	2.66774	0.641332	2.31098	0.365487	3.70192	0.839383	3.02859			0.717067	2.59025	0.872555	3.15378				
0.741133	2.66746	0.644256	2.3117	0.364691	3.73848	0.841317	3.02271			0.719519	2.58809	0.875127	3.14966				
0.744198	2.66718	0.647178	2.3124	0.363918	3.77619	0.843256	3.0169			0.721977	2.58597	0.877698	3.14557				
0.747262	2.6669	0.650095	2.31309	0.36317	3.81507	0.8452	3.01116			0.724441	2.58389	0.88027	3.14152				
0.750326	2.66661	0.65301	2.31375	0.362444	3.85518	0.847148	3.00549			0.726911	2.58184	0.882841	3.1375				
0.753389	2.66633	0.655921	2.3144	0.361741	3.89655	0.849102	2.99987			0.729386	2.57984	0.885412	3.13351				
0.756452	2.66605	0.658829	2.31504	0.361062	3.93923	0.85106	2.99432			0.731868	2.57787	0.887983	3.12956				
0.759513	2.66577	0.661733	2.31565	0.360405	3.98329	0.853023	2.98884			0.734356	2.57594	0.890553	3.12563				
0.762574	2.66549	0.664633	2.31625	0.359771	4.02875	0.854991	2.98341			0.73685	2.57405	0.893122	3.12174				
0.765634	2.6652	0.66753	2.31683	0.359159	4.07569	0.856964	2.97805			0.73935	2.57219	0.895691	3.11787				
0.768693	2.66492	0.670423	2.31739	0.35857	4.12416	0.858943	2.97275			0.741856	2.57037	0.898259	3.11404				
0.771751	2.66463	0.673313	2.31794	0.358003	4.17422	0.860926	2.96751			0.744369	2.56859	0.900826	3.11023				
0.774809	2.66435	0.676198	2.31847	0.357458	4.22593	0.862915	2.96233			0.746889	2.56685	0.903392	3.10645				
0.777865	2.66406	0.679081	2.31898	0.356934	4.27936	0.864909	2.95722			0.749414	2.56514	0.905956	3.10269				
0.78092	2.66377	0.681959	2.31947	0.356433	4.33459	0.866908	2.95216			0.751947	2.56346	0.90852	3.09897				
0.783974	2.66348	0.684833	2.31995	0.355952	4.39169	0.868913	2.94715			0.754485	2.56183	0.911082	3.09526				
0.787027	2.66319	0.687704	2.32041	0.355493	4.45075	0.870923	2.94221			0.757031	2.56023	0.913643	3.09158				
0.790079	2.6629	0.690571	2.32085	0.355055	4.51183	0.872939	2.93733			0.759583	2.55866	0.916202	3.08793				
0.793129	2.66261	0.693434	2.32128	0.354638	4.57505	0.87496	2.9325			0.762142	2.55713	0.918759	3.0843				
0.796178	2.66231	0.696293	2.32169	0.354241	4.64048	0.876986	2.92773			0.764708	2.55563	0.921315	3.08069				
0.799225	2.66201	0.699148	2.32209	0.353865	4.70824	0.879019	2.92301			0.76728	2.55417	0.923869	3.0771				
0.802272	2.66171	0.701999	2.32247	0.353509	4.77842	0.881057	2.91835			0.769859	2.55274	0.926421	3.07354				
0.805316	2.6614	0.704846	2.32283	0.353173	4.85116	0.883101	2.91375			0.772445	2.55134	0.928971	3.07				
0.808359	2.66109	0.707689	2.32318	0.352856	4.92656	0.885151	2.9092			0.775038	2.54998	0.931519	3.06648				
0.811401	2.66078	0.710528	2.32351	0.352559	5.00476	0.887207	2.90471			0.777638	2.54865	0.934065	3.06297				
0.81444	2.66047	0.713363	2.32382	0.35228	5.08589	0.889269	2.90027			0.780245	2.54736	0.936609	3.05949				
0.817478	2.66015	0.716194	2.32412	0.352021	5.17011	0.891337	2.89588			0.782859	2.5461	0.93915	3.05603				
0.820514	2.65983	0.719021	2.32441	0.35178	5.25758	0.893412	2.89155			0.785479	2.54486	0.94169	3.05258				
0.823548	2.65951	0.721844	2.32468	0.351557	5.34845	0.895492	2.88727			0.788107	2.54366	0.944226	3.04916				
0.82658	2.65918	0.724663	2.32493	0.351352	5.44293	0.897579	2.88305			0.790741	2.5425	0.94676	3.04575				
0.82961	2.65884	0.727478	2.32517	0.351165	5.54119	0.899673	2.87887			0.793383	2.54136	0.949292	3.04236				
0.832638	2.65851	0.730289	2.3254	0.350995	5.64345	0.901773	2.87475			0.796031	2.54025	0.951821	3.03899				
0.835663	2.65816	0.733096	2.32561	0.350842	5.74994	0.903879	2.87068			0.798687	2.53918	0.954347	3.03563				
0.838686	2.65782	0.735899	2.3258	0.350705	5.8609	0.905992	2.86666			0.801349	2.53813	0.95687	3.03229				
0.841707	2.65746	0.738698	2.32599	0.350585	5.9766	0.908113	2.8627			0.804019	2.53712	0.959391	3.02896				
0.844725	2.6571	0.741493	2.32615	0.35048	6.09731	0.91024	2.85878			0.806695	2.53613	0.961909	3.02566				
0.84774	2.65674	0.744284	2.32631	0.35039	6.22335	0.912374	2.85492			0.809378	2.53517	0.964423	3.02236				
0.850753	2.65637	0.747071	2.32645	0.350316	6.35504	0.914515	2.8511			0.812068	2.53425	0.966935	3.01908				
0.853762	2.656	0.749854	2.32658	0.350256	6.49276	0.916663	2.84734			0.814765	2.53334	0.969444	3.01582				
0.856769	2.65561	0.752633	2.3267	0.350209	6.6369	0.918819	2.84362			0.817469	2.53247	0.97195	3.01257				
0.859773	2.65522	0.755409	2.3268	0.350177	6.78789	0.920982	2.83996			0.820179	2.53163	0.974452	3.00933				
0.862773	2.65483	0.75818	2.32689	0.350158	6.94619	0.923153	2.83635			0.822897	2.53081	0.976951	3.00611				
0.865771	2.65443	0.760948	2.32697	0.350151	7.11234	0.925331	2.83278			0.825621	2.53002	0.979447	3.0029				
0.868764	2.65401	0.763712	2.32703	0.350156	7.28688	0.927517	2.82927			0.828352	2.52925	0.98194	2.99971				
0.871755	2.6536	0.766472	2.32709	0.350173	7.47045	0.929711	2.8258			0.83109	2.52851	0.98443	2.99652				
0.874741	2.65317	0.769229	2.32713	0.350201	7.66373	0.931914	2.82239			0.833834	2.5278	0.986916	2.99335				
0.877724	2.65273	0.771982	2.32716	0.35024	7.86748	0.934124	2.81902			0.836585	2.52711	0.989399	2.9902				
0.880702	2.65229	0.774731	2.32718	0.350289	8.08254	0.936343	2.8157			0.839342	2.52644	0.991878	2.98705				
0.883677	2.65183	0.777477	2.32719	0.350347	8.30985	0.93857	2.81243			0.842106	2.5258	0.994355	2.98392				
0.886647	2.65137	0.78022	2.32719	0.350414	8.55045	0.940806	2.80921			0.844876	2.52519	0.996827	2.98079				
0.889613	2.6509	0.782959	2.32718	0.350489	8.80551	0.943051	2.80604			0.847653	2.52459	0.999296	2.97768				
0.892574	2.65041	0.785694	2.32716	0.350572	9.07633	0.945305	2.80292			0.850436	2.52402	1.00176	2.97459				
0.895531	2.64992	0.788426	2.32713	0.35065	9.32633	0.947568	2.79984			0.853226	2.52347						
0.898482	2.64941	0.791155	2.32709	0.350721	9.55059	0.94984	2.79682			0.856021	2.52295						
0.901429	2.6489	0.793881	2.32704	0.350782	9.74435	0.952121	2.79384			0.858823	2.52244						
0.90437	2.64837	0.796603	2.32698	0.350831	9.9032	0.954413	2.79091			0.861631	2.52196						
0.907306	2.64783	0.799322	2.32691	0.350869	10.0233	0.956714	2.78803			0.864445	2.5215						
0.910236	2.64728	0.802039	2.32684	0.350904	10.1365	0.959025	2.7852			0.867265	2.52106						
0.913161	2.64671	0.804752	2.32675	0.350928	10.2167	0.961346	2.78242			0.870091	2.52064						
0.91608	2.64613	0.807462	2.32666	0.350967	10.3446	0.963677	2.77969			0.872922	2.52024						
0.918992	2.64554	0.81017	2.32656	0.351021	10.5237	0.966019	2.777			0.87576	2.51986						
0.921899	2.64493	0.812874	2.32646	0.351091	10.7593	0.968371	2.77436			0.878603	2.51949						
0.924798	2.64431	0.815576	2.32634	0.351177	11.0587	0.970735	2.77178			0.881452	2.51915						
0.927692	2.64367	0.818275	2.32622	0.35128	11.4316	0.973109	2.76924			0.884306	2.51882						
0.930578	2.64302	0.820972	2.32609	0.351402	11.8916	0.975494	2.76675			0.887166	2.51851						
0.933458	2.64236	0.823666	2.32596	0.351525	12.3899	0.977891	2.76431			0.890031	2.51822						
0.93633	2.64168	0.826358	2.32582	0.35165	12.9315	0.9803	2.76191			0.892901	2.51795						
0.939195	2.64098	0.829047	2.32568	0.351775	13.5221	0.98272	2.75957			0.895777	2.51769						
0.942053	2.64026	0.831734	2.32552	0.351901	14.1688	0.985151	2.75727			0.898658	2.51745						
0.944903	2.63953	0.834418	2.32537	0.352026	14.8799	0.987595	2.75502			0.901544	2.51722						
0.947745	2.63878	0.8371	2.32521	0.35215	15.6656	0.990051	2.75282			0.904435	2.51701						
0.950579	2.63802	0.83978	2.32504	0.352273	16.538	0.992519	2.75067			0.90733	2.51682						
0.953405	2.63724	0.842458	2.32487	0.352392	17.5126	0.994999	2.74857			0.910231	2.51664						
0.956223	2.63644	0.845134	2.32469	0.352509	18.6082	0.997492	2.74651			0.913137	2.51647						
0.959033	2.63562	0.847808	2.32451	0.352622	19.849	0.999998	2.74451			0.916047	2.51632						
0.961835	2.63479	0.850481	2.32433	0.352731	21.2659	1.00252	2.74255			0.918962	2.51618						
0.964628	2.63394	0.853151	2.32414	0.352835	22.8992					0.921881	2.51605						
0.967412	2.63307	0.855819	2.32395	0.352934	24.8027					0.924805	2.51594						
0.970188	2.63218	0.858486	2.32375	0.353027	27.0494					0.927734	2.51584						
0.972956	2.63127	0.861151	2.32356	0.353114	29.7417					0.930666	2.51575						
0.975715	2.63035	0.863815	2.32336	0.353194	33.0268					0.933603	2.51568						
0.978465	2.62941	0.866477	2.32315	0.353266	37.1248					0.936544	2.51562						
0.981206	2.62845	0.869138	2.32295	0.353332	42.3805					0.93949	2.51556						
0.983939	2.62748	0.871797	2.32274	0.353389	49.3655					0.942439	2.51552						
0.986664	2.62649	0.874455	2.32253	0.353438	59.1023					0.945392	2.51549						
0.98938	2.62548	0.877112	2.32231	0.353479	73.6169					0.948349	2.51547						
0.992088	2.62446	0.879767	2.3221	0.353511	97.5717					0.95131	2.51546						
0.994787	2.62342	0.882421	2.32188	0.353534	144.62					0.954275	2.51546						
0.997478	2.62237	0.885074	2.32166	0.353548	279.249					0.957243	2.51547						
1.00016	2.6213	0.887726	2.32144	0.353553	4038.1					0.960215	2.51549						
		0.890377	2.32122							0.963191	2.51552						
		0.893028	2.321							0.96617	2.51556						
		0.895677	2.32078							0.969152	2.51561						
		0.898325	2.32055							0.972138	2.51566						
		0.900973	2.32033							0.975127	2.51572						
		0.903619	2.3201							0.978119	2.51579						
		0.906265	2.31988							0.981115	2.51587						
		0.908911	2.31965							0.984113	2.51596						
		0.911556	2.31942							0.987115	2.51605						
		0.9142	2.3192							0.99012	2.51615						
		0.916843	2.31897							0.993127	2.51626						
		0.919487	2.31874							0.996138	2.51637						
		0.922129	2.31852							0.999151	2.51649						
		0.924772	2.31829							1.00217	2.51662						
		0.927414	2.31807														
		0.930055	2.31784														
		0.932697	2.31762														
		0.935338	2.31739														
		0.937979	2.31717														
		0.940619	2.31695														
		0.94326	2.31673														
		0.9459	2.31651														
		0.948541	2.31629														
		0.951181	2.31607														
		0.953821	2.31585														
		0.956462	2.31564														
		0.959102	2.31543														
		0.961742	2.31521														
		0.964383	2.315														
		0.967023	2.31479														
		0.969664	2.31458														
		0.972305	2.31438														
		0.974946	2.31417														
		0.977587	2.31397														
		0.980228	2.31376														
		0.98287	2.31356														
		0.985512	2.31336														
		0.988154	2.31317														
		0.990796	2.31297														
		0.993439	2.31278														
		0.996082	2.31259														
		0.998726	2.3124														
		1.00137	2.31221														
