Sym0		Asym0		Sym1		Sym2		Sym3		Asym1		Asym2		Asym3		Asym4	
362  Points		398  Points		361  Points		320  Points		268  Points		346  Points		340  Points		263  Points		165  Points	
Freq (MHz)	Vph (m/ms)	Freq (MHz)	Vph (m/ms)	Freq (MHz)	Vph (m/ms)	Freq (MHz)	Vph (m/ms)	Freq (MHz)	Vph (m/ms)	Freq (MHz)	Vph (m/ms)	Freq (MHz)	Vph (m/ms)	Freq (MHz)	Vph (m/ms)	Freq (MHz)	Vph (m/ms)
0.334084	1504.02	2.29875e-005	0.0296772	1.00132	2.3901	0.353608	487.467	0.707107	1667.78	0.176777	2518.76	0.530325	517.035	0.668187	765.716	0.883884	2011.6
0.33391	238.398	0.000145768	0.0746342	0.998534	2.39018	0.353923	185.892	0.707107	441.255	0.176833	141.615	0.530307	240.588	0.668231	325.785	0.883887	546.316
0.333497	129.305	0.000374381	0.119549	0.995755	2.39027	0.354497	115.006	0.707107	254.263	0.176991	72.9196	0.530275	156.76	0.66831	206.93	0.883894	316.081
0.332876	88.586	0.000707802	0.164219	0.992981	2.39037	0.355295	83.3843	0.707108	178.585	0.177249	49.1576	0.53023	116.247	0.668425	151.634	0.883905	222.37
0.332085	67.2759	0.00114501	0.208615	0.990212	2.39049	0.356279	65.4992	0.707109	137.623	0.177605	37.1231	0.530171	92.3684	0.668576	119.673	0.883919	171.52
0.331162	54.1586	0.00168467	0.252682	0.987449	2.39062	0.357413	54.0066	0.70711	111.946	0.178061	29.8622	0.5301	76.6233	0.668761	98.8533	0.883937	139.6
0.33014	45.2668	0.00232477	0.296313	0.984692	2.39077	0.358667	46.0038	0.707111	94.3438	0.178612	25.0113	0.530016	65.4602	0.668982	84.2154	0.88396	117.697
0.329043	38.8403	0.00306339	0.339466	0.981941	2.39093	0.360017	40.1135	0.707113	81.5251	0.179258	21.5461	0.52992	57.1325	0.669237	73.3635	0.883985	101.736
0.327894	33.9779	0.00389824	0.38208	0.979195	2.39111	0.361446	35.5982	0.707115	71.7733	0.179997	18.9505	0.529811	50.6812	0.669526	64.998	0.884015	89.5887
0.326708	30.1705	0.0048268	0.424103	0.976455	2.3913	0.362938	32.0277	0.707118	64.1052	0.180825	16.9363	0.529691	45.5362	0.66985	58.3532	0.884049	80.0334
0.325497	27.1084	0.00584643	0.465491	0.973722	2.39151	0.364483	29.1342	0.707121	57.9175	0.181741	15.33	0.529559	41.3369	0.670207	52.9484	0.884086	72.3208
0.32427	24.5925	0.00695431	0.506202	0.970994	2.39173	0.366073	26.7421	0.707124	52.8193	0.182742	14.0206	0.529416	37.8443	0.670598	48.4667	0.884127	65.9648
0.323035	22.4888	0.00814737	0.54619	0.968273	2.39197	0.367701	24.7318	0.707129	48.5461	0.183824	12.9341	0.529262	34.8937	0.671021	44.6907	0.884173	60.6365
0.321797	20.704	0.00942273	0.585436	0.965557	2.39223	0.369363	23.0189	0.707133	44.9127	0.184985	12.0192	0.529099	32.368	0.671477	41.4664	0.884222	56.1053
0.320561	19.1709	0.0107772	0.623909	0.962848	2.3925	0.371054	21.5421	0.707139	41.7853	0.186222	11.2389	0.528925	30.1814	0.671964	38.6814	0.884276	52.2049
0.319331	17.8399	0.0122079	0.661594	0.960146	2.39279	0.372771	20.2559	0.707146	39.0653	0.187531	10.5664	0.528743	28.2699	0.672484	36.2519	0.884333	48.8122
0.318109	16.6739	0.0137116	0.698474	0.95745	2.3931	0.374511	19.1257	0.707153	36.6778	0.18891	9.98131	0.528551	26.5846	0.673034	34.1143	0.884395	45.8341
0.316898	15.644	0.0152852	0.734538	0.95476	2.39343	0.376272	18.1248	0.707162	34.5654	0.190355	9.4681	0.528352	25.0875	0.673614	32.2191	0.884461	43.1991
0.3157	14.728	0.0169257	0.769776	0.952077	2.39378	0.378053	17.2323	0.707172	32.6832	0.191863	9.01469	0.528146	23.7487	0.674224	30.5275	0.884532	40.8511
0.314517	13.9082	0.0186301	0.80419	0.949401	2.39414	0.379851	16.4316	0.707183	30.9955	0.193432	8.61155	0.527932	22.5444	0.674864	29.0085	0.884606	38.7457
0.31335	13.1702	0.0203956	0.837781	0.946731	2.39452	0.381666	15.7092	0.707195	29.4736	0.195057	8.25101	0.527712	21.4553	0.675532	27.6372	0.884685	36.8471
0.312201	12.5026	0.0222193	0.870548	0.944068	2.39493	0.383495	15.0543	0.707209	28.0943	0.196737	7.9269	0.527487	20.4655	0.676228	26.3931	0.884769	35.1264
0.31107	11.8959	0.0240984	0.902502	0.941412	2.39535	0.385339	14.4578	0.707225	26.8384	0.198243	7.67019	0.527256	19.5621	0.676952	25.2595	0.884857	33.5597
0.30996	11.3423	0.0260305	0.93365	0.938763	2.3958	0.387197	13.9123	0.707243	25.6901	0.199556	7.46804	0.527022	18.7342	0.677702	24.2223	0.88495	32.1273
0.30887	10.8351	0.0280128	0.964003	0.936121	2.39626	0.389066	13.4116	0.707262	24.6362	0.200662	7.31133	0.526783	17.9728	0.678479	23.2699	0.885048	30.8125
0.307803	10.369	0.0300431	0.993575	0.933486	2.39675	0.390948	12.9504	0.707284	23.6655	0.201548	7.19359	0.526542	17.2702	0.679281	22.3923	0.885151	29.6016
0.306758	9.9392	0.0321189	1.02238	0.930859	2.39725	0.39284	12.5241	0.707308	22.7684	0.202207	7.11028	0.526298	16.6198	0.680108	21.5812	0.885258	28.4826
0.305736	9.54175	0.034238	1.05043	0.928238	2.39778	0.394743	12.1291	0.707334	21.9371	0.202631	7.05834	0.526052	16.016	0.680959	20.8292	0.885371	27.4455
0.304738	9.17322	0.0363983	1.07774	0.925625	2.39833	0.396656	11.7619	0.707363	21.1644	0.203245	6.98549	0.525806	15.454	0.681833	20.1303	0.885489	26.4817
0.303766	8.83067	0.0385978	1.10433	0.923019	2.39891	0.398578	11.4198	0.707394	20.4444	0.203917	6.90866	0.525559	14.9296	0.682731	19.4791	0.885612	25.5837
0.302819	8.51153	0.0408346	1.13021	0.92042	2.3995	0.400509	11.1004	0.707429	19.772	0.20484	6.80789	0.525312	14.4392	0.683651	18.8708	0.88574	24.745
0.301898	8.21357	0.0431068	1.15542	0.917829	2.40012	0.402448	10.8013	0.707466	19.1425	0.20602	6.68625	0.525067	13.9796	0.684592	18.3014	0.885874	23.9599
0.301003	7.93482	0.0454127	1.17995	0.915246	2.40076	0.404395	10.5208	0.707507	18.552	0.207467	6.54718	0.524823	13.548	0.685555	17.7674	0.886014	23.2234
0.300137	7.67357	0.0477508	1.20384	0.91267	2.40143	0.406349	10.2571	0.707551	17.9971	0.20919	6.39432	0.524581	13.1419	0.686538	17.2655	0.886159	22.5312
0.299298	7.4283	0.0501192	1.22709	0.910101	2.40212	0.408311	10.0089	0.707599	17.4745	0.2112	6.23128	0.524343	12.7593	0.68754	16.793	0.886311	21.8795
0.298487	7.19766	0.0525168	1.24973	0.90754	2.40284	0.410279	9.77476	0.707651	16.9815	0.213242	6.08014	0.524108	12.398	0.688562	16.3474	0.886468	21.2647
0.297706	6.98044	0.0549419	1.27177	0.904987	2.40358	0.412253	9.55356	0.707707	16.5158	0.215316	5.93967	0.523877	12.0564	0.689602	15.9265	0.886631	20.6839
0.296954	6.77558	0.0573934	1.29324	0.902442	2.40434	0.414234	9.34425	0.707767	16.0751	0.217418	5.80882	0.523651	11.733	0.69066	15.5283	0.886801	20.1343
0.296232	6.58212	0.0598699	1.31415	0.899905	2.40513	0.416219	9.1459	0.707832	15.6574	0.219548	5.68667	0.523431	11.4264	0.691735	15.151	0.886977	19.6135
0.295541	6.39919	0.0623704	1.33451	0.897375	2.40595	0.41821	8.95768	0.707901	15.2611	0.221703	5.57238	0.523218	11.1352	0.692827	14.7931	0.887159	19.1193
0.294881	6.22603	0.0648935	1.35435	0.894854	2.40679	0.420206	8.77883	0.707975	14.8846	0.223882	5.46526	0.523011	10.8585	0.693934	14.453	0.887348	18.6497
0.294252	6.06192	0.0674385	1.37367	0.89234	2.40767	0.422206	8.60866	0.708055	14.5263	0.226083	5.36466	0.522812	10.5951	0.695058	14.1296	0.887544	18.2029
0.293656	5.90624	0.070004	1.3925	0.889835	2.40856	0.424211	8.44656	0.708139	14.1851	0.228305	5.27	0.52262	10.3442	0.696196	13.8216	0.887747	17.7774
0.293093	5.75842	0.0725894	1.41086	0.887337	2.40949	0.426219	8.29198	0.708229	13.8597	0.230546	5.1808	0.522438	10.1048	0.697348	13.528	0.887958	17.3716
0.292562	5.61792	0.0751936	1.42875	0.884847	2.41044	0.428231	8.14438	0.708325	13.5491	0.232805	5.09659	0.522265	9.87637	0.698514	13.2477	0.888175	16.9843
0.292066	5.48428	0.0778159	1.44619	0.882366	2.41143	0.430246	8.00332	0.708428	13.2523	0.235081	5.01698	0.522101	9.65804	0.699692	12.9799	0.8884	16.6142
0.291604	5.35705	0.0804554	1.46319	0.879893	2.41244	0.432264	7.86837	0.708536	12.9684	0.237372	4.94159	0.521949	9.44922	0.700884	12.7239	0.888633	16.2602
0.291176	5.23584	0.0831112	1.47978	0.877427	2.41348	0.434025	7.75544	0.708651	12.6966	0.239678	4.87011	0.521807	9.24932	0.702087	12.4787	0.888874	15.9212
0.290784	5.12028	0.0857829	1.49596	0.87497	2.41454	0.435527	7.66242	0.708773	12.4362	0.241997	4.80223	0.521677	9.0578	0.703302	12.2439	0.889122	15.5965
0.290428	5.01004	0.0884696	1.51174	0.872522	2.41564	0.43677	7.58765	0.708901	12.1865	0.244328	4.7377	0.52156	8.87418	0.704528	12.0186	0.889379	15.285
0.290108	4.9048	0.0911707	1.52714	0.870081	2.41677	0.437754	7.52985	0.709037	11.9468	0.246671	4.67626	0.521455	8.69798	0.705764	11.8024	0.889644	14.986
0.289824	4.80429	0.0938856	1.54218	0.867649	2.41793	0.438477	7.48809	0.709181	11.7166	0.249023	4.61769	0.521364	8.5288	0.70701	11.5948	0.889918	14.6988
0.289579	4.70824	0.0966138	1.55685	0.865224	2.41912	0.43894	7.46167	0.709332	11.4952	0.251385	4.5618	0.521286	8.36624	0.708266	11.3951	0.8902	14.4227
0.289371	4.6164	0.0993545	1.57118	0.862808	2.42034	0.439606	7.42412	0.709491	11.2823	0.253756	4.50839	0.521224	8.20995	0.70953	11.203	0.890492	14.1571
0.289202	4.52856	0.102108	1.58517	0.860401	2.42159	0.44033	7.38386	0.709659	11.0774	0.256133	4.45731	0.521176	8.05959	0.710802	11.0181	0.890792	13.9015
0.289072	4.4445	0.104872	1.59884	0.858001	2.42287	0.441315	7.33002	0.709835	10.88	0.258518	4.4084	0.521147	7.93315	0.712083	10.8399	0.891102	13.6552
0.288981	4.36404	0.107648	1.61219	0.85561	2.42419	0.442561	7.26338	0.71002	10.6898	0.260909	4.36151	0.521132	7.82859	0.713371	10.6681	0.891421	13.4177
0.288931	4.28699	0.110434	1.62523	0.853227	2.42554	0.444069	7.18489	0.710214	10.5063	0.263305	4.31652	0.521126	7.74428	0.714665	10.5024	0.891751	13.1887
0.288923	4.21319	0.113231	1.63798	0.850852	2.42692	0.445838	7.0956	0.710418	10.3292	0.265705	4.27331	0.521126	7.67896	0.715966	10.3424	0.89209	12.9677
0.288949	4.1514	0.116038	1.65045	0.848486	2.42833	0.447868	6.99669	0.710631	10.1582	0.268109	4.23177	0.521128	7.63166	0.717273	10.1878	0.892439	12.7543
0.288996	4.10051	0.118854	1.66263	0.846127	2.42977	0.449899	6.90136	0.710854	9.99307	0.270516	4.19179	0.521131	7.60172	0.718586	10.0385	0.892799	12.5481
0.289054	4.05962	0.121679	1.67455	0.843777	2.43125	0.451931	6.80942	0.711087	9.83344	0.272926	4.15328	0.521137	7.5591	0.719903	9.89397	0.893169	12.3488
0.28911	4.02803	0.124513	1.6862	0.841435	2.43277	0.453962	6.72068	0.711331	9.67906	0.275337	4.11616	0.521145	7.51335	0.721225	9.75415	0.89355	12.156
0.289159	4.00522	0.127355	1.6976	0.839101	2.43431	0.455992	6.63498	0.711585	9.52971	0.27775	4.08034	0.52116	7.45206	0.722551	9.61878	0.893942	11.9694
0.289193	3.9908	0.130206	1.70876	0.836775	2.43589	0.458022	6.55216	0.711851	9.38514	0.280164	4.04575	0.521184	7.37606	0.723881	9.48763	0.894345	11.7888
0.289245	3.97031	0.133064	1.71967	0.834457	2.43751	0.460051	6.47207	0.712127	9.24514	0.282577	4.01232	0.521223	7.28634	0.725214	9.36052	0.89476	11.6138
0.289308	3.94836	0.13593	1.73035	0.832147	2.43916	0.462079	6.39458	0.712416	9.10951	0.28499	3.97998	0.521282	7.18402	0.72655	9.23725	0.895186	11.4443
0.289402	3.91903	0.138803	1.74081	0.829845	2.44084	0.464105	6.31956	0.712716	8.97805	0.287402	3.94868	0.521368	7.07036	0.727889	9.11766	0.895625	11.28
0.289537	3.88279	0.141684	1.75105	0.827551	2.44256	0.46613	6.24688	0.713028	8.85059	0.289812	3.91835	0.521472	6.96054	0.729229	9.00156	0.896075	11.1206
0.289723	3.84019	0.14457	1.76108	0.825265	2.44432	0.468152	6.17643	0.713353	8.72696	0.292221	3.88895	0.521597	6.85438	0.730571	8.88882	0.896538	10.9659
0.289973	3.7919	0.147464	1.7709	0.822987	2.44611	0.470173	6.10811	0.71369	8.607	0.294627	3.86042	0.521742	6.75173	0.731915	8.77928	0.897014	10.8158
0.290304	3.73861	0.150363	1.78052	0.820716	2.44793	0.47219	6.04182	0.714041	8.49055	0.297029	3.83272	0.521908	6.65242	0.733259	8.6728	0.897502	10.6701
0.290683	3.68753	0.153269	1.78995	0.818453	2.44979	0.474205	5.97747	0.714405	8.37748	0.299428	3.8058	0.522096	6.55632	0.734604	8.56926	0.898003	10.5285
0.291111	3.63856	0.15618	1.79919	0.816198	2.45169	0.476217	5.91495	0.714782	8.26764	0.301824	3.77963	0.522305	6.46329	0.735948	8.46852	0.898517	10.391
0.291589	3.59162	0.159097	1.80824	0.81395	2.45362	0.478225	5.85421	0.715122	8.17447	0.304215	3.75416	0.522536	6.37321	0.737293	8.37048	0.899045	10.2573
0.292117	3.54665	0.162019	1.81711	0.811709	2.45559	0.48023	5.79514	0.71542	8.09686	0.306601	3.72937	0.52279	6.28596	0.738636	8.27502	0.899587	10.1273
0.292698	3.50356	0.164947	1.82581	0.809476	2.4576	0.482231	5.73769	0.715672	8.03389	0.308981	3.70521	0.523067	6.20141	0.739807	8.19386	0.900142	10.0009
0.293331	3.46231	0.167879	1.83435	0.807249	2.45964	0.484227	5.68177	0.715876	7.98486	0.311356	3.68166	0.523368	6.11947	0.740803	8.1261	0.900712	9.87788
0.294019	3.42281	0.170816	1.84271	0.80503	2.46172	0.48622	5.62734	0.716028	7.94924	0.313725	3.65869	0.523692	6.04004	0.741627	8.07104	0.901296	9.75817
0.294762	3.38502	0.173758	1.85092	0.802818	2.46383	0.488207	5.57431	0.716126	7.92662	0.316087	3.63626	0.524041	5.96301	0.742278	8.02811	0.901895	9.64162
0.295563	3.34889	0.176705	1.85897	0.800613	2.46598	0.49019	5.52264	0.716269	7.89437	0.318442	3.61435	0.524415	5.8883	0.742756	7.99688	0.902508	9.52814
0.296421	3.31436	0.179656	1.86686	0.798415	2.46817	0.492168	5.47226	0.716425	7.85963	0.32079	3.59294	0.524814	5.81582	0.743062	7.97704	0.903136	9.4176
0.297338	3.28138	0.182611	1.87461	0.796223	2.4704	0.494141	5.42313	0.716641	7.81294	0.323131	3.57201	0.525238	5.74549	0.743501	7.94872	0.90378	9.30989
0.298317	3.2499	0.18557	1.88222	0.794038	2.47266	0.496107	5.37519	0.71692	7.75477	0.325463	3.55152	0.525688	5.67722	0.743979	7.91819	0.904438	9.20493
0.299357	3.2199	0.188533	1.88968	0.791858	2.47496	0.498068	5.3284	0.717264	7.68571	0.327787	3.53146	0.526165	5.61096	0.744628	7.87711	0.905113	9.10262
0.30046	3.19131	0.191499	1.89701	0.789685	2.47729	0.500023	5.28271	0.717679	7.60645	0.330102	3.51182	0.526668	5.54661	0.745448	7.82585	0.905803	9.00285
0.301628	3.16411	0.19447	1.9042	0.787518	2.47966	0.501972	5.23808	0.71817	7.51775	0.332408	3.49256	0.527198	5.48413	0.746438	7.76488	0.906509	8.90556
0.302861	3.13825	0.197443	1.91127	0.785357	2.48206	0.503914	5.19447	0.718676	7.43138	0.334705	3.47368	0.527755	5.42344	0.747597	7.69473	0.907231	8.81064
0.304161	3.11369	0.200421	1.9182	0.783202	2.4845	0.505849	5.15183	0.719199	7.34724	0.336992	3.45516	0.52834	5.36448	0.748925	7.61601	0.907969	8.71804
0.305527	3.0904	0.203401	1.92501	0.781052	2.48698	0.507778	5.11013	0.719738	7.26528	0.339269	3.43698	0.528953	5.3072	0.750249	7.53912	0.908724	8.62765
0.306962	3.06833	0.206384	1.9317	0.778907	2.48949	0.509699	5.06934	0.720293	7.18541	0.341536	3.41912	0.529594	5.25154	0.751569	7.464	0.909496	8.53943
0.308465	3.04746	0.209371	1.93828	0.776767	2.49204	0.511612	5.02943	0.720866	7.10756	0.343792	3.40157	0.530264	5.19744	0.752885	7.39057	0.910181	8.46425
0.310037	3.02773	0.21236	1.94473	0.774631	2.49462	0.513519	4.99035	0.721456	7.03167	0.346038	3.38433	0.530962	5.14485	0.754197	7.31878	0.910776	8.40138
0.311677	3.00912	0.215352	1.95108	0.772501	2.49724	0.515417	4.95208	0.722063	6.95767	0.348272	3.36737	0.53169	5.09373	0.755504	7.24857	0.911275	8.35022
0.313385	2.99157	0.218347	1.95731	0.770374	2.49989	0.517307	4.9146	0.722688	6.8855	0.350495	3.35068	0.532446	5.04403	0.756807	7.17988	0.911674	8.31029
0.315161	2.97506	0.220959	1.96266	0.768252	2.50257	0.519189	4.87786	0.72333	6.8151	0.352707	3.33426	0.533232	4.9957	0.758104	7.11266	0.91197	8.28122
0.317004	2.95953	0.223187	1.96715	0.766133	2.50529	0.521063	4.84185	0.723991	6.74641	0.354907	3.31809	0.534048	4.94871	0.759396	7.04687	0.912161	8.26274
0.318912	2.94494	0.22503	1.97082	0.764017	2.50803	0.522928	4.80655	0.72467	6.67939	0.357095	3.30217	0.534893	4.903	0.760683	6.98245	0.912436	8.23634
0.320884	2.93124	0.226489	1.9737	0.761905	2.51081	0.524784	4.77192	0.725367	6.61397	0.359271	3.28647	0.535769	4.85854	0.761964	6.91936	0.912738	8.20788
0.322918	2.91841	0.227561	1.9758	0.759795	2.51362	0.526632	4.73794	0.726083	6.55011	0.361435	3.271	0.536675	4.81529	0.763239	6.85755	0.913151	8.16955
0.325012	2.90638	0.228248	1.97713	0.757688	2.51646	0.52847	4.7046	0.726818	6.48777	0.363587	3.25575	0.537611	4.77322	0.764509	6.79698	0.91368	8.12168
0.327165	2.89512	0.229235	1.97905	0.755583	2.51933	0.530299	4.67187	0.727572	6.42689	0.365726	3.24071	0.538577	4.73228	0.765772	6.73762	0.914329	8.06468
0.329373	2.88458	0.230308	1.98111	0.753479	2.52223	0.532119	4.63973	0.728345	6.36743	0.367852	3.22586	0.539574	4.69245	0.767028	6.67941	0.915102	7.99904
0.331635	2.87471	0.231768	1.98391	0.751377	2.52515	0.533929	4.60816	0.729137	6.30935	0.369966	3.21121	0.540602	4.65369	0.768278	6.62234	0.916005	7.9253
0.333947	2.86549	0.233616	1.9874	0.749275	2.5281	0.535729	4.57715	0.729949	6.25262	0.372067	3.19675	0.54166	4.61597	0.769522	6.56635	0.916926	7.85319
0.336308	2.85685	0.235851	1.99158	0.747174	2.53108	0.53752	4.54667	0.730781	6.19718	0.374156	3.18247	0.542748	4.57925	0.770759	6.51143	0.917865	7.78267
0.338714	2.84878	0.238474	1.99642	0.745073	2.53408	0.539301	4.51671	0.731632	6.14301	0.376232	3.16837	0.543867	4.54352	0.771989	6.45753	0.918821	7.7137
0.341164	2.84122	0.241486	2.00189	0.742971	2.5371	0.541072	4.48725	0.732504	6.09006	0.378295	3.15443	0.545017	4.50873	0.773212	6.40462	0.919795	7.64623
0.343654	2.83414	0.2445	2.00726	0.740867	2.54014	0.542833	4.45828	0.733395	6.03831	0.380345	3.14067	0.546197	4.47487	0.774428	6.35268	0.920787	7.58021
0.346183	2.82751	0.247515	2.01255	0.738763	2.5432	0.544584	4.42978	0.734307	5.98771	0.382382	3.12706	0.547408	4.4419	0.775638	6.30168	0.921796	7.5156
0.348747	2.8213	0.250533	2.01774	0.736656	2.54627	0.546325	4.40175	0.735238	5.93824	0.384407	3.11361	0.548649	4.4098	0.77684	6.25159	0.922824	7.45237
0.351344	2.81547	0.253551	2.02286	0.734546	2.54937	0.548055	4.37415	0.73619	5.88987	0.38642	3.10032	0.549921	4.37855	0.778035	6.20238	0.923869	7.39048
0.353973	2.81	0.256572	2.02789	0.732432	2.55247	0.549776	4.347	0.737163	5.84256	0.38842	3.08717	0.551222	4.34811	0.779223	6.15404	0.924932	7.32987
0.356631	2.80486	0.259593	2.03283	0.730315	2.55559	0.551486	4.32026	0.738156	5.79629	0.390408	3.07418	0.552554	4.31847	0.780404	6.10653	0.926012	7.27054
0.359317	2.80002	0.262616	2.0377	0.728193	2.55871	0.553185	4.29393	0.739169	5.75103	0.392383	3.06132	0.553915	4.28959	0.781578	6.05983	0.927111	7.21242
0.362027	2.79547	0.26564	2.04249	0.726065	2.56185	0.554874	4.268	0.740203	5.70674	0.394347	3.04861	0.555305	4.26147	0.782744	6.01392	0.928226	7.1555
0.364761	2.79118	0.268666	2.0472	0.723931	2.56498	0.556553	4.24246	0.741257	5.66341	0.396299	3.03604	0.556725	4.23407	0.783904	5.96879	0.92936	7.09974
0.367518	2.78714	0.271692	2.05183	0.721791	2.56812	0.558222	4.21729	0.742332	5.62101	0.398239	3.02361	0.558174	4.20738	0.785057	5.92441	0.930511	7.0451
0.370294	2.78332	0.27472	2.0564	0.719643	2.57126	0.55988	4.19249	0.743427	5.57951	0.400168	3.01131	0.559652	4.18138	0.786203	5.88075	0.931679	6.99157
0.37309	2.77971	0.277748	2.06088	0.717486	2.5744	0.561528	4.16805	0.744543	5.5389	0.402086	2.99914	0.561158	4.15604	0.787342	5.83781	0.932865	6.9391
0.375903	2.7763	0.280777	2.0653	0.715321	2.57753	0.563166	4.14396	0.745679	5.49914	0.403993	2.98711	0.562693	4.13134	0.788474	5.79556	0.934068	6.88766
0.378733	2.77306	0.283807	2.06964	0.713145	2.58065	0.564794	4.1202	0.746835	5.46021	0.405889	2.97521	0.564255	4.10727	0.7896	5.75399	0.935288	6.83724
0.381579	2.76999	0.286837	2.07392	0.710959	2.58375	0.566411	4.09678	0.748012	5.4221	0.407775	2.96343	0.565845	4.08381	0.790719	5.71309	0.936525	6.78781
0.384438	2.76708	0.289868	2.07813	0.708762	2.58685	0.568019	4.07369	0.749209	5.38477	0.409652	2.95179	0.567462	4.06094	0.791832	5.67282	0.937779	6.73933
0.387311	2.76431	0.2929	2.08227	0.706552	2.58992	0.569617	4.05091	0.750427	5.34822	0.411519	2.94027	0.569105	4.03864	0.792938	5.63319	0.939049	6.69178
0.390196	2.76167	0.295932	2.08634	0.704329	2.59297	0.571205	4.02844	0.751664	5.31242	0.413376	2.92888	0.570775	4.0169	0.794039	5.59417	0.940336	6.64515
0.393093	2.75916	0.298964	2.09035	0.702092	2.596	0.572783	4.00627	0.752921	5.27735	0.415225	2.91762	0.57247	3.99569	0.795134	5.55575	0.941639	6.5994
0.396	2.75676	0.301996	2.0943	0.699841	2.599	0.574352	3.9844	0.754198	5.24299	0.417066	2.90648	0.574191	3.975	0.796223	5.51793	0.942959	6.55451
0.398918	2.75447	0.305029	2.09818	0.697574	2.60197	0.575912	3.96282	0.755495	5.20933	0.418898	2.89547	0.575937	3.95482	0.797306	5.48067	0.944294	6.51045
0.401844	2.75228	0.308061	2.102	0.695292	2.60491	0.577462	3.94153	0.756811	5.17634	0.420723	2.88459	0.577708	3.93514	0.798384	5.44398	0.945645	6.46722
0.40478	2.75019	0.311094	2.10576	0.692992	2.60781	0.579004	3.92051	0.758147	5.14401	0.42254	2.87383	0.579502	3.91592	0.799457	5.40784	0.947012	6.42478
0.407723	2.74818	0.314126	2.10945	0.690676	2.61067	0.580536	3.89977	0.759502	5.11233	0.424351	2.86319	0.58132	3.89717	0.800525	5.37224	0.948393	6.38312
0.410674	2.74625	0.317158	2.11309	0.688341	2.61349	0.58206	3.87929	0.760875	5.08126	0.426155	2.85268	0.583161	3.87887	0.801588	5.33716	0.94979	6.34222
0.413631	2.74441	0.32019	2.11667	0.685988	2.61626	0.583575	3.85908	0.762268	5.05081	0.427954	2.8423	0.585025	3.861	0.802647	5.3026	0.951202	6.30205
0.416596	2.74263	0.323222	2.12019	0.683617	2.61899	0.585083	3.83913	0.763679	5.02095	0.429747	2.83204	0.58691	3.84355	0.803702	5.26855	0.952628	6.2626
0.419566	2.74092	0.326252	2.12366	0.681226	2.62167	0.586582	3.81943	0.765108	4.99167	0.431535	2.82191	0.588817	3.82651	0.804753	5.235	0.954069	6.22385
0.422542	2.73927	0.329283	2.12707	0.678815	2.62429	0.588073	3.79998	0.766556	4.96296	0.433319	2.8119	0.590746	3.80986	0.8058	5.20193	0.955524	6.18579
0.425523	2.73768	0.332312	2.13042	0.676385	2.62686	0.589557	3.78078	0.768021	4.93479	0.435098	2.80202	0.592694	3.79359	0.806843	5.16934	0.956992	6.14839
0.428509	2.73614	0.335341	2.13371	0.673934	2.62938	0.591034	3.76182	0.769504	4.90716	0.436874	2.79227	0.594662	3.77769	0.807883	5.13721	0.958475	6.11164
0.431499	2.73466	0.338369	2.13695	0.671464	2.63184	0.592503	3.74309	0.771005	4.88006	0.438647	2.78264	0.59665	3.76216	0.808921	5.10555	0.95997	6.07552
0.434493	2.73322	0.341395	2.14014	0.668973	2.63425	0.593966	3.72461	0.772522	4.85346	0.440418	2.77314	0.598657	3.74696	0.809956	5.07433	0.961479	6.04001
0.437492	2.73183	0.344421	2.14327	0.666462	2.6366	0.595422	3.70635	0.774056	4.82735	0.442186	2.76376	0.600682	3.73211	0.810988	5.04356	0.963	6.00511
0.440493	2.73048	0.347445	2.14635	0.66393	2.63889	0.596872	3.68832	0.775607	4.80173	0.443953	2.75452	0.602724	3.71758	0.812018	5.01323	0.964534	5.9708
0.443498	2.72917	0.350468	2.14938	0.661379	2.64112	0.598317	3.67051	0.777174	4.77658	0.445718	2.74539	0.604784	3.70336	0.813047	4.98332	0.96608	5.93706
0.446506	2.7279	0.353489	2.15235	0.658808	2.64329	0.599755	3.65293	0.778757	4.75189	0.447483	2.7364	0.606861	3.68946	0.814074	4.95383	0.967638	5.90387
0.449517	2.72666	0.356509	2.15527	0.656217	2.6454	0.601189	3.63556	0.780355	4.72765	0.449248	2.72754	0.608954	3.67584	0.8151	4.92476	0.969208	5.87123
0.45253	2.72545	0.359527	2.15814	0.653608	2.64746	0.602617	3.61841	0.781969	4.70384	0.451013	2.7188	0.611062	3.66251	0.816125	4.89609	0.970789	5.83912
0.455546	2.72428	0.362543	2.16095	0.650979	2.64946	0.60404	3.60147	0.783597	4.68046	0.452779	2.71019	0.613185	3.64946	0.817149	4.86782	0.972381	5.80753
0.458563	2.72313	0.365556	2.16372	0.648332	2.65141	0.605459	3.58474	0.785241	4.65749	0.454546	2.70171	0.615323	3.63668	0.818173	4.83994	0.973983	5.77645
0.461583	2.72201	0.368568	2.16643	0.645667	2.65329	0.606874	3.56822	0.786898	4.63492	0.456315	2.69336	0.617475	3.62415	0.819197	4.81245	0.975597	5.74585
0.464604	2.72092	0.371577	2.1691	0.642985	2.65513	0.608286	3.55191	0.78857	4.61275	0.458086	2.68514	0.619641	3.61188	0.820222	4.78533	0.97722	5.71574
0.467626	2.71984	0.374584	2.17171	0.640285	2.65691	0.609694	3.5358	0.790255	4.59096	0.459861	2.67704	0.621819	3.59985	0.821247	4.7586	0.978854	5.6861
0.47065	2.71879	0.377588	2.17427	0.637569	2.65864	0.611098	3.51989	0.791954	4.56954	0.461638	2.66908	0.62401	3.58805	0.822273	4.73223	0.980497	5.65692
0.473674	2.71776	0.380589	2.17678	0.634837	2.66033	0.6125	3.50418	0.793665	4.54848	0.463419	2.66124	0.626213	3.57648	0.8233	4.70622	0.982149	5.62818
0.4767	2.71675	0.383587	2.17924	0.63209	2.66196	0.6139	3.48866	0.79539	4.52778	0.465204	2.65354	0.628427	3.56513	0.824329	4.68057	0.98381	5.59988
0.479726	2.71576	0.386582	2.18164	0.629327	2.66355	0.615298	3.47334	0.797126	4.50743	0.466995	2.64596	0.630652	3.55399	0.82536	4.65527	0.98548	5.57201
0.482752	2.71478	0.389574	2.184	0.626551	2.66509	0.616693	3.45822	0.798874	4.48741	0.46879	2.63852	0.632888	3.54306	0.826394	4.63032	0.987159	5.54456
0.485779	2.71382	0.392562	2.18631	0.62376	2.66659	0.618088	3.44328	0.800634	4.46772	0.470591	2.6312	0.635133	3.53233	0.827429	4.60571	0.988845	5.51751
0.488806	2.71287	0.395546	2.18856	0.620957	2.66804	0.619481	3.42853	0.802405	4.44835	0.472398	2.62401	0.637388	3.52178	0.828468	4.58144	0.99054	5.49085
0.491833	2.71193	0.398526	2.19076	0.618141	2.66946	0.620874	3.41397	0.804187	4.42929	0.474211	2.61695	0.639652	3.51143	0.82951	4.5575	0.992242	5.46459
0.49486	2.711	0.401502	2.19292	0.615312	2.67084	0.622266	3.3996	0.80598	4.41053	0.476032	2.61003	0.641924	3.50125	0.830555	4.53389	0.993951	5.4387
0.497887	2.71008	0.404473	2.19502	0.612472	2.67218	0.623659	3.38541	0.807782	4.39207	0.47786	2.60323	0.644205	3.49125	0.831604	4.5106	0.995667	5.41319
0.500913	2.70918	0.40744	2.19706	0.609621	2.67349	0.625051	3.3714	0.809594	4.3739	0.479697	2.59656	0.646493	3.48141	0.832658	4.48762	0.99739	5.38803
0.503938	2.70828	0.410401	2.19906	0.606759	2.67476	0.626445	3.35757	0.811416	4.35601	0.481541	2.59003	0.648788	3.47174	0.833716	4.46497	0.999119	5.36323
0.506963	2.70739	0.413358	2.201	0.603887	2.676	0.627839	3.34393	0.813247	4.33839	0.483395	2.58362	0.651089	3.46222	0.834778	4.44262	1.00085	5.33877
0.509987	2.7065	0.416309	2.20289	0.601005	2.67721	0.629235	3.33046	0.815087	4.32104	0.485258	2.57734	0.653397	3.45285	0.835846	4.42057		
0.513009	2.70562	0.419255	2.20473	0.598114	2.6784	0.630633	3.31716	0.816935	4.30394	0.487131	2.5712	0.655711	3.44363	0.836919	4.39883		
0.51603	2.70474	0.422194	2.20651	0.595215	2.67955	0.632033	3.30404	0.818791	4.2871	0.489015	2.56518	0.65803	3.43455	0.837998	4.37739		
0.51905	2.70387	0.425127	2.20824	0.592307	2.68068	0.633435	3.2911	0.820654	4.27051	0.490909	2.5593	0.660354	3.42561	0.839083	4.35624		
0.522068	2.70299	0.428054	2.20991	0.589391	2.68179	0.634841	3.27833	0.822525	4.25416	0.492815	2.55354	0.662682	3.4168	0.840175	4.33538		
0.525085	2.70212	0.430973	2.21153	0.586467	2.68287	0.636249	3.26573	0.824403	4.23804	0.494732	2.54792	0.665014	3.40812	0.841273	4.31481		
0.528099	2.70125	0.433886	2.21309	0.583536	2.68393	0.637662	3.2533	0.826288	4.22215	0.496662	2.54243	0.66735	3.39956	0.842378	4.29452		
0.531111	2.70038	0.436791	2.2146	0.580598	2.68498	0.639078	3.24104	0.828179	4.20648	0.498605	2.53707	0.669689	3.39111	0.84349	4.27451		
0.534121	2.69951	0.439688	2.21605	0.577654	2.686	0.640499	3.22894	0.830076	4.19102	0.500561	2.53184	0.672031	3.38278	0.844611	4.25477		
0.537128	2.69864	0.442577	2.21744	0.574704	2.68701	0.641924	3.21702	0.831978	4.17578	0.50253	2.52674	0.674375	3.37456	0.845739	4.23531		
0.540133	2.69776	0.445457	2.21877	0.571747	2.68799	0.643355	3.20525	0.833886	4.16075	0.504514	2.52177	0.676721	3.36645	0.846875	4.21612		
0.543134	2.69687	0.448329	2.22004	0.568786	2.68897	0.644791	3.19366	0.835799	4.14591	0.506513	2.51693	0.679068	3.35844	0.84802	4.19719		
0.546133	2.69599	0.451191	2.22125	0.565819	2.68993	0.646233	3.18223	0.837716	4.13127	0.508526	2.51223	0.681417	3.35053	0.849174	4.17853		
0.549128	2.69509	0.454044	2.2224	0.562847	2.69088	0.647681	3.17096	0.839638	4.11682	0.510555	2.50765	0.683767	3.34271	0.850337	4.16013		
0.552119	2.69419	0.456887	2.22349	0.55987	2.69181	0.649137	3.15985	0.841563	4.10256	0.512601	2.50321	0.686117	3.33499	0.851509	4.14198		
0.555107	2.69328	0.45972	2.22452	0.556889	2.69274	0.650599	3.1489	0.843492	4.08847	0.514662	2.49889	0.688467	3.32735	0.852692	4.12409		
0.558091	2.69236	0.462542	2.22548	0.553903	2.69365	0.652069	3.13812	0.845425	4.07456	0.516741	2.49471	0.690817	3.3198	0.853884	4.10645		
0.56107	2.69144	0.465353	2.22638	0.550914	2.69456	0.653547	3.12749	0.847361	4.06083	0.518838	2.49066	0.693166	3.31233	0.855087	4.08906		
0.564045	2.6905	0.468153	2.22722	0.547921	2.69545	0.655033	3.11702	0.849299	4.04726	0.520952	2.48674	0.695514	3.30493	0.8563	4.07192		
0.567015	2.68954	0.470942	2.228	0.544925	2.69635	0.656528	3.10672	0.85124	4.03385	0.523084	2.48295	0.697861	3.29762	0.857525	4.05502		
0.56998	2.68858	0.473718	2.2287	0.541925	2.69723	0.658032	3.09657	0.853183	4.02061	0.525235	2.47929	0.700206	3.29038	0.85876	4.03835		
0.57294	2.6876	0.476482	2.22935	0.538922	2.69811	0.659546	3.08657	0.855127	4.00751	0.527406	2.47577	0.702548	3.2832	0.860008	4.02193		
0.575894	2.6866	0.479234	2.22993	0.535916	2.69899	0.661071	3.07674	0.857073	3.99457	0.529595	2.47237	0.704889	3.2761	0.861267	4.00574		
0.578842	2.68559	0.481972	2.23044	0.532908	2.69986	0.662605	3.06706	0.859021	3.98178	0.531805	2.4691	0.707226	3.26905	0.862538	3.98978		
0.581783	2.68456	0.484698	2.23088	0.529897	2.70073	0.664152	3.05754	0.860969	3.96913	0.534035	2.46596	0.709561	3.26207	0.863822	3.97406		
0.584718	2.68351	0.48741	2.23127	0.526884	2.7016	0.665709	3.04817	0.862918	3.95662	0.536285	2.46295	0.711891	3.25515	0.865118	3.95856		
0.587646	2.68244	0.490109	2.23158	0.523869	2.70248	0.667279	3.03896	0.864868	3.94424	0.538556	2.46006	0.714218	3.24829	0.866427	3.94329		
0.590567	2.68135	0.492794	2.23183	0.520852	2.70335	0.668861	3.0299	0.866817	3.932	0.540848	2.4573	0.716541	3.24148	0.86775	3.92823		
0.59348	2.68023	0.495465	2.23202	0.517833	2.70422	0.670457	3.021	0.868766	3.91989	0.543161	2.45467	0.71886	3.23472	0.869086	3.9134		
0.596385	2.67909	0.498123	2.23214	0.514813	2.70509	0.672066	3.01226	0.870715	3.9079	0.545495	2.45216	0.721174	3.22802	0.870436	3.89879		
0.599281	2.67792	0.500766	2.23219	0.511791	2.70597	0.673689	3.00367	0.872664	3.89604	0.547851	2.44977	0.723483	3.22136	0.871799	3.8844		
0.602168	2.67673	0.503395	2.23219	0.508768	2.70686	0.675327	2.99523	0.874611	3.88429	0.550228	2.4475	0.725786	3.21475	0.873177	3.87021		
0.605046	2.6755	0.50601	2.23212	0.505744	2.70774	0.676981	2.98695	0.876557	3.87267	0.552627	2.44535	0.728084	3.20818	0.87457	3.85624		
0.607914	2.67425	0.508611	2.23199	0.502719	2.70864	0.67865	2.97883	0.878502	3.86115	0.555048	2.44332	0.730376	3.20165	0.875977	3.84248		
0.610771	2.67296	0.511198	2.2318	0.499693	2.70954	0.680336	2.97086	0.880444	3.84975	0.55749	2.44141	0.732662	3.19516	0.8774	3.82893		
0.613618	2.67164	0.513772	2.23155	0.496667	2.71045	0.682039	2.96305	0.882386	3.83846	0.559953	2.4396	0.734941	3.18872	0.878837	3.81558		
0.616454	2.67029	0.516331	2.23125	0.49364	2.71137	0.68376	2.95539	0.884324	3.82727	0.562438	2.43791	0.737214	3.1823	0.88029	3.80243		
0.619277	2.66889	0.518877	2.23089	0.490613	2.7123	0.685499	2.94789	0.886261	3.81619	0.564945	2.43633	0.739479	3.17593	0.881758	3.78948		
0.622088	2.66746	0.52141	2.23048	0.487586	2.71325	0.687257	2.94055	0.888195	3.80521	0.567472	2.43486	0.741738	3.16958	0.883243	3.77673		
0.624887	2.66599	0.52393	2.23001	0.484559	2.7142	0.689035	2.93337	0.890126	3.79432	0.57002	2.43348	0.743989	3.16327	0.884743	3.76418		
0.627672	2.66447	0.526437	2.2295	0.481532	2.71517	0.690833	2.92634	0.892054	3.78353	0.572588	2.43221	0.746233	3.15699	0.88626	3.75182		
0.630442	2.66291	0.528932	2.22894	0.478506	2.71616	0.692652	2.91947	0.893979	3.77284	0.575177	2.43104	0.748468	3.15074	0.887793	3.73965		
0.633199	2.66131	0.531415	2.22834	0.47548	2.71716	0.694493	2.91276	0.8959	3.76224	0.577785	2.42996	0.750696	3.14452	0.889342	3.72767		
0.63594	2.65965	0.533886	2.22769	0.472455	2.71818	0.696355	2.90621	0.897818	3.75172	0.580413	2.42897	0.752915	3.13832	0.890909	3.71588		
0.638666	2.65795	0.536346	2.227	0.469431	2.71921	0.698241	2.89981	0.899732	3.7413	0.58306	2.42807	0.755126	3.13215	0.892492	3.70428		
0.641375	2.6562	0.538795	2.22628	0.466408	2.72027	0.70015	2.89358	0.901642	3.73095	0.585726	2.42726	0.757328	3.12601	0.894092	3.69286		
0.644068	2.6544	0.541234	2.22552	0.463386	2.72135	0.702083	2.88751	0.903548	3.7207	0.588409	2.42653	0.759521	3.11988	0.89571	3.68162		
0.646743	2.65254	0.543662	2.22472	0.460366	2.72246	0.704041	2.88159	0.90545	3.71052	0.591111	2.42588	0.761706	3.11378	0.897344	3.67056		
0.649401	2.65063	0.546082	2.2239	0.457347	2.72359	0.706023	2.87583	0.907347	3.70042	0.59383	2.42531	0.763881	3.1077	0.898996	3.65967		
0.652041	2.64866	0.548492	2.22305	0.45433	2.72475	0.708032	2.87024	0.909239	3.6904	0.596565	2.42481	0.766047	3.10165	0.900666	3.64896		
0.654662	2.64664	0.550894	2.22217	0.451316	2.72593	0.710067	2.8648	0.911127	3.68046	0.599317	2.42438	0.768204	3.09561	0.902353	3.63843		
0.657264	2.64456	0.553288	2.22127	0.448303	2.72715	0.712128	2.85952	0.913009	3.67059	0.602084	2.42402	0.770352	3.08959	0.904058	3.62806		
0.659847	2.64242	0.555674	2.22034	0.445294	2.7284	0.714216	2.8544	0.914887	3.6608	0.604867	2.42372	0.772489	3.08359	0.90578	3.61786		
0.66241	2.64022	0.558054	2.2194	0.442287	2.72969	0.716332	2.84943	0.916759	3.65107	0.607664	2.42349	0.774618	3.0776	0.90752	3.60783		
0.664953	2.63797	0.560426	2.21843	0.439283	2.73102	0.718475	2.84462	0.918627	3.64142	0.610476	2.42331	0.776736	3.07164	0.909278	3.59796		
0.667476	2.63566	0.562793	2.21746	0.436283	2.73238	0.720647	2.83997	0.920488	3.63183	0.613301	2.42319	0.778845	3.06569	0.911054	3.58825		
0.669979	2.63329	0.565154	2.21647	0.433286	2.73379	0.722846	2.83547	0.922344	3.62231	0.61614	2.42312	0.780944	3.05976	0.912847	3.57871		
0.672462	2.63086	0.567509	2.21547	0.430293	2.73525	0.725073	2.83111	0.924195	3.61286	0.618991	2.42311	0.783033	3.05384	0.914659	3.56932		
0.674924	2.62837	0.56986	2.21445	0.427304	2.73675	0.727329	2.82691	0.92604	3.60347	0.621855	2.42314	0.785112	3.04794	0.916488	3.56008		
0.677367	2.62583	0.572206	2.21344	0.42432	2.73831	0.729612	2.82286	0.927879	3.59414	0.624731	2.42321	0.787182	3.04206	0.918334	3.551		
0.679789	2.62324	0.574549	2.21241	0.421341	2.73992	0.731924	2.81895	0.929712	3.58487	0.627617	2.42334	0.789241	3.03619	0.920199	3.54207		
0.682192	2.62059	0.576887	2.21138	0.418368	2.7416	0.734263	2.81518	0.931539	3.57567	0.630515	2.4235	0.791291	3.03034	0.922081	3.53328		
0.684575	2.6179	0.579223	2.21035	0.4154	2.74334	0.73663	2.81155	0.93336	3.56653	0.633424	2.4237	0.793331	3.0245	0.923981	3.52464		
0.686939	2.61515	0.581555	2.20931	0.412438	2.74514	0.739023	2.80805	0.935175	3.55744	0.636343	2.42393	0.795361	3.01868	0.925898	3.51615		
0.689284	2.61236	0.583885	2.20828	0.409483	2.74702	0.741444	2.80469	0.936984	3.54842	0.639271	2.42421	0.797382	3.01287	0.927832	3.5078		
0.691612	2.60952	0.586213	2.20724	0.406536	2.74898	0.74389	2.80146	0.938787	3.53945	0.642209	2.42451	0.799393	3.00708	0.929784	3.49958		
0.693921	2.60665	0.588539	2.20621	0.403595	2.75102	0.746363	2.79835	0.940583	3.53053	0.645155	2.42485	0.801394	3.0013	0.931753	3.49151		
0.696214	2.60373	0.590864	2.20518	0.400664	2.75315	0.74886	2.79536	0.942374	3.52168	0.648111	2.42521	0.803386	2.99554	0.933738	3.48356		
0.69849	2.60078	0.593187	2.20416	0.397741	2.75538	0.751382	2.79249	0.944158	3.51287	0.651074	2.4256	0.805369	2.98979	0.935741	3.47575		
0.70075	2.5978	0.595509	2.20314	0.394827	2.75771	0.753928	2.78973	0.945936	3.50412	0.654046	2.42602	0.807342	2.98406	0.93776	3.46807		
0.702995	2.59479	0.597831	2.20213	0.391924	2.76016	0.756497	2.78708	0.947707	3.49542	0.657025	2.42647	0.809307	2.97835	0.939796	3.46052		
0.705226	2.59175	0.600151	2.20112	0.389032	2.76272	0.759088	2.78454	0.949473	3.48678	0.660011	2.42693	0.811262	2.97266	0.941848	3.45309		
0.707444	2.58868	0.602472	2.20012	0.386152	2.76541	0.761701	2.7821	0.951232	3.47819	0.663004	2.42742	0.813209	2.96698	0.943917	3.44578		
0.709649	2.5856	0.604793	2.19913	0.383284	2.76824	0.764335	2.77975	0.952985	3.46964	0.666005	2.42793	0.815147	2.96131	0.946001	3.4386		
0.711842	2.5825	0.607114	2.19815	0.38043	2.77121	0.766989	2.7775	0.954731	3.46115	0.669011	2.42846	0.817077	2.95567	0.948101	3.43153		
0.714023	2.57939	0.609435	2.19718	0.377591	2.77435	0.769663	2.77534	0.956472	3.45271	0.672024	2.429	0.818998	2.95004	0.950216	3.42458		
0.716195	2.57627	0.611757	2.19622	0.374767	2.77765	0.772355	2.77326	0.958206	3.44432	0.675043	2.42956	0.820911	2.94444	0.952347	3.41774		
0.718357	2.57313	0.61408	2.19527	0.371961	2.78114	0.775065	2.77127	0.959934	3.43597	0.678067	2.43014	0.822816	2.93885	0.954492	3.41102		
0.72051	2.57	0.616404	2.19434	0.369173	2.78484	0.777792	2.76935	0.961656	3.42768	0.681097	2.43073	0.824714	2.93328	0.956652	3.4044		
0.722655	2.56686	0.618728	2.19341	0.366404	2.78874	0.780536	2.7675	0.963373	3.41943	0.684133	2.43134	0.826604	2.92773	0.958827	3.39789		
0.724792	2.56372	0.621054	2.1925	0.363657	2.79288	0.783295	2.76573	0.965083	3.41123	0.687173	2.43196	0.828487	2.9222	0.961016	3.39148		
0.726923	2.56058	0.623382	2.19159	0.360932	2.79727	0.786069	2.76402	0.966787	3.40308	0.690219	2.43259	0.830362	2.91669	0.96322	3.38518		
0.729049	2.55745	0.625711	2.1907	0.358231	2.80194	0.788858	2.76238	0.968486	3.39498	0.693269	2.43324	0.832231	2.9112	0.965436	3.37897		
0.731169	2.55433	0.628041	2.18983	0.355556	2.80689	0.79166	2.7608	0.970179	3.38692	0.696323	2.43389	0.834093	2.90574	0.967666	3.37287		
0.733285	2.55122	0.630374	2.18897	0.35291	2.81216	0.794475	2.75928	0.971866	3.37891	0.699382	2.43455	0.835948	2.90029	0.96991	3.36686		
0.735397	2.54812	0.632708	2.18812	0.350293	2.81777	0.797302	2.75781	0.973548	3.37094	0.702445	2.43522	0.837797	2.89487	0.972166	3.36094		
0.737505	2.54503	0.635044	2.18728	0.347709	2.82375	0.800142	2.75639	0.975224	3.36303	0.705512	2.4359	0.83964	2.88947	0.974434	3.35511		
0.739611	2.54196	0.637383	2.18646	0.345159	2.83013	0.802992	2.75503	0.976895	3.35515	0.708583	2.43659	0.841478	2.8841	0.976715	3.34937		
0.741715	2.53891	0.639723	2.18565	0.342646	2.83694	0.805853	2.75371	0.978561	3.34733	0.711658	2.43729	0.84331	2.87875	0.979008	3.34372		
0.743818	2.53588	0.642066	2.18486	0.340172	2.8442	0.808724	2.75244	0.980222	3.33954	0.714736	2.43799	0.845136	2.87343	0.981313	3.33816		
0.74592	2.53287	0.644411	2.18408	0.337739	2.85197	0.811605	2.75121	0.981878	3.33181	0.717818	2.4387	0.846958	2.86813	0.983629	3.33267		
0.748021	2.52988	0.646758	2.18332	0.335351	2.86026	0.814495	2.75002	0.983529	3.32412	0.720903	2.43941	0.848774	2.86285	0.985955	3.32727		
0.750122	2.52691	0.649108	2.18257	0.333009	2.86913	0.817393	2.74886	0.985175	3.31647	0.723991	2.44013	0.850586	2.85761	0.988293	3.32195		
0.752224	2.52397	0.65146	2.18183	0.330717	2.87861	0.8203	2.74775	0.986817	3.30887	0.727083	2.44086	0.852394	2.85239	0.990641	3.3167		
0.754327	2.52106	0.653815	2.18111	0.328476	2.88874	0.823214	2.74667	0.988454	3.30131	0.730177	2.44159	0.854198	2.84719	0.992999	3.31153		
0.756431	2.51817	0.656173	2.1804	0.32629	2.89957	0.826135	2.74562	0.990086	3.2938	0.733274	2.44232	0.855997	2.84203	0.995367	3.30643		
0.758537	2.51532	0.658533	2.17971	0.324161	2.91113	0.829064	2.7446	0.991715	3.28634	0.736375	2.44305	0.857793	2.83689	0.997744	3.30141		
0.760645	2.51249	0.660896	2.17903	0.322091	2.92348	0.831999	2.74361	0.99334	3.27891	0.739477	2.44379	0.859586	2.83178	1.00013	3.29645		
0.762756	2.50969	0.663262	2.17836	0.320081	2.93666	0.83494	2.74265	0.99496	3.27154	0.742583	2.44454	0.861375	2.8267				
0.76487	2.50692	0.66563	2.17771	0.318135	2.95071	0.837887	2.74172	0.996577	3.2642	0.745691	2.44528	0.863161	2.82165				
0.766986	2.50419	0.668001	2.17708	0.316253	2.96567	0.84084	2.74081	0.99819	3.25692	0.748801	2.44603	0.864945	2.81663				
0.769107	2.50149	0.670375	2.17646	0.314437	2.98159	0.843798	2.73993	0.9998	3.24967	0.751914	2.44678	0.866726	2.81164				
0.771231	2.49882	0.672752	2.17585	0.312689	2.99852	0.846761	2.73907	1.00141	3.24247	0.755029	2.44753	0.868504	2.80668				
0.773359	2.49618	0.675132	2.17525	0.311008	3.01649	0.849728	2.73823			0.758146	2.44828	0.870281	2.80175				
0.775491	2.49358	0.677515	2.17467	0.309395	3.03555	0.8527	2.73741			0.761265	2.44903	0.872056	2.79685				
0.777629	2.49101	0.6799	2.1741	0.307851	3.05573	0.855676	2.73661			0.764387	2.44978	0.873829	2.79198				
0.779771	2.48848	0.682288	2.17355	0.306376	3.07708	0.858655	2.73583			0.76751	2.45054	0.8756	2.78715				
0.781918	2.48598	0.68468	2.17301	0.304968	3.09964	0.861639	2.73506			0.770635	2.45129	0.877371	2.78235				
0.78407	2.48352	0.687074	2.17248	0.303629	3.12343	0.864626	2.73432			0.773762	2.45205	0.87914	2.77758				
0.786228	2.48109	0.689471	2.17197	0.302356	3.14851	0.867616	2.73358			0.776891	2.4528	0.880908	2.77284				
0.788391	2.4787	0.691871	2.17147	0.301149	3.17491	0.870608	2.73286			0.780022	2.45356	0.882676	2.76814				
0.790561	2.47634	0.694274	2.17098	0.300008	3.20266	0.873604	2.73216			0.783154	2.45431	0.884443	2.76346				
0.792736	2.47402	0.69668	2.17051	0.29893	3.23182	0.876602	2.73147			0.786288	2.45507	0.88621	2.75883				
0.794918	2.47174	0.699089	2.17004	0.297915	3.26241	0.879603	2.73079			0.789424	2.45582	0.887977	2.75422				
0.797106	2.4695	0.701501	2.16959	0.296961	3.29448	0.882605	2.73012			0.792561	2.45657	0.889744	2.74965				
0.7993	2.46729	0.703916	2.16916	0.296068	3.32809	0.88561	2.72947			0.795699	2.45732	0.891511	2.74511				
0.801501	2.46511	0.706334	2.16873	0.295233	3.36326	0.888616	2.72882			0.798839	2.45807	0.893278	2.74061				
0.803709	2.46298	0.708754	2.16832	0.294456	3.40005	0.891624	2.72819			0.801981	2.45882	0.895047	2.73614				
0.805924	2.46088	0.711178	2.16791	0.293735	3.43852	0.894634	2.72756			0.805124	2.45957	0.896815	2.73171				
0.808146	2.45881	0.713604	2.16752	0.293069	3.47872	0.897645	2.72694			0.808268	2.46032	0.898585	2.72731				
0.810375	2.45679	0.716034	2.16714	0.292458	3.52071	0.900657	2.72633			0.811413	2.46107	0.900356	2.72294				
0.812611	2.45479	0.718466	2.16678	0.291898	3.56454	0.90367	2.72573			0.81456	2.46181	0.902128	2.71861				
0.814855	2.45284	0.720901	2.16642	0.29139	3.6103	0.906683	2.72513			0.817707	2.46255	0.903902	2.71432				
0.817106	2.45092	0.723338	2.16607	0.290933	3.65805	0.909698	2.72454			0.820856	2.46329	0.905677	2.71006				
0.819364	2.44904	0.725779	2.16574	0.290525	3.70786	0.912713	2.72395			0.824006	2.46403	0.907454	2.70583				
0.82163	2.44719	0.728222	2.16542	0.290165	3.75982	0.915728	2.72337			0.827158	2.46477	0.909232	2.70164				
0.823904	2.44538	0.730669	2.1651	0.289853	3.81402	0.918744	2.7228			0.83031	2.4655	0.911013	2.69749				
0.826186	2.4436	0.733118	2.1648	0.289587	3.87054	0.921759	2.72223			0.833463	2.46624	0.912795	2.69337				
0.828475	2.44186	0.735569	2.16451	0.289367	3.9295	0.924775	2.72166			0.836617	2.46697	0.91458	2.68928				
0.830772	2.44016	0.738023	2.16422	0.289192	3.99099	0.92779	2.7211			0.839772	2.46769	0.916367	2.68523				
0.833077	2.43849	0.740481	2.16395	0.289061	4.05513	0.930805	2.72054			0.842928	2.46842	0.918157	2.68122				
0.835391	2.43685	0.74294	2.16369	0.288973	4.12205	0.933819	2.71998			0.846085	2.46914	0.919949	2.67724				
0.837712	2.43525	0.745403	2.16343	0.288928	4.19187	0.936833	2.71942			0.849243	2.46986	0.921744	2.67329				
0.840041	2.43368	0.747868	2.16319	0.288924	4.26474	0.939846	2.71887			0.852402	2.47058	0.923542	2.66938				
0.842378	2.43215	0.750335	2.16295	0.288962	4.34081	0.942858	2.71831			0.855561	2.4713	0.925343	2.66551				
0.844723	2.43065	0.752805	2.16272	0.289041	4.42025	0.945869	2.71776			0.858721	2.47201	0.927146	2.66167				
0.847077	2.42919	0.755278	2.16251	0.289159	4.50322	0.948879	2.71721			0.861882	2.47272	0.928953	2.65786				
0.849439	2.42776	0.757753	2.1623	0.289317	4.58991	0.951887	2.71665			0.865044	2.47343	0.930764	2.65409				
0.851809	2.42636	0.760231	2.1621	0.289513	4.68054	0.954894	2.7161			0.868206	2.47414	0.932577	2.65036				
0.854187	2.42499	0.762711	2.1619	0.289748	4.77531	0.957899	2.71554			0.871369	2.47484	0.934394	2.64666				
0.856573	2.42365	0.765194	2.16172	0.29002	4.87448	0.960902	2.71499			0.874533	2.47554	0.936215	2.64299				
0.858967	2.42235	0.767679	2.16154	0.290329	4.97828	0.963903	2.71443			0.877697	2.47623	0.93804	2.63936				
0.86137	2.42108	0.770166	2.16137	0.290674	5.087	0.966901	2.71386			0.880862	2.47693	0.939868	2.63577				
0.863781	2.41984	0.772656	2.16121	0.291056	5.20095	0.969898	2.7133			0.884027	2.47762	0.9417	2.6322				
0.866201	2.41864	0.775148	2.16106	0.291473	5.32045	0.972891	2.71273			0.887193	2.4783	0.943536	2.62868				
0.868628	2.41746	0.777642	2.16092	0.291925	5.44585	0.975882	2.71216			0.890359	2.47899	0.945376	2.62518				
0.871064	2.41631	0.780139	2.16078	0.292412	5.57755	0.97887	2.71158			0.893525	2.47967	0.947221	2.62173				
0.873508	2.4152	0.782637	2.16064	0.292932	5.71596	0.981855	2.711			0.896692	2.48034	0.949069	2.6183				
0.87596	2.41411	0.785139	2.16052	0.293485	5.86156	0.984836	2.71041			0.89986	2.48102	0.950923	2.61491				
0.87842	2.41305	0.787642	2.1604	0.294072	6.01485	0.987814	2.70981			0.903028	2.48169	0.95278	2.61156				
0.880889	2.41202	0.790147	2.16029	0.294691	6.17638	0.990787	2.70921			0.906196	2.48235	0.954642	2.60824				
0.883365	2.41103	0.792655	2.16019	0.295341	6.34679	0.993757	2.70861			0.909364	2.48302	0.956509	2.60495				
0.88585	2.41006	0.795164	2.16009	0.296023	6.52674	0.996723	2.70799			0.912532	2.48367	0.95838	2.60169				
0.888343	2.40911	0.797676	2.16	0.296643	6.69192	0.999683	2.70737			0.915701	2.48433	0.960257	2.59848				
0.890844	2.4082	0.80019	2.15991	0.297189	6.83931	1.00264	2.70673			0.918869	2.48498	0.962138	2.59529				
0.893352	2.40731	0.802705	2.15983	0.297653	6.96605					0.922038	2.48563	0.964024	2.59214				
0.895869	2.40645	0.805223	2.15976	0.298028	7.06954					0.925207	2.48627	0.965916	2.58902				
0.898394	2.40562	0.807742	2.15969	0.298308	7.14754					0.928375	2.48691	0.967812	2.58593				
0.900927	2.40481	0.810264	2.15962	0.298569	7.22079					0.931544	2.48754	0.969715	2.58288				
0.903467	2.40403	0.812787	2.15957	0.298753	7.2726					0.934712	2.48817	0.971622	2.57987				
0.906016	2.40327	0.815312	2.15951	0.299042	7.35501					0.93788	2.4888	0.973536	2.57688				
0.908572	2.40254	0.817839	2.15946	0.299442	7.47001					0.941047	2.48942	0.975455	2.57393				
0.911136	2.40184	0.820368	2.15942	0.299957	7.62049					0.944214	2.49003	0.97738	2.57102				
0.913707	2.40116	0.822899	2.15938	0.300594	7.81038					0.94738	2.49064	0.979311	2.56814				
0.916286	2.4005	0.825431	2.15935	0.301361	8.04498					0.950546	2.49125	0.981249	2.56529				
0.918873	2.39987	0.827965	2.15932	0.302266	8.33125					0.95371	2.49184	0.983193	2.56248				
0.921467	2.39926	0.8305	2.1593	0.303197	8.6375					0.956873	2.49243	0.985144	2.5597				
0.924068	2.39867	0.833037	2.15928	0.304155	8.96579					0.960035	2.49301	0.987102	2.55696				
0.926677	2.39811	0.835576	2.15926	0.305138	9.31848					0.963195	2.49359	0.989068	2.55425				
0.929294	2.39757	0.838117	2.15925	0.306145	9.69829					0.966353	2.49416	0.991041	2.55158				
0.931917	2.39705	0.840658	2.15925	0.307176	10.1083					0.969508	2.49471	0.993023	2.54895				
0.934548	2.39655	0.843202	2.15924	0.30823	10.5523					0.972661	2.49526	0.995014	2.54636				
0.937185	2.39607	0.845747	2.15924	0.309307	11.0343					0.97581	2.49579	0.997014	2.54381				
0.93983	2.39561	0.848293	2.15925	0.310405	11.5595					0.978955	2.49631	0.999025	2.5413				
0.942482	2.39518	0.85084	2.15925	0.311524	12.1337					0.982095	2.49681	1.00105	2.53883				
0.945141	2.39476	0.853389	2.15926	0.312662	12.7639					0.985229	2.4973						
0.947806	2.39437	0.85594	2.15928	0.313818	13.4586					0.988356	2.49776						
0.950479	2.39399	0.858492	2.1593	0.314992	14.228					0.991473	2.4982						
0.953158	2.39363	0.861044	2.15932	0.316181	15.0848					0.994579	2.49861						
0.955844	2.3933	0.863599	2.15934	0.317385	16.0443					0.99767	2.49897						
0.958536	2.39297	0.866154	2.15937	0.318601	17.126					1.00074	2.49929						
0.961234	2.39267	0.868711	2.1594	0.319826	18.3547												
0.96394	2.39239	0.871268	2.15943	0.321059	19.762												
0.966651	2.39212	0.873827	2.15946	0.322296	21.3898												
0.969369	2.39187	0.876387	2.1595	0.323534	23.2938												
0.972093	2.39164	0.878948	2.15954	0.324766	25.5505												
0.974823	2.39142	0.88151	2.15958	0.325987	28.2675												
0.977559	2.39122	0.884073	2.15962	0.32719	31.6012												
0.980301	2.39103	0.886637	2.15967	0.328363	35.7881												
0.983049	2.39086	0.889202	2.15972	0.329493	41.2037												
0.985803	2.39071	0.891768	2.15977	0.330562	48.4826												
0.988562	2.39057	0.894335	2.15982	0.331548	58.7887												
0.991327	2.39044	0.896903	2.15987	0.332422	74.515												
0.994098	2.39033	0.899471	2.15993	0.333149	101.488												
0.996874	2.39023	0.902041	2.15999	0.33369	158.589												
0.999656	2.39015	0.904611	2.16004	0.33401	360.854												
1.00244	2.39008	0.907181	2.1601														
		0.909753	2.16017														
		0.912325	2.16023														
		0.914898	2.16029														
		0.917472	2.16036														
		0.920046	2.16042														
		0.92262	2.16049														
		0.925196	2.16056														
		0.927772	2.16063														
		0.930348	2.1607														
		0.932925	2.16077														
		0.935502	2.16084														
		0.938079	2.16091														
		0.940658	2.16098														
		0.943236	2.16105														
		0.945815	2.16113														
		0.948394	2.1612														
		0.950973	2.16127														
		0.953553	2.16135														
		0.956133	2.16142														
		0.958713	2.1615														
		0.961294	2.16157														
		0.963874	2.16165														
		0.966455	2.16172														
		0.969036	2.16179														
		0.971617	2.16187														
		0.974198	2.16194														
		0.97678	2.16202														
		0.979361	2.16209														
		0.981942	2.16216														
		0.984524	2.16224														
		0.987105	2.16231														
		0.989687	2.16238														
		0.992268	2.16245														
		0.994849	2.16253														
		0.997431	2.1626														
		1.00001	2.16267														
