Sym0		Asym0		Sym1		Sym2		Sym3		Asym1		Asym2		Asym3		Asym4	
349  Points		387  Points		350  Points		320  Points		246  Points		346  Points		314  Points		249  Points		143  Points	
Freq (MHz)	Vph (m/ms)	Freq (MHz)	Vph (m/ms)	Freq (MHz)	Vph (m/ms)	Freq (MHz)	Vph (m/ms)	Freq (MHz)	Vph (m/ms)	Freq (MHz)	Vph (m/ms)	Freq (MHz)	Vph (m/ms)	Freq (MHz)	Vph (m/ms)	Freq (MHz)	Vph (m/ms)
0.353492	306.136	0.000152782	0.0764078	1.00116	2.46988	0.384655	554.654	0.707108	900.389	0.176788	319.941	0.53033	20757.6	0.769254	2943	0.883887	874.112
0.353304	151.425	0.000385496	0.121299	0.99865	2.47086	0.384829	205.569	0.707116	360.066	0.176887	102.183	0.530331	440.452	0.769267	534.252	0.883901	403.664
0.352995	100.519	0.000723097	0.165978	0.996141	2.47186	0.385158	126.26	0.70713	225.032	0.177088	60.8636	0.530334	222.589	0.769297	293.804	0.883924	262.432
0.352574	75.1721	0.0011643	0.210349	0.993639	2.47288	0.385636	91.1876	0.707151	163.659	0.17739	43.3918	0.530338	148.926	0.769345	202.624	0.883957	194.417
0.352052	59.9878	0.00170784	0.254386	0.991141	2.47392	0.386251	71.4281	0.707178	128.592	0.177792	33.7584	0.530345	111.897	0.769411	154.642	0.884001	154.404
0.351442	49.8694	0.00235179	0.297992	0.98865	2.47498	0.386992	58.7592	0.707212	105.903	0.178293	27.6633	0.530353	89.6153	0.769494	125.041	0.884054	128.054
0.350754	42.641	0.00309416	0.341118	0.986163	2.47606	0.387846	49.9507	0.707252	90.0223	0.178891	23.4653	0.530363	74.7346	0.769595	104.957	0.884117	109.39
0.350003	37.2174	0.00393256	0.383697	0.983682	2.47716	0.388802	43.4751	0.707299	78.285	0.179584	20.4023	0.530375	64.0927	0.769713	90.4378	0.88419	95.4771
0.349197	32.9967	0.00486447	0.425676	0.981207	2.47829	0.389848	38.5164	0.707352	69.2571	0.180369	18.0719	0.530389	56.1042	0.769849	79.4521	0.884274	84.7064
0.348347	29.6181	0.00588723	0.467012	0.978736	2.47943	0.390973	34.5991	0.707412	62.0976	0.181245	16.2418	0.530405	49.8869	0.770002	70.8505	0.884367	76.1218
0.347462	26.8522	0.00699794	0.507661	0.976272	2.48059	0.39217	31.4274	0.707479	56.2811	0.182208	14.7684	0.530424	44.9106	0.770172	63.9333	0.88447	69.1193
0.34655	24.5461	0.00819375	0.547594	0.973812	2.48177	0.393429	28.8076	0.707552	51.4622	0.183256	13.5582	0.530444	40.8374	0.77036	58.2502	0.884584	63.2985
0.345616	22.594	0.00947156	0.586776	0.971358	2.48297	0.394745	26.6079	0.707632	47.4047	0.184385	12.5477	0.530467	37.442	0.770564	53.4983	0.884708	58.3838
0.344668	20.9202	0.0108282	0.62518	0.968909	2.4842	0.396109	24.735	0.707719	43.9414	0.185593	11.6922	0.530492	34.5683	0.770786	49.4663	0.884841	54.179
0.343709	19.4693	0.0122607	0.662785	0.966465	2.48544	0.397519	23.1214	0.707812	40.9507	0.186877	10.9594	0.53052	32.1046	0.771024	46.0023	0.884986	50.5407
0.342743	18.1997	0.0137659	0.699584	0.964027	2.48671	0.398968	21.7171	0.707913	38.3422	0.188233	10.3253	0.53055	29.9691	0.771279	42.9944	0.88514	47.3619
0.341776	17.0795	0.0153407	0.735562	0.961593	2.48799	0.400454	20.4839	0.70802	36.0471	0.189659	9.77182	0.530583	28.1004	0.77155	40.3582	0.885305	44.5608
0.340809	16.084	0.0169822	0.770717	0.959165	2.4893	0.401973	19.3926	0.708134	34.0121	0.19115	9.28489	0.530619	26.4513	0.771838	38.0289	0.88548	42.0738
0.339846	15.1935	0.0186871	0.805036	0.956742	2.49063	0.403522	18.42	0.708255	32.1955	0.192502	8.90626	0.530658	24.9854	0.772143	35.9561	0.885665	39.8511
0.338888	14.3924	0.0204529	0.838532	0.954324	2.49198	0.405098	17.5479	0.708382	30.564	0.193691	8.61241	0.5307	23.6737	0.772463	34.0997	0.885861	37.8526
0.337939	13.6679	0.0222765	0.871203	0.951911	2.49335	0.4067	16.7616	0.708517	29.0906	0.194698	8.38721	0.530745	22.4932	0.772799	32.4275	0.886068	36.0463
0.336999	13.0098	0.0241552	0.903058	0.949504	2.49475	0.408325	16.0491	0.708659	27.7535	0.195509	8.21948	0.530794	21.4252	0.773151	30.9135	0.886285	34.4056
0.336071	12.4094	0.0260865	0.934104	0.947101	2.49616	0.409972	15.4005	0.708808	26.5346	0.196114	8.10156	0.530846	20.4543	0.773519	29.5364	0.886513	32.9089
0.335156	11.8596	0.0280678	0.964351	0.944702	2.4976	0.41164	14.8076	0.708964	25.419	0.196505	8.02836	0.530902	19.5679	0.773902	28.2785	0.886752	31.538
0.334256	11.3542	0.0300965	0.993815	0.942309	2.49906	0.413326	14.2636	0.709127	24.3941	0.197072	7.92612	0.530962	18.7554	0.7743	27.125	0.887001	30.2778
0.33337	10.8882	0.0321705	1.02251	0.939921	2.50054	0.415031	13.7627	0.709298	23.4493	0.197694	7.8188	0.531026	18.008	0.774713	26.0634	0.887262	29.1154
0.332502	10.4574	0.0342875	1.05045	0.937537	2.50204	0.416752	13.3	0.709476	22.5756	0.198551	7.67885	0.531094	17.3182	0.775141	25.0833	0.887533	28.0399
0.331651	10.0578	0.0364454	1.07765	0.935157	2.50357	0.418489	12.8713	0.709661	21.7653	0.199652	7.51113	0.531166	16.6796	0.775583	24.1756	0.887816	27.042
0.330819	9.68638	0.0386422	1.10413	0.932783	2.50511	0.420241	12.4731	0.709853	21.0117	0.201008	7.321	0.531244	16.0867	0.77604	23.3327	0.888109	26.1136
0.330006	9.34027	0.0408759	1.12991	0.930413	2.50668	0.422006	12.1022	0.710054	20.3092	0.202631	7.11402	0.531326	15.5348	0.776511	22.5479	0.888414	25.2476
0.329213	9.01706	0.0431448	1.155	0.928047	2.50827	0.423786	11.7559	0.710261	19.6527	0.204535	6.89557	0.531413	15.0198	0.776995	21.8155	0.888731	24.4382
0.328441	8.71462	0.045447	1.17942	0.925685	2.50988	0.425577	11.4318	0.710477	19.0378	0.206481	6.69517	0.531505	14.5381	0.777494	21.1303	0.889058	23.6798
0.327691	8.43108	0.0477809	1.20319	0.923328	2.51152	0.427381	11.128	0.7107	18.4608	0.208467	6.51076	0.531603	14.0867	0.778005	20.488	0.889398	22.9679
0.326963	8.16477	0.0501451	1.22633	0.920974	2.51317	0.429196	10.8426	0.710931	17.9183	0.21049	6.34058	0.531707	13.6628	0.77853	19.8847	0.889748	22.2983
0.326258	7.91425	0.052538	1.24886	0.918625	2.51485	0.431022	10.5739	0.71117	17.4073	0.212549	6.18311	0.531816	13.2639	0.779067	19.3169	0.890111	21.6674
0.325576	7.6782	0.0549583	1.27079	0.91628	2.51655	0.432859	10.3206	0.711416	16.9251	0.214642	6.03701	0.531932	12.888	0.779617	18.7818	0.890485	21.072
0.324918	7.45547	0.0574046	1.29214	0.913938	2.51827	0.434705	10.0813	0.711671	16.4694	0.216766	5.90114	0.532054	12.5331	0.78018	18.2764	0.890872	20.5092
0.324284	7.24502	0.0598757	1.31294	0.9116	2.52001	0.43656	9.85499	0.711934	16.0381	0.21892	5.77451	0.532182	12.1975	0.780754	17.7985	0.89127	19.9764
0.323675	7.0459	0.0623705	1.33319	0.909266	2.52177	0.438425	9.6406	0.712206	15.6292	0.221101	5.65622	0.532317	11.8797	0.78134	17.3458	0.89168	19.4713
0.323092	6.85728	0.0648877	1.35291	0.906934	2.52355	0.440298	9.43722	0.712485	15.2412	0.223309	5.54552	0.53246	11.5784	0.781938	16.9165	0.892103	18.9918
0.322535	6.67841	0.0674263	1.37213	0.904607	2.52536	0.442179	9.24404	0.712773	14.8724	0.225542	5.44171	0.53261	11.2922	0.782547	16.5088	0.892538	18.536
0.322003	6.50858	0.0699855	1.39085	0.902282	2.52718	0.444068	9.0603	0.713069	14.5215	0.227798	5.34418	0.532767	11.0202	0.783167	16.1211	0.892985	18.1022
0.321499	6.34719	0.0725641	1.40909	0.89996	2.52903	0.44572	8.90737	0.713374	14.1872	0.230076	5.2524	0.532932	10.7613	0.783797	15.7519	0.893445	17.689
0.321021	6.19366	0.0751615	1.42688	0.897641	2.53089	0.447132	8.78195	0.713688	13.8684	0.232374	5.16589	0.533105	10.5146	0.784438	15.4001	0.893918	17.2948
0.320571	6.04747	0.0777765	1.44421	0.895324	2.53278	0.448303	8.6815	0.71401	13.5641	0.234692	5.08422	0.533287	10.2792	0.785089	15.0643	0.894404	16.9184
0.320149	5.90815	0.0804086	1.46111	0.89301	2.53468	0.44923	8.60409	0.714342	13.2732	0.237028	5.00699	0.533477	10.0545	0.78575	14.7436	0.894902	16.5587
0.319755	5.77528	0.083057	1.47759	0.890698	2.5366	0.449913	8.54826	0.714682	12.995	0.239381	4.93386	0.533676	9.83969	0.78642	14.4369	0.895413	16.2146
0.31939	5.64845	0.0857209	1.49367	0.888388	2.53855	0.450351	8.513	0.715032	12.7286	0.24175	4.86453	0.533884	9.63418	0.787099	14.1434	0.895938	15.8851
0.319054	5.5273	0.0883996	1.50935	0.88608	2.54051	0.45098	8.46295	0.71539	12.4733	0.244133	4.79869	0.534101	9.4374	0.787788	13.8622	0.896476	15.5693
0.318746	5.4115	0.0910925	1.52465	0.883774	2.54248	0.451665	8.40938	0.715758	12.2284	0.246531	4.7361	0.534328	9.24882	0.788485	13.5926	0.897027	15.2664
0.318469	5.30073	0.093799	1.53958	0.881468	2.54448	0.452598	8.33789	0.716136	11.9934	0.248941	4.67653	0.534534	9.09078	0.78919	13.3338	0.897592	14.9756
0.318221	5.19471	0.0965186	1.55415	0.879164	2.54649	0.45378	8.24964	0.716523	11.7676	0.251364	4.61976	0.534716	8.96046	0.789903	13.0853	0.89817	14.6963
0.318004	5.09318	0.0992507	1.56838	0.876861	2.54852	0.455212	8.14601	0.716919	11.5506	0.253797	4.5656	0.53487	8.85561	0.790624	12.8465	0.898762	14.4278
0.317817	4.99589	0.101995	1.58228	0.874558	2.55056	0.456895	8.02859	0.717326	11.3418	0.256241	4.51387	0.534995	8.77452	0.791352	12.6167	0.899367	14.1695
0.317661	4.90261	0.10475	1.59585	0.872256	2.55262	0.458832	7.89904	0.717742	11.1407	0.258695	4.46441	0.535089	8.71589	0.792088	12.3955	0.899987	13.9207
0.317537	4.81315	0.107517	1.60911	0.869953	2.55469	0.460773	7.77472	0.718168	10.9471	0.261157	4.41707	0.535149	8.6788	0.79283	12.1825	0.900621	13.6812
0.317444	4.72729	0.110294	1.62206	0.86765	2.55678	0.462719	7.65533	0.718605	10.7605	0.263628	4.37172	0.535237	8.62605	0.79358	11.9771	0.901269	13.4502
0.317382	4.64486	0.113081	1.63472	0.865347	2.55888	0.464669	7.54057	0.719051	10.5804	0.266106	4.32823	0.535334	8.56949	0.794335	11.779	0.901931	13.2274
0.317355	4.57569	0.115878	1.64709	0.863042	2.56099	0.466623	7.43018	0.719508	10.4067	0.268591	4.28648	0.535468	8.4938	0.795096	11.5878	0.902607	13.0125
0.317351	4.5186	0.118684	1.65918	0.860736	2.56311	0.468581	7.32392	0.719976	10.2389	0.271083	4.24638	0.535642	8.40009	0.795864	11.4031	0.903298	12.8049
0.317362	4.47264	0.1215	1.67101	0.858429	2.56524	0.470543	7.22156	0.720454	10.0768	0.27358	4.20781	0.535857	8.28966	0.796636	11.2246	0.904003	12.6043
0.317379	4.43709	0.124324	1.68258	0.856119	2.56738	0.472507	7.12288	0.720943	9.92016	0.276082	4.1707	0.536118	8.16399	0.797414	11.0521	0.904723	12.4104
0.317396	4.41137	0.127156	1.6939	0.853807	2.56952	0.474475	7.02769	0.721443	9.76862	0.278589	4.13495	0.536428	8.0247	0.798197	10.8851	0.905458	12.2229
0.31741	4.3951	0.129996	1.70496	0.851492	2.57168	0.476445	6.9358	0.721953	9.622	0.2811	4.10049	0.53675	7.89041	0.798984	10.7235	0.906208	12.0414
0.317432	4.37197	0.132844	1.7158	0.849173	2.57384	0.478418	6.84705	0.722475	9.48005	0.283614	4.06725	0.537085	7.76087	0.799776	10.567	0.906972	11.8658
0.31746	4.34716	0.1357	1.7264	0.846851	2.576	0.480393	6.76128	0.722939	9.36001	0.286131	4.03515	0.537432	7.63585	0.800573	10.4154	0.907752	11.6957
0.317506	4.31397	0.138562	1.73678	0.844525	2.57817	0.48237	6.67833	0.723342	9.26025	0.288651	4.00414	0.537792	7.51513	0.801373	10.2683	0.908546	11.5308
0.317574	4.27287	0.141432	1.74694	0.842194	2.58033	0.484348	6.59807	0.723679	9.1795	0.291174	3.97416	0.538164	7.3985	0.802177	10.1257	0.909356	11.371
0.317674	4.22445	0.144308	1.75689	0.839858	2.5825	0.486329	6.52036	0.723949	9.11673	0.293697	3.94515	0.538551	7.28577	0.802984	9.98734	0.910181	11.216
0.317815	4.16939	0.147191	1.76664	0.837516	2.58467	0.48831	6.44509	0.724149	9.07117	0.296223	3.91706	0.538951	7.17675	0.803795	9.853	0.911021	11.0657
0.31801	4.10842	0.150079	1.77618	0.835168	2.58683	0.490292	6.37213	0.724278	9.04227	0.298749	3.88984	0.539365	7.07129	0.804608	9.72252	0.911876	10.9198
0.318238	4.04971	0.152974	1.78554	0.832814	2.58899	0.492275	6.30139	0.724465	9.00109	0.301275	3.86346	0.539793	6.96923	0.805425	9.59574	0.912747	10.7781
0.318502	3.99318	0.155874	1.7947	0.830452	2.59114	0.494259	6.23276	0.724669	8.95678	0.303802	3.83785	0.540235	6.8704	0.806138	9.48815	0.913633	10.6405
0.3188	3.93873	0.15878	1.80369	0.828083	2.59328	0.496243	6.16614	0.724949	8.89729	0.306328	3.813	0.540692	6.77468	0.806748	9.39848	0.914535	10.5068
0.319135	3.88628	0.161691	1.81249	0.825705	2.59542	0.498227	6.10145	0.725307	8.82329	0.308854	3.78886	0.541165	6.68193	0.807253	9.32571	0.915452	10.3768
0.319505	3.83574	0.164607	1.82112	0.823319	2.59754	0.500211	6.03859	0.725746	8.7356	0.311379	3.7654	0.541652	6.59203	0.807653	9.26904	0.916384	10.2504
0.319912	3.78704	0.167529	1.82959	0.820924	2.59965	0.502195	5.9775	0.726269	8.63516	0.313902	3.74257	0.542155	6.50485	0.807948	9.22785	0.917332	10.1275
0.320356	3.74012	0.170455	1.83789	0.818519	2.60174	0.504178	5.91809	0.726882	8.52301	0.316424	3.72036	0.542674	6.4203	0.808137	9.20169	0.918296	10.008
0.320836	3.69489	0.173386	1.84603	0.816104	2.60382	0.506161	5.86029	0.727506	8.41406	0.318944	3.69874	0.543209	6.33825	0.808408	9.16437	0.919275	9.89159
0.321355	3.65131	0.176321	1.85402	0.813678	2.60588	0.508143	5.80404	0.728143	8.30819	0.321461	3.67767	0.543761	6.25862	0.808703	9.12419	0.92027	9.77829
0.321912	3.6093	0.179261	1.86186	0.811241	2.60792	0.510123	5.74927	0.728792	8.20526	0.323976	3.65714	0.544329	6.18132	0.809105	9.07014	0.92115	9.68199
0.322507	3.56882	0.182204	1.86955	0.808792	2.60993	0.512102	5.69592	0.729455	8.10517	0.326488	3.63711	0.544914	6.10624	0.809613	9.00278	0.921909	9.60161
0.323141	3.52981	0.185152	1.8771	0.806332	2.61193	0.51408	5.64394	0.73013	8.00781	0.328997	3.61756	0.545516	6.03331	0.810229	8.92277	0.922543	9.53632
0.323816	3.49221	0.188104	1.88451	0.803859	2.61389	0.516056	5.59326	0.730818	7.91308	0.331502	3.59848	0.546135	5.96244	0.810953	8.83086	0.923049	9.48542
0.32453	3.45599	0.191059	1.89178	0.801373	2.61583	0.518029	5.54384	0.731519	7.82087	0.334004	3.57983	0.546772	5.89357	0.811785	8.72791	0.923423	9.4484
0.325285	3.4211	0.194018	1.89892	0.798874	2.61775	0.520001	5.49563	0.732233	7.7311	0.336501	3.56161	0.547427	5.82661	0.812618	8.62755	0.923663	9.42488
0.326082	3.3875	0.196981	1.90593	0.796362	2.61963	0.521971	5.44858	0.732961	7.64367	0.338994	3.5438	0.5481	5.76151	0.813453	8.52969	0.92401	9.39131
0.326922	3.35514	0.199947	1.91282	0.793835	2.62148	0.523938	5.40265	0.733702	7.55851	0.341483	3.52637	0.548792	5.69819	0.814288	8.43422	0.924389	9.35515
0.327804	3.32399	0.202916	1.91958	0.791295	2.6233	0.525902	5.3578	0.734457	7.47553	0.343967	3.50931	0.549502	5.63659	0.815124	8.34106	0.924908	9.30649
0.32873	3.29402	0.205889	1.92623	0.788741	2.62509	0.527863	5.31398	0.735226	7.39465	0.346446	3.49261	0.550231	5.57665	0.815961	8.25014	0.92557	9.24579
0.3297	3.26518	0.208864	1.93276	0.786172	2.62685	0.529821	5.27115	0.736009	7.31581	0.348919	3.47624	0.55098	5.51832	0.816799	8.16136	0.926377	9.17363
0.330716	3.23745	0.211843	1.93917	0.783589	2.62856	0.531777	5.22929	0.736805	7.23893	0.351387	3.4602	0.551747	5.46155	0.817638	8.07465	0.927336	9.09067
0.331778	3.21081	0.214824	1.94547	0.780991	2.63025	0.533728	5.18835	0.737616	7.16395	0.353849	3.44448	0.552534	5.40627	0.818476	7.98994	0.92845	8.99764
0.332887	3.18521	0.217809	1.95167	0.778378	2.6319	0.535676	5.14831	0.738441	7.0908	0.356305	3.42905	0.553341	5.35245	0.819316	7.90717	0.929579	8.90686
0.334043	3.16064	0.220795	1.95776	0.775751	2.63351	0.537621	5.10913	0.739281	7.01943	0.358756	3.41391	0.554168	5.30003	0.820155	7.82626	0.930723	8.81825
0.335249	3.13706	0.2234	1.96298	0.77311	2.63508	0.539561	5.07078	0.740135	6.94977	0.361199	3.39904	0.555015	5.24897	0.820995	7.74715	0.931883	8.73174
0.336504	3.11446	0.225622	1.96737	0.770454	2.63662	0.541498	5.03323	0.741004	6.88177	0.363636	3.38444	0.555883	5.19922	0.821836	7.66979	0.933058	8.64726
0.33781	3.09281	0.227461	1.97096	0.767784	2.63812	0.54343	4.99646	0.741887	6.81538	0.366066	3.37009	0.556771	5.15076	0.822676	7.59411	0.934248	8.56474
0.339167	3.07209	0.228915	1.97377	0.7651	2.63959	0.545358	4.96043	0.742786	6.75055	0.368489	3.35599	0.55768	5.10353	0.823517	7.52006	0.935452	8.48412
0.340577	3.05228	0.229985	1.97583	0.762401	2.64102	0.547281	4.92513	0.743699	6.68723	0.370905	3.34212	0.55861	5.05749	0.824357	7.44758	0.936672	8.40534
0.342039	3.03335	0.23067	1.97713	0.759689	2.64241	0.549199	4.89053	0.744627	6.62536	0.373314	3.32848	0.559562	5.01262	0.825198	7.37664	0.937906	8.32834
0.343556	3.01528	0.231654	1.97901	0.756964	2.64377	0.551113	4.85661	0.745571	6.56492	0.375715	3.31505	0.560534	4.96888	0.826039	7.30718	0.939155	8.25306
0.345127	2.99806	0.232725	1.98103	0.754225	2.64509	0.553022	4.82334	0.746529	6.50585	0.378109	3.30184	0.561529	4.92623	0.82688	7.23915	0.940418	8.17946
0.346752	2.98166	0.234181	1.98376	0.751473	2.64638	0.554926	4.7907	0.747504	6.44812	0.380494	3.28882	0.562545	4.88464	0.827721	7.17251	0.941696	8.10747
0.348433	2.96605	0.236024	1.98718	0.748709	2.64763	0.556825	4.75867	0.748493	6.39167	0.382872	3.276	0.563583	4.84408	0.828563	7.10722	0.942988	8.03704
0.35017	2.95123	0.238253	1.99127	0.745932	2.64885	0.558718	4.72724	0.749498	6.33649	0.385241	3.26337	0.564642	4.80452	0.829404	7.04323	0.944295	7.96814
0.351962	2.93716	0.240869	1.99601	0.743143	2.65004	0.560606	4.69639	0.750519	6.28252	0.387602	3.25092	0.565724	4.76593	0.830245	6.98052	0.945615	7.90071
0.353809	2.92382	0.243874	2.00136	0.740343	2.65119	0.562488	4.66609	0.751555	6.22974	0.389955	3.23864	0.566828	4.72829	0.831087	6.91904	0.946949	7.83472
0.355712	2.91119	0.24688	2.00662	0.737531	2.65232	0.564365	4.63633	0.752608	6.17811	0.3923	3.22653	0.567955	4.69157	0.831929	6.85875	0.948297	7.77011
0.357669	2.89924	0.249888	2.0118	0.734709	2.65341	0.566236	4.6071	0.753676	6.1276	0.394636	3.21458	0.569104	4.65574	0.832771	6.79963	0.949659	7.70684
0.35968	2.88796	0.252898	2.0169	0.731876	2.65448	0.568101	4.57837	0.75476	6.07817	0.396963	3.20279	0.570276	4.62077	0.833613	6.74164	0.951034	7.64488
0.361744	2.8773	0.25591	2.02192	0.729032	2.65552	0.56996	4.55014	0.755859	6.0298	0.399281	3.19115	0.57147	4.58665	0.834456	6.68474	0.952422	7.58419
0.36386	2.86726	0.258924	2.02685	0.726179	2.65653	0.571814	4.52239	0.756975	5.98246	0.401591	3.17966	0.572687	4.55335	0.835299	6.62891	0.953823	7.52474
0.366026	2.85779	0.261939	2.03171	0.723317	2.65751	0.573661	4.4951	0.758107	5.93611	0.403891	3.16832	0.573927	4.52085	0.836143	6.57412	0.955238	7.46648
0.368242	2.84887	0.264955	2.03649	0.720445	2.65847	0.575502	4.46826	0.759255	5.89074	0.406183	3.15711	0.575189	4.48912	0.836987	6.52034	0.956665	7.40938
0.370505	2.84048	0.267973	2.0412	0.717564	2.65941	0.577337	4.44186	0.760419	5.84632	0.408466	3.14603	0.576475	4.45815	0.837831	6.46754	0.958105	7.35341
0.372814	2.83259	0.270993	2.04583	0.714675	2.66032	0.579165	4.41589	0.761599	5.80282	0.410739	3.13508	0.577784	4.42791	0.838677	6.4157	0.959557	7.29855
0.375166	2.82517	0.274013	2.0504	0.711777	2.66121	0.580987	4.39034	0.762796	5.76021	0.413004	3.12427	0.579115	4.39839	0.839523	6.36479	0.961022	7.24474
0.377561	2.81819	0.277035	2.05489	0.708872	2.66208	0.582803	4.36518	0.764008	5.71847	0.41526	3.11357	0.580469	4.36956	0.84037	6.31479	0.962499	7.19198
0.379996	2.81163	0.280058	2.05931	0.705959	2.66292	0.584613	4.34042	0.765237	5.67759	0.417506	3.103	0.581847	4.34142	0.841217	6.26567	0.963988	7.14023
0.382469	2.80547	0.283083	2.06366	0.703039	2.66375	0.586416	4.31605	0.766482	5.63753	0.419744	3.09254	0.583247	4.31393	0.842066	6.21742	0.965488	7.08946
0.384979	2.79967	0.286108	2.06795	0.700112	2.66456	0.588212	4.29204	0.767743	5.59828	0.421972	3.0822	0.58467	4.28709	0.842916	6.17	0.967	7.03965
0.387522	2.79422	0.289135	2.07218	0.697179	2.66535	0.590002	4.2684	0.76902	5.55981	0.424192	3.07196	0.586116	4.26087	0.843767	6.12341	0.968524	6.99076
0.390098	2.7891	0.292162	2.07634	0.694239	2.66612	0.591786	4.24511	0.770313	5.52211	0.426402	3.06184	0.587585	4.23527	0.844619	6.07761	0.970059	6.94278
0.392705	2.78427	0.29519	2.08043	0.691293	2.66688	0.593563	4.22216	0.771623	5.48516	0.428604	3.05183	0.589077	4.21025	0.845473	6.0326	0.971605	6.89568
0.395341	2.77973	0.298219	2.08447	0.688341	2.66762	0.595334	4.19955	0.772948	5.44893	0.430797	3.04191	0.590591	4.18582	0.846328	5.98834	0.973162	6.84944
0.398003	2.77546	0.301249	2.08844	0.685384	2.66835	0.597098	4.17727	0.77429	5.41342	0.432981	3.03211	0.592128	4.16195	0.847184	5.94483	0.974729	6.80404
0.400691	2.77143	0.30428	2.09236	0.682421	2.66906	0.598855	4.1553	0.775647	5.37859	0.435157	3.0224	0.593687	4.13862	0.848043	5.90205	0.976308	6.75945
0.403403	2.76762	0.307311	2.09621	0.679454	2.66976	0.600607	4.13365	0.777021	5.34444	0.437324	3.01279	0.595269	4.11583	0.848903	5.85997	0.977896	6.71565
0.406137	2.76403	0.310343	2.10001	0.676481	2.67044	0.602351	4.11231	0.77841	5.31094	0.439483	3.00328	0.596872	4.09357	0.849765	5.81859	0.979495	6.67262
0.408892	2.76064	0.313375	2.10376	0.673504	2.67112	0.60409	4.09126	0.779815	5.27809	0.441633	2.99386	0.598498	4.07181	0.850629	5.77788	0.981103	6.63035
0.411667	2.75743	0.316408	2.10744	0.670522	2.67178	0.605822	4.0705	0.781236	5.24586	0.443776	2.98454	0.600146	4.05054	0.851495	5.73783	0.982721	6.58881
0.41446	2.7544	0.319442	2.11108	0.667536	2.67243	0.607548	4.05003	0.782672	5.21424	0.44591	2.97531	0.601815	4.02975	0.852364	5.69843	0.984349	6.54799
0.41727	2.75152	0.322475	2.11466	0.664546	2.67307	0.609268	4.02983	0.784124	5.18322	0.448036	2.96618	0.603506	4.00944	0.853235	5.65966	0.985987	6.50786
0.420096	2.7488	0.325509	2.11818	0.661552	2.6737	0.610981	4.00991	0.785592	5.15278	0.450155	2.95713	0.605218	3.98958	0.854108	5.62151	0.987633	6.46841
0.422938	2.74621	0.328544	2.12166	0.658554	2.67433	0.612689	3.99025	0.787075	5.12291	0.452267	2.94818	0.606952	3.97016	0.854984	5.58396	0.989289	6.42963
0.425793	2.74376	0.331578	2.12508	0.655553	2.67494	0.61439	3.97086	0.788573	5.09359	0.454371	2.93931	0.608706	3.95118	0.855862	5.547	0.990953	6.39149
0.428661	2.74142	0.334613	2.12845	0.652549	2.67555	0.616086	3.95172	0.790086	5.0648	0.456468	2.93054	0.610481	3.93261	0.856744	5.51062	0.992626	6.35398
0.431542	2.7392	0.337648	2.13178	0.649541	2.67615	0.617776	3.93282	0.791614	5.03655	0.458558	2.92185	0.612277	3.91446	0.857628	5.47481	0.994308	6.31709
0.434434	2.73708	0.340683	2.13505	0.646531	2.67674	0.61946	3.91418	0.793157	5.00881	0.460642	2.91325	0.614092	3.89671	0.858516	5.43955	0.995997	6.2808
0.437337	2.73506	0.343718	2.13828	0.643517	2.67733	0.621138	3.89577	0.794714	4.98157	0.462719	2.90474	0.615928	3.87935	0.859406	5.40484	0.997695	6.24509
0.44025	2.73314	0.346752	2.14146	0.640501	2.67791	0.622811	3.87761	0.796287	4.95483	0.46479	2.89631	0.617783	3.86236	0.8603	5.37066	0.999401	6.20996
0.443172	2.7313	0.349787	2.14459	0.637482	2.67848	0.624479	3.85967	0.797873	4.92856	0.466855	2.88797	0.619658	3.84575	0.861198	5.33699	1.00111	6.17539
0.446104	2.72954	0.352821	2.14768	0.634461	2.67906	0.626141	3.84196	0.799474	4.90276	0.468914	2.87972	0.621552	3.82949	0.862099	5.30384		
0.449043	2.72785	0.355856	2.15072	0.631437	2.67962	0.627798	3.82447	0.801089	4.87741	0.470968	2.87155	0.623465	3.81359	0.863004	5.27119		
0.45199	2.72624	0.358889	2.15371	0.628411	2.68019	0.629451	3.8072	0.802719	4.85251	0.473017	2.86346	0.625396	3.79802	0.863912	5.23903		
0.454945	2.72469	0.361923	2.15666	0.625383	2.68075	0.631098	3.79015	0.804361	4.82805	0.475061	2.85546	0.627346	3.78279	0.864825	5.20734		
0.457906	2.72321	0.364956	2.15957	0.622354	2.68131	0.63274	3.77331	0.806018	4.80401	0.4771	2.84755	0.629313	3.76788	0.865741	5.17613		
0.460874	2.72178	0.367989	2.16244	0.619322	2.68186	0.634378	3.75667	0.807688	4.78038	0.479135	2.83972	0.631298	3.75328	0.866662	5.14538		
0.463848	2.72041	0.371021	2.16526	0.616289	2.68241	0.636012	3.74024	0.809371	4.75716	0.481165	2.83197	0.633301	3.73899	0.867587	5.11508		
0.466827	2.71909	0.374052	2.16804	0.613254	2.68297	0.637641	3.72401	0.811067	4.73434	0.483192	2.82431	0.63532	3.72499	0.868516	5.08523		
0.469812	2.71782	0.377083	2.17078	0.610217	2.68352	0.639266	3.70798	0.812776	4.7119	0.485216	2.81674	0.637356	3.71129	0.86945	5.05581		
0.472802	2.71659	0.380112	2.17347	0.607179	2.68407	0.640887	3.69215	0.814498	4.68984	0.487236	2.80924	0.639409	3.69786	0.870389	5.02682		
0.475796	2.71541	0.383142	2.17613	0.60414	2.68462	0.642504	3.6765	0.816233	4.66815	0.489253	2.80184	0.641477	3.68471	0.871332	4.99825		
0.478795	2.71427	0.38617	2.17874	0.601099	2.68517	0.644118	3.66105	0.817979	4.64682	0.491268	2.79451	0.643561	3.67182	0.872281	4.97009		
0.481797	2.71316	0.389197	2.18132	0.598057	2.68572	0.645728	3.64578	0.819738	4.62584	0.49328	2.78728	0.645661	3.6592	0.873234	4.94233		
0.484804	2.71209	0.392223	2.18386	0.595015	2.68627	0.647335	3.63069	0.821508	4.6052	0.49529	2.78012	0.647775	3.64682	0.874192	4.91498		
0.487814	2.71106	0.395248	2.18635	0.591971	2.68683	0.648939	3.61579	0.82329	4.5849	0.497299	2.77305	0.649904	3.63469	0.875156	4.88801		
0.490828	2.71006	0.398272	2.18881	0.588927	2.68739	0.65054	3.60106	0.825084	4.56493	0.499306	2.76607	0.652047	3.6228	0.876126	4.86142		
0.493844	2.70909	0.401295	2.19123	0.585882	2.68795	0.652138	3.58651	0.826889	4.54528	0.501312	2.75917	0.654204	3.61114	0.8771	4.83521		
0.496864	2.70814	0.404316	2.19361	0.582836	2.68851	0.653733	3.57213	0.828704	4.52594	0.503317	2.75235	0.656375	3.5997	0.878081	4.80937		
0.499886	2.70723	0.407336	2.19595	0.57979	2.68908	0.655326	3.55792	0.830531	4.50691	0.505322	2.74562	0.658558	3.58849	0.879067	4.78389		
0.502911	2.70633	0.410354	2.19826	0.576743	2.68965	0.656917	3.54389	0.832368	4.48817	0.507327	2.73897	0.660755	3.57748	0.880059	4.75877		
0.505938	2.70547	0.413371	2.20053	0.573696	2.69022	0.658505	3.53001	0.834216	4.46973	0.509331	2.73241	0.662964	3.56669	0.881057	4.734		
0.508968	2.70462	0.416386	2.20276	0.570648	2.6908	0.660092	3.51631	0.836073	4.45158	0.511337	2.72593	0.665185	3.55609	0.882061	4.70957		
0.512	2.7038	0.419399	2.20495	0.567601	2.69139	0.661678	3.50276	0.83794	4.4337	0.513342	2.71954	0.667419	3.54569	0.883071	4.68548		
0.515033	2.703	0.422411	2.20711	0.564553	2.69198	0.663261	3.48937	0.839818	4.41609	0.515349	2.71323	0.669663	3.53548	0.884088	4.66173		
0.518068	2.70221	0.425421	2.20923	0.561505	2.69258	0.664844	3.47615	0.841704	4.39875	0.517357	2.70701	0.671919	3.52545	0.885111	4.6383		
0.521105	2.70145	0.428428	2.21132	0.558458	2.69318	0.666425	3.46308	0.8436	4.38167	0.519367	2.70087	0.674185	3.5156	0.886141	4.6152		
0.524144	2.7007	0.431434	2.21337	0.55541	2.6938	0.668006	3.45016	0.845504	4.36485	0.521379	2.69482	0.676462	3.50593	0.887178	4.59241		
0.527184	2.69997	0.434437	2.21538	0.552363	2.69442	0.669585	3.4374	0.847418	4.34827	0.523393	2.68885	0.678749	3.49643	0.888222	4.56993		
0.530225	2.69925	0.437438	2.21736	0.549316	2.69505	0.671165	3.42478	0.849339	4.33194	0.52541	2.68296	0.681046	3.48709	0.889272	4.54776		
0.533267	2.69855	0.440436	2.2193	0.54627	2.69569	0.672744	3.41232	0.851269	4.31584	0.527429	2.67716	0.683352	3.47791	0.89033	4.52589		
0.53631	2.69786	0.443432	2.2212	0.543224	2.69634	0.674322	3.4	0.853208	4.29997	0.529452	2.67145	0.685667	3.46889	0.891394	4.50432		
0.539354	2.69718	0.446425	2.22307	0.540179	2.697	0.675901	3.38783	0.855154	4.28433	0.531477	2.66582	0.687991	3.46002	0.892466	4.48304		
0.542399	2.69652	0.449416	2.22491	0.537134	2.69767	0.67748	3.37581	0.857107	4.26891	0.533507	2.66027	0.690323	3.45129	0.893546	4.46205		
0.545445	2.69586	0.452404	2.22671	0.534091	2.69836	0.67906	3.36392	0.859068	4.25371	0.535541	2.65481	0.692664	3.44271	0.894633	4.44134		
0.548491	2.69522	0.455389	2.22847	0.531048	2.69906	0.68064	3.35218	0.861036	4.23872	0.537579	2.64944	0.695012	3.43426	0.895728	4.42091		
0.551538	2.69459	0.45837	2.2302	0.528007	2.69977	0.682221	3.34058	0.86301	4.22394	0.539621	2.64415	0.697367	3.42595	0.89683	4.40075		
0.554585	2.69396	0.461349	2.2319	0.524967	2.7005	0.683803	3.32912	0.864992	4.20936	0.541668	2.63894	0.69973	3.41777	0.897941	4.38087		
0.557632	2.69335	0.464324	2.23356	0.521928	2.70124	0.685387	3.31779	0.86698	4.19497	0.543721	2.63381	0.7021	3.40972	0.89906	4.36125		
0.56068	2.69274	0.467296	2.23518	0.518891	2.70201	0.686972	3.3066	0.868974	4.18078	0.545779	2.62878	0.704476	3.40179	0.900186	4.34189		
0.563728	2.69214	0.470264	2.23677	0.515855	2.70278	0.688558	3.29554	0.870974	4.16678	0.547842	2.62382	0.706858	3.39397	0.901321	4.32279		
0.566775	2.69155	0.473228	2.23832	0.512821	2.70358	0.690146	3.28461	0.87298	4.15296	0.549912	2.61895	0.709246	3.38628	0.902465	4.30395		
0.569823	2.69096	0.476189	2.23984	0.509789	2.7044	0.691736	3.27382	0.874991	4.13932	0.551987	2.61416	0.71164	3.3787	0.903617	4.28536		
0.572871	2.69038	0.479146	2.24132	0.506759	2.70524	0.693328	3.26315	0.877008	4.12586	0.55407	2.60946	0.714039	3.37122	0.904778	4.26702		
0.575918	2.6898	0.482098	2.24277	0.503731	2.7061	0.694923	3.25262	0.879029	4.11257	0.556159	2.60484	0.716443	3.36386	0.905947	4.24892		
0.578965	2.68923	0.485046	2.24418	0.500705	2.70698	0.69652	3.24221	0.881056	4.09944	0.558255	2.60031	0.718852	3.35659	0.907125	4.23106		
0.582011	2.68866	0.48799	2.24556	0.497682	2.70789	0.69812	3.23193	0.883087	4.08649	0.560358	2.59585	0.721265	3.34943	0.908313	4.21343		
0.585057	2.6881	0.49093	2.2469	0.494662	2.70883	0.699723	3.22177	0.885123	4.07369	0.562469	2.59148	0.723682	3.34236	0.909509	4.19605		
0.588102	2.68754	0.493864	2.2482	0.491644	2.70979	0.701329	3.21174	0.887163	4.06105	0.564588	2.5872	0.726103	3.33539	0.910715	4.17889		
0.591147	2.68698	0.496794	2.24947	0.48863	2.71078	0.702939	3.20183	0.889207	4.04857	0.566715	2.583	0.728528	3.32851	0.91193	4.16196		
0.594191	2.68642	0.499719	2.25071	0.485619	2.71181	0.704552	3.19204	0.891254	4.03623	0.56885	2.57887	0.730955	3.32172	0.913155	4.14525		
0.597234	2.68587	0.502639	2.2519	0.482611	2.71287	0.706168	3.18237	0.893306	4.02405	0.570994	2.57484	0.733386	3.31501	0.914389	4.12876		
0.600276	2.68532	0.505553	2.25307	0.479607	2.71396	0.707789	3.17282	0.89536	4.012	0.573146	2.57088	0.73582	3.30839	0.915633	4.1125		
0.603316	2.68477	0.508462	2.25419	0.476607	2.71509	0.709413	3.16339	0.897418	4.0001	0.575308	2.56701	0.738256	3.30184	0.916887	4.09645		
0.606356	2.68422	0.511366	2.25528	0.473612	2.71627	0.711042	3.15408	0.899479	3.98833	0.577479	2.56322	0.740695	3.29538	0.918151	4.08061		
0.609394	2.68367	0.514263	2.25633	0.470621	2.71748	0.712675	3.14489	0.901542	3.9767	0.57966	2.55951	0.743135	3.28899	0.919425	4.06498		
0.612431	2.68312	0.517155	2.25735	0.467635	2.71874	0.714313	3.13581	0.903609	3.9652	0.581851	2.55588	0.745577	3.28268	0.920709	4.04956		
0.615467	2.68256	0.520041	2.25833	0.464654	2.72004	0.715956	3.12684	0.905677	3.95383	0.584051	2.55234	0.74802	3.27643	0.922004	4.03434		
0.618501	2.68201	0.522921	2.25927	0.461679	2.7214	0.717604	3.11799	0.907748	3.94259	0.586262	2.54887	0.750465	3.27026	0.923309	4.01932		
0.621533	2.68146	0.525794	2.26017	0.458709	2.72281	0.719257	3.10925	0.909821	3.93147	0.588484	2.54549	0.75291	3.26415	0.924624	4.0045		
0.624563	2.6809	0.52866	2.26104	0.455746	2.72428	0.720916	3.10062	0.911895	3.92047	0.590716	2.54218	0.755357	3.25811	0.925951	3.98988		
0.627592	2.68034	0.53152	2.26187	0.45279	2.72581	0.72258	3.09211	0.913971	3.90959	0.59296	2.53896	0.757803	3.25213	0.927288	3.97546		
0.630618	2.67978	0.534373	2.26267	0.44984	2.72741	0.72425	3.0837	0.916049	3.89882	0.595214	2.53582	0.76025	3.24622	0.928636	3.96122		
0.633642	2.67921	0.53722	2.26342	0.446899	2.72907	0.725926	3.07541	0.918128	3.88816	0.59748	2.53275	0.762697	3.24036	0.929995	3.94718		
0.636664	2.67864	0.540059	2.26414	0.443965	2.73081	0.727608	3.06722	0.920207	3.87762	0.599758	2.52977	0.765144	3.23456	0.931366	3.93332		
0.639684	2.67806	0.542891	2.26482	0.44104	2.73263	0.729297	3.05914	0.922288	3.86718	0.602047	2.52687	0.76759	3.22881	0.932747	3.91965		
0.642701	2.67748	0.545715	2.26547	0.438125	2.73453	0.730992	3.05117	0.92437	3.85685	0.604348	2.52404	0.770035	3.22312	0.934141	3.90616		
0.645715	2.6769	0.548532	2.26608	0.435219	2.73652	0.732694	3.0433	0.926452	3.84662	0.606662	2.52129	0.772479	3.21748	0.935545	3.89285		
0.648726	2.67631	0.551341	2.26665	0.432324	2.73861	0.734404	3.03554	0.928534	3.8365	0.608988	2.51862	0.774923	3.21189	0.936962	3.87972		
0.651735	2.67571	0.554143	2.26718	0.42944	2.74081	0.73612	3.02789	0.930617	3.82647	0.611326	2.51603	0.777364	3.20635	0.93839	3.86676		
0.65474	2.67511	0.556937	2.26768	0.426568	2.74311	0.737845	3.02034	0.932699	3.81654	0.613677	2.51352	0.779805	3.20085	0.93983	3.85398		
0.657742	2.67449	0.559722	2.26814	0.423709	2.74553	0.739577	3.0129	0.934782	3.8067	0.616041	2.51108	0.782243	3.19541	0.941282	3.84137		
0.660741	2.67387	0.5625	2.26856	0.420864	2.74809	0.741316	3.00555	0.936864	3.79696	0.618418	2.50872	0.784679	3.19	0.942746	3.82893		
0.663735	2.67324	0.56527	2.26895	0.418034	2.75077	0.743065	2.99832	0.938946	3.78731	0.620808	2.50643	0.787113	3.18464	0.944222	3.81666		
0.666727	2.6726	0.568032	2.2693	0.415219	2.7536	0.744821	2.99118	0.941027	3.77774	0.623211	2.50422	0.789545	3.17932	0.945711	3.80455		
0.669714	2.67196	0.570785	2.26961	0.412422	2.75659	0.746587	2.98415	0.943108	3.76827	0.625628	2.50208	0.791974	3.17404	0.947212	3.79261		
0.672697	2.6713	0.57353	2.26989	0.409642	2.75975	0.748361	2.97721	0.945187	3.75888	0.628058	2.50001	0.7944	3.16879	0.948726	3.78083		
0.675675	2.67063	0.576266	2.27013	0.406881	2.76309	0.750144	2.97038	0.947266	3.74957	0.630501	2.49802	0.796823	3.16359	0.950252	3.76921		
0.678649	2.66994	0.578995	2.27034	0.404141	2.76663	0.751937	2.96365	0.949343	3.74034	0.632958	2.4961	0.799243	3.15841	0.951791	3.75775		
0.681618	2.66925	0.581715	2.27051	0.401423	2.77037	0.75374	2.95702	0.951419	3.7312	0.635428	2.49425	0.801659	3.15328	0.953343	3.74644		
0.684582	2.66854	0.584426	2.27065	0.398729	2.77434	0.755553	2.95049	0.953493	3.72213	0.637912	2.49247	0.804072	3.14818	0.954908	3.73529		
0.687541	2.66782	0.587129	2.27075	0.396059	2.77855	0.757376	2.94406	0.955566	3.71314	0.64041	2.49076	0.806481	3.1431	0.956486	3.7243		
0.690494	2.66708	0.589824	2.27083	0.393416	2.78302	0.75921	2.93773	0.957637	3.70422	0.642921	2.48911	0.808886	3.13806	0.958078	3.71345		
0.693442	2.66633	0.592511	2.27086	0.390801	2.78776	0.761054	2.9315	0.959707	3.69538	0.645446	2.48754	0.811287	3.13305	0.959682	3.70276		
0.696383	2.66556	0.595189	2.27087	0.388217	2.7928	0.76291	2.92537	0.961774	3.68661	0.647984	2.48603	0.813684	3.12807	0.961299	3.69221		
0.699319	2.66478	0.597859	2.27085	0.385664	2.79816	0.764778	2.91934	0.963839	3.67792	0.650536	2.48459	0.816076	3.12312	0.962931	3.68181		
0.702247	2.66397	0.600521	2.27079	0.383145	2.80386	0.766657	2.91341	0.965902	3.66929	0.653102	2.48321	0.818464	3.1182	0.964575	3.67155		
0.705169	2.66315	0.603175	2.27071	0.380662	2.80993	0.768548	2.90757	0.967963	3.66073	0.655681	2.4819	0.820847	3.1133	0.966233	3.66144		
0.708084	2.66231	0.605821	2.2706	0.378217	2.81637	0.770452	2.90184	0.970021	3.65223	0.658273	2.48064	0.823225	3.10842	0.967905	3.65147		
0.710991	2.66145	0.608459	2.27046	0.375811	2.82324	0.772369	2.8962	0.972077	3.6438	0.660879	2.47945	0.825598	3.10357	0.96959	3.64163		
0.713891	2.66056	0.611089	2.27029	0.373446	2.83053	0.774299	2.89066	0.97413	3.63544	0.663498	2.47832	0.827966	3.09874	0.971289	3.63194		
0.716782	2.65966	0.613712	2.27009	0.371126	2.8383	0.776243	2.88523	0.97618	3.62714	0.66613	2.47724	0.830328	3.09394	0.973002	3.62238		
0.719665	2.65873	0.616327	2.26987	0.36885	2.84655	0.7782	2.87989	0.978227	3.6189	0.668774	2.47623	0.832686	3.08916	0.974729	3.61296		
0.72254	2.65778	0.618935	2.26963	0.366622	2.85532	0.780172	2.87465	0.980271	3.61072	0.671432	2.47527	0.835037	3.0844	0.97647	3.60367		
0.725405	2.6568	0.621536	2.26936	0.364442	2.86464	0.782159	2.86951	0.982312	3.6026	0.674102	2.47436	0.837383	3.07965	0.978225	3.59451		
0.728261	2.65579	0.62413	2.26906	0.362312	2.87452	0.78416	2.86447	0.984351	3.59454	0.676785	2.47351	0.839723	3.07493	0.979993	3.58548		
0.731107	2.65476	0.626717	2.26875	0.360234	2.88501	0.786178	2.85952	0.986386	3.58653	0.67948	2.4727	0.842058	3.07023	0.981776	3.57659		
0.733943	2.65371	0.629297	2.26841	0.358208	2.89612	0.78821	2.85468	0.988417	3.57858	0.682187	2.47195	0.844386	3.06555	0.983573	3.56781		
0.736768	2.65262	0.631871	2.26805	0.356237	2.90789	0.79026	2.84994	0.990445	3.57069	0.684906	2.47125	0.846708	3.06088	0.985384	3.55917		
0.739583	2.6515	0.634439	2.26768	0.354319	2.92033	0.792325	2.8453	0.99247	3.56285	0.687636	2.4706	0.849024	3.05624	0.987209	3.55064		
0.742386	2.65035	0.637001	2.26728	0.352457	2.93347	0.794408	2.84075	0.994491	3.55507	0.690379	2.46999	0.851334	3.0516	0.989048	3.54225		
0.745178	2.64918	0.639556	2.26687	0.35065	2.94734	0.796509	2.83631	0.996509	3.54734	0.693132	2.46943	0.853638	3.04699	0.990901	3.53397		
0.747958	2.64796	0.642107	2.26644	0.348898	2.96196	0.798627	2.83197	0.998523	3.53966	0.695897	2.46892	0.855935	3.04239	0.992769	3.52581		
0.750726	2.64672	0.644651	2.266	0.347202	2.97735	0.800763	2.82773	1.00053	3.53203	0.698672	2.46844	0.858226	3.03781	0.99465	3.51777		
0.753481	2.64544	0.647191	2.26554	0.345561	2.99354	0.802917	2.82358			0.701458	2.46801	0.86051	3.03324	0.996546	3.50984		
0.756223	2.64413	0.649725	2.26507	0.343976	3.01053	0.805091	2.81954			0.704255	2.46762	0.862788	3.02869	0.998455	3.50203		
0.758952	2.64278	0.652255	2.26458	0.342445	3.02837	0.807284	2.8156			0.707061	2.46726	0.86506	3.02415	1.00038	3.49433		
0.761668	2.6414	0.65478	2.26409	0.340968	3.04706	0.809496	2.81176			0.709878	2.46695	0.867324	3.01963				
0.76437	2.63998	0.657301	2.26358	0.339544	3.06664	0.811728	2.80802			0.712705	2.46667	0.869583	3.01512				
0.767058	2.63852	0.659818	2.26306	0.338172	3.08711	0.81398	2.80437			0.71554	2.46642	0.871834	3.01062				
0.769732	2.63703	0.66233	2.26253	0.336853	3.10851	0.816252	2.80083			0.718386	2.46621	0.874079	3.00614				
0.772392	2.6355	0.664839	2.262	0.335584	3.13085	0.818544	2.79738			0.72124	2.46603	0.876317	3.00168				
0.775038	2.63394	0.667345	2.26145	0.334365	3.15415	0.820858	2.79404			0.724103	2.46588	0.878549	2.99722				
0.777669	2.63234	0.669847	2.2609	0.333195	3.17845	0.823192	2.79079			0.726974	2.46577	0.880774	2.99278				
0.780285	2.6307	0.672346	2.26035	0.332073	3.20377	0.825547	2.78763			0.729854	2.46568	0.882993	2.98835				
0.782887	2.62902	0.674841	2.25978	0.330999	3.23013	0.827923	2.78457			0.732742	2.46562	0.885204	2.98393				
0.785474	2.62731	0.677334	2.25922	0.329971	3.25756	0.830319	2.78161			0.735638	2.46559	0.88741	2.97953				
0.788046	2.62557	0.679825	2.25865	0.328988	3.2861	0.832737	2.77874			0.738542	2.46558	0.889609	2.97514				
0.790605	2.62379	0.682313	2.25807	0.32805	3.31576	0.835175	2.77596			0.741453	2.4656	0.891801	2.97076				
0.793149	2.62198	0.684799	2.25749	0.327156	3.34659	0.837634	2.77327			0.744372	2.46564	0.893987	2.9664				
0.795679	2.62014	0.687283	2.25691	0.326306	3.37861	0.840114	2.77067			0.747297	2.46571	0.896166	2.96205				
0.798195	2.61826	0.689765	2.25633	0.325497	3.41188	0.842614	2.76815			0.75023	2.46579	0.89834	2.95771				
0.800698	2.61635	0.692245	2.25575	0.324731	3.44642	0.845134	2.76572			0.753169	2.4659	0.900506	2.95339				
0.803187	2.61442	0.694723	2.25516	0.324005	3.48227	0.847674	2.76338			0.756115	2.46603	0.902667	2.94907				
0.805663	2.61246	0.697201	2.25458	0.32332	3.51949	0.850233	2.76111			0.759067	2.46618	0.904822	2.94478				
0.808127	2.61047	0.699677	2.254	0.322675	3.55811	0.852812	2.75893			0.762025	2.46635	0.906971	2.94049				
0.810579	2.60846	0.702151	2.25341	0.322069	3.59819	0.855409	2.75682			0.764989	2.46653	0.909113	2.93622				
0.813019	2.60643	0.704625	2.25283	0.321502	3.63978	0.858025	2.75479			0.767959	2.46673	0.91125	2.93196				
0.815448	2.60438	0.707098	2.25225	0.320973	3.68293	0.860659	2.75283			0.770934	2.46695	0.913381	2.92772				
0.817866	2.60231	0.70957	2.25168	0.320482	3.7277	0.86331	2.75094			0.773915	2.46719	0.915507	2.92348				
0.820274	2.60022	0.712042	2.2511	0.320028	3.77416	0.865978	2.74912			0.776901	2.46744	0.917627	2.91927				
0.822672	2.59811	0.714513	2.25053	0.319612	3.82237	0.868663	2.74736			0.779892	2.4677	0.919741	2.91507				
0.82506	2.59599	0.716984	2.24996	0.319232	3.8724	0.871364	2.74567			0.782889	2.46798	0.92185	2.91088				
0.82744	2.59386	0.719455	2.24939	0.318887	3.92433	0.87408	2.74404			0.78589	2.46827	0.923954	2.9067				
0.829811	2.59172	0.721925	2.24883	0.318579	3.97823	0.876812	2.74247			0.788896	2.46857	0.926053	2.90255				
0.832175	2.58957	0.724396	2.24827	0.318306	4.03419	0.879558	2.74095			0.791906	2.46889	0.928147	2.8984				
0.834531	2.58742	0.726866	2.24772	0.318068	4.0923	0.882318	2.73949			0.794921	2.46921	0.930236	2.89428				
0.836881	2.58525	0.729337	2.24717	0.317865	4.15265	0.885091	2.73808			0.79794	2.46955	0.93232	2.89016				
0.839224	2.58309	0.731808	2.24662	0.317696	4.21534	0.887878	2.73673			0.800963	2.4699	0.9344	2.88607				
0.841562	2.58092	0.734279	2.24608	0.31756	4.28048	0.890677	2.73542			0.80399	2.47026	0.936475	2.88199				
0.843894	2.57875	0.73675	2.24555	0.317459	4.34819	0.893488	2.73416			0.807021	2.47062	0.938546	2.87792				
0.846222	2.57659	0.739222	2.24502	0.317391	4.41858	0.896311	2.73294			0.810056	2.471	0.940613	2.87387				
0.848545	2.57442	0.741695	2.2445	0.317356	4.49179	0.899144	2.73176			0.813095	2.47139	0.942676	2.86984				
0.850864	2.57226	0.744168	2.24398	0.317354	4.56795	0.901989	2.73063			0.816137	2.47178	0.944735	2.86583				
0.85318	2.57011	0.746642	2.24346	0.317384	4.64722	0.904843	2.72953			0.819183	2.47218	0.946789	2.86183				
0.855493	2.56796	0.749117	2.24296	0.317446	4.72975	0.907707	2.72847			0.822232	2.47259	0.948841	2.85785				
0.857803	2.56582	0.751593	2.24246	0.31754	4.81571	0.910581	2.72744			0.825284	2.473	0.950889	2.85389				
0.860111	2.56368	0.754069	2.24196	0.317666	4.90528	0.913464	2.72645			0.82834	2.47342	0.952933	2.84994				
0.862418	2.56156	0.756547	2.24148	0.317822	4.99867	0.916355	2.7255			0.831399	2.47385	0.954974	2.84602				
0.864723	2.55945	0.759025	2.24099	0.31801	5.09608	0.919254	2.72457			0.83446	2.47428	0.957012	2.84211				
0.867026	2.55734	0.761505	2.24052	0.318228	5.19774	0.922161	2.72367			0.837525	2.47472	0.959047	2.83822				
0.869329	2.55526	0.763985	2.24005	0.318477	5.30389	0.925075	2.7228			0.840592	2.47517	0.96108	2.83435				
0.871632	2.55318	0.766467	2.23959	0.318755	5.4148	0.927997	2.72196			0.843663	2.47562	0.963109	2.8305				
0.873935	2.55112	0.76895	2.23913	0.319063	5.53076	0.930925	2.72114			0.846736	2.47607	0.965137	2.82666				
0.876237	2.54907	0.771434	2.23868	0.3194	5.65207	0.93386	2.72035			0.849811	2.47653	0.967161	2.82285				
0.87854	2.54704	0.773919	2.23824	0.319766	5.77907	0.936801	2.71958			0.852889	2.47699	0.969184	2.81906				
0.880844	2.54502	0.776406	2.2378	0.320161	5.91213	0.939748	2.71883			0.85597	2.47746	0.971204	2.81528				
0.883149	2.54302	0.778894	2.23738	0.320584	6.05164	0.9427	2.71811			0.859053	2.47793	0.973222	2.81153				
0.885455	2.54104	0.781383	2.23695	0.321035	6.19803	0.945658	2.7174			0.862138	2.47841	0.975239	2.80779				
0.887763	2.53907	0.783874	2.23654	0.321513	6.35179	0.948621	2.71671			0.865226	2.47888	0.977254	2.80408				
0.890073	2.53713	0.786366	2.23613	0.322019	6.51342	0.951588	2.71605			0.868315	2.47937	0.979267	2.80039				
0.892384	2.5352	0.78886	2.23573	0.32255	6.6835	0.954561	2.7154			0.871407	2.47985	0.981279	2.79671				
0.894697	2.53329	0.791355	2.23533	0.323109	6.86265	0.957537	2.71476			0.874501	2.48034	0.983289	2.79306				
0.897013	2.5314	0.793852	2.23495	0.323693	7.05156	0.960518	2.71415			0.877598	2.48082	0.985298	2.78943				
0.899332	2.52953	0.79635	2.23457	0.324302	7.251	0.963503	2.71354			0.880696	2.48132	0.987307	2.78582				
0.901653	2.52768	0.798849	2.23419	0.324937	7.4618	0.966492	2.71296			0.883796	2.48181	0.989314	2.78223				
0.903977	2.52585	0.801351	2.23382	0.325509	7.6555	0.969484	2.71238			0.886898	2.4823	0.99132	2.77867				
0.906304	2.52404	0.803853	2.23346	0.326012	7.8285	0.97248	2.71182			0.890001	2.4828	0.993326	2.77512				
0.908634	2.52225	0.806357	2.23311	0.326437	7.9774	0.975478	2.71127			0.893107	2.4833	0.995331	2.7716				
0.910968	2.52048	0.808863	2.23276	0.32678	8.09906	0.97848	2.71074			0.896214	2.4838	0.997336	2.7681				
0.913305	2.51874	0.811371	2.23242	0.327035	8.19084	0.981485	2.71022			0.899323	2.4843	0.99934	2.76462				
0.915645	2.51701	0.81388	2.23209	0.327273	8.27706	0.984493	2.7097			0.902434	2.48481	1.00134	2.76116				
0.91799	2.51531	0.816391	2.23176	0.327439	8.33808	0.987503	2.7092			0.905546	2.48531						
0.920338	2.51363	0.818903	2.23144	0.327702	8.43518	0.990516	2.70871			0.90866	2.48582						
0.92269	2.51196	0.821417	2.23112	0.328064	8.57078	0.993531	2.70822			0.911775	2.48632						
0.925046	2.51032	0.823932	2.23081	0.328529	8.74839	0.996548	2.70775			0.914892	2.48683						
0.927407	2.50871	0.82645	2.23051	0.329102	8.97283	0.999568	2.70729			0.91801	2.48734						
0.929771	2.50711	0.828968	2.23022	0.329789	9.25058	1.00259	2.70683			0.92113	2.48785						
0.932141	2.50554	0.831489	2.22993	0.330597	9.59026					0.924251	2.48836						
0.934514	2.50399	0.834011	2.22964	0.331424	9.95458					0.927374	2.48887						
0.936892	2.50245	0.836535	2.22937	0.33227	10.3462					0.930497	2.48938						
0.939275	2.50095	0.83906	2.2291	0.333134	10.7683					0.933622	2.48989						
0.941662	2.49946	0.841587	2.22883	0.334014	11.2243					0.936749	2.4904						
0.944054	2.49799	0.844116	2.22857	0.334911	11.7185					0.939876	2.49091						
0.946451	2.49655	0.846647	2.22832	0.335822	12.2558					0.943005	2.49142						
0.948852	2.49513	0.849179	2.22807	0.336747	12.8419					0.946135	2.49193						
0.951259	2.49373	0.851712	2.22783	0.337683	13.4836					0.949266	2.49244						
0.95367	2.49235	0.854248	2.2276	0.33863	14.1891					0.952398	2.49295						
0.956087	2.491	0.856785	2.22737	0.339586	14.9683					0.955532	2.49346						
0.958509	2.48966	0.859323	2.22715	0.340548	15.8332					0.958666	2.49397						
0.960935	2.48835	0.861863	2.22693	0.341514	16.7985					0.961801	2.49448						
0.963367	2.48705	0.864405	2.22671	0.342481	17.8828					0.964938	2.49499						
0.965804	2.48578	0.866949	2.22651	0.343448	19.1091					0.968075	2.49549						
0.968247	2.48453	0.869494	2.2263	0.344409	20.5073					0.971213	2.496						
0.970694	2.4833	0.87204	2.22611	0.345361	22.1159					0.974353	2.49651						
0.973147	2.48209	0.874588	2.22592	0.346299	23.9862					0.977493	2.49701						
0.975605	2.48091	0.877138	2.22573	0.347218	26.1875					0.980634	2.49752						
0.978068	2.47974	0.879689	2.22555	0.348111	28.8161					0.983776	2.49802						
0.980537	2.47859	0.882242	2.22537	0.348971	32.0101					0.986919	2.49853						
0.983011	2.47747	0.884797	2.2252	0.349789	35.974					0.990063	2.49903						
0.985491	2.47636	0.887353	2.22503	0.350557	41.0253					0.993207	2.49953						
0.987976	2.47527	0.88991	2.22487	0.351263	47.6846					0.996352	2.50003						
0.990466	2.47421	0.892469	2.22471	0.351895	56.8686					0.999498	2.50053						
0.992962	2.47316	0.89503	2.22456	0.352442	70.3569					1.00265	2.50103						
0.995463	2.47213	0.897592	2.22441	0.352891	92.1186												
0.99797	2.47113	0.900155	2.22427	0.353232	133.178												
1.00048	2.47014	0.90272	2.22413	0.353453	239.822												
		0.905286	2.224	0.353549	1197.24												
		0.907854	2.22387														
		0.910423	2.22374														
		0.912994	2.22362														
		0.915566	2.2235														
		0.91814	2.22339														
		0.920714	2.22328														
		0.923291	2.22317														
		0.925868	2.22307														
		0.928447	2.22297														
		0.931027	2.22288														
		0.933609	2.22279														
		0.936191	2.2227														
		0.938776	2.22261														
		0.941361	2.22253														
		0.943947	2.22246														
		0.946535	2.22238														
		0.949124	2.22231														
		0.951714	2.22224														
		0.954306	2.22218														
		0.956898	2.22212														
		0.959492	2.22206														
		0.962087	2.22201														
		0.964682	2.22195														
		0.967279	2.2219														
		0.969878	2.22186														
		0.972477	2.22181														
		0.975077	2.22177														
		0.977678	2.22173														
		0.980281	2.2217														
		0.982884	2.22166														
		0.985488	2.22163														
		0.988093	2.2216														
		0.9907	2.22157														
		0.993307	2.22155														
		0.995915	2.22153														
		0.998524	2.22151														
		1.00113	2.22149														
