Sym0		Asym0		Sym1		Sym2		Sym3		Asym1		Asym2		Asym3		Asym4	
340  Points		380  Points		340  Points		320  Points		238  Points		345  Points		300  Points		234  Points		124  Points	
Freq (MHz)	Vph (m/ms)	Freq (MHz)	Vph (m/ms)	Freq (MHz)	Vph (m/ms)	Freq (MHz)	Vph (m/ms)	Freq (MHz)	Vph (m/ms)	Freq (MHz)	Vph (m/ms)	Freq (MHz)	Vph (m/ms)	Freq (MHz)	Vph (m/ms)	Freq (MHz)	Vph (m/ms)
0.353553	2435.27	0.00026741	0.101063	1.00201	2.54328	0.423228	1320.05	0.707107	20242.5	0.176785	377.072	0.530333	502.242	0.84645	3772.86	0.883892	876.412
0.353528	267.078	0.000557726	0.145831	0.999569	2.5447	0.423283	282.353	0.707112	582.732	0.176877	107.371	0.530342	237.349	0.846451	603.374	0.883922	404.162
0.353464	141.261	0.00095229	0.190344	0.997134	2.54615	0.423409	158.128	0.707126	295.627	0.177072	62.6614	0.530359	155.396	0.846454	327.908	0.883973	262.653
0.353361	96.0034	0.00144987	0.23455	0.994702	2.5476	0.423607	109.852	0.707149	198.055	0.177369	44.2938	0.530382	115.515	0.846459	225.129	0.884048	194.55
0.353219	72.6905	0.0020487	0.278355	0.992271	2.54907	0.423874	84.1911	0.707182	148.912	0.177766	34.2988	0.530413	91.9263	0.846465	171.405	0.884144	154.501
0.353041	58.4724	0.00274678	0.321693	0.989842	2.55055	0.42421	68.2759	0.707223	119.312	0.178263	28.0227	0.53045	76.3404	0.846473	138.383	0.884262	128.134
0.352826	48.8933	0.00354204	0.364519	0.987415	2.55205	0.424613	57.4447	0.707274	99.532	0.178858	23.7215	0.530494	65.2755	0.846484	116.029	0.884401	109.461
0.352578	41.9997	0.00443188	0.406761	0.98499	2.55356	0.425083	49.6001	0.707334	85.3803	0.179548	20.5942	0.530545	57.0141	0.846496	99.8941	0.884563	95.5446
0.352296	36.8	0.00541384	0.448386	0.982565	2.55508	0.425616	43.6588	0.707404	74.7545	0.180332	18.221	0.530604	50.6107	0.84651	87.699	0.884746	84.7732
0.351984	32.7373	0.00648494	0.489335	0.980142	2.55661	0.426212	39.0047	0.707482	66.4831	0.181207	16.3611	0.530669	45.502	0.846526	78.158	0.884951	76.1895
0.351643	29.4748	0.00764246	0.529584	0.97772	2.55816	0.426869	35.2617	0.70757	59.8619	0.18217	14.8662	0.530741	41.3316	0.846544	70.4898	0.885178	69.1888
0.351276	26.7969	0.00888324	0.569089	0.975299	2.55972	0.427583	32.1873	0.707667	54.442	0.183218	13.64	0.53082	37.8629	0.846565	64.1922	0.885425	63.3707
0.350884	24.5591	0.0102042	0.607824	0.972879	2.56129	0.428354	29.6177	0.707774	49.9238	0.184349	12.6172	0.530907	34.9325	0.846588	58.928	0.885694	58.4591
0.35047	22.6609	0.0116024	0.645774	0.970459	2.56287	0.429178	27.4388	0.707889	46.0998	0.18556	11.7521	0.531001	32.4244	0.846614	54.4621	0.885984	54.2577
0.350036	21.0303	0.0130745	0.682913	0.968039	2.56446	0.430054	25.5684	0.708014	42.8215	0.186846	11.0117	0.531102	30.2534	0.846642	50.6258	0.886295	50.6232
0.349584	19.6144	0.0146175	0.719239	0.96562	2.56606	0.43098	23.9456	0.708149	39.9799	0.188206	10.3715	0.53121	28.356	0.846672	47.2948	0.886627	47.4482
0.349116	18.3732	0.0162284	0.754736	0.9632	2.56767	0.431953	22.5248	0.708293	37.4934	0.189449	9.88077	0.531325	26.6835	0.846706	44.3754	0.886979	44.651
0.348635	17.2764	0.0179041	0.789401	0.96078	2.56929	0.43297	21.2706	0.708446	35.2994	0.190549	9.50416	0.531448	25.1983	0.846742	41.7958	0.887352	42.168
0.348143	16.3001	0.0196418	0.823239	0.958359	2.57092	0.434032	20.1558	0.708608	33.3492	0.191485	9.21803	0.531579	23.8707	0.846782	39.4999	0.887745	39.9494
0.347641	15.4254	0.0214385	0.856249	0.955938	2.57256	0.435134	19.1585	0.70878	31.6044	0.192243	9.00631	0.531717	22.6768	0.846824	37.4435	0.888158	37.9551
0.347132	14.6374	0.0232914	0.888435	0.953515	2.5742	0.436275	18.2612	0.708962	30.0342	0.192809	8.85817	0.531862	21.5974	0.84687	35.5909	0.888591	36.1528
0.346617	13.9238	0.0251978	0.919806	0.951091	2.57585	0.437454	17.4497	0.709153	28.6137	0.193175	8.76652	0.532015	20.617	0.84692	33.9133	0.889043	34.5162
0.346099	13.2745	0.0271553	0.950376	0.948665	2.57751	0.438668	16.7125	0.709353	27.3226	0.193708	8.63886	0.532176	19.7225	0.846973	32.387	0.889515	33.0236
0.345579	12.6813	0.0291613	0.980154	0.946238	2.57917	0.439916	16.0399	0.709563	26.1439	0.194294	8.50534	0.532345	18.9032	0.84703	30.9925	0.890007	31.6567
0.345058	12.1373	0.0312134	1.00915	0.943808	2.58084	0.441197	15.4238	0.709783	25.0637	0.195102	8.33195	0.532521	18.1499	0.84709	29.7135	0.890518	30.4006
0.344538	11.6367	0.0333093	1.03739	0.941375	2.58251	0.442508	14.8575	0.710012	24.0701	0.196144	8.12523	0.532706	17.4551	0.847154	28.5361	0.891047	29.2422
0.344021	11.1744	0.035447	1.06488	0.93894	2.58419	0.443849	14.3353	0.710251	23.1531	0.197431	7.89234	0.532898	16.8121	0.847223	27.4487	0.891596	28.1706
0.343508	10.7464	0.0376243	1.09164	0.936502	2.58586	0.445217	13.8522	0.710499	22.3044	0.198978	7.64051	0.533099	16.2156	0.847296	26.4415	0.892163	27.1766
0.343001	10.349	0.0398393	1.11769	0.93406	2.58754	0.446612	13.4042	0.710757	21.5164	0.200801	7.37668	0.533308	15.6605	0.847373	25.5059	0.892749	26.252
0.3425	9.97902	0.04209	1.14304	0.931614	2.58922	0.448033	12.9874	0.711025	20.7831	0.202671	7.13642	0.533525	15.1429	0.847454	24.6344	0.893353	25.3899
0.342007	9.63386	0.0443748	1.16772	0.929164	2.59089	0.449477	12.5989	0.711303	20.0988	0.204587	6.91684	0.533751	14.6589	0.84754	23.8209	0.893974	24.5841
0.341523	9.31113	0.046692	1.19174	0.926709	2.59257	0.450945	12.2358	0.711591	19.459	0.206545	6.71548	0.533985	14.2056	0.847631	23.0596	0.894614	23.8294
0.34105	9.00876	0.0490399	1.21511	0.924249	2.59424	0.452435	11.8959	0.711888	18.8593	0.208544	6.53026	0.534228	13.78	0.847726	22.3458	0.895272	23.1212
0.340587	8.72493	0.0514171	1.23787	0.921785	2.59591	0.453946	11.5769	0.712196	18.2962	0.210582	6.35938	0.534479	13.3798	0.847826	21.6751	0.895947	22.4551
0.340136	8.45804	0.0538222	1.26002	0.919314	2.59757	0.455477	11.277	0.712513	17.7665	0.212656	6.2013	0.53474	13.0027	0.847931	21.0438	0.896639	21.8278
0.339699	8.20666	0.0562537	1.28158	0.916837	2.59923	0.457027	10.9945	0.71284	17.2672	0.214764	6.05469	0.535009	12.6468	0.848042	20.4484	0.897349	21.2358
0.339275	7.96952	0.0587105	1.30258	0.914354	2.60088	0.458595	10.7281	0.713178	16.7959	0.216904	5.91839	0.535287	12.3105	0.848157	19.8861	0.898075	20.6763
0.338866	7.74549	0.0611914	1.32303	0.911864	2.60252	0.460181	10.4764	0.713525	16.3503	0.219075	5.79139	0.535575	11.992	0.848278	19.3541	0.898818	20.1468
0.338473	7.53357	0.063695	1.34294	0.909367	2.60416	0.461784	10.2382	0.713883	15.9284	0.221275	5.67281	0.535872	11.6902	0.848404	18.8502	0.899578	19.6449
0.338095	7.33283	0.0662206	1.36234	0.906863	2.60578	0.463403	10.0125	0.714251	15.5283	0.223501	5.56186	0.536178	11.4037	0.848535	18.372	0.900355	19.1685
0.337735	7.14245	0.0687668	1.38124	0.90435	2.60739	0.464826	9.8252	0.714629	15.1484	0.225754	5.45785	0.536494	11.1314	0.848672	17.9178	0.901148	18.7158
0.337392	6.96169	0.071333	1.39965	0.901829	2.60898	0.466048	9.67205	0.715018	14.7872	0.228031	5.36017	0.536819	10.8723	0.848814	17.4857	0.901956	18.2851
0.337068	6.78989	0.073918	1.41759	0.8993	2.61057	0.467064	9.54967	0.715417	14.4434	0.23033	5.26827	0.537154	10.6255	0.848962	17.0742	0.902781	17.8747
0.336762	6.62642	0.0765212	1.43508	0.896761	2.61213	0.467872	9.45551	0.715826	14.1158	0.232651	5.18168	0.537499	10.3901	0.849116	16.6819	0.903622	17.4834
0.336476	6.47074	0.0791416	1.45213	0.894214	2.61369	0.468467	9.3877	0.716246	13.8033	0.234992	5.09996	0.537854	10.1654	0.849275	16.3075	0.904479	17.1099
0.33621	6.32233	0.0817785	1.46875	0.891656	2.61522	0.46885	9.34491	0.716676	13.5049	0.237352	5.02272	0.538172	9.97771	0.849441	15.9497	0.905351	16.7529
0.335965	6.18074	0.0844311	1.48496	0.889089	2.61673	0.4694	9.28423	0.717117	13.2196	0.23973	4.9496	0.538449	9.8234	0.849612	15.6076	0.906238	16.4114
0.33574	6.04554	0.0870988	1.50077	0.886511	2.61823	0.47	9.21935	0.717569	12.9467	0.242125	4.8803	0.538682	9.69955	0.849789	15.28	0.907141	16.0845
0.335537	5.91633	0.0897809	1.5162	0.883923	2.6197	0.470819	9.13286	0.718031	12.6853	0.244536	4.81452	0.538869	9.60393	0.849972	14.9662	0.908058	15.7712
0.335356	5.79277	0.0924768	1.53125	0.881325	2.62116	0.471859	9.02627	0.718505	12.4347	0.246961	4.75202	0.539009	9.53489	0.850161	14.6652	0.908991	15.4707
0.335198	5.67451	0.0951859	1.54594	0.878715	2.62259	0.473122	8.90137	0.718989	12.1944	0.249401	4.69255	0.539099	9.49125	0.850356	14.3763	0.909938	15.1823
0.335062	5.56126	0.0979076	1.56028	0.876095	2.624	0.474612	8.76015	0.719484	11.9637	0.251853	4.6359	0.539229	9.42926	0.850558	14.0988	0.9109	14.9053
0.334949	5.45273	0.100641	1.57428	0.873463	2.62538	0.476333	8.60474	0.71999	11.742	0.254318	4.58187	0.539371	9.36285	0.850765	13.832	0.911877	14.639
0.33486	5.34867	0.103387	1.58795	0.87082	2.62674	0.478065	8.456	0.720507	11.5288	0.256795	4.5303	0.539568	9.2741	0.850979	13.5754	0.912868	14.3827
0.334796	5.24883	0.106144	1.60131	0.868165	2.62808	0.479807	8.31351	0.721035	11.3238	0.259282	4.48101	0.53982	9.1644	0.851199	13.3283	0.913873	14.1361
0.334755	5.15299	0.108911	1.61436	0.865499	2.62939	0.481559	8.1769	0.721574	11.1263	0.261779	4.43386	0.54013	9.03538	0.851425	13.0903	0.914892	13.8985
0.334739	5.06094	0.111689	1.6271	0.862822	2.63067	0.483321	8.0458	0.722125	10.9361	0.264285	4.38871	0.540501	8.88888	0.851658	12.8608	0.915925	13.6695
0.334749	4.97248	0.114476	1.63956	0.860132	2.63193	0.485091	7.9199	0.722687	10.7527	0.2668	4.34543	0.540938	8.72693	0.851897	12.6395	0.916972	13.4486
0.334778	4.89818	0.117273	1.65174	0.857432	2.63316	0.486871	7.79889	0.72326	10.5757	0.269324	4.30392	0.541386	8.57119	0.852142	12.4259	0.918033	13.2354
0.334818	4.83681	0.120079	1.66365	0.85472	2.63437	0.488658	7.6825	0.723845	10.405	0.271854	4.26405	0.541845	8.42134	0.852394	12.2196	0.919107	13.0295
0.334861	4.78738	0.122894	1.67529	0.851996	2.63554	0.490453	7.57046	0.724364	10.261	0.274392	4.22574	0.542316	8.27705	0.852652	12.0202	0.920195	12.8305
0.334903	4.74911	0.125717	1.68668	0.849261	2.6367	0.492256	7.46253	0.724813	10.1416	0.276936	4.1889	0.542799	8.13803	0.852917	11.8274	0.921295	12.6382
0.334937	4.72141	0.128548	1.69782	0.846515	2.63782	0.494066	7.3585	0.72519	10.0451	0.279486	4.15343	0.543293	8.00402	0.853188	11.6409	0.922409	12.4522
0.334961	4.70389	0.131387	1.70872	0.843758	2.63892	0.495883	7.25816	0.725491	9.9702	0.282041	4.11926	0.543799	7.87475	0.853465	11.4604	0.923536	12.2721
0.334998	4.67896	0.134234	1.71939	0.84099	2.64	0.497706	7.16132	0.725714	9.91591	0.284602	4.08632	0.544318	7.75	0.853749	11.2857	0.924676	12.0978
0.335041	4.65221	0.137088	1.72983	0.838211	2.64104	0.499535	7.06779	0.725857	9.8815	0.287167	4.05454	0.544848	7.62953	0.85404	11.1163	0.925829	11.929
0.335105	4.61641	0.139949	1.74006	0.835422	2.64207	0.50137	6.97741	0.726064	9.83249	0.289736	4.02385	0.545391	7.51315	0.854337	10.9522	0.926994	11.7653
0.335195	4.57205	0.142816	1.75006	0.832622	2.64306	0.503211	6.89002	0.726291	9.77982	0.292308	3.99421	0.545947	7.40065	0.854641	10.793	0.928172	11.6067
0.335318	4.51975	0.14569	1.75987	0.829813	2.64404	0.505056	6.80547	0.726602	9.70916	0.294884	3.96554	0.546515	7.29186	0.854951	10.6386	0.929362	11.4528
0.33548	4.4602	0.14857	1.76947	0.826993	2.64498	0.506907	6.72363	0.726999	9.6214	0.297462	3.93781	0.547096	7.18661	0.855227	10.5078	0.930564	11.3034
0.335692	4.39418	0.151457	1.77887	0.824164	2.64591	0.508762	6.64437	0.727486	9.51756	0.300043	3.91096	0.54769	7.08474	0.855466	10.3988	0.931779	11.1585
0.335932	4.33051	0.154349	1.78809	0.821326	2.64681	0.510621	6.56757	0.728065	9.39886	0.302627	3.88496	0.548297	6.98609	0.855667	10.3105	0.933005	11.0176
0.3362	4.2691	0.157246	1.79712	0.818478	2.64769	0.512484	6.49312	0.72874	9.2666	0.305212	3.85975	0.548918	6.89053	0.855827	10.2418	0.934244	10.8808
0.336495	4.20985	0.160149	1.80598	0.815621	2.64855	0.514351	6.4209	0.729428	9.1384	0.307798	3.83529	0.549552	6.79793	0.855946	10.1919	0.935494	10.7479
0.336819	4.15268	0.163057	1.81466	0.812756	2.64938	0.516222	6.35081	0.730128	9.01408	0.310385	3.81156	0.5502	6.70815	0.856023	10.1602	0.936593	10.635
0.337171	4.09748	0.165971	1.82317	0.809883	2.6502	0.518095	6.28277	0.730841	8.89348	0.312974	3.78852	0.550862	6.62108	0.856133	10.1151	0.937536	10.5409
0.337552	4.04419	0.168889	1.83151	0.807001	2.65099	0.519972	6.21668	0.731565	8.77643	0.315562	3.76613	0.551537	6.53661	0.856254	10.0664	0.938322	10.4646
0.337962	3.99273	0.171812	1.8397	0.804112	2.65176	0.521851	6.15246	0.732303	8.6628	0.318151	3.74436	0.552227	6.45463	0.85642	10.0011	0.938945	10.4051
0.338402	3.94302	0.174739	1.84772	0.801215	2.65252	0.523733	6.09003	0.733052	8.55243	0.32074	3.72319	0.552931	6.37504	0.856633	9.9197	0.939406	10.3619
0.33887	3.895	0.177671	1.8556	0.798311	2.65326	0.525616	6.02931	0.733814	8.44521	0.323329	3.70259	0.553649	6.29775	0.856893	9.82313	0.939701	10.3345
0.339369	3.84859	0.180607	1.86333	0.7954	2.65398	0.527502	5.97023	0.734589	8.341	0.325916	3.68252	0.554382	6.22267	0.857202	9.71233	0.940127	10.2953
0.339897	3.80375	0.183547	1.87092	0.792482	2.65468	0.52939	5.91273	0.735377	8.23968	0.328503	3.66297	0.55513	6.14971	0.857564	9.5884	0.940591	10.2531
0.340456	3.76041	0.186491	1.87836	0.789557	2.65536	0.531279	5.85674	0.736177	8.14115	0.331089	3.64392	0.555892	6.0788	0.857932	9.46776	0.941224	10.1964
0.341045	3.71851	0.189439	1.88567	0.786626	2.65603	0.533169	5.8022	0.736991	8.04529	0.333674	3.62534	0.55667	6.00985	0.858307	9.35029	0.942029	10.1257
0.341665	3.67801	0.192391	1.89285	0.783689	2.65669	0.535061	5.74905	0.737817	7.95201	0.336256	3.60722	0.557463	5.9428	0.858689	9.23588	0.943008	10.0417
0.342316	3.63885	0.195346	1.89989	0.780746	2.65733	0.536953	5.69724	0.738657	7.8612	0.338837	3.58952	0.558271	5.87757	0.859078	9.1244	0.944164	9.94528
0.342998	3.60099	0.198305	1.90681	0.777798	2.65796	0.538846	5.64672	0.739509	7.77279	0.341416	3.57224	0.559095	5.8141	0.859473	9.01575	0.945501	9.83724
0.343712	3.56438	0.201267	1.91361	0.774844	2.65857	0.54074	5.59743	0.740375	7.68667	0.343992	3.55535	0.559934	5.75233	0.859875	8.90982	0.946848	9.73193
0.344457	3.52898	0.204232	1.92029	0.771885	2.65917	0.542634	5.54934	0.741254	7.60277	0.346566	3.53885	0.560789	5.6922	0.860284	8.80651	0.948206	9.62925
0.345235	3.49476	0.207201	1.92685	0.76892	2.65975	0.544528	5.50239	0.742146	7.52101	0.349137	3.52271	0.56166	5.63365	0.860699	8.70574	0.949574	9.5291
0.346046	3.46167	0.210172	1.93329	0.765952	2.66033	0.546422	5.45655	0.743052	7.44132	0.351705	3.50692	0.562547	5.57663	0.861122	8.60741	0.950953	9.43139
0.346889	3.42967	0.213147	1.93963	0.762978	2.66089	0.548315	5.41177	0.743971	7.36362	0.35427	3.49147	0.563451	5.52108	0.861551	8.51143	0.952342	9.33605
0.347766	3.39874	0.216124	1.94585	0.76	2.66145	0.550208	5.36801	0.744904	7.28784	0.356831	3.47633	0.56437	5.46697	0.861987	8.41774	0.953741	9.24298
0.348677	3.36884	0.219104	1.95197	0.757018	2.66199	0.552101	5.32525	0.74585	7.21392	0.359389	3.46151	0.565307	5.41423	0.86243	8.32624	0.95515	9.1521
0.349621	3.33993	0.222087	1.95799	0.754031	2.66252	0.553992	5.28343	0.74681	7.1418	0.361943	3.44699	0.56626	5.36282	0.862879	8.23686	0.956569	9.06335
0.350601	3.312	0.224688	1.96315	0.751041	2.66304	0.555883	5.24254	0.747784	7.07142	0.364493	3.43274	0.56723	5.31271	0.863336	8.14954	0.957998	8.97666
0.351615	3.28501	0.226907	1.96749	0.748047	2.66356	0.557772	5.20254	0.748772	7.00271	0.367039	3.41878	0.568216	5.26385	0.863799	8.0642	0.959436	8.89194
0.352665	3.25894	0.228743	1.97103	0.745049	2.66406	0.55966	5.16339	0.749773	6.93564	0.369581	3.40507	0.56922	5.2162	0.864269	7.98078	0.960884	8.80915
0.353751	3.23376	0.230196	1.97381	0.742048	2.66456	0.561547	5.12507	0.750788	6.87013	0.372118	3.39162	0.570241	5.16973	0.864746	7.89922	0.962342	8.7282
0.354874	3.20945	0.231264	1.97584	0.739043	2.66505	0.563432	5.08756	0.751818	6.80615	0.374651	3.37842	0.57128	5.12439	0.86523	7.81946	0.963808	8.64906
0.356034	3.18598	0.231948	1.97713	0.736036	2.66553	0.565315	5.05081	0.752861	6.74365	0.377179	3.36545	0.572336	5.08016	0.865721	7.74145	0.965284	8.57165
0.357232	3.16334	0.232931	1.97898	0.733025	2.66601	0.567197	5.01482	0.753918	6.68258	0.379702	3.3527	0.573409	5.037	0.866219	7.66512	0.966769	8.49593
0.358468	3.1415	0.234	1.98098	0.730011	2.66648	0.569076	4.97955	0.75499	6.62289	0.382219	3.34018	0.5745	4.99487	0.866723	7.59042	0.968263	8.42183
0.359744	3.12045	0.235454	1.98368	0.726995	2.66694	0.570953	4.94498	0.756075	6.56455	0.384732	3.32786	0.575609	4.95376	0.867235	7.51732	0.969766	8.34932
0.361059	3.10017	0.237294	1.98706	0.723976	2.66739	0.572828	4.91109	0.757175	6.50751	0.387239	3.31575	0.576736	4.91362	0.867753	7.44575	0.971278	8.27834
0.362415	3.08064	0.239521	1.99111	0.720954	2.66785	0.574701	4.87786	0.758289	6.45174	0.389741	3.30383	0.577881	4.87443	0.868278	7.37567	0.972798	8.20884
0.363812	3.06184	0.242134	1.99579	0.71793	2.66829	0.576571	4.84527	0.759418	6.3972	0.392237	3.2921	0.579044	4.83617	0.868811	7.30704	0.974327	8.14078
0.365251	3.04376	0.245134	2.00109	0.714904	2.66873	0.578438	4.81329	0.76056	6.34384	0.394727	3.28055	0.580225	4.7988	0.86935	7.23982	0.975864	8.07412
0.366732	3.02638	0.248137	2.0063	0.711875	2.66917	0.580303	4.78191	0.761718	6.29165	0.397211	3.26917	0.581425	4.7623	0.869896	7.17396	0.977409	8.00882
0.368257	3.0097	0.251142	2.01142	0.708844	2.6696	0.582164	4.75111	0.762889	6.24058	0.399689	3.25797	0.582643	4.72665	0.870449	7.10942	0.978963	7.94483
0.369826	2.99368	0.254148	2.01647	0.705812	2.67003	0.584023	4.72088	0.764075	6.1906	0.402161	3.24693	0.583879	4.69183	0.871009	7.04617	0.980525	7.88212
0.371439	2.97833	0.257156	2.02143	0.702777	2.67046	0.585879	4.69119	0.765275	6.14168	0.404627	3.23605	0.585135	4.6578	0.871576	6.98417	0.982095	7.82064
0.373098	2.96363	0.260166	2.02632	0.69974	2.67088	0.587731	4.66203	0.76649	6.09379	0.407087	3.22532	0.586408	4.62456	0.87215	6.92339	0.983672	7.76038
0.374802	2.94955	0.263177	2.03113	0.696702	2.6713	0.58958	4.63338	0.767719	6.04691	0.40954	3.21474	0.587701	4.59207	0.872731	6.86379	0.985257	7.70128
0.376553	2.9361	0.266191	2.03587	0.693662	2.67171	0.591426	4.60523	0.768962	6.001	0.411986	3.2043	0.589012	4.56032	0.873319	6.80534	0.98685	7.64333
0.37835	2.92325	0.269205	2.04054	0.69062	2.67213	0.593269	4.57757	0.77022	5.95604	0.414427	3.194	0.590342	4.52929	0.873915	6.74801	0.988451	7.58647
0.380194	2.91099	0.272222	2.04513	0.687577	2.67254	0.595108	4.55038	0.771493	5.912	0.41686	3.18384	0.591691	4.49896	0.874517	6.69176	0.990059	7.5307
0.382085	2.89931	0.275239	2.04965	0.684533	2.67295	0.596943	4.52365	0.77278	5.86886	0.419286	3.1738	0.593059	4.46932	0.875126	6.63658	0.991674	7.47597
0.384023	2.88818	0.278258	2.05411	0.681487	2.67336	0.598775	4.49737	0.774081	5.82659	0.421706	3.16389	0.594446	4.44033	0.875742	6.58242	0.993297	7.42226
0.386008	2.87761	0.281278	2.0585	0.67844	2.67377	0.600603	4.47152	0.775397	5.78518	0.424119	3.15411	0.595851	4.41199	0.876366	6.52927	0.994926	7.36954
0.388039	2.86756	0.2843	2.06282	0.675392	2.67418	0.602427	4.44609	0.776727	5.74459	0.426525	3.14444	0.597276	4.38428	0.876996	6.47709	0.996563	7.31778
0.390117	2.85802	0.287323	2.06708	0.672342	2.67458	0.604248	4.42108	0.778072	5.70481	0.428924	3.13489	0.59872	4.35719	0.877634	6.42587	0.998207	7.26696
0.39224	2.84898	0.290347	2.07127	0.669292	2.67499	0.606065	4.39646	0.779431	5.66582	0.431316	3.12545	0.600183	4.33069	0.878278	6.37558	0.999857	7.21706
0.394409	2.84042	0.293372	2.0754	0.66624	2.67539	0.607878	4.37224	0.780804	5.62759	0.433701	3.11613	0.601665	4.30478	0.87893	6.32619	1.00151	7.16804
0.396621	2.83231	0.296398	2.07947	0.663188	2.6758	0.609687	4.34839	0.782192	5.59011	0.436079	3.1069	0.603166	4.27943	0.879589	6.27769		
0.398876	2.82464	0.299425	2.08348	0.660135	2.67621	0.611492	4.32491	0.783594	5.55336	0.43845	3.09778	0.604686	4.25464	0.880256	6.23004		
0.401174	2.8174	0.302453	2.08744	0.657081	2.67661	0.613294	4.3018	0.78501	5.51731	0.440814	3.08877	0.606225	4.23039	0.880929	6.18323		
0.403511	2.81056	0.305482	2.09133	0.654026	2.67702	0.615091	4.27903	0.78644	5.48196	0.443171	3.07985	0.607783	4.20667	0.881609	6.13724		
0.405889	2.8041	0.308512	2.09517	0.650971	2.67743	0.616885	4.25661	0.787885	5.44728	0.44552	3.07103	0.60936	4.18346	0.882297	6.09205		
0.408304	2.798	0.311543	2.09895	0.647915	2.67784	0.618674	4.23452	0.789343	5.41325	0.447863	3.0623	0.610956	4.16075	0.882992	6.04764		
0.410755	2.79225	0.314575	2.10268	0.644858	2.67826	0.62046	4.21276	0.790816	5.37987	0.450199	3.05366	0.61257	4.13853	0.883695	6.00398		
0.413241	2.78682	0.317607	2.10636	0.641802	2.67867	0.622242	4.19132	0.792302	5.34712	0.452527	3.04511	0.614204	4.11679	0.884404	5.96107		
0.415761	2.78171	0.32064	2.10998	0.638744	2.67909	0.624019	4.17019	0.793803	5.31497	0.454849	3.03665	0.615856	4.09552	0.885121	5.91889		
0.418312	2.77688	0.323673	2.11355	0.635687	2.67951	0.625793	4.14937	0.795317	5.28342	0.457164	3.02828	0.617527	4.07469	0.885845	5.87741		
0.420893	2.77233	0.326708	2.11707	0.632629	2.67993	0.627563	4.12884	0.796845	5.25245	0.459471	3.01999	0.619216	4.05431	0.886577	5.83663		
0.423503	2.76803	0.329742	2.12055	0.629571	2.68036	0.629329	4.1086	0.798387	5.22204	0.461773	3.01179	0.620924	4.03436	0.887315	5.79652		
0.426141	2.76398	0.332778	2.12397	0.626512	2.68079	0.631092	4.08865	0.799942	5.19219	0.464067	3.00366	0.62265	4.01484	0.888061	5.75707		
0.428803	2.76015	0.335813	2.12734	0.623454	2.68122	0.63285	4.06898	0.801511	5.16288	0.466354	2.99562	0.624395	3.99572	0.888815	5.71827		
0.43149	2.75653	0.33885	2.13067	0.620395	2.68166	0.634605	4.04957	0.803093	5.1341	0.468636	2.98766	0.626157	3.97701	0.889576	5.6801		
0.4342	2.75312	0.341886	2.13395	0.617337	2.6821	0.636356	4.03044	0.804688	5.10583	0.47091	2.97977	0.627938	3.95869	0.890344	5.64254		
0.436931	2.74989	0.344923	2.13718	0.614279	2.68255	0.638103	4.01156	0.806296	5.07806	0.473178	2.97196	0.629737	3.94075	0.89112	5.60559		
0.439683	2.74683	0.34796	2.14037	0.61122	2.683	0.639847	3.99294	0.807918	5.05078	0.47544	2.96422	0.631553	3.92318	0.891903	5.56923		
0.442453	2.74394	0.350997	2.14352	0.608163	2.68346	0.641587	3.97457	0.809552	5.02399	0.477696	2.95656	0.633387	3.90597	0.892694	5.53345		
0.445242	2.74119	0.354035	2.14662	0.605105	2.68393	0.643324	3.95644	0.8112	4.99766	0.479945	2.94898	0.635238	3.88913	0.893492	5.49823		
0.448047	2.7386	0.357073	2.14967	0.602048	2.6844	0.645057	3.93856	0.81286	4.97179	0.482189	2.94146	0.637107	3.87262	0.894298	5.46357		
0.450868	2.73613	0.360111	2.15269	0.598991	2.68488	0.646787	3.9209	0.814532	4.94636	0.484427	2.93402	0.638992	3.85646	0.895111	5.42944		
0.453704	2.73379	0.363149	2.15566	0.595934	2.68536	0.648514	3.90348	0.816217	4.92137	0.486659	2.92665	0.640895	3.84063	0.895931	5.39585		
0.456554	2.73156	0.366187	2.1586	0.592878	2.68586	0.650237	3.88629	0.817915	4.89681	0.488885	2.91935	0.642814	3.82512	0.89676	5.36277		
0.459416	2.72944	0.369225	2.16149	0.589823	2.68636	0.651958	3.86932	0.819624	4.87267	0.491106	2.91212	0.64475	3.80992	0.897596	5.33021		
0.462291	2.72743	0.372262	2.16434	0.586769	2.68687	0.653675	3.85256	0.821346	4.84893	0.493322	2.90496	0.646703	3.79503	0.898439	5.29814		
0.465178	2.72551	0.3753	2.16715	0.583715	2.68739	0.655389	3.83602	0.823079	4.82559	0.495533	2.89786	0.648671	3.78043	0.899291	5.26656		
0.468075	2.72368	0.378338	2.16993	0.580662	2.68792	0.6571	3.81969	0.824825	4.80264	0.497739	2.89084	0.650656	3.76613	0.90015	5.23545		
0.470983	2.72193	0.381376	2.17266	0.57761	2.68845	0.658809	3.80357	0.826581	4.78007	0.49994	2.88389	0.652656	3.75211	0.901016	5.20482		
0.4739	2.72026	0.384413	2.17536	0.574559	2.689	0.660515	3.78764	0.82835	4.75787	0.502137	2.877	0.654672	3.73837	0.901891	5.17464		
0.476826	2.71867	0.38745	2.17802	0.571509	2.68957	0.662218	3.77192	0.83013	4.73603	0.504329	2.87018	0.656703	3.72491	0.902773	5.14491		
0.479761	2.71714	0.390486	2.18065	0.568461	2.69014	0.663919	3.75639	0.83192	4.71455	0.506517	2.86342	0.658749	3.7117	0.903662	5.11563		
0.482703	2.71568	0.393523	2.18323	0.565413	2.69072	0.665618	3.74106	0.833722	4.69342	0.508701	2.85674	0.660811	3.69875	0.90456	5.08677		
0.485653	2.71428	0.396559	2.18579	0.562367	2.69132	0.667314	3.72591	0.835535	4.67262	0.510881	2.85012	0.662886	3.68606	0.905466	5.05834		
0.48861	2.71293	0.399594	2.1883	0.559323	2.69194	0.669008	3.71095	0.837359	4.65216	0.513057	2.84356	0.664977	3.67361	0.906379	5.03032		
0.491573	2.71165	0.402629	2.19078	0.55628	2.69256	0.6707	3.69618	0.839193	4.63202	0.51523	2.83708	0.667081	3.66139	0.9073	5.00272		
0.494543	2.71041	0.405664	2.19323	0.553239	2.69321	0.67239	3.68158	0.841037	4.6122	0.5174	2.83065	0.669199	3.64942	0.908229	4.97551		
0.497519	2.70922	0.408697	2.19564	0.5502	2.69386	0.674078	3.66716	0.842891	4.59268	0.519566	2.8243	0.671331	3.63766	0.909166	4.94869		
0.5005	2.70807	0.411731	2.19802	0.547162	2.69454	0.675765	3.65291	0.844756	4.57348	0.52173	2.81801	0.673477	3.62613	0.910112	4.92226		
0.503486	2.70697	0.414763	2.20037	0.544127	2.69524	0.67745	3.63884	0.84663	4.55456	0.523891	2.81178	0.675635	3.61482	0.911065	4.89621		
0.506477	2.7059	0.417795	2.20268	0.541094	2.69595	0.679133	3.62494	0.848515	4.53594	0.52605	2.80562	0.677807	3.60371	0.912026	4.87053		
0.509473	2.70488	0.420826	2.20496	0.538063	2.69668	0.680815	3.6112	0.850408	4.5176	0.528207	2.79953	0.679991	3.59281	0.912995	4.84521		
0.512473	2.70389	0.423856	2.20721	0.535035	2.69744	0.682496	3.59762	0.852311	4.49954	0.530361	2.7935	0.682188	3.58212	0.913972	4.82025		
0.515478	2.70293	0.426885	2.20942	0.532009	2.69822	0.684176	3.58421	0.854223	4.48175	0.532514	2.78753	0.684397	3.57161	0.914958	4.79564		
0.518486	2.70201	0.429914	2.21161	0.528986	2.69902	0.685854	3.57096	0.856145	4.46423	0.534665	2.78163	0.686617	3.5613	0.915951	4.77137		
0.521497	2.70111	0.432941	2.21376	0.525966	2.69984	0.687532	3.55786	0.858075	4.44697	0.536814	2.7758	0.68885	3.55117	0.916953	4.74744		
0.524513	2.70025	0.435967	2.21588	0.522949	2.70069	0.689209	3.54492	0.860013	4.42996	0.538963	2.77003	0.691093	3.54122	0.917963	4.72385		
0.527531	2.69941	0.438992	2.21797	0.519936	2.70157	0.690885	3.53213	0.86196	4.4132	0.541111	2.76432	0.693348	3.53145	0.918981	4.70058		
0.530553	2.6986	0.442016	2.22003	0.516926	2.70248	0.692561	3.5195	0.863916	4.39668	0.543258	2.75868	0.695614	3.52185	0.920008	4.67764		
0.533577	2.69781	0.445039	2.22206	0.51392	2.70342	0.694237	3.50701	0.865879	4.3804	0.545404	2.7531	0.697891	3.51242	0.921043	4.655		
0.536604	2.69704	0.44806	2.22406	0.510918	2.7044	0.695912	3.49466	0.867851	4.36435	0.54755	2.74759	0.700177	3.50315	0.922086	4.63268		
0.539634	2.6963	0.451081	2.22603	0.50792	2.70541	0.697587	3.48247	0.86983	4.34853	0.549696	2.74214	0.702474	3.49404	0.923137	4.61067		
0.542666	2.69558	0.454099	2.22797	0.504926	2.70645	0.699262	3.47041	0.871817	4.33294	0.551842	2.73676	0.704781	3.48508	0.924197	4.58895		
0.5457	2.69487	0.457117	2.22988	0.501938	2.70753	0.700937	3.4585	0.873811	4.31756	0.553989	2.73144	0.707097	3.47628	0.925266	4.56753		
0.548736	2.69419	0.460133	2.23176	0.498954	2.70866	0.702612	3.44672	0.875812	4.3024	0.556136	2.72619	0.709422	3.46762	0.926343	4.5464		
0.551775	2.69352	0.463147	2.23361	0.495976	2.70983	0.704288	3.43508	0.877821	4.28744	0.558284	2.721	0.711757	3.4591	0.927429	4.52555		
0.554815	2.69287	0.466159	2.23543	0.493003	2.71104	0.705964	3.42358	0.879836	4.27269	0.560433	2.71587	0.7141	3.45073	0.928523	4.50498		
0.557857	2.69224	0.46917	2.23723	0.490037	2.71231	0.707641	3.41221	0.881858	4.25814	0.562583	2.71081	0.716452	3.44249	0.929625	4.48469		
0.560901	2.69162	0.47218	2.239	0.487076	2.71362	0.709319	3.40097	0.883886	4.24378	0.564735	2.70581	0.718812	3.43438	0.930737	4.46467		
0.563946	2.69101	0.475187	2.24073	0.484123	2.715	0.710997	3.38986	0.885921	4.22962	0.566888	2.70088	0.721181	3.4264	0.931857	4.44491		
0.566993	2.69042	0.478192	2.24245	0.481177	2.71643	0.712676	3.37889	0.887962	4.21565	0.569043	2.69601	0.723557	3.41855	0.932986	4.42542		
0.570041	2.68984	0.481196	2.24413	0.478239	2.71792	0.714357	3.36803	0.890009	4.20186	0.5712	2.6912	0.72594	3.41082	0.934124	4.40618		
0.57309	2.68927	0.484197	2.24578	0.475308	2.71948	0.716039	3.35731	0.892062	4.18825	0.57336	2.68646	0.728331	3.40321	0.93527	4.3872		
0.57614	2.68872	0.487197	2.24741	0.472387	2.72112	0.717722	3.34671	0.894121	4.17481	0.575522	2.68178	0.730729	3.39572	0.936426	4.36847		
0.579192	2.68817	0.490194	2.24901	0.469475	2.72282	0.719406	3.33623	0.896185	4.16155	0.577686	2.67716	0.733134	3.38833	0.93759	4.34999		
0.582244	2.68764	0.493189	2.25058	0.466572	2.72461	0.721092	3.32587	0.898254	4.14845	0.579854	2.67261	0.735545	3.38106	0.938763	4.33175		
0.585298	2.68712	0.496181	2.25212	0.46368	2.72649	0.72278	3.31563	0.900329	4.13553	0.582024	2.66812	0.737962	3.3739	0.939946	4.31375		
0.588352	2.6866	0.499172	2.25364	0.4608	2.72846	0.72447	3.30551	0.902408	4.12276	0.584198	2.6637	0.740386	3.36684	0.941137	4.29598		
0.591407	2.6861	0.502159	2.25513	0.457931	2.73053	0.726161	3.29551	0.904492	4.11015	0.586375	2.65933	0.742815	3.35988	0.942337	4.27844		
0.594462	2.6856	0.505145	2.25659	0.455075	2.7327	0.727855	3.28562	0.906581	4.0977	0.588556	2.65504	0.74525	3.35302	0.943547	4.26113		
0.597518	2.68511	0.508127	2.25803	0.452232	2.73498	0.729551	3.27585	0.908675	4.0854	0.590741	2.6508	0.747691	3.34626	0.944766	4.24405		
0.600575	2.68463	0.511107	2.25944	0.449404	2.73739	0.731249	3.26619	0.910772	4.07325	0.59293	2.64662	0.750136	3.33959	0.945994	4.22719		
0.603632	2.68415	0.514084	2.26082	0.446591	2.73993	0.73295	3.25665	0.912874	4.06124	0.595123	2.64251	0.752587	3.33301	0.947231	4.21054		
0.60669	2.68369	0.517058	2.26218	0.443794	2.7426	0.734653	3.24721	0.91498	4.04938	0.59732	2.63846	0.755042	3.32652	0.948478	4.19411		
0.609748	2.68322	0.520029	2.26351	0.441015	2.74542	0.736358	3.23788	0.917089	4.03766	0.599522	2.63448	0.757502	3.32012	0.949734	4.1779		
0.612806	2.68277	0.522998	2.26481	0.438254	2.74839	0.738067	3.22866	0.919203	4.02607	0.601729	2.63055	0.759966	3.3138	0.950999	4.16189		
0.615864	2.68232	0.525963	2.26608	0.435513	2.75154	0.739778	3.21955	0.921319	4.01462	0.603941	2.62669	0.762434	3.30757	0.952274	4.14608		
0.618922	2.68187	0.528925	2.26733	0.432793	2.75486	0.741492	3.21055	0.923439	4.0033	0.606158	2.62289	0.764906	3.30141	0.953559	4.13048		
0.621981	2.68143	0.531883	2.26855	0.430095	2.75838	0.74321	3.20164	0.925563	3.99211	0.608381	2.61915	0.767381	3.29533	0.954853	4.11508		
0.625039	2.681	0.534838	2.26975	0.42742	2.76211	0.74493	3.19285	0.927689	3.98104	0.610609	2.61547	0.76986	3.28933	0.956157	4.09987		
0.628097	2.68056	0.53779	2.27092	0.42477	2.76605	0.746654	3.18415	0.929818	3.9701	0.612843	2.61185	0.772342	3.2834	0.95747	4.08486		
0.631156	2.68014	0.540738	2.27206	0.422147	2.77023	0.748382	3.17556	0.93195	3.95928	0.615082	2.6083	0.774827	3.27754	0.958793	4.07005		
0.634214	2.67971	0.543683	2.27318	0.419552	2.77465	0.750113	3.16707	0.934085	3.94858	0.617328	2.6048	0.777314	3.27176	0.960126	4.05542		
0.637272	2.67929	0.546623	2.27426	0.416986	2.77935	0.751847	3.15867	0.936222	3.938	0.61958	2.60137	0.779805	3.26604	0.961469	4.04097		
0.640329	2.67887	0.54956	2.27533	0.414451	2.78432	0.753585	3.15038	0.938361	3.92752	0.621838	2.59799	0.782297	3.26039	0.962822	4.02671		
0.643386	2.67845	0.552493	2.27636	0.411948	2.78959	0.755328	3.14218	0.940502	3.91717	0.624103	2.59468	0.784792	3.2548	0.964184	4.01263		
0.646443	2.67804	0.555422	2.27737	0.40948	2.79519	0.757074	3.13408	0.942646	3.90692	0.626374	2.59143	0.787289	3.24927	0.965557	3.99874		
0.649499	2.67763	0.558347	2.27836	0.407047	2.80111	0.758824	3.12607	0.944791	3.89677	0.628653	2.58823	0.789787	3.2438	0.96694	3.98501		
0.652555	2.67722	0.561267	2.27931	0.404652	2.8074	0.760579	3.11816	0.946938	3.88674	0.630938	2.5851	0.792288	3.2384	0.968333	3.97146		
0.65561	2.67681	0.564184	2.28024	0.402295	2.81405	0.762337	3.11034	0.949087	3.8768	0.633231	2.58203	0.794789	3.23305	0.969736	3.95809		
0.658664	2.6764	0.567096	2.28114	0.399978	2.8211	0.764101	3.10262	0.951237	3.86697	0.635531	2.57901	0.797292	3.22776	0.971149	3.94488		
0.661718	2.676	0.570003	2.28202	0.397702	2.82856	0.765868	3.09499	0.953388	3.85724	0.637839	2.57606	0.799796	3.22252	0.972573	3.93184		
0.66477	2.67559	0.572906	2.28287	0.395469	2.83645	0.767641	3.08745	0.955541	3.8476	0.640154	2.57316	0.8023	3.21733	0.974007	3.91897		
0.667822	2.67518	0.575804	2.2837	0.393279	2.8448	0.769418	3.07999	0.957694	3.83806	0.642477	2.57032	0.804805	3.2122	0.975451	3.90625		
0.670873	2.67478	0.578697	2.28449	0.391134	2.85361	0.7712	3.07263	0.959849	3.82861	0.644808	2.56754	0.807311	3.20711	0.976906	3.8937		
0.673923	2.67437	0.581586	2.28526	0.389034	2.8629	0.772987	3.06536	0.962004	3.81925	0.647147	2.56482	0.809817	3.20208	0.978371	3.88131		
0.676972	2.67396	0.584469	2.28601	0.38698	2.8727	0.774779	3.05817	0.96416	3.80999	0.649494	2.56216	0.812323	3.19709	0.979847	3.86908		
0.680019	2.67356	0.587348	2.28673	0.384973	2.88302	0.776577	3.05108	0.966316	3.80081	0.65185	2.55955	0.81483	3.19214	0.981334	3.857		
0.683066	2.67315	0.590222	2.28742	0.383012	2.89388	0.778379	3.04406	0.968473	3.79171	0.654214	2.557	0.817335	3.18725	0.982831	3.84508		
0.686111	2.67274	0.59309	2.28809	0.381099	2.90529	0.780187	3.03714	0.97063	3.78271	0.656587	2.55451	0.819841	3.18239	0.984339	3.8333		
0.689155	2.67233	0.595953	2.28873	0.379232	2.91727	0.782001	3.03029	0.972788	3.77378	0.658968	2.55207	0.822346	3.17758	0.985858	3.82168		
0.692197	2.67191	0.598811	2.28934	0.377412	2.92983	0.78382	3.02354	0.974945	3.76494	0.661358	2.54969	0.82485	3.17281	0.987388	3.8102		
0.695238	2.6715	0.601663	2.28993	0.375639	2.94299	0.785645	3.01686	0.977103	3.75617	0.663758	2.54737	0.827353	3.16807	0.988928	3.79887		
0.698277	2.67108	0.60451	2.29049	0.373913	2.95677	0.787477	3.01027	0.97926	3.74749	0.666166	2.5451	0.829856	3.16338	0.99048	3.78768		
0.701314	2.67066	0.607351	2.29102	0.372232	2.97117	0.789314	3.00376	0.981417	3.73888	0.668584	2.54288	0.832357	3.15872	0.992043	3.77664		
0.70435	2.67024	0.610187	2.29153	0.370597	2.98621	0.791157	2.99733	0.983573	3.73035	0.67101	2.54073	0.834857	3.1541	0.993617	3.76573		
0.707384	2.66981	0.613017	2.29202	0.369007	3.0019	0.793006	2.99099	0.985729	3.72189	0.673447	2.53862	0.837355	3.14952	0.995201	3.75497		
0.710416	2.66938	0.615842	2.29248	0.367461	3.01826	0.794862	2.98472	0.987885	3.7135	0.675892	2.53657	0.839851	3.14497	0.996797	3.74434		
0.713445	2.66894	0.61866	2.29291	0.365959	3.0353	0.796725	2.97853	0.990039	3.70519	0.678347	2.53458	0.842346	3.14045	0.998405	3.73385		
0.716473	2.6685	0.621473	2.29332	0.3645	3.05304	0.798594	2.97242	0.992193	3.69694	0.680812	2.53263	0.844839	3.13597	1.00002	3.72349		
0.719498	2.66806	0.62428	2.2937	0.363082	3.07149	0.80047	2.96639	0.994346	3.68877	0.683287	2.53074	0.84733	3.13151				
0.722521	2.66761	0.627081	2.29406	0.361707	3.09067	0.802353	2.96044	0.996498	3.68066	0.685771	2.52891	0.849818	3.12709				
0.725541	2.66716	0.629876	2.29439	0.360372	3.11059	0.804243	2.95457	0.998649	3.67262	0.688265	2.52712	0.852305	3.1227				
0.728559	2.6667	0.632665	2.2947	0.359078	3.13127	0.80614	2.94877	1.0008	3.66464	0.690769	2.52539	0.854788	3.11833				
0.731574	2.66623	0.635449	2.29499	0.357823	3.15272	0.808045	2.94305			0.693283	2.5237	0.857269	3.114				
0.734586	2.66576	0.638226	2.29525	0.356606	3.17497	0.809957	2.93741			0.695807	2.52207	0.859748	3.10969				
0.737595	2.66528	0.640997	2.29549	0.355428	3.19804	0.811877	2.93184			0.698341	2.52049	0.862223	3.1054				
0.740601	2.6648	0.643763	2.2957	0.354288	3.22194	0.813805	2.92635			0.700885	2.51896	0.864695	3.10114				
0.743604	2.6643	0.646522	2.29589	0.353184	3.2467	0.815741	2.92093			0.703438	2.51747	0.867165	3.09691				
0.746603	2.6638	0.649275	2.29606	0.352116	3.27234	0.817685	2.91559			0.706002	2.51604	0.869631	3.0927				
0.749599	2.66329	0.652023	2.29621	0.351085	3.29889	0.819638	2.91032			0.708576	2.51465	0.872093	3.08851				
0.752591	2.66277	0.654764	2.29633	0.350089	3.32636	0.821599	2.90513			0.71116	2.51331	0.874553	3.08435				
0.75558	2.66225	0.6575	2.29643	0.349127	3.35479	0.823568	2.90001			0.713754	2.51201	0.877008	3.08021				
0.758564	2.66171	0.66023	2.29651	0.3482	3.38421	0.825547	2.89496			0.716358	2.51076	0.87946	3.07609				
0.761544	2.66116	0.662953	2.29657	0.347307	3.41464	0.827534	2.88999			0.718972	2.50956	0.881908	3.07199				
0.76452	2.6606	0.665672	2.29661	0.346448	3.44612	0.829532	2.88509			0.721596	2.5084	0.884353	3.06791				
0.767491	2.66003	0.668384	2.29663	0.345622	3.47868	0.831538	2.88026			0.72423	2.50728	0.886793	3.06385				
0.770458	2.65945	0.671091	2.29663	0.344828	3.51236	0.833554	2.87551			0.726874	2.50621	0.889229	3.05981				
0.773419	2.65886	0.673792	2.29661	0.344067	3.54718	0.83558	2.87082			0.729528	2.50518	0.891661	3.05578				
0.776376	2.65825	0.676487	2.29658	0.343338	3.5832	0.837617	2.86622			0.732191	2.50419	0.894089	3.05178				
0.779327	2.65763	0.679177	2.29652	0.34264	3.62045	0.839663	2.86168			0.734864	2.50324	0.896513	3.04779				
0.782272	2.657	0.681862	2.29645	0.341974	3.65898	0.841721	2.85721			0.737547	2.50234	0.898932	3.04382				
0.785212	2.65635	0.684541	2.29636	0.34134	3.69883	0.843789	2.85282			0.740239	2.50147	0.901347	3.03987				
0.788146	2.65569	0.687215	2.29625	0.340736	3.74005	0.845868	2.8485			0.74294	2.50064	0.903757	3.03593				
0.791074	2.65501	0.689885	2.29613	0.340162	3.78269	0.847958	2.84425			0.745651	2.49985	0.906163	3.03201				
0.793995	2.65432	0.692549	2.29599	0.33962	3.8268	0.850061	2.84008			0.748372	2.49909	0.908564	3.0281				
0.79691	2.65361	0.695208	2.29583	0.339107	3.87245	0.852174	2.83597			0.751101	2.49838	0.91096	3.02421				
0.799817	2.65288	0.697862	2.29566	0.338624	3.91968	0.8543	2.83194			0.75384	2.49769	0.913352	3.02033				
0.802718	2.65213	0.700511	2.29548	0.33817	3.96857	0.856439	2.82798			0.756587	2.49705	0.915739	3.01647				
0.805611	2.65136	0.703156	2.29528	0.337746	4.01918	0.85859	2.8241			0.759344	2.49643	0.918121	3.01262				
0.808496	2.65058	0.705797	2.29507	0.337351	4.07158	0.860754	2.82028			0.762109	2.49586	0.920498	3.00878				
0.811373	2.64978	0.708433	2.29485	0.336985	4.12585	0.862931	2.81654			0.764882	2.49531	0.92287	3.00496				
0.814242	2.64895	0.711065	2.29462	0.336648	4.18206	0.865122	2.81287			0.767664	2.49479	0.925237	3.00115				
0.817103	2.6481	0.713692	2.29437	0.336338	4.2403	0.867326	2.80927			0.770455	2.49431	0.9276	2.99736				
0.819955	2.64724	0.716316	2.29411	0.336058	4.30065	0.869544	2.80575			0.773254	2.49385	0.929957	2.99358				
0.822798	2.64635	0.718936	2.29385	0.335804	4.36322	0.871777	2.80229			0.77606	2.49343	0.932309	2.98981				
0.825632	2.64543	0.721552	2.29357	0.335579	4.4281	0.874024	2.79891			0.778875	2.49303	0.934657	2.98605				
0.828456	2.64449	0.724164	2.29328	0.335381	4.49539	0.876285	2.79561			0.781698	2.49266	0.936999	2.9823				
0.83127	2.64353	0.726773	2.29299	0.33521	4.56522	0.878562	2.79237			0.784528	2.49232	0.939336	2.97857				
0.834075	2.64255	0.729378	2.29268	0.335066	4.63769	0.880855	2.78921			0.787366	2.49201	0.941669	2.97485				
0.836869	2.64154	0.731981	2.29237	0.334949	4.71294	0.883162	2.78612			0.790211	2.49172	0.943996	2.97114				
0.839653	2.6405	0.73458	2.29205	0.334858	4.79111	0.885486	2.7831			0.793064	2.49146	0.946318	2.96744				
0.842426	2.63944	0.737176	2.29172	0.334792	4.87234	0.887825	2.78016			0.795924	2.49122	0.948636	2.96376				
0.845188	2.63836	0.739769	2.29139	0.334753	4.95678	0.89018	2.77728			0.79879	2.491	0.950948	2.96008				
0.84794	2.63724	0.742359	2.29105	0.334739	5.0446	0.892552	2.77448			0.801664	2.49081	0.953256	2.95642				
0.85068	2.6361	0.744947	2.2907	0.33475	5.13599	0.894941	2.77175			0.804544	2.49064	0.955558	2.95277				
0.853409	2.63494	0.747532	2.29035	0.334787	5.23113	0.897345	2.76909			0.807431	2.49049	0.957856	2.94913				
0.856127	2.63374	0.750114	2.28999	0.334847	5.33023	0.899767	2.7665			0.810324	2.49036	0.960149	2.9455				
0.858833	2.63252	0.752695	2.28963	0.334931	5.43351	0.902205	2.76398			0.813224	2.49025	0.962437	2.94188				
0.861528	2.63128	0.755273	2.28927	0.33504	5.5412	0.904661	2.76154			0.816129	2.49016	0.96472	2.93828				
0.864211	2.63001	0.757849	2.2889	0.335171	5.65357	0.907133	2.75916			0.819041	2.49009	0.966999	2.93468				
0.866882	2.62871	0.760423	2.28853	0.335326	5.7709	0.909622	2.75684			0.821959	2.49004	0.969273	2.9311				
0.869543	2.62739	0.762995	2.28816	0.335503	5.89348	0.912127	2.7546			0.824882	2.49001	0.971542	2.92753				
0.872191	2.62604	0.765565	2.28778	0.335702	6.02163	0.91465	2.75242			0.827812	2.48999	0.973807	2.92397				
0.874828	2.62467	0.768134	2.2874	0.335922	6.15572	0.917189	2.75031			0.830746	2.48999	0.976067	2.92042				
0.877454	2.62327	0.770701	2.28702	0.336164	6.29612	0.919745	2.74826			0.833686	2.49001	0.978322	2.91689				
0.880069	2.62185	0.773267	2.28664	0.336427	6.44325	0.922318	2.74628			0.836632	2.49004	0.980574	2.91336				
0.882673	2.62041	0.775832	2.28625	0.336709	6.59758	0.924906	2.74436			0.839582	2.49009	0.982821	2.90985				
0.885266	2.61894	0.778395	2.28587	0.337011	6.75959	0.927511	2.74249			0.842538	2.49015	0.985064	2.90635				
0.887849	2.61746	0.780957	2.28548	0.337332	6.92983	0.930132	2.74069			0.845498	2.49023	0.987302	2.90286				
0.890421	2.61595	0.783518	2.28509	0.337672	7.10892	0.932768	2.73895			0.848463	2.49032	0.989537	2.89938				
0.892983	2.61443	0.786078	2.28471	0.338029	7.29749	0.93542	2.73726			0.851433	2.49042	0.991767	2.89592				
0.895535	2.61288	0.788637	2.28432	0.338403	7.49629	0.938087	2.73563			0.854408	2.49053	0.993994	2.89247				
0.898078	2.61132	0.791195	2.28393	0.338794	7.70612	0.940768	2.73406			0.857386	2.49066	0.996217	2.88903				
0.900612	2.60975	0.793752	2.28355	0.3392	7.92788	0.943464	2.73253			0.86037	2.4908	0.998436	2.8856				
0.903137	2.60816	0.796309	2.28316	0.339621	8.16255	0.946174	2.73106			0.863357	2.49095	1.00065	2.88219				
0.905654	2.60655	0.798866	2.28278	0.339999	8.37845	0.948898	2.72964			0.866349	2.49111						
0.908162	2.60494	0.801421	2.2824	0.34033	8.57152	0.951635	2.72826			0.869345	2.49128						
0.910663	2.60331	0.803977	2.28201	0.340608	8.73785	0.954386	2.72693			0.872344	2.49146						
0.913156	2.60167	0.806532	2.28163	0.340832	8.8739	0.957149	2.72565			0.875348	2.49166						
0.915642	2.60003	0.809087	2.28125	0.340998	8.97659	0.959924	2.72441			0.878355	2.49186						
0.918122	2.59837	0.811641	2.28088	0.341152	9.07314	0.962711	2.72321			0.881366	2.49207						
0.920595	2.59671	0.814195	2.2805	0.34126	9.1415	0.96551	2.72205			0.884381	2.49229						
0.923063	2.59505	0.81675	2.28013	0.34143	9.25034	0.96832	2.72094			0.887399	2.49251						
0.925525	2.59337	0.819304	2.27976	0.341663	9.40247	0.971141	2.71985			0.89042	2.49275						
0.927982	2.5917	0.821858	2.27939	0.34196	9.60196	0.973972	2.71881			0.893445	2.49299						
0.930434	2.59002	0.824412	2.27903	0.342325	9.85445	0.976813	2.7178			0.896473	2.49324						
0.932882	2.58835	0.826967	2.27867	0.342759	10.1675	0.979663	2.71682			0.899504	2.4935						
0.935326	2.58667	0.829521	2.27831	0.343263	10.5513	0.982523	2.71588			0.902538	2.49376						
0.937766	2.58499	0.832076	2.27795	0.343774	10.9642	0.985392	2.71496			0.905576	2.49403						
0.940203	2.58332	0.834631	2.2776	0.344289	11.4095	0.98827	2.71408			0.908616	2.49431						
0.942637	2.58165	0.837187	2.27725	0.344807	11.8911	0.991156	2.71322			0.911659	2.49459						
0.945068	2.57998	0.839742	2.2769	0.345328	12.4136	0.99405	2.7124			0.914705	2.49488						
0.947496	2.57831	0.842299	2.27656	0.345849	12.9823	0.996951	2.71159			0.917754	2.49518						
0.949923	2.57665	0.844855	2.27622	0.346368	13.6036	0.99986	2.71082			0.920805	2.49548						
0.952348	2.575	0.847412	2.27588	0.346885	14.2851	1.00278	2.71006			0.923859	2.49578						
0.954771	2.57335	0.84997	2.27555	0.347397	15.0359					0.926915	2.49609						
0.957193	2.57171	0.852528	2.27522	0.347902	15.8671					0.929974	2.49641						
0.959614	2.57008	0.855087	2.27489	0.3484	16.7923					0.933036	2.49673						
0.962034	2.56845	0.857646	2.27457	0.348886	17.8285					0.9361	2.49705						
0.964454	2.56684	0.860206	2.27425	0.349361	18.9968					0.939166	2.49738						
0.966874	2.56523	0.862767	2.27393	0.34982	20.3242					0.942234	2.49771						
0.969294	2.56363	0.865328	2.27362	0.350263	21.8457					0.945304	2.49805						
0.971713	2.56205	0.867891	2.27332	0.350687	23.6074					0.948377	2.49839						
0.974133	2.56047	0.870454	2.27301	0.35109	25.6711					0.951452	2.49873						
0.976554	2.55891	0.873017	2.27271	0.351469	28.1222					0.954529	2.49907						
0.978976	2.55736	0.875582	2.27242	0.351823	31.0814					0.957608	2.49942						
0.981398	2.55582	0.878147	2.27213	0.35215	34.7256					0.960688	2.49977						
0.983822	2.55429	0.880713	2.27184	0.352446	39.3249					0.963771	2.50013						
0.986247	2.55277	0.88328	2.27155	0.352711	45.3129					0.966856	2.50049						
0.988673	2.55127	0.885848	2.27127	0.352942	53.4325					0.969942	2.50085						
0.991101	2.54978	0.888417	2.271	0.353138	65.0721					0.97303	2.50121						
0.993531	2.54831	0.890987	2.27073	0.353298	83.1609					0.97612	2.50157						
0.995962	2.54684	0.893558	2.27046	0.353419	115.126					0.979212	2.50194						
0.998396	2.5454	0.896129	2.2702	0.353502	186.906					0.982305	2.50231						
1.00083	2.54396	0.898702	2.26994	0.353546	495.978					0.9854	2.50268						
		0.901276	2.26968							0.988497	2.50305						
		0.90385	2.26943							0.991595	2.50343						
		0.906426	2.26918							0.994695	2.5038						
		0.909003	2.26894							0.997796	2.50418						
		0.91158	2.2687							1.0009	2.50456						
		0.914159	2.26846														
		0.916739	2.26823														
		0.91932	2.268														
		0.921901	2.26778														
		0.924484	2.26756														
		0.927068	2.26734														
		0.929653	2.26713														
		0.932239	2.26692														
		0.934826	2.26672														
		0.937415	2.26652														
		0.940004	2.26632														
		0.942595	2.26613														
		0.945186	2.26594														
		0.947779	2.26575														
		0.950372	2.26557														
		0.952967	2.26539														
		0.955563	2.26521														
		0.95816	2.26504														
		0.960758	2.26487														
		0.963357	2.26471														
		0.965957	2.26455														
		0.968558	2.26439														
		0.971161	2.26423														
		0.973764	2.26408														
		0.976369	2.26394														
		0.978974	2.26379														
		0.981581	2.26365														
		0.984189	2.26351														
		0.986797	2.26338														
		0.989407	2.26324														
		0.992018	2.26312														
		0.99463	2.26299														
		0.997243	2.26287														
		0.999856	2.26275														
		1.00247	2.26263														
