Sym0		Asym0		Sym1		Sym2		Sym3		Asym1		Asym2		Asym3		Asym4	
331  Points		373  Points		331  Points		316  Points		230  Points		344  Points		292  Points		216  Points		86  Points	
Freq (MHz)	Vph (m/ms)	Freq (MHz)	Vph (m/ms)	Freq (MHz)	Vph (m/ms)	Freq (MHz)	Vph (m/ms)	Freq (MHz)	Vph (m/ms)	Freq (MHz)	Vph (m/ms)	Freq (MHz)	Vph (m/ms)	Freq (MHz)	Vph (m/ms)	Freq (MHz)	Vph (m/ms)
0.353553	945.372	0.000159163	0.0779913	1.00176	2.61515	0.469824	622.51	0.707107	2638.41	0.176785	367.34	0.530332	842.2	0.883883	1945.27	0.939639	1035.29
0.353544	227.726	0.000395515	0.122858	0.999129	2.61632	0.469873	243.05	0.707115	488.84	0.176879	106.569	0.530342	293.297	0.883881	541.299	0.939669	450.439
0.353524	129.448	0.000736759	0.167529	0.996487	2.61748	0.469963	151.029	0.707135	269.382	0.177076	62.3886	0.530364	177.574	0.883875	314.39	0.939724	287.85
0.353493	90.4186	0.00118162	0.211899	0.993837	2.61862	0.470096	109.573	0.707167	185.923	0.177376	44.1585	0.530395	127.339	0.883867	221.526	0.939802	211.518
0.353452	69.4673	0.00172857	0.255901	0.99118	2.61975	0.47027	85.9919	0.707209	141.951	0.177776	34.2187	0.530438	99.2633	0.883856	171.011	0.939904	167.194
0.3534	56.3947	0.00237596	0.29949	0.988514	2.62087	0.470486	70.7787	0.707264	114.805	0.178277	27.9702	0.53049	81.3354	0.883842	139.255	0.94003	138.236
0.353338	47.4594	0.0031215	0.342575	0.985841	2.62198	0.470743	60.1528	0.707329	96.3786	0.178876	23.6848	0.530553	68.8962	0.883825	117.445	0.94018	117.837
0.353266	40.9652	0.00396305	0.385122	0.983159	2.62307	0.471042	52.313	0.707407	83.0525	0.179571	20.5674	0.530627	59.7601	0.883806	101.541	0.940353	102.69
0.353184	36.0316	0.00489787	0.427057	0.980469	2.62414	0.471381	46.2918	0.707495	72.967	0.18036	18.2009	0.530711	52.7662	0.883785	89.4296	0.94055	91.0001
0.353093	32.1561	0.00592342	0.468351	0.977771	2.6252	0.471761	41.5234	0.707596	65.0686	0.18124	16.3458	0.530805	47.2402	0.883761	79.899	0.940769	81.7051
0.352994	29.0313	0.00703669	0.50895	0.975063	2.62624	0.47218	37.6544	0.707707	58.7157	0.182209	14.8543	0.530911	42.7643	0.883736	72.2036	0.941012	74.138
0.352886	26.458	0.00823476	0.548823	0.972348	2.62726	0.472639	34.453	0.707831	53.4953	0.183264	13.6307	0.531026	39.0652	0.883708	65.8599	0.941278	67.8583
0.352771	24.302	0.00951458	0.587939	0.969623	2.62827	0.473136	31.7608	0.707965	49.1297	0.184402	12.6101	0.531152	35.9571	0.883679	60.5404	0.941566	62.5636
0.352649	22.4694	0.0108731	0.626279	0.96689	2.62926	0.473672	29.4657	0.708112	45.4248	0.18562	11.7467	0.531289	33.3089	0.883648	56.0156	0.941877	58.0393
0.35252	20.8924	0.0123071	0.663814	0.964147	2.63023	0.474245	27.4863	0.70827	42.2415	0.186744	11.0966	0.531436	31.0258	0.883616	52.1199	0.94221	54.1289
0.352385	19.5209	0.0138135	0.700538	0.961396	2.63119	0.474855	25.762	0.708439	39.4769	0.187746	10.6045	0.531594	29.0372	0.883583	48.7304	0.942564	50.7157
0.352245	18.3173	0.0153893	0.736439	0.958636	2.63212	0.475501	24.2468	0.70862	37.0536	0.188605	10.2346	0.531763	27.2896	0.883549	45.7547	0.942941	47.7105
0.3521	17.2525	0.0170314	0.771507	0.955867	2.63304	0.476183	22.9051	0.708813	34.9122	0.189303	9.96296	0.531942	25.742	0.883514	43.1212	0.943339	45.0447
0.351952	16.3037	0.0187367	0.80574	0.95309	2.63394	0.4769	21.7089	0.709017	33.0064	0.189827	9.77401	0.532132	24.3618	0.883479	40.7742	0.943758	42.6638
0.3518	15.4531	0.0205025	0.839147	0.950303	2.63482	0.477652	20.6361	0.709233	31.2993	0.190167	9.65754	0.532332	23.1233	0.883444	38.6694	0.944198	40.5247
0.351646	14.6861	0.0223257	0.871724	0.947508	2.63568	0.478436	19.6685	0.70946	29.7614	0.190661	9.49591	0.532543	22.006	0.883408	36.771	0.944658	38.5924
0.35149	13.9909	0.0242039	0.903484	0.944704	2.63653	0.479254	18.7917	0.709699	28.369	0.191206	9.32753	0.532765	20.9928	0.883374	35.0502	0.945139	36.8384
0.351333	13.358	0.0261342	0.934432	0.941892	2.63735	0.480104	17.9936	0.70995	27.1022	0.191961	9.10996	0.532998	20.07	0.88334	33.4831	0.94564	35.2393
0.351176	12.7794	0.0281141	0.964579	0.939071	2.63816	0.480984	17.264	0.710212	25.945	0.192936	8.85213	0.533241	19.226	0.883306	32.0501	0.946161	33.7753
0.351019	12.2484	0.0301414	0.993944	0.936242	2.63895	0.481896	16.5948	0.710486	24.8837	0.194147	8.5637	0.533496	18.4511	0.883274	30.7347	0.946701	32.4303
0.350863	11.7594	0.0322135	1.02254	0.933405	2.63972	0.482837	15.9787	0.710772	23.9069	0.195609	8.25425	0.533761	17.7373	0.883244	29.523	0.947261	31.1903
0.35071	11.3076	0.0343283	1.05037	0.93056	2.64048	0.483807	15.4098	0.711069	23.005	0.197339	7.93275	0.534037	17.0777	0.883215	28.4031	0.947839	30.0435
0.350558	10.889	0.0364836	1.07747	0.927707	2.64122	0.484806	14.883	0.711379	22.1697	0.199122	7.64239	0.534324	16.4663	0.883188	27.3651	0.948436	28.9799
0.350411	10.5	0.0386775	1.10384	0.924847	2.64194	0.485832	14.3937	0.7117	21.394	0.200957	7.37903	0.534622	15.8981	0.883163	26.4003	0.949051	27.9907
0.350267	10.1377	0.040908	1.12951	0.921979	2.64264	0.486885	13.9383	0.712032	20.6717	0.202839	7.13922	0.534931	15.3687	0.88314	25.5013	0.949684	27.0685
0.350128	9.79945	0.0431734	1.15449	0.919103	2.64333	0.487964	13.5133	0.712377	19.9975	0.204768	6.92005	0.535251	14.8743	0.88312	24.6615	0.950335	26.2068
0.349994	9.48293	0.0454719	1.1788	0.916221	2.644	0.489069	13.1158	0.712734	19.3668	0.20674	6.71909	0.535582	14.4115	0.883103	23.8752	0.951004	25.3998
0.349867	9.18615	0.0478018	1.20247	0.913331	2.64465	0.490199	12.7433	0.713102	18.7755	0.208752	6.53423	0.535924	13.9774	0.883089	23.1377	0.95169	24.6424
0.349746	8.90737	0.0501616	1.2255	0.910435	2.64529	0.491352	12.3936	0.713482	18.2202	0.210804	6.36371	0.536277	13.5696	0.883078	22.4443	0.952393	23.9304
0.349633	8.64501	0.05255	1.24792	0.907532	2.64592	0.492529	12.0647	0.713874	17.6976	0.212893	6.20597	0.536641	13.1856	0.883071	21.7914	0.953112	23.2597
0.349529	8.39771	0.0549654	1.26974	0.904622	2.64653	0.493728	11.7547	0.714278	17.2049	0.215016	6.05969	0.537017	12.8235	0.883067	21.1755	0.953848	22.6269
0.349432	8.16423	0.0574065	1.29099	0.901706	2.64713	0.49495	11.4622	0.714694	16.7398	0.217172	5.92371	0.537404	12.4815	0.883068	20.5936	0.9546	22.0289
0.349346	7.94348	0.0598723	1.31167	0.898785	2.64771	0.496193	11.1857	0.715122	16.2999	0.21936	5.79702	0.537803	12.158	0.883073	20.0428	0.955369	21.4629
0.349269	7.73447	0.0623613	1.33182	0.895857	2.64828	0.497293	10.9568	0.715562	15.8832	0.221576	5.67874	0.538212	11.8515	0.883082	19.5209	0.956153	20.9265
0.349203	7.53632	0.0648726	1.35144	0.892923	2.64883	0.498243	10.77	0.716014	15.4881	0.223821	5.56809	0.538633	11.5607	0.883095	19.0255	0.956952	20.4173
0.349148	7.34824	0.0674052	1.37055	0.889984	2.64938	0.499037	10.621	0.716478	15.1129	0.226092	5.46437	0.539066	11.2846	0.883113	18.5548	0.957767	19.9335
0.349104	7.1695	0.0699579	1.38916	0.88704	2.64991	0.49967	10.5064	0.716955	14.7561	0.228387	5.36698	0.539452	11.055	0.883137	18.107	0.958596	19.4731
0.349073	6.99946	0.07253	1.4073	0.884091	2.65043	0.500138	10.424	0.717443	14.4165	0.230706	5.27537	0.539789	10.8669	0.883165	17.6803	0.959441	19.0346
0.349055	6.83751	0.0751204	1.42498	0.881136	2.65094	0.500439	10.3721	0.717943	14.0928	0.233047	5.18907	0.540072	10.7164	0.883199	17.2735	0.9603	18.6164
0.34905	6.68313	0.0777285	1.44221	0.878177	2.65144	0.500873	10.2984	0.718456	13.784	0.235409	5.10763	0.540298	10.6005	0.883238	16.885	0.961173	18.2171
0.349058	6.53582	0.0803533	1.45901	0.875213	2.65192	0.501347	10.2197	0.718981	13.4891	0.23779	5.03066	0.540467	10.517	0.883282	16.5138	0.962061	17.8356
0.349082	6.39513	0.0829943	1.47539	0.872244	2.6524	0.501996	10.1149	0.719518	13.2071	0.24019	4.95783	0.540576	10.4643	0.883332	16.1587	0.962962	17.4706
0.349119	6.26066	0.0856505	1.49137	0.869271	2.65287	0.502823	9.98592	0.720068	12.9374	0.242608	4.8888	0.540733	10.3894	0.883389	15.8187	0.963877	17.1211
0.349172	6.13201	0.0883213	1.50695	0.866294	2.65332	0.503832	9.83495	0.720629	12.679	0.245042	4.82331	0.540905	10.3094	0.883451	15.4929	0.964806	16.7862
0.349241	6.00886	0.0910063	1.52215	0.863313	2.65377	0.505027	9.66454	0.721204	12.4313	0.247491	4.76108	0.541142	10.2026	0.883519	15.1804	0.965749	16.465
0.349326	5.89086	0.0937045	1.53699	0.860328	2.65421	0.506415	9.47736	0.72179	12.1937	0.249956	4.70189	0.541445	10.0708	0.883594	14.8803	0.966704	16.1567
0.349427	5.77774	0.0964157	1.55147	0.857339	2.65464	0.507819	9.29855	0.722389	11.9656	0.252434	4.64552	0.541818	9.9163	0.883674	14.5921	0.967672	15.8604
0.349545	5.66922	0.0991393	1.5656	0.854347	2.65507	0.509239	9.12758	0.723	11.7464	0.254925	4.59178	0.542264	9.74136	0.883762	14.315	0.968654	15.5757
0.34968	5.56504	0.101875	1.57941	0.851351	2.65548	0.510674	8.96395	0.723624	11.5357	0.257429	4.54049	0.542787	9.54859	0.883856	14.0483	0.969648	15.3017
0.349833	5.46498	0.104621	1.59288	0.848351	2.65589	0.512124	8.80721	0.724178	11.3586	0.259944	4.49149	0.543321	9.36387	0.883957	13.7916	0.970654	15.0379
0.350003	5.3688	0.107379	1.60605	0.845348	2.65629	0.513588	8.65694	0.724658	11.2121	0.26247	4.44463	0.543868	9.1867	0.884064	13.5442	0.971673	14.7838
0.350167	5.28801	0.110147	1.61891	0.842343	2.65668	0.515066	8.51275	0.72506	11.0941	0.265006	4.39977	0.544427	9.01664	0.884179	13.3057	0.972704	14.5387
0.350318	5.22126	0.112925	1.63148	0.839334	2.65707	0.516558	8.37429	0.725381	11.0026	0.267552	4.35679	0.544998	8.85329	0.8843	13.0757	0.973747	14.3024
0.35045	5.16747	0.115712	1.64377	0.836322	2.65745	0.518062	8.24123	0.725619	10.9364	0.270107	4.31557	0.54558	8.69628	0.884429	12.8536	0.974802	14.0743
0.35056	5.12583	0.118509	1.65578	0.833308	2.65782	0.51958	8.11326	0.725772	10.8945	0.27267	4.27601	0.546176	8.54524	0.884565	12.6391	0.975868	13.8539
0.350644	5.09569	0.121315	1.66752	0.83029	2.65819	0.521109	7.9901	0.725994	10.8349	0.275241	4.23801	0.546783	8.39987	0.884708	12.4318	0.976946	13.641
0.350699	5.07662	0.124129	1.67901	0.82727	2.65855	0.52265	7.87149	0.726236	10.7708	0.277819	4.20147	0.547403	8.25985	0.884859	12.2313	0.978036	13.4351
0.350779	5.04948	0.126952	1.69024	0.824248	2.65891	0.524202	7.75719	0.726568	10.685	0.280405	4.16631	0.548035	8.12491	0.885017	12.0374	0.979136	13.236
0.350869	5.02036	0.129782	1.70123	0.821223	2.65926	0.525765	7.64696	0.726992	10.5786	0.282996	4.13246	0.54868	7.99478	0.885182	11.8497	0.980248	13.0432
0.350996	4.98136	0.13262	1.71199	0.818196	2.65961	0.527339	7.54059	0.727511	10.453	0.285594	4.09984	0.549337	7.86923	0.885332	11.691	0.981371	12.8566
0.351162	4.93304	0.135465	1.72251	0.815167	2.65995	0.528923	7.4379	0.728129	10.3098	0.288197	4.06838	0.550007	7.74802	0.885465	11.5591	0.982505	12.6757
0.351373	4.87604	0.138318	1.73281	0.812136	2.66029	0.530516	7.33869	0.72885	10.1506	0.290806	4.03802	0.55069	7.63095	0.885578	11.4524	0.98365	12.5004
0.351635	4.81111	0.141177	1.7429	0.809102	2.66063	0.532119	7.24279	0.729585	9.99675	0.293419	4.00871	0.551385	7.51781	0.88567	11.3694	0.984805	12.3304
0.351955	4.73907	0.144042	1.75278	0.806067	2.66096	0.533731	7.15004	0.730331	9.84796	0.296037	3.98038	0.552094	7.40843	0.885738	11.3092	0.98597	12.1655
0.352295	4.66955	0.146914	1.76245	0.80303	2.66128	0.535352	7.06028	0.731091	9.704	0.298658	3.95299	0.552815	7.30262	0.885782	11.271	0.987146	12.0054
0.352656	4.60245	0.149793	1.77193	0.79999	2.66161	0.536981	6.97339	0.731864	9.56463	0.301283	3.92649	0.553549	7.20022	0.885847	11.2165	0.988179	11.8698
0.353038	4.53764	0.152677	1.78121	0.79695	2.66193	0.538619	6.88921	0.732649	9.42967	0.303912	3.90083	0.554296	7.10109	0.885918	11.158	0.989066	11.7568
0.353442	4.47504	0.155566	1.79031	0.793907	2.66224	0.540264	6.80763	0.733448	9.2989	0.306543	3.87598	0.555056	7.00506	0.886016	11.0793	0.989803	11.6652
0.353866	4.41455	0.158461	1.79922	0.790863	2.66256	0.541916	6.72854	0.734259	9.17214	0.309177	3.85189	0.555829	6.91202	0.886142	10.9815	0.990389	11.5938
0.354313	4.35607	0.161362	1.80797	0.787817	2.66287	0.543576	6.65181	0.735084	9.04922	0.311814	3.82852	0.556616	6.82182	0.886299	10.8656	0.990821	11.542
0.354781	4.29954	0.164268	1.81653	0.78477	2.66318	0.545242	6.57735	0.735922	8.92998	0.314453	3.80585	0.557416	6.73435	0.886489	10.7328	0.991098	11.5091
0.355272	4.24485	0.167178	1.82494	0.781721	2.66349	0.546915	6.50505	0.736772	8.81425	0.317093	3.78384	0.558229	6.6495	0.886715	10.5845	0.991498	11.4622
0.355785	4.19196	0.170094	1.83318	0.778671	2.66379	0.548594	6.43482	0.737636	8.7019	0.319736	3.76246	0.559055	6.56716	0.886948	10.4404	0.991933	11.4118
0.35632	4.14077	0.173013	1.84126	0.77562	2.66409	0.550279	6.36658	0.738513	8.59278	0.322379	3.74167	0.559896	6.48722	0.887189	10.3003	0.992527	11.3439
0.356878	4.09122	0.175938	1.84919	0.772568	2.66439	0.55197	6.30024	0.739404	8.48677	0.325023	3.72146	0.560749	6.40959	0.887439	10.1642	0.993282	11.2593
0.357459	4.04325	0.178867	1.85697	0.769514	2.66469	0.553666	6.23572	0.740307	8.38373	0.327669	3.7018	0.561617	6.33418	0.887696	10.0317	0.9942	11.159
0.358063	3.99681	0.1818	1.86461	0.76646	2.66499	0.555368	6.17295	0.741224	8.28356	0.330315	3.68266	0.562498	6.2609	0.887962	9.90281	0.995283	11.0439
0.35869	3.95182	0.184737	1.8721	0.763404	2.66529	0.557074	6.11185	0.742154	8.18614	0.332961	3.66402	0.563393	6.18967	0.888236	9.77736	0.996534	10.915
0.359341	3.90824	0.187677	1.87946	0.760347	2.66558	0.558786	6.05237	0.743098	8.09137	0.335607	3.64586	0.564301	6.1204	0.888518	9.65522	0.997795	10.7895
0.360015	3.86602	0.190622	1.88668	0.757289	2.66588	0.560501	5.99444	0.744054	7.99914	0.338253	3.62816	0.565224	6.05304	0.888809	9.53625	0.999065	10.6673
0.360712	3.8251	0.19357	1.89377	0.75423	2.66617	0.562221	5.93799	0.745025	7.90936	0.340899	3.61089	0.566161	5.98751	0.889108	9.42034	1.00034	10.5483
0.361434	3.78545	0.196522	1.90074	0.751171	2.66646	0.563945	5.88297	0.746008	7.82193	0.343545	3.59405	0.567112	5.92373	0.889415	9.30737		
0.36218	3.74701	0.199478	1.90758	0.74811	2.66676	0.565673	5.82933	0.747005	7.73679	0.34619	3.57761	0.568077	5.86165	0.88973	9.19725		
0.362949	3.70974	0.202436	1.9143	0.745049	2.66705	0.567404	5.77701	0.748016	7.65383	0.348834	3.56156	0.569056	5.80121	0.890054	9.08986		
0.363744	3.67361	0.205398	1.9209	0.741987	2.66734	0.569139	5.72596	0.74904	7.57299	0.351477	3.54588	0.570049	5.74235	0.890386	8.98511		
0.364562	3.63857	0.208363	1.92738	0.738925	2.66763	0.570876	5.67615	0.750077	7.49418	0.354118	3.53055	0.571057	5.68501	0.890727	8.8829		
0.365405	3.60459	0.211331	1.93376	0.735862	2.66793	0.572617	5.62751	0.751128	7.41734	0.356758	3.51557	0.572079	5.62914	0.891076	8.78316		
0.366274	3.57163	0.214302	1.94002	0.732798	2.66822	0.574361	5.58002	0.752192	7.34241	0.359397	3.50091	0.573116	5.5747	0.891433	8.68578		
0.367167	3.53966	0.217276	1.94618	0.729733	2.66851	0.576107	5.53362	0.75327	7.26931	0.362034	3.48657	0.574167	5.52163	0.891799	8.5907		
0.368085	3.50865	0.220253	1.95223	0.726669	2.66881	0.577855	5.48829	0.754362	7.19798	0.364669	3.47254	0.575233	5.46989	0.892174	8.49784		
0.369029	3.47857	0.223232	1.95819	0.723603	2.6691	0.579606	5.44398	0.755467	7.12836	0.367302	3.45879	0.576314	5.41943	0.892557	8.40712		
0.369998	3.44938	0.22583	1.96329	0.720537	2.6694	0.581358	5.40066	0.756586	7.06041	0.369933	3.44533	0.577409	5.37022	0.892949	8.31847		
0.370993	3.42107	0.228047	1.96758	0.717471	2.66969	0.583113	5.3583	0.757718	6.99406	0.372561	3.43214	0.578519	5.32221	0.893349	8.23182		
0.372014	3.39361	0.22988	1.9711	0.714405	2.66999	0.584869	5.31686	0.758864	6.92926	0.375187	3.41921	0.579645	5.27536	0.893757	8.14711		
0.373061	3.36697	0.231331	1.97385	0.711338	2.67029	0.586627	5.27631	0.760024	6.86596	0.37781	3.40653	0.580785	5.22965	0.894174	8.06428		
0.374135	3.34112	0.232398	1.97586	0.708271	2.67059	0.588386	5.23663	0.761197	6.80412	0.380431	3.39409	0.58194	5.18502	0.8946	7.98327		
0.375235	3.31604	0.233081	1.97713	0.705204	2.67089	0.590146	5.19778	0.762384	6.74369	0.383048	3.38188	0.58311	5.14146	0.895034	7.90402		
0.376363	3.29172	0.234063	1.97897	0.702136	2.6712	0.591908	5.15973	0.763585	6.68462	0.385662	3.3699	0.584295	5.09893	0.895477	7.82648		
0.377517	3.26813	0.235131	1.98094	0.699068	2.67151	0.59367	5.12247	0.764799	6.62688	0.388274	3.35813	0.585496	5.05739	0.895929	7.75059		
0.378699	3.24526	0.236584	1.98362	0.696001	2.67182	0.595434	5.08597	0.766026	6.57042	0.390881	3.34658	0.586711	5.01682	0.896389	7.67631		
0.379909	3.22307	0.238422	1.98697	0.692933	2.67213	0.597198	5.0502	0.767268	6.51521	0.393486	3.33522	0.587942	4.97719	0.896858	7.60358		
0.381147	3.20157	0.240646	1.99097	0.689865	2.67244	0.598962	5.01514	0.768523	6.46121	0.396087	3.32407	0.589189	4.93848	0.897335	7.53237		
0.382413	3.18071	0.243256	1.99561	0.686797	2.67276	0.600727	4.98077	0.769791	6.40838	0.398684	3.31309	0.59045	4.90064	0.897821	7.46263		
0.383708	3.16051	0.246253	2.00085	0.68373	2.67308	0.602493	4.94707	0.771073	6.35669	0.401277	3.3023	0.591728	4.86367	0.898315	7.3943		
0.385032	3.14092	0.249252	2.00602	0.680662	2.67341	0.604258	4.91401	0.772369	6.3061	0.403867	3.29169	0.59302	4.82753	0.898819	7.32737		
0.386386	3.12196	0.252253	2.01109	0.677594	2.67373	0.606024	4.88159	0.773678	6.25659	0.406453	3.28125	0.594329	4.79221	0.899331	7.26177		
0.38777	3.10358	0.255256	2.01609	0.674527	2.67407	0.60779	4.84977	0.775001	6.20812	0.409034	3.27097	0.595653	4.75767	0.899851	7.19748		
0.389184	3.0858	0.258261	2.02102	0.67146	2.6744	0.609555	4.81855	0.776337	6.16066	0.411611	3.26085	0.596992	4.72391	0.90038	7.13446		
0.390629	3.06858	0.261268	2.02586	0.668393	2.67474	0.611321	4.7879	0.777686	6.11419	0.414185	3.25088	0.598348	4.69088	0.900918	7.07268		
0.392106	3.05193	0.264277	2.03063	0.665327	2.67509	0.613086	4.75781	0.77905	6.06868	0.416753	3.24106	0.599718	4.65859	0.901464	7.01209		
0.393614	3.03582	0.267287	2.03533	0.66226	2.67544	0.614851	4.72826	0.780426	6.0241	0.419317	3.23139	0.601105	4.627	0.902019	6.95267		
0.395155	3.02025	0.270299	2.03996	0.659195	2.67579	0.616615	4.69924	0.781816	5.98042	0.421877	3.22185	0.602508	4.59611	0.902583	6.89439		
0.396729	3.00521	0.273312	2.04452	0.656129	2.67615	0.618379	4.67073	0.783219	5.93763	0.424432	3.21245	0.603926	4.56588	0.903155	6.83721		
0.398336	2.99069	0.276327	2.04901	0.653065	2.67651	0.620143	4.64273	0.784635	5.89569	0.426983	3.20318	0.60536	4.5363	0.903736	6.78111		
0.399977	2.97667	0.279343	2.05343	0.65	2.67689	0.621905	4.6152	0.786065	5.85459	0.429528	3.19404	0.60681	4.50736	0.904325	6.72605		
0.401653	2.96315	0.282361	2.05778	0.646937	2.67726	0.623667	4.58815	0.787508	5.8143	0.432069	3.18502	0.608276	4.47904	0.904924	6.67202		
0.403364	2.95012	0.28538	2.06208	0.643874	2.67765	0.625429	4.56156	0.788964	5.7748	0.434605	3.17612	0.609757	4.45132	0.90553	6.61898		
0.40511	2.93758	0.2884	2.0663	0.640811	2.67804	0.627189	4.53542	0.790433	5.73608	0.437136	3.16734	0.611255	4.42419	0.906146	6.56691		
0.406893	2.9255	0.291422	2.07047	0.63775	2.67843	0.628949	4.50971	0.791915	5.6981	0.439662	3.15867	0.612768	4.39763	0.90677	6.51578		
0.408712	2.91389	0.294445	2.07458	0.634689	2.67884	0.630708	4.48443	0.79341	5.66085	0.442183	3.15011	0.614298	4.37164	0.907403	6.46558		
0.410568	2.90273	0.297469	2.07863	0.631629	2.67925	0.632466	4.45956	0.794918	5.62432	0.444698	3.14165	0.615843	4.34618	0.908044	6.41627		
0.412462	2.89203	0.300494	2.08261	0.62857	2.67967	0.634222	4.43509	0.796439	5.58848	0.447209	3.1333	0.617404	4.32126	0.908694	6.36783		
0.414393	2.88175	0.303521	2.08655	0.625512	2.6801	0.635978	4.41102	0.797972	5.55332	0.449714	3.12505	0.618982	4.29686	0.909352	6.32025		
0.416362	2.87191	0.306548	2.09042	0.622456	2.68054	0.637733	4.38733	0.799519	5.51882	0.452214	3.1169	0.620575	4.27296	0.910019	6.2735		
0.41837	2.86249	0.309577	2.09424	0.6194	2.68099	0.639487	4.36401	0.801078	5.48496	0.454709	3.10885	0.622183	4.24955	0.910695	6.22756		
0.420416	2.85348	0.312606	2.09801	0.616346	2.68144	0.64124	4.34106	0.802649	5.45173	0.457199	3.10088	0.623808	4.22663	0.91138	6.18242		
0.422501	2.84488	0.315636	2.10172	0.613292	2.68191	0.642992	4.31847	0.804233	5.41911	0.459683	3.09301	0.625449	4.20417	0.912073	6.13805		
0.424624	2.83666	0.318668	2.10539	0.610241	2.68239	0.644743	4.29622	0.805829	5.38709	0.462162	3.08522	0.627105	4.18218	0.912774	6.09443		
0.426785	2.82883	0.3217	2.109	0.60719	2.68288	0.646492	4.27431	0.807438	5.35565	0.464636	3.07753	0.628778	4.16063	0.913484	6.05156		
0.428984	2.82136	0.324733	2.11256	0.604141	2.68338	0.648241	4.25273	0.809059	5.32477	0.467104	3.06991	0.630466	4.13952	0.914203	6.0094		
0.43122	2.81426	0.327766	2.11607	0.601094	2.68389	0.649988	4.23148	0.810692	5.29446	0.469567	3.06238	0.632169	4.11883	0.914931	5.96795		
0.433493	2.8075	0.330801	2.11954	0.598049	2.68442	0.651734	4.21055	0.812337	5.26468	0.472025	3.05493	0.633889	4.09856	0.915667	5.92719		
0.435803	2.80108	0.333836	2.12295	0.595005	2.68496	0.65348	4.18992	0.813994	5.23543	0.474477	3.04755	0.635624	4.0787	0.916411	5.8871		
0.438148	2.79498	0.336872	2.12632	0.591963	2.68552	0.655224	4.1696	0.815663	5.2067	0.476924	3.04026	0.637374	4.05924	0.917165	5.84767		
0.440528	2.78919	0.339908	2.12965	0.588923	2.68609	0.656967	4.14957	0.817343	5.17847	0.479366	3.03304	0.63914	4.04016	0.917926	5.80888		
0.442942	2.7837	0.342945	2.13293	0.585885	2.68667	0.658709	4.12983	0.819036	5.15073	0.481802	3.02589	0.640922	4.02147	0.918697	5.77071		
0.445388	2.7785	0.345983	2.13616	0.58285	2.68728	0.66045	4.11038	0.82074	5.12347	0.484233	3.01881	0.642719	4.00314	0.919476	5.73316		
0.447867	2.77357	0.349021	2.13935	0.579817	2.6879	0.66219	4.0912	0.822455	5.09669	0.486659	3.01181	0.644531	3.98517	0.920263	5.69622		
0.450376	2.7689	0.35206	2.1425	0.576786	2.68854	0.663929	4.07229	0.824181	5.07036	0.489079	3.00487	0.646358	3.96756	0.921059	5.65986		
0.452914	2.76448	0.355099	2.14561	0.573758	2.6892	0.665668	4.05365	0.825919	5.04447	0.491495	2.998	0.648201	3.9503	0.921864	5.62407		
0.455481	2.76029	0.358139	2.14868	0.570733	2.68987	0.667405	4.03527	0.827668	5.01903	0.493905	2.9912	0.650058	3.93337	0.922677	5.58885		
0.458075	2.75633	0.361179	2.1517	0.567711	2.69058	0.669141	4.01715	0.829428	4.99401	0.49631	2.98447	0.651931	3.91677	0.923499	5.55418		
0.460695	2.75257	0.364219	2.15469	0.564692	2.6913	0.670877	3.99927	0.831199	4.96941	0.49871	2.9778	0.653819	3.90049	0.924329	5.52005		
0.46334	2.74902	0.36726	2.15763	0.561676	2.69205	0.672612	3.98164	0.83298	4.94522	0.501106	2.97119	0.655721	3.88453	0.925168	5.48645		
0.466008	2.74565	0.370301	2.16054	0.558663	2.69282	0.674346	3.96425	0.834772	4.92142	0.503496	2.96465	0.657638	3.86887	0.926015	5.45336		
0.468699	2.74246	0.373342	2.16341	0.555654	2.69362	0.676079	3.94709	0.836575	4.89802	0.505881	2.95816	0.659569	3.85352	0.926871	5.42078		
0.471411	2.73944	0.376384	2.16624	0.552649	2.69444	0.677812	3.93017	0.838388	4.875	0.508262	2.95174	0.661515	3.83846	0.927736	5.38869		
0.474144	2.73658	0.379426	2.16903	0.549648	2.6953	0.679544	3.91347	0.840211	4.85235	0.510637	2.94538	0.663476	3.82369	0.928609	5.35709		
0.476895	2.73386	0.382468	2.17179	0.546652	2.69618	0.681275	3.89699	0.842045	4.83006	0.513009	2.93908	0.66545	3.80919	0.929491	5.32597		
0.479664	2.73128	0.38551	2.17451	0.54366	2.6971	0.683006	3.88073	0.843888	4.80813	0.515375	2.93284	0.667439	3.79498	0.930381	5.29531		
0.482451	2.72884	0.388552	2.1772	0.540672	2.69806	0.684736	3.86468	0.845741	4.78655	0.517738	2.92665	0.669441	3.78103	0.931279	5.26511		
0.485253	2.72652	0.391594	2.17985	0.53769	2.69905	0.686466	3.84885	0.847604	4.76531	0.520095	2.92052	0.671458	3.76734	0.932187	5.23536		
0.488071	2.72431	0.394637	2.18247	0.534713	2.70008	0.688196	3.83322	0.849477	4.74441	0.522449	2.91445	0.673488	3.75391	0.933103	5.20604		
0.490903	2.72221	0.397679	2.18506	0.531742	2.70115	0.689926	3.81779	0.851359	4.72382	0.524798	2.90844	0.675532	3.74073	0.934027	5.17716		
0.493749	2.72021	0.400721	2.18761	0.528776	2.70226	0.691655	3.80256	0.853251	4.70356	0.527144	2.90248	0.677589	3.72779	0.93496	5.1487		
0.496607	2.71831	0.403764	2.19013	0.525817	2.70342	0.693384	3.78753	0.855151	4.68361	0.529485	2.89657	0.679659	3.71509	0.935901	5.12065		
0.499478	2.7165	0.406806	2.19261	0.522865	2.70463	0.695113	3.77268	0.857061	4.66397	0.531822	2.89072	0.681742	3.70263	0.936851	5.09301		
0.50236	2.71477	0.409848	2.19506	0.51992	2.70589	0.696842	3.75803	0.85898	4.64462	0.534156	2.88493	0.683839	3.69039	0.93781	5.06576		
0.505252	2.71312	0.41289	2.19749	0.516982	2.70721	0.69857	3.74356	0.860907	4.62557	0.536486	2.87919	0.685948	3.67838	0.938777	5.03891		
0.508155	2.71155	0.415932	2.19988	0.514052	2.70858	0.700299	3.72927	0.862844	4.6068	0.538812	2.8735	0.68807	3.66659	0.939752	5.01244		
0.511067	2.71005	0.418974	2.20224	0.511131	2.71002	0.702029	3.71516	0.864788	4.58831	0.541135	2.86786	0.690204	3.65501	0.940736	4.98634		
0.513988	2.70861	0.422015	2.20457	0.508218	2.71152	0.703758	3.70123	0.866742	4.5701	0.543455	2.86228	0.692351	3.64363	0.941729	4.96062		
0.516918	2.70724	0.425056	2.20687	0.505316	2.71309	0.705488	3.68747	0.868703	4.55216	0.545772	2.85675	0.694509	3.63247	0.94273	4.93525		
0.519855	2.70592	0.428097	2.20914	0.502423	2.71473	0.707218	3.67389	0.870672	4.53447	0.548085	2.85127	0.69668	3.6215	0.94374	4.91024		
0.5228	2.70466	0.431138	2.21138	0.499541	2.71646	0.708948	3.66046	0.87265	4.51705	0.550396	2.84584	0.698863	3.61072	0.944758	4.88558		
0.525752	2.70345	0.434178	2.21359	0.49667	2.71827	0.710679	3.64721	0.874635	4.49987	0.552703	2.84046	0.701057	3.60014	0.945785	4.86127		
0.528711	2.70229	0.437218	2.21578	0.493811	2.72017	0.71241	3.63411	0.876628	4.48295	0.555009	2.83514	0.703262	3.58974	0.94682	4.83729		
0.531676	2.70117	0.440257	2.21794	0.490965	2.72216	0.714142	3.62118	0.878629	4.46626	0.557311	2.82987	0.705479	3.57952	0.947864	4.81364		
0.534648	2.7001	0.443296	2.22006	0.488133	2.72426	0.715875	3.6084	0.880637	4.44981	0.559612	2.82464	0.707707	3.56948	0.948917	4.79031		
0.537625	2.69907	0.446334	2.22217	0.485315	2.72647	0.717609	3.59578	0.882652	4.43359	0.56191	2.81947	0.709946	3.55961	0.949978	4.76731		
0.540607	2.69808	0.449372	2.22424	0.482512	2.72879	0.719343	3.58331	0.884674	4.4176	0.564206	2.81435	0.712195	3.54992	0.951047	4.74462		
0.543594	2.69712	0.45241	2.22629	0.479725	2.73123	0.721078	3.57099	0.886704	4.40183	0.5665	2.80928	0.714455	3.54038	0.952125	4.72223		
0.546586	2.6962	0.455446	2.22831	0.476955	2.7338	0.722815	3.55882	0.88874	4.38628	0.568792	2.80426	0.716726	3.53101	0.953212	4.70015		
0.549583	2.69532	0.458483	2.2303	0.474204	2.73652	0.724552	3.54679	0.890783	4.37094	0.571082	2.79928	0.719006	3.5218	0.954308	4.67836		
0.552584	2.69446	0.461518	2.23227	0.471471	2.73938	0.726291	3.53491	0.892833	4.3558	0.573371	2.79436	0.721296	3.51274	0.955411	4.65687		
0.555589	2.69363	0.464553	2.23421	0.468758	2.74239	0.72803	3.52317	0.894889	4.34088	0.575659	2.78949	0.723597	3.50384	0.956524	4.63566		
0.558597	2.69283	0.467587	2.23613	0.466067	2.74558	0.729771	3.51157	0.896951	4.32615	0.577945	2.78466	0.725907	3.49507	0.957645	4.61474		
0.56161	2.69206	0.47062	2.23802	0.463398	2.74894	0.731514	3.5001	0.89902	4.31162	0.58023	2.77989	0.728226	3.48646	0.958775	4.59409		
0.564626	2.69131	0.473653	2.23989	0.460753	2.75249	0.733257	3.48877	0.901094	4.29728	0.582515	2.77517	0.730554	3.47798	0.959913	4.57372		
0.567645	2.69059	0.476684	2.24174	0.458132	2.75624	0.735002	3.47758	0.903175	4.28313	0.584798	2.77049	0.732892	3.46964	0.96106	4.55361		
0.570667	2.68989	0.479715	2.24355	0.455538	2.7602	0.736749	3.46651	0.905261	4.26916	0.587081	2.76586	0.735238	3.46144	0.962215	4.53377		
0.573692	2.68921	0.482745	2.24535	0.45297	2.76438	0.738498	3.45558	0.907353	4.25538	0.589363	2.76128	0.737593	3.45337	0.963379	4.51419		
0.57672	2.68855	0.485774	2.24712	0.450431	2.7688	0.740248	3.44477	0.90945	4.24177	0.591645	2.75675	0.739956	3.44542	0.964552	4.49486		
0.57975	2.68791	0.488802	2.24887	0.447921	2.77347	0.741999	3.43409	0.911553	4.22834	0.593927	2.75227	0.742328	3.4376	0.965733	4.47579		
0.582783	2.68729	0.491829	2.25059	0.445442	2.77839	0.743753	3.42353	0.913661	4.21507	0.596209	2.74784	0.744708	3.4299	0.966923	4.45696		
0.585819	2.68669	0.494855	2.25229	0.442995	2.78359	0.745509	3.4131	0.915774	4.20197	0.598491	2.74345	0.747095	3.42232	0.968122	4.43837		
0.588857	2.6861	0.497879	2.25397	0.44058	2.78907	0.747266	3.40278	0.917892	4.18904	0.600773	2.73912	0.749491	3.41486	0.969329	4.42003		
0.591896	2.68553	0.500903	2.25562	0.4382	2.79485	0.749026	3.39259	0.920015	4.17627	0.603055	2.73483	0.751893	3.40751	0.970546	4.40192		
0.594938	2.68497	0.503926	2.25725	0.435854	2.80094	0.750787	3.38251	0.922143	4.16365	0.605338	2.73059	0.754304	3.40027	0.97177	4.38404		
0.597982	2.68443	0.506947	2.25886	0.433544	2.80736	0.752551	3.37255	0.924275	4.15119	0.607621	2.72639	0.756721	3.39314	0.973004	4.36639		
0.601027	2.68391	0.509967	2.26045	0.431269	2.81411	0.754317	3.36271	0.926412	4.13888	0.609905	2.72225	0.759145	3.38612	0.974246	4.34896		
0.604075	2.68339	0.512985	2.26201	0.429032	2.8212	0.756086	3.35298	0.928553	4.12672	0.612191	2.71815	0.761576	3.3792	0.975497	4.33176		
0.607123	2.68289	0.516003	2.26355	0.426833	2.82866	0.757856	3.34336	0.930698	4.1147	0.614477	2.7141	0.764013	3.37238	0.976756	4.31477		
0.610174	2.6824	0.519019	2.26507	0.424671	2.83649	0.759629	3.33384	0.932848	4.10283	0.616765	2.7101	0.766457	3.36566	0.978025	4.298		
0.613226	2.68192	0.522033	2.26657	0.422547	2.84469	0.761405	3.32444	0.935001	4.09109	0.619053	2.70614	0.768907	3.35903	0.979302	4.28144		
0.616279	2.68145	0.525046	2.26805	0.420462	2.85329	0.763183	3.31515	0.937158	4.07949	0.621344	2.70223	0.771364	3.3525	0.980588	4.26508		
0.619333	2.681	0.528058	2.2695	0.418415	2.86229	0.764964	3.30596	0.939319	4.06803	0.623636	2.69837	0.773826	3.34606	0.981882	4.24893		
0.622389	2.68055	0.531068	2.27094	0.416406	2.8717	0.766748	3.29688	0.941484	4.0567	0.62593	2.69455	0.776293	3.33972	0.983186	4.23299		
0.625446	2.68011	0.534076	2.27235	0.414436	2.88153	0.768534	3.2879	0.943652	4.0455	0.628226	2.69079	0.778766	3.33346	0.984498	4.21724		
0.628503	2.67968	0.537083	2.27374	0.412503	2.8918	0.770323	3.27902	0.945823	4.03442	0.630523	2.68706	0.781245	3.32728	0.985819	4.20169		
0.631562	2.67926	0.540088	2.27511	0.410609	2.90249	0.772115	3.27024	0.947998	4.02347	0.632823	2.68339	0.783729	3.32119	0.987149	4.18633		
0.634622	2.67885	0.543091	2.27646	0.408752	2.91364	0.77391	3.26156	0.950175	4.01265	0.635125	2.67976	0.786217	3.31518	0.988488	4.17116		
0.637683	2.67844	0.546093	2.27779	0.406932	2.92524	0.775707	3.25298	0.952356	4.00194	0.63743	2.67618	0.788711	3.30925	0.989835	4.15618		
0.640744	2.67804	0.549092	2.2791	0.405149	2.93731	0.777508	3.2445	0.95454	3.99135	0.639737	2.67264	0.791209	3.30339	0.991192	4.14138		
0.643807	2.67765	0.55209	2.28039	0.403402	2.94984	0.779312	3.23611	0.956726	3.98087	0.642047	2.66915	0.793711	3.29762	0.992557	4.12676		
0.64687	2.67727	0.555086	2.28166	0.40169	2.96286	0.781119	3.22782	0.958915	3.97051	0.64436	2.6657	0.796218	3.29191	0.993932	4.11233		
0.649933	2.67689	0.55808	2.2829	0.400014	2.97637	0.782929	3.21962	0.961107	3.96026	0.646676	2.6623	0.798729	3.28628	0.995315	4.09807		
0.652997	2.67652	0.561072	2.28413	0.398372	2.99037	0.784743	3.21151	0.963301	3.95012	0.648995	2.65895	0.801244	3.28072	0.996708	4.08399		
0.656062	2.67616	0.564061	2.28534	0.396764	3.00489	0.78656	3.2035	0.965497	3.94008	0.651317	2.65564	0.803762	3.27523	0.998109	4.07007		
0.659127	2.6758	0.567049	2.28652	0.395189	3.01992	0.78838	3.19557	0.967696	3.93016	0.653642	2.65237	0.806285	3.2698	0.999519	4.05633		
0.662193	2.67544	0.570034	2.28769	0.393648	3.03547	0.790204	3.18774	0.969897	3.92033	0.655971	2.64916	0.808811	3.26445	1.00094	4.04276		
0.665259	2.67509	0.573018	2.28884	0.392139	3.05157	0.792031	3.17999	0.972099	3.9106	0.658303	2.64598	0.81134	3.25915				
0.668326	2.67475	0.575999	2.28996	0.390661	3.06821	0.793862	3.17233	0.974304	3.90098	0.660639	2.64285	0.813872	3.25392				
0.671393	2.67441	0.578977	2.29107	0.389215	3.08541	0.795696	3.16476	0.976511	3.89145	0.662979	2.63977	0.816407	3.24875				
0.67446	2.67407	0.581953	2.29216	0.387801	3.10319	0.797535	3.15727	0.978719	3.88202	0.665323	2.63673	0.818946	3.24364				
0.677527	2.67374	0.584927	2.29323	0.386416	3.12155	0.799376	3.14987	0.980929	3.87268	0.667671	2.63373	0.821486	3.23858				
0.680595	2.67341	0.587899	2.29428	0.385062	3.1405	0.801222	3.14254	0.98314	3.86344	0.670023	2.63078	0.82403	3.23359				
0.683662	2.67309	0.590867	2.29531	0.383737	3.16007	0.803071	3.13531	0.985353	3.85428	0.672379	2.62787	0.826576	3.22865				
0.68673	2.67277	0.593833	2.29632	0.382441	3.18027	0.804924	3.12815	0.987567	3.84522	0.674739	2.625	0.829124	3.22376				
0.689798	2.67245	0.596797	2.29731	0.381174	3.2011	0.806782	3.12107	0.989782	3.83624	0.677104	2.62218	0.831674	3.21892				
0.692866	2.67214	0.599758	2.29828	0.379936	3.2226	0.808643	3.11407	0.991999	3.82735	0.679474	2.61941	0.834226	3.21414				
0.695934	2.67182	0.602716	2.29923	0.378725	3.24476	0.810508	3.10715	0.994216	3.81854	0.681849	2.61667	0.83678	3.20941				
0.699001	2.67151	0.605671	2.30016	0.377543	3.26763	0.812377	3.10031	0.996434	3.80982	0.684228	2.61398	0.839336	3.20473				
0.702069	2.67121	0.608623	2.30108	0.376388	3.2912	0.81425	3.09355	0.998654	3.80117	0.686612	2.61133	0.841893	3.20009				
0.705136	2.6709	0.611573	2.30197	0.37526	3.3155	0.816128	3.08686	1.00087	3.79261	0.689001	2.60872	0.844452	3.1955				
0.708204	2.6706	0.614519	2.30284	0.374159	3.34056	0.81801	3.08025			0.691395	2.60616	0.847011	3.19096				
0.711271	2.6703	0.617463	2.3037	0.373085	3.36639	0.819896	3.07371			0.693794	2.60364	0.849572	3.18646				
0.714338	2.67	0.620403	2.30454	0.372037	3.39302	0.821786	3.06724			0.696199	2.60116	0.852134	3.182				
0.717404	2.6697	0.62334	2.30536	0.371015	3.42046	0.823681	3.06085			0.698609	2.59872	0.854697	3.17759				
0.72047	2.6694	0.626275	2.30616	0.37002	3.44876	0.82558	3.05453			0.701024	2.59632	0.857261	3.17322				
0.723536	2.66911	0.629205	2.30694	0.36905	3.47792	0.827484	3.04829			0.703445	2.59397	0.859825	3.16888				
0.726601	2.66881	0.632133	2.3077	0.368106	3.50798	0.829392	3.04211			0.705872	2.59165	0.86239	3.16459				
0.729666	2.66852	0.635057	2.30844	0.367187	3.53897	0.831305	3.036			0.708305	2.58938	0.864955	3.16034				
0.732731	2.66822	0.637978	2.30917	0.366293	3.57092	0.833223	3.02996			0.710743	2.58715	0.86752	3.15612				
0.735794	2.66793	0.640895	2.30988	0.365424	3.60385	0.835145	3.02399			0.713187	2.58495	0.870085	3.15194				
0.738858	2.66764	0.643809	2.31056	0.36458	3.63781	0.837072	3.01809			0.715638	2.5828	0.87265	3.14779				
0.74192	2.66735	0.64672	2.31123	0.363761	3.67283	0.839004	3.01226			0.718094	2.58069	0.875216	3.14368				
0.744982	2.66706	0.649626	2.31188	0.362967	3.70894	0.840941	3.00649			0.720556	2.57862	0.87778	3.1396				
0.748043	2.66676	0.65253	2.31252	0.362196	3.74618	0.842882	3.00079			0.723025	2.57659	0.880345	3.13556				
0.751104	2.66647	0.655429	2.31313	0.36145	3.78459	0.844829	2.99515			0.7255	2.5746	0.882909	3.13154				
0.754163	2.66618	0.658325	2.31373	0.360728	3.82422	0.84678	2.98958			0.727982	2.57264	0.885472	3.12756				
0.757222	2.66588	0.661217	2.31431	0.36003	3.86511	0.848737	2.98407			0.730469	2.57073	0.888035	3.12361				
0.76028	2.66559	0.664105	2.31487	0.359355	3.9073	0.850699	2.97863			0.732964	2.56885	0.890597	3.11969				
0.763337	2.66529	0.666989	2.31541	0.358704	3.95085	0.852666	2.97325			0.735465	2.56701	0.893158	3.1158				
0.766393	2.665	0.66987	2.31593	0.358077	3.99581	0.854638	2.96793			0.737972	2.56521	0.895717	3.11194				
0.769447	2.6647	0.672747	2.31644	0.357472	4.04222	0.856616	2.96267			0.740487	2.56345	0.898276	3.1081				
0.772501	2.6644	0.675619	2.31693	0.356891	4.09015	0.858599	2.95748			0.743008	2.56173	0.900834	3.10429				
0.775553	2.6641	0.678488	2.3174	0.356332	4.13966	0.860588	2.95234			0.745536	2.56004	0.90339	3.10051				
0.778605	2.6638	0.681353	2.31786	0.355796	4.19082	0.862582	2.94726			0.74807	2.55839	0.905944	3.09675				
0.781655	2.66349	0.684213	2.31829	0.355283	4.24368	0.864581	2.94225			0.750612	2.55678	0.908497	3.09302				
0.784703	2.66319	0.68707	2.31871	0.354792	4.29832	0.866587	2.93729			0.753161	2.5552	0.911049	3.08931				
0.78775	2.66288	0.689922	2.31912	0.354323	4.35481	0.868598	2.9324			0.755716	2.55366	0.913598	3.08562				
0.790796	2.66257	0.692771	2.3195	0.353876	4.41324	0.870615	2.92756			0.758279	2.55216	0.916146	3.08196				
0.79384	2.66225	0.695615	2.31987	0.353451	4.47369	0.872637	2.92278			0.760848	2.55069	0.918692	3.07832				
0.796883	2.66193	0.698455	2.32022	0.353047	4.53624	0.874666	2.91805			0.763425	2.54926	0.921236	3.0747				
0.799924	2.66161	0.701291	2.32056	0.352664	4.601	0.876701	2.91339			0.766009	2.54786	0.923778	3.07111				
0.802963	2.66129	0.704123	2.32088	0.352303	4.66806	0.878741	2.90878			0.7686	2.5465	0.926317	3.06753				
0.806	2.66096	0.70695	2.32118	0.351962	4.73752	0.880788	2.90422			0.771198	2.54517	0.928855	3.06397				
0.809036	2.66063	0.709774	2.32147	0.351642	4.80951	0.882841	2.89972			0.773803	2.54387	0.93139	3.06044				
0.812069	2.6603	0.712593	2.32174	0.351342	4.88413	0.884901	2.89528			0.776416	2.54261	0.933922	3.05692				
0.815101	2.65996	0.715408	2.322	0.351062	4.96153	0.886967	2.89089			0.779036	2.54138	0.936452	3.05343				
0.81813	2.65962	0.718219	2.32224	0.350803	5.04183	0.889039	2.88656			0.781663	2.54018	0.93898	3.04995				
0.821157	2.65927	0.721026	2.32246	0.350562	5.12518	0.891118	2.88228			0.784297	2.53902	0.941505	3.04649				
0.824182	2.65892	0.723828	2.32267	0.350341	5.21174	0.893204	2.87806			0.786938	2.53789	0.944027	3.04304				
0.827204	2.65856	0.726626	2.32287	0.350138	5.30168	0.895296	2.87389			0.789587	2.53679	0.946546	3.03962				
0.830224	2.6582	0.729421	2.32305	0.349954	5.39517	0.897396	2.86977			0.792243	2.53572	0.949062	3.03621				
0.833241	2.65783	0.732211	2.32322	0.349788	5.4924	0.899502	2.8657			0.794906	2.53468	0.951576	3.03281				
0.836256	2.65746	0.734997	2.32337	0.349641	5.59359	0.901616	2.86169			0.797576	2.53368	0.954086	3.02944				
0.839268	2.65708	0.737779	2.32351	0.34951	5.69895	0.903736	2.85773			0.800254	2.5327	0.956594	3.02607				
0.842277	2.65669	0.740556	2.32363	0.349397	5.80873	0.905864	2.85383			0.802938	2.53175	0.959098	3.02273				
0.845283	2.6563	0.74333	2.32374	0.3493	5.92317	0.908	2.84997			0.80563	2.53084	0.9616	3.0194				
0.848285	2.6559	0.7461	2.32384	0.34922	6.04257	0.910143	2.84617			0.808329	2.52995	0.964098	3.01608				
0.851285	2.65549	0.748865	2.32392	0.349156	6.16722	0.912293	2.84242			0.811035	2.52909	0.966593	3.01278				
0.854281	2.65507	0.751627	2.32399	0.349107	6.29745	0.914452	2.83873			0.813748	2.52826	0.969084	3.00949				
0.857274	2.65465	0.754385	2.32405	0.349074	6.43362	0.916618	2.83508			0.816468	2.52745	0.971572	3.00621				
0.860263	2.65422	0.757139	2.3241	0.349055	6.5761	0.918793	2.83148			0.819195	2.52668	0.974057	3.00295				
0.863248	2.65378	0.759889	2.32413	0.34905	6.72533	0.920976	2.82794			0.821928	2.52593	0.976539	2.9997				
0.866229	2.65333	0.762636	2.32415	0.349059	6.88177	0.923167	2.82445			0.824669	2.5252	0.979017	2.99647				
0.869206	2.65288	0.765378	2.32416	0.34908	7.04591	0.925366	2.821			0.827417	2.52451	0.981491	2.99324				
0.872179	2.65241	0.768117	2.32416	0.349115	7.21831	0.927575	2.81761			0.830171	2.52384	0.983962	2.99003				
0.875148	2.65193	0.770853	2.32415	0.349162	7.39958	0.929792	2.81427			0.832932	2.52319	0.98643	2.98683				
0.878112	2.65145	0.773585	2.32413	0.34922	7.59038	0.932018	2.81098			0.8357	2.52257	0.988894	2.98365				
0.881071	2.65095	0.776313	2.3241	0.349289	7.79147	0.934253	2.80775			0.838474	2.52197	0.991354	2.98047				
0.884026	2.65044	0.779038	2.32406	0.349369	8.00365	0.936497	2.80456			0.841255	2.5214	0.993811	2.97731				
0.886976	2.64992	0.781759	2.324	0.349458	8.22784	0.938751	2.80142			0.844042	2.52085	0.996264	2.97416				
0.88992	2.64939	0.784477	2.32394	0.349557	8.46504	0.941015	2.79833			0.846836	2.52032	0.998713	2.97102				
0.892859	2.64885	0.787192	2.32387	0.349664	8.7164	0.943288	2.7953			0.849636	2.51982	1.00116	2.96789				
0.895793	2.64829	0.789903	2.32379	0.349779	8.98318	0.945571	2.79231			0.852443	2.51933						
0.89872	2.64772	0.792612	2.3237	0.349886	9.22934	0.947865	2.78938			0.855256	2.51887						
0.901642	2.64714	0.795317	2.32361	0.34998	9.45007	0.950169	2.78649			0.858075	2.51843						
0.904558	2.64654	0.798019	2.3235	0.350061	9.64071	0.952483	2.78366			0.860899	2.51802						
0.907468	2.64593	0.800718	2.32339	0.350127	9.79696	0.954808	2.78088			0.86373	2.51762						
0.910371	2.64531	0.803415	2.32327	0.350176	9.9151	0.957144	2.77814			0.866567	2.51724						
0.913268	2.64467	0.806108	2.32314	0.350222	10.0263	0.959491	2.77546			0.86941	2.51688						
0.916157	2.64401	0.808799	2.323	0.350254	10.1052	0.961849	2.77283			0.872258	2.51654						
0.91904	2.64334	0.811487	2.32286	0.350304	10.2309	0.964219	2.77025			0.875113	2.51622						
0.921916	2.64265	0.814173	2.32271	0.350374	10.4069	0.9666	2.76772			0.877973	2.51592						
0.924784	2.64195	0.816856	2.32256	0.350464	10.6383	0.968994	2.76524			0.880838	2.51563						
0.927645	2.64123	0.819536	2.3224	0.350574	10.9322	0.971399	2.76281			0.883709	2.51537						
0.930498	2.64049	0.822214	2.32223	0.350706	11.2981	0.973816	2.76044			0.886585	2.51512						
0.933343	2.63974	0.82489	2.32206	0.35086	11.7491	0.976245	2.75811			0.889466	2.51488						
0.93618	2.63897	0.827563	2.32188	0.351016	12.2373	0.978687	2.75583			0.892353	2.51467						
0.939009	2.63818	0.830234	2.3217	0.351172	12.7673	0.981141	2.7536			0.895245	2.51446						
0.94183	2.63737	0.832904	2.32151	0.35133	13.3448	0.983608	2.75143			0.898142	2.51428						
0.944643	2.63655	0.835571	2.32132	0.351487	13.9764	0.986088	2.7493			0.901044	2.51411						
0.947447	2.6357	0.838236	2.32113	0.351643	14.6701	0.988581	2.74722			0.90395	2.51395						
0.950242	2.63484	0.840899	2.32093	0.351797	15.4354	0.991087	2.7452			0.906862	2.51381						
0.953029	2.63396	0.84356	2.32072	0.351949	16.2841	0.993605	2.74322			0.909778	2.51368						
0.955806	2.63306	0.84622	2.32052	0.352097	17.2305	0.996137	2.74129			0.912699	2.51357						
0.958576	2.63214	0.848878	2.32031	0.352242	18.2926	0.998683	2.73941			0.915625	2.51347						
0.961336	2.63121	0.851534	2.32009	0.352382	19.4929	1.00124	2.73758			0.918555	2.51338						
0.964087	2.63026	0.854188	2.31988	0.352517	20.8603					0.921489	2.5133						
0.96683	2.62928	0.856841	2.31966	0.352646	22.4323					0.924428	2.51324						
0.969563	2.62829	0.859493	2.31944	0.352769	24.2587					0.927371	2.51319						
0.972288	2.62729	0.862143	2.31921	0.352884	26.4067					0.930318	2.51315						
0.975004	2.62626	0.864792	2.31899	0.352992	28.9695					0.933269	2.51312						
0.977711	2.62522	0.86744	2.31876	0.353091	32.0805					0.936224	2.5131						
0.98041	2.62416	0.870086	2.31853	0.353182	35.9367					0.939184	2.5131						
0.9831	2.62309	0.872731	2.3183	0.353264	40.8427					0.942147	2.5131						
0.985782	2.622	0.875375	2.31806	0.353336	47.2951					0.945114	2.51311						
0.988456	2.6209	0.878019	2.31783	0.353399	56.1631					0.948084	2.51314						
0.991121	2.61978	0.880661	2.31759	0.353451	69.1163					0.951059	2.51317						
0.993779	2.61865	0.883302	2.31736	0.353492	89.8251					0.954036	2.51321						
0.996429	2.6175	0.885942	2.31712	0.353523	128.235					0.957018	2.51326						
0.999072	2.61634	0.888582	2.31688	0.353544	224					0.960003	2.51332						
1.00171	2.61517	0.89122	2.31664	0.353553	884.304					0.962991	2.51339						
		0.893858	2.3164							0.965983	2.51347						
		0.896496	2.31616							0.968978	2.51355						
		0.899132	2.31593							0.971976	2.51365						
		0.901769	2.31569							0.974977	2.51375						
		0.904404	2.31545							0.977981	2.51385						
		0.907039	2.31521							0.980988	2.51397						
		0.909674	2.31497							0.983999	2.51409						
		0.912308	2.31473							0.987012	2.51422						
		0.914942	2.31449							0.990028	2.51435						
		0.917576	2.31425							0.993046	2.51449						
		0.920209	2.31402							0.996068	2.51464						
		0.922842	2.31378							0.999092	2.51479						
		0.925475	2.31355							1.00212	2.51495						
		0.928107	2.31331														
		0.93074	2.31308														
		0.933372	2.31285														
		0.936005	2.31262														
		0.938637	2.31239														
		0.941269	2.31216														
		0.943901	2.31193														
		0.946534	2.31171														
		0.949166	2.31148														
		0.951799	2.31126														
		0.954432	2.31104														
		0.957064	2.31082														
		0.959698	2.31061														
		0.962331	2.31039														
		0.964964	2.31018														
		0.967598	2.30996														
		0.970232	2.30975														
		0.972866	2.30954														
		0.975501	2.30934														
		0.978136	2.30913														
		0.980771	2.30893														
		0.983407	2.30873														
		0.986043	2.30853														
		0.98868	2.30834														
		0.991316	2.30814														
		0.993954	2.30795														
		0.996592	2.30776														
		0.99923	2.30757														
		1.00187	2.30739														
