Sym0		Asym0		Sym1		Sym2		Sym3		Asym1		Asym2		Asym3		Asym4	
334  Points		374  Points		334  Points		318  Points		233  Points		345  Points		295  Points		222  Points		103  Points	
Freq (MHz)	Vph (m/ms)	Freq (MHz)	Vph (m/ms)	Freq (MHz)	Vph (m/ms)	Freq (MHz)	Vph (m/ms)	Freq (MHz)	Vph (m/ms)	Freq (MHz)	Vph (m/ms)	Freq (MHz)	Vph (m/ms)	Freq (MHz)	Vph (m/ms)	Freq (MHz)	Vph (m/ms)
0.353553	4995.76	0.00035094	0.115745	1.00216	2.59356	0.452903	3411.86	0.707107	2785.72	0.176777	1814.2	0.53033	10727.3	0.883883	2678.69	0.905823	842.63
0.353543	282.997	0.000675592	0.160453	0.999645	2.59495	0.452934	345.42	0.707115	493.677	0.176837	138.592	0.530335	431.887	0.883868	585.933	0.905881	401.988
0.353515	145.612	0.00110399	0.204859	0.997123	2.59635	0.453014	181.95	0.707133	270.843	0.177	72.1137	0.53035	220.386	0.883833	328.93	0.905981	263.979
0.353468	98.0139	0.00163493	0.248942	0.994596	2.59774	0.453144	123.53	0.707162	186.618	0.177266	48.7937	0.530373	147.944	0.883779	228.633	0.906121	196.533
0.353404	73.8594	0.00226651	0.292602	0.992065	2.59913	0.453323	93.5306	0.707202	142.355	0.177633	36.9186	0.530407	111.348	0.883708	175.199	0.906301	156.555
0.353322	59.2491	0.00299664	0.335774	0.98953	2.60052	0.453551	75.2745	0.707253	115.068	0.178101	29.733	0.530449	89.2712	0.883619	142.003	0.906519	130.106
0.353223	49.4582	0.00382305	0.378404	0.986989	2.6019	0.453828	62.9983	0.707314	96.5629	0.178667	24.9239	0.530501	74.5033	0.883513	119.377	0.906775	111.314
0.353107	42.439	0.00474328	0.420445	0.984444	2.60328	0.454153	54.1799	0.707386	83.1885	0.17933	21.4843	0.530563	63.9308	0.883393	102.965	0.907067	97.277
0.352975	37.1598	0.00575467	0.461848	0.981893	2.60465	0.454526	47.5404	0.707469	73.0711	0.180087	18.9057	0.530633	55.9886	0.883258	90.5158	0.907394	86.3931
0.352828	33.0445	0.00685426	0.502563	0.979336	2.60602	0.454945	42.3624	0.707562	65.1505	0.180936	16.9035	0.530713	49.804	0.883111	80.7485	0.907754	77.7081
0.352667	29.7461	0.00803912	0.542556	0.976774	2.60737	0.45541	38.2124	0.707667	58.7815	0.181875	15.3061	0.530803	44.852	0.882953	72.8805	0.908147	70.6174
0.352491	27.0431	0.00930629	0.581802	0.974204	2.60872	0.455921	34.8128	0.707782	53.549	0.182901	14.0035	0.530902	40.7976	0.882785	66.4068	0.90857	64.7193
0.352303	24.7875	0.0106526	0.620272	0.971629	2.61006	0.456476	31.9776	0.707908	49.174	0.18401	12.9224	0.531011	37.4173	0.882609	60.9869	0.909023	59.7368
0.352102	22.8765	0.012075	0.657944	0.969046	2.61139	0.457076	29.5777	0.708044	45.4618	0.1852	12.0119	0.531129	34.556	0.882426	56.3828	0.909504	55.4723
0.35189	21.2366	0.0135703	0.694805	0.966456	2.61271	0.457717	27.5204	0.708192	42.2726	0.186468	11.2353	0.531257	32.1028	0.882236	52.4232	0.910012	51.7813
0.351667	19.814	0.0151355	0.730841	0.963859	2.61401	0.458401	25.7378	0.70835	39.5031	0.187633	10.6467	0.531394	29.9763	0.882043	48.9816	0.910545	48.5555
0.351436	18.568	0.0167675	0.766053	0.961253	2.61531	0.459125	24.1786	0.708519	37.0758	0.18867	10.1989	0.531541	28.1155	0.881845	45.9626	0.911103	45.7125
0.351196	17.4677	0.0184633	0.80043	0.95864	2.61659	0.459889	22.8036	0.7087	34.9311	0.189557	9.86094	0.531697	26.4735	0.881645	43.2929	0.911685	43.188
0.350949	16.4889	0.0202198	0.833973	0.956019	2.61785	0.460692	21.5822	0.70889	33.0223	0.190276	9.61211	0.531863	25.014	0.881444	40.9152	0.912289	40.9315
0.350695	15.6125	0.0220345	0.866692	0.953388	2.6191	0.461533	20.4903	0.709092	31.3127	0.190814	9.43863	0.532039	23.7082	0.881243	38.7842	0.912914	38.9025
0.350436	14.8233	0.0239045	0.89859	0.95075	2.62034	0.462411	19.5086	0.709305	29.7726	0.191163	9.33156	0.532224	22.5331	0.881041	36.8633	0.913561	37.0685
0.350174	14.1088	0.0258272	0.929679	0.948102	2.62156	0.463324	18.6212	0.709529	28.3782	0.191671	9.18277	0.532419	21.4701	0.880841	35.1231	0.914227	35.4026
0.349908	13.459	0.0277999	0.959965	0.945446	2.62276	0.464272	17.8155	0.709763	27.1098	0.192231	9.02754	0.532625	20.5039	0.880643	33.5391	0.914913	33.8828
0.349639	12.8655	0.0298202	0.989461	0.94278	2.62394	0.465254	17.0807	0.710009	25.951	0.193005	8.8266	0.532839	19.622	0.880447	32.0913	0.915617	32.4909
0.34937	12.3213	0.0318858	1.01819	0.940104	2.6251	0.466268	16.408	0.710265	24.8883	0.194004	8.58797	0.533064	18.8138	0.880254	30.7628	0.916339	31.2112
0.349101	11.8205	0.0339945	1.04615	0.93742	2.62625	0.467314	15.79	0.710533	23.9103	0.195242	8.32032	0.533299	18.0704	0.880065	29.5396	0.917078	30.0309
0.348832	11.3581	0.0361442	1.07338	0.934725	2.62738	0.46839	15.2203	0.710811	23.0072	0.196734	8.03236	0.533543	17.3845	0.879881	28.4096	0.917835	28.9389
0.348565	10.93	0.0383327	1.09988	0.932021	2.62848	0.469496	14.6935	0.711101	22.1709	0.198496	7.73228	0.533798	16.7496	0.879701	27.3626	0.918608	27.9256
0.348302	10.5325	0.0405582	1.12567	0.929308	2.62957	0.470631	14.2051	0.711402	21.3942	0.200311	7.46047	0.534063	16.1603	0.879526	26.3898	0.919396	26.9829
0.348041	10.1625	0.0428188	1.15077	0.926584	2.63064	0.471794	13.7511	0.711713	20.6709	0.202174	7.21326	0.534337	15.6119	0.879356	25.4836	0.920201	26.1036
0.347786	9.81722	0.0451129	1.1752	0.923851	2.63168	0.472983	13.3279	0.712036	19.9959	0.204084	6.98759	0.534622	15.1003	0.879193	24.6374	0.92102	25.2817
0.347536	9.49432	0.0474387	1.19898	0.921108	2.63271	0.474199	12.9327	0.71237	19.3644	0.206038	6.78088	0.534918	14.6219	0.879035	23.8455	0.921854	24.5116
0.347292	9.19173	0.0497947	1.22212	0.918356	2.63371	0.47544	12.5628	0.712716	18.7724	0.208034	6.59092	0.535223	14.1737	0.878884	23.1028	0.922703	23.7888
0.347056	8.90763	0.0521795	1.24465	0.915593	2.63469	0.476704	12.2158	0.713072	18.2163	0.210069	6.41584	0.535539	13.7528	0.87874	22.4049	0.923566	23.1089
0.346828	8.64041	0.0545915	1.26658	0.912822	2.63566	0.477993	11.8897	0.71344	17.693	0.212141	6.25402	0.535865	13.357	0.878603	21.7479	0.924443	22.4683
0.346608	8.38865	0.0570296	1.28793	0.91004	2.6366	0.479304	11.5828	0.713819	17.1997	0.214248	6.10408	0.536202	12.9839	0.878473	21.1284	0.925333	21.8637
0.346398	8.15108	0.0594924	1.30872	0.90725	2.63752	0.480637	11.2934	0.71421	16.734	0.216389	5.96479	0.536549	12.6319	0.87835	20.5431	0.926237	21.2921
0.346198	7.92657	0.0619788	1.32896	0.90445	2.63842	0.481991	11.02	0.714611	16.2935	0.218562	5.83512	0.536907	12.299	0.878235	19.9895	0.927154	20.751
0.34601	7.7141	0.0644876	1.34868	0.901641	2.6393	0.483366	10.7615	0.715025	15.8763	0.220764	5.71412	0.537275	11.984	0.878128	19.4649	0.928084	20.238
0.345833	7.51276	0.067018	1.36788	0.898823	2.64016	0.48458	10.5474	0.715449	15.4806	0.222994	5.60099	0.537654	11.6853	0.878028	18.9672	0.929027	19.751
0.345668	7.32173	0.0695686	1.38659	0.895996	2.64099	0.485626	10.3725	0.715885	15.1049	0.22525	5.49501	0.538044	11.4017	0.877937	18.4944	0.929982	19.2881
0.345516	7.14028	0.0721388	1.40482	0.89316	2.64181	0.486499	10.2329	0.716333	14.7476	0.227532	5.39555	0.538445	11.1322	0.877853	18.0447	0.93095	18.8475
0.345378	6.96774	0.0747275	1.42258	0.890317	2.64261	0.487194	10.1256	0.716792	14.4075	0.229837	5.30204	0.538857	10.8757	0.877779	17.6164	0.93193	18.4276
0.345255	6.80348	0.077334	1.4399	0.887464	2.64339	0.487708	10.0484	0.717263	14.0834	0.232165	5.21399	0.539225	10.6621	0.877712	17.208	0.932922	18.0271
0.345146	6.64698	0.0799574	1.45678	0.884604	2.64416	0.488038	9.99969	0.717745	13.7741	0.234514	5.13093	0.539545	10.4869	0.877654	16.8183	0.933926	17.6447
0.345052	6.4977	0.082597	1.47324	0.881736	2.6449	0.488514	9.93066	0.718239	13.4787	0.236882	5.05248	0.539814	10.3466	0.877604	16.4459	0.934941	17.2792
0.344975	6.3552	0.085252	1.48929	0.87886	2.64563	0.489033	9.85688	0.718745	13.1964	0.239269	4.97826	0.54003	10.2384	0.877563	16.0898	0.935968	16.9294
0.344914	6.21905	0.0879219	1.50494	0.875977	2.64634	0.489743	9.7586	0.719262	12.9262	0.241674	4.90795	0.540191	10.1603	0.877531	15.7489	0.937007	16.5945
0.344869	6.08887	0.090606	1.52022	0.873086	2.64703	0.490647	9.63758	0.719791	12.6674	0.244096	4.84126	0.540294	10.111	0.877508	15.4223	0.938057	16.2734
0.344842	5.96429	0.0933035	1.53513	0.870189	2.6477	0.491748	9.49591	0.720332	12.4193	0.246533	4.77791	0.540444	10.0411	0.877494	15.1091	0.939118	15.9654
0.344833	5.845	0.096014	1.54967	0.867284	2.64836	0.493051	9.33592	0.720885	12.1813	0.248984	4.71768	0.540608	9.9662	0.877488	14.8085	0.94019	15.6697
0.344843	5.73068	0.098737	1.56388	0.864373	2.64901	0.49456	9.1601	0.72145	11.9529	0.25145	4.66033	0.540833	9.86625	0.877491	14.5198	0.941273	15.3855
0.34487	5.62105	0.101472	1.57774	0.861456	2.64964	0.496085	8.99205	0.722026	11.7333	0.253929	4.60568	0.541123	9.74285	0.877504	14.2423	0.942368	15.1123
0.344917	5.51587	0.104218	1.59129	0.858532	2.65025	0.497623	8.83129	0.722615	11.5222	0.25642	4.55353	0.541478	9.59796	0.877525	13.9753	0.943472	14.8494
0.344984	5.41488	0.106975	1.60451	0.855602	2.65085	0.499176	8.67736	0.723216	11.3191	0.258923	4.50371	0.541903	9.43376	0.877556	13.7183	0.944588	14.5962
0.34507	5.31787	0.109743	1.61744	0.852667	2.65144	0.500742	8.52984	0.723829	11.1235	0.261436	4.45609	0.542401	9.25261	0.877595	13.4708	0.945714	14.3522
0.345177	5.22462	0.112521	1.63006	0.849726	2.65201	0.502321	8.38834	0.724373	10.9589	0.26396	4.4105	0.542911	9.07879	0.877644	13.2322	0.94685	14.117
0.345287	5.14628	0.115309	1.64241	0.846779	2.65257	0.503912	8.2525	0.724844	10.8227	0.266493	4.36684	0.543433	8.91188	0.877702	13.002	0.947997	13.89
0.345393	5.08156	0.118105	1.65447	0.843827	2.65312	0.505516	8.122	0.725238	10.7128	0.269035	4.32497	0.543966	8.75149	0.877769	12.7799	0.949154	13.6709
0.345489	5.02941	0.120911	1.66627	0.84087	2.65365	0.50713	7.99653	0.725553	10.6276	0.271585	4.28479	0.544511	8.59725	0.877846	12.5654	0.950321	13.4593
0.345571	4.98903	0.123726	1.6778	0.837908	2.65418	0.508756	7.87581	0.725787	10.5659	0.274143	4.2462	0.545069	8.44884	0.877931	12.3582	0.951498	13.2547
0.345635	4.95981	0.126548	1.68909	0.834942	2.65469	0.510392	7.75957	0.725937	10.5268	0.276708	4.2091	0.545638	8.30593	0.878026	12.1578	0.952685	13.0569
0.345677	4.94131	0.129379	1.70013	0.831971	2.65519	0.512039	7.64758	0.726155	10.4711	0.279281	4.17341	0.546219	8.16825	0.87813	11.964	0.953882	12.8655
0.345739	4.915	0.132217	1.71093	0.828995	2.65568	0.513695	7.53961	0.726392	10.4114	0.281859	4.13905	0.546813	8.03551	0.878243	11.7765	0.955089	12.6802
0.34581	4.88676	0.135063	1.7215	0.826016	2.65617	0.515361	7.43544	0.726718	10.3313	0.284443	4.10594	0.547418	7.90746	0.878366	11.5949	0.956305	12.5008
0.34591	4.84896	0.137916	1.73185	0.823032	2.65664	0.517036	7.33489	0.727134	10.2319	0.287032	4.07401	0.548036	7.78388	0.878497	11.419	0.957531	12.3269
0.346045	4.80211	0.140776	1.74198	0.820044	2.6571	0.518719	7.23776	0.727644	10.1144	0.289627	4.0432	0.548667	7.66455	0.87862	11.2701	0.958767	12.1583
0.346219	4.74685	0.143642	1.7519	0.817053	2.65756	0.520411	7.1439	0.72825	9.9804	0.292226	4.01345	0.54931	7.54925	0.87873	11.1463	0.960012	11.9949
0.346438	4.68391	0.146515	1.76161	0.814058	2.65801	0.52211	7.05312	0.728957	9.83131	0.294829	3.98471	0.549966	7.43779	0.878824	11.0461	0.961266	11.8362
0.346712	4.61409	0.149394	1.77113	0.811059	2.65845	0.523818	6.9653	0.729677	9.68705	0.297436	3.95691	0.550635	7.33001	0.878902	10.9682	0.96253	11.6823
0.347008	4.54672	0.152278	1.78045	0.808057	2.65888	0.525532	6.88027	0.73041	9.5474	0.300046	3.93002	0.551316	7.22572	0.87896	10.9116	0.963803	11.5328
0.347327	4.4817	0.155169	1.78959	0.805052	2.6593	0.527254	6.79793	0.731155	9.41215	0.302659	3.90399	0.55201	7.12477	0.878998	10.8757	0.964919	11.406
0.347669	4.41892	0.158065	1.79854	0.802044	2.65972	0.528982	6.71813	0.731913	9.2811	0.305275	3.87877	0.552718	7.02701	0.879053	10.8245	0.965877	11.3003
0.348035	4.35829	0.160966	1.80732	0.799033	2.66013	0.530716	6.64076	0.732683	9.15407	0.307894	3.85432	0.553438	6.93231	0.879115	10.7694	0.966672	11.2147
0.348425	4.29971	0.163872	1.81593	0.796019	2.66053	0.532457	6.56572	0.733466	9.03088	0.310514	3.83061	0.554172	6.84052	0.8792	10.6955	0.967303	11.148
0.348839	4.24311	0.166784	1.82436	0.793002	2.66093	0.534203	6.4929	0.734262	8.91137	0.313136	3.80761	0.554919	6.75152	0.879311	10.6035	0.967769	11.0995
0.349277	4.1884	0.1697	1.83264	0.789983	2.66133	0.535954	6.42219	0.735071	8.79539	0.31576	3.78527	0.555679	6.6652	0.87945	10.4943	0.968067	11.0687
0.34974	4.13551	0.172621	1.84075	0.786961	2.66171	0.537711	6.35352	0.735893	8.68278	0.318385	3.76356	0.556453	6.58145	0.879619	10.3693	0.968497	11.0248
0.350227	4.08435	0.175546	1.84872	0.783937	2.66209	0.539473	6.28679	0.736727	8.57341	0.321011	3.74247	0.557241	6.50016	0.879822	10.2296	0.968966	10.9775
0.350739	4.03487	0.178476	1.85653	0.78091	2.66247	0.541239	6.22193	0.737575	8.46715	0.323638	3.72196	0.558042	6.42123	0.880035	10.0937	0.969605	10.914
0.351276	3.98699	0.18141	1.86419	0.777881	2.66284	0.54301	6.15884	0.738435	8.36388	0.326265	3.70199	0.558857	6.34457	0.880256	9.96162	0.970415	10.8348
0.351839	3.94066	0.184348	1.87172	0.77485	2.66321	0.544785	6.09747	0.739309	8.26347	0.328892	3.68256	0.559686	6.27009	0.880487	9.83309	0.9714	10.7408
0.352426	3.89582	0.18729	1.8791	0.771817	2.66358	0.546564	6.03774	0.740196	8.16582	0.33152	3.66364	0.560529	6.19771	0.880727	9.708	0.972562	10.633
0.35304	3.85242	0.190236	1.88635	0.768782	2.66394	0.548346	5.97958	0.741096	8.07081	0.334147	3.64519	0.561386	6.12734	0.880977	9.58622	0.973903	10.5122
0.353679	3.81039	0.193185	1.89347	0.765745	2.66429	0.550132	5.92294	0.742009	7.97836	0.336773	3.62721	0.562257	6.05891	0.881235	9.46762	0.975253	10.3945
0.354344	3.76969	0.196138	1.90046	0.762706	2.66465	0.551921	5.86775	0.742935	7.88836	0.339399	3.60967	0.563142	5.99235	0.881503	9.35209	0.97661	10.2799
0.355036	3.73028	0.199095	1.90733	0.759665	2.665	0.553713	5.81395	0.743875	7.80072	0.342024	3.59256	0.564042	5.92759	0.88178	9.2395	0.977977	10.1681
0.355753	3.69211	0.202054	1.91407	0.756623	2.66534	0.555507	5.7615	0.744827	7.71536	0.344648	3.57586	0.564956	5.86457	0.882066	9.12976	0.979351	10.0591
0.356498	3.65512	0.205017	1.9207	0.753579	2.66569	0.557304	5.71034	0.745794	7.6322	0.34727	3.55954	0.565885	5.80321	0.882361	9.02276	0.980734	9.95286
0.357269	3.6193	0.207984	1.92721	0.750534	2.66603	0.559104	5.66043	0.746773	7.55116	0.349891	3.5436	0.566828	5.74347	0.882666	8.91839	0.982125	9.84918
0.358067	3.58459	0.210953	1.93361	0.747487	2.66637	0.560905	5.61171	0.747766	7.47215	0.35251	3.52802	0.567786	5.68529	0.882979	8.81658	0.983524	9.748
0.358892	3.55095	0.213925	1.93989	0.744439	2.66671	0.562709	5.56415	0.748773	7.39513	0.355127	3.51278	0.56876	5.62862	0.883302	8.71722	0.984931	9.64924
0.359745	3.51836	0.2169	1.94607	0.74139	2.66704	0.564514	5.5177	0.749793	7.32	0.357743	3.49787	0.569747	5.57339	0.883634	8.62024	0.986345	9.5528
0.360625	3.48678	0.219877	1.95215	0.738339	2.66738	0.56632	5.47232	0.750827	7.24671	0.360356	3.48328	0.57075	5.51957	0.883975	8.52555	0.987768	9.45862
0.361533	3.45618	0.222858	1.95812	0.735287	2.66771	0.568128	5.42798	0.751874	7.17521	0.362966	3.469	0.571769	5.46711	0.884325	8.43307	0.989198	9.36661
0.362469	3.42653	0.225457	1.96324	0.732234	2.66804	0.569937	5.38463	0.752935	7.10542	0.365574	3.45501	0.572802	5.41596	0.884684	8.34274	0.990636	9.27671
0.363434	3.39779	0.227674	1.96755	0.72918	2.66837	0.571748	5.34225	0.754009	7.03729	0.368179	3.4413	0.573851	5.36608	0.885052	8.25447	0.992082	9.18884
0.364427	3.36995	0.229509	1.97108	0.726125	2.6687	0.573559	5.3008	0.755097	6.97077	0.370781	3.42786	0.574915	5.31743	0.88543	8.16821	0.993535	9.10293
0.365449	3.34297	0.23096	1.97384	0.723069	2.66903	0.57537	5.26025	0.756199	6.90581	0.373381	3.41469	0.575994	5.26997	0.885816	8.08389	0.994995	9.01893
0.366501	3.31683	0.232028	1.97585	0.720012	2.66936	0.577182	5.22057	0.757314	6.84235	0.375977	3.40177	0.577089	5.22366	0.886211	8.00144	0.996463	8.93677
0.367582	3.29151	0.232711	1.97713	0.716954	2.66968	0.578995	5.18173	0.758443	6.78036	0.378569	3.38908	0.5782	5.17848	0.886616	7.92081	0.997938	8.85639
0.368693	3.26698	0.233694	1.97897	0.713895	2.67001	0.580807	5.1437	0.759586	6.71978	0.381158	3.37664	0.579326	5.13437	0.887029	7.84194	0.99942	8.77774
0.369834	3.24322	0.234762	1.98096	0.710836	2.67034	0.58262	5.10646	0.760743	6.66057	0.383743	3.36442	0.580469	5.09132	0.887452	7.76477	1.00091	8.70076
0.371006	3.22022	0.236215	1.98364	0.707776	2.67067	0.584433	5.06997	0.761913	6.60269	0.386325	3.35241	0.581627	5.04928	0.887883	7.68926		
0.372209	3.19795	0.238054	1.987	0.704715	2.671	0.586245	5.03423	0.763097	6.54609	0.388903	3.34062	0.582801	5.00824	0.888323	7.61535		
0.373443	3.17639	0.240278	1.99102	0.701654	2.67133	0.588057	4.9992	0.764295	6.49075	0.391477	3.32902	0.583991	4.96815	0.888773	7.543		
0.374709	3.15553	0.242889	1.99567	0.698592	2.67166	0.589869	4.96485	0.765507	6.43662	0.394046	3.31762	0.585197	4.92899	0.889231	7.47215		
0.376007	3.13535	0.245888	2.00093	0.69553	2.67199	0.591679	4.93118	0.766732	6.38367	0.396611	3.30641	0.58642	4.89074	0.889698	7.40277		
0.377339	3.11583	0.248888	2.00611	0.692467	2.67232	0.59349	4.89816	0.767972	6.33186	0.399172	3.29539	0.587658	4.85337	0.890174	7.3348		
0.378704	3.09696	0.25189	2.0112	0.689403	2.67265	0.595299	4.86577	0.769225	6.28116	0.401728	3.28453	0.588913	4.81685	0.890659	7.26822		
0.380102	3.07872	0.254894	2.01622	0.68634	2.67299	0.597108	4.83398	0.770491	6.23153	0.40428	3.27385	0.590185	4.78116	0.891153	7.20298		
0.381535	3.06111	0.2579	2.02115	0.683276	2.67333	0.598915	4.80279	0.771772	6.18296	0.406827	3.26333	0.591473	4.74628	0.891656	7.13904		
0.383003	3.04411	0.260908	2.02601	0.680212	2.67367	0.600721	4.77218	0.773067	6.1354	0.409369	3.25297	0.592777	4.71218	0.892168	7.07636		
0.384507	3.0277	0.263918	2.0308	0.677148	2.67401	0.602526	4.74212	0.774375	6.08883	0.411906	3.24276	0.594098	4.67885	0.892688	7.01492		
0.386047	3.01187	0.266929	2.03551	0.674083	2.67435	0.60433	4.71261	0.775696	6.04323	0.414438	3.23271	0.595435	4.64626	0.893217	6.95467		
0.387623	2.99662	0.269941	2.04015	0.671018	2.6747	0.606132	4.68362	0.777032	5.99856	0.416965	3.22279	0.596789	4.61439	0.893755	6.89559		
0.389237	2.98193	0.272956	2.04472	0.667954	2.67505	0.607933	4.65514	0.778381	5.9548	0.419487	3.21301	0.59816	4.58323	0.894302	6.83764		
0.390889	2.96779	0.275971	2.04922	0.664889	2.6754	0.609733	4.62716	0.779744	5.91192	0.422003	3.20337	0.599547	4.55275	0.894858	6.78079		
0.392579	2.95419	0.278989	2.05365	0.661824	2.67576	0.61153	4.59967	0.781121	5.86991	0.424515	3.19386	0.600951	4.52293	0.895423	6.72501		
0.394309	2.94112	0.282007	2.05802	0.658759	2.67612	0.613326	4.57264	0.782511	5.82874	0.42702	3.18448	0.602372	4.49377	0.895996	6.67028		
0.396078	2.92858	0.285027	2.06232	0.655695	2.67648	0.61512	4.54608	0.783915	5.78838	0.42952	3.17522	0.60381	4.46524	0.896578	6.61656		
0.397887	2.91654	0.288048	2.06656	0.65263	2.67685	0.616913	4.51996	0.785332	5.74882	0.432015	3.16608	0.605265	4.43732	0.897169	6.56383		
0.399737	2.905	0.291071	2.07073	0.649566	2.67723	0.618704	4.49427	0.786763	5.71003	0.434504	3.15705	0.606736	4.41001	0.897769	6.51207		
0.401627	2.89395	0.294094	2.07485	0.646502	2.6776	0.620492	4.469	0.788207	5.672	0.436988	3.14814	0.608225	4.38328	0.898377	6.46125		
0.403559	2.88339	0.297119	2.0789	0.643439	2.67799	0.622279	4.44415	0.789665	5.6347	0.439465	3.13934	0.60973	4.35712	0.898994	6.41135		
0.405532	2.87329	0.300145	2.0829	0.640375	2.67837	0.624064	4.4197	0.791136	5.59812	0.441937	3.13064	0.611252	4.33152	0.89962	6.36233		
0.407546	2.86365	0.303172	2.08684	0.637312	2.67877	0.625847	4.39564	0.79262	5.56224	0.444404	3.12204	0.612791	4.30646	0.900254	6.3142		
0.409602	2.85445	0.3062	2.09072	0.63425	2.67917	0.627628	4.37196	0.794117	5.52704	0.446864	3.11355	0.614347	4.28193	0.900898	6.2669		
0.411698	2.84569	0.309229	2.09455	0.631188	2.67957	0.629406	4.34865	0.795628	5.4925	0.449318	3.10516	0.61592	4.25792	0.90155	6.22044		
0.413836	2.83735	0.312259	2.09832	0.628127	2.67998	0.631183	4.3257	0.797152	5.45861	0.451767	3.09685	0.617509	4.23441	0.90221	6.17479		
0.416014	2.82942	0.31529	2.10204	0.625066	2.6804	0.632958	4.30311	0.798688	5.42535	0.45421	3.08865	0.619116	4.21139	0.902879	6.12993		
0.418231	2.82189	0.318321	2.10571	0.622006	2.68083	0.63473	4.28086	0.800238	5.3927	0.456647	3.08053	0.620739	4.18885	0.903557	6.08584		
0.420489	2.81474	0.321354	2.10932	0.618947	2.68126	0.6365	4.25895	0.801801	5.36066	0.459078	3.0725	0.622379	4.16678	0.904244	6.0425		
0.422784	2.80795	0.324387	2.11289	0.615889	2.68171	0.638269	4.23737	0.803376	5.3292	0.461503	3.06456	0.624036	4.14517	0.904939	5.99989		
0.425118	2.80152	0.327421	2.1164	0.612831	2.68216	0.640035	4.21611	0.804964	5.29832	0.463922	3.0567	0.625709	4.124	0.905643	5.958		
0.427488	2.79543	0.330456	2.11987	0.609775	2.68262	0.641799	4.19516	0.806565	5.26799	0.466335	3.04893	0.627399	4.10327	0.906355	5.91682		
0.429893	2.78966	0.333491	2.12329	0.606719	2.68309	0.643561	4.17452	0.808178	5.2382	0.468742	3.04124	0.629106	4.08296	0.907076	5.87631		
0.432333	2.7842	0.336527	2.12666	0.603665	2.68356	0.645321	4.15418	0.809803	5.20895	0.471144	3.03362	0.630829	4.06307	0.907806	5.83648		
0.434806	2.77904	0.339563	2.12998	0.600612	2.68405	0.647079	4.13413	0.811441	5.18022	0.473539	3.02608	0.632569	4.04358	0.908544	5.7973		
0.437311	2.77415	0.3426	2.13326	0.59756	2.68455	0.648835	4.11437	0.813092	5.15199	0.475929	3.01862	0.634325	4.02449	0.909291	5.75876		
0.439847	2.76954	0.345638	2.1365	0.594509	2.68506	0.650588	4.09489	0.814754	5.12426	0.478313	3.01124	0.636098	4.00578	0.910047	5.72085		
0.442413	2.76517	0.348676	2.13969	0.59146	2.68559	0.65234	4.07568	0.816428	5.09701	0.480692	3.00392	0.637886	3.98745	0.910811	5.68355		
0.445006	2.76104	0.351714	2.14284	0.588412	2.68612	0.65409	4.05674	0.818115	5.07024	0.483065	2.99668	0.639691	3.96949	0.911583	5.64684		
0.447626	2.75714	0.354753	2.14595	0.585366	2.68667	0.655838	4.03807	0.819813	5.04392	0.485432	2.98951	0.641512	3.95189	0.912365	5.61072		
0.450271	2.75344	0.357792	2.14901	0.582322	2.68723	0.657584	4.01965	0.821523	5.01806	0.487793	2.98241	0.643349	3.93464	0.913154	5.57517		
0.452941	2.74995	0.360831	2.15203	0.579279	2.68781	0.659328	4.00149	0.823244	4.99263	0.490149	2.97537	0.645202	3.91774	0.913953	5.54018		
0.455634	2.74664	0.363871	2.15501	0.576238	2.6884	0.661071	3.98357	0.824977	4.96764	0.4925	2.9684	0.647071	3.90117	0.91476	5.50574		
0.458348	2.74352	0.366911	2.15796	0.573199	2.68901	0.662811	3.9659	0.826722	4.94306	0.494845	2.9615	0.648955	3.88492	0.915575	5.47184		
0.461082	2.74055	0.369951	2.16086	0.570163	2.68963	0.66455	3.94846	0.828477	4.9189	0.497185	2.95467	0.650855	3.869	0.916399	5.43846		
0.463836	2.73774	0.372992	2.16372	0.567129	2.69028	0.666288	3.93125	0.830244	4.89514	0.49952	2.9479	0.65277	3.85339	0.917232	5.40559		
0.466609	2.73508	0.376032	2.16655	0.564097	2.69094	0.668024	3.91428	0.832022	4.87176	0.50185	2.94119	0.6547	3.83808	0.918073	5.37323		
0.469398	2.73256	0.379073	2.16934	0.561067	2.69162	0.669758	3.89752	0.83381	4.84878	0.504175	2.93455	0.656646	3.82308	0.918923	5.34136		
0.472204	2.73016	0.382113	2.17209	0.558041	2.69232	0.671491	3.88099	0.835609	4.82617	0.506494	2.92797	0.658607	3.80836	0.919781	5.30998		
0.475025	2.72788	0.385154	2.17481	0.555017	2.69304	0.673222	3.86467	0.837419	4.80392	0.50881	2.92145	0.660582	3.79393	0.920648	5.27907		
0.47786	2.72572	0.388195	2.17749	0.551996	2.69379	0.674952	3.84857	0.839239	4.78203	0.51112	2.91499	0.662572	3.77978	0.921524	5.24862		
0.480709	2.72366	0.391236	2.18013	0.548978	2.69456	0.676681	3.83267	0.84107	4.7605	0.513426	2.90859	0.664577	3.76589	0.922408	5.21862		
0.483571	2.7217	0.394276	2.18274	0.545964	2.69535	0.678408	3.81698	0.842911	4.7393	0.515727	2.90225	0.666596	3.75228	0.9233	5.18907		
0.486445	2.71983	0.397317	2.18531	0.542953	2.69618	0.680135	3.80149	0.844762	4.71844	0.518024	2.89597	0.668629	3.73892	0.924202	5.15996		
0.48933	2.71806	0.400357	2.18786	0.539946	2.69703	0.68186	3.78619	0.846623	4.69791	0.520317	2.88975	0.670677	3.72581	0.925111	5.13128		
0.492226	2.71636	0.403397	2.19036	0.536942	2.69791	0.683585	3.77109	0.848493	4.6777	0.522606	2.88359	0.672738	3.71296	0.92603	5.10301		
0.495132	2.71474	0.406438	2.19284	0.533943	2.69882	0.685308	3.75617	0.850373	4.65781	0.524891	2.87748	0.674813	3.70034	0.926956	5.07516		
0.498047	2.71319	0.409477	2.19528	0.530948	2.69977	0.687031	3.74145	0.852263	4.63822	0.527172	2.87144	0.676902	3.68796	0.927892	5.04771		
0.500971	2.71171	0.412517	2.19769	0.527958	2.70075	0.688753	3.72691	0.854162	4.61893	0.529449	2.86545	0.679004	3.67581	0.928836	5.02066		
0.503904	2.7103	0.415556	2.20007	0.524973	2.70176	0.690474	3.71254	0.85607	4.59993	0.531723	2.85951	0.681119	3.66389	0.929788	4.994		
0.506844	2.70894	0.418595	2.20241	0.521994	2.70282	0.692195	3.69836	0.857987	4.58122	0.533993	2.85364	0.683247	3.65218	0.930749	4.96771		
0.509792	2.70764	0.421633	2.20473	0.519019	2.70392	0.693915	3.68435	0.859914	4.56279	0.536261	2.84782	0.685388	3.64069	0.931719	4.9418		
0.512747	2.70639	0.424671	2.20702	0.516051	2.70506	0.695634	3.67052	0.861848	4.54464	0.538525	2.84206	0.687541	3.62941	0.932697	4.91626		
0.515708	2.7052	0.427709	2.20927	0.513088	2.70625	0.697354	3.65685	0.863792	4.52676	0.540786	2.83635	0.689707	3.61833	0.933684	4.89108		
0.518676	2.70405	0.430746	2.2115	0.510133	2.70749	0.699073	3.64335	0.865744	4.50914	0.543044	2.8307	0.691885	3.60745	0.93468	4.86625		
0.52165	2.70295	0.433782	2.21369	0.507184	2.70879	0.700792	3.63001	0.867704	4.49178	0.5453	2.8251	0.694075	3.59677	0.935684	4.84177		
0.524629	2.70188	0.436818	2.21586	0.504243	2.71014	0.702511	3.61683	0.869672	4.47467	0.547554	2.81956	0.696277	3.58628	0.936696	4.81763		
0.527614	2.70086	0.439854	2.218	0.501309	2.71154	0.704229	3.60382	0.871649	4.45781	0.549805	2.81407	0.698491	3.57597	0.937718	4.79383		
0.530603	2.69988	0.442888	2.2201	0.498384	2.71302	0.705948	3.59096	0.873633	4.44119	0.552054	2.80864	0.700716	3.56585	0.938748	4.77035		
0.533597	2.69893	0.445922	2.22219	0.495468	2.71456	0.707667	3.57825	0.875625	4.4248	0.554301	2.80327	0.702952	3.5559	0.939786	4.7472		
0.536596	2.69801	0.448955	2.22424	0.492561	2.71617	0.709387	3.5657	0.877624	4.40865	0.556546	2.79795	0.705199	3.54613	0.940833	4.72437		
0.539599	2.69713	0.451988	2.22626	0.489664	2.71786	0.711107	3.55329	0.879631	4.39273	0.558789	2.79268	0.707457	3.53653	0.941889	4.70184		
0.542605	2.69627	0.45502	2.22826	0.486777	2.71962	0.712827	3.54104	0.881645	4.37702	0.561031	2.78747	0.709725	3.52709	0.942954	4.67963		
0.545616	2.69545	0.45805	2.23023	0.483902	2.72148	0.714547	3.52892	0.883667	4.36154	0.563272	2.78231	0.712004	3.51781	0.944027	4.65771		
0.54863	2.69465	0.46108	2.23218	0.481039	2.72343	0.716269	3.51695	0.885695	4.34627	0.565512	2.7772	0.714293	3.50869	0.945109	4.63609		
0.551647	2.69388	0.464109	2.23409	0.478189	2.72547	0.717991	3.50513	0.88773	4.33121	0.56775	2.77215	0.716592	3.49972	0.946199	4.61476		
0.554668	2.69313	0.467137	2.23598	0.475352	2.72763	0.719714	3.49344	0.889771	4.31635	0.569988	2.76716	0.718901	3.4909	0.947298	4.59372		
0.557691	2.6924	0.470164	2.23785	0.472529	2.72989	0.721437	3.48189	0.891819	4.30169	0.572225	2.76221	0.721219	3.48223	0.948406	4.57296		
0.560718	2.6917	0.47319	2.23969	0.469721	2.73227	0.723162	3.47047	0.893874	4.28723	0.574462	2.75732	0.723546	3.4737	0.949523	4.55248		
0.563747	2.69102	0.476215	2.2415	0.46693	2.73478	0.724888	3.45919	0.895934	4.27296	0.576698	2.75249	0.725883	3.46531	0.950649	4.53226		
0.566778	2.69035	0.479239	2.24329	0.464156	2.73743	0.726614	3.44804	0.898001	4.25888	0.578935	2.74771	0.728228	3.45706	0.951783	4.51232		
0.569812	2.68971	0.482261	2.24505	0.461399	2.74022	0.728343	3.43702	0.900074	4.24498	0.581171	2.74298	0.730582	3.44894	0.952926	4.49263		
0.572849	2.68908	0.485282	2.24679	0.458662	2.74317	0.730072	3.42612	0.902152	4.23127	0.583407	2.7383	0.732945	3.44095	0.954077	4.47321		
0.575887	2.68847	0.488302	2.2485	0.455946	2.74628	0.731803	3.41536	0.904236	4.21773	0.585644	2.73368	0.735315	3.43309	0.955238	4.45404		
0.578928	2.68788	0.491321	2.25019	0.453251	2.74956	0.733535	3.40472	0.906325	4.20436	0.587882	2.72911	0.737694	3.42534	0.956407	4.43512		
0.58197	2.6873	0.494338	2.25186	0.450579	2.75303	0.735269	3.3942	0.90842	4.19117	0.59012	2.72459	0.740081	3.41772	0.957585	4.41645		
0.585014	2.68673	0.497354	2.2535	0.44793	2.7567	0.737004	3.3838	0.91052	4.17814	0.592359	2.72013	0.742475	3.41022	0.958772	4.39802		
0.58806	2.68618	0.500368	2.25511	0.445307	2.76058	0.738742	3.37352	0.912625	4.16527	0.594599	2.71572	0.744876	3.40283	0.959968	4.37983		
0.591108	2.68565	0.503381	2.25671	0.442711	2.76468	0.740481	3.36336	0.914735	4.15257	0.59684	2.71136	0.747285	3.39556	0.961173	4.36187		
0.594157	2.68512	0.506392	2.25827	0.440142	2.76902	0.742222	3.35332	0.91685	4.14002	0.599082	2.70706	0.749701	3.38839	0.962387	4.34414		
0.597207	2.68461	0.509402	2.25982	0.437603	2.77361	0.743965	3.34339	0.918969	4.12762	0.601326	2.7028	0.752124	3.38133	0.963609	4.32665		
0.600259	2.68411	0.512409	2.26134	0.435094	2.77846	0.74571	3.33358	0.921093	4.11538	0.603572	2.6986	0.754553	3.37437	0.964841	4.30937		
0.603312	2.68362	0.515416	2.26284	0.432617	2.78359	0.747457	3.32388	0.923221	4.10328	0.60582	2.69445	0.756988	3.36751	0.966081	4.29232		
0.606367	2.68314	0.51842	2.26431	0.430173	2.78902	0.749207	3.31429	0.925353	4.09132	0.608069	2.69036	0.75943	3.36076	0.96733	4.27548		
0.609422	2.68267	0.521422	2.26576	0.427763	2.79475	0.750959	3.30481	0.927489	4.07951	0.610321	2.68631	0.761878	3.3541	0.968589	4.25886		
0.612478	2.68221	0.524423	2.26719	0.425389	2.8008	0.752713	3.29544	0.92963	4.06784	0.612575	2.68232	0.764332	3.34753	0.969856	4.24245		
0.615536	2.68176	0.527422	2.2686	0.423052	2.80719	0.754469	3.28618	0.931774	4.0563	0.614831	2.67838	0.766791	3.34105	0.971133	4.22625		
0.618594	2.68131	0.530418	2.26998	0.420752	2.81394	0.756229	3.27702	0.933921	4.0449	0.61709	2.67449	0.769255	3.33467	0.972418	4.21025		
0.621653	2.68088	0.533413	2.27134	0.41849	2.82105	0.75799	3.26796	0.936073	4.03363	0.619352	2.67065	0.771725	3.32837	0.973713	4.19445		
0.624713	2.68045	0.536405	2.27268	0.416268	2.82853	0.759755	3.25901	0.938227	4.02249	0.621617	2.66686	0.7742	3.32216	0.975017	4.17885		
0.627774	2.68003	0.539396	2.27399	0.414085	2.83642	0.761522	3.25016	0.940385	4.01147	0.623885	2.66313	0.77668	3.31603	0.97633	4.16345		
0.630835	2.67962	0.542384	2.27528	0.411943	2.84471	0.763293	3.24141	0.942546	4.00058	0.626156	2.65944	0.779164	3.30998	0.977652	4.14824		
0.633897	2.67921	0.54537	2.27655	0.409841	2.85342	0.765066	3.23276	0.94471	3.98981	0.62843	2.65581	0.781653	3.30401	0.978983	4.13322		
0.636959	2.67881	0.548353	2.2778	0.407781	2.86256	0.766842	3.22421	0.946877	3.97915	0.630708	2.65223	0.784146	3.29812	0.980323	4.11839		
0.640022	2.67842	0.551334	2.27903	0.405762	2.87215	0.768621	3.21576	0.949047	3.96862	0.63299	2.6487	0.786643	3.29231	0.981673	4.10374		
0.643085	2.67803	0.554312	2.28023	0.403785	2.8822	0.770404	3.2074	0.95122	3.95819	0.635275	2.64521	0.789144	3.28656	0.983032	4.08927		
0.646148	2.67765	0.557288	2.28141	0.401848	2.89271	0.77219	3.19914	0.953394	3.94788	0.637564	2.64178	0.791649	3.28089	0.9844	4.07499		
0.649212	2.67727	0.560262	2.28257	0.399953	2.9037	0.773979	3.19097	0.955572	3.93768	0.639858	2.6384	0.794157	3.27529	0.985778	4.06088		
0.652277	2.6769	0.563233	2.28371	0.398099	2.91518	0.775771	3.1829	0.957751	3.92759	0.642155	2.63507	0.796669	3.26976	0.987164	4.04695		
0.655341	2.67653	0.566201	2.28483	0.396285	2.92716	0.777567	3.17491	0.959933	3.9176	0.644457	2.63179	0.799183	3.26429	0.988561	4.03318		
0.658406	2.67616	0.569166	2.28592	0.394511	2.93965	0.779366	3.16702	0.962117	3.90772	0.646763	2.62856	0.801701	3.25889	0.989966	4.01959		
0.66147	2.6758	0.572128	2.287	0.392777	2.95266	0.781169	3.15922	0.964302	3.89794	0.649074	2.62537	0.804222	3.25355	0.991381	4.00617		
0.664535	2.67544	0.575088	2.28805	0.391082	2.96619	0.782976	3.15151	0.96649	3.88826	0.65139	2.62224	0.806746	3.24827	0.992806	3.99291		
0.6676	2.67509	0.578044	2.28908	0.389426	2.98027	0.784786	3.14388	0.968679	3.87868	0.65371	2.61915	0.809272	3.24305	0.99424	3.97981		
0.670664	2.67474	0.580998	2.29009	0.387808	2.9949	0.786601	3.13634	0.97087	3.86919	0.656036	2.61612	0.8118	3.23789	0.995683	3.96688		
0.673729	2.67439	0.583948	2.29107	0.386227	3.01008	0.788419	3.12889	0.973062	3.8598	0.658367	2.61313	0.814331	3.23279	0.997136	3.9541		
0.676794	2.67405	0.586895	2.29204	0.384683	3.02584	0.790241	3.12152	0.975256	3.8505	0.660703	2.6102	0.816863	3.22774	0.998599	3.94148		
0.679858	2.6737	0.589839	2.29298	0.383175	3.04218	0.792067	3.11423	0.977451	3.84129	0.663044	2.60731	0.819398	3.22275	1.00007	3.92902		
0.682922	2.67336	0.59278	2.2939	0.381703	3.05912	0.793897	3.10703	0.979647	3.83218	0.665391	2.60446	0.821934	3.21781				
0.685986	2.67303	0.595717	2.2948	0.380266	3.07666	0.795731	3.09991	0.981844	3.82314	0.667743	2.60167	0.824472	3.21292				
0.68905	2.67269	0.598651	2.29568	0.378863	3.09482	0.79757	3.09288	0.984042	3.8142	0.670101	2.59892	0.827011	3.20808				
0.692113	2.67236	0.601581	2.29654	0.377495	3.11362	0.799413	3.08592	0.986241	3.80534	0.672465	2.59623	0.829552	3.20329				
0.695176	2.67202	0.604508	2.29738	0.376159	3.13306	0.80126	3.07904	0.98844	3.79656	0.674835	2.59358	0.832093	3.19855				
0.698238	2.67169	0.607431	2.2982	0.374857	3.15316	0.803112	3.07225	0.99064	3.78787	0.677211	2.59097	0.834636	3.19386				
0.7013	2.67136	0.610351	2.29899	0.373587	3.17395	0.804968	3.06553	0.992841	3.77925	0.679593	2.58841	0.837179	3.18921				
0.704362	2.67103	0.613267	2.29976	0.372349	3.19542	0.806829	3.05888	0.995042	3.77072	0.681981	2.5859	0.839723	3.1846				
0.707422	2.67071	0.616179	2.30052	0.371143	3.21761	0.808694	3.05232	0.997244	3.76226	0.684376	2.58344	0.842267	3.18004				
0.710483	2.67038	0.619087	2.30125	0.369968	3.24053	0.810564	3.04583	0.999446	3.75387	0.686778	2.58102	0.844812	3.17552				
0.713542	2.67005	0.621991	2.30196	0.368823	3.2642	0.812439	3.03941	1.00165	3.74556	0.689186	2.57865	0.847357	3.17103				
0.716601	2.66972	0.624891	2.30265	0.367709	3.28864	0.814319	3.03307			0.6916	2.57632	0.849903	3.16659				
0.719659	2.66939	0.627787	2.30332	0.366624	3.31387	0.816203	3.02681			0.694022	2.57404	0.852448	3.16219				
0.722716	2.66907	0.630679	2.30397	0.365569	3.33991	0.818093	3.02061			0.69645	2.57181	0.854993	3.15783				
0.725772	2.66874	0.633567	2.3046	0.364544	3.36679	0.819988	3.01449			0.698885	2.56962	0.857537	3.1535				
0.728827	2.66841	0.636451	2.3052	0.363547	3.39453	0.821888	3.00844			0.701327	2.56747	0.860082	3.14921				
0.731881	2.66808	0.639331	2.30579	0.362579	3.42316	0.823793	3.00246			0.703777	2.56537	0.862625	3.14495				
0.734935	2.66775	0.642206	2.30636	0.36164	3.45271	0.825703	2.99656			0.706234	2.56332	0.865168	3.14073				
0.737987	2.66741	0.645077	2.3069	0.360728	3.4832	0.827619	2.99072			0.708698	2.5613	0.86771	3.13654				
0.741037	2.66708	0.647943	2.30743	0.359845	3.51467	0.829541	2.98495			0.711169	2.55933	0.870251	3.13238				
0.744087	2.66675	0.650805	2.30794	0.358989	3.54714	0.831467	2.97925			0.713648	2.55741	0.872791	3.12825				
0.747135	2.66641	0.653662	2.30842	0.358161	3.58065	0.8334	2.97361			0.716134	2.55553	0.87533	3.12415				
0.750182	2.66607	0.656515	2.30889	0.357359	3.61523	0.835338	2.96805			0.718628	2.55369	0.877868	3.12009				
0.753228	2.66573	0.659364	2.30933	0.356585	3.65093	0.837282	2.96255			0.72113	2.55189	0.880404	3.11605				
0.756272	2.66538	0.662208	2.30976	0.355838	3.68778	0.839232	2.95712			0.723639	2.55013	0.882938	3.11204				
0.759314	2.66504	0.665047	2.31017	0.355117	3.72581	0.841187	2.95175			0.726156	2.54842	0.885471	3.10806				
0.762355	2.66469	0.667881	2.31056	0.354423	3.76508	0.843149	2.94645			0.728681	2.54675	0.888002	3.1041				
0.765394	2.66433	0.670711	2.31092	0.353754	3.80562	0.845117	2.94122			0.731214	2.54512	0.890532	3.10017				
0.768431	2.66398	0.673536	2.31127	0.353112	3.8475	0.847091	2.93604			0.733754	2.54353	0.893059	3.09626				
0.771466	2.66362	0.676357	2.3116	0.352496	3.89074	0.849071	2.93094			0.736303	2.54198	0.895584	3.09238				
0.7745	2.66325	0.679173	2.31191	0.351905	3.93541	0.851058	2.92589			0.738859	2.54047	0.898107	3.08853				
0.777531	2.66289	0.681984	2.31221	0.35134	3.98157	0.853051	2.92091			0.741424	2.539	0.900627	3.08469				
0.78056	2.66252	0.68479	2.31248	0.3508	4.02926	0.855051	2.91599			0.743997	2.53756	0.903146	3.08088				
0.783587	2.66214	0.687592	2.31274	0.350285	4.07855	0.857058	2.91113			0.746577	2.53617	0.905661	3.07709				
0.786612	2.66176	0.690389	2.31298	0.349795	4.12951	0.859071	2.90634			0.749166	2.53482	0.908175	3.07333				
0.789634	2.66137	0.693181	2.3132	0.349329	4.1822	0.861092	2.9016			0.751763	2.5335	0.910685	3.06958				
0.792654	2.66098	0.695968	2.3134	0.348888	4.2367	0.863119	2.89693			0.754368	2.53222	0.913193	3.06585				
0.795671	2.66058	0.698751	2.31359	0.348472	4.29308	0.865154	2.89232			0.756981	2.53098	0.915698	3.06215				
0.798685	2.66018	0.701528	2.31376	0.348079	4.35142	0.867195	2.88777			0.759602	2.52978	0.9182	3.05846				
0.801697	2.65977	0.704302	2.31391	0.34771	4.41181	0.869245	2.88328			0.762231	2.52861	0.920699	3.05479				
0.804705	2.65935	0.70707	2.31405	0.347365	4.47433	0.871301	2.87884			0.764869	2.52748	0.923194	3.05114				
0.807711	2.65893	0.709834	2.31417	0.347043	4.53909	0.873365	2.87447			0.767514	2.52638	0.925687	3.04751				
0.810713	2.6585	0.712594	2.31427	0.346745	4.60619	0.875438	2.87016			0.770168	2.52532	0.928176	3.0439				
0.813712	2.65806	0.715348	2.31436	0.346469	4.67572	0.877518	2.86591			0.772829	2.52429	0.930663	3.0403				
0.816707	2.65761	0.718099	2.31443	0.346216	4.74782	0.879606	2.86171			0.775499	2.5233	0.933145	3.03672				
0.819699	2.65716	0.720844	2.31449	0.345985	4.82259	0.881702	2.85757			0.778177	2.52234	0.935625	3.03315				
0.822687	2.65669	0.723586	2.31453	0.345776	4.90018	0.883807	2.8535			0.780862	2.52141	0.9381	3.02961				
0.825671	2.65622	0.726322	2.31456	0.345589	4.98071	0.88592	2.84948			0.783555	2.52052	0.940573	3.02607				
0.828651	2.65574	0.729055	2.31458	0.345424	5.06435	0.888041	2.84551			0.786257	2.51965	0.943041	3.02255				
0.831627	2.65525	0.731783	2.31458	0.345279	5.15124	0.890172	2.84161			0.788966	2.51882	0.945506	3.01905				
0.834599	2.65475	0.734507	2.31457	0.345156	5.24155	0.892311	2.83776			0.791683	2.51802	0.947968	3.01556				
0.837566	2.65424	0.737227	2.31454	0.345053	5.33548	0.89446	2.83398			0.794407	2.51725	0.950425	3.01209				
0.840528	2.65371	0.739942	2.3145	0.34497	5.43321	0.896618	2.83025			0.797139	2.51651	0.952879	3.00863				
0.843486	2.65318	0.742654	2.31445	0.344907	5.53496	0.898786	2.82657			0.799879	2.5158	0.955328	3.00518				
0.846438	2.65263	0.745361	2.31439	0.344864	5.64094	0.900963	2.82296			0.802627	2.51512	0.957774	3.00175				
0.849386	2.65207	0.748065	2.31432	0.344839	5.75141	0.90315	2.8194			0.805381	2.51447	0.960216	2.99832				
0.852328	2.6515	0.750765	2.31423	0.344834	5.86663	0.905347	2.8159			0.808143	2.51384	0.962654	2.99492				
0.855264	2.65092	0.753461	2.31414	0.344846	5.98688	0.907555	2.81246			0.810913	2.51324	0.965089	2.99152				
0.858194	2.65032	0.756153	2.31403	0.344876	6.11246	0.909773	2.80907			0.81369	2.51267	0.967519	2.98814				
0.861119	2.64971	0.758842	2.31391	0.344924	6.24372	0.912001	2.80574			0.816474	2.51213	0.969945	2.98477				
0.864037	2.64908	0.761527	2.31378	0.344988	6.38101	0.914241	2.80247			0.819264	2.51161	0.972367	2.98141				
0.866949	2.64844	0.764208	2.31365	0.345069	6.52472	0.916491	2.79926			0.822062	2.51111	0.974785	2.97806				
0.869854	2.64778	0.766886	2.3135	0.345165	6.6753	0.918753	2.7961			0.824867	2.51064	0.977199	2.97472				
0.872752	2.64711	0.769561	2.31335	0.345277	6.8332	0.921027	2.793			0.827679	2.51019	0.979608	2.9714				
0.875644	2.64642	0.772233	2.31318	0.345403	6.99894	0.923312	2.78996			0.830497	2.50977	0.982014	2.96809				
0.878528	2.64571	0.774902	2.31301	0.345543	7.17308	0.925609	2.78698			0.833322	2.50937	0.984416	2.96479				
0.881404	2.64499	0.777567	2.31283	0.345697	7.35624	0.927918	2.78405			0.836154	2.50899	0.986813	2.9615				
0.884273	2.64424	0.780229	2.31264	0.345864	7.54911	0.930239	2.78118			0.838992	2.50864	0.989207	2.95822				
0.887135	2.64348	0.782889	2.31245	0.346044	7.75244	0.932573	2.77837			0.841836	2.5083	0.991596	2.95495				
0.889988	2.64271	0.785546	2.31225	0.346234	7.96706	0.93492	2.77562			0.844687	2.50799	0.993982	2.95169				
0.892833	2.64191	0.7882	2.31204	0.346436	8.19391	0.93728	2.77292			0.847543	2.5077	0.996363	2.94844				
0.895669	2.64109	0.790851	2.31182	0.346648	8.43401	0.939653	2.77028			0.850406	2.50743	0.99874	2.94521				
0.898497	2.64025	0.7935	2.3116	0.346869	8.68852	0.942039	2.7677			0.853275	2.50717	1.00111	2.94198				
0.901316	2.6394	0.796146	2.31138	0.347069	8.92307	0.944439	2.76517			0.85615	2.50694						
0.904126	2.63852	0.79879	2.31115	0.347244	9.13314	0.946852	2.76271			0.85903	2.50672						
0.906927	2.63762	0.801432	2.31091	0.347392	9.31439	0.949279	2.7603			0.861916	2.50652						
0.909719	2.6367	0.804072	2.31067	0.347511	9.46281	0.95172	2.75794			0.864808	2.50634						
0.912501	2.63577	0.806709	2.31042	0.347599	9.57496	0.954175	2.75565			0.867705	2.50618						
0.915274	2.63481	0.809344	2.31017	0.347681	9.68048	0.956644	2.75341			0.870607	2.50603						
0.918037	2.63383	0.811978	2.30992	0.347739	9.75524	0.959128	2.75122			0.873515	2.5059						
0.920791	2.63282	0.814609	2.30966	0.347829	9.87437	0.961626	2.7491			0.876428	2.50579						
0.923535	2.6318	0.817239	2.3094	0.347953	10.0411	0.964138	2.74702			0.879346	2.50569						
0.926269	2.63076	0.819867	2.30914	0.348111	10.26	0.966664	2.745			0.882269	2.5056						
0.928994	2.62969	0.822493	2.30887	0.348305	10.5376	0.969205	2.74304			0.885197	2.50553						
0.931708	2.62861	0.825118	2.3086	0.348535	10.8827	0.971761	2.74113			0.88813	2.50547						
0.934414	2.62751	0.827741	2.30833	0.348801	11.307	0.97433	2.73927			0.891067	2.50543						
0.937109	2.62638	0.830363	2.30806	0.34907	11.7652	0.976914	2.73747			0.894009	2.5054						
0.939795	2.62524	0.832984	2.30778	0.349339	12.2613	0.979513	2.73571			0.896956	2.50538						
0.942471	2.62408	0.835603	2.3075	0.349608	12.8003	0.982125	2.73401			0.899907	2.50538						
0.945138	2.62289	0.838221	2.30722	0.349877	13.3877	0.984752	2.73236			0.902862	2.50539						
0.947796	2.6217	0.840838	2.30694	0.350143	14.0307	0.987392	2.73076			0.905822	2.50541						
0.950445	2.62048	0.843454	2.30666	0.350406	14.7372	0.990047	2.7292			0.908786	2.50544						
0.953084	2.61925	0.846068	2.30638	0.350666	15.5172	0.992714	2.72769			0.911754	2.50548						
0.955715	2.618	0.848682	2.3061	0.35092	16.3828	0.995395	2.72623			0.914726	2.50553						
0.958338	2.61673	0.851295	2.30581	0.351168	17.3489	0.99809	2.72482			0.917702	2.5056						
0.960952	2.61546	0.853908	2.30553	0.351408	18.434	1.0008	2.72344			0.920681	2.50567						
0.963558	2.61416	0.856519	2.30524	0.351641	19.6618					0.923665	2.50575						
0.966157	2.61286	0.85913	2.30496	0.351865	21.0622					0.926652	2.50584						
0.968747	2.61154	0.86174	2.30467	0.352078	22.6745					0.929643	2.50594						
0.971331	2.61021	0.864349	2.30439	0.35228	24.5509					0.932637	2.50605						
0.973907	2.60888	0.866958	2.30411	0.35247	26.7622					0.935635	2.50617						
0.976477	2.60753	0.869567	2.30382	0.352647	29.407					0.938636	2.5063						
0.979041	2.60617	0.872175	2.30354	0.35281	32.627					0.94164	2.50644						
0.981598	2.60481	0.874783	2.30326	0.352959	36.6333					0.944648	2.50658						
0.98415	2.60344	0.87739	2.30298	0.353093	41.7544					0.947659	2.50673						
0.986696	2.60206	0.879997	2.3027	0.35321	48.5318					0.950673	2.50689						
0.989237	2.60068	0.882604	2.30242	0.353311	57.9256					0.95369	2.50705						
0.991773	2.59929	0.885211	2.30214	0.353395	71.8154					0.95671	2.50722						
0.994304	2.5979	0.887817	2.30187	0.353462	94.4485					0.959733	2.5074						
0.996831	2.59651	0.890423	2.30159	0.35351	137.882					0.962759	2.50759						
0.999354	2.59512	0.89303	2.30132	0.353541	255.2					0.965787	2.50778						
1.00187	2.59372	0.895636	2.30105	0.353553	1709.32					0.968819	2.50797						
		0.898243	2.30078							0.971853	2.50817						
		0.900849	2.30051							0.974889	2.50838						
		0.903455	2.30024							0.977928	2.50859						
		0.906062	2.29998							0.98097	2.50881						
		0.908669	2.29971							0.984014	2.50904						
		0.911276	2.29945							0.987061	2.50926						
		0.913883	2.29919							0.990109	2.5095						
		0.91649	2.29894							0.993161	2.50973						
		0.919098	2.29868							0.996214	2.50997						
		0.921706	2.29843							0.99927	2.51022						
		0.924314	2.29818							1.00233	2.51047						
		0.926923	2.29793														
		0.929532	2.29769														
		0.932141	2.29745														
		0.934751	2.29721														
		0.937362	2.29697														
		0.939972	2.29673														
		0.942584	2.2965														
		0.945196	2.29627														
		0.947808	2.29604														
		0.950421	2.29582														
		0.953034	2.2956														
		0.955648	2.29538														
		0.958263	2.29516														
		0.960878	2.29495														
		0.963494	2.29474														
		0.966111	2.29453														
		0.968728	2.29432														
		0.971346	2.29412														
		0.973964	2.29392														
		0.976583	2.29372														
		0.979203	2.29352														
		0.981824	2.29333														
		0.984445	2.29314														
		0.987067	2.29296														
		0.989689	2.29277														
		0.992313	2.29259														
		0.994937	2.29241														
		0.997562	2.29223														
		1.00019	2.29206														
