Sym0		Asym0		Sym1		Sym2		Sym3		Asym1		Asym2		Asym3		Asym4	
331  Points		374  Points		331  Points		316  Points		230  Points		344  Points		293  Points		218  Points		93  Points	
Freq (MHz)	Vph (m/ms)	Freq (MHz)	Vph (m/ms)	Freq (MHz)	Vph (m/ms)	Freq (MHz)	Vph (m/ms)	Freq (MHz)	Vph (m/ms)	Freq (MHz)	Vph (m/ms)	Freq (MHz)	Vph (m/ms)	Freq (MHz)	Vph (m/ms)	Freq (MHz)	Vph (m/ms)
0.353551	524.677	0.000150063	0.0757337	1.00042	2.60949	0.46426	501.62	0.707111	691.294	0.176797	240.3	0.53033	21050.4	0.883883	18456.2	0.928493	8745.57
0.353537	190.858	0.000381152	0.120619	0.997828	2.61075	0.464317	220.68	0.707126	321.218	0.176913	92.4193	0.530335	440.586	0.88388	720.71	0.928509	722.756
0.35351	116.637	0.000717056	0.165278	0.995226	2.61199	0.464419	141.481	0.707153	209.223	0.177132	57.2732	0.530351	222.629	0.883872	367.527	0.928552	376.971
0.35347	83.972	0.00115677	0.209673	0.992616	2.61323	0.464565	104.138	0.707191	155.14	0.177453	41.5458	0.530376	148.952	0.883857	246.652	0.928621	254.997
0.353417	65.5947	0.00169869	0.253707	0.99	2.61445	0.464755	82.4096	0.70724	123.279	0.177876	32.639	0.530412	111.919	0.883838	185.605	0.928718	192.672
0.353352	53.8121	0.00234096	0.297302	0.987376	2.61566	0.464988	68.1993	0.7073	102.278	0.178397	26.9145	0.530458	89.6384	0.883812	148.779	0.928842	154.84
0.353274	45.6137	0.00308171	0.340426	0.984746	2.61686	0.465265	58.183	0.707372	87.3952	0.179017	22.9308	0.530514	74.7596	0.883782	124.145	0.928992	129.436
0.353185	39.5796	0.00391844	0.382995	0.982107	2.61805	0.465585	50.7445	0.707455	76.2963	0.179732	20.0028	0.53058	64.1201	0.883747	106.508	0.929168	111.201
0.353085	34.9522	0.0048487	0.424969	0.97946	2.61922	0.465948	45.0034	0.707549	67.7017	0.18054	17.763	0.530656	56.1345	0.883706	93.2575	0.92937	97.477
0.352973	31.2907	0.00586973	0.466293	0.976806	2.62038	0.466353	40.4395	0.707654	60.85	0.181439	15.9966	0.530742	49.9203	0.883662	82.9379	0.929599	86.7748
0.352852	28.3211	0.00697869	0.50693	0.974143	2.62153	0.466799	36.7251	0.707771	55.2601	0.182426	14.5698	0.530839	44.9471	0.883613	74.6736	0.929853	78.1962
0.35272	25.8641	0.00817258	0.546841	0.971471	2.62266	0.467287	33.644	0.707899	50.613	0.183499	13.3947	0.530945	40.8771	0.88356	67.906	0.930132	71.1665
0.35258	23.7973	0.00944843	0.586	0.968792	2.62377	0.467814	31.0476	0.708038	46.6889	0.184654	12.4113	0.531062	37.485	0.883503	62.2622	0.930436	65.3015
0.352431	22.0345	0.0108031	0.62438	0.966103	2.62487	0.468382	28.8303	0.708188	43.3314	0.185888	11.5772	0.531189	34.6146	0.883443	57.4839	0.930765	60.3342
0.352275	20.5133	0.0122334	0.661956	0.963405	2.62594	0.468988	26.9152	0.70835	40.4262	0.187025	10.9478	0.531327	32.1542	0.88338	53.3859	0.931117	56.0734
0.352111	19.187	0.0137363	0.698726	0.960699	2.62701	0.469632	25.2447	0.708523	37.8878	0.188039	10.4706	0.531474	30.0219	0.883314	49.8328	0.931494	52.3787
0.351941	18.0205	0.0153088	0.734669	0.957983	2.62805	0.470314	23.7752	0.708708	35.651	0.188907	10.1113	0.531632	28.1564	0.883246	46.7225	0.931894	49.1445
0.351765	16.9865	0.0169476	0.769779	0.955259	2.62908	0.471033	22.4727	0.708904	33.665	0.189612	9.84731	0.531801	26.5106	0.883176	43.9772	0.932318	46.2899
0.351585	16.0636	0.0186499	0.80406	0.952525	2.63008	0.471788	21.3105	0.709111	31.8901	0.19014	9.66353	0.531979	25.048	0.883105	41.5362	0.932764	43.7519
0.351401	15.2349	0.0204128	0.837511	0.949782	2.63107	0.472578	20.2673	0.70933	30.2943	0.190483	9.5502	0.532168	23.7396	0.883032	39.3515	0.933232	41.4809
0.351214	14.4866	0.0222334	0.870133	0.94703	2.63204	0.473402	19.3259	0.70956	28.852	0.190982	9.39284	0.532368	22.5623	0.882959	37.3848	0.933722	39.4368
0.351025	13.8076	0.024109	0.901937	0.944269	2.63299	0.474259	18.4722	0.709801	27.542	0.191532	9.22885	0.532577	21.4975	0.882885	35.605	0.934233	37.5875
0.350833	13.1887	0.0260368	0.932928	0.941499	2.63392	0.475149	17.6946	0.710054	26.347	0.192293	9.01681	0.532797	20.5298	0.882811	33.9868	0.934766	35.9064
0.350642	12.6223	0.0280145	0.963119	0.938719	2.63483	0.476071	16.9836	0.710319	25.2525	0.193276	8.76536	0.533028	19.6465	0.882738	32.509	0.935319	34.3717
0.35045	12.102	0.0300395	0.992526	0.935931	2.63573	0.477024	16.331	0.710594	24.2464	0.194495	8.48383	0.533269	18.8371	0.882665	31.1542	0.935892	32.9651
0.35026	11.6224	0.0321096	1.02116	0.933134	2.6366	0.478008	15.73	0.710882	23.3186	0.195967	8.18151	0.533521	18.0928	0.882593	29.9076	0.936486	31.6712
0.350071	11.179	0.0342224	1.04904	0.930328	2.63745	0.47902	15.1748	0.711181	22.4601	0.197707	7.8671	0.533784	17.4061	0.882523	28.7568	0.937098	30.4773
0.349885	10.7678	0.0363761	1.07617	0.927514	2.63829	0.480062	14.6605	0.711491	21.6636	0.199501	7.58287	0.534056	16.7705	0.882455	27.6912	0.93773	29.372
0.349702	10.3855	0.0385682	1.10259	0.924691	2.63911	0.481131	14.1827	0.711813	20.9226	0.201345	7.32485	0.53434	16.1806	0.882388	26.7017	0.938381	28.346
0.349523	10.0292	0.0407971	1.12829	0.921859	2.6399	0.482227	13.7377	0.712146	20.2316	0.203237	7.0897	0.534635	15.6317	0.882324	25.7803	0.93905	27.3911
0.349349	9.69628	0.043061	1.15331	0.919019	2.64068	0.483349	13.3224	0.712492	19.5857	0.205173	6.87464	0.53494	15.1196	0.882263	24.9204	0.939736	26.5002
0.349181	9.38464	0.0453581	1.17766	0.916172	2.64145	0.484497	12.9339	0.712848	18.9806	0.207153	6.67729	0.535255	14.6409	0.882205	24.116	0.940441	25.667
0.349019	9.09231	0.0476867	1.20136	0.913316	2.64219	0.485669	12.5698	0.713217	18.4126	0.209173	6.49565	0.535582	14.1923	0.88215	23.3619	0.941163	24.8863
0.348864	8.81756	0.0500454	1.22443	0.910452	2.64292	0.486866	12.2278	0.713597	17.8785	0.211232	6.32799	0.53592	13.7712	0.882099	22.6535	0.941902	24.1532
0.348717	8.55891	0.0524325	1.24688	0.907581	2.64363	0.488085	11.906	0.713989	17.3753	0.213326	6.17281	0.536268	13.3751	0.882052	21.9868	0.942658	23.4635
0.348579	8.315	0.0548469	1.26874	0.904703	2.64432	0.489327	11.6027	0.714393	16.9004	0.215455	6.02883	0.536628	13.0019	0.882008	21.3583	0.94343	22.8135
0.34845	8.08464	0.0572871	1.29002	0.901817	2.645	0.490592	11.3165	0.714808	16.4515	0.217617	5.89492	0.536999	12.6497	0.881969	20.7648	0.944218	22.1999
0.34833	7.86676	0.0597519	1.31074	0.898925	2.64566	0.491877	11.0459	0.715235	16.0267	0.219809	5.77009	0.53738	12.3167	0.881935	20.2034	0.945022	21.6197
0.348221	7.66041	0.0622401	1.33092	0.896025	2.6463	0.493013	10.8218	0.715674	15.6239	0.22203	5.6535	0.537773	12.0016	0.881906	19.6716	0.945841	21.0704
0.348124	7.46473	0.0647507	1.35056	0.893119	2.64693	0.493995	10.6389	0.716125	15.2416	0.224279	5.54437	0.538177	11.7028	0.881882	19.1672	0.946676	20.5495
0.348037	7.27894	0.0672825	1.3697	0.890207	2.64755	0.494814	10.4929	0.716588	14.8783	0.226553	5.44205	0.538592	11.4192	0.881863	18.6881	0.947526	20.0549
0.347963	7.10234	0.0698346	1.38835	0.887288	2.64815	0.495467	10.3808	0.717062	14.5325	0.228852	5.34593	0.539018	11.1496	0.881849	18.2325	0.94839	19.5847
0.347902	6.93429	0.072406	1.40652	0.884363	2.64874	0.49595	10.3001	0.717549	14.2032	0.231174	5.25549	0.539399	10.9254	0.881841	17.7987	0.949269	19.1371
0.347855	6.77421	0.074996	1.42422	0.881433	2.64931	0.49626	10.2492	0.718048	13.889	0.233517	5.17024	0.539731	10.7416	0.881839	17.3851	0.950162	18.7106
0.347821	6.62158	0.0776035	1.44148	0.878496	2.64987	0.496708	10.177	0.718558	13.5891	0.235881	5.08977	0.54001	10.5945	0.881843	16.9904	0.95107	18.3036
0.347801	6.47592	0.0802279	1.45831	0.875555	2.65042	0.497197	10.1	0.719081	13.3026	0.238265	5.01371	0.540233	10.4812	0.881853	16.6134	0.951991	17.915
0.347797	6.33678	0.0828684	1.47471	0.872607	2.65096	0.497866	9.99729	0.719616	13.0284	0.240666	4.9417	0.5404	10.3995	0.88187	16.2528	0.952926	17.5436
0.347807	6.20377	0.0855242	1.49071	0.869655	2.65148	0.498717	9.8709	0.720163	12.7659	0.243085	4.87343	0.540507	10.3479	0.881893	15.9077	0.953874	17.1881
0.347834	6.07651	0.0881948	1.50632	0.866698	2.65199	0.499756	9.72298	0.720722	12.5144	0.24552	4.80864	0.540662	10.2747	0.881922	15.5771	0.954835	16.8476
0.347877	5.95467	0.0908794	1.52154	0.863736	2.65249	0.500987	9.55599	0.721294	12.2732	0.247971	4.74706	0.540832	10.1964	0.881959	15.2601	0.95581	16.5213
0.347937	5.83792	0.0935776	1.5364	0.860769	2.65299	0.502414	9.37253	0.721877	12.0416	0.250436	4.68847	0.541065	10.0919	0.882002	14.9559	0.956797	16.2082
0.348014	5.72599	0.0962885	1.5509	0.857798	2.65347	0.503857	9.19725	0.722473	11.8192	0.252914	4.63267	0.541364	9.96295	0.882052	14.6637	0.957797	15.9075
0.348108	5.61859	0.0990119	1.56506	0.854823	2.65394	0.505316	9.02963	0.723081	11.6054	0.255406	4.57944	0.541732	9.81164	0.882109	14.3829	0.958809	15.6187
0.34822	5.51549	0.101747	1.57888	0.851843	2.6544	0.50679	8.86919	0.723702	11.3998	0.257909	4.52863	0.542172	9.64029	0.882174	14.1128	0.959834	15.3408
0.348351	5.41646	0.104494	1.59238	0.84886	2.65485	0.508278	8.71548	0.724253	11.2268	0.260424	4.48008	0.542687	9.4514	0.882246	13.8527	0.960871	15.0735
0.3485	5.32127	0.107251	1.60556	0.845872	2.6553	0.50978	8.56809	0.72473	11.0838	0.262949	4.43364	0.543214	9.27031	0.882325	13.6023	0.96192	14.816
0.348646	5.2413	0.110019	1.61845	0.842881	2.65573	0.511296	8.42665	0.725129	10.9685	0.265484	4.38917	0.543753	9.09656	0.882412	13.3609	0.962981	14.5679
0.348782	5.17523	0.112797	1.63104	0.839886	2.65616	0.512824	8.29081	0.725449	10.8791	0.268029	4.34655	0.544304	8.92972	0.882506	13.128	0.964053	14.3287
0.348902	5.12199	0.115584	1.64334	0.836888	2.65658	0.514365	8.16025	0.725685	10.8144	0.270582	4.30567	0.544867	8.76941	0.882608	12.9033	0.965137	14.0979
0.349002	5.08077	0.118381	1.65537	0.833887	2.65699	0.515918	8.03466	0.725838	10.7734	0.273144	4.26642	0.545443	8.61526	0.882718	12.6864	0.966232	13.875
0.349079	5.05094	0.121187	1.66713	0.830882	2.65739	0.517483	7.91379	0.726058	10.7151	0.275713	4.22871	0.54603	8.46693	0.882836	12.4767	0.967339	13.6597
0.34913	5.03206	0.124001	1.67863	0.827874	2.65779	0.519059	7.79736	0.726299	10.6525	0.27829	4.19245	0.54663	8.3241	0.882962	12.2741	0.968456	13.4516
0.349204	5.0052	0.126824	1.68988	0.824863	2.65818	0.520646	7.68514	0.726629	10.5686	0.280873	4.15756	0.547241	8.1865	0.883095	12.0781	0.969585	13.2504
0.349287	4.97637	0.129654	1.70088	0.82185	2.65857	0.522244	7.57692	0.72705	10.4645	0.283463	4.12394	0.547866	8.05385	0.883237	11.8884	0.970724	13.0557
0.349405	4.93778	0.132492	1.71165	0.818833	2.65895	0.523851	7.47247	0.727566	10.3417	0.286058	4.09155	0.548502	7.9259	0.883386	11.7047	0.971874	12.8672
0.349561	4.88995	0.135338	1.72219	0.815814	2.65932	0.525468	7.37161	0.728181	10.2015	0.288659	4.0603	0.549151	7.80241	0.883523	11.5494	0.973035	12.6847
0.349759	4.83353	0.13819	1.73251	0.812793	2.65969	0.527095	7.27417	0.728898	10.0457	0.291264	4.03014	0.549813	7.68316	0.883645	11.4203	0.974206	12.5078
0.350006	4.76926	0.14105	1.74261	0.809769	2.66005	0.52873	7.17996	0.729628	9.89499	0.293874	4.00102	0.550488	7.56795	0.883749	11.3158	0.975387	12.3363
0.35031	4.69796	0.143916	1.7525	0.806743	2.66041	0.530374	7.08884	0.73037	9.74924	0.296488	3.97286	0.551175	7.45659	0.883834	11.2345	0.976578	12.17
0.350635	4.62915	0.146788	1.76219	0.803714	2.66076	0.532026	7.00065	0.731125	9.60818	0.299107	3.94564	0.551875	7.34889	0.883897	11.1755	0.97778	12.0086
0.350982	4.56273	0.149666	1.77167	0.800683	2.66111	0.533686	6.91526	0.731893	9.47158	0.301728	3.91929	0.552588	7.24469	0.883938	11.1381	0.978992	11.8519
0.35135	4.4986	0.15255	1.78097	0.797651	2.66146	0.535354	6.83253	0.732674	9.33924	0.304353	3.89377	0.553313	7.14382	0.883998	11.0848	0.980056	11.7191
0.35174	4.43665	0.15544	1.79008	0.794616	2.6618	0.537029	6.75235	0.733468	9.21099	0.30698	3.86905	0.554052	7.04615	0.884064	11.0274	0.980968	11.6085
0.352153	4.37679	0.158336	1.79901	0.791579	2.66214	0.538712	6.6746	0.734274	9.08664	0.30961	3.84509	0.554804	6.95153	0.884156	10.9503	0.981727	11.5188
0.352588	4.31894	0.161237	1.80776	0.788541	2.66247	0.5404	6.59916	0.735094	8.96602	0.312242	3.82184	0.555569	6.85982	0.884274	10.8545	0.98233	11.449
0.353045	4.263	0.164142	1.81634	0.7855	2.6628	0.542096	6.52595	0.735926	8.84898	0.314877	3.79928	0.556348	6.7709	0.884422	10.7409	0.982774	11.3982
0.353526	4.20891	0.167053	1.82476	0.782458	2.66313	0.543797	6.45485	0.736772	8.73536	0.317512	3.77737	0.55714	6.68466	0.884601	10.6107	0.983059	11.366
0.354029	4.15658	0.169969	1.83301	0.779415	2.66345	0.545504	6.38578	0.737631	8.62503	0.320149	3.75608	0.557945	6.60099	0.884815	10.4653	0.98347	11.3201
0.354556	4.10595	0.172889	1.8411	0.776369	2.66377	0.547217	6.31866	0.738503	8.51784	0.322788	3.73538	0.558763	6.51977	0.885037	10.3241	0.983918	11.2706
0.355106	4.05696	0.175814	1.84904	0.773323	2.66409	0.548935	6.2534	0.739387	8.41368	0.325427	3.71526	0.559596	6.44091	0.885267	10.1867	0.984528	11.2042
0.35568	4.00953	0.178743	1.85683	0.770275	2.66441	0.550658	6.18993	0.740286	8.31243	0.328067	3.69567	0.560442	6.36432	0.885506	10.0531	0.985304	11.1214
0.356277	3.9636	0.181676	1.86448	0.767225	2.66472	0.552386	6.12817	0.741197	8.21397	0.330707	3.6766	0.561301	6.2899	0.885753	9.92316	0.986246	11.0231
0.356899	3.91913	0.184614	1.87198	0.764175	2.66504	0.554118	6.06805	0.742122	8.11819	0.333347	3.65803	0.562175	6.21758	0.886009	9.79668	0.987358	10.9103
0.357544	3.87606	0.187555	1.87935	0.761123	2.66535	0.555855	6.00951	0.74306	8.02499	0.335987	3.63993	0.563062	6.14727	0.886274	9.67355	0.988643	10.784
0.358214	3.83434	0.1905	1.88658	0.75807	2.66566	0.557596	5.95249	0.744011	7.93428	0.338627	3.62228	0.563964	6.07889	0.886547	9.55364	0.989937	10.6611
0.358908	3.79391	0.193448	1.89368	0.755015	2.66597	0.55934	5.89692	0.744975	7.84596	0.341267	3.60507	0.564879	6.01239	0.886829	9.43683	0.991239	10.5413
0.359628	3.75474	0.196401	1.90065	0.75196	2.66627	0.561088	5.84276	0.745953	7.75994	0.343905	3.58827	0.565809	5.94767	0.887119	9.32301	0.992551	10.4246
0.360371	3.71677	0.199356	1.9075	0.748904	2.66658	0.56284	5.78994	0.746945	7.67615	0.346543	3.57187	0.566752	5.88469	0.887418	9.21206	0.993871	10.3109
0.36114	3.67997	0.202315	1.91423	0.745846	2.66688	0.564594	5.73842	0.74795	7.5945	0.34918	3.55586	0.56771	5.82338	0.887726	9.10388	0.9952	10.2
0.361934	3.6443	0.205278	1.92083	0.742788	2.66719	0.566352	5.68815	0.748968	7.51491	0.351816	3.54021	0.568683	5.76368	0.888043	8.99837	0.996537	10.0918
0.362753	3.60971	0.208243	1.92733	0.739729	2.66749	0.568112	5.63909	0.75	7.43732	0.35445	3.52491	0.56967	5.70554	0.888368	8.89544	0.997883	9.98621
0.363598	3.57618	0.211211	1.93371	0.736669	2.66779	0.569875	5.59118	0.751045	7.36165	0.357082	3.50996	0.570671	5.64889	0.888702	8.79499	0.999237	9.8832
0.364469	3.54367	0.214183	1.93998	0.733608	2.6681	0.571641	5.54439	0.752104	7.28784	0.359713	3.49532	0.571687	5.59369	0.889044	8.69695	1.0006	9.78265
0.365365	3.51214	0.217157	1.94615	0.730547	2.6684	0.573408	5.49868	0.753176	7.21583	0.362342	3.481	0.572718	5.53989	0.889396	8.60123		
0.366288	3.48157	0.220134	1.95221	0.727485	2.6687	0.575177	5.45401	0.754262	7.14556	0.364968	3.46699	0.573763	5.48745	0.889756	8.50775		
0.367237	3.45192	0.223113	1.95817	0.724422	2.66901	0.576949	5.41035	0.755362	7.07696	0.367593	3.45326	0.574824	5.43632	0.890125	8.41643		
0.368212	3.42316	0.225712	1.96328	0.721359	2.66931	0.578722	5.36765	0.756475	7.00999	0.370215	3.4398	0.575899	5.38645	0.890502	8.32721		
0.369214	3.39528	0.227929	1.96757	0.718295	2.66962	0.580496	5.3259	0.757602	6.94459	0.372834	3.42662	0.576989	5.33781	0.890888	8.24001		
0.370243	3.36824	0.229763	1.97109	0.715231	2.66992	0.582272	5.28504	0.758742	6.88071	0.375451	3.41369	0.578094	5.29036	0.891284	8.15478		
0.371299	3.34202	0.231214	1.97384	0.712166	2.67023	0.584049	5.24506	0.759896	6.81831	0.378064	3.40101	0.579214	5.24405	0.891687	8.07144		
0.372383	3.31659	0.232281	1.97585	0.709101	2.67054	0.585826	5.20593	0.761064	6.75733	0.380675	3.38857	0.58035	5.19886	0.8921	7.98994		
0.373494	3.29194	0.232964	1.97713	0.706036	2.67085	0.587605	5.16762	0.762245	6.69774	0.383283	3.37637	0.5815	5.15475	0.892521	7.91022		
0.374634	3.26803	0.233946	1.97897	0.70297	2.67116	0.589385	5.1301	0.76344	6.63948	0.385887	3.36438	0.582667	5.11168	0.892952	7.83223		
0.375802	3.24486	0.235014	1.98095	0.699904	2.67147	0.591165	5.09334	0.764649	6.58253	0.388488	3.35261	0.583848	5.06963	0.89339	7.7559		
0.376999	3.22241	0.236467	1.98362	0.696838	2.67179	0.592945	5.05733	0.765872	6.52684	0.391085	3.34104	0.585045	5.02857	0.893838	7.6812		
0.378224	3.20064	0.238305	1.98698	0.693771	2.6721	0.594726	5.02204	0.767108	6.47236	0.393678	3.32968	0.586257	4.98846	0.894295	7.60807		
0.379479	3.17955	0.240529	1.99099	0.690704	2.67242	0.596507	4.98745	0.768357	6.41908	0.396268	3.3185	0.587485	4.94927	0.89476	7.53647		
0.380764	3.15912	0.24314	1.99563	0.687638	2.67274	0.598288	4.95353	0.769621	6.36695	0.398854	3.30751	0.588729	4.91099	0.895234	7.46635		
0.382079	3.13933	0.246137	2.00088	0.684571	2.67307	0.600069	4.92026	0.770897	6.31593	0.401436	3.29671	0.589988	4.87358	0.895717	7.39766		
0.383424	3.12018	0.249137	2.00604	0.681504	2.67339	0.601849	4.88764	0.772188	6.26601	0.404014	3.28607	0.591263	4.83703	0.896208	7.33037		
0.384801	3.10163	0.252138	2.01113	0.678437	2.67372	0.60363	4.85562	0.773492	6.21713	0.406588	3.27561	0.592554	4.8013	0.896708	7.26444		
0.386209	3.08369	0.255142	2.01613	0.67537	2.67406	0.60541	4.82421	0.77481	6.16928	0.409157	3.2653	0.59386	4.76637	0.897217	7.19983		
0.387649	3.06634	0.258147	2.02106	0.672304	2.67439	0.60719	4.79338	0.776141	6.12243	0.411722	3.25516	0.595183	4.73222	0.897735	7.13649		
0.389122	3.04956	0.261154	2.02591	0.669237	2.67474	0.608969	4.76311	0.777486	6.07655	0.414282	3.24516	0.596521	4.69883	0.898262	7.0744		
0.390628	3.03334	0.264163	2.03069	0.666171	2.67508	0.610748	4.73339	0.778844	6.03161	0.416838	3.23532	0.597875	4.66618	0.898797	7.01352		
0.392167	3.01768	0.267173	2.03539	0.663105	2.67543	0.612526	4.7042	0.780216	5.98759	0.419389	3.22561	0.599246	4.63425	0.899341	6.95382		
0.39374	3.00255	0.270185	2.04002	0.660039	2.67578	0.614303	4.67553	0.781601	5.94446	0.421935	3.21604	0.600632	4.60302	0.899894	6.89526		
0.395348	2.98796	0.273199	2.04458	0.656974	2.67614	0.616079	4.64736	0.783	5.90219	0.424477	3.20661	0.602035	4.57248	0.900456	6.83782		
0.396992	2.9739	0.276214	2.04907	0.653908	2.6765	0.617854	4.61969	0.784412	5.86077	0.427013	3.19731	0.603453	4.54259	0.901026	6.78146		
0.398671	2.96034	0.279231	2.0535	0.650844	2.67687	0.619629	4.59249	0.785838	5.82017	0.429545	3.18813	0.604888	4.51335	0.901605	6.72616		
0.400386	2.94729	0.282249	2.05786	0.647779	2.67725	0.621402	4.56575	0.787276	5.78037	0.432071	3.17907	0.606339	4.48474	0.902193	6.67188		
0.402139	2.93473	0.285268	2.06215	0.644716	2.67763	0.623174	4.53946	0.788728	5.74135	0.434592	3.17014	0.607806	4.45674	0.902789	6.61861		
0.403928	2.92265	0.288289	2.06638	0.641653	2.67801	0.624945	4.51361	0.790193	5.70309	0.437109	3.16131	0.609289	4.42934	0.903394	6.56631		
0.405756	2.91105	0.291311	2.07055	0.63859	2.67841	0.626715	4.48819	0.791671	5.66557	0.439619	3.1526	0.610788	4.40252	0.904008	6.51497		
0.407622	2.89992	0.294334	2.07466	0.635529	2.67881	0.628483	4.46319	0.793162	5.62877	0.442125	3.144	0.612304	4.37627	0.904631	6.46455		
0.409527	2.88925	0.297358	2.07871	0.632467	2.67921	0.630251	4.43859	0.794667	5.59267	0.444625	3.1355	0.613836	4.35058	0.905262	6.41504		
0.41147	2.87902	0.300384	2.0827	0.629407	2.67963	0.632016	4.41439	0.796184	5.55726	0.44712	3.12711	0.615384	4.32542	0.905902	6.3664		
0.413453	2.86923	0.30341	2.08664	0.626348	2.68005	0.633781	4.39057	0.797714	5.52251	0.44961	3.11881	0.616948	4.30079	0.906551	6.31863		
0.415475	2.85988	0.306438	2.09052	0.623289	2.68048	0.635544	4.36714	0.799257	5.48841	0.452094	3.11062	0.618529	4.27667	0.907208	6.27169		
0.417536	2.85094	0.309467	2.09434	0.620232	2.68092	0.637306	4.34406	0.800812	5.45495	0.454573	3.10251	0.620125	4.25305	0.907874	6.22558		
0.419637	2.84241	0.312496	2.09811	0.617176	2.68137	0.639067	4.32135	0.802381	5.4221	0.457046	3.0945	0.621738	4.22993	0.908549	6.18026		
0.421777	2.83428	0.315527	2.10182	0.61412	2.68182	0.640826	4.29899	0.803961	5.38986	0.459513	3.08658	0.623367	4.20728	0.909232	6.13572		
0.423955	2.82654	0.318558	2.10549	0.611066	2.68229	0.642583	4.27696	0.805555	5.35821	0.461976	3.07875	0.625012	4.18509	0.909924	6.09194		
0.426173	2.81917	0.32159	2.1091	0.608014	2.68277	0.64434	4.25527	0.80716	5.32713	0.464432	3.071	0.626673	4.16336	0.910625	6.04891		
0.428427	2.81216	0.324623	2.11266	0.604962	2.68326	0.646094	4.23391	0.808778	5.29661	0.466883	3.06334	0.628351	4.14207	0.911335	6.0066		
0.43072	2.8055	0.327657	2.11618	0.601912	2.68376	0.647848	4.21287	0.810409	5.26664	0.469329	3.05575	0.630044	4.12122	0.912053	5.96499		
0.433048	2.79918	0.330692	2.11964	0.598864	2.68427	0.6496	4.19213	0.812051	5.2372	0.471769	3.04825	0.631753	4.10079	0.912779	5.92409		
0.435413	2.79319	0.333727	2.12306	0.595817	2.6848	0.65135	4.1717	0.813706	5.20829	0.474203	3.04082	0.633479	4.08077	0.913514	5.88385		
0.437812	2.78751	0.336763	2.12643	0.592772	2.68533	0.6531	4.15157	0.815372	5.17988	0.476633	3.03348	0.63522	4.06115	0.914258	5.84428		
0.440245	2.78212	0.339799	2.12976	0.589729	2.68589	0.654847	4.13173	0.81705	5.15197	0.479056	3.0262	0.636977	4.04193	0.915011	5.80536		
0.442711	2.77702	0.342836	2.13303	0.586687	2.68646	0.656594	4.11217	0.81874	5.12455	0.481474	3.019	0.638749	4.02309	0.915772	5.76707		
0.445208	2.77219	0.345874	2.13627	0.583648	2.68704	0.658339	4.09289	0.820442	5.09759	0.483887	3.01187	0.640538	4.00463	0.916542	5.72939		
0.447735	2.76762	0.348912	2.13946	0.58061	2.68764	0.660083	4.07388	0.822155	5.07111	0.486294	3.00482	0.642341	3.98654	0.91732	5.69232		
0.450291	2.76329	0.351951	2.14261	0.577575	2.68825	0.661825	4.05514	0.823879	5.04507	0.488696	2.99783	0.644161	3.9688	0.918107	5.65585		
0.452876	2.75919	0.35499	2.14572	0.574543	2.68889	0.663567	4.03666	0.825615	5.01948	0.491093	2.99091	0.645996	3.95141	0.918903	5.61995		
0.455487	2.75532	0.358029	2.14878	0.571513	2.68954	0.665307	4.01844	0.827362	4.99431	0.493484	2.98406	0.647846	3.93437	0.919707	5.58461		
0.458123	2.75165	0.361069	2.15181	0.568485	2.69021	0.667046	4.00046	0.829121	4.96957	0.495871	2.97727	0.649712	3.91766	0.92052	5.54983		
0.460784	2.74818	0.364109	2.15479	0.565461	2.69091	0.668784	3.98274	0.83089	4.94524	0.498252	2.97055	0.651592	3.90128	0.921341	5.5156		
0.463468	2.74489	0.36715	2.15774	0.562439	2.69162	0.67052	3.96525	0.83267	4.92132	0.500628	2.96389	0.653488	3.88521	0.922171	5.48189		
0.466173	2.74178	0.370191	2.16064	0.55942	2.69236	0.672256	3.948	0.83446	4.89779	0.502999	2.95729	0.655399	3.86946	0.92301	5.4487		
0.468899	2.73883	0.373232	2.16351	0.556405	2.69312	0.673991	3.93098	0.836261	4.87464	0.505365	2.95076	0.657324	3.85401	0.923857	5.41602		
0.471645	2.73603	0.376273	2.16634	0.553393	2.69391	0.675725	3.91419	0.838073	4.85187	0.507727	2.94428	0.659265	3.83886	0.924713	5.38384		
0.474409	2.73338	0.379314	2.16913	0.550385	2.69473	0.677458	3.89762	0.839895	4.82947	0.510083	2.93787	0.66122	3.82401	0.925577	5.35215		
0.477191	2.73086	0.382356	2.17189	0.54738	2.69557	0.67919	3.88127	0.841727	4.80742	0.512435	2.93152	0.663189	3.80943	0.92645	5.32094		
0.479989	2.72847	0.385397	2.17461	0.54438	2.69645	0.680921	3.86513	0.843569	4.78573	0.514783	2.92523	0.665173	3.79513	0.927331	5.29019		
0.482802	2.7262	0.388439	2.17729	0.541384	2.69735	0.682652	3.84921	0.845422	4.76439	0.517125	2.91899	0.66717	3.78111	0.928221	5.25991		
0.485631	2.72405	0.391481	2.17994	0.538393	2.69829	0.684381	3.83349	0.847284	4.74338	0.519464	2.91282	0.669182	3.76735	0.92912	5.23007		
0.488473	2.72199	0.394523	2.18256	0.535407	2.69927	0.686111	3.81797	0.849155	4.7227	0.521798	2.9067	0.671208	3.75385	0.930027	5.20068		
0.491328	2.72004	0.397565	2.18514	0.532425	2.70028	0.68784	3.80265	0.851036	4.70234	0.524128	2.90063	0.673248	3.7406	0.930943	5.17172		
0.494196	2.71818	0.400607	2.18769	0.529449	2.70134	0.689568	3.78753	0.852927	4.68229	0.526454	2.89463	0.675301	3.7276	0.931867	5.14318		
0.497075	2.71641	0.403648	2.1902	0.526479	2.70243	0.691296	3.7726	0.854827	4.66256	0.528776	2.88868	0.677368	3.71484	0.9328	5.11506		
0.499965	2.71472	0.40669	2.19269	0.523515	2.70357	0.693024	3.75786	0.856736	4.64312	0.531094	2.88278	0.679448	3.70232	0.933742	5.08734		
0.502865	2.71311	0.409731	2.19514	0.520557	2.70476	0.694751	3.74331	0.858654	4.62399	0.533409	2.87694	0.681541	3.69003	0.934692	5.06003		
0.505775	2.71156	0.412772	2.19755	0.517606	2.70599	0.696478	3.72893	0.860581	4.60514	0.53572	2.87115	0.683647	3.67797	0.93565	5.03311		
0.508694	2.71009	0.415813	2.19994	0.514663	2.70729	0.698205	3.71474	0.862516	4.58657	0.538027	2.86542	0.685766	3.66612	0.936618	5.00657		
0.511621	2.70868	0.418854	2.2023	0.511726	2.70863	0.699932	3.70073	0.86446	4.56828	0.540331	2.85974	0.687898	3.65449	0.937593	4.98041		
0.514557	2.70733	0.421895	2.20462	0.508798	2.71004	0.701659	3.68688	0.866413	4.55026	0.542632	2.85412	0.690042	3.64308	0.938578	4.95463		
0.517501	2.70604	0.424935	2.20692	0.505879	2.71151	0.703387	3.67321	0.868374	4.5325	0.54493	2.84855	0.692199	3.63186	0.939571	4.9292		
0.520451	2.7048	0.427975	2.20918	0.502969	2.71305	0.705114	3.65971	0.870342	4.515	0.547225	2.84303	0.694367	3.62085	0.940572	4.90413		
0.523409	2.70361	0.431014	2.21142	0.500068	2.71466	0.706841	3.64637	0.872319	4.49776	0.549517	2.83756	0.696548	3.61004	0.941582	4.87942		
0.526373	2.70247	0.434053	2.21363	0.497178	2.71635	0.708569	3.6332	0.874304	4.48077	0.551807	2.83215	0.69874	3.59941	0.942601	4.85505		
0.529343	2.70137	0.437092	2.21581	0.494298	2.71812	0.710298	3.62018	0.876296	4.46402	0.554094	2.82679	0.700944	3.58898	0.943628	4.83101		
0.532319	2.70032	0.44013	2.21796	0.491431	2.71997	0.712026	3.60733	0.878297	4.44751	0.556378	2.82148	0.703159	3.57873	0.944664	4.80731		
0.5353	2.69931	0.443168	2.22008	0.488575	2.72192	0.713756	3.59463	0.880304	4.43123	0.558661	2.81623	0.705385	3.56865	0.945708	4.78393		
0.538286	2.69833	0.446205	2.22218	0.485732	2.72397	0.715485	3.58208	0.882319	4.41518	0.560941	2.81102	0.707623	3.55875	0.946761	4.76088		
0.541277	2.69739	0.449241	2.22424	0.482903	2.72612	0.717216	3.56968	0.884341	4.39935	0.563219	2.80587	0.709871	3.54902	0.947823	4.73814		
0.544273	2.69648	0.452277	2.22629	0.480089	2.72839	0.718947	3.55743	0.886369	4.38374	0.565496	2.80077	0.71213	3.53946	0.948893	4.7157		
0.547273	2.6956	0.455312	2.2283	0.477291	2.73077	0.72068	3.54533	0.888405	4.36835	0.567771	2.79572	0.714399	3.53006	0.949972	4.69358		
0.550277	2.69476	0.458347	2.23029	0.474508	2.73329	0.722413	3.53337	0.890448	4.35316	0.570045	2.79072	0.716678	3.52083	0.951059	4.67175		
0.553285	2.69394	0.461381	2.23225	0.471744	2.73593	0.724147	3.52155	0.892497	4.33819	0.572317	2.78577	0.718968	3.51174	0.952155	4.65021		
0.556297	2.69315	0.464414	2.23418	0.468997	2.73872	0.725882	3.50987	0.894552	4.32341	0.574588	2.78087	0.721267	3.50281	0.95326	4.62896		
0.559312	2.69239	0.467446	2.23609	0.46627	2.74167	0.727619	3.49833	0.896614	4.30883	0.576858	2.77602	0.723576	3.49402	0.954373	4.608		
0.562331	2.69165	0.470477	2.23798	0.463564	2.74478	0.729356	3.48693	0.898682	4.29445	0.579127	2.77123	0.725895	3.48539	0.955495	4.58731		
0.565352	2.69093	0.473508	2.23984	0.46088	2.74806	0.731095	3.47566	0.900756	4.28026	0.581396	2.76648	0.728222	3.47689	0.956626	4.5669		
0.568377	2.69024	0.476538	2.24167	0.458218	2.75152	0.732835	3.46453	0.902835	4.26625	0.583664	2.76178	0.730559	3.46853	0.957765	4.54676		
0.571404	2.68956	0.479566	2.24348	0.455581	2.75518	0.734577	3.45352	0.904921	4.25242	0.585931	2.75714	0.732905	3.4603	0.958913	4.52688		
0.574434	2.68891	0.482594	2.24527	0.452969	2.75905	0.73632	3.44264	0.907012	4.23877	0.588198	2.75254	0.735259	3.45221	0.96007	4.50727		
0.577467	2.68828	0.48562	2.24703	0.450384	2.76314	0.738065	3.43189	0.909108	4.2253	0.590465	2.748	0.737622	3.44424	0.961235	4.48791		
0.580502	2.68766	0.488646	2.24876	0.447826	2.76746	0.739812	3.42126	0.91121	4.212	0.592733	2.7435	0.739993	3.43641	0.96241	4.4688		
0.583539	2.68706	0.49167	2.25048	0.445298	2.77202	0.74156	3.41076	0.913317	4.19886	0.595	2.73905	0.742372	3.42869	0.963592	4.44994		
0.586578	2.68648	0.494694	2.25216	0.442799	2.77684	0.743311	3.40038	0.915429	4.18589	0.597268	2.73466	0.744759	3.42109	0.964784	4.43133		
0.58962	2.68591	0.497716	2.25383	0.440333	2.78193	0.745063	3.39012	0.917546	4.17309	0.599536	2.73031	0.747154	3.41361	0.965984	4.41295		
0.592663	2.68535	0.500736	2.25547	0.437899	2.78731	0.746817	3.37997	0.919668	4.16044	0.601805	2.72601	0.749556	3.40625	0.967193	4.39481		
0.595708	2.68482	0.503756	2.25709	0.435498	2.79298	0.748573	3.36994	0.921795	4.14794	0.604075	2.72177	0.751965	3.39899	0.968411	4.37691		
0.598755	2.68429	0.506774	2.25869	0.433132	2.79896	0.750331	3.36003	0.923926	4.1356	0.606346	2.71757	0.754382	3.39185	0.969637	4.35923		
0.601803	2.68378	0.509791	2.26026	0.430802	2.80527	0.752092	3.35024	0.926061	4.1234	0.608617	2.71342	0.756805	3.38481	0.970873	4.34178		
0.604853	2.68328	0.512806	2.26181	0.428509	2.81191	0.753854	3.34055	0.928201	4.11136	0.61089	2.70931	0.759235	3.37787	0.972117	4.32456		
0.607904	2.68279	0.51582	2.26334	0.426253	2.81891	0.755619	3.33098	0.930344	4.09945	0.613165	2.70526	0.761672	3.37104	0.97337	4.30755		
0.610957	2.68231	0.518833	2.26485	0.424034	2.82626	0.757387	3.32151	0.932492	4.08769	0.615441	2.70126	0.764115	3.3643	0.974631	4.29075		
0.614011	2.68184	0.521844	2.26633	0.421854	2.834	0.759157	3.31216	0.934644	4.07607	0.617719	2.6973	0.766564	3.35766	0.975902	4.27417		
0.617066	2.68138	0.524853	2.26779	0.419713	2.84211	0.760929	3.30291	0.936799	4.06457	0.619998	2.6934	0.769019	3.35112	0.977181	4.2578		
0.620123	2.68093	0.527861	2.26924	0.417611	2.85063	0.762704	3.29376	0.938958	4.05322	0.62228	2.68954	0.77148	3.34467	0.97847	4.24163		
0.62318	2.68049	0.530867	2.27065	0.415548	2.85955	0.764482	3.28472	0.941121	4.04199	0.624563	2.68573	0.773947	3.3383	0.979767	4.22566		
0.626238	2.68006	0.533871	2.27205	0.413525	2.86889	0.766262	3.27578	0.943287	4.03089	0.626849	2.68197	0.776419	3.33203	0.981073	4.2099		
0.629298	2.67964	0.536873	2.27343	0.411541	2.87866	0.768046	3.26695	0.945456	4.01991	0.629138	2.67825	0.778896	3.32584	0.982388	4.19433		
0.632358	2.67923	0.539874	2.27478	0.409596	2.88887	0.769832	3.25821	0.947628	4.00906	0.631429	2.67459	0.781378	3.31973	0.983712	4.17896		
0.635419	2.67882	0.542873	2.27611	0.40769	2.89953	0.771621	3.24958	0.949804	3.99833	0.633722	2.67097	0.783865	3.31371	0.985045	4.16377		
0.638481	2.67842	0.545869	2.27742	0.405822	2.91065	0.773413	3.24104	0.951982	3.98772	0.636018	2.6674	0.786357	3.30776	0.986387	4.14878		
0.641543	2.67803	0.548864	2.27871	0.403993	2.92223	0.775208	3.2326	0.954163	3.97722	0.638318	2.66388	0.788854	3.30189	0.987738	4.13397		
0.644606	2.67764	0.551857	2.27998	0.402202	2.93429	0.777006	3.22425	0.956347	3.96683	0.64062	2.6604	0.791354	3.2961	0.989098	4.11934		
0.64767	2.67726	0.554848	2.28123	0.400448	2.94683	0.778808	3.216	0.958533	3.95656	0.642926	2.65697	0.793859	3.29038	0.990467	4.1049		
0.650734	2.67689	0.557836	2.28246	0.398731	2.95986	0.780613	3.20784	0.960722	3.9464	0.645234	2.65359	0.796368	3.28474	0.991845	4.09063		
0.653799	2.67652	0.560822	2.28367	0.397051	2.9734	0.782421	3.19977	0.962913	3.93634	0.647547	2.65025	0.798881	3.27916	0.993232	4.07653		
0.656864	2.67615	0.563806	2.28485	0.395406	2.98745	0.784232	3.1918	0.965106	3.92639	0.649863	2.64696	0.801397	3.27366	0.994628	4.06261		
0.659929	2.6758	0.566788	2.28602	0.393797	3.00202	0.786047	3.18391	0.967301	3.91655	0.652182	2.64372	0.803917	3.26822	0.996034	4.04886		
0.662995	2.67544	0.569768	2.28716	0.392222	3.01713	0.787865	3.17612	0.969499	3.9068	0.654506	2.64053	0.806441	3.26284	0.997448	4.03528		
0.666061	2.67509	0.572745	2.28829	0.390682	3.03277	0.789687	3.16841	0.971698	3.89715	0.656833	2.63738	0.808967	3.25753	0.998872	4.02187		
0.669127	2.67475	0.575719	2.28939	0.389175	3.04897	0.791512	3.16079	0.973899	3.88761	0.659165	2.63427	0.811497	3.25228	1.0003	4.00861		
0.672194	2.67441	0.578691	2.29048	0.387701	3.06572	0.793342	3.15325	0.976102	3.87816	0.661501	2.63121	0.814029	3.2471				
0.675261	2.67407	0.581661	2.29154	0.38626	3.08306	0.795174	3.1458	0.978306	3.8688	0.663841	2.6282	0.816565	3.24197				
0.678327	2.67374	0.584627	2.29259	0.384851	3.10098	0.797011	3.13843	0.980512	3.85953	0.666185	2.62524	0.819102	3.2369				
0.681394	2.67341	0.587591	2.29361	0.383473	3.1195	0.798852	3.13115	0.982719	3.85036	0.668534	2.62231	0.821642	3.23188				
0.684461	2.67308	0.590553	2.29461	0.382126	3.13864	0.800696	3.12395	0.984927	3.84128	0.670888	2.61944	0.824185	3.22693				
0.687528	2.67275	0.593511	2.2956	0.38081	3.1584	0.802545	3.11683	0.987137	3.83228	0.673247	2.61661	0.826729	3.22202				
0.690595	2.67243	0.596467	2.29656	0.379525	3.17881	0.804397	3.10979	0.989348	3.82337	0.67561	2.61382	0.829275	3.21717				
0.693661	2.67211	0.59942	2.2975	0.378269	3.19987	0.806253	3.10283	0.991559	3.81454	0.677979	2.61108	0.831824	3.21237				
0.696728	2.6718	0.602369	2.29843	0.377042	3.22161	0.808114	3.09595	0.993772	3.8058	0.680352	2.60838	0.834374	3.20762				
0.699794	2.67148	0.605316	2.29933	0.375844	3.24405	0.809979	3.08915	0.995985	3.79714	0.682731	2.60573	0.836925	3.20291				
0.70286	2.67117	0.60826	2.30022	0.374675	3.26719	0.811848	3.08242	0.998199	3.78856	0.685115	2.60312	0.839478	3.19826				
0.705926	2.67086	0.6112	2.30108	0.373535	3.29107	0.813721	3.07577	1.00041	3.78005	0.687505	2.60055	0.842032	3.19365				
0.708992	2.67055	0.614138	2.30193	0.372422	3.31569	0.815599	3.0692			0.6899	2.59803	0.844587	3.18908				
0.712057	2.67024	0.617072	2.30275	0.371338	3.34109	0.817481	3.0627			0.6923	2.59555	0.847143	3.18456				
0.715121	2.66993	0.620002	2.30356	0.37028	3.36729	0.819368	3.05627			0.694707	2.59312	0.849699	3.18009				
0.718186	2.66963	0.62293	2.30434	0.36925	3.3943	0.821259	3.04992			0.697119	2.59072	0.852257	3.17565				
0.72125	2.66932	0.625854	2.30511	0.368247	3.42215	0.823155	3.04364			0.699537	2.58837	0.854815	3.17126				
0.724313	2.66902	0.628774	2.30586	0.367271	3.45087	0.825055	3.03743			0.701962	2.58607	0.857373	3.1669				
0.727375	2.66872	0.631691	2.30659	0.366321	3.48049	0.826961	3.03129			0.704392	2.5838	0.859932	3.16259				
0.730437	2.66841	0.634604	2.30729	0.365398	3.51103	0.82887	3.02522			0.706828	2.58158	0.862491	3.15831				
0.733499	2.66811	0.637514	2.30798	0.364501	3.54252	0.830785	3.01922			0.709271	2.5794	0.86505	3.15407				
0.73656	2.66781	0.64042	2.30866	0.363629	3.575	0.832705	3.0133			0.71172	2.57726	0.867608	3.14986				
0.739619	2.6675	0.643322	2.30931	0.362783	3.60849	0.83463	3.00743			0.714176	2.57516	0.870167	3.14569				
0.742679	2.6672	0.646221	2.30994	0.361963	3.64304	0.836559	3.00164			0.716638	2.5731	0.872725	3.14155				
0.745737	2.66689	0.649115	2.31055	0.361168	3.67867	0.838494	2.99591			0.719106	2.57109	0.875283	3.13745				
0.748794	2.66659	0.652006	2.31115	0.360398	3.71543	0.840434	2.99025			0.721582	2.56911	0.87784	3.13338				
0.751851	2.66628	0.654893	2.31172	0.359654	3.75336	0.842379	2.98466			0.724064	2.56718	0.880396	3.12934				
0.754906	2.66598	0.657776	2.31228	0.358934	3.79249	0.844329	2.97913			0.726552	2.56528	0.882952	3.12533				
0.75796	2.66567	0.660654	2.31282	0.358239	3.83287	0.846284	2.97366			0.729048	2.56343	0.885506	3.12135				
0.761013	2.66536	0.663529	2.31334	0.357568	3.87455	0.848245	2.96826			0.731551	2.56161	0.88806	3.11741				
0.764065	2.66505	0.6664	2.31384	0.356921	3.91757	0.850212	2.96292			0.73406	2.55984	0.890612	3.11349				
0.767116	2.66474	0.669267	2.31432	0.356299	3.96199	0.852184	2.95765			0.736577	2.5581	0.893163	3.10959				
0.770166	2.66442	0.672129	2.31479	0.355701	4.00786	0.854162	2.95244			0.739101	2.5564	0.895713	3.10573				
0.773214	2.6641	0.674987	2.31523	0.355126	4.05523	0.856145	2.94729			0.741632	2.55474	0.898261	3.10189				
0.77626	2.66378	0.677841	2.31566	0.354575	4.10417	0.858134	2.9422			0.74417	2.55312	0.900808	3.09807				
0.779306	2.66346	0.680691	2.31607	0.354048	4.15474	0.860129	2.93717			0.746715	2.55154	0.903353	3.09428				
0.782349	2.66314	0.683537	2.31647	0.353543	4.20701	0.862129	2.9322			0.749268	2.54999	0.905896	3.09052				
0.785391	2.66281	0.686378	2.31684	0.353062	4.26103	0.864136	2.92729			0.751828	2.54848	0.908437	3.08678				
0.788432	2.66248	0.689215	2.3172	0.352604	4.3169	0.866149	2.92244			0.754395	2.54701	0.910977	3.08306				
0.79147	2.66215	0.692047	2.31754	0.352168	4.37469	0.868168	2.91765			0.75697	2.54558	0.913514	3.07937				
0.794507	2.66181	0.694876	2.31786	0.351755	4.43447	0.870193	2.91292			0.759552	2.54418	0.916049	3.07569				
0.797542	2.66147	0.6977	2.31817	0.351363	4.49635	0.872224	2.90825			0.762142	2.54281	0.918582	3.07204				
0.800575	2.66113	0.700519	2.31846	0.350994	4.5604	0.874262	2.90363			0.764739	2.54148	0.921113	3.06841				
0.803606	2.66078	0.703334	2.31873	0.350647	4.62673	0.876306	2.89908			0.767343	2.54019	0.923641	3.0648				
0.806634	2.66042	0.706145	2.31899	0.350321	4.69545	0.878357	2.89457			0.769955	2.53893	0.926166	3.06121				
0.809661	2.66007	0.708952	2.31923	0.350017	4.76666	0.880414	2.89013			0.772575	2.53771	0.928689	3.05764				
0.812685	2.6597	0.711754	2.31946	0.349734	4.84049	0.882479	2.88574			0.775202	2.53652	0.93121	3.05409				
0.815706	2.65933	0.714552	2.31967	0.349471	4.91706	0.88455	2.88141			0.777836	2.53536	0.933727	3.05055				
0.818725	2.65896	0.717345	2.31986	0.349229	4.9965	0.886628	2.87714			0.780478	2.53424	0.936242	3.04704				
0.821742	2.65858	0.720134	2.32004	0.349007	5.07896	0.888713	2.87292			0.783128	2.53315	0.938754	3.04354				
0.824756	2.6582	0.722919	2.3202	0.348805	5.1646	0.890806	2.86875			0.785785	2.53209	0.941263	3.04006				
0.827766	2.65781	0.7257	2.32035	0.348622	5.25357	0.892905	2.86464			0.788449	2.53106	0.943769	3.03659				
0.830774	2.65741	0.728476	2.32048	0.348459	5.34605	0.895012	2.86058			0.791121	2.53007	0.946272	3.03315				
0.833779	2.657	0.731248	2.3206	0.348315	5.44224	0.897127	2.85658			0.793801	2.52911	0.948772	3.02971				
0.836781	2.65659	0.734016	2.3207	0.348189	5.54233	0.899249	2.85264			0.796487	2.52817	0.951268	3.0263				
0.839779	2.65617	0.736779	2.32079	0.348081	5.64654	0.901379	2.84874			0.799181	2.52727	0.953762	3.0229				
0.842774	2.65575	0.739539	2.32087	0.347992	5.75511	0.903518	2.8449			0.801883	2.5264	0.956252	3.01951				
0.845765	2.65531	0.742294	2.32093	0.347919	5.86829	0.905664	2.84112			0.804591	2.52555	0.958738	3.01614				
0.848753	2.65487	0.745045	2.32098	0.347864	5.98635	0.907818	2.83739			0.807307	2.52474	0.961222	3.01278				
0.851736	2.65442	0.747793	2.32102	0.347826	6.1096	0.909981	2.83371			0.810031	2.52395	0.963702	3.00944				
0.854716	2.65395	0.750536	2.32104	0.347803	6.23834	0.912152	2.83008			0.812761	2.5232	0.966178	3.00611				
0.857692	2.65348	0.753276	2.32106	0.347796	6.37293	0.914332	2.82651			0.815498	2.52246	0.968651	3.00279				
0.860663	2.653	0.756011	2.32106	0.347805	6.51375	0.91652	2.82299			0.818243	2.52176	0.97112	2.99948				
0.86363	2.65251	0.758743	2.32104	0.347828	6.66121	0.918718	2.81953			0.820995	2.52109	0.973585	2.99619				
0.866592	2.65201	0.761471	2.32102	0.347866	6.81576	0.920925	2.81611			0.823753	2.52043	0.976048	2.99292				
0.869549	2.6515	0.764195	2.32099	0.347917	6.97789	0.923141	2.81275			0.826519	2.51981	0.978506	2.98965				
0.872502	2.65097	0.766915	2.32094	0.347982	7.14814	0.925366	2.80945			0.829291	2.51921	0.98096	2.9864				
0.875449	2.65044	0.769632	2.32089	0.348059	7.32711	0.927601	2.80619			0.83207	2.51864	0.983411	2.98316				
0.878391	2.64989	0.772346	2.32082	0.348148	7.51544	0.929846	2.80299			0.834856	2.51809	0.985859	2.97993				
0.881328	2.64933	0.775056	2.32075	0.348249	7.71386	0.932101	2.79984			0.837648	2.51756	0.988302	2.97671				
0.884259	2.64876	0.777762	2.32066	0.348361	7.92317	0.934366	2.79675			0.840447	2.51706	0.990742	2.9735				
0.887184	2.64817	0.780465	2.32057	0.348483	8.14424	0.936642	2.7937			0.843253	2.51658	0.993178	2.97031				
0.890103	2.64757	0.783165	2.32047	0.348615	8.37807	0.938928	2.79071			0.846065	2.51612	0.99561	2.96712				
0.893015	2.64696	0.785862	2.32035	0.348756	8.62576	0.941225	2.78777			0.848883	2.51568	0.998038	2.96395				
0.895921	2.64633	0.788556	2.32023	0.348905	8.88853	0.943533	2.78489			0.851707	2.51527	1.00046	2.96079				
0.898821	2.64568	0.791246	2.3201	0.349041	9.13089	0.945852	2.78205			0.854538	2.51487						
0.901714	2.64502	0.793934	2.31997	0.349161	9.34813	0.948182	2.77927			0.857375	2.5145						
0.9046	2.64434	0.796619	2.31982	0.349263	9.53568	0.950524	2.77655			0.860217	2.51415						
0.907479	2.64365	0.799301	2.31967	0.349345	9.68936	0.952878	2.77387			0.863066	2.51382						
0.91035	2.64294	0.80198	2.31952	0.349407	9.80553	0.955243	2.77125			0.865921	2.5135						
0.913214	2.64222	0.804656	2.31935	0.349464	9.91488	0.957621	2.76868			0.868781	2.51321						
0.91607	2.64147	0.80733	2.31918	0.349504	9.99239	0.96001	2.76617			0.871647	2.51293						
0.918918	2.64071	0.810001	2.319	0.349567	10.1159	0.962413	2.7637			0.874519	2.51267						
0.921758	2.63993	0.81267	2.31882	0.349654	10.2889	0.964827	2.76129			0.877396	2.51243						
0.924589	2.63913	0.815337	2.31863	0.349765	10.5162	0.967255	2.75894			0.880278	2.51221						
0.927413	2.63832	0.818001	2.31844	0.349902	10.8047	0.969695	2.75663			0.883166	2.512						
0.930228	2.63748	0.820663	2.31824	0.350064	11.1637	0.972149	2.75438			0.886059	2.51181						
0.933034	2.63663	0.823323	2.31804	0.350253	11.6059	0.974615	2.75218			0.888957	2.51164						
0.935831	2.63576	0.82598	2.31783	0.350443	12.0841	0.977095	2.75003			0.891861	2.51148						
0.93862	2.63486	0.828636	2.31761	0.350635	12.6029	0.979588	2.74793			0.894769	2.51133						
0.941399	2.63395	0.83129	2.3174	0.350827	13.1675	0.982095	2.74588			0.897682	2.5112						
0.94417	2.63302	0.833942	2.31718	0.351018	13.7844	0.984615	2.74389			0.9006	2.51109						
0.946931	2.63207	0.836592	2.31695	0.351207	14.4611	0.987149	2.74194			0.903523	2.51099						
0.949684	2.63111	0.83924	2.31673	0.351395	15.2068	0.989696	2.74005			0.906451	2.5109						
0.952427	2.63012	0.841887	2.3165	0.351579	16.0324	0.992257	2.73821			0.909383	2.51082						
0.955161	2.62911	0.844532	2.31626	0.351759	16.9517	0.994832	2.73641			0.912319	2.51076						
0.957886	2.62809	0.847176	2.31603	0.351935	17.9813	0.99742	2.73466			0.91526	2.51071						
0.960602	2.62704	0.849818	2.31579	0.352105	19.1427	1.00002	2.73297			0.918205	2.51067						
0.963309	2.62598	0.852458	2.31555	0.352269	20.4627					0.921155	2.51065						
0.966006	2.6249	0.855098	2.31531	0.352426	21.9762					0.924109	2.51063						
0.968695	2.62381	0.857736	2.31506	0.352575	23.7294					0.927066	2.51063						
0.971376	2.6227	0.860373	2.31482	0.352716	25.7839					0.930028	2.51064						
0.974047	2.62157	0.863009	2.31457	0.352847	28.2252					0.932994	2.51066						
0.976711	2.62042	0.865644	2.31432	0.352969	31.1738					0.935963	2.51069						
0.979365	2.61927	0.868277	2.31407	0.353081	34.8064					0.938936	2.51072						
0.982012	2.61809	0.87091	2.31382	0.353182	39.3929					0.941913	2.51077						
0.984651	2.61691	0.873542	2.31357	0.353271	45.3662					0.944894	2.51083						
0.987282	2.61571	0.876173	2.31332	0.353349	53.4681					0.947878	2.5109						
0.989906	2.61449	0.878803	2.31307	0.353415	65.0846					0.950866	2.51097						
0.992523	2.61327	0.881433	2.31281	0.353468	83.1383					0.953857	2.51106						
0.995132	2.61204	0.884062	2.31256	0.353509	115.035					0.956851	2.51115						
0.997735	2.61079	0.88669	2.31231	0.353536	186.607					0.959849	2.51125						
1.00033	2.60954	0.889318	2.31205	0.353551	493.76					0.96285	2.51136						
		0.891945	2.3118							0.965854	2.51147						
		0.894571	2.31155							0.968861	2.5116						
		0.897198	2.3113							0.971872	2.51173						
		0.899823	2.31104							0.974885	2.51186						
		0.902449	2.31079							0.977901	2.51201						
		0.905074	2.31054							0.98092	2.51216						
		0.907699	2.31029							0.983941	2.51231						
		0.910323	2.31004							0.986966	2.51247						
		0.912948	2.30979							0.989993	2.51264						
		0.915572	2.30955							0.993023	2.51281						
		0.918196	2.3093							0.996055	2.51299						
		0.92082	2.30906							0.99909	2.51318						
		0.923444	2.30881							1.00213	2.51337						
		0.926068	2.30857														
		0.928692	2.30833														
		0.931317	2.30809														
		0.933941	2.30786														
		0.936565	2.30762														
		0.939189	2.30739														
		0.941814	2.30716														
		0.944439	2.30693														
		0.947064	2.3067														
		0.949689	2.30647														
		0.952315	2.30625														
		0.95494	2.30602														
		0.957567	2.3058														
		0.960193	2.30559														
		0.96282	2.30537														
		0.965447	2.30515														
		0.968075	2.30494														
		0.970703	2.30473														
		0.973331	2.30453														
		0.97596	2.30432														
		0.978589	2.30412														
		0.981219	2.30392														
		0.983849	2.30372														
		0.98648	2.30352														
		0.989112	2.30333														
		0.991743	2.30313														
		0.994376	2.30294														
		0.997009	2.30276														
		0.999643	2.30257														
		1.00228	2.30239														
