Sym0		Asym0		Sym1		Sym2		Sym3		Asym1		Asym2		Asym3		Asym4	
343  Points		382  Points		343  Points		319  Points		240  Points		346  Points		304  Points		239  Points		131  Points	
Freq (MHz)	Vph (m/ms)	Freq (MHz)	Vph (m/ms)	Freq (MHz)	Vph (m/ms)	Freq (MHz)	Vph (m/ms)	Freq (MHz)	Vph (m/ms)	Freq (MHz)	Vph (m/ms)	Freq (MHz)	Vph (m/ms)	Freq (MHz)	Vph (m/ms)	Freq (MHz)	Vph (m/ms)
0.353547	641.525	0.000230733	0.0938853	1.00057	2.52029	0.410793	389.452	0.707109	785.207	0.176777	6419.97	0.53033	2602.54	0.821517	2757.13	0.883886	1378.88
0.353494	204.377	0.000504274	0.138685	0.998128	2.52163	0.410915	183.994	0.70712	340.117	0.176831	146.62	0.530334	383.665	0.821524	556.41	0.883902	485.786
0.353386	121.517	0.000882355	0.183266	0.99569	2.52298	0.411122	120.499	0.707139	217.076	0.176987	74.2221	0.530343	207.101	0.821541	309.433	0.883933	294.837
0.353224	86.4339	0.00136352	0.227514	0.993255	2.52435	0.411415	89.6264	0.707167	159.413	0.177245	49.7451	0.530358	141.833	0.821567	214.313	0.88398	211.653
0.353011	67.0466	0.00194624	0.271379	0.990824	2.52574	0.411791	71.3818	0.707203	125.958	0.177604	37.4568	0.530378	107.848	0.821602	163.927	0.884042	165.085
0.352747	54.7433	0.00262865	0.314802	0.988396	2.52714	0.412247	59.3387	0.707247	104.113	0.178064	30.0778	0.530404	87.0039	0.821647	132.727	0.88412	135.319
0.352436	46.2383	0.0034086	0.357721	0.985972	2.52856	0.412782	50.7985	0.7073	88.7274	0.178621	25.1628	0.530436	72.9137	0.821701	111.507	0.884213	114.653
0.352081	40.0061	0.0042835	0.400059	0.983551	2.53	0.413391	44.4297	0.707362	77.3063	0.179275	21.6591	0.530473	62.753	0.821764	96.1405	0.884321	99.467
0.351685	35.2418	0.00525094	0.441786	0.981132	2.53145	0.414073	39.4999	0.707432	68.4923	0.180022	19.0386	0.530516	55.0793	0.821837	84.4986	0.884445	87.8375
0.35125	31.4805	0.00630815	0.482857	0.978717	2.53292	0.414823	35.5723	0.70751	61.4844	0.180862	17.0076	0.530565	49.0792	0.821919	75.3739	0.884584	78.6464
0.350781	28.435	0.00745203	0.523217	0.976305	2.53441	0.415639	32.3708	0.707597	55.7793	0.18179	15.3895	0.530619	44.2592	0.822011	68.0299	0.884739	71.1999
0.35028	25.9184	0.00867984	0.56285	0.973896	2.53591	0.416517	29.7121	0.707692	51.0447	0.182805	14.0715	0.530679	40.3025	0.822111	61.9919	0.884909	65.0447
0.349751	23.8035	0.0099883	0.601715	0.971489	2.53743	0.417453	27.4696	0.707797	47.0526	0.183904	12.9787	0.530745	36.9962	0.822221	56.9401	0.885095	59.8719
0.349197	22.0012	0.0113745	0.639801	0.969085	2.53897	0.418445	25.5532	0.707909	43.641	0.185082	12.0589	0.530817	34.1924	0.822339	52.6513	0.885297	55.4639
0.348622	20.4467	0.0128352	0.677077	0.966683	2.54052	0.419489	23.8971	0.70803	40.6921	0.186339	11.275	0.530894	31.7845	0.822467	48.9648	0.885514	51.663
0.348029	19.0923	0.0143673	0.713539	0.964284	2.54209	0.420583	22.4521	0.70816	38.1178	0.187669	10.5997	0.530978	29.6944	0.822603	45.7621	0.885746	48.352
0.347419	17.9015	0.0159678	0.749176	0.961887	2.54367	0.421723	21.1804	0.708299	35.851	0.189071	10.0124	0.531068	27.863	0.822749	42.9541	0.885994	45.4421
0.346798	16.8465	0.0176337	0.783987	0.959491	2.54527	0.422907	20.053	0.708446	33.8399	0.190348	9.56007	0.531164	26.2453	0.822903	40.472	0.886258	42.8647
0.346166	15.9052	0.0193619	0.817963	0.957098	2.54688	0.424132	19.0467	0.708602	32.0435	0.191476	9.21168	0.531266	24.8058	0.823065	38.2622	0.886537	40.566
0.345526	15.0603	0.0211496	0.851113	0.954706	2.54851	0.425395	18.1432	0.708767	30.4293	0.192435	8.94624	0.531374	23.5168	0.823236	36.2824	0.886832	38.5031
0.344882	14.2978	0.022994	0.883441	0.952316	2.55015	0.426695	17.3277	0.70894	28.9709	0.193209	8.74941	0.531489	22.3559	0.823416	34.4985	0.887143	36.6418
0.344234	13.6062	0.0248926	0.914956	0.949928	2.55181	0.42803	16.588	0.709123	27.6469	0.193788	8.61148	0.53161	21.3049	0.823604	32.8827	0.88747	34.9539
0.343586	12.9761	0.0268425	0.945664	0.94754	2.55348	0.429397	15.9142	0.709314	26.4395	0.194162	8.52605	0.531738	20.3489	0.823801	31.4125	0.887812	33.4163
0.342939	12.3998	0.0288414	0.975579	0.945154	2.55516	0.430795	15.2978	0.709514	25.3341	0.194705	8.40695	0.531873	19.4757	0.824005	30.0691	0.88817	32.0099
0.342294	11.8706	0.0308868	1.00471	0.942768	2.55686	0.432221	14.7319	0.709722	24.3182	0.195303	8.28223	0.532014	18.675	0.824218	28.8367	0.888545	30.7186
0.341654	11.3832	0.0329764	1.03308	0.940383	2.55857	0.433675	14.2107	0.70994	23.3815	0.196127	8.12007	0.532162	17.9381	0.824438	27.7022	0.888935	29.529
0.341019	10.9328	0.0351081	1.0607	0.937998	2.56029	0.435154	13.729	0.710167	22.5151	0.197187	7.9264	0.532317	17.2578	0.824666	26.6544	0.88934	28.4295
0.340393	10.5154	0.0372798	1.08759	0.935614	2.56202	0.436659	13.2825	0.710403	21.7114	0.198497	7.70778	0.532479	16.6277	0.824903	25.6837	0.889762	27.4103
0.339775	10.1276	0.0394896	1.11377	0.933229	2.56377	0.438186	12.8677	0.710648	20.9638	0.200068	7.47088	0.532648	16.0426	0.825146	24.7819	0.8902	26.4631
0.339167	9.7664	0.0417354	1.13924	0.930844	2.56552	0.439735	12.4813	0.710902	20.2667	0.201917	7.22209	0.532825	15.4978	0.825398	23.9421	0.890654	25.5804
0.33857	9.42923	0.0440157	1.16404	0.928458	2.56728	0.441305	12.1204	0.711165	19.6152	0.203812	6.995	0.533009	14.9894	0.825657	23.1579	0.891124	24.7559
0.337986	9.11383	0.0463285	1.18817	0.926072	2.56906	0.442895	11.7827	0.711438	19.0049	0.20575	6.78702	0.5332	14.5137	0.825923	22.4242	0.89161	23.9842
0.337415	8.8182	0.0486724	1.21166	0.923684	2.57084	0.444503	11.466	0.71172	18.4322	0.20773	6.5959	0.533399	14.0679	0.826196	21.7361	0.892111	23.2603
0.336859	8.54061	0.0510459	1.23453	0.921295	2.57263	0.44613	11.1684	0.712011	17.8936	0.209749	6.41977	0.533606	13.6491	0.826476	21.0896	0.89263	22.58
0.336317	8.2795	0.0534475	1.25679	0.918904	2.57442	0.447773	10.8883	0.712311	17.3862	0.211804	6.25699	0.533821	13.255	0.826763	20.481	0.893164	21.9394
0.335792	8.0335	0.0558758	1.27846	0.916511	2.57622	0.449433	10.6242	0.712621	16.9074	0.213895	6.10616	0.534044	12.8835	0.827057	19.9071	0.893714	21.3353
0.335284	7.80139	0.0583295	1.29956	0.914116	2.57803	0.451107	10.3748	0.712941	16.4549	0.216018	5.96605	0.534275	12.5328	0.827358	19.365	0.89428	20.7647
0.334794	7.58207	0.0608076	1.32011	0.911717	2.57984	0.452797	10.1388	0.71327	16.0266	0.218172	5.83561	0.534515	12.2011	0.827666	18.8522	0.894863	20.2247
0.334322	7.37456	0.0633087	1.34012	0.909316	2.58166	0.454501	9.91532	0.713608	15.6205	0.220355	5.71389	0.534763	11.887	0.827979	18.3663	0.895461	19.7132
0.333869	7.17797	0.0658318	1.35961	0.906911	2.58347	0.456218	9.70331	0.713957	15.2351	0.222567	5.60009	0.535019	11.5891	0.8283	17.9054	0.896076	19.2279
0.333436	6.99152	0.068376	1.3786	0.904503	2.58529	0.457725	9.52725	0.714315	14.8689	0.224804	5.49348	0.535285	11.3062	0.828626	17.4674	0.896707	18.7668
0.333024	6.81448	0.0709401	1.3971	0.90209	2.58711	0.459016	9.38315	0.714683	14.5203	0.227065	5.39342	0.535559	11.0373	0.828959	17.0508	0.897354	18.3283
0.332632	6.64619	0.0735233	1.41513	0.899672	2.58893	0.460089	9.26794	0.715061	14.1883	0.22935	5.29934	0.535842	10.7813	0.829298	16.6541	0.898018	17.9107
0.332262	6.48607	0.0761249	1.43271	0.89725	2.59074	0.460941	9.17925	0.715448	13.8716	0.231656	5.21074	0.536135	10.5373	0.829643	16.2758	0.898697	17.5127
0.331914	6.33357	0.0787437	1.44984	0.894822	2.59255	0.461569	9.11535	0.715846	13.5692	0.233983	5.12716	0.536437	10.3046	0.829993	15.9148	0.899393	17.1328
0.331589	6.1882	0.0813792	1.46654	0.892389	2.59436	0.461971	9.07502	0.716254	13.2803	0.236329	5.04821	0.536749	10.0823	0.83035	15.5697	0.900104	16.7698
0.331287	6.04951	0.0840306	1.48283	0.889949	2.59616	0.462551	9.01781	0.716672	13.0039	0.238693	4.9735	0.53707	9.86984	0.830712	15.2398	0.900832	16.4228
0.331008	5.91708	0.0866972	1.49872	0.887502	2.59796	0.463182	8.95662	0.7171	12.7393	0.241074	4.90272	0.537358	9.69221	0.831079	14.9239	0.901576	16.0906
0.330753	5.79054	0.0893784	1.51422	0.885049	2.59974	0.464043	8.87503	0.717539	12.4856	0.243471	4.83558	0.53761	9.54601	0.831452	14.6211	0.902336	15.7725
0.330523	5.66953	0.0920734	1.52934	0.882588	2.60152	0.465135	8.77443	0.717988	12.2424	0.245883	4.77179	0.537822	9.42858	0.831831	14.3308	0.903112	15.4674
0.330317	5.55373	0.0947818	1.5441	0.880119	2.60329	0.466461	8.65648	0.718447	12.0089	0.248309	4.71112	0.537993	9.33787	0.832215	14.0521	0.903903	15.1747
0.330137	5.44285	0.0975029	1.55851	0.877642	2.60504	0.468023	8.52303	0.718917	11.7846	0.250748	4.65335	0.53812	9.27233	0.832604	13.7844	0.904711	14.8936
0.329982	5.33661	0.100236	1.57258	0.875156	2.60678	0.469825	8.37607	0.719398	11.569	0.253199	4.59827	0.538202	9.2309	0.832998	13.527	0.905535	14.6234
0.329853	5.23475	0.102981	1.58631	0.872661	2.60851	0.471635	8.23531	0.719889	11.3616	0.255662	4.54571	0.538321	9.17202	0.833397	13.2793	0.906374	14.3636
0.329751	5.13705	0.105738	1.59973	0.870156	2.61021	0.473453	8.10037	0.720391	11.1619	0.258136	4.49549	0.538451	9.10892	0.833801	13.0409	0.90723	14.1136
0.329675	5.04327	0.108505	1.61284	0.867642	2.61191	0.475279	7.9709	0.720904	10.9695	0.260619	4.44747	0.538631	9.02457	0.83421	12.8111	0.908101	13.8728
0.329625	4.95322	0.111282	1.62565	0.865117	2.61358	0.477114	7.84658	0.721428	10.7841	0.263112	4.40149	0.538862	8.92024	0.834624	12.5896	0.908988	13.6408
0.329604	4.8667	0.11407	1.63816	0.862582	2.61523	0.478955	7.72709	0.721962	10.6053	0.265614	4.35743	0.539146	8.79745	0.835043	12.3759	0.90989	13.417
0.329607	4.79406	0.116867	1.6504	0.860036	2.61686	0.480803	7.61218	0.722508	10.4327	0.268123	4.31517	0.539487	8.65793	0.835467	12.1697	0.910808	13.2011
0.329626	4.73406	0.119673	1.66236	0.857479	2.61847	0.482658	7.50158	0.723066	10.266	0.27064	4.2746	0.539889	8.50356	0.835895	11.9704	0.911741	12.9927
0.329654	4.68574	0.122488	1.67406	0.854911	2.62006	0.484519	7.39505	0.723634	10.105	0.273164	4.23562	0.540303	8.35498	0.836328	11.7778	0.91269	12.7914
0.329684	4.64834	0.125311	1.6855	0.852331	2.62162	0.486386	7.29237	0.724139	9.96912	0.275694	4.19813	0.540727	8.21189	0.836765	11.5916	0.913654	12.5969
0.32971	4.62128	0.128143	1.69669	0.849739	2.62316	0.488258	7.19334	0.724576	9.85634	0.27823	4.16205	0.541163	8.07401	0.837207	11.4114	0.914634	12.4088
0.329728	4.60416	0.130982	1.70764	0.847135	2.62467	0.490135	7.09776	0.724942	9.76516	0.280771	4.1273	0.541612	7.94107	0.837654	11.237	0.915628	12.2268
0.329757	4.5798	0.133829	1.71835	0.844519	2.62615	0.492018	7.00547	0.725235	9.69435	0.283316	4.0938	0.542072	7.81281	0.838105	11.0681	0.916638	12.0506
0.329793	4.55367	0.136684	1.72884	0.84189	2.62761	0.493905	6.91628	0.725451	9.64299	0.285866	4.06148	0.542544	7.68901	0.83856	10.9044	0.917662	11.88
0.329847	4.5187	0.139545	1.73911	0.83925	2.62903	0.495796	6.83005	0.725591	9.61044	0.28842	4.03029	0.543028	7.56946	0.83902	10.7457	0.918702	11.7147
0.329924	4.47538	0.142413	1.74916	0.836597	2.63043	0.497692	6.74663	0.725793	9.56406	0.290977	4.00014	0.543525	7.45393	0.839484	10.5918	0.919756	11.5545
0.330033	4.42432	0.145288	1.75901	0.833931	2.63181	0.499591	6.66588	0.726014	9.5142	0.293537	3.971	0.544035	7.34226	0.839953	10.4424	0.920825	11.3992
0.330181	4.36619	0.148168	1.76865	0.831253	2.63315	0.501493	6.58768	0.726316	9.4473	0.2961	3.94281	0.544558	7.23425	0.840426	10.2974	0.921908	11.2485
0.330379	4.30176	0.151055	1.7781	0.828563	2.63446	0.503399	6.5119	0.726703	9.36415	0.298665	3.91552	0.545093	7.12974	0.840841	10.1745	0.923006	11.1023
0.330606	4.23966	0.153948	1.78735	0.82586	2.63574	0.505308	6.43844	0.727177	9.26573	0.301232	3.88908	0.545642	7.02858	0.841198	10.0721	0.924118	10.9603
0.330863	4.17979	0.156846	1.79642	0.823145	2.637	0.50722	6.36718	0.727741	9.15314	0.3038	3.86345	0.546205	6.93061	0.841495	9.98906	0.925245	10.8224
0.33115	4.12205	0.15975	1.80531	0.820418	2.63822	0.509133	6.29804	0.728399	9.0276	0.306369	3.8386	0.546781	6.8357	0.841731	9.92443	0.926385	10.6884
0.331468	4.06635	0.162659	1.81403	0.817679	2.63942	0.51105	6.2309	0.729069	8.90583	0.308939	3.81447	0.547371	6.74372	0.841905	9.87746	0.92754	10.5581
0.331816	4.01261	0.165574	1.82258	0.814929	2.64058	0.512968	6.1657	0.729752	8.78766	0.311509	3.79105	0.547975	6.65454	0.842017	9.84765	0.928708	10.4315
0.332196	3.96076	0.168493	1.83096	0.812167	2.64172	0.514888	6.10233	0.730447	8.67295	0.31408	3.76828	0.548593	6.56804	0.842178	9.80513	0.929738	10.324
0.332607	3.9107	0.171416	1.83917	0.809393	2.64283	0.516809	6.04073	0.731154	8.56154	0.31665	3.74615	0.549225	6.48413	0.842353	9.75935	0.930624	10.2343
0.333049	3.86238	0.174345	1.84724	0.806609	2.64391	0.518731	5.98082	0.731874	8.45332	0.31922	3.72463	0.549872	6.40268	0.842593	9.69781	0.931362	10.1615
0.333523	3.81573	0.177278	1.85514	0.803813	2.64497	0.520655	5.92252	0.732606	8.34814	0.321789	3.70367	0.550534	6.32361	0.842897	9.62115	0.931949	10.1048
0.334029	3.77068	0.180215	1.86291	0.801007	2.646	0.52258	5.86578	0.733351	8.24589	0.324357	3.68327	0.551211	6.24683	0.843268	9.53014	0.932383	10.0636
0.334568	3.72718	0.183156	1.87052	0.798191	2.647	0.524505	5.81052	0.734109	8.14646	0.326924	3.66339	0.551903	6.17223	0.843705	9.42568	0.932661	10.0374
0.335139	3.68516	0.186101	1.878	0.795365	2.64797	0.52643	5.7567	0.734879	8.04973	0.329489	3.64401	0.55261	6.09975	0.844211	9.30878	0.933063	10.0001
0.335743	3.64457	0.18905	1.88533	0.792529	2.64892	0.528356	5.70424	0.735662	7.95561	0.332052	3.62511	0.553333	6.02929	0.844721	9.19492	0.933501	9.95984
0.336381	3.60537	0.192003	1.89254	0.789683	2.64985	0.530282	5.6531	0.736459	7.864	0.334613	3.60666	0.554072	5.9608	0.845236	9.08398	0.9341	9.90572
0.337052	3.56751	0.194959	1.89961	0.786828	2.65075	0.532207	5.60323	0.737268	7.7748	0.337172	3.58866	0.554826	5.89418	0.845755	8.97587	0.934861	9.83827
0.337758	3.53093	0.197919	1.90656	0.783964	2.65163	0.534132	5.55458	0.738091	7.68793	0.339728	3.57107	0.555596	5.82938	0.846278	8.87048	0.935789	9.75813
0.338498	3.4956	0.200882	1.91338	0.781092	2.65249	0.536057	5.5071	0.738927	7.6033	0.342281	3.55388	0.556383	5.76634	0.846805	8.7677	0.936886	9.66605
0.339273	3.46147	0.203849	1.92008	0.778211	2.65333	0.537981	5.46075	0.739776	7.52084	0.344831	3.53707	0.557186	5.70498	0.847337	8.66745	0.938157	9.56289
0.340083	3.42851	0.206818	1.92667	0.775323	2.65414	0.539903	5.41549	0.740638	7.44047	0.347378	3.52064	0.558006	5.64525	0.847873	8.56962	0.939441	9.46231
0.340929	3.39668	0.209791	1.93314	0.772426	2.65494	0.541825	5.37127	0.741515	7.36211	0.349921	3.50455	0.558843	5.5871	0.848414	8.47415	0.940738	9.36421
0.341811	3.36595	0.212767	1.9395	0.769522	2.65572	0.543745	5.32805	0.742404	7.28569	0.35246	3.48881	0.559696	5.53047	0.848959	8.38094	0.942047	9.26851
0.342729	3.33628	0.215745	1.94574	0.766611	2.65647	0.545664	5.28582	0.743308	7.21116	0.354996	3.47339	0.560567	5.47531	0.849508	8.28991	0.943368	9.17513
0.343685	3.30764	0.218727	1.95188	0.763693	2.65721	0.547581	5.24451	0.744225	7.13844	0.357527	3.45828	0.561454	5.42158	0.850062	8.201	0.944701	9.08398
0.344679	3.28	0.22171	1.95792	0.760768	2.65793	0.549496	5.20412	0.745156	7.06748	0.360054	3.44347	0.56236	5.36922	0.85062	8.11413	0.946047	8.99498
0.345712	3.25334	0.224313	1.9631	0.757836	2.65864	0.55141	5.16459	0.746101	6.99822	0.362576	3.42894	0.563283	5.31819	0.851183	8.02924	0.947405	8.90807
0.346783	3.22763	0.226533	1.96745	0.754899	2.65933	0.553321	5.12591	0.747061	6.93061	0.365094	3.41469	0.564223	5.26845	0.85175	7.94625	0.948774	8.82318
0.347894	3.20283	0.22837	1.97101	0.751955	2.66	0.555229	5.08805	0.748034	6.86458	0.367607	3.40071	0.565182	5.21996	0.852322	7.86511	0.950155	8.74023
0.349045	3.17894	0.229823	1.9738	0.749006	2.66066	0.557136	5.05097	0.749021	6.8001	0.370114	3.38698	0.566159	5.17268	0.852898	7.78576	0.951547	8.65917
0.350237	3.15593	0.230891	1.97584	0.746051	2.66131	0.55904	5.01465	0.750023	6.73711	0.372617	3.3735	0.567154	5.12657	0.853479	7.70813	0.952951	8.57992
0.351471	3.13377	0.231575	1.97713	0.743091	2.66194	0.560941	4.97907	0.751038	6.67557	0.375114	3.36025	0.568167	5.08159	0.854065	7.63219	0.954366	8.50245
0.352748	3.11245	0.232559	1.97899	0.740126	2.66256	0.562839	4.94419	0.752069	6.61543	0.377605	3.34723	0.569199	5.03772	0.854655	7.55787	0.955792	8.42668
0.354068	3.09194	0.233628	1.981	0.737156	2.66316	0.564734	4.91001	0.753113	6.55665	0.38009	3.33443	0.570249	4.99492	0.85525	7.48512	0.957229	8.35256
0.355432	3.07223	0.235083	1.9837	0.734182	2.66376	0.566626	4.87649	0.754172	6.49918	0.38257	3.32184	0.571319	4.95316	0.85585	7.4139	0.958677	8.28004
0.35684	3.0533	0.236924	1.9871	0.731203	2.66434	0.568514	4.84362	0.755246	6.443	0.385043	3.30945	0.572407	4.9124	0.856454	7.34416	0.960135	8.20908
0.358294	3.03514	0.239151	1.99116	0.728219	2.66492	0.5704	4.81137	0.756334	6.38806	0.387511	3.29726	0.573514	4.87262	0.857064	7.27586	0.961604	8.13962
0.359795	3.01772	0.241765	1.99586	0.725232	2.66548	0.572281	4.77973	0.757437	6.33432	0.389972	3.28525	0.57464	4.83379	0.857678	7.20895	0.963083	8.07163
0.361342	3.00104	0.244767	2.00117	0.722241	2.66603	0.57416	4.74868	0.758554	6.28176	0.392426	3.27343	0.575786	4.79588	0.858297	7.14339	0.964572	8.00504
0.362937	2.98507	0.247771	2.00639	0.719246	2.66658	0.576034	4.71819	0.759687	6.23033	0.394874	3.26179	0.576951	4.75887	0.858921	7.07915	0.966072	7.93983
0.36458	2.96979	0.250776	2.01153	0.716247	2.66711	0.577905	4.68826	0.760833	6.18	0.397315	3.25031	0.578136	4.72274	0.85955	7.01619	0.967581	7.87595
0.366272	2.9552	0.253784	2.01659	0.713245	2.66764	0.579771	4.65886	0.761995	6.13075	0.399749	3.239	0.57934	4.68744	0.860184	6.95446	0.9691	7.81336
0.368013	2.94128	0.256793	2.02157	0.710239	2.66816	0.581634	4.62998	0.763172	6.08254	0.402177	3.22784	0.580563	4.65298	0.860823	6.89394	0.970629	7.75203
0.369803	2.92801	0.259804	2.02648	0.707231	2.66867	0.583493	4.60161	0.764363	6.03535	0.404597	3.21684	0.581807	4.61931	0.861467	6.8346	0.972167	7.69192
0.371643	2.91538	0.262816	2.0313	0.704219	2.66918	0.585347	4.57372	0.765569	5.98914	0.40701	3.20599	0.58307	4.58643	0.862117	6.77639	0.973715	7.63299
0.373533	2.90336	0.265831	2.03605	0.701205	2.66968	0.587197	4.54631	0.76679	5.94389	0.409416	3.19528	0.584353	4.5543	0.862771	6.71929	0.975272	7.57521
0.375472	2.89194	0.268846	2.04073	0.698188	2.67017	0.589043	4.51937	0.768026	5.89958	0.411815	3.18471	0.585656	4.52292	0.863431	6.66327	0.976838	7.51855
0.37746	2.8811	0.271863	2.04533	0.695168	2.67066	0.590885	4.49287	0.769277	5.85617	0.414206	3.17427	0.58698	4.49225	0.864096	6.6083	0.978413	7.46298
0.379497	2.87083	0.274882	2.04987	0.692145	2.67114	0.592722	4.46681	0.770543	5.81365	0.41659	3.16396	0.588323	4.46228	0.864766	6.55435	0.979996	7.40846
0.381583	2.8611	0.277902	2.05433	0.689121	2.67162	0.594554	4.44118	0.771824	5.77199	0.418967	3.15378	0.589686	4.433	0.865442	6.5014	0.981589	7.35497
0.383715	2.85189	0.280923	2.05873	0.686094	2.67209	0.596382	4.41596	0.773119	5.73117	0.421336	3.14373	0.59107	4.40438	0.866123	6.44942	0.98319	7.30248
0.385895	2.84318	0.283945	2.06306	0.683064	2.67256	0.598206	4.39114	0.77443	5.69116	0.423697	3.13379	0.592473	4.3764	0.866809	6.39838	0.984799	7.25096
0.388119	2.83496	0.286969	2.06733	0.680033	2.67303	0.600024	4.36672	0.775755	5.65195	0.426051	3.12397	0.593897	4.34906	0.867501	6.34826	0.986416	7.20039
0.390388	2.82719	0.289994	2.07153	0.677	2.67349	0.601838	4.34267	0.777095	5.61352	0.428397	3.11426	0.595341	4.32233	0.868198	6.29904	0.988042	7.15074
0.3927	2.81987	0.293019	2.07567	0.673965	2.67395	0.603648	4.319	0.77845	5.57584	0.430736	3.10466	0.596805	4.2962	0.868901	6.2507	0.989675	7.10199
0.395053	2.81296	0.296046	2.07975	0.670928	2.67441	0.605452	4.29569	0.77982	5.53889	0.433067	3.09517	0.598289	4.27065	0.86961	6.2032	0.991317	7.05411
0.397446	2.80645	0.299074	2.08377	0.66789	2.67486	0.607252	4.27274	0.781204	5.50266	0.43539	3.08578	0.599793	4.24567	0.870324	6.15654	0.992966	7.00708
0.399877	2.80031	0.302103	2.08773	0.66485	2.67531	0.609048	4.25012	0.782603	5.46714	0.437705	3.0765	0.601317	4.22125	0.871044	6.11069	0.994622	6.96089
0.402345	2.79453	0.305132	2.09163	0.661808	2.67576	0.610838	4.22785	0.784017	5.43229	0.440013	3.06731	0.602862	4.19737	0.87177	6.06564	0.996286	6.91549
0.404847	2.78908	0.308162	2.09547	0.658765	2.67621	0.612624	4.2059	0.785446	5.39811	0.442314	3.05822	0.604426	4.17401	0.872502	6.02135	0.997958	6.87089
0.407383	2.78395	0.311194	2.09926	0.655721	2.67666	0.614405	4.18427	0.786889	5.36457	0.444607	3.04923	0.60601	4.15117	0.873239	5.97782	0.999636	6.82705
0.409951	2.77911	0.314225	2.103	0.652675	2.67711	0.616181	4.16296	0.788346	5.33167	0.446892	3.04033	0.607615	4.12882	0.873982	5.93503	1.00132	6.78396
0.412548	2.77455	0.317258	2.10668	0.649629	2.67755	0.617953	4.14195	0.789818	5.29939	0.44917	3.03152	0.609239	4.10697	0.874731	5.89295		
0.415174	2.77025	0.320291	2.1103	0.646581	2.678	0.61972	4.12124	0.791304	5.26771	0.45144	3.0228	0.610882	4.08559	0.875486	5.85158		
0.417826	2.7662	0.323325	2.11388	0.643532	2.67845	0.621482	4.10082	0.792804	5.23661	0.453703	3.01417	0.612546	4.06468	0.876247	5.8109		
0.420504	2.76237	0.326359	2.1174	0.640482	2.67889	0.62324	4.08068	0.794319	5.20609	0.455959	3.00563	0.614228	4.04422	0.877015	5.77088		
0.423205	2.75876	0.329394	2.12087	0.637432	2.67934	0.624993	4.06083	0.795848	5.17613	0.458208	2.99716	0.615931	4.0242	0.877788	5.73152		
0.425929	2.75535	0.332429	2.12429	0.63438	2.67979	0.626741	4.04124	0.79739	5.14671	0.460449	2.98879	0.617652	4.00461	0.878567	5.69281		
0.428673	2.75212	0.335464	2.12767	0.631328	2.68024	0.628485	4.02193	0.798947	5.11783	0.462684	2.98049	0.619393	3.98544	0.879353	5.65472		
0.431437	2.74907	0.3385	2.131	0.628276	2.68069	0.630225	4.00287	0.800517	5.08947	0.464912	2.97228	0.621152	3.96669	0.880145	5.61724		
0.43422	2.74618	0.341536	2.13428	0.625222	2.68115	0.63196	3.98407	0.802101	5.06161	0.467133	2.96415	0.622931	3.94833	0.880943	5.58036		
0.43702	2.74344	0.344573	2.13751	0.622169	2.6816	0.633691	3.96552	0.803699	5.03426	0.469347	2.95609	0.624728	3.93036	0.881748	5.54407		
0.439837	2.74084	0.347609	2.14069	0.619114	2.68206	0.635418	3.94722	0.80531	5.00738	0.471555	2.94811	0.626543	3.91277	0.882559	5.50835		
0.442668	2.73838	0.350646	2.14384	0.61606	2.68253	0.637141	3.92915	0.806935	4.98098	0.473757	2.94021	0.628377	3.89555	0.883376	5.4732		
0.445514	2.73604	0.353683	2.14693	0.613005	2.68299	0.638859	3.91133	0.808572	4.95505	0.475952	2.93239	0.630229	3.8787	0.8842	5.43859		
0.448374	2.73381	0.35672	2.14999	0.60995	2.68346	0.640574	3.89373	0.810223	4.92956	0.478142	2.92465	0.632099	3.86219	0.885031	5.40452		
0.451246	2.73169	0.359757	2.153	0.606895	2.68394	0.642285	3.87636	0.811886	4.90451	0.480325	2.91697	0.633987	3.84603	0.885868	5.37098		
0.45413	2.72968	0.362794	2.15597	0.603839	2.68441	0.643992	3.85921	0.813563	4.8799	0.482503	2.90938	0.635893	3.83021	0.886711	5.33795		
0.457025	2.72775	0.36583	2.15889	0.600784	2.6849	0.645695	3.84228	0.815252	4.85571	0.484675	2.90185	0.637815	3.81471	0.887562	5.30543		
0.45993	2.72592	0.368867	2.16178	0.597729	2.68539	0.647394	3.82557	0.816953	4.83193	0.486842	2.89441	0.639755	3.79953	0.888419	5.27341		
0.462845	2.72417	0.371904	2.16463	0.594674	2.68588	0.64909	3.80906	0.818667	4.80855	0.489004	2.88703	0.641712	3.78466	0.889282	5.24186		
0.46577	2.7225	0.37494	2.16743	0.591619	2.68638	0.650783	3.79276	0.820394	4.78556	0.491161	2.87973	0.643685	3.7701	0.890153	5.2108		
0.468702	2.7209	0.377976	2.1702	0.588564	2.68689	0.652472	3.77667	0.822132	4.76295	0.493313	2.8725	0.645675	3.75583	0.891031	5.1802		
0.471643	2.71937	0.381011	2.17292	0.58551	2.68741	0.654158	3.76078	0.823882	4.74073	0.49546	2.86534	0.647681	3.74185	0.891915	5.15005		
0.474592	2.7179	0.384047	2.17561	0.582456	2.68793	0.655841	3.74508	0.825644	4.71886	0.497603	2.85825	0.649703	3.72814	0.892807	5.12036		
0.477548	2.71649	0.387081	2.17826	0.579402	2.68846	0.657521	3.72957	0.827417	4.69736	0.499742	2.85124	0.651741	3.71472	0.893705	5.0911		
0.48051	2.71514	0.390116	2.18087	0.576349	2.689	0.659199	3.71426	0.829202	4.6762	0.501877	2.84429	0.653794	3.70155	0.89461	5.06227		
0.483479	2.71384	0.39315	2.18345	0.573297	2.68955	0.660873	3.69913	0.830998	4.65539	0.504009	2.83742	0.655862	3.68865	0.895523	5.03387		
0.486453	2.7126	0.396183	2.18598	0.570246	2.69011	0.662545	3.68418	0.832805	4.63492	0.506137	2.83062	0.657946	3.676	0.896443	5.00588		
0.489434	2.7114	0.399215	2.18848	0.567195	2.69067	0.664215	3.66942	0.834623	4.61476	0.508261	2.82389	0.660044	3.6636	0.89737	4.97829		
0.492419	2.71024	0.402247	2.19095	0.564146	2.69125	0.665882	3.65483	0.836451	4.59493	0.510383	2.81723	0.662156	3.65144	0.898304	4.9511		
0.49541	2.70913	0.405278	2.19338	0.561097	2.69184	0.667546	3.64042	0.838291	4.57542	0.512502	2.81064	0.664282	3.63951	0.899246	4.92431		
0.498405	2.70805	0.408309	2.19578	0.558049	2.69244	0.669209	3.62619	0.84014	4.5562	0.514618	2.80412	0.666422	3.62782	0.900195	4.8979		
0.501404	2.70702	0.411338	2.19814	0.555003	2.69306	0.67087	3.61212	0.842	4.53729	0.516732	2.79768	0.668576	3.61634	0.901151	4.87186		
0.504408	2.70602	0.414367	2.20046	0.551958	2.69369	0.672529	3.59822	0.843869	4.51867	0.518843	2.7913	0.670743	3.60508	0.902115	4.8462		
0.507415	2.70505	0.417394	2.20276	0.548914	2.69433	0.674187	3.58449	0.845748	4.50033	0.520953	2.78499	0.672923	3.59403	0.903087	4.82089		
0.510426	2.70411	0.420421	2.20501	0.545872	2.69499	0.675843	3.57092	0.847637	4.48227	0.523062	2.77876	0.675115	3.58319	0.904066	4.79595		
0.513441	2.7032	0.423446	2.20724	0.542831	2.69566	0.677497	3.55751	0.849536	4.46449	0.525168	2.77259	0.677321	3.57254	0.905053	4.77135		
0.516459	2.70232	0.426471	2.20943	0.539792	2.69635	0.679151	3.54426	0.851443	4.44697	0.527274	2.7665	0.679538	3.5621	0.906047	4.7471		
0.519479	2.70147	0.429494	2.21159	0.536756	2.69706	0.680803	3.53116	0.85336	4.42972	0.529379	2.76047	0.681767	3.55184	0.907049	4.72319		
0.522503	2.70065	0.432516	2.21372	0.533721	2.69778	0.682454	3.51822	0.855285	4.41272	0.531483	2.75452	0.684007	3.54177	0.908059	4.69961		
0.525529	2.69984	0.435536	2.21581	0.530688	2.69853	0.684104	3.50543	0.85722	4.39597	0.533587	2.74863	0.686259	3.53187	0.909077	4.67635		
0.528558	2.69906	0.438555	2.21787	0.527657	2.69929	0.685754	3.49279	0.859162	4.37946	0.535691	2.74282	0.688522	3.52216	0.910103	4.65342		
0.53159	2.6983	0.441573	2.2199	0.524629	2.70008	0.687403	3.4803	0.861113	4.36319	0.537794	2.73707	0.690795	3.51261	0.911136	4.6308		
0.534623	2.69756	0.444589	2.2219	0.521603	2.70089	0.689052	3.46796	0.863072	4.34716	0.539898	2.7314	0.693079	3.50323	0.912178	4.60849		
0.537659	2.69684	0.447604	2.22387	0.518581	2.70172	0.690701	3.45576	0.865039	4.33136	0.542003	2.72579	0.695374	3.49401	0.913228	4.58648		
0.540696	2.69614	0.450616	2.22581	0.515561	2.70258	0.692349	3.4437	0.867013	4.31578	0.544108	2.72026	0.697677	3.48495	0.914286	4.56478		
0.543736	2.69546	0.453628	2.22771	0.512544	2.70347	0.693998	3.43178	0.868995	4.30041	0.546215	2.71479	0.699991	3.47605	0.915352	4.54337		
0.546777	2.69479	0.456637	2.22959	0.50953	2.70439	0.695646	3.42	0.870984	4.28527	0.548323	2.7094	0.702314	3.46729	0.916426	4.52225		
0.549819	2.69414	0.459644	2.23143	0.50652	2.70533	0.697295	3.40836	0.872981	4.27033	0.550432	2.70407	0.704645	3.45868	0.917509	4.50141		
0.552863	2.6935	0.46265	2.23324	0.503514	2.70631	0.698945	3.39686	0.874984	4.25559	0.552543	2.69882	0.706986	3.45021	0.9186	4.48086		
0.555909	2.69287	0.465653	2.23503	0.500511	2.70732	0.700595	3.38549	0.876994	4.24106	0.554656	2.69363	0.709335	3.44187	0.919699	4.46058		
0.558956	2.69226	0.468655	2.23678	0.497513	2.70837	0.702246	3.37425	0.87901	4.22672	0.556771	2.68852	0.711692	3.43368	0.920807	4.44057		
0.562004	2.69167	0.471654	2.2385	0.49452	2.70946	0.703898	3.36314	0.881033	4.21258	0.558888	2.68347	0.714057	3.42561	0.921924	4.42083		
0.565053	2.69108	0.474651	2.2402	0.491531	2.71058	0.70555	3.35216	0.883062	4.19862	0.561009	2.6785	0.71643	3.41767	0.923049	4.40135		
0.568103	2.6905	0.477645	2.24186	0.488547	2.71175	0.707204	3.34131	0.885097	4.18485	0.563132	2.67359	0.71881	3.40985	0.924183	4.38213		
0.571154	2.68994	0.480637	2.24349	0.485568	2.71296	0.70886	3.33059	0.887138	4.17125	0.565258	2.66875	0.721197	3.40216	0.925325	4.36317		
0.574205	2.68938	0.483627	2.2451	0.482595	2.71422	0.710516	3.31999	0.889184	4.15784	0.567387	2.66398	0.723591	3.39458	0.926476	4.34445		
0.577258	2.68884	0.486614	2.24667	0.479628	2.71554	0.712175	3.30951	0.891236	4.14459	0.569521	2.65929	0.725992	3.38711	0.927637	4.32599		
0.580311	2.6883	0.489598	2.24822	0.476668	2.7169	0.713835	3.29916	0.893293	4.13151	0.571658	2.65466	0.728398	3.37976	0.928806	4.30776		
0.583364	2.68777	0.492579	2.24973	0.473714	2.71833	0.715497	3.28893	0.895355	4.1186	0.573799	2.65009	0.730811	3.37251	0.929984	4.28978		
0.586418	2.68725	0.495558	2.25122	0.470768	2.71982	0.717161	3.27881	0.897422	4.10585	0.575944	2.6456	0.73323	3.36537	0.931171	4.27203		
0.589473	2.68674	0.498534	2.25268	0.467829	2.72137	0.718827	3.26882	0.899494	4.09326	0.578094	2.64118	0.735654	3.35833	0.932367	4.25452		
0.592527	2.68623	0.501506	2.25411	0.464899	2.72299	0.720495	3.25894	0.90157	4.08082	0.580248	2.63682	0.738084	3.3514	0.933572	4.23723		
0.595582	2.68574	0.504475	2.2555	0.461977	2.72468	0.722166	3.24918	0.903651	4.06854	0.582407	2.63254	0.740519	3.34455	0.934787	4.22017		
0.598638	2.68524	0.507442	2.25687	0.459065	2.72646	0.72384	3.23953	0.905735	4.0564	0.584571	2.62832	0.742958	3.3378	0.936011	4.20333		
0.601693	2.68475	0.510404	2.25821	0.456163	2.72832	0.725516	3.22999	0.907824	4.0444	0.586741	2.62417	0.745402	3.33115	0.937244	4.18671		
0.604748	2.68427	0.513364	2.25953	0.453271	2.73027	0.727195	3.22057	0.909916	4.03255	0.588916	2.62009	0.74785	3.32458	0.938487	4.17031		
0.607804	2.68379	0.516319	2.26081	0.45039	2.73231	0.728877	3.21126	0.912012	4.02084	0.591097	2.61607	0.750303	3.3181	0.939739	4.15412		
0.610859	2.68332	0.519272	2.26206	0.447522	2.73446	0.730562	3.20206	0.914112	4.00927	0.593284	2.61213	0.752759	3.3117	0.941001	4.13814		
0.613914	2.68285	0.52222	2.26329	0.444666	2.73672	0.73225	3.19296	0.916214	3.99783	0.595477	2.60825	0.755219	3.30539	0.942272	4.12237		
0.616969	2.68239	0.525164	2.26448	0.441825	2.7391	0.733942	3.18398	0.91832	3.98651	0.597676	2.60444	0.757682	3.29915	0.943554	4.1068		
0.620023	2.68193	0.528105	2.26565	0.438997	2.7416	0.735637	3.1751	0.920429	3.97533	0.599882	2.60069	0.760149	3.29299	0.944845	4.09143		
0.623077	2.68147	0.531041	2.26678	0.436186	2.74424	0.737336	3.16632	0.922541	3.96427	0.602094	2.59702	0.762618	3.28691	0.946145	4.07626		
0.626131	2.68101	0.533973	2.26789	0.433391	2.74702	0.739038	3.15766	0.924655	3.95334	0.604313	2.59341	0.76509	3.2809	0.947456	4.06129		
0.629184	2.68056	0.536901	2.26897	0.430613	2.74996	0.740745	3.14909	0.926771	3.94252	0.60654	2.58986	0.767565	3.27496	0.948777	4.04651		
0.632236	2.68011	0.539825	2.27002	0.427855	2.75306	0.742455	3.14063	0.92889	3.93182	0.608773	2.58638	0.770042	3.26909	0.950108	4.03192		
0.635288	2.67966	0.542744	2.27104	0.425116	2.75634	0.74417	3.13226	0.931012	3.92124	0.611015	2.58297	0.772521	3.26328	0.951448	4.01751		
0.638339	2.67921	0.545658	2.27203	0.422399	2.75981	0.745889	3.124	0.933135	3.91077	0.613263	2.57963	0.775001	3.25755	0.9528	4.0033		
0.64139	2.67876	0.548568	2.27299	0.419705	2.76349	0.747612	3.11584	0.93526	3.90041	0.61552	2.57635	0.777484	3.25187	0.954161	3.98926		
0.644439	2.67831	0.551473	2.27392	0.417034	2.76738	0.74934	3.10778	0.937386	3.89016	0.617785	2.57314	0.779968	3.24626	0.955533	3.97541		
0.647488	2.67787	0.554373	2.27483	0.41439	2.77151	0.751073	3.09981	0.939514	3.88002	0.620058	2.56999	0.782453	3.24071	0.956915	3.96174		
0.650535	2.67742	0.557268	2.2757	0.411772	2.77588	0.75281	3.09194	0.941644	3.86998	0.622339	2.5669	0.784939	3.23521	0.958308	3.94824		
0.653581	2.67697	0.560157	2.27654	0.409184	2.78052	0.754552	3.08417	0.943774	3.86004	0.624628	2.56388	0.787426	3.22977	0.959711	3.93491		
0.656627	2.67653	0.563042	2.27736	0.406626	2.78544	0.7563	3.0765	0.945906	3.8502	0.626927	2.56093	0.789913	3.22439	0.961125	3.92176		
0.65967	2.67608	0.565921	2.27815	0.404099	2.79067	0.758052	3.06891	0.948039	3.84046	0.629234	2.55804	0.792401	3.21906	0.962549	3.90878		
0.662713	2.67563	0.568794	2.2789	0.401607	2.79621	0.75981	3.06142	0.950173	3.83081	0.63155	2.55522	0.794889	3.21378	0.963985	3.89596		
0.665754	2.67518	0.571662	2.27963	0.39915	2.8021	0.761574	3.05403	0.952307	3.82126	0.633876	2.55245	0.797377	3.20855	0.965431	3.88331		
0.668794	2.67473	0.574525	2.28033	0.39673	2.80834	0.763343	3.04672	0.954442	3.8118	0.636211	2.54975	0.799865	3.20337	0.966888	3.87082		
0.671832	2.67427	0.577381	2.281	0.394349	2.81497	0.765118	3.03951	0.956577	3.80243	0.638555	2.54712	0.802353	3.19824	0.968356	3.8585		
0.674868	2.67381	0.580232	2.28163	0.392008	2.822	0.766899	3.03239	0.958712	3.79315	0.640909	2.54455	0.80484	3.19315	0.969835	3.84633		
0.677903	2.67335	0.583077	2.28224	0.389709	2.82945	0.768686	3.02536	0.960848	3.78395	0.643272	2.54204	0.807326	3.18811	0.971326	3.83432		
0.680935	2.67289	0.585916	2.28283	0.387453	2.83735	0.770479	3.01841	0.962983	3.77484	0.645646	2.53959	0.809812	3.18311	0.972827	3.82246		
0.683966	2.67242	0.588749	2.28338	0.385242	2.84572	0.772279	3.01156	0.965118	3.76582	0.648029	2.5372	0.812296	3.17816	0.97434	3.81076		
0.686994	2.67195	0.591575	2.2839	0.383076	2.85457	0.774085	3.00479	0.967253	3.75687	0.650423	2.53488	0.814779	3.17324	0.975864	3.79921		
0.690021	2.67148	0.594395	2.2844	0.380957	2.86394	0.775898	2.99812	0.969388	3.74801	0.652826	2.53261	0.817261	3.16836	0.9774	3.78781		
0.693045	2.671	0.597209	2.28486	0.378886	2.87383	0.777718	2.99152	0.971522	3.73922	0.655241	2.53041	0.819741	3.16353	0.978947	3.77656		
0.696066	2.67052	0.600017	2.2853	0.376863	2.88427	0.779544	2.98502	0.973656	3.73051	0.657665	2.52827	0.82222	3.15872	0.980506	3.76545		
0.699085	2.67003	0.602818	2.28571	0.37489	2.89528	0.781378	2.9786	0.975789	3.72188	0.6601	2.52618	0.824696	3.15396	0.982076	3.75449		
0.702102	2.66953	0.605613	2.28609	0.372965	2.90687	0.783219	2.97226	0.977921	3.71332	0.662546	2.52416	0.827171	3.14923	0.983658	3.74367		
0.705115	2.66903	0.608401	2.28644	0.37109	2.91907	0.785067	2.96601	0.980051	3.70483	0.665002	2.52219	0.829643	3.14453	0.985252	3.73299		
0.708126	2.66852	0.611183	2.28677	0.369265	2.93189	0.786924	2.95985	0.982181	3.69641	0.667469	2.52028	0.832113	3.13987	0.986857	3.72245		
0.711134	2.66801	0.613958	2.28707	0.36749	2.94536	0.788788	2.95376	0.98431	3.68807	0.669947	2.51843	0.83458	3.13523	0.988475	3.71205		
0.714138	2.66749	0.616726	2.28734	0.365763	2.95947	0.79066	2.94777	0.986437	3.67979	0.672436	2.51664	0.837045	3.13063	0.990104	3.70179		
0.717139	2.66696	0.619488	2.28758	0.364086	2.97426	0.79254	2.94185	0.988564	3.67158	0.674936	2.5149	0.839506	3.12606	0.991746	3.69166		
0.720137	2.66642	0.622243	2.2878	0.362457	2.98974	0.794428	2.93602	0.990688	3.66343	0.677447	2.51322	0.841965	3.12152	0.993399	3.68166		
0.723131	2.66587	0.624992	2.28799	0.360877	3.00592	0.796326	2.93027	0.992811	3.65535	0.679969	2.5116	0.844421	3.117	0.995065	3.6718		
0.726121	2.66531	0.627734	2.28816	0.359343	3.02283	0.798232	2.9246	0.994932	3.64734	0.682502	2.51003	0.846873	3.11252	0.996742	3.66206		
0.729107	2.66475	0.630469	2.2883	0.357857	3.04046	0.800146	2.91901	0.997052	3.63938	0.685046	2.50851	0.849322	3.10805	0.998432	3.65246		
0.732089	2.66417	0.633197	2.28841	0.356416	3.05885	0.802071	2.9135	0.999169	3.63149	0.687601	2.50705	0.851767	3.10362	1.00013	3.64298		
0.735067	2.66358	0.635919	2.2885	0.355021	3.07801	0.804004	2.90808	1.00128	3.62366	0.690167	2.50564	0.854209	3.09921				
0.73804	2.66299	0.638635	2.28857	0.353671	3.09796	0.805947	2.90273			0.692744	2.50428	0.856647	3.09482				
0.741009	2.66237	0.641344	2.28861	0.352364	3.1187	0.8079	2.89747			0.695332	2.50297	0.859081	3.09045				
0.743972	2.66175	0.644047	2.28863	0.3511	3.14027	0.809863	2.89228			0.697931	2.50171	0.861511	3.08611				
0.746931	2.66112	0.646743	2.28863	0.349878	3.16268	0.811837	2.88718			0.70054	2.5005	0.863937	3.08179				
0.749884	2.66047	0.649433	2.2886	0.348698	3.18596	0.813821	2.88215			0.703161	2.49935	0.866359	3.07749				
0.752831	2.6598	0.652117	2.28856	0.347559	3.21011	0.815815	2.87721			0.705793	2.49823	0.868776	3.07322				
0.755773	2.65912	0.654794	2.28849	0.34646	3.23518	0.817821	2.87235			0.708435	2.49717	0.871189	3.06896				
0.758709	2.65843	0.657466	2.2884	0.3454	3.26117	0.819839	2.86756			0.711088	2.49615	0.873598	3.06472				
0.761638	2.65772	0.660131	2.28829	0.34438	3.28812	0.821867	2.86286			0.713752	2.49518	0.876001	3.0605				
0.764561	2.65699	0.662791	2.28816	0.343397	3.31605	0.823908	2.85823			0.716426	2.49425	0.8784	3.05629				
0.767478	2.65625	0.665444	2.28801	0.342452	3.345	0.825961	2.85369			0.719111	2.49337	0.880795	3.05211				
0.770387	2.65549	0.668093	2.28785	0.341544	3.37498	0.828026	2.84922			0.721806	2.49253	0.883184	3.04794				
0.773288	2.6547	0.670735	2.28767	0.340673	3.40604	0.830104	2.84483			0.724511	2.49173	0.885569	3.04379				
0.776183	2.6539	0.673372	2.28747	0.339838	3.4382	0.832195	2.84053			0.727226	2.49097	0.887948	3.03966				
0.779069	2.65308	0.676004	2.28725	0.339038	3.4715	0.8343	2.8363			0.729951	2.49025	0.890322	3.03554				
0.781947	2.65224	0.678631	2.28702	0.338274	3.50598	0.836418	2.83216			0.732686	2.48958	0.892692	3.03144				
0.784817	2.65137	0.681253	2.28677	0.337544	3.54168	0.83855	2.82809			0.735431	2.48893	0.895056	3.02735				
0.787678	2.65049	0.683869	2.28651	0.336849	3.57863	0.840696	2.8241			0.738185	2.48833	0.897414	3.02328				
0.79053	2.64958	0.686481	2.28623	0.336188	3.61689	0.842857	2.8202			0.740949	2.48776	0.899768	3.01922				
0.793373	2.64864	0.689089	2.28594	0.33556	3.6565	0.845033	2.81637			0.743722	2.48723	0.902116	3.01517				
0.796206	2.64769	0.691691	2.28564	0.334966	3.6975	0.847224	2.81263			0.746504	2.48674	0.904459	3.01114				
0.79903	2.6467	0.69429	2.28533	0.334404	3.73996	0.84943	2.80896			0.749295	2.48627	0.906796	3.00713				
0.801843	2.64569	0.696884	2.285	0.333875	3.78392	0.851652	2.80538			0.752095	2.48584	0.909128	3.00312				
0.804646	2.64466	0.699474	2.28467	0.333379	3.82944	0.85389	2.80187			0.754904	2.48544	0.911455	2.99913				
0.807438	2.64359	0.702061	2.28432	0.332914	3.87658	0.856145	2.79845			0.757721	2.48508	0.913776	2.99515				
0.810219	2.6425	0.704643	2.28397	0.332481	3.92541	0.858416	2.7951			0.760546	2.48474	0.916091	2.99119				
0.81299	2.64139	0.707222	2.2836	0.33208	3.97599	0.860704	2.79184			0.76338	2.48443	0.918401	2.98724				
0.815748	2.64024	0.709797	2.28323	0.33171	4.0284	0.863009	2.78866			0.766222	2.48415	0.920706	2.9833				
0.818495	2.63906	0.712369	2.28285	0.33137	4.08271	0.865331	2.78555			0.769071	2.4839	0.923005	2.97937				
0.821231	2.63786	0.714938	2.28246	0.331062	4.13901	0.86767	2.78253			0.771928	2.48367	0.925299	2.97546				
0.823954	2.63663	0.717504	2.28207	0.330783	4.19737	0.870027	2.77958			0.774793	2.48347	0.927587	2.97155				
0.826665	2.63536	0.720067	2.28167	0.330535	4.2579	0.872402	2.77671			0.777665	2.4833	0.92987	2.96766				
0.829364	2.63407	0.722627	2.28126	0.330317	4.32068	0.874795	2.77392			0.780545	2.48315	0.932147	2.96378				
0.832051	2.63275	0.725185	2.28085	0.330128	4.38582	0.877206	2.77121			0.783431	2.48302	0.93442	2.95992				
0.834725	2.6314	0.72774	2.28043	0.329969	4.45343	0.879635	2.76858			0.786324	2.48292	0.936686	2.95606				
0.837387	2.63002	0.730293	2.28001	0.329838	4.52362	0.882082	2.76602			0.789224	2.48284	0.938948	2.95222				
0.840036	2.62861	0.732843	2.27959	0.329737	4.59652	0.884547	2.76354			0.792131	2.48278	0.941204	2.94839				
0.842674	2.62718	0.735392	2.27916	0.329664	4.67226	0.88703	2.76113			0.795044	2.48274	0.943455	2.94457				
0.845298	2.62571	0.737938	2.27873	0.329619	4.75098	0.889531	2.75879			0.797963	2.48271	0.945701	2.94076				
0.847911	2.62422	0.740483	2.2783	0.329602	4.83284	0.89205	2.75653			0.800889	2.48271	0.947941	2.93696				
0.850511	2.6227	0.743026	2.27786	0.329613	4.91798	0.894587	2.75434			0.80382	2.48273	0.950177	2.93318				
0.853099	2.62116	0.745567	2.27742	0.329652	5.00658	0.897141	2.75222			0.806757	2.48276	0.952407	2.92941				
0.855676	2.61959	0.748107	2.27698	0.329717	5.09884	0.899712	2.75016			0.8097	2.48282	0.954633	2.92565				
0.858241	2.618	0.750645	2.27654	0.329809	5.19494	0.902301	2.74817			0.812648	2.48288	0.956854	2.9219				
0.860795	2.61638	0.753182	2.2761	0.329927	5.2951	0.904907	2.74625			0.815602	2.48297	0.95907	2.91817				
0.863337	2.61474	0.755718	2.27566	0.330072	5.39954	0.907529	2.7444			0.818561	2.48307	0.961281	2.91445				
0.865869	2.61308	0.758253	2.27522	0.330242	5.50852	0.910167	2.7426			0.821526	2.48318	0.963488	2.91074				
0.868391	2.6114	0.760787	2.27478	0.330437	5.62231	0.912822	2.74087			0.824495	2.48331	0.96569	2.90704				
0.870902	2.60971	0.76332	2.27434	0.330658	5.74118	0.915492	2.73919			0.827469	2.48346	0.967888	2.90335				
0.873404	2.60799	0.765853	2.2739	0.330903	5.86545	0.918178	2.73757			0.830448	2.48361	0.970081	2.89968				
0.875896	2.60626	0.768384	2.27346	0.331172	5.99547	0.920878	2.73601			0.833432	2.48378	0.97227	2.89602				
0.878379	2.60452	0.770916	2.27303	0.331465	6.13159	0.923593	2.7345			0.83642	2.48396	0.974455	2.89238				
0.880854	2.60276	0.773446	2.27259	0.331781	6.27422	0.926322	2.73304			0.839412	2.48415	0.976636	2.88875				
0.88332	2.60099	0.775976	2.27216	0.33212	6.42379	0.929065	2.73164			0.842409	2.48436	0.978813	2.88513				
0.885779	2.59921	0.778506	2.27173	0.332481	6.58079	0.931821	2.73028			0.84541	2.48457	0.980985	2.88152				
0.888231	2.59743	0.781036	2.2713	0.332864	6.74572	0.93459	2.72897			0.848415	2.4848	0.983154	2.87793				
0.890675	2.59563	0.783566	2.27087	0.333268	6.91916	0.937371	2.72771			0.851424	2.48503	0.98532	2.87435				
0.893113	2.59382	0.786095	2.27045	0.333693	7.10174	0.940164	2.72648			0.854437	2.48528	0.987481	2.87079				
0.895545	2.59202	0.788624	2.27002	0.334137	7.29416	0.942969	2.72531			0.857453	2.48553	0.98964	2.86724				
0.897971	2.5902	0.791154	2.26961	0.334602	7.49717	0.945786	2.72417			0.860474	2.4858	0.991794	2.86371				
0.900392	2.58839	0.793683	2.26919	0.335085	7.71162	0.948613	2.72307			0.863498	2.48607	0.993946	2.86018				
0.902808	2.58657	0.796213	2.26878	0.335586	7.93846	0.95145	2.722			0.866525	2.48635	0.996094	2.85668				
0.905219	2.58475	0.798743	2.26837	0.336036	8.14705	0.954298	2.72097			0.869556	2.48663	0.99824	2.85319				
0.907627	2.58293	0.801273	2.26796	0.336431	8.33348	0.957155	2.71998			0.87259	2.48693	1.00038	2.84971				
0.910031	2.58112	0.803803	2.26756	0.336763	8.49404	0.960021	2.71902			0.875627	2.48723						
0.912431	2.5793	0.806334	2.26717	0.33703	8.62531	0.962896	2.71809			0.878668	2.48754						
0.914828	2.57749	0.808866	2.26677	0.337229	8.72437	0.96578	2.71719			0.881711	2.48786						
0.917223	2.57569	0.811397	2.26638	0.337414	8.81748	0.968672	2.71632			0.884757	2.48818						
0.919615	2.57389	0.81393	2.266	0.337543	8.88339	0.971572	2.71548			0.887807	2.48851						
0.922006	2.57209	0.816463	2.26561	0.337746	8.9883	0.974479	2.71466			0.890859	2.48884						
0.924395	2.57031	0.818996	2.26524	0.338026	9.1349	0.977394	2.71387			0.893914	2.48918						
0.926782	2.56853	0.821531	2.26486	0.338384	9.32705	0.980315	2.71311			0.896972	2.48952						
0.929168	2.56676	0.824065	2.26449	0.338823	9.57009	0.983243	2.71236			0.900032	2.48987						
0.931554	2.565	0.826601	2.26413	0.339346	9.87122	0.986177	2.71164			0.903095	2.49023						
0.933938	2.56325	0.829138	2.26377	0.339957	10.24	0.989118	2.71094			0.90616	2.49059						
0.936323	2.56151	0.831675	2.26341	0.340578	10.6363	0.992064	2.71026			0.909228	2.49095						
0.938708	2.55978	0.834213	2.26306	0.341207	11.0631	0.995016	2.7096			0.912298	2.49132						
0.941093	2.55806	0.836752	2.26272	0.341843	11.5241	0.997973	2.70896			0.915371	2.49169						
0.943478	2.55635	0.839292	2.26238	0.342485	12.0234	1.00093	2.70834			0.918445	2.49206						
0.945864	2.55466	0.841833	2.26204	0.343131	12.566					0.921522	2.49244						
0.94825	2.55298	0.844374	2.26171	0.343779	13.1576					0.924601	2.49282						
0.950638	2.55132	0.846917	2.26138	0.344427	13.8051					0.927682	2.49321						
0.953027	2.54966	0.849461	2.26106	0.345074	14.5167					0.930766	2.4936						
0.955418	2.54802	0.852005	2.26074	0.345717	15.3025					0.933851	2.49399						
0.95781	2.5464	0.854551	2.26042	0.346355	16.1744					0.936938	2.49438						
0.960204	2.54479	0.857098	2.26011	0.346984	17.1475					0.940027	2.49478						
0.962599	2.5432	0.859646	2.25981	0.347602	18.2404					0.943118	2.49518						
0.964997	2.54162	0.862195	2.25951	0.348207	19.4766					0.946211	2.49558						
0.967397	2.54006	0.864745	2.25922	0.348795	20.8863					0.949305	2.49598						
0.9698	2.53851	0.867296	2.25893	0.349364	22.5089					0.952401	2.49639						
0.972205	2.53698	0.869849	2.25864	0.349911	24.3965					0.955499	2.4968						
0.974612	2.53546	0.872402	2.25836	0.350432	26.6201					0.958599	2.49721						
0.977022	2.53396	0.874957	2.25809	0.350924	29.2787					0.9617	2.49762						
0.979435	2.53248	0.877513	2.25782	0.351383	32.514					0.964803	2.49803						
0.981851	2.53102	0.88007	2.25755	0.351807	36.5376					0.967907	2.49844						
0.98427	2.52957	0.882628	2.25729	0.352191	41.6789					0.971013	2.49886						
0.986693	2.52813	0.885188	2.25703	0.352534	48.4808					0.97412	2.49927						
0.989118	2.52672	0.887748	2.25678	0.352831	57.9066					0.977229	2.49969						
0.991547	2.52532	0.89031	2.25653	0.353079	71.8432					0.980339	2.50011						
0.993979	2.52394	0.892873	2.25629	0.353278	94.5586					0.98345	2.50053						
0.996414	2.52258	0.895438	2.25605	0.353424	138.188					0.986563	2.50095						
0.998854	2.52123	0.898003	2.25581	0.353516	256.347					0.989677	2.50137						
1.0013	2.5199	0.90057	2.25558	0.353553	1763.02					0.992793	2.50179						
		0.903138	2.25536							0.995909	2.50222						
		0.905707	2.25514							0.999027	2.50264						
		0.908278	2.25492							1.00215	2.50306						
		0.910849	2.25471														
		0.913422	2.2545														
		0.915996	2.2543														
		0.918572	2.2541														
		0.921149	2.2539														
		0.923727	2.25371														
		0.926306	2.25352														
		0.928886	2.25334														
		0.931468	2.25316														
		0.934051	2.25299														
		0.936635	2.25282														
		0.93922	2.25265														
		0.941807	2.25249														
		0.944394	2.25233														
		0.946983	2.25217														
		0.949573	2.25202														
		0.952165	2.25187														
		0.954757	2.25173														
		0.957351	2.25159														
		0.959946	2.25145														
		0.962542	2.25131														
		0.965139	2.25118														
		0.967737	2.25106														
		0.970337	2.25093														
		0.972938	2.25081														
		0.975539	2.25069														
		0.978142	2.25058														
		0.980746	2.25047														
		0.983351	2.25036														
		0.985958	2.25026														
		0.988565	2.25016														
		0.991173	2.25006														
		0.993783	2.24996														
		0.996393	2.24987														
		0.999005	2.24978														
		1.00162	2.24969														
