Sym0		Asym0		Sym1		Sym2		Sym3		Asym1		Asym2		Asym3		Asym4	
352  Points		387  Points		352  Points		320  Points		248  Points		345  Points		316  Points		251  Points		147  Points	
Freq (MHz)	Vph (m/ms)	Freq (MHz)	Vph (m/ms)	Freq (MHz)	Vph (m/ms)	Freq (MHz)	Vph (m/ms)	Freq (MHz)	Vph (m/ms)	Freq (MHz)	Vph (m/ms)	Freq (MHz)	Vph (m/ms)	Freq (MHz)	Vph (m/ms)	Freq (MHz)	Vph (m/ms)
0.353553	4532.61	0.000353281	0.116126	1.00244	2.45694	0.377817	2453.59	0.707108	807.263	0.176817	168.636	0.53033	549.761	0.755635	846.347	0.883884	4965.02
0.353455	281.298	0.000678832	0.160833	0.999899	2.4578	0.377946	283.638	0.707116	344.188	0.176959	79.4598	0.530331	247.452	0.75566	364.819	0.883889	651.58
0.353189	145.045	0.00110828	0.205266	0.997359	2.45869	0.378275	150.647	0.707129	218.725	0.177202	52.0336	0.530332	159.658	0.755704	232.536	0.883904	348.674
0.352767	97.6237	0.00164005	0.249332	0.994825	2.45958	0.378791	102.667	0.707148	160.298	0.177546	38.7313	0.530334	117.847	0.755768	170.666	0.883928	238.027
0.352207	73.4983	0.00227252	0.292992	0.992297	2.4605	0.379476	77.9526	0.707173	126.507	0.17799	30.8873	0.530336	93.3904	0.755851	134.808	0.883961	180.693
0.35153	58.8773	0.0030037	0.336181	0.989775	2.46144	0.380309	62.8969	0.707204	104.485	0.178531	25.7209	0.53034	77.3404	0.755953	111.409	0.884003	145.621
0.350756	49.0632	0.00383111	0.37882	0.987258	2.4624	0.38127	52.7705	0.707241	88.9948	0.179168	22.0662	0.530343	65.9982	0.756075	94.9379	0.884054	121.954
0.349903	42.0174	0.00475243	0.420875	0.984747	2.46338	0.38234	45.4974	0.707284	77.5063	0.179899	19.348	0.530348	57.5574	0.756215	82.7152	0.884114	104.907
0.348989	36.7121	0.00576489	0.462289	0.982242	2.46438	0.383504	40.023	0.707333	68.6463	0.180722	17.25	0.530353	51.0311	0.756376	73.2857	0.884183	92.0438
0.348026	32.5727	0.00686569	0.503025	0.979743	2.4654	0.384747	35.7552	0.707388	61.6056	0.181633	15.584	0.53036	45.8342	0.756555	65.7907	0.884262	81.9928
0.347027	29.2526	0.00805189	0.543043	0.977249	2.46644	0.386058	32.3356	0.707449	55.8761	0.182631	14.2307	0.530367	41.5982	0.756753	59.6906	0.884349	73.9229
0.346002	26.5306	0.00932046	0.582316	0.974761	2.4675	0.387427	29.5349	0.707517	51.1228	0.183712	13.1109	0.530375	38.079	0.75697	54.6295	0.884446	67.301
0.344957	24.2584	0.0106683	0.620817	0.972279	2.46858	0.388847	27.1995	0.70759	47.1159	0.184873	12.1702	0.530385	35.109	0.757206	50.363	0.884552	61.7697
0.343901	22.3332	0.0120923	0.658521	0.969803	2.46968	0.390311	25.2227	0.707669	43.6925	0.186112	11.3697	0.530396	32.569	0.757461	46.718	0.884667	57.0802
0.342837	20.6813	0.0135895	0.69542	0.967332	2.4708	0.391814	23.528	0.707755	40.7339	0.187425	10.6809	0.530408	30.3718	0.757734	43.568	0.884791	53.054
0.341772	19.2486	0.0151566	0.7315	0.964867	2.47195	0.393352	22.0592	0.707846	38.1514	0.188808	10.0826	0.530422	28.4526	0.758025	40.8188	0.884925	49.5598
0.340707	17.9943	0.0167907	0.766752	0.962408	2.47311	0.394922	20.7742	0.707944	35.8778	0.19026	9.55855	0.530438	26.7616	0.758334	38.3986	0.885068	46.4988
0.339646	16.8872	0.0184887	0.801176	0.959954	2.4743	0.396519	19.6406	0.708049	33.8607	0.191776	9.09617	0.530456	25.2606	0.758662	36.2519	0.885221	43.7952
0.338593	15.9029	0.0202478	0.834775	0.957506	2.47551	0.398141	18.6333	0.708159	32.0592	0.193148	8.73571	0.530476	23.9191	0.759007	34.3349	0.885383	41.39
0.337549	15.0224	0.0220652	0.867548	0.955063	2.47674	0.399788	17.7323	0.708276	30.4404	0.194353	8.45542	0.530497	22.7132	0.75937	32.6127	0.885554	39.2364
0.336515	14.23	0.0239379	0.899502	0.952627	2.478	0.401455	16.9217	0.7084	28.978	0.195374	8.24028	0.530522	21.6232	0.759751	31.0571	0.885736	37.2969
0.335495	13.5134	0.0258636	0.930649	0.950195	2.47927	0.403143	16.1887	0.70853	27.6503	0.196195	8.07986	0.530549	20.6332	0.760149	29.6452	0.885926	35.5412
0.334488	12.8623	0.0278395	0.960994	0.94777	2.48057	0.404849	15.5226	0.708666	26.4396	0.196807	7.96697	0.530579	19.73	0.760564	28.358	0.886127	33.9444
0.333497	12.2683	0.0298633	0.990557	0.945349	2.48189	0.406572	14.9147	0.708809	25.3312	0.197203	7.89686	0.530611	18.9029	0.760995	27.1798	0.886337	32.4859
0.332523	11.7241	0.0319327	1.01935	0.942935	2.48324	0.408312	14.3578	0.708959	24.3126	0.197776	7.79888	0.530647	18.1424	0.761443	26.0973	0.886557	31.1485
0.331567	11.224	0.0340452	1.04738	0.940525	2.4846	0.410067	13.8458	0.709116	23.3733	0.198405	7.69596	0.530686	17.441	0.761908	25.0994	0.886788	29.9178
0.330629	10.7629	0.0361989	1.07468	0.938121	2.48599	0.411836	13.3733	0.709279	22.5045	0.199271	7.56165	0.530729	16.7921	0.762389	24.1766	0.887028	28.7816
0.329711	10.3365	0.0383918	1.10125	0.935723	2.4874	0.413618	12.9362	0.709449	21.6985	0.200383	7.40053	0.530776	16.1899	0.762885	23.3208	0.887278	27.7293
0.328813	9.94103	0.0406218	1.12711	0.933329	2.48884	0.415414	12.5305	0.709627	20.9488	0.201751	7.21769	0.530827	15.6296	0.763398	22.525	0.887538	26.7522
0.327936	9.57341	0.0428871	1.15229	0.930941	2.4903	0.417222	12.153	0.709811	20.2498	0.203388	7.01839	0.530882	15.107	0.763925	21.7831	0.887809	25.8423
0.32708	9.23086	0.0451862	1.1768	0.928558	2.49178	0.419041	11.8009	0.710002	19.5964	0.205306	6.80775	0.530941	14.6184	0.764468	21.0898	0.88809	24.9931
0.326247	8.91097	0.0475171	1.20065	0.926181	2.49328	0.420872	11.4717	0.710201	18.9844	0.207266	6.61426	0.531006	14.1607	0.765025	20.4407	0.888382	24.1988
0.325437	8.61165	0.0498785	1.22388	0.923808	2.49481	0.422713	11.1633	0.710406	18.4099	0.209265	6.43599	0.531075	13.731	0.765598	19.8315	0.888684	23.4541
0.324651	8.33102	0.0522689	1.24648	0.92144	2.49636	0.424564	10.8737	0.710619	17.8697	0.2113	6.27128	0.53115	13.3269	0.766184	19.2587	0.888996	22.7546
0.323888	8.06748	0.0546867	1.26849	0.919077	2.49793	0.426424	10.6014	0.71084	17.3607	0.213369	6.11868	0.53123	12.9461	0.766784	18.7193	0.88932	22.0963
0.32315	7.81955	0.0571307	1.28992	0.916719	2.49953	0.428294	10.3448	0.711068	16.8804	0.215471	5.97696	0.531316	12.5867	0.767398	18.2104	0.889654	21.4758
0.322437	7.58597	0.0595997	1.31079	0.914366	2.50115	0.430172	10.1026	0.711304	16.4265	0.217604	5.84504	0.531408	12.2469	0.768025	17.7294	0.889999	20.8898
0.32175	7.36557	0.0620924	1.33111	0.912018	2.5028	0.432058	9.87361	0.711547	15.9967	0.219765	5.72196	0.531507	11.9253	0.768666	17.2743	0.890356	20.3357
0.321088	7.15733	0.0646079	1.3509	0.909674	2.50446	0.433953	9.65683	0.711799	15.5893	0.221954	5.6069	0.531612	11.6204	0.769319	16.8429	0.890723	19.8108
0.320453	6.96032	0.067145	1.37019	0.907334	2.50615	0.435855	9.45128	0.712058	15.2026	0.224168	5.49911	0.531724	11.331	0.769985	16.4334	0.891102	19.313
0.319844	6.77371	0.0697026	1.38898	0.904999	2.50787	0.437764	9.25614	0.712325	14.835	0.226406	5.39796	0.531843	11.0558	0.770663	16.0444	0.891492	18.8402
0.319263	6.59676	0.0722798	1.40729	0.902669	2.50961	0.43968	9.07062	0.7126	14.4852	0.228666	5.30285	0.531969	10.794	0.771352	15.6741	0.891893	18.3907
0.318709	6.42877	0.0748759	1.42513	0.900342	2.51137	0.441602	8.89405	0.712884	14.152	0.230948	5.21328	0.532104	10.5446	0.772054	15.3215	0.892306	17.9627
0.318184	6.26914	0.0774899	1.44252	0.89802	2.51315	0.443283	8.74697	0.713176	13.8341	0.233249	5.12879	0.532246	10.3067	0.772766	14.9851	0.892731	17.5548
0.317686	6.11729	0.0801209	1.45948	0.895701	2.51495	0.444719	8.62629	0.713476	13.5306	0.235569	5.04897	0.532397	10.0796	0.773489	14.6641	0.893168	17.1656
0.317218	5.97273	0.0827683	1.47602	0.893386	2.51678	0.445909	8.52959	0.713785	13.2406	0.237907	4.97345	0.532556	9.86257	0.774223	14.3572	0.893617	16.7938
0.316778	5.83498	0.0854313	1.49215	0.891075	2.51863	0.446851	8.45504	0.714102	12.9631	0.240261	4.90189	0.532724	9.65497	0.774967	14.0636	0.894077	16.4384
0.316368	5.70361	0.0881093	1.50789	0.888767	2.52051	0.447545	8.40126	0.714429	12.6973	0.24263	4.83399	0.532902	9.45621	0.775721	13.7826	0.89455	16.0983
0.315987	5.57823	0.0908016	1.52324	0.886463	2.5224	0.447989	8.36729	0.714764	12.4427	0.245013	4.76949	0.533089	9.26576	0.776485	13.5132	0.895036	15.7725
0.315637	5.45848	0.0935076	1.53823	0.884162	2.52432	0.448628	8.31906	0.715108	12.1984	0.24741	4.70813	0.533285	9.08312	0.777258	13.2548	0.895534	15.4602
0.315317	5.34404	0.0962267	1.55285	0.881864	2.52626	0.449324	8.26743	0.715462	11.9639	0.249818	4.64969	0.533465	8.92997	0.77804	13.0067	0.896044	15.1606
0.315028	5.23458	0.0989583	1.56713	0.879569	2.52822	0.45027	8.1985	0.715824	11.7387	0.252239	4.59397	0.533624	8.80363	0.77883	12.7684	0.896567	14.8729
0.31477	5.12984	0.101702	1.58107	0.877276	2.5302	0.451469	8.11338	0.716196	11.5221	0.25467	4.54078	0.533761	8.70194	0.779629	12.5392	0.897103	14.5964
0.314543	5.02954	0.104457	1.59469	0.874986	2.5322	0.452922	8.01341	0.716578	11.3137	0.25711	4.48995	0.533871	8.62327	0.780436	12.3187	0.897652	14.3305
0.314348	4.93346	0.107224	1.60799	0.872698	2.53423	0.454629	7.90006	0.716969	11.1131	0.25956	4.44133	0.533954	8.56637	0.781251	12.1063	0.898214	14.0747
0.314185	4.84136	0.110001	1.62098	0.870412	2.53627	0.456591	7.77494	0.71737	10.9199	0.262018	4.39477	0.534008	8.53037	0.782072	11.9017	0.89879	13.8284
0.314055	4.75303	0.112788	1.63369	0.868128	2.53833	0.458558	7.65481	0.717781	10.7336	0.264484	4.35014	0.534086	8.47917	0.782901	11.7044	0.899378	13.591
0.313957	4.66828	0.115585	1.6461	0.865845	2.54041	0.460528	7.53938	0.718202	10.5539	0.266957	4.30732	0.534173	8.42425	0.783737	11.514	0.89998	13.3621
0.313892	4.58694	0.118391	1.65823	0.863564	2.54251	0.462502	7.42837	0.718633	10.3804	0.269436	4.26619	0.534293	8.35076	0.784579	11.3302	0.900596	13.1413
0.313863	4.5187	0.121207	1.6701	0.861284	2.54462	0.464479	7.32154	0.719075	10.213	0.271921	4.22667	0.534449	8.25974	0.785427	11.1527	0.901226	12.9282
0.313858	4.46238	0.124031	1.68171	0.859004	2.54675	0.466459	7.21865	0.719527	10.0511	0.274411	4.18864	0.534643	8.15243	0.786281	10.981	0.901869	12.7223
0.313868	4.41706	0.126863	1.69306	0.856725	2.5489	0.468441	7.11949	0.71999	9.89471	0.276906	4.15203	0.534879	8.03028	0.78714	10.815	0.902526	12.5234
0.313885	4.382	0.129704	1.70416	0.854446	2.55107	0.470427	7.02385	0.720463	9.74341	0.279404	4.11675	0.535161	7.89483	0.788004	10.6544	0.903198	12.3311
0.313902	4.35665	0.132552	1.71503	0.852167	2.55325	0.472414	6.93156	0.720948	9.59701	0.281906	4.08272	0.535456	7.7642	0.788874	10.4989	0.903883	12.145
0.313916	4.34061	0.135408	1.72567	0.849888	2.55544	0.474403	6.84243	0.721443	9.45527	0.284412	4.04988	0.535763	7.63813	0.789747	10.3482	0.904583	11.965
0.313939	4.3178	0.138271	1.73608	0.847607	2.55765	0.476394	6.7563	0.72195	9.31798	0.286919	4.01816	0.536084	7.51641	0.790626	10.2021	0.905298	11.7906
0.313968	4.29335	0.141141	1.74627	0.845326	2.55987	0.478387	6.67303	0.7224	9.20183	0.289429	3.9875	0.536418	7.39884	0.791508	10.0605	0.906027	11.6217
0.314014	4.26063	0.144017	1.75626	0.843042	2.56209	0.480381	6.59246	0.722791	9.10527	0.291941	3.95784	0.536766	7.28521	0.792394	9.92315	0.90677	11.458
0.314085	4.22013	0.1469	1.76603	0.840757	2.56433	0.482375	6.51448	0.72312	9.02708	0.294453	3.92913	0.537127	7.17534	0.793283	9.7898	0.907528	11.2994
0.314187	4.17244	0.149789	1.77561	0.838469	2.56658	0.484371	6.43895	0.723382	8.96629	0.296967	3.90132	0.537503	7.06907	0.794176	9.66032	0.908302	11.1454
0.314333	4.1182	0.152685	1.78499	0.836179	2.56884	0.486367	6.36576	0.723577	8.92216	0.299481	3.87435	0.537893	6.96623	0.795071	9.53453	0.90909	10.9961
0.314533	4.05817	0.155586	1.79419	0.833885	2.5711	0.488364	6.2948	0.723702	8.89416	0.301994	3.8482	0.538298	6.86668	0.79597	9.41228	0.909893	10.8511
0.314769	4.00039	0.158492	1.8032	0.831587	2.57337	0.490361	6.22596	0.723884	8.85426	0.304508	3.82282	0.538719	6.77026	0.796754	9.30852	0.910711	10.7104
0.315042	3.94477	0.161404	1.81203	0.829286	2.57564	0.492358	6.15915	0.724083	8.81132	0.30702	3.79817	0.539155	6.67685	0.797425	9.22203	0.911545	10.5736
0.315351	3.89122	0.164321	1.82069	0.826979	2.57791	0.494354	6.09428	0.724355	8.75367	0.309531	3.77421	0.539606	6.58632	0.79798	9.15183	0.912393	10.4407
0.315698	3.83966	0.167243	1.82918	0.824667	2.58018	0.49635	6.03126	0.724704	8.68193	0.312041	3.75091	0.540074	6.49854	0.798419	9.09715	0.913257	10.3116
0.316082	3.79	0.17017	1.83751	0.82235	2.58245	0.498345	5.97001	0.725133	8.59689	0.314549	3.72824	0.540558	6.41342	0.798743	9.0574	0.914137	10.1859
0.316504	3.74218	0.173101	1.84567	0.820026	2.58472	0.50034	5.91046	0.725643	8.49946	0.317055	3.70617	0.541058	6.33084	0.79895	9.03215	0.915032	10.0638
0.316964	3.69613	0.176037	1.85368	0.817696	2.58699	0.502333	5.85253	0.726241	8.39064	0.319558	3.68467	0.541576	6.2507	0.799248	8.99614	0.915942	9.94488
0.317464	3.65177	0.178977	1.86154	0.815358	2.58924	0.504324	5.79615	0.726851	8.28488	0.322058	3.66372	0.542111	6.17291	0.799572	8.95735	0.916868	9.82916
0.318003	3.60904	0.181922	1.86926	0.813013	2.5915	0.506315	5.74126	0.727474	8.18207	0.324555	3.64328	0.542663	6.09737	0.800013	8.90519	0.91781	9.71649
0.318582	3.56789	0.184871	1.87683	0.810659	2.59374	0.508303	5.6878	0.72811	8.08209	0.327049	3.62334	0.543233	6.02401	0.800571	8.84016	0.918767	9.60677
0.319202	3.52827	0.187823	1.88426	0.808296	2.59596	0.51029	5.63571	0.728758	7.98484	0.329539	3.60387	0.543821	5.95274	0.801247	8.76291	0.919614	9.51346
0.319862	3.49011	0.190779	1.89155	0.805924	2.59818	0.512274	5.58493	0.72942	7.8902	0.332024	3.58485	0.544427	5.88348	0.80204	8.67416	0.920345	9.43558
0.320565	3.45337	0.193739	1.89871	0.803542	2.60038	0.514256	5.53542	0.730095	7.79809	0.334506	3.56626	0.545052	5.81616	0.802952	8.57473	0.920956	9.37228
0.321311	3.41801	0.196703	1.90575	0.801149	2.60256	0.516235	5.48712	0.730783	7.70841	0.336983	3.54809	0.545696	5.75071	0.803864	8.47777	0.921444	9.32293
0.3221	3.38397	0.19967	1.91265	0.798746	2.60473	0.518212	5.43998	0.731484	7.62107	0.339454	3.53031	0.546359	5.68706	0.804777	8.38321	0.921805	9.28703
0.322932	3.35123	0.20264	1.91943	0.79633	2.60687	0.520186	5.39397	0.7322	7.536	0.341921	3.5129	0.547041	5.62516	0.80569	8.29094	0.922037	9.26423
0.32381	3.31974	0.205613	1.9261	0.793903	2.60899	0.522157	5.34904	0.732929	7.4531	0.344382	3.49586	0.547744	5.56494	0.806604	8.20089	0.922372	9.23168
0.324733	3.28946	0.20859	1.93264	0.791463	2.61108	0.524124	5.30515	0.733672	7.37231	0.346838	3.47917	0.548465	5.50635	0.807518	8.11297	0.922737	9.1966
0.325703	3.26036	0.211569	1.93907	0.789011	2.61315	0.526088	5.26225	0.734429	7.29354	0.349288	3.4628	0.549207	5.44932	0.808432	8.02711	0.923238	9.14939
0.32672	3.2324	0.214551	1.94539	0.786544	2.61519	0.528048	5.22032	0.735201	7.21674	0.351731	3.44676	0.54997	5.39381	0.809346	7.94323	0.923877	9.09051
0.327785	3.20557	0.217536	1.95161	0.784065	2.6172	0.530004	5.17932	0.735987	7.14184	0.354168	3.43101	0.550753	5.33978	0.810259	7.86127	0.924658	9.02048
0.328899	3.17982	0.220524	1.95771	0.781571	2.61918	0.531957	5.13921	0.736787	7.06877	0.356598	3.41556	0.551557	5.28716	0.811173	7.78116	0.925584	8.93995
0.330064	3.15513	0.22313	1.96295	0.779063	2.62113	0.533905	5.09996	0.737602	6.99747	0.359022	3.40039	0.552382	5.23592	0.812086	7.70284	0.926662	8.84963
0.33128	3.13147	0.225352	1.96735	0.77654	2.62304	0.535848	5.06155	0.738432	6.92788	0.361439	3.38549	0.553228	5.18601	0.812998	7.62625	0.927755	8.76146
0.332547	3.10882	0.227191	1.97095	0.774003	2.62492	0.537788	5.02394	0.739277	6.85996	0.363848	3.37085	0.554096	5.13739	0.81391	7.55132	0.928864	8.67538
0.333868	3.08715	0.228646	1.97377	0.77145	2.62676	0.539722	4.98711	0.740136	6.79364	0.36625	3.35646	0.554986	5.09002	0.814821	7.47801	0.929989	8.59132
0.335242	3.06644	0.229716	1.97582	0.768883	2.62857	0.541652	4.95103	0.741011	6.72889	0.368644	3.3423	0.555897	5.04386	0.815731	7.40626	0.931129	8.50921
0.336671	3.04667	0.230401	1.97713	0.7663	2.63033	0.543577	4.91567	0.741901	6.66564	0.37103	3.32837	0.55683	4.99887	0.816641	7.33602	0.932285	8.42899
0.338155	3.02781	0.231386	1.97901	0.763702	2.63206	0.545496	4.88101	0.742807	6.60385	0.373409	3.31467	0.557786	4.95503	0.81755	7.26725	0.933455	8.3506
0.339695	3.00984	0.232457	1.98104	0.761089	2.63376	0.547411	4.84702	0.743728	6.54348	0.375779	3.30117	0.558765	4.91229	0.818458	7.1999	0.934641	8.27398
0.341292	2.99274	0.233913	1.98377	0.75846	2.63541	0.54932	4.81369	0.744665	6.48448	0.378141	3.28788	0.559765	4.87063	0.819365	7.13392	0.935843	8.19907
0.342946	2.97648	0.235756	1.9872	0.755817	2.63702	0.551223	4.781	0.745617	6.42682	0.380495	3.27479	0.560789	4.83001	0.820271	7.06927	0.937059	8.12583
0.344657	2.96104	0.237986	1.9913	0.753159	2.6386	0.553121	4.74892	0.746585	6.37045	0.382839	3.26188	0.561836	4.7904	0.821176	7.00591	0.938291	8.0542
0.346425	2.9464	0.240604	1.99605	0.750486	2.64013	0.555013	4.71743	0.747569	6.31534	0.385176	3.24916	0.562905	4.75177	0.82208	6.94381	0.939537	7.98413
0.34825	2.93253	0.243609	2.00142	0.747798	2.64163	0.556899	4.68652	0.748569	6.26145	0.387503	3.23662	0.563998	4.7141	0.822984	6.88292	0.940798	7.91557
0.350131	2.9194	0.246616	2.00669	0.745096	2.64309	0.558779	4.65616	0.749585	6.20874	0.389821	3.22425	0.565114	4.67735	0.823886	6.82322	0.942074	7.84848
0.352069	2.90699	0.249625	2.01188	0.74238	2.64451	0.560653	4.62634	0.750617	6.15719	0.392131	3.21204	0.566254	4.64151	0.824788	6.76466	0.943365	7.78282
0.354063	2.89528	0.252636	2.01699	0.73965	2.64589	0.56252	4.59705	0.751666	6.10675	0.394431	3.19999	0.567417	4.60654	0.825688	6.70722	0.94467	7.71854
0.356111	2.88423	0.255649	2.02202	0.736907	2.64724	0.564382	4.56826	0.75273	6.05741	0.396722	3.18809	0.568603	4.57243	0.826588	6.65086	0.945989	7.65561
0.358212	2.87382	0.258663	2.02697	0.734151	2.64855	0.566237	4.53997	0.753811	6.00912	0.399003	3.17634	0.569814	4.53914	0.827487	6.59555	0.947323	7.59397
0.360365	2.86401	0.261679	2.03183	0.731382	2.64983	0.568085	4.51215	0.754909	5.96186	0.401275	3.16474	0.571048	4.50666	0.828386	6.54127	0.94867	7.5336
0.362568	2.85478	0.264696	2.03662	0.7286	2.65107	0.569927	4.4848	0.756022	5.91559	0.403538	3.15328	0.572305	4.47497	0.829283	6.48798	0.950032	7.47446
0.36482	2.84611	0.267714	2.04134	0.725806	2.65228	0.571762	4.4579	0.757153	5.87031	0.405792	3.14195	0.573587	4.44404	0.83018	6.43566	0.951407	7.41652
0.367119	2.83795	0.270735	2.04598	0.723001	2.65345	0.573591	4.43144	0.7583	5.82597	0.408036	3.13076	0.574892	4.41385	0.831077	6.38428	0.952796	7.35973
0.369463	2.83028	0.273756	2.05055	0.720184	2.6546	0.575413	4.4054	0.759463	5.78255	0.41027	3.1197	0.576221	4.38438	0.831973	6.33382	0.954198	7.30407
0.37185	2.82308	0.276778	2.05505	0.717356	2.65571	0.577227	4.37978	0.760643	5.74002	0.412495	3.10876	0.577574	4.35562	0.832869	6.28426	0.955614	7.24951
0.374278	2.81632	0.279802	2.05948	0.714518	2.65679	0.579035	4.35456	0.76184	5.69838	0.414711	3.09794	0.578951	4.32754	0.833764	6.23556	0.957043	7.19601
0.376745	2.80996	0.282827	2.06384	0.71167	2.65785	0.580837	4.32973	0.763053	5.65758	0.416917	3.08724	0.580351	4.30013	0.834659	6.18772	0.958484	7.14355
0.379249	2.80399	0.285853	2.06814	0.708811	2.65888	0.582631	4.30529	0.764283	5.61761	0.419114	3.07666	0.581775	4.27336	0.835554	6.1407	0.959939	7.0921
0.381788	2.79838	0.28888	2.07237	0.705943	2.65988	0.584418	4.28121	0.765529	5.57845	0.421302	3.06619	0.583223	4.24723	0.836449	6.0945	0.961406	7.04163
0.38436	2.7931	0.291908	2.07653	0.703067	2.66085	0.586199	4.2575	0.766792	5.54008	0.42348	3.05583	0.584694	4.22171	0.837344	6.04907	0.962886	6.99211
0.386963	2.78814	0.294936	2.08063	0.700181	2.6618	0.587972	4.23413	0.768071	5.50247	0.425649	3.04558	0.586188	4.19679	0.838239	6.00442	0.964377	6.94352
0.389595	2.78348	0.297966	2.08467	0.697287	2.66273	0.589738	4.21111	0.769367	5.46561	0.427809	3.03544	0.587707	4.17245	0.839134	5.96052	0.965881	6.89584
0.392255	2.77908	0.300996	2.08865	0.694385	2.66364	0.591498	4.18843	0.77068	5.42947	0.42996	3.02541	0.589248	4.14868	0.84003	5.91734	0.967397	6.84903
0.394941	2.77494	0.304027	2.09257	0.691475	2.66452	0.59325	4.16608	0.772009	5.39405	0.432102	3.01547	0.590812	4.12547	0.840926	5.87489	0.968924	6.80308
0.397651	2.77103	0.307058	2.09643	0.688558	2.66538	0.594996	4.14404	0.773354	5.35932	0.434235	3.00564	0.592399	4.10279	0.841823	5.83313	0.970463	6.75797
0.400383	2.76735	0.31009	2.10023	0.685633	2.66623	0.596735	4.12231	0.774716	5.32527	0.43636	2.99591	0.59401	4.08063	0.842721	5.79205	0.972014	6.71367
0.403137	2.76387	0.313123	2.10398	0.682702	2.66705	0.598466	4.10089	0.776094	5.29187	0.438476	2.98627	0.595642	4.05899	0.843619	5.75164	0.973575	6.67015
0.40591	2.76058	0.316156	2.10767	0.679764	2.66786	0.600192	4.07976	0.777488	5.25911	0.440584	2.97674	0.597298	4.03784	0.844519	5.71188	0.975147	6.62742
0.408702	2.75746	0.319189	2.1113	0.67682	2.66864	0.60191	4.05893	0.778898	5.22699	0.442683	2.9673	0.598975	4.01717	0.84542	5.67275	0.97673	6.58543
0.411512	2.75451	0.322223	2.11488	0.67387	2.66942	0.603621	4.03837	0.780325	5.19547	0.444775	2.95795	0.600674	3.99698	0.846322	5.63425	0.978324	6.54417
0.414337	2.75172	0.325257	2.11841	0.670915	2.67018	0.605326	4.0181	0.781767	5.16455	0.446859	2.9487	0.602396	3.97724	0.847225	5.59635	0.979927	6.50363
0.417178	2.74907	0.328291	2.12189	0.667954	2.67092	0.607025	3.9981	0.783225	5.13421	0.448936	2.93954	0.604138	3.95795	0.84813	5.55906	0.981541	6.46378
0.420033	2.74655	0.331325	2.12531	0.664987	2.67165	0.608717	3.97836	0.784698	5.10443	0.451005	2.93048	0.605903	3.9391	0.849036	5.52234	0.983165	6.42462
0.422901	2.74416	0.33436	2.12868	0.662016	2.67236	0.610402	3.95889	0.786188	5.07521	0.453067	2.92151	0.607688	3.92067	0.849945	5.4862	0.984799	6.38611
0.425781	2.74188	0.337394	2.132	0.65904	2.67307	0.612082	3.93966	0.787692	5.04653	0.455122	2.91262	0.609494	3.90264	0.850855	5.45061	0.986442	6.34825
0.428673	2.73971	0.340428	2.13528	0.65606	2.67376	0.613755	3.92069	0.789213	5.01838	0.457171	2.90383	0.61132	3.88502	0.851767	5.41557	0.988094	6.31102
0.431576	2.73764	0.343463	2.1385	0.653075	2.67444	0.615422	3.90197	0.790748	4.99074	0.459213	2.89513	0.613167	3.86779	0.852682	5.38106	0.989756	6.27441
0.434489	2.73567	0.346497	2.14168	0.650086	2.67511	0.617083	3.88348	0.792298	4.96361	0.461249	2.88652	0.615034	3.85094	0.853599	5.34708	0.991426	6.23839
0.437411	2.73378	0.349531	2.1448	0.647093	2.67577	0.618738	3.86523	0.793863	4.93696	0.463279	2.878	0.61692	3.83445	0.854518	5.31361	0.993106	6.20296
0.440342	2.73198	0.352564	2.14789	0.644097	2.67642	0.620388	3.84721	0.795443	4.9108	0.465304	2.86957	0.618826	3.81833	0.855441	5.28065	0.994794	6.16809
0.443282	2.73026	0.355597	2.15092	0.641097	2.67707	0.622032	3.82942	0.797038	4.8851	0.467323	2.86123	0.620751	3.80256	0.856365	5.24818	0.99649	6.13379
0.446229	2.7286	0.35863	2.15391	0.638093	2.6777	0.62367	3.81185	0.798647	4.85986	0.469337	2.85298	0.622694	3.78712	0.857293	5.21619	0.998194	6.10003
0.449184	2.72702	0.361662	2.15686	0.635086	2.67833	0.625303	3.7945	0.80027	4.83506	0.471347	2.84481	0.624656	3.77202	0.858224	5.18468	0.999906	6.0668
0.452145	2.7255	0.364694	2.15976	0.632077	2.67895	0.626931	3.77736	0.801907	4.8107	0.473352	2.83674	0.626636	3.75723	0.859158	5.15363	1.00163	6.03409
0.455113	2.72404	0.367725	2.16262	0.629064	2.67957	0.628554	3.76044	0.803558	4.78676	0.475353	2.82875	0.628633	3.74276	0.860096	5.12304		
0.458087	2.72263	0.370756	2.16543	0.626049	2.68018	0.630172	3.74373	0.805222	4.76323	0.47735	2.82085	0.630648	3.72859	0.861037	5.09289		
0.461066	2.72128	0.373785	2.1682	0.623031	2.68078	0.631786	3.72722	0.806901	4.74012	0.479344	2.81304	0.63268	3.71472	0.861982	5.06319		
0.464051	2.71997	0.376814	2.17093	0.62001	2.68138	0.633395	3.71091	0.808592	4.71739	0.481335	2.80532	0.634728	3.70114	0.86293	5.03391		
0.46704	2.71872	0.379842	2.17361	0.616988	2.68198	0.635	3.6948	0.810296	4.69506	0.483322	2.79769	0.636792	3.68784	0.863883	5.00506		
0.470035	2.7175	0.382869	2.17626	0.613963	2.68257	0.6366	3.67888	0.812014	4.67309	0.485307	2.79015	0.638873	3.6748	0.864839	4.97662		
0.473033	2.71633	0.385895	2.17886	0.610936	2.68316	0.638197	3.66316	0.813743	4.6515	0.48729	2.78269	0.640969	3.66204	0.8658	4.94859		
0.476036	2.7152	0.388919	2.18142	0.607907	2.68375	0.639789	3.64763	0.815486	4.63027	0.489271	2.77533	0.64308	3.64953	0.866765	4.92096		
0.479042	2.7141	0.391943	2.18395	0.604876	2.68434	0.641378	3.63228	0.81724	4.60939	0.491251	2.76805	0.645206	3.63726	0.867735	4.89372		
0.482052	2.71304	0.394965	2.18643	0.601843	2.68492	0.642964	3.61712	0.819007	4.58885	0.493229	2.76086	0.647347	3.62524	0.86871	4.86687		
0.485066	2.71201	0.397986	2.18887	0.598809	2.68551	0.644546	3.60214	0.820785	4.56864	0.495206	2.75377	0.649501	3.61346	0.869689	4.8404		
0.488082	2.71101	0.401005	2.19127	0.595774	2.68609	0.646125	3.58734	0.822574	4.54877	0.497182	2.74676	0.651669	3.60191	0.870673	4.8143		
0.491101	2.71004	0.404023	2.19364	0.592737	2.68667	0.647702	3.57272	0.824375	4.52921	0.499159	2.73983	0.653851	3.59058	0.871662	4.78856		
0.494123	2.7091	0.407039	2.19596	0.589699	2.68726	0.649276	3.55827	0.826187	4.50996	0.501135	2.733	0.656045	3.57946	0.872657	4.76319		
0.497148	2.70819	0.410053	2.19825	0.586659	2.68784	0.650847	3.54399	0.82801	4.49102	0.503112	2.72626	0.658252	3.56856	0.873657	4.73817		
0.500175	2.70729	0.413066	2.2005	0.583619	2.68843	0.652416	3.52988	0.829844	4.47238	0.505089	2.71961	0.660471	3.55786	0.874662	4.7135		
0.503204	2.70643	0.416077	2.20271	0.580578	2.68902	0.653983	3.51594	0.831688	4.45403	0.507067	2.71305	0.662702	3.54735	0.875674	4.68916		
0.506235	2.70558	0.419085	2.20488	0.577535	2.68961	0.655548	3.50216	0.833541	4.43596	0.509047	2.70657	0.664944	3.53704	0.876691	4.66517		
0.509267	2.70475	0.422092	2.20701	0.574493	2.6902	0.657112	3.48855	0.835405	4.41816	0.511028	2.70019	0.667198	3.52692	0.877713	4.6415		
0.512302	2.70394	0.425096	2.20911	0.571449	2.6908	0.658674	3.4751	0.837279	4.40064	0.513012	2.69389	0.669462	3.51698	0.878743	4.61817		
0.515338	2.70315	0.428098	2.21116	0.568405	2.6914	0.660234	3.46181	0.839161	4.38339	0.514998	2.68768	0.671737	3.50722	0.879778	4.59515		
0.518376	2.70238	0.431098	2.21319	0.56536	2.69201	0.661794	3.44868	0.841053	4.36639	0.516986	2.68157	0.674022	3.49762	0.88082	4.57244		
0.521414	2.70163	0.434095	2.21517	0.562315	2.69262	0.663353	3.4357	0.842954	4.34965	0.518977	2.67554	0.676316	3.4882	0.881868	4.55005		
0.524454	2.70088	0.437089	2.21712	0.55927	2.69323	0.664911	3.42288	0.844863	4.33315	0.520971	2.6696	0.67862	3.47893	0.882923	4.52796		
0.527496	2.70016	0.44008	2.21902	0.556224	2.69386	0.666469	3.41021	0.846781	4.31689	0.522969	2.66376	0.680932	3.46983	0.883984	4.50617		
0.530538	2.69944	0.443069	2.2209	0.553179	2.69449	0.668027	3.39769	0.848707	4.30087	0.524971	2.658	0.683254	3.46087	0.885053	4.48467		
0.53358	2.69874	0.446055	2.22273	0.550134	2.69512	0.669585	3.38532	0.850641	4.28508	0.526977	2.65233	0.685583	3.45206	0.886129	4.46347		
0.536624	2.69805	0.449037	2.22453	0.547088	2.69577	0.671142	3.3731	0.852582	4.26951	0.528988	2.64675	0.687921	3.4434	0.887212	4.44255		
0.539668	2.69738	0.452016	2.22629	0.544043	2.69642	0.672701	3.36103	0.854531	4.25417	0.531003	2.64125	0.690266	3.43488	0.888302	4.42192		
0.542713	2.69671	0.454992	2.22802	0.540998	2.69708	0.67426	3.3491	0.856488	4.23903	0.533023	2.63585	0.692618	3.42649	0.8894	4.40156		
0.545757	2.69605	0.457965	2.2297	0.537954	2.69776	0.675819	3.33731	0.858451	4.22411	0.535049	2.63054	0.694978	3.41823	0.890506	4.38148		
0.548803	2.6954	0.460933	2.23135	0.53491	2.69844	0.67738	3.32566	0.860421	4.20939	0.53708	2.62532	0.697344	3.4101	0.891619	4.36167		
0.551848	2.69476	0.463898	2.23297	0.531867	2.69914	0.678942	3.31415	0.862397	4.19488	0.539118	2.62018	0.699716	3.40209	0.892741	4.34212		
0.554894	2.69413	0.466859	2.23454	0.528825	2.69984	0.680506	3.30279	0.864379	4.18056	0.541161	2.61513	0.702094	3.39421	0.89387	4.32283		
0.557939	2.6935	0.469816	2.23608	0.525783	2.70056	0.682071	3.29156	0.866368	4.16642	0.543212	2.61018	0.704478	3.38644	0.895008	4.30381		
0.560984	2.69288	0.472768	2.23758	0.522743	2.7013	0.683638	3.28046	0.868362	4.15248	0.545269	2.60531	0.706867	3.37878	0.896154	4.28503		
0.564029	2.69227	0.475716	2.23905	0.519704	2.70205	0.685208	3.2695	0.870362	4.13872	0.547333	2.60053	0.709261	3.37123	0.897308	4.26651		
0.567074	2.69166	0.47866	2.24048	0.516665	2.70281	0.686779	3.25868	0.872367	4.12514	0.549405	2.59584	0.71166	3.36379	0.898471	4.24824		
0.570119	2.69106	0.481599	2.24187	0.513629	2.7036	0.688353	3.24798	0.874377	4.11173	0.551484	2.59123	0.714063	3.35646	0.899643	4.2302		
0.573162	2.69046	0.484533	2.24322	0.510593	2.7044	0.68993	3.23742	0.876392	4.09849	0.553572	2.58672	0.716471	3.34922	0.900824	4.21241		
0.576206	2.68987	0.487462	2.24453	0.50756	2.70521	0.69151	3.22699	0.878412	4.08542	0.555667	2.58229	0.718882	3.34208	0.902014	4.19486		
0.579248	2.68927	0.490386	2.24581	0.504528	2.70605	0.693092	3.21668	0.880436	4.07251	0.557772	2.57795	0.721297	3.33503	0.903213	4.17754		
0.58229	2.68869	0.493304	2.24704	0.501498	2.70691	0.694679	3.20651	0.882464	4.05976	0.559885	2.5737	0.723715	3.32808	0.904421	4.16045		
0.585331	2.6881	0.496217	2.24824	0.49847	2.70779	0.696268	3.19646	0.884496	4.04717	0.562007	2.56953	0.726135	3.32121	0.905639	4.14359		
0.588371	2.68751	0.499124	2.2494	0.495445	2.7087	0.697862	3.18653	0.886532	4.03472	0.564139	2.56546	0.728559	3.31443	0.906867	4.12695		
0.591409	2.68693	0.502026	2.25053	0.492422	2.70963	0.699459	3.17673	0.888571	4.02243	0.56628	2.56147	0.730985	3.30773	0.908104	4.11054		
0.594447	2.68635	0.504921	2.25161	0.489401	2.71059	0.701061	3.16705	0.890613	4.01028	0.568432	2.55756	0.733413	3.30112	0.909351	4.09434		
0.597483	2.68576	0.50781	2.25266	0.486383	2.71157	0.702667	3.1575	0.892659	3.99827	0.570593	2.55375	0.735843	3.29458	0.910609	4.07836		
0.600518	2.68518	0.510693	2.25366	0.483369	2.71259	0.704277	3.14806	0.894707	3.98641	0.572765	2.55002	0.738274	3.28811	0.911876	4.0626		
0.603551	2.68459	0.513569	2.25463	0.480357	2.71364	0.705893	3.13875	0.896758	3.97467	0.574948	2.54638	0.740707	3.28172	0.913154	4.04704		
0.606582	2.68401	0.516439	2.25556	0.477349	2.71472	0.707513	3.12956	0.898812	3.96307	0.577142	2.54282	0.743141	3.2754	0.914442	4.03169		
0.609612	2.68342	0.519301	2.25644	0.474345	2.71583	0.709139	3.12048	0.900867	3.9516	0.579347	2.53935	0.745575	3.26915	0.915741	4.01655		
0.61264	2.68283	0.522157	2.25729	0.471345	2.71699	0.71077	3.11152	0.902925	3.94026	0.581563	2.53596	0.74801	3.26297	0.91705	4.00161		
0.615666	2.68224	0.525005	2.2581	0.468348	2.71818	0.712407	3.10268	0.904985	3.92904	0.583791	2.53267	0.750445	3.25685	0.91837	3.98687		
0.61869	2.68165	0.527846	2.25887	0.465357	2.71942	0.714049	3.09395	0.907046	3.91794	0.586031	2.52945	0.752881	3.25079	0.919702	3.97232		
0.621711	2.68105	0.530679	2.2596	0.46237	2.7207	0.715698	3.08534	0.909108	3.90697	0.588283	2.52632	0.755315	3.24479	0.921044	3.95797		
0.62473	2.68044	0.533505	2.26029	0.459388	2.72203	0.717353	3.07685	0.911172	3.8961	0.590548	2.52328	0.75775	3.23885	0.922398	3.94382		
0.627747	2.67984	0.536322	2.26094	0.456412	2.72341	0.719015	3.06846	0.913237	3.88535	0.592825	2.52032	0.760184	3.23297	0.923763	3.92985		
0.63076	2.67922	0.539132	2.26155	0.453441	2.72485	0.720683	3.06019	0.915303	3.87471	0.595115	2.51744	0.762616	3.22714	0.92514	3.91608		
0.633772	2.6786	0.541934	2.26212	0.450477	2.72635	0.722359	3.05203	0.917369	3.86418	0.597418	2.51464	0.765048	3.22136	0.926528	3.90249		
0.63678	2.67798	0.544727	2.26265	0.447519	2.7279	0.724042	3.04399	0.919436	3.85376	0.599734	2.51193	0.767478	3.21564	0.927928	3.88908		
0.639784	2.67735	0.547512	2.26314	0.444569	2.72953	0.725732	3.03605	0.921503	3.84344	0.602064	2.5093	0.769906	3.20996	0.929341	3.87585		
0.642786	2.67671	0.550289	2.26359	0.441626	2.73122	0.72743	3.02822	0.92357	3.83322	0.604407	2.50676	0.772333	3.20434	0.930765	3.86281		
0.645784	2.67606	0.553057	2.264	0.438691	2.73299	0.729136	3.02051	0.925637	3.8231	0.606764	2.50429	0.774757	3.19875	0.932201	3.84994		
0.648779	2.6754	0.555816	2.26437	0.435765	2.73484	0.73085	3.0129	0.927704	3.81307	0.609134	2.5019	0.777179	3.19322	0.93365	3.83724		
0.651769	2.67473	0.558567	2.2647	0.432848	2.73677	0.732573	3.0054	0.929771	3.80314	0.611519	2.4996	0.779598	3.18772	0.935111	3.82472		
0.654756	2.67406	0.561309	2.265	0.42994	2.7388	0.734305	2.99801	0.931837	3.79331	0.613917	2.49737	0.782015	3.18227	0.936585	3.81238		
0.657738	2.67337	0.564042	2.26525	0.427044	2.74092	0.736045	2.99073	0.933902	3.78356	0.61633	2.49522	0.784428	3.17685	0.938071	3.8002		
0.660716	2.67267	0.566766	2.26547	0.424158	2.74315	0.737795	2.98355	0.935966	3.77391	0.618757	2.49315	0.786839	3.17148	0.93957	3.78818		
0.663689	2.67196	0.569481	2.26565	0.421284	2.74549	0.739555	2.97648	0.938029	3.76434	0.621198	2.49116	0.789246	3.16614	0.941083	3.77634		
0.666658	2.67124	0.572187	2.26579	0.418424	2.74795	0.741325	2.96952	0.940092	3.75486	0.623654	2.48924	0.791649	3.16084	0.942608	3.76465		
0.669621	2.6705	0.574885	2.2659	0.415577	2.75054	0.743104	2.96266	0.942152	3.74546	0.626124	2.4874	0.794049	3.15557	0.944146	3.75313		
0.672579	2.66975	0.577573	2.26597	0.412745	2.75328	0.744894	2.95591	0.944212	3.73614	0.628608	2.48563	0.796444	3.15034	0.945697	3.74177		
0.675532	2.66898	0.580253	2.26601	0.409928	2.75615	0.746695	2.94926	0.946269	3.7269	0.631107	2.48394	0.798836	3.14513	0.947262	3.73057		
0.678478	2.6682	0.582923	2.26601	0.407128	2.75919	0.748508	2.94272	0.948325	3.71774	0.63362	2.48232	0.801223	3.13996	0.948841	3.71952		
0.681419	2.6674	0.585585	2.26597	0.404347	2.7624	0.750331	2.93629	0.950379	3.70866	0.636148	2.48077	0.803606	3.13482	0.950433	3.70863		
0.684353	2.66659	0.588239	2.26591	0.401584	2.7658	0.752167	2.92996	0.952431	3.69965	0.63869	2.47929	0.805984	3.12971	0.952038	3.69789		
0.68728	2.66575	0.590883	2.26581	0.398842	2.76939	0.754014	2.92373	0.954481	3.69072	0.641246	2.47787	0.808357	3.12463	0.953658	3.6873		
0.690201	2.6649	0.593519	2.26568	0.396122	2.7732	0.755874	2.91761	0.956528	3.68186	0.643817	2.47653	0.810725	3.11957	0.955291	3.67686		
0.693114	2.66402	0.596147	2.26551	0.393426	2.77724	0.757747	2.9116	0.958573	3.67307	0.646402	2.47525	0.813088	3.11454	0.956938	3.66657		
0.696019	2.66313	0.598766	2.26532	0.390755	2.78152	0.759634	2.90569	0.960615	3.66435	0.649001	2.47404	0.815445	3.10953	0.958599	3.65642		
0.698917	2.66221	0.601378	2.2651	0.38811	2.78607	0.761533	2.89988	0.962655	3.65569	0.651613	2.47289	0.817797	3.10455	0.960274	3.64642		
0.701806	2.66127	0.603981	2.26486	0.385494	2.7909	0.763447	2.89418	0.964692	3.6471	0.65424	2.4718	0.820144	3.09959	0.961964	3.63656		
0.704687	2.66031	0.606576	2.26458	0.382908	2.79603	0.765375	2.88859	0.966726	3.63858	0.65688	2.47077	0.822485	3.09465	0.963667	3.62684		
0.707559	2.65932	0.609164	2.26428	0.380354	2.8015	0.767318	2.88309	0.968757	3.63012	0.659534	2.46981	0.824819	3.08974	0.965385	3.61726		
0.710422	2.6583	0.611744	2.26395	0.377835	2.80731	0.769276	2.87771	0.970784	3.62173	0.6622	2.4689	0.827148	3.08484	0.967117	3.60782		
0.713274	2.65726	0.614318	2.2636	0.375351	2.81349	0.77125	2.87243	0.972809	3.6134	0.66488	2.46805	0.829471	3.07997	0.968864	3.59852		
0.716117	2.65619	0.616884	2.26323	0.372906	2.82007	0.77324	2.86725	0.97483	3.60512	0.667573	2.46725	0.831788	3.07511	0.970625	3.58934		
0.71895	2.65509	0.619443	2.26284	0.370501	2.82708	0.775246	2.86219	0.976848	3.59691	0.670279	2.4665	0.834098	3.07028	0.9724	3.58031		
0.721771	2.65396	0.621996	2.26242	0.368138	2.83454	0.777269	2.85722	0.978863	3.58875	0.672997	2.46581	0.836402	3.06546	0.97419	3.5714		
0.724582	2.65279	0.624542	2.26199	0.365819	2.84248	0.779309	2.85237	0.980874	3.58065	0.675727	2.46517	0.838699	3.06066	0.975994	3.56262		
0.72738	2.6516	0.627082	2.26153	0.363546	2.85092	0.781367	2.84761	0.982881	3.57261	0.67847	2.46458	0.84099	3.05588	0.977813	3.55397		
0.730167	2.65037	0.629616	2.26106	0.361321	2.85991	0.783443	2.84297	0.984884	3.56462	0.681224	2.46404	0.843275	3.05111	0.979647	3.54545		
0.732942	2.64911	0.632144	2.26057	0.359146	2.86946	0.785537	2.83843	0.986884	3.55669	0.68399	2.46354	0.845552	3.04636	0.981495	3.53705		
0.735704	2.64782	0.634667	2.26007	0.357022	2.8796	0.787651	2.834	0.98888	3.54881	0.686767	2.46309	0.847823	3.04163	0.983357	3.52878		
0.738453	2.64649	0.637184	2.25955	0.354951	2.89037	0.789783	2.82967	0.990872	3.54098	0.689555	2.46268	0.850087	3.03691	0.985235	3.52063		
0.741189	2.64512	0.639697	2.25902	0.352934	2.90179	0.791936	2.82545	0.99286	3.53321	0.692354	2.46231	0.852344	3.03221	0.987126	3.51259		
0.743911	2.64371	0.642204	2.25848	0.350971	2.91389	0.794108	2.82134	0.994844	3.52548	0.695164	2.46198	0.854594	3.02752	0.989032	3.50468		
0.746619	2.64227	0.644708	2.25792	0.349065	2.9267	0.7963	2.81733	0.996824	3.51781	0.697984	2.4617	0.856837	3.02285	0.990953	3.49688		
0.749313	2.64079	0.647206	2.25736	0.347215	2.94024	0.798513	2.81343	0.998799	3.51018	0.700814	2.46145	0.859073	3.01819	0.992888	3.4892		
0.751992	2.63927	0.649701	2.25678	0.345422	2.95455	0.800747	2.80964	1.00077	3.5026	0.703654	2.46123	0.861303	3.01354	0.994838	3.48163		
0.754657	2.63771	0.652192	2.2562	0.343686	2.96963	0.803002	2.80595			0.706503	2.46105	0.863525	3.00891	0.996802	3.47418		
0.757307	2.63612	0.654679	2.2556	0.342008	2.98553	0.805278	2.80236			0.709362	2.46091	0.86574	3.00429	0.99878	3.46683		
0.759942	2.63448	0.657162	2.255	0.340386	3.00226	0.807576	2.79888			0.712229	2.4608	0.867949	2.99969	1.00077	3.45959		
0.762562	2.63281	0.659643	2.2544	0.338821	3.01985	0.809895	2.7955			0.715106	2.46072	0.87015	2.9951				
0.765166	2.63109	0.66212	2.25379	0.337313	3.03832	0.812236	2.79222			0.717991	2.46067	0.872345	2.99052				
0.767756	2.62934	0.664595	2.25317	0.33586	3.05769	0.814599	2.78904			0.720884	2.46064	0.874532	2.98596				
0.77033	2.62755	0.667067	2.25255	0.334462	3.07798	0.816983	2.78596			0.723786	2.46065	0.876713	2.9814				
0.772889	2.62573	0.669536	2.25193	0.333118	3.09923	0.81939	2.78299			0.726695	2.46068	0.878887	2.97687				
0.775433	2.62387	0.672004	2.25131	0.331827	3.12145	0.821817	2.7801			0.729612	2.46074	0.881054	2.97234				
0.777962	2.62197	0.674469	2.25068	0.330589	3.14466	0.824267	2.77732			0.732536	2.46082	0.883214	2.96783				
0.780477	2.62004	0.676932	2.25005	0.329402	3.1689	0.826737	2.77462			0.735468	2.46093	0.885368	2.96333				
0.782977	2.61807	0.679394	2.24942	0.328266	3.19418	0.829229	2.77202			0.738407	2.46105	0.887515	2.95885				
0.785462	2.61607	0.681854	2.24879	0.327179	3.22054	0.831741	2.76951			0.741352	2.4612	0.889655	2.95437				
0.787934	2.61405	0.684313	2.24816	0.326141	3.248	0.834274	2.76708			0.744304	2.46137	0.891789	2.94992				
0.790393	2.61199	0.686771	2.24754	0.325151	3.2766	0.836827	2.76475			0.747262	2.46156	0.893917	2.94547				
0.792838	2.60991	0.689228	2.24691	0.324208	3.30635	0.8394	2.76249			0.750227	2.46177	0.896038	2.94104				
0.795271	2.6078	0.691683	2.24629	0.32331	3.33731	0.841992	2.76032			0.753197	2.462	0.898154	2.93663				
0.797692	2.60567	0.694139	2.24566	0.322458	3.36951	0.844603	2.75822			0.756173	2.46224	0.900263	2.93222				
0.8001	2.60351	0.696593	2.24505	0.32165	3.40297	0.847233	2.7562			0.759155	2.4625	0.902366	2.92783				
0.802498	2.60134	0.699047	2.24443	0.320886	3.43775	0.849881	2.75425			0.762143	2.46278	0.904463	2.92346				
0.804884	2.59914	0.701501	2.24382	0.320165	3.47388	0.852546	2.75238			0.765135	2.46307	0.906555	2.9191				
0.807261	2.59694	0.703954	2.24321	0.319485	3.51141	0.855228	2.75057			0.768133	2.46337	0.908641	2.91476				
0.809628	2.59471	0.706407	2.2426	0.318848	3.55039	0.857926	2.74883			0.771136	2.46369	0.910721	2.91043				
0.811985	2.59248	0.70886	2.242	0.318251	3.59087	0.860641	2.74715			0.774144	2.46402	0.912796	2.90611				
0.814334	2.59023	0.711314	2.24141	0.317694	3.6329	0.86337	2.74554			0.777156	2.46436	0.914866	2.90182				
0.816675	2.58797	0.713767	2.24082	0.317178	3.67653	0.866115	2.74398			0.780173	2.46472	0.916931	2.89753				
0.819009	2.58571	0.716221	2.24023	0.3167	3.72184	0.868874	2.74248			0.783194	2.46509	0.918991	2.89327				
0.821335	2.58345	0.718676	2.23966	0.316261	3.76888	0.871646	2.74104			0.786219	2.46546	0.921045	2.88902				
0.823655	2.58117	0.72113	2.23908	0.315861	3.81773	0.874432	2.73965			0.789249	2.46585	0.923095	2.88478				
0.825969	2.5789	0.723586	2.23851	0.315498	3.86845	0.877231	2.7383			0.792283	2.46625	0.925141	2.88057				
0.828278	2.57663	0.726042	2.23795	0.315172	3.92112	0.880041	2.73701			0.79532	2.46665	0.927182	2.87637				
0.830582	2.57436	0.728499	2.2374	0.314884	3.97582	0.882864	2.73576			0.798361	2.46707	0.929219	2.87219				
0.832881	2.57209	0.730956	2.23685	0.314632	4.03264	0.885698	2.73455			0.801406	2.46749	0.931252	2.86802				
0.835177	2.56983	0.733415	2.23631	0.314416	4.09168	0.888542	2.73339			0.804455	2.46792	0.93328	2.86388				
0.837469	2.56757	0.735874	2.23577	0.314236	4.15303	0.891397	2.73227			0.807507	2.46836	0.935305	2.85975				
0.839757	2.56532	0.738334	2.23524	0.314091	4.2168	0.894261	2.73118			0.810562	2.46881	0.937327	2.85564				
0.842044	2.56307	0.740796	2.23472	0.313981	4.28309	0.897135	2.73013			0.81362	2.46926	0.939344	2.85155				
0.844328	2.56084	0.743259	2.23421	0.313906	4.35203	0.900018	2.72912			0.816682	2.46972	0.941358	2.84747				
0.84661	2.55862	0.745722	2.2337	0.313865	4.42374	0.90291	2.72814			0.819747	2.47018	0.94337	2.84342				
0.848891	2.5564	0.748187	2.2332	0.313859	4.49837	0.905809	2.72719			0.822814	2.47065	0.945377	2.83939				
0.851171	2.5542	0.750653	2.23271	0.313886	4.57605	0.908717	2.72627			0.825885	2.47113	0.947382	2.83537				
0.85345	2.55202	0.753121	2.23222	0.313946	4.65694	0.911632	2.72538			0.828958	2.47161	0.949385	2.83138				
0.855729	2.54985	0.75559	2.23175	0.314039	4.74121	0.914554	2.72451			0.832034	2.47209	0.951384	2.8274				
0.858008	2.54769	0.75806	2.23128	0.314165	4.82903	0.917483	2.72368			0.835113	2.47258	0.953381	2.82345				
0.860288	2.54555	0.760532	2.23081	0.314324	4.92061	0.920418	2.72286			0.838194	2.47308	0.955376	2.81952				
0.862567	2.54343	0.763005	2.23036	0.314515	5.01613	0.92336	2.72208			0.841278	2.47357	0.957368	2.8156				
0.864848	2.54132	0.76548	2.22991	0.314737	5.11584	0.926307	2.72131			0.844364	2.47407	0.959359	2.81171				
0.86713	2.53923	0.767956	2.22947	0.314991	5.21996	0.92926	2.72057			0.847452	2.47458	0.961347	2.80784				
0.869414	2.53717	0.770434	2.22904	0.315276	5.32875	0.932219	2.71984			0.850543	2.47509	0.963334	2.80399				
0.871699	2.53512	0.772913	2.22861	0.315591	5.44249	0.935182	2.71914			0.853636	2.4756	0.965319	2.80017				
0.873986	2.53308	0.775394	2.22819	0.315938	5.5615	0.93815	2.71845			0.856731	2.47611	0.967303	2.79636				
0.876275	2.53107	0.777877	2.22778	0.316314	5.68608	0.941123	2.71779			0.859829	2.47663	0.969285	2.79258				
0.878566	2.52908	0.780361	2.22738	0.31672	5.81661	0.9441	2.71714			0.862928	2.47715	0.971266	2.78882				
0.88086	2.52711	0.782847	2.22698	0.317156	5.95346	0.947082	2.7165			0.866029	2.47767	0.973246	2.78508				
0.883157	2.52517	0.785334	2.22659	0.31762	6.09706	0.950067	2.71589			0.869132	2.47819	0.975225	2.78136				
0.885457	2.52324	0.787824	2.22621	0.318114	6.24788	0.953056	2.71528			0.872238	2.47871	0.977203	2.77767				
0.88776	2.52133	0.790315	2.22584	0.318636	6.40641	0.956048	2.71469			0.875345	2.47924	0.979181	2.77399				
0.890066	2.51945	0.792807	2.22547	0.319186	6.57322	0.959044	2.71412			0.878453	2.47977	0.981158	2.77034				
0.892376	2.51759	0.795302	2.22511	0.319763	6.74891	0.962043	2.71356			0.881564	2.4803	0.983134	2.76672				
0.894689	2.51575	0.797798	2.22476	0.320368	6.93415	0.965045	2.71301			0.884676	2.48083	0.98511	2.76312				
0.897006	2.51394	0.800296	2.22442	0.320999	7.12969	0.96805	2.71247			0.88779	2.48136	0.987086	2.75954				
0.899327	2.51214	0.802796	2.22408	0.321657	7.33634	0.971058	2.71194			0.890905	2.48189	0.989062	2.75598				
0.901651	2.51037	0.805297	2.22375	0.322252	7.52619	0.974068	2.71142			0.894022	2.48242	0.991038	2.75245				
0.90398	2.50862	0.8078	2.22343	0.322774	7.69574	0.977081	2.71091			0.897141	2.48296	0.993014	2.74894				
0.906313	2.5069	0.810305	2.22311	0.323217	7.84163	0.980096	2.71042			0.900261	2.48349	0.99499	2.74545				
0.908651	2.5052	0.812812	2.2228	0.323573	7.96084	0.983113	2.70993			0.903382	2.48403	0.996967	2.74199				
0.910993	2.50352	0.815321	2.2225	0.323839	8.05075	0.986132	2.70945			0.906505	2.48456	0.998944	2.73855				
0.913339	2.50187	0.817831	2.2222	0.324086	8.13521	0.989153	2.70898			0.909629	2.4851	1.00092	2.73514				
0.91569	2.50024	0.820343	2.22191	0.32426	8.19498	0.992175	2.70851			0.912755	2.48564						
0.918046	2.49863	0.822857	2.22163	0.324534	8.29009	0.9952	2.70806			0.915882	2.48617						
0.920407	2.49704	0.825373	2.22136	0.324911	8.42289	0.998226	2.70761			0.91901	2.48671						
0.922773	2.49548	0.82789	2.22109	0.325396	8.5968	1.00125	2.70716			0.92214	2.48724						
0.925143	2.49395	0.830409	2.22082	0.325995	8.81654					0.92527	2.48778						
0.927519	2.49243	0.832931	2.22057	0.326713	9.0884					0.928402	2.48832						
0.929899	2.49094	0.835453	2.22032	0.327559	9.42077					0.931535	2.48885						
0.932285	2.48947	0.837978	2.22007	0.328427	9.77712					0.934669	2.48939						
0.934676	2.48803	0.840504	2.21983	0.329316	10.16					0.937804	2.48992						
0.937072	2.48661	0.843032	2.2196	0.330225	10.5725					0.940941	2.49046						
0.939474	2.48521	0.845562	2.21938	0.331155	11.018					0.944078	2.49099						
0.941881	2.48383	0.848093	2.21916	0.332103	11.5005					0.947216	2.49152						
0.944293	2.48248	0.850626	2.21894	0.33307	12.0247					0.950356	2.49206						
0.946711	2.48115	0.853161	2.21873	0.334053	12.5961					0.953496	2.49259						
0.949134	2.47984	0.855698	2.21853	0.335053	13.2214					0.956638	2.49312						
0.951563	2.47855	0.858236	2.21833	0.336068	13.9082					0.95978	2.49365						
0.953998	2.47729	0.860776	2.21814	0.337095	14.666					0.962923	2.49418						
0.956438	2.47605	0.863318	2.21796	0.338135	15.5063					0.966067	2.49471						
0.958883	2.47483	0.865861	2.21777	0.339185	16.4432					0.969212	2.49523						
0.961335	2.47363	0.868406	2.2176	0.340243	17.4939					0.972357	2.49576						
0.963791	2.47245	0.870953	2.21743	0.341306	18.6805					0.975504	2.49629						
0.966254	2.4713	0.873501	2.21726	0.342372	20.0309					0.978651	2.49681						
0.968722	2.47017	0.876051	2.2171	0.343437	21.5812					0.981799	2.49733						
0.971196	2.46906	0.878602	2.21695	0.344497	23.3792					0.984948	2.49785						
0.973676	2.46797	0.881155	2.2168	0.345547	25.4891					0.988098	2.49837						
0.976161	2.4669	0.88371	2.21665	0.346582	27.9995					0.991248	2.49889						
0.978652	2.46585	0.886266	2.21651	0.347593	31.0361					0.994399	2.49941						
0.981149	2.46482	0.888823	2.21638	0.348573	34.7838					0.997551	2.49993						
0.983652	2.46381	0.891383	2.21624	0.34951	39.5256					1.0007	2.50044						
0.98616	2.46283	0.893943	2.21612	0.350392	45.7185												
0.988674	2.46186	0.896505	2.216	0.351203	54.1511												
0.991194	2.46091	0.899069	2.21588	0.351925	66.3121												
0.99372	2.45998	0.901634	2.21576	0.352538	85.3897												
0.996251	2.45908	0.904201	2.21565	0.353023	119.666												
0.998788	2.45819	0.906769	2.21555	0.353359	199.462												
1.00133	2.45732	0.909338	2.21545	0.353531	596.127												
		0.911909	2.21535														
		0.914481	2.21526														
		0.917055	2.21517														
		0.91963	2.21508														
		0.922206	2.215														
		0.924784	2.21492														
		0.927363	2.21485														
		0.929943	2.21477														
		0.932525	2.21471														
		0.935107	2.21464														
		0.937692	2.21458														
		0.940277	2.21452														
		0.942863	2.21447														
		0.945451	2.21442														
		0.94804	2.21437														
		0.95063	2.21432														
		0.953221	2.21428														
		0.955813	2.21424														
		0.958406	2.2142														
		0.961	2.21417														
		0.963596	2.21413														
		0.966192	2.2141														
		0.96879	2.21408														
		0.971388	2.21405														
		0.973988	2.21403														
		0.976589	2.21401														
		0.97919	2.21399														
		0.981792	2.21398														
		0.984396	2.21396														
		0.987	2.21395														
		0.989605	2.21394														
		0.992211	2.21394														
		0.994818	2.21393														
		0.997426	2.21393														
		1.00003	2.21393														
