Sym0		Asym0		Sym1		Sym2		Sym3		Asym1		Asym2		Asym3		Asym4	
336  Points		376  Points		335  Points		319  Points		234  Points		345  Points		297  Points		227  Points		112  Points	
Freq (MHz)	Vph (m/ms)	Freq (MHz)	Vph (m/ms)	Freq (MHz)	Vph (m/ms)	Freq (MHz)	Vph (m/ms)	Freq (MHz)	Vph (m/ms)	Freq (MHz)	Vph (m/ms)	Freq (MHz)	Vph (m/ms)	Freq (MHz)	Vph (m/ms)	Freq (MHz)	Vph (m/ms)
0.35355	581.8	0.00031896	0.110359	1.00027	2.57647	0.441278	697.506	0.707109	910.079	0.176794	258.34	0.53033	3490.47	0.88248	1379.37	0.884047	826.796
0.353525	197.921	0.000630959	0.155075	0.997806	2.57793	0.441337	243.676	0.707121	361.609	0.176905	94.9645	0.530336	398.614	0.882155	485.159	0.884461	393.486
0.353475	119.228	0.00104705	0.199543	0.995336	2.57941	0.441452	147.659	0.707143	225.636	0.17712	58.2368	0.530349	211.382	0.881721	294.221	0.884965	258.288
0.3534	85.296	0.00156567	0.243655	0.992865	2.58088	0.441623	105.951	0.707175	163.982	0.177436	42.0475	0.530372	143.831	0.881257	211.064	0.88551	192.302
0.353301	66.3885	0.00218524	0.28737	0.990392	2.58237	0.44185	82.6398	0.707217	128.795	0.177852	32.9454	0.530403	109.002	0.880787	164.516	0.886079	153.214
0.353179	54.3332	0.00290367	0.330609	0.987917	2.58385	0.442132	67.7576	0.70727	106.045	0.178369	27.1204	0.530442	87.7562	0.880321	134.764	0.886665	127.361
0.353034	45.9755	0.00371864	0.373309	0.985441	2.58535	0.442469	57.4357	0.707332	90.1285	0.178982	23.0783	0.53049	73.4445	0.87986	114.107	0.887267	108.997
0.352867	39.8393	0.00462777	0.415427	0.982961	2.58684	0.442859	49.859	0.707405	78.3693	0.179691	20.1134	0.530546	63.1489	0.879409	98.9284	0.887883	95.2785
0.352679	35.1422	0.00562839	0.456913	0.98048	2.58834	0.443302	44.0626	0.707488	69.3271	0.180494	17.8487	0.530611	55.3872	0.878966	87.3042	0.888512	84.6417
0.35247	31.4305	0.00671754	0.497713	0.977995	2.58983	0.443797	39.4864	0.707581	62.1581	0.181387	16.0648	0.530685	49.3269	0.878534	78.1171	0.889153	76.1532
0.352243	28.4232	0.00789245	0.537804	0.975507	2.59133	0.444343	35.7828	0.707685	56.335	0.182368	14.6252	0.530767	44.4638	0.878111	70.6736	0.889807	69.2222
0.351998	25.9369	0.00914995	0.577144	0.973015	2.59283	0.444938	32.725	0.707799	51.5115	0.183434	13.4404	0.530858	40.4754	0.8777	64.5206	0.890472	63.4562
0.351736	23.8468	0.010487	0.615712	0.970519	2.59433	0.445582	30.1583	0.707922	47.4507	0.184582	12.4495	0.530957	37.1453	0.877298	59.3495	0.89115	58.5844
0.351458	22.065	0.0119005	0.653485	0.968019	2.59582	0.446273	27.9737	0.708057	43.9852	0.18581	11.6095	0.531065	34.323	0.876908	54.9427	0.891839	54.414
0.351167	20.5278	0.0133873	0.690447	0.965515	2.59731	0.447009	26.0924	0.708201	40.993	0.187113	10.8891	0.531182	31.9007	0.876528	51.1425	0.89254	50.8037
0.350862	19.1882	0.0149444	0.72659	0.963006	2.5988	0.44779	24.4556	0.708356	38.3836	0.188309	10.3407	0.531308	29.7992	0.876159	47.832	0.893252	47.6479
0.350546	18.0101	0.0165687	0.761906	0.960492	2.60029	0.448615	23.0191	0.708521	36.088	0.18937	9.92196	0.531442	27.9587	0.875801	44.9222	0.893976	44.8661
0.35022	16.9661	0.0182571	0.796389	0.957972	2.60177	0.449481	21.7484	0.708696	34.0528	0.190276	9.6051	0.531585	26.3335	0.875454	42.3447	0.894711	42.3955
0.349885	16.0344	0.0200069	0.830042	0.955446	2.60324	0.450387	20.6166	0.708882	32.2363	0.19101	9.37136	0.531737	24.8881	0.875117	40.0457	0.895458	40.1867
0.349543	15.1979	0.021815	0.862868	0.952914	2.60471	0.451333	19.6024	0.709078	30.605	0.191559	9.20816	0.531898	23.5942	0.874792	37.9824	0.896216	38.2003
0.349195	14.4427	0.0236787	0.894872	0.950376	2.60616	0.452317	18.6886	0.709284	29.1321	0.191915	9.10734	0.532068	22.4292	0.874477	36.1205	0.896985	36.4044
0.348842	13.7575	0.0255954	0.926063	0.947831	2.60761	0.453337	17.861	0.709501	27.7956	0.192433	8.96711	0.532247	21.3748	0.874173	34.4318	0.897766	34.7729
0.348486	13.1331	0.0275626	0.956453	0.945279	2.60905	0.454392	17.1082	0.709729	26.5774	0.193002	8.82067	0.532435	20.4161	0.87388	32.8934	0.898558	33.2843
0.348127	12.5617	0.0295776	0.986054	0.942719	2.61048	0.455482	16.4206	0.709966	25.4626	0.19379	8.63086	0.532632	19.5406	0.873598	31.4861	0.899362	31.9206
0.347767	12.0368	0.0316384	1.01488	0.940152	2.61189	0.456604	15.7902	0.710215	24.4385	0.194805	8.40509	0.532838	18.738	0.873326	30.1938	0.900177	30.6667
0.347408	11.5531	0.0337425	1.04295	0.937576	2.61329	0.457757	15.2102	0.710473	23.4947	0.196063	8.15143	0.533054	17.9996	0.873066	29.003	0.901003	29.5101
0.34705	11.106	0.0358877	1.07027	0.934993	2.61468	0.458941	14.6749	0.710743	22.622	0.197576	7.87799	0.533278	17.318	0.872816	27.9024	0.90184	28.4398
0.346695	10.6914	0.0380722	1.09686	0.9324	2.61605	0.460154	14.1793	0.711022	21.8127	0.199362	7.59244	0.533512	16.687	0.872576	26.8819	0.902688	27.4465
0.346343	10.306	0.0402938	1.12275	0.929799	2.61741	0.461396	13.7194	0.711313	21.0602	0.201199	7.33324	0.533755	16.1011	0.872348	25.9333	0.903548	26.5222
0.345996	9.94684	0.0425509	1.14794	0.927189	2.61875	0.462664	13.2913	0.711614	20.3587	0.203083	7.09706	0.534008	15.5557	0.87213	25.0493	0.904419	25.6601
0.345655	9.6114	0.0448415	1.17246	0.924569	2.62007	0.463959	12.892	0.711926	19.7033	0.205012	6.88108	0.534271	15.0468	0.871923	24.2234	0.9053	24.8541
0.34532	9.29742	0.0471642	1.19633	0.92194	2.62137	0.465278	12.5187	0.712248	19.0896	0.206984	6.68291	0.534542	14.5708	0.871726	23.4501	0.906193	24.0989
0.344994	9.00296	0.0495172	1.21956	0.919301	2.62266	0.466622	12.169	0.712581	18.5137	0.208996	6.50052	0.534824	14.1248	0.87154	22.7247	0.907097	23.3899
0.344676	8.72629	0.0518993	1.24217	0.916652	2.62392	0.467989	11.8408	0.712925	17.9724	0.211046	6.33218	0.535115	13.7059	0.871365	22.0428	0.908012	22.723
0.344367	8.46588	0.0543088	1.26418	0.913993	2.62517	0.469378	11.532	0.71328	17.4625	0.213132	6.17639	0.535416	13.3118	0.8712	21.4006	0.908938	22.0945
0.344069	8.22038	0.0567444	1.28561	0.911324	2.62639	0.470788	11.2412	0.713645	16.9815	0.215253	6.03184	0.535727	12.9403	0.871046	20.7948	0.909875	21.5013
0.343782	7.98859	0.0592051	1.30648	0.908645	2.62759	0.472219	10.9668	0.714022	16.527	0.217406	5.89741	0.536048	12.5897	0.870902	20.2224	0.910823	20.9406
0.343507	7.76943	0.0616895	1.32679	0.905955	2.62878	0.47367	10.7074	0.714409	16.0969	0.219589	5.77211	0.536379	12.2582	0.870769	19.6808	0.911782	20.4096
0.343244	7.56193	0.0641964	1.34658	0.903255	2.62993	0.475141	10.4619	0.714807	15.6892	0.221801	5.65507	0.53672	11.9443	0.870646	19.1674	0.912751	19.9062
0.342996	7.36522	0.0667249	1.36585	0.900545	2.63107	0.476437	10.2585	0.715217	15.3024	0.22404	5.54553	0.537071	11.6466	0.870533	18.6803	0.913732	19.4282
0.342761	7.17852	0.0692741	1.38463	0.897824	2.63219	0.477552	10.0923	0.715637	14.9348	0.226305	5.44282	0.537433	11.364	0.870431	18.2174	0.914723	18.9738
0.342541	7.00111	0.0718428	1.40293	0.895093	2.63328	0.478482	9.95956	0.716068	14.5851	0.228594	5.34634	0.537805	11.0954	0.870339	17.777	0.915725	18.5414
0.342336	6.83236	0.0744301	1.42076	0.892351	2.63434	0.479221	9.8575	0.716511	14.252	0.230906	5.25555	0.538187	10.8398	0.870258	17.3575	0.916737	18.1293
0.342148	6.67167	0.0770354	1.43814	0.889599	2.63539	0.479768	9.78403	0.716965	13.9344	0.233239	5.16998	0.53858	10.5961	0.870186	16.9575	0.917761	17.7361
0.341976	6.51852	0.0796577	1.45508	0.886837	2.63641	0.480118	9.73769	0.717429	13.6312	0.235593	5.0892	0.538931	10.3931	0.870125	16.5756	0.918795	17.3607
0.341821	6.37242	0.0822963	1.47159	0.884065	2.63741	0.480624	9.67198	0.717906	13.3415	0.237966	5.01284	0.539237	10.2263	0.870074	16.2107	0.919839	17.0019
0.341684	6.23293	0.0849505	1.4877	0.881284	2.63839	0.481175	9.60175	0.718393	13.0644	0.240357	4.94055	0.539494	10.0926	0.870034	15.8617	0.920894	16.6585
0.341566	6.09963	0.0876196	1.50342	0.878492	2.63934	0.481929	9.50818	0.718892	12.7992	0.242764	4.87202	0.539701	9.98951	0.870003	15.5275	0.92196	16.3296
0.341465	5.97216	0.0903029	1.51875	0.87569	2.64027	0.482887	9.39292	0.719402	12.545	0.245188	4.80696	0.539854	9.91511	0.869983	15.2073	0.923036	16.0144
0.341385	5.85016	0.0929998	1.53371	0.87288	2.64118	0.484052	9.25794	0.719924	12.3013	0.247626	4.74514	0.539953	9.8681	0.869972	14.9001	0.924122	15.712
0.341324	5.73333	0.0957099	1.54831	0.870059	2.64207	0.48543	9.10544	0.720457	12.0674	0.250079	4.68631	0.540096	9.80136	0.869972	14.6053	0.925219	15.4216
0.341283	5.62136	0.0984324	1.56256	0.86723	2.64294	0.487025	8.93777	0.721002	11.8428	0.252545	4.63026	0.540253	9.72988	0.869981	14.3221	0.926326	15.1426
0.341262	5.51399	0.101167	1.57648	0.864392	2.64379	0.488632	8.77744	0.721558	11.6269	0.255024	4.57681	0.540469	9.63445	0.870001	14.0499	0.927443	14.8743
0.341263	5.41096	0.103913	1.59007	0.861545	2.64461	0.490253	8.62399	0.722127	11.4192	0.257514	4.52578	0.540745	9.51656	0.870031	13.7879	0.92857	14.6162
0.341284	5.31204	0.10667	1.60334	0.85869	2.64542	0.491887	8.47698	0.722706	11.2193	0.260015	4.47701	0.541085	9.37806	0.87007	13.5358	0.929708	14.3676
0.341328	5.21702	0.109438	1.61631	0.855826	2.6462	0.493532	8.33603	0.723298	11.0267	0.262526	4.43035	0.541492	9.22098	0.870119	13.2928	0.930856	14.128
0.341393	5.12569	0.112215	1.62898	0.852955	2.64697	0.495189	8.20078	0.723901	10.8411	0.265047	4.38567	0.54197	9.04753	0.870179	13.0586	0.932014	13.897
0.341468	5.04897	0.115003	1.64137	0.850075	2.64772	0.496857	8.07088	0.724437	10.6848	0.267578	4.34285	0.542458	8.88097	0.870248	12.8327	0.933181	13.6741
0.341546	4.98558	0.1178	1.65347	0.847188	2.64845	0.498535	7.94603	0.7249	10.5554	0.270116	4.30176	0.542959	8.7209	0.870326	12.6146	0.934359	13.4589
0.34162	4.93451	0.120606	1.66531	0.844294	2.64916	0.500224	7.82594	0.725289	10.4508	0.272662	4.26232	0.543471	8.56696	0.870415	12.404	0.935547	13.2511
0.341684	4.89497	0.12342	1.67689	0.841392	2.64985	0.501922	7.71035	0.725599	10.3698	0.275216	4.22441	0.543994	8.41881	0.870513	12.2005	0.936744	13.0502
0.341735	4.86636	0.126243	1.68821	0.838484	2.65053	0.50363	7.59901	0.725829	10.3111	0.277776	4.18795	0.54453	8.27615	0.870621	12.0038	0.937951	12.856
0.341769	4.84825	0.129074	1.69928	0.835569	2.65119	0.505347	7.4917	0.725977	10.2738	0.280342	4.15286	0.545077	8.13869	0.870738	11.8134	0.939168	12.668
0.341821	4.82248	0.131913	1.71012	0.832648	2.65184	0.507072	7.38819	0.726191	10.2209	0.282915	4.11905	0.545636	8.00616	0.870866	11.6292	0.940395	12.4861
0.341879	4.79484	0.134759	1.72073	0.82972	2.65247	0.508805	7.2883	0.726425	10.1639	0.285492	4.08646	0.546208	7.87832	0.871002	11.4508	0.941631	12.3099
0.341964	4.75783	0.137612	1.73111	0.826786	2.65309	0.510547	7.19183	0.726746	10.0876	0.288075	4.05502	0.546792	7.75492	0.871149	11.278	0.942877	12.1391
0.342079	4.71196	0.140472	1.74127	0.823847	2.65369	0.512295	7.09862	0.727155	9.9929	0.290662	4.02467	0.547388	7.63574	0.871304	11.1105	0.944132	11.9736
0.34223	4.65787	0.143339	1.75123	0.820902	2.65428	0.514051	7.0085	0.727657	9.88091	0.293253	3.99535	0.547997	7.5206	0.871448	10.9687	0.945396	11.8131
0.342424	4.59627	0.146212	1.76097	0.817951	2.65486	0.515814	6.92132	0.728253	9.75301	0.295847	3.96701	0.548618	7.40929	0.871576	10.8508	0.94667	11.6574
0.342669	4.52794	0.149091	1.77052	0.814995	2.65542	0.517583	6.83694	0.72895	9.61065	0.298445	3.93959	0.549252	7.30164	0.871686	10.7552	0.947954	11.5062
0.34294	4.46203	0.151976	1.77988	0.812035	2.65597	0.519358	6.75523	0.729658	9.4728	0.301046	3.91304	0.549899	7.19747	0.871775	10.6809	0.949246	11.3594
0.343234	4.39842	0.154868	1.78904	0.809069	2.65651	0.521139	6.67606	0.73038	9.33927	0.30365	3.88734	0.550558	7.09664	0.871842	10.6269	0.950548	11.2168
0.343555	4.33702	0.157764	1.79802	0.806099	2.65704	0.522925	6.59931	0.731113	9.20987	0.306255	3.86242	0.551231	6.99899	0.871886	10.5926	0.951689	11.0958
0.3439	4.27774	0.160666	1.80683	0.803124	2.65756	0.524717	6.52488	0.731859	9.0844	0.308863	3.83826	0.551917	6.90439	0.871949	10.5438	0.952668	10.9949
0.344271	4.22049	0.163573	1.81546	0.800145	2.65807	0.526513	6.45266	0.732618	8.9627	0.311472	3.81482	0.552616	6.8127	0.87202	10.4913	0.953481	10.9131
0.344668	4.16517	0.166485	1.82392	0.797162	2.65857	0.528315	6.38255	0.733389	8.84462	0.314083	3.79205	0.553329	6.72379	0.872117	10.4207	0.954126	10.8494
0.34509	4.11172	0.169402	1.83223	0.794175	2.65906	0.53012	6.31446	0.734173	8.72999	0.316695	3.76995	0.554055	6.63756	0.872243	10.3328	0.954602	10.8032
0.345539	4.06006	0.172324	1.84037	0.791184	2.65954	0.53193	6.24831	0.734969	8.61869	0.319307	3.74846	0.554795	6.5539	0.872401	10.2286	0.954907	10.7738
0.346015	4.01012	0.17525	1.84835	0.78819	2.66001	0.533744	6.184	0.735779	8.51056	0.32192	3.72756	0.555549	6.47268	0.872592	10.1091	0.955346	10.7318
0.346517	3.96183	0.17818	1.85619	0.785191	2.66047	0.535561	6.12147	0.736601	8.40549	0.324533	3.70723	0.556316	6.39383	0.87282	9.97554	0.955825	10.6867
0.347046	3.91512	0.181115	1.86388	0.78219	2.66093	0.537382	6.06065	0.737436	8.30336	0.327146	3.68743	0.557098	6.31725	0.873058	9.84564	0.956478	10.626
0.347602	3.86994	0.184054	1.87142	0.779185	2.66137	0.539206	6.00145	0.738284	8.20404	0.329759	3.66816	0.557893	6.24284	0.873304	9.71925	0.957307	10.5503
0.348185	3.82623	0.186997	1.87883	0.776177	2.66181	0.541032	5.94381	0.739145	8.10744	0.332371	3.64938	0.558703	6.17053	0.87356	9.59623	0.958313	10.4605
0.348796	3.78393	0.189943	1.8861	0.773166	2.66225	0.542862	5.88768	0.740019	8.01344	0.334983	3.63106	0.559527	6.10023	0.873826	9.47646	0.9595	10.3573
0.349434	3.743	0.192893	1.89324	0.770152	2.66268	0.544694	5.83299	0.740907	7.92195	0.337593	3.6132	0.560366	6.03187	0.8741	9.35981	0.96087	10.2418
0.3501	3.70339	0.195847	1.90025	0.767136	2.6631	0.546528	5.77969	0.741807	7.83287	0.340202	3.59577	0.561219	5.96538	0.874383	9.24616	0.962248	10.1293
0.350794	3.66505	0.198804	1.90714	0.764116	2.66351	0.548364	5.72772	0.742721	7.74613	0.34281	3.57876	0.562087	5.90069	0.874676	9.13541	0.963635	10.0196
0.351517	3.62793	0.201765	1.9139	0.761095	2.66392	0.550201	5.67704	0.743648	7.66163	0.345416	3.56214	0.562969	5.83773	0.874977	9.02744	0.965031	9.91263
0.352269	3.59199	0.204729	1.92055	0.75807	2.66433	0.552041	5.62758	0.744588	7.57929	0.348021	3.5459	0.563867	5.77645	0.875288	8.92216	0.966435	9.80832
0.353049	3.5572	0.207696	1.92708	0.755044	2.66473	0.553881	5.57932	0.745542	7.49903	0.350623	3.53003	0.56478	5.71678	0.875608	8.81948	0.967847	9.70655
0.353858	3.52351	0.210666	1.93349	0.752015	2.66512	0.555723	5.5322	0.746509	7.4208	0.353223	3.51451	0.565707	5.65867	0.875937	8.71928	0.969267	9.60725
0.354696	3.4909	0.213639	1.9398	0.748984	2.66551	0.557566	5.48618	0.747489	7.3445	0.355821	3.49932	0.566651	5.60206	0.876274	8.62151	0.970695	9.51031
0.355564	3.45932	0.216615	1.94599	0.745951	2.6659	0.55941	5.44122	0.748483	7.27008	0.358416	3.48446	0.567609	5.54691	0.876621	8.52606	0.972132	9.41567
0.356463	3.42874	0.219593	1.95208	0.742916	2.66628	0.561254	5.39729	0.749491	7.19748	0.361008	3.4699	0.568583	5.49316	0.876977	8.43286	0.973577	9.32324
0.357391	3.39914	0.222575	1.95807	0.739879	2.66666	0.563099	5.35435	0.750512	7.12663	0.363597	3.45565	0.569572	5.44078	0.877341	8.34183	0.975029	9.23295
0.35835	3.37048	0.225175	1.96321	0.73684	2.66704	0.564944	5.31236	0.751547	7.05748	0.366183	3.44168	0.570578	5.3897	0.877715	8.2529	0.976489	9.14473
0.359339	3.34273	0.227393	1.96753	0.7338	2.66741	0.566789	5.2713	0.752596	6.98997	0.368766	3.42798	0.571599	5.3399	0.878097	8.16601	0.977958	9.0585
0.36036	3.31587	0.229228	1.97106	0.730758	2.66778	0.568634	5.23112	0.753658	6.92405	0.371346	3.41455	0.572636	5.29133	0.878488	8.08108	0.979433	8.97421
0.361412	3.28988	0.230679	1.97383	0.727714	2.66815	0.570479	5.1918	0.754734	6.85966	0.373921	3.40138	0.573689	5.24396	0.878888	7.99805	0.980917	8.89178
0.362497	3.26473	0.231747	1.97585	0.724669	2.66852	0.572323	5.15332	0.755824	6.79677	0.376493	3.38845	0.574758	5.19774	0.879297	7.91687	0.982408	8.81117
0.363613	3.24039	0.232431	1.97713	0.721623	2.66888	0.574167	5.11564	0.756928	6.73531	0.379061	3.37575	0.575843	5.15264	0.879715	7.83747	0.983906	8.73231
0.364763	3.21685	0.233413	1.97898	0.718575	2.66924	0.576011	5.07873	0.758045	6.67526	0.381625	3.36329	0.576945	5.10863	0.880141	7.75979	0.985412	8.65514
0.365946	3.19409	0.234482	1.98097	0.715526	2.6696	0.577853	5.04258	0.759177	6.61655	0.384185	3.35104	0.578063	5.06566	0.880576	7.68379	0.986925	8.57963
0.367162	3.17208	0.235936	1.98365	0.712475	2.66996	0.579695	5.00716	0.760322	6.55917	0.38674	3.33901	0.579198	5.02373	0.88102	7.60941	0.988446	8.5057
0.368413	3.1508	0.237775	1.98702	0.709424	2.67032	0.581535	4.97244	0.761482	6.50305	0.389291	3.32718	0.580349	4.98278	0.881473	7.53661	0.989974	8.43332
0.369699	3.13025	0.24	1.99105	0.706371	2.67068	0.583374	4.9384	0.762655	6.44817	0.391837	3.31554	0.581517	4.94279	0.881934	7.46533	0.991508	8.36244
0.37102	3.1104	0.242612	1.99572	0.703318	2.67104	0.585212	4.90502	0.763842	6.39449	0.394379	3.3041	0.582702	4.90374	0.882404	7.39553	0.99305	8.29302
0.372377	3.09123	0.245611	2.00099	0.700263	2.67139	0.587049	4.87229	0.765043	6.34198	0.396915	3.29284	0.583903	4.86559	0.882883	7.32717	0.994599	8.225
0.373771	3.07274	0.248612	2.00618	0.697208	2.67175	0.588884	4.84018	0.766258	6.2906	0.399447	3.28175	0.585122	4.82833	0.88337	7.26021	0.996154	8.15836
0.375201	3.0549	0.251615	2.01128	0.694152	2.6721	0.590717	4.80866	0.767487	6.24031	0.401973	3.27084	0.586357	4.79193	0.883866	7.1946	0.997717	8.09304
0.37667	3.03771	0.25462	2.01631	0.691094	2.67246	0.592548	4.77774	0.76873	6.19109	0.404495	3.2601	0.58761	4.75635	0.884371	7.1303	0.999286	8.02901
0.378177	3.02115	0.257627	2.02126	0.688037	2.67282	0.594378	4.74738	0.769987	6.14291	0.407011	3.24951	0.58888	4.72159	0.884884	7.06729	1.00086	7.96624
0.379723	3.00521	0.260636	2.02613	0.684978	2.67317	0.596206	4.71757	0.771258	6.09574	0.409521	3.23908	0.590166	4.68762	0.885406	7.00552		
0.381309	2.98987	0.263646	2.03092	0.681919	2.67353	0.598032	4.6883	0.772543	6.04955	0.412026	3.22879	0.591471	4.65441	0.885936	6.94495		
0.382935	2.97513	0.266658	2.03564	0.67886	2.67389	0.599855	4.65955	0.773843	6.00431	0.414526	3.21865	0.592792	4.62194	0.886475	6.88557		
0.384602	2.96097	0.269671	2.04029	0.675799	2.67425	0.601676	4.6313	0.775156	5.96	0.417019	3.20865	0.594131	4.5902	0.887022	6.82732		
0.38631	2.94738	0.272686	2.04487	0.672739	2.67461	0.603496	4.60354	0.776482	5.91659	0.419507	3.19879	0.595488	4.55917	0.887578	6.77019		
0.388061	2.93435	0.275702	2.04938	0.669678	2.67497	0.605312	4.57626	0.777823	5.87406	0.421989	3.18906	0.596862	4.52883	0.888143	6.71414		
0.389854	2.92187	0.27872	2.05382	0.666616	2.67534	0.607127	4.54944	0.779178	5.83238	0.424466	3.17946	0.598253	4.49915	0.888716	6.65914		
0.391689	2.90993	0.28174	2.05819	0.663555	2.67571	0.608939	4.52307	0.780547	5.79154	0.426936	3.16998	0.599662	4.47013	0.889297	6.60517		
0.393568	2.89851	0.28476	2.0625	0.660493	2.67608	0.610748	4.49715	0.781929	5.7515	0.4294	3.16062	0.601089	4.44174	0.889887	6.5522		
0.39549	2.8876	0.287782	2.06675	0.65743	2.67645	0.612555	4.47164	0.783326	5.71225	0.431858	3.15137	0.602533	4.41398	0.890486	6.5002		
0.397456	2.8772	0.290805	2.07093	0.654368	2.67683	0.614359	4.44656	0.784736	5.67378	0.43431	3.14224	0.603995	4.38681	0.891093	6.44915		
0.399465	2.86728	0.293829	2.07505	0.651306	2.67721	0.61616	4.42188	0.78616	5.63605	0.436756	3.13322	0.605474	4.36023	0.891708	6.39903		
0.401518	2.85784	0.296854	2.07911	0.648243	2.67759	0.617959	4.3976	0.787597	5.59905	0.439195	3.12431	0.606971	4.33423	0.892332	6.3498		
0.403614	2.84886	0.299881	2.08311	0.645181	2.67798	0.619755	4.3737	0.789048	5.56276	0.441629	3.1155	0.608486	4.30879	0.892964	6.30146		
0.405752	2.84032	0.302908	2.08706	0.642119	2.67837	0.621548	4.35017	0.790513	5.52716	0.444056	3.10679	0.610018	4.28389	0.893605	6.25397		
0.407932	2.83222	0.305937	2.09094	0.639056	2.67876	0.623339	4.32701	0.791991	5.49224	0.446476	3.09818	0.611568	4.25952	0.894254	6.20731		
0.410154	2.82454	0.308966	2.09478	0.635994	2.67916	0.625127	4.30421	0.793483	5.45798	0.448891	3.08967	0.613136	4.23567	0.894912	6.16147		
0.412416	2.81725	0.311996	2.09855	0.632932	2.67957	0.626911	4.28176	0.794989	5.42437	0.451299	3.08125	0.614721	4.21233	0.895578	6.11643		
0.414718	2.81035	0.315027	2.10228	0.629871	2.67998	0.628694	4.25964	0.796507	5.39137	0.453701	3.07292	0.616324	4.18948	0.896252	6.07216		
0.417059	2.80382	0.318059	2.10595	0.626809	2.68039	0.630473	4.23786	0.798039	5.35899	0.456096	3.06468	0.617945	4.16711	0.896935	6.02865		
0.419437	2.79765	0.321092	2.10956	0.623749	2.68081	0.632249	4.2164	0.799584	5.32721	0.458485	3.05653	0.619583	4.14522	0.897626	5.98588		
0.421852	2.79181	0.324125	2.11313	0.620688	2.68124	0.634023	4.19526	0.801142	5.29601	0.460868	3.04847	0.621238	4.12378	0.898325	5.94383		
0.424301	2.78629	0.327159	2.11665	0.617628	2.68167	0.635794	4.17442	0.802713	5.26537	0.463244	3.04048	0.622911	4.10279	0.899033	5.90249		
0.426785	2.78107	0.330194	2.12012	0.614569	2.68211	0.637562	4.15389	0.804298	5.23529	0.465614	3.03258	0.624601	4.08223	0.89975	5.86184		
0.4293	2.77614	0.333229	2.12354	0.61151	2.68256	0.639327	4.13365	0.805895	5.20575	0.467978	3.02476	0.626309	4.0621	0.900474	5.82186		
0.431847	2.77149	0.336265	2.12691	0.608452	2.68302	0.64109	4.1137	0.807504	5.17674	0.470336	3.01702	0.628033	4.04239	0.901207	5.78254		
0.434423	2.76709	0.339301	2.13024	0.605395	2.68348	0.64285	4.09403	0.809127	5.14825	0.472688	3.00936	0.629775	4.02308	0.901949	5.74386		
0.437027	2.76294	0.342338	2.13352	0.602338	2.68396	0.644607	4.07464	0.810762	5.12026	0.475033	3.00177	0.631534	4.00417	0.902699	5.70582		
0.439658	2.75902	0.345375	2.13675	0.599283	2.68444	0.646361	4.05552	0.812409	5.09276	0.477373	2.99425	0.63331	3.98565	0.903457	5.66838		
0.442314	2.75531	0.348413	2.13994	0.596228	2.68493	0.648113	4.03666	0.814069	5.06574	0.479707	2.98681	0.635102	3.96751	0.904223	5.63155		
0.444994	2.7518	0.351451	2.14309	0.593175	2.68543	0.649863	4.01807	0.815741	5.03919	0.482034	2.97944	0.636912	3.94973	0.904998	5.59531		
0.447697	2.74848	0.35449	2.1462	0.590122	2.68594	0.651609	3.99972	0.817426	5.0131	0.484356	2.97214	0.638738	3.93232	0.905781	5.55964		
0.450421	2.74534	0.357528	2.14926	0.587071	2.68646	0.653354	3.98163	0.819122	4.98745	0.486673	2.96491	0.640581	3.91526	0.906573	5.52454		
0.453165	2.74237	0.360567	2.15228	0.584021	2.687	0.655096	3.96377	0.82083	4.96225	0.488983	2.95775	0.64244	3.89854	0.907373	5.48999		
0.455929	2.73956	0.363606	2.15526	0.580973	2.68755	0.656835	3.94616	0.82255	4.93747	0.491288	2.95066	0.644315	3.88215	0.908181	5.45597		
0.45871	2.73689	0.366646	2.1582	0.577926	2.68811	0.658572	3.92878	0.824282	4.91311	0.493588	2.94364	0.646206	3.8661	0.908998	5.42249		
0.461508	2.73436	0.369685	2.1611	0.574881	2.68868	0.660307	3.91163	0.826025	4.88915	0.495882	2.93668	0.648114	3.85036	0.909823	5.38952		
0.464323	2.73196	0.372725	2.16396	0.571837	2.68927	0.66204	3.8947	0.827779	4.8656	0.498171	2.92979	0.650037	3.83494	0.910656	5.35706		
0.467152	2.72968	0.375764	2.16678	0.568795	2.68987	0.663771	3.878	0.829545	4.84243	0.500455	2.92296	0.651976	3.81982	0.911498	5.32509		
0.469995	2.72751	0.378804	2.16956	0.565755	2.69049	0.665499	3.86151	0.831322	4.81965	0.502734	2.9162	0.653931	3.805	0.912348	5.29361		
0.472852	2.72544	0.381844	2.17231	0.562717	2.69112	0.667226	3.84523	0.83311	4.79724	0.505008	2.9095	0.655901	3.79047	0.913207	5.26261		
0.475721	2.72348	0.384883	2.17502	0.559681	2.69177	0.668951	3.82917	0.834909	4.77519	0.507277	2.90286	0.657886	3.77622	0.914074	5.23207		
0.478601	2.72161	0.387923	2.17769	0.556647	2.69244	0.670673	3.8133	0.836719	4.7535	0.509542	2.89629	0.659886	3.76225	0.914949	5.20199		
0.481493	2.71983	0.390962	2.18033	0.553616	2.69313	0.672395	3.79764	0.838539	4.73216	0.511802	2.88978	0.661901	3.74856	0.915833	5.17236		
0.484395	2.71813	0.394001	2.18293	0.550587	2.69384	0.674114	3.78218	0.840369	4.71115	0.514058	2.88333	0.663931	3.73512	0.916725	5.14316		
0.487307	2.7165	0.39704	2.1855	0.547561	2.69457	0.675832	3.76691	0.84221	4.69049	0.516309	2.87694	0.665976	3.72195	0.917625	5.1144		
0.490228	2.71495	0.400079	2.18803	0.544538	2.69533	0.677548	3.75183	0.844061	4.67014	0.518557	2.87062	0.668034	3.70902	0.918534	5.08606		
0.493158	2.71346	0.403117	2.19053	0.541517	2.69611	0.679263	3.73694	0.845922	4.65012	0.520801	2.86435	0.670107	3.69634	0.919452	5.05813		
0.496096	2.71204	0.406156	2.19299	0.5385	2.69691	0.680977	3.72224	0.847793	4.6304	0.523041	2.85815	0.672193	3.68391	0.920378	5.03061		
0.499041	2.71068	0.409193	2.19543	0.535487	2.69774	0.682689	3.70771	0.849673	4.61099	0.525278	2.852	0.674294	3.6717	0.921312	5.00349		
0.501994	2.70937	0.412231	2.19783	0.532476	2.69859	0.684401	3.69337	0.851564	4.59188	0.527511	2.84592	0.676408	3.65973	0.922255	4.97675		
0.504953	2.70812	0.415268	2.20019	0.52947	2.69948	0.686111	3.6792	0.853463	4.57307	0.529741	2.83989	0.678535	3.64798	0.923206	4.9504		
0.507919	2.70692	0.418304	2.20253	0.526467	2.7004	0.68782	3.6652	0.855372	4.55453	0.531968	2.83393	0.680675	3.63644	0.924166	4.92443		
0.510891	2.70576	0.42134	2.20483	0.523469	2.70135	0.689529	3.65137	0.857289	4.53628	0.534192	2.82802	0.682828	3.62512	0.925134	4.89883		
0.513868	2.70465	0.424375	2.2071	0.520475	2.70233	0.691237	3.63772	0.859216	4.5183	0.536413	2.82217	0.684994	3.61401	0.92611	4.87358		
0.516851	2.70358	0.42741	2.20935	0.517486	2.70336	0.692944	3.62422	0.861151	4.50058	0.538632	2.81638	0.687172	3.6031	0.927096	4.8487		
0.519839	2.70255	0.430444	2.21156	0.514502	2.70442	0.69465	3.61089	0.863095	4.48313	0.540849	2.81065	0.689363	3.59238	0.928089	4.82416		
0.522832	2.70156	0.433478	2.21374	0.511524	2.70552	0.696356	3.59772	0.865048	4.46593	0.543063	2.80498	0.691565	3.58186	0.929091	4.79997		
0.525829	2.7006	0.43651	2.21589	0.50855	2.70667	0.698062	3.5847	0.867008	4.44899	0.545275	2.79937	0.69378	3.57153	0.930102	4.77611		
0.528831	2.69967	0.439542	2.21801	0.505583	2.70786	0.699767	3.57185	0.868977	4.43228	0.547486	2.79381	0.696006	3.56138	0.931121	4.75258		
0.531837	2.69878	0.442573	2.2201	0.502622	2.7091	0.701472	3.55914	0.870954	4.41582	0.549695	2.78832	0.698243	3.55141	0.932149	4.72938		
0.534846	2.69792	0.445603	2.22217	0.499668	2.7104	0.703178	3.54658	0.872938	4.3996	0.551902	2.78288	0.700491	3.54162	0.933186	4.7065		
0.537859	2.69708	0.448633	2.2242	0.496721	2.71175	0.704883	3.53418	0.874931	4.3836	0.554108	2.7775	0.70275	3.532	0.934231	4.68393		
0.540875	2.69627	0.451661	2.22621	0.493782	2.71315	0.706588	3.52192	0.87693	4.36783	0.556314	2.77217	0.70502	3.52254	0.935285	4.66167		
0.543895	2.69549	0.454688	2.22819	0.49085	2.71463	0.708294	3.5098	0.878937	4.35228	0.558518	2.76691	0.7073	3.51325	0.936347	4.63971		
0.546918	2.69473	0.457715	2.23014	0.487928	2.71616	0.71	3.49783	0.880951	4.33694	0.560722	2.7617	0.709591	3.50411	0.937418	4.61805		
0.549943	2.694	0.46074	2.23206	0.485014	2.71777	0.711706	3.486	0.882973	4.32182	0.562925	2.75655	0.711891	3.49513	0.938498	4.59668		
0.552971	2.69328	0.463764	2.23396	0.48211	2.71946	0.713413	3.4743	0.885001	4.3069	0.565127	2.75146	0.714201	3.4863	0.939586	4.5756		
0.556002	2.69259	0.466787	2.23582	0.479216	2.72122	0.715121	3.46274	0.887035	4.29218	0.56733	2.74643	0.716521	3.47762	0.940683	4.5548		
0.559035	2.69191	0.469808	2.23767	0.476332	2.72308	0.716829	3.45132	0.889076	4.27767	0.569533	2.74145	0.71885	3.46908	0.941789	4.53428		
0.562071	2.69126	0.472829	2.23948	0.473461	2.72502	0.718538	3.44003	0.891124	4.26334	0.571735	2.73653	0.721188	3.46068	0.942904	4.51403		
0.565109	2.69062	0.475848	2.24127	0.470602	2.72706	0.720249	3.42887	0.893178	4.24921	0.573939	2.73166	0.723534	3.45242	0.944027	4.49406		
0.568148	2.69	0.478865	2.24303	0.467755	2.7292	0.72196	3.41784	0.895238	4.23527	0.576143	2.72686	0.72589	3.44429	0.945159	4.47434		
0.57119	2.68939	0.481881	2.24477	0.464923	2.73146	0.723672	3.40694	0.897303	4.2215	0.578347	2.72211	0.728253	3.43629	0.9463	4.45489		
0.574233	2.6888	0.484896	2.24648	0.462106	2.73384	0.725386	3.39617	0.899375	4.20792	0.580553	2.71742	0.730625	3.42841	0.94745	4.4357		
0.577278	2.68823	0.487909	2.24816	0.459304	2.73634	0.727101	3.38551	0.901452	4.19451	0.58276	2.71278	0.733005	3.42066	0.948609	4.41675		
0.580325	2.68766	0.49092	2.24982	0.456519	2.73898	0.728817	3.37499	0.903534	4.18127	0.584968	2.7082	0.735393	3.41303	0.949776	4.39805		
0.583373	2.68711	0.49393	2.25145	0.453751	2.74176	0.730535	3.36458	0.905622	4.1682	0.587177	2.70368	0.737787	3.40552	0.950953	4.3796		
0.586423	2.68658	0.496938	2.25306	0.451003	2.7447	0.732255	3.35429	0.907715	4.15529	0.589388	2.69922	0.74019	3.39812	0.952138	4.36139		
0.589474	2.68605	0.499944	2.25464	0.448274	2.7478	0.733976	3.34413	0.909812	4.14254	0.591601	2.69481	0.742599	3.39084	0.953333	4.34341		
0.592526	2.68554	0.502949	2.2562	0.445567	2.75108	0.735699	3.33407	0.911915	4.12996	0.593817	2.69045	0.745015	3.38366	0.954536	4.32567		
0.595579	2.68503	0.505951	2.25774	0.442882	2.75454	0.737424	3.32414	0.914022	4.11752	0.596034	2.68616	0.747437	3.37659	0.955749	4.30816		
0.598633	2.68454	0.508952	2.25924	0.440221	2.75821	0.739151	3.31432	0.916134	4.10524	0.598254	2.68192	0.749866	3.36963	0.95697	4.29087		
0.601688	2.68406	0.51195	2.26073	0.437584	2.76209	0.740881	3.30461	0.91825	4.09311	0.600476	2.67773	0.752302	3.36276	0.958201	4.2738		
0.604745	2.68358	0.514947	2.26219	0.434974	2.76619	0.742612	3.29501	0.920371	4.08112	0.602701	2.6736	0.754743	3.35599	0.95944	4.25695		
0.607802	2.68312	0.517941	2.26362	0.432392	2.77053	0.744346	3.28552	0.922495	4.06928	0.604929	2.66953	0.757189	3.34932	0.960689	4.24032		
0.61086	2.68266	0.520933	2.26503	0.429839	2.77513	0.746082	3.27614	0.924624	4.05757	0.60716	2.66551	0.759642	3.34274	0.961947	4.2239		
0.613918	2.68221	0.523923	2.26642	0.427317	2.78	0.747821	3.26687	0.926756	4.046	0.609394	2.66155	0.762099	3.33626	0.963214	4.20769		
0.616977	2.68177	0.526911	2.26778	0.424827	2.78515	0.749562	3.25771	0.928892	4.03457	0.611632	2.65764	0.764562	3.32986	0.964491	4.19169		
0.620037	2.68133	0.529896	2.26912	0.42237	2.79061	0.751306	3.24865	0.931031	4.02327	0.613873	2.65379	0.76703	3.32355	0.965776	4.17589		
0.623098	2.6809	0.532878	2.27043	0.419948	2.79638	0.753052	3.23969	0.933174	4.01209	0.616118	2.65	0.769502	3.31732	0.967071	4.16029		
0.626158	2.68048	0.535859	2.27172	0.417562	2.80248	0.754802	3.23084	0.93532	4.00105	0.618366	2.64625	0.771979	3.31118	0.968375	4.14488		
0.62922	2.68006	0.538836	2.27299	0.415213	2.80893	0.756554	3.22208	0.937469	3.99013	0.620619	2.64257	0.774461	3.30511	0.969689	4.12968		
0.632281	2.67965	0.541811	2.27423	0.412903	2.81575	0.75831	3.21343	0.939621	3.97932	0.622876	2.63894	0.776946	3.29913	0.971012	4.11466		
0.635343	2.67925	0.544783	2.27545	0.410632	2.82295	0.760069	3.20488	0.941776	3.96864	0.625137	2.63536	0.779435	3.29322	0.972344	4.09983		
0.638405	2.67885	0.547752	2.27665	0.408401	2.83055	0.76183	3.19642	0.943933	3.95808	0.627403	2.63183	0.781928	3.28738	0.973686	4.08519		
0.641467	2.67845	0.550719	2.27782	0.406212	2.83857	0.763595	3.18807	0.946093	3.94763	0.629673	2.62836	0.784425	3.28162	0.975038	4.07073		
0.64453	2.67806	0.553682	2.27897	0.404065	2.84701	0.765364	3.1798	0.948256	3.93729	0.631949	2.62495	0.786925	3.27592	0.976399	4.05645		
0.647592	2.67767	0.556643	2.28009	0.40196	2.85589	0.767136	3.17164	0.950421	3.92706	0.634229	2.62159	0.789428	3.2703	0.977769	4.04235		
0.650654	2.67729	0.5596	2.2812	0.399898	2.86523	0.768911	3.16356	0.952588	3.91694	0.636514	2.61828	0.791934	3.26474	0.979149	4.02843		
0.653717	2.67691	0.562554	2.28227	0.39788	2.87505	0.770691	3.15558	0.954757	3.90693	0.638805	2.61502	0.794443	3.25925	0.980539	4.01468		
0.656779	2.67653	0.565505	2.28333	0.395905	2.88535	0.772473	3.14769	0.956928	3.89702	0.641101	2.61182	0.796955	3.25382	0.981938	4.00111		
0.659841	2.67616	0.568453	2.28436	0.393973	2.89615	0.77426	3.13989	0.9591	3.88721	0.643402	2.60867	0.799469	3.24846	0.983347	3.9877		
0.662903	2.67579	0.571397	2.28537	0.392085	2.90746	0.776051	3.13219	0.961275	3.8775	0.645709	2.60558	0.801985	3.24315	0.984766	3.97446		
0.665965	2.67542	0.574338	2.28635	0.39024	2.91929	0.777845	3.12457	0.963451	3.86789	0.648022	2.60253	0.804503	3.2379	0.986194	3.96138		
0.669027	2.67505	0.577275	2.28731	0.388438	2.93165	0.779644	3.11704	0.965628	3.85838	0.650341	2.59954	0.807024	3.23271	0.987633	3.94847		
0.672088	2.67469	0.580209	2.28825	0.386679	2.94456	0.781447	3.10959	0.967807	3.84896	0.652666	2.5966	0.809546	3.22758	0.989081	3.93571		
0.675148	2.67433	0.583138	2.28917	0.384962	2.95803	0.783253	3.10223	0.969987	3.83963	0.654997	2.59372	0.812069	3.2225	0.990539	3.92312		
0.678209	2.67397	0.586065	2.29006	0.383286	2.97207	0.785065	3.09496	0.972167	3.8304	0.657334	2.59088	0.814594	3.21747	0.992007	3.91068		
0.681268	2.67361	0.588987	2.29093	0.381651	2.98669	0.78688	3.08777	0.974349	3.82125	0.659678	2.5881	0.81712	3.2125	0.993485	3.8984		
0.684328	2.67325	0.591905	2.29178	0.380057	3.0019	0.7887	3.08067	0.976532	3.81219	0.662029	2.58537	0.819648	3.20757	0.994974	3.88626		
0.687386	2.67289	0.59482	2.2926	0.378502	3.01771	0.790525	3.07365	0.978716	3.80322	0.664386	2.58268	0.822176	3.20269	0.996472	3.87428		
0.690444	2.67253	0.59773	2.2934	0.376987	3.03414	0.792355	3.06671	0.9809	3.79433	0.66675	2.58005	0.824705	3.19787	0.99798	3.86245		
0.693501	2.67218	0.600636	2.29418	0.37551	3.05119	0.794189	3.05985	0.983084	3.78552	0.669121	2.57748	0.827235	3.19308	0.999499	3.85076		
0.696558	2.67182	0.603539	2.29493	0.374072	3.06889	0.796027	3.05307	0.98527	3.7768	0.671499	2.57495	0.829765	3.18834	1.00103	3.83922		
0.699614	2.67147	0.606436	2.29566	0.37267	3.08724	0.797871	3.04637	0.987455	3.76815	0.673884	2.57247	0.832295	3.18365				
0.702668	2.67111	0.60933	2.29637	0.371306	3.10626	0.79972	3.03975	0.989641	3.75958	0.676277	2.57004	0.834825	3.179				
0.705722	2.67075	0.612219	2.29706	0.369977	3.12597	0.801574	3.03321	0.991826	3.75109	0.678677	2.56766	0.837356	3.17439				
0.708775	2.6704	0.615104	2.29772	0.368684	3.14637	0.803433	3.02675	0.994012	3.74268	0.681084	2.56533	0.839886	3.16982				
0.711827	2.67004	0.617984	2.29836	0.367425	3.16749	0.805297	3.02036	0.996198	3.73434	0.683499	2.56305	0.842416	3.16529				
0.714877	2.66968	0.620859	2.29898	0.366202	3.18934	0.807166	3.01405	0.998383	3.72607	0.685922	2.56082	0.844946	3.1608				
0.717926	2.66932	0.62373	2.29957	0.365012	3.21195	0.809041	3.00782	1.00057	3.71787	0.688353	2.55863	0.847475	3.15634				
0.720975	2.66896	0.626596	2.30015	0.363855	3.23532	0.810922	3.00166			0.690791	2.5565	0.850003	3.15192				
0.724021	2.6686	0.629458	2.3007	0.362731	3.25949	0.812808	2.99557			0.693238	2.55441	0.85253	3.14754				
0.727067	2.66823	0.632314	2.30123	0.36164	3.28446	0.8147	2.98956			0.695692	2.55237	0.855057	3.14319				
0.730111	2.66786	0.635166	2.30173	0.360581	3.31028	0.816597	2.98362			0.698155	2.55038	0.857582	3.13888				
0.733153	2.66749	0.638013	2.30222	0.359554	3.33695	0.818501	2.97775			0.700626	2.54843	0.860106	3.13459				
0.736194	2.66712	0.640855	2.30268	0.358557	3.3645	0.82041	2.97195			0.703105	2.54654	0.862628	3.13034				
0.739233	2.66674	0.643692	2.30312	0.357592	3.39296	0.822326	2.96623			0.705592	2.54468	0.865149	3.12612				
0.74227	2.66636	0.646524	2.30354	0.356657	3.42236	0.824248	2.96058			0.708088	2.54288	0.867668	3.12193				
0.745306	2.66598	0.649351	2.30394	0.355753	3.45273	0.826176	2.95499			0.710593	2.54112	0.870186	3.11777				
0.748339	2.6656	0.652173	2.30431	0.354879	3.48409	0.82811	2.94948			0.713106	2.5394	0.872701	3.11363				
0.75137	2.66521	0.654989	2.30467	0.354034	3.51649	0.830051	2.94404			0.715627	2.53773	0.875215	3.10953				
0.7544	2.66481	0.657801	2.305	0.353218	3.54994	0.831999	2.93866			0.718157	2.5361	0.877726	3.10545				
0.757427	2.66441	0.660607	2.30532	0.352432	3.5845	0.833953	2.93335			0.720696	2.53452	0.880236	3.10139				
0.760452	2.66401	0.663408	2.30561	0.351675	3.62019	0.835914	2.92811			0.723244	2.53298	0.882742	3.09736				
0.763474	2.6636	0.666204	2.30588	0.350946	3.65705	0.837882	2.92294			0.7258	2.53149	0.885247	3.09336				
0.766494	2.66319	0.668995	2.30614	0.350245	3.69513	0.839858	2.91784			0.728365	2.53003	0.887748	3.08938				
0.769511	2.66277	0.671781	2.30637	0.349573	3.73447	0.84184	2.9128			0.730939	2.52862	0.890247	3.08542				
0.772525	2.66234	0.674561	2.30658	0.348929	3.77512	0.84383	2.90782			0.733521	2.52725	0.892744	3.08148				
0.775537	2.66191	0.677337	2.30678	0.348312	3.81712	0.845827	2.90292			0.736112	2.52592	0.895237	3.07757				
0.778546	2.66147	0.680107	2.30695	0.347723	3.86052	0.847832	2.89808			0.738713	2.52464	0.897727	3.07368				
0.781551	2.66102	0.682872	2.30711	0.347162	3.90538	0.849845	2.8933			0.741322	2.52339	0.900214	3.06981				
0.784553	2.66057	0.685632	2.30725	0.346627	3.95176	0.851865	2.88859			0.743939	2.52218	0.902698	3.06596				
0.787552	2.66011	0.688387	2.30737	0.346119	3.99971	0.853894	2.88394			0.746566	2.52101	0.905179	3.06213				
0.790548	2.65964	0.691136	2.30747	0.345638	4.0493	0.855931	2.87936			0.749201	2.51988	0.907657	3.05832				
0.793539	2.65916	0.693881	2.30755	0.345184	4.10059	0.857976	2.87484			0.751845	2.51879	0.910131	3.05452				
0.796527	2.65867	0.696621	2.30762	0.344755	4.15365	0.860029	2.87039			0.754498	2.51774	0.912601	3.05075				
0.799511	2.65817	0.699356	2.30767	0.344353	4.20856	0.862092	2.866			0.757159	2.51672	0.915068	3.04699				
0.802491	2.65767	0.702086	2.3077	0.343977	4.2654	0.864163	2.86168			0.759829	2.51574	0.917531	3.04325				
0.805467	2.65715	0.704811	2.30772	0.343626	4.32424	0.866243	2.85741			0.762508	2.5148	0.919991	3.03953				
0.808438	2.65663	0.707531	2.30772	0.3433	4.38518	0.868333	2.85321			0.765195	2.51389	0.922446	3.03582				
0.811405	2.65609	0.710246	2.30771	0.343	4.44831	0.870431	2.84908			0.767891	2.51302	0.924898	3.03213				
0.814366	2.65554	0.712957	2.30768	0.342725	4.51372	0.87254	2.845			0.770595	2.51218	0.927346	3.02845				
0.817323	2.65498	0.715663	2.30764	0.342474	4.58153	0.874658	2.84099			0.773307	2.51137	0.92979	3.02479				
0.820275	2.6544	0.718365	2.30758	0.342248	4.65184	0.876786	2.83704			0.776028	2.5106	0.93223	3.02115				
0.823221	2.65382	0.721062	2.30751	0.342045	4.72478	0.878924	2.83316			0.778757	2.50986	0.934666	3.01751				
0.826162	2.65322	0.723755	2.30742	0.341867	4.80046	0.881073	2.82934			0.781494	2.50915	0.937097	3.0139				
0.829097	2.6526	0.726443	2.30733	0.341712	4.87903	0.883232	2.82558			0.784239	2.50847	0.939525	3.0103				
0.832026	2.65197	0.729128	2.30721	0.341581	4.96062	0.885402	2.82188			0.786993	2.50783	0.941948	3.00671				
0.834948	2.65133	0.731808	2.30709	0.341472	5.0454	0.887583	2.81825			0.789754	2.50721	0.944367	3.00313				
0.837865	2.65067	0.734484	2.30696	0.341386	5.13352	0.889776	2.81468			0.792523	2.50662	0.946782	2.99957				
0.840775	2.65	0.737156	2.30681	0.341323	5.22517	0.891979	2.81117			0.795299	2.50606	0.949192	2.99602				
0.843677	2.64931	0.739824	2.30665	0.341281	5.32052	0.894195	2.80772			0.798084	2.50553	0.951598	2.99248				
0.846573	2.6486	0.742488	2.30649	0.341262	5.41979	0.896422	2.80434			0.800875	2.50503	0.954	2.98896				
0.849462	2.64787	0.745149	2.30631	0.341263	5.52319	0.898662	2.80102			0.803674	2.50455	0.956397	2.98544				
0.852343	2.64713	0.747806	2.30612	0.341285	5.63095	0.900914	2.79776			0.806481	2.5041	0.95879	2.98194				
0.855216	2.64637	0.75046	2.30592	0.341328	5.74333	0.903179	2.79457			0.809295	2.50367	0.961179	2.97845				
0.858081	2.64558	0.75311	2.30572	0.341391	5.86061	0.905457	2.79143			0.812116	2.50327	0.963563	2.97498				
0.860938	2.64478	0.755757	2.3055	0.341473	5.98307	0.907747	2.78836			0.814943	2.5029	0.965942	2.97151				
0.863787	2.64396	0.758401	2.30528	0.341575	6.11103	0.910051	2.78536			0.817778	2.50255	0.968318	2.96806				
0.866627	2.64312	0.761041	2.30505	0.341695	6.24486	0.912369	2.78242			0.82062	2.50222	0.970689	2.96462				
0.869458	2.64226	0.763679	2.30481	0.341834	6.38491	0.9147	2.77954			0.823468	2.50191	0.973055	2.96119				
0.87228	2.64137	0.766313	2.30456	0.34199	6.53161	0.917045	2.77672			0.826323	2.50163	0.975417	2.95777				
0.875093	2.64047	0.768945	2.30431	0.342164	6.68539	0.919405	2.77396			0.829184	2.50137	0.977775	2.95436				
0.877897	2.63954	0.771574	2.30405	0.342353	6.84676	0.921778	2.77127			0.832052	2.50113	0.980128	2.95096				
0.880691	2.63859	0.774201	2.30379	0.342559	7.01625	0.924167	2.76864			0.834926	2.5009	0.982477	2.94757				
0.883475	2.63762	0.776825	2.30352	0.342781	7.19444	0.92657	2.76608			0.837806	2.5007	0.984821	2.9442				
0.886249	2.63663	0.779446	2.30324	0.343017	7.38199	0.928987	2.76357			0.840692	2.50052	0.987162	2.94083				
0.889013	2.63561	0.782065	2.30296	0.343267	7.57961	0.93142	2.76113			0.843584	2.50036	0.989498	2.93748				
0.891767	2.63457	0.784682	2.30268	0.34353	7.78809	0.933868	2.75875			0.846481	2.50021	0.991829	2.93414				
0.894511	2.63351	0.787297	2.30239	0.343806	8.00831	0.936331	2.75643			0.849385	2.50009	0.994157	2.9308				
0.897244	2.63242	0.78991	2.3021	0.344094	8.24126	0.938809	2.75417			0.852293	2.49998	0.99648	2.92748				
0.899967	2.63131	0.792521	2.3018	0.344394	8.488	0.941303	2.75197			0.855208	2.49988	0.9988	2.92417				
0.90268	2.63018	0.79513	2.3015	0.344663	8.71523	0.943812	2.74983			0.858128	2.49981	1.00111	2.92087				
0.905382	2.62902	0.797737	2.3012	0.344898	8.91861	0.946336	2.74775			0.861053	2.49975						
0.908074	2.62785	0.800342	2.30089	0.345096	9.09398	0.948876	2.74572			0.863983	2.4997						
0.910755	2.62665	0.802946	2.30058	0.345255	9.23751	0.95143	2.74376			0.866918	2.49967						
0.913426	2.62543	0.805549	2.30027	0.345373	9.34591	0.954	2.74185			0.869858	2.49965						
0.916087	2.62419	0.80815	2.29996	0.345483	9.44787	0.956586	2.74			0.872803	2.49965						
0.918738	2.62293	0.810749	2.29964	0.345559	9.5201	0.959186	2.73821			0.875752	2.49966						
0.921379	2.62165	0.813347	2.29933	0.34568	9.63514	0.9618	2.73647			0.878707	2.49968						
0.924011	2.62035	0.815945	2.29901	0.345845	9.79604	0.96443	2.73478			0.881666	2.49972						
0.926632	2.61903	0.818541	2.29869	0.346056	10.0072	0.967074	2.73314			0.884629	2.49977						
0.929245	2.61769	0.821135	2.29837	0.346314	10.2748	0.969733	2.73156			0.887596	2.49983						
0.931848	2.61634	0.823729	2.29805	0.34662	10.6071	0.972405	2.73002			0.890568	2.4999						
0.934442	2.61497	0.826322	2.29773	0.346974	11.0152	0.975091	2.72854			0.893544	2.49998						
0.937028	2.61359	0.828915	2.29741	0.347332	11.4551	0.977791	2.7271			0.896524	2.50008						
0.939605	2.61219	0.831506	2.29709	0.347691	11.9307	0.980504	2.7257			0.899508	2.50018						
0.942174	2.61078	0.834097	2.29677	0.34805	12.4463	0.98323	2.72436			0.902496	2.5003						
0.944735	2.60935	0.836687	2.29645	0.348409	13.0073	0.985969	2.72305			0.905487	2.50042						
0.947289	2.60792	0.839277	2.29613	0.348766	13.6199	0.988721	2.72179			0.908483	2.50056						
0.949835	2.60647	0.841866	2.29581	0.34912	14.2915	0.991484	2.72058			0.911482	2.5007						
0.952375	2.60502	0.844454	2.29549	0.34947	15.0309	0.994259	2.7194			0.914484	2.50085						
0.954908	2.60355	0.847043	2.29517	0.349813	15.8491	0.997045	2.71826			0.91749	2.50101						
0.957435	2.60208	0.849631	2.29486	0.35015	16.7592	0.999843	2.71715			0.920499	2.50118						
0.959956	2.6006	0.852218	2.29454	0.350478	17.7776	1.00265	2.71609			0.923512	2.50135						
0.962471	2.59912	0.854806	2.29423	0.350796	18.9251					0.926528	2.50154						
0.964982	2.59763	0.857393	2.29392	0.351103	20.2277					0.929547	2.50173						
0.967487	2.59614	0.85998	2.29361	0.351397	21.7194					0.932569	2.50193						
0.969988	2.59464	0.862567	2.2933	0.351678	23.4445					0.935595	2.50213						
0.972484	2.59315	0.865154	2.29299	0.351943	25.4626					0.938623	2.50234						
0.974977	2.59165	0.867741	2.29269	0.352192	27.8557					0.941654	2.50256						
0.977466	2.59015	0.870328	2.29239	0.352424	30.7393					0.944688	2.50279						
0.979951	2.58865	0.872915	2.29209	0.352636	34.2817					0.947724	2.50302						
0.982434	2.58716	0.875502	2.29179	0.352829	38.7387					0.950764	2.50325						
0.984914	2.58566	0.87809	2.29149	0.353	44.5179					0.953806	2.50349						
0.987391	2.58417	0.880677	2.2912	0.35315	52.3117					0.95685	2.50374						
0.989866	2.58268	0.883265	2.29091	0.353277	63.398					0.959898	2.50399						
0.992339	2.5812	0.885854	2.29062	0.353381	80.426					0.962947	2.50425						
0.994811	2.57972	0.888442	2.29033	0.353461	109.929					0.965999	2.50451						
0.99728	2.57825	0.891031	2.29005	0.353516	173.561					0.969054	2.50478						
0.999749	2.57678	0.89362	2.28977	0.353547	411.9					0.97211	2.50505						
1.00222	2.57532	0.89621	2.28949							0.975169	2.50532						
		0.8988	2.28921							0.978231	2.5056						
		0.90139	2.28894							0.981294	2.50588						
		0.903981	2.28867							0.984359	2.50617						
		0.906573	2.2884							0.987427	2.50646						
		0.909165	2.28814							0.990496	2.50675						
		0.911758	2.28788							0.993568	2.50704						
		0.914351	2.28762							0.996641	2.50734						
		0.916945	2.28737							0.999717	2.50765						
		0.919539	2.28712							1.00279	2.50795						
		0.922134	2.28687														
		0.92473	2.28662														
		0.927327	2.28638														
		0.929924	2.28614														
		0.932522	2.2859														
		0.93512	2.28567														
		0.93772	2.28544														
		0.94032	2.28521														
		0.942921	2.28499														
		0.945522	2.28477														
		0.948125	2.28455														
		0.950728	2.28434														
		0.953332	2.28413														
		0.955937	2.28392														
		0.958543	2.28371														
		0.961149	2.28351														
		0.963757	2.28331														
		0.966365	2.28312														
		0.968974	2.28293														
		0.971584	2.28274														
		0.974195	2.28255														
		0.976807	2.28237														
		0.979419	2.28219														
		0.982033	2.28201														
		0.984647	2.28184														
		0.987262	2.28167														
		0.989879	2.2815														
		0.992496	2.28134														
		0.995114	2.28117														
		0.997733	2.28101														
		1.00035	2.28086														
