Sym0		Asym0		Sym1		Sym2		Sym3		Asym1		Asym2		Asym3		Asym4	
344  Points		382  Points		345  Points		320  Points		241  Points		346  Points		306  Points		241  Points		134  Points	
Freq (MHz)	Vph (m/ms)	Freq (MHz)	Vph (m/ms)	Freq (MHz)	Vph (m/ms)	Freq (MHz)	Vph (m/ms)	Freq (MHz)	Vph (m/ms)	Freq (MHz)	Vph (m/ms)	Freq (MHz)	Vph (m/ms)	Freq (MHz)	Vph (m/ms)	Freq (MHz)	Vph (m/ms)
0.353541	484.605	0.000476103	0.134769	1.00211	2.50714	0.404385	1338.48	0.707109	878.802	0.176783	415.932	0.530332	533.949	0.808768	944.633	0.883885	1453.9
0.353467	185.25	0.000845016	0.179362	0.999652	2.5084	0.40446	273.166	0.707118	356.565	0.176872	110.301	0.530338	244.2	0.808782	397.498	0.883899	494.779
0.353328	114.473	0.00131725	0.223651	0.997202	2.50967	0.404632	152.166	0.707136	223.66	0.177062	63.6445	0.530349	158.302	0.808809	251.715	0.883926	298.124
0.353125	82.7945	0.00189117	0.267558	0.994755	2.51096	0.404899	105.507	0.707161	162.934	0.177355	44.7801	0.530365	117.111	0.808847	184.176	0.883967	213.34
0.352862	64.8215	0.00256488	0.311016	0.992313	2.51227	0.405261	80.791	0.707195	128.146	0.177747	34.5874	0.530386	92.9316	0.808897	145.218	0.884021	166.107
0.352541	53.237	0.00333631	0.353975	0.989874	2.51359	0.405714	65.494	0.707236	105.602	0.178239	28.2132	0.530412	77.03	0.808959	119.868	0.884089	136.003
0.352165	45.1458	0.00420307	0.396374	0.98744	2.51494	0.406255	55.0989	0.707286	89.8062	0.178829	23.8562	0.530442	65.7766	0.809033	102.057	0.884171	115.141
0.35174	39.1731	0.00516258	0.438164	0.985009	2.5163	0.406879	47.5787	0.707344	78.1232	0.179514	20.6942	0.530477	57.3935	0.809118	88.8579	0.884266	99.8322
0.351268	34.5817	0.00621198	0.479289	0.982582	2.51768	0.407583	41.8883	0.70741	69.1321	0.180292	18.2979	0.530517	50.907	0.809215	78.6848	0.884375	88.12
0.350755	30.9413	0.00734843	0.519716	0.98016	2.51908	0.408362	37.4344	0.707484	61.9989	0.181161	16.4219	0.530563	45.7388	0.809324	70.6045	0.884497	78.8705
0.350204	27.9835	0.00856906	0.559417	0.977741	2.5205	0.409212	33.8549	0.707566	56.2018	0.182118	14.9153	0.530613	41.5244	0.809444	64.0318	0.884633	71.3814
0.34962	25.5324	0.00987068	0.598355	0.975325	2.52193	0.410129	30.9164	0.707656	51.3976	0.18316	13.6803	0.530668	38.022	0.809575	58.5809	0.884783	65.1939
0.349007	23.4679	0.0112502	0.636509	0.972913	2.52338	0.411109	28.4617	0.707754	47.3517	0.184285	12.6507	0.530728	35.0655	0.809719	53.9873	0.884946	59.996
0.348369	21.705	0.0127046	0.673864	0.970505	2.52486	0.412147	26.3812	0.70786	43.8976	0.185489	11.7803	0.530794	32.5364	0.809873	50.0638	0.885123	55.5682
0.34771	20.182	0.0142307	0.710402	0.9681	2.52634	0.413239	24.5957	0.707975	40.9145	0.186769	11.0356	0.530865	30.3483	0.810039	46.6738	0.885314	51.7513
0.347034	18.8531	0.0158254	0.746116	0.965698	2.52785	0.414383	23.0472	0.708098	38.3122	0.188123	10.392	0.530941	28.4368	0.810215	43.7155	0.885519	48.4271
0.346343	17.6835	0.0174858	0.781002	0.963299	2.52938	0.415575	21.6916	0.708229	36.0224	0.189546	9.83061	0.531023	26.7526	0.810403	41.1114	0.885738	45.5062
0.345642	16.646	0.0192089	0.81506	0.960904	2.53092	0.416811	20.4954	0.708368	33.9919	0.190841	9.39725	0.53111	25.2574	0.810602	38.8017	0.88597	42.9194
0.344932	15.7196	0.0209916	0.848286	0.958511	2.53248	0.418088	19.4321	0.708516	32.1792	0.191984	9.06282	0.531202	23.9211	0.810811	36.7392	0.886217	40.6128
0.344216	14.8874	0.0228314	0.880691	0.956122	2.53405	0.419404	18.481	0.708672	30.551	0.192954	8.80764	0.531301	22.7198	0.811031	34.8862	0.886478	38.5431
0.343498	14.1358	0.0247256	0.912283	0.953735	2.53565	0.420757	17.6253	0.708837	29.0807	0.193738	8.61823	0.531405	21.634	0.811262	33.2125	0.886752	36.6757
0.342778	13.4537	0.0266712	0.943065	0.95135	2.53726	0.422143	16.8514	0.709009	27.7462	0.194323	8.48538	0.531515	20.6478	0.811503	31.6933	0.887041	34.9825
0.34206	12.832	0.0286662	0.973055	0.948969	2.53889	0.423561	16.1484	0.709191	26.5298	0.194701	8.40305	0.531631	19.7482	0.811755	30.3081	0.887344	33.4403
0.341346	12.263	0.0307079	1.00227	0.946589	2.54053	0.425009	15.5068	0.709381	25.4164	0.19525	8.28823	0.531753	18.9243	0.812016	29.0401	0.887662	32.0297
0.340636	11.7405	0.032794	1.03071	0.944212	2.54219	0.426486	14.9192	0.709579	24.3935	0.195854	8.16792	0.531881	18.1669	0.812288	27.8749	0.887993	30.7347
0.339933	11.2589	0.0349224	1.0584	0.941836	2.54387	0.427988	14.379	0.709786	23.4505	0.196686	8.01137	0.532015	17.4683	0.812569	26.8007	0.888339	29.5417
0.339238	10.8138	0.0370911	1.08536	0.939463	2.54556	0.429515	13.8807	0.710001	22.5785	0.197756	7.82425	0.532157	16.822	0.81286	25.8072	0.888699	28.4391
0.338553	10.4012	0.0392979	1.1116	0.937091	2.54727	0.431066	13.4197	0.710225	21.7697	0.199077	7.61281	0.532304	16.2223	0.813161	24.8856	0.889074	27.4171
0.337879	10.0178	0.0415411	1.13714	0.934721	2.54899	0.432639	12.992	0.710458	21.0176	0.200661	7.38342	0.532459	15.6644	0.813471	24.0285	0.889464	26.4672
0.337218	9.66063	0.0438187	1.16201	0.932352	2.55073	0.434233	12.5942	0.7107	20.3165	0.202523	7.14224	0.53262	15.1441	0.813791	23.2293	0.889868	25.5821
0.336569	9.32714	0.0461292	1.18621	0.929984	2.55248	0.435847	12.2232	0.710951	19.6613	0.204431	6.92183	0.532788	14.6577	0.814119	22.4823	0.890287	24.7554
0.335935	9.01514	0.0484709	1.20976	0.927617	2.55424	0.437479	11.8764	0.71121	19.0476	0.206381	6.71972	0.532963	14.2021	0.814457	21.7827	0.89072	23.9816
0.335316	8.72267	0.0508423	1.23269	0.925251	2.55602	0.43913	11.5516	0.711478	18.4718	0.208372	6.53382	0.533146	13.7744	0.814803	21.1261	0.891168	23.2558
0.334713	8.448	0.0532419	1.25501	0.922885	2.55781	0.440797	11.2468	0.711755	17.9304	0.210401	6.36232	0.533336	13.3721	0.815158	20.5086	0.891631	22.5736
0.334128	8.18962	0.0556685	1.27674	0.920519	2.55962	0.44248	10.9602	0.712042	17.4204	0.212465	6.20367	0.533533	12.9932	0.815521	19.9269	0.892109	21.9314
0.33356	7.94618	0.0581206	1.2979	0.918153	2.56143	0.444178	10.6902	0.712337	16.9392	0.214564	6.05655	0.533739	12.6355	0.815892	19.378	0.892602	21.3256
0.333011	7.71646	0.060597	1.3185	0.915787	2.56326	0.445891	10.4354	0.712642	16.4845	0.216695	5.91977	0.533952	12.2975	0.816272	18.8591	0.89311	20.7534
0.332482	7.4994	0.0630968	1.33856	0.91342	2.5651	0.447618	10.1947	0.712956	16.0541	0.218856	5.79232	0.534173	11.9775	0.816659	18.3679	0.893633	20.2121
0.331972	7.29402	0.0656186	1.35811	0.911053	2.56694	0.449357	9.96677	0.713279	15.6462	0.221046	5.67332	0.534403	11.6741	0.817054	17.9023	0.894172	19.6992
0.331484	7.09944	0.0681615	1.37715	0.908684	2.5688	0.45111	9.75076	0.713612	15.259	0.223263	5.56198	0.534641	11.3862	0.817457	17.4603	0.894725	19.2125
0.331016	6.9149	0.0707245	1.3957	0.906314	2.57066	0.452874	9.54573	0.713954	14.8911	0.225505	5.45761	0.534887	11.1125	0.817867	17.0401	0.895294	18.7502
0.330571	6.73967	0.0733067	1.41378	0.903942	2.57253	0.45442	9.37538	0.714305	14.541	0.227771	5.35958	0.535142	10.8521	0.818284	16.6402	0.895878	18.3105
0.330147	6.5731	0.0759073	1.4314	0.901568	2.57441	0.455745	9.23589	0.714666	14.2075	0.230059	5.26736	0.535406	10.6041	0.818708	16.2592	0.896477	17.8918
0.329747	6.41463	0.0785253	1.44857	0.899191	2.5763	0.456845	9.12432	0.715037	13.8894	0.232369	5.18046	0.535679	10.3675	0.819139	15.8957	0.897092	17.4927
0.329371	6.2637	0.0811601	1.46532	0.896812	2.57818	0.457718	9.03841	0.715417	13.5858	0.234698	5.09843	0.535962	10.1416	0.819577	15.5486	0.897722	17.1117
0.329018	6.11983	0.0838108	1.48165	0.894429	2.58008	0.458361	8.9765	0.715808	13.2957	0.237047	5.0209	0.536254	9.9258	0.820021	15.2168	0.898368	16.7478
0.328689	5.98258	0.0864768	1.49758	0.892043	2.58197	0.458773	8.93743	0.716208	13.0181	0.239412	4.94751	0.536555	9.71936	0.820472	14.8993	0.899029	16.3998
0.328386	5.85154	0.0891574	1.51312	0.889653	2.58387	0.459367	8.88199	0.716618	12.7524	0.241795	4.87794	0.536826	9.54667	0.820929	14.5953	0.899706	16.0668
0.328107	5.72632	0.091852	1.52829	0.887259	2.58576	0.460013	8.82268	0.717038	12.4978	0.244192	4.81191	0.537062	9.40446	0.821392	14.3038	0.900398	15.7477
0.327855	5.6066	0.09456	1.54309	0.884859	2.58766	0.460894	8.74358	0.717468	12.2536	0.246604	4.74915	0.537262	9.29019	0.821861	14.0242	0.901106	15.4418
0.327628	5.49203	0.0972808	1.55753	0.882455	2.58955	0.46201	8.64603	0.717909	12.0192	0.24903	4.68944	0.537423	9.20189	0.822335	13.7556	0.90183	15.1483
0.327427	5.38234	0.100014	1.57164	0.880045	2.59144	0.463366	8.53161	0.71836	11.794	0.251469	4.63255	0.537543	9.13809	0.822815	13.4976	0.902569	14.8664
0.327254	5.27725	0.102759	1.58541	0.877629	2.59333	0.464962	8.40212	0.718821	11.5776	0.253919	4.57829	0.537621	9.09774	0.823301	13.2494	0.903324	14.5955
0.327107	5.17651	0.105515	1.59886	0.875206	2.5952	0.4668	8.25945	0.719292	11.3694	0.25638	4.52649	0.537733	9.0404	0.823792	13.0105	0.904095	14.335
0.326988	5.07989	0.108282	1.612	0.872777	2.59708	0.468647	8.12275	0.719775	11.169	0.258852	4.47697	0.537856	8.97894	0.824288	12.7805	0.904881	14.0843
0.326897	4.98716	0.111059	1.62484	0.87034	2.59894	0.470501	7.99164	0.720268	10.9759	0.261333	4.4296	0.538026	8.89676	0.824789	12.5588	0.905683	13.8428
0.326833	4.89813	0.113847	1.63739	0.867895	2.60079	0.472362	7.8658	0.720771	10.7898	0.263823	4.38423	0.538244	8.79508	0.825295	12.345	0.906501	13.6102
0.326798	4.8126	0.116644	1.64965	0.865443	2.60263	0.47423	7.74491	0.721286	10.6103	0.266322	4.34073	0.538514	8.67538	0.825805	12.1386	0.907334	13.3858
0.326791	4.7408	0.11945	1.66165	0.862981	2.60446	0.476104	7.62869	0.721811	10.4371	0.268828	4.299	0.538837	8.53932	0.826321	11.9394	0.908183	13.1694
0.326802	4.6815	0.122265	1.67337	0.860511	2.60627	0.477984	7.51687	0.722347	10.2698	0.271341	4.25892	0.539219	8.3887	0.826841	11.7468	0.909048	12.9605
0.326824	4.63375	0.125088	1.68484	0.85803	2.60807	0.47987	7.40921	0.722895	10.1083	0.27386	4.2204	0.539613	8.24367	0.827365	11.5607	0.909928	12.7586
0.326848	4.5968	0.12792	1.69606	0.855541	2.60985	0.481761	7.30548	0.723454	9.95207	0.276385	4.18334	0.540018	8.10395	0.827893	11.3807	0.910824	12.5636
0.326871	4.57006	0.13076	1.70704	0.85304	2.61161	0.483657	7.20546	0.72395	9.82016	0.278916	4.14766	0.540434	7.96926	0.828426	11.2065	0.911735	12.375
0.326888	4.55315	0.133607	1.71778	0.850529	2.61336	0.485558	7.10897	0.72438	9.71067	0.281452	4.11328	0.540863	7.83935	0.828963	11.0378	0.912662	12.1925
0.326914	4.52909	0.136462	1.72829	0.848007	2.61508	0.487464	7.01581	0.72474	9.62212	0.283991	4.08012	0.541303	7.71397	0.829504	10.8743	0.913605	12.016
0.326946	4.50327	0.139323	1.73859	0.845474	2.61678	0.489373	6.92582	0.725028	9.55333	0.286535	4.04813	0.541756	7.5929	0.830049	10.7159	0.914563	11.845
0.326996	4.46873	0.142192	1.74866	0.84293	2.61845	0.491286	6.83883	0.725241	9.50344	0.289082	4.01723	0.542221	7.47594	0.830598	10.5623	0.915536	11.6793
0.32707	4.42595	0.145067	1.75853	0.840373	2.6201	0.493203	6.75471	0.725378	9.47181	0.291633	3.98737	0.5427	7.3629	0.83115	10.4133	0.916525	11.5187
0.327174	4.37552	0.147948	1.7682	0.837804	2.62172	0.495124	6.67329	0.725577	9.42673	0.294186	3.95849	0.543191	7.25358	0.831706	10.2686	0.917529	11.363
0.327317	4.31813	0.150835	1.77767	0.835223	2.62332	0.497047	6.59447	0.725794	9.37827	0.296741	3.93054	0.543695	7.14783	0.832266	10.1282	0.918548	11.212
0.32751	4.25452	0.153728	1.78694	0.832629	2.62489	0.498973	6.51811	0.726092	9.31324	0.299297	3.90347	0.544213	7.04547	0.832757	10.009	0.919582	11.0655
0.327734	4.19324	0.156627	1.79604	0.830023	2.62643	0.500902	6.4441	0.726473	9.23239	0.301856	3.87724	0.544744	6.94637	0.833177	9.90982	0.920631	10.9232
0.327989	4.13416	0.159531	1.80495	0.827403	2.62794	0.502833	6.37233	0.726939	9.13666	0.304415	3.85181	0.545289	6.85037	0.833526	9.82934	0.921696	10.785
0.328275	4.0772	0.162441	1.81369	0.824771	2.62943	0.504766	6.30269	0.727494	9.02712	0.306975	3.82713	0.545848	6.75734	0.833803	9.76668	0.922775	10.6508
0.328593	4.02228	0.165356	1.82225	0.822126	2.63088	0.5067	6.2351	0.728142	8.90494	0.309536	3.80318	0.546421	6.66717	0.834008	9.72114	0.923869	10.5203
0.328943	3.9693	0.168275	1.83065	0.819469	2.6323	0.508637	6.16946	0.728803	8.78638	0.312096	3.7799	0.547008	6.57972	0.834138	9.69224	0.924978	10.3934
0.329325	3.91819	0.171199	1.83889	0.816798	2.63369	0.510575	6.10568	0.729476	8.67129	0.314656	3.75728	0.54761	6.4949	0.834327	9.651	0.926101	10.2701
0.329739	3.86887	0.174128	1.84697	0.814114	2.63505	0.512514	6.04369	0.730161	8.55952	0.317216	3.73528	0.548227	6.41258	0.834532	9.60661	0.927092	10.1653
0.330187	3.82128	0.177062	1.85489	0.811418	2.63638	0.514453	5.98341	0.730858	8.45094	0.319775	3.71387	0.548859	6.33267	0.834812	9.54692	0.927945	10.0779
0.330667	3.77535	0.179999	1.86267	0.808709	2.63768	0.516394	5.92477	0.731568	8.34543	0.322333	3.69303	0.549506	6.25509	0.835167	9.47256	0.928657	10.0069
0.331181	3.73101	0.182941	1.8703	0.805988	2.63895	0.518335	5.8677	0.73229	8.24285	0.324889	3.67273	0.550169	6.17973	0.835598	9.38426	0.929223	9.95167
0.331729	3.68822	0.185887	1.87779	0.803254	2.64018	0.520276	5.81213	0.733025	8.1431	0.327443	3.65294	0.550847	6.10651	0.836106	9.2829	0.929642	9.91147
0.33231	3.6469	0.188837	1.88515	0.800508	2.64139	0.522217	5.75801	0.733773	8.04607	0.329995	3.63364	0.551541	6.03535	0.836693	9.16944	0.929911	9.88595
0.332927	3.60701	0.19179	1.89237	0.79775	2.64257	0.524158	5.70528	0.734534	7.95166	0.332545	3.61481	0.552251	5.96618	0.837282	9.0589	0.930298	9.84952
0.333578	3.5685	0.194747	1.89946	0.794981	2.64371	0.526098	5.65387	0.735308	7.85976	0.335093	3.59643	0.552977	5.89892	0.837875	8.95117	0.930722	9.81029
0.334264	3.53132	0.197707	1.90642	0.7922	2.64483	0.528039	5.60375	0.736095	7.77029	0.337638	3.57848	0.55372	5.83351	0.838471	8.84616	0.9313	9.75751
0.334986	3.49543	0.200671	1.91326	0.789408	2.64592	0.529978	5.55486	0.736895	7.68315	0.340179	3.56094	0.554479	5.76987	0.83907	8.74377	0.932037	9.69172
0.335744	3.46078	0.203638	1.91997	0.786605	2.64698	0.531916	5.50715	0.737708	7.59827	0.342718	3.54379	0.555255	5.70794	0.839672	8.64389	0.932934	9.61353
0.336539	3.42734	0.206609	1.92657	0.783791	2.64802	0.533853	5.46058	0.738535	7.51556	0.345253	3.52702	0.556048	5.64768	0.840278	8.54644	0.933997	9.5237
0.33737	3.39506	0.209582	1.93305	0.780967	2.64902	0.535789	5.4151	0.739375	7.43494	0.347784	3.51061	0.556858	5.58901	0.840886	8.45132	0.935229	9.42303
0.33824	3.36391	0.212558	1.93942	0.778134	2.65	0.537724	5.37068	0.740229	7.35635	0.350311	3.49455	0.557686	5.53188	0.841498	8.35847	0.936475	9.32485
0.339147	3.33386	0.215537	1.94568	0.77529	2.65096	0.539656	5.32728	0.741097	7.27971	0.352834	3.47882	0.558531	5.47625	0.842114	8.2678	0.937735	9.22909
0.340093	3.30488	0.218519	1.95184	0.772437	2.65189	0.541587	5.28486	0.741978	7.20496	0.355353	3.46341	0.559394	5.42205	0.842732	8.17924	0.939007	9.13566
0.341079	3.27692	0.221504	1.95789	0.769575	2.6528	0.543516	5.24338	0.742873	7.13204	0.357866	3.4483	0.560275	5.36926	0.843354	8.0927	0.940293	9.04447
0.342104	3.24998	0.224107	1.96307	0.766704	2.65368	0.545442	5.20281	0.743783	7.06087	0.360376	3.43349	0.561174	5.31781	0.843979	8.00814	0.941593	8.95545
0.34317	3.22401	0.226327	1.96744	0.763825	2.65454	0.547367	5.16312	0.744706	6.99142	0.36288	3.41896	0.562091	5.26768	0.844607	7.92547	0.942905	8.86852
0.344278	3.199	0.228164	1.971	0.760937	2.65538	0.549288	5.12429	0.745643	6.92362	0.365379	3.4047	0.563027	5.21881	0.845239	7.84465	0.94423	8.78362
0.345427	3.17491	0.229618	1.9738	0.758041	2.6562	0.551207	5.08627	0.746594	6.85741	0.367872	3.3907	0.563981	5.17116	0.845874	7.7656	0.945567	8.70068
0.346619	3.15173	0.230687	1.97584	0.755138	2.657	0.553123	5.04904	0.74756	6.79275	0.37036	3.37695	0.564954	5.12471	0.846512	7.68828	0.946917	8.61963
0.347855	3.12943	0.231371	1.97713	0.752228	2.65778	0.555037	5.01258	0.74854	6.72959	0.372842	3.36344	0.565946	5.07941	0.847154	7.61263	0.94828	8.54041
0.349135	3.10799	0.232355	1.97899	0.74931	2.65854	0.556947	4.97686	0.749535	6.66789	0.375319	3.35016	0.566957	5.03522	0.847799	7.53859	0.949655	8.46297
0.35046	3.0874	0.233424	1.981	0.746386	2.65929	0.558853	4.94186	0.750544	6.60759	0.377789	3.33711	0.567987	4.99212	0.848448	7.46612	0.951042	8.38724
0.351831	3.06763	0.23488	1.98372	0.743455	2.66001	0.560757	4.90755	0.751567	6.54866	0.380253	3.32427	0.569037	4.95007	0.8491	7.39517	0.952441	8.31318
0.353249	3.04867	0.236721	1.98712	0.740518	2.66072	0.562657	4.87391	0.752606	6.49105	0.382711	3.31163	0.570106	4.90905	0.849756	7.32569	0.953851	8.24072
0.354714	3.03049	0.238948	1.99118	0.737575	2.66142	0.564553	4.84091	0.753659	6.43472	0.385162	3.2992	0.571195	4.86901	0.850415	7.25763	0.955274	8.16983
0.356228	3.01308	0.241563	1.99589	0.734626	2.6621	0.566445	4.80855	0.754726	6.37965	0.387606	3.28695	0.572303	4.82994	0.851078	7.19097	0.956707	8.10045
0.35779	2.99643	0.244565	2.00121	0.731671	2.66276	0.568334	4.77679	0.755809	6.32578	0.390044	3.2749	0.573432	4.7918	0.851745	7.12565	0.958152	8.03253
0.359402	2.98051	0.24757	2.00644	0.728711	2.66342	0.570218	4.74562	0.756906	6.27309	0.392475	3.26302	0.57458	4.75458	0.852415	7.06163	0.959609	7.96603
0.361064	2.96531	0.250576	2.01159	0.725746	2.66405	0.572099	4.71503	0.758019	6.22154	0.394898	3.25131	0.575748	4.71823	0.853089	6.99889	0.961076	7.90092
0.362776	2.95081	0.253584	2.01666	0.722776	2.66468	0.573975	4.68498	0.759146	6.1711	0.397315	3.23977	0.576937	4.68275	0.853767	6.93737	0.962554	7.83714
0.36454	2.937	0.256594	2.02165	0.719802	2.66529	0.575847	4.65548	0.760288	6.12174	0.399724	3.22839	0.578146	4.6481	0.854449	6.87706	0.964043	7.77466
0.366354	2.92386	0.259605	2.02656	0.716823	2.6659	0.577714	4.6265	0.761446	6.07343	0.402126	3.21717	0.579375	4.61426	0.855135	6.81791	0.965543	7.71345
0.368219	2.91136	0.262618	2.03139	0.713839	2.66649	0.579577	4.59802	0.762618	6.02614	0.40452	3.2061	0.580625	4.58122	0.855825	6.75989	0.967053	7.65346
0.370135	2.89949	0.265633	2.03615	0.710852	2.66707	0.581435	4.57004	0.763806	5.97983	0.406907	3.19517	0.581896	4.54894	0.856519	6.70298	0.968573	7.59465
0.372102	2.88823	0.268649	2.04083	0.707861	2.66764	0.583289	4.54253	0.765008	5.93449	0.409286	3.18438	0.583186	4.51741	0.857217	6.64713	0.970104	7.537
0.374119	2.87757	0.271667	2.04545	0.704865	2.6682	0.585138	4.51548	0.766226	5.89009	0.411658	3.17374	0.584498	4.48662	0.857919	6.59233	0.971644	7.48048
0.376185	2.86747	0.274686	2.04999	0.701867	2.66876	0.586982	4.48889	0.767459	5.8466	0.414022	3.16322	0.58583	4.45653	0.858625	6.53855	0.973194	7.42504
0.378301	2.85792	0.277706	2.05446	0.698864	2.6693	0.588822	4.46274	0.768707	5.804	0.416378	3.15283	0.587183	4.42713	0.859336	6.48575	0.974754	7.37067
0.380464	2.84889	0.280728	2.05886	0.695859	2.66984	0.590656	4.43701	0.76997	5.76227	0.418726	3.14257	0.588557	4.3984	0.860051	6.43392	0.976323	7.31733
0.382673	2.84038	0.283751	2.0632	0.69285	2.67037	0.592485	4.41169	0.771249	5.72137	0.421066	3.13242	0.589951	4.37033	0.86077	6.38303	0.977902	7.26499
0.384928	2.83234	0.286775	2.06747	0.689839	2.6709	0.59431	4.38678	0.772542	5.6813	0.423398	3.1224	0.591366	4.3429	0.861494	6.33305	0.97949	7.21363
0.387227	2.82476	0.2898	2.07168	0.686824	2.67142	0.596129	4.36226	0.773851	5.64202	0.425722	3.11249	0.592802	4.31609	0.862222	6.28396	0.981087	7.16322
0.389568	2.81761	0.292826	2.07582	0.683807	2.67193	0.597943	4.33813	0.775175	5.60353	0.428039	3.10269	0.594259	4.28989	0.862955	6.23574	0.982693	7.11373
0.391951	2.81089	0.295853	2.0799	0.680787	2.67243	0.599753	4.31437	0.776514	5.56579	0.430347	3.093	0.595737	4.26428	0.863692	6.18837	0.984307	7.06515
0.394372	2.80455	0.298881	2.08393	0.677764	2.67294	0.601557	4.29097	0.777868	5.52879	0.432648	3.08342	0.597235	4.23924	0.864434	6.14183	0.98593	7.01744
0.396831	2.79858	0.30191	2.08789	0.67474	2.67343	0.603356	4.26792	0.779237	5.49252	0.43494	3.07394	0.598754	4.21476	0.865181	6.09609	0.987562	6.97058
0.399326	2.79296	0.30494	2.09179	0.671713	2.67392	0.605149	4.24522	0.780621	5.45694	0.437224	3.06456	0.600293	4.19084	0.865933	6.05114	0.989202	6.92455
0.401854	2.78767	0.30797	2.09564	0.668684	2.67441	0.606938	4.22285	0.782019	5.42205	0.439501	3.05528	0.601853	4.16744	0.86669	6.00696	0.99085	6.87934
0.404415	2.78268	0.311002	2.09943	0.665652	2.6749	0.608721	4.20082	0.783433	5.38783	0.44177	3.04609	0.603434	4.14456	0.867451	5.96352	0.992506	6.83491
0.407007	2.77799	0.314034	2.10317	0.662619	2.67538	0.6105	4.1791	0.784862	5.35426	0.444031	3.03701	0.605035	4.12219	0.868218	5.92082	0.99417	6.79125
0.409627	2.77356	0.317066	2.10685	0.659584	2.67586	0.612273	4.1577	0.786305	5.32132	0.446284	3.02801	0.606656	4.10032	0.868989	5.87884	0.995841	6.74834
0.412275	2.76939	0.320099	2.11048	0.656548	2.67633	0.614041	4.1366	0.787764	5.28901	0.44853	3.01911	0.608298	4.07892	0.869766	5.83755	0.99752	6.70616
0.414948	2.76545	0.323133	2.11405	0.653509	2.67681	0.615804	4.1158	0.789236	5.2573	0.450768	3.01029	0.60996	4.05799	0.870548	5.79694	0.999207	6.6647
0.417645	2.76174	0.326167	2.11758	0.65047	2.67728	0.617562	4.09529	0.790724	5.22618	0.452999	3.00156	0.611641	4.03753	0.871335	5.75701	1.0009	6.62393
0.420366	2.75823	0.329202	2.12105	0.647428	2.67775	0.619315	4.07507	0.792225	5.19563	0.455222	2.99292	0.613343	4.0175	0.872127	5.71772		
0.423107	2.75492	0.332237	2.12447	0.644386	2.67822	0.621063	4.05512	0.793741	5.16565	0.457438	2.98437	0.615064	3.99792	0.872925	5.67907		
0.425869	2.75178	0.335273	2.12785	0.641342	2.67869	0.622806	4.03545	0.795272	5.13622	0.459647	2.9759	0.616805	3.97875	0.873728	5.64105		
0.428649	2.74882	0.338308	2.13117	0.638297	2.67916	0.624544	4.01605	0.796816	5.10732	0.461849	2.96751	0.618565	3.96001	0.874537	5.60363		
0.431447	2.74601	0.341344	2.13445	0.63525	2.67963	0.626277	3.9969	0.798375	5.07895	0.464044	2.95921	0.620345	3.94166	0.875352	5.56681		
0.434261	2.74334	0.34438	2.13768	0.632203	2.6801	0.628006	3.97802	0.799948	5.05108	0.466232	2.95098	0.622144	3.92371	0.876172	5.53058		
0.437091	2.74081	0.347417	2.14087	0.629155	2.68057	0.62973	3.95938	0.801534	5.02371	0.468413	2.94284	0.623961	3.90614	0.876997	5.49491		
0.439936	2.73841	0.350453	2.14401	0.626106	2.68104	0.631449	3.94099	0.803134	4.99683	0.470588	2.93478	0.625797	3.88894	0.877829	5.45981		
0.442794	2.73613	0.353489	2.14711	0.623056	2.68151	0.633164	3.92284	0.804748	4.97043	0.472757	2.92679	0.627652	3.87211	0.878666	5.42525		
0.445665	2.73396	0.356526	2.15016	0.620006	2.68199	0.634874	3.90492	0.806375	4.94449	0.47492	2.91888	0.629525	3.85563	0.879509	5.39122		
0.448547	2.7319	0.359562	2.15316	0.616954	2.68246	0.636581	3.88724	0.808016	4.919	0.477076	2.91105	0.631416	3.8395	0.880358	5.35772		
0.451441	2.72993	0.362598	2.15613	0.613903	2.68294	0.638282	3.86978	0.80967	4.89396	0.479227	2.9033	0.633325	3.82371	0.881213	5.32474		
0.454346	2.72805	0.365634	2.15905	0.61085	2.68343	0.63998	3.85255	0.811336	4.86935	0.481373	2.89562	0.635252	3.80824	0.882074	5.29225		
0.45726	2.72626	0.36867	2.16193	0.607798	2.68391	0.641674	3.83553	0.813016	4.84516	0.483513	2.88802	0.637196	3.7931	0.882942	5.26026		
0.460184	2.72454	0.371706	2.16478	0.604745	2.6844	0.643363	3.81873	0.814708	4.82138	0.485648	2.8805	0.639157	3.77827	0.883815	5.22876		
0.463116	2.7229	0.374741	2.16758	0.601692	2.68489	0.645049	3.80214	0.816413	4.79801	0.487778	2.87305	0.641135	3.76374	0.884695	5.19772		
0.466056	2.72134	0.377776	2.17033	0.598638	2.68539	0.646731	3.78576	0.818131	4.77503	0.489903	2.86567	0.64313	3.74951	0.885581	5.16715		
0.469005	2.71983	0.38081	2.17305	0.595584	2.68589	0.64841	3.76958	0.819861	4.75244	0.492024	2.85837	0.645141	3.73557	0.886474	5.13704		
0.47196	2.71839	0.383844	2.17574	0.592531	2.6864	0.650085	3.7536	0.821602	4.73022	0.49414	2.85115	0.647168	3.7219	0.887373	5.10737		
0.474922	2.71701	0.386878	2.17838	0.589477	2.68691	0.651756	3.73782	0.823356	4.70837	0.496252	2.844	0.649211	3.70852	0.888279	5.07813		
0.47789	2.71568	0.38991	2.18098	0.586424	2.68743	0.653425	3.72223	0.825122	4.68688	0.498361	2.83692	0.651269	3.6954	0.889191	5.04933		
0.480864	2.71441	0.392943	2.18355	0.58337	2.68795	0.65509	3.70683	0.826899	4.66574	0.500466	2.82992	0.653343	3.68254	0.89011	5.02094		
0.483844	2.71318	0.395974	2.18608	0.580317	2.68848	0.656752	3.69161	0.828687	4.64494	0.502568	2.82299	0.655432	3.66994	0.891035	4.99297		
0.48683	2.712	0.399005	2.18857	0.577265	2.68902	0.658412	3.67659	0.830487	4.62448	0.504666	2.81613	0.657535	3.65758	0.891967	4.96541		
0.48982	2.71086	0.402035	2.19103	0.574212	2.68957	0.660068	3.66174	0.832298	4.60435	0.506762	2.80935	0.659653	3.64546	0.892907	4.93824		
0.492814	2.70976	0.405064	2.19345	0.571161	2.69012	0.661723	3.64707	0.834119	4.58454	0.508855	2.80265	0.661785	3.63358	0.893853	4.91146		
0.495814	2.70869	0.408092	2.19584	0.568109	2.69069	0.663374	3.63258	0.835951	4.56504	0.510945	2.79601	0.663931	3.62193	0.894806	4.88506		
0.498817	2.70767	0.41112	2.19818	0.565059	2.69126	0.665024	3.61827	0.837794	4.54585	0.513034	2.78945	0.666091	3.61049	0.895766	4.85904		
0.501824	2.70668	0.414146	2.2005	0.562009	2.69184	0.666671	3.60412	0.839647	4.52695	0.515121	2.78296	0.668263	3.59928	0.896733	4.83339		
0.504835	2.70572	0.417171	2.20278	0.55896	2.69244	0.668317	3.59014	0.84151	4.50835	0.517206	2.77655	0.670449	3.58827	0.897708	4.8081		
0.507849	2.70479	0.420195	2.20502	0.555912	2.69304	0.66996	3.57633	0.843383	4.49004	0.519289	2.77021	0.672647	3.57747	0.89869	4.78317		
0.510867	2.70389	0.423218	2.20724	0.552865	2.69366	0.671602	3.56268	0.845266	4.472	0.521372	2.76394	0.674858	3.56687	0.899679	4.75858		
0.513887	2.70301	0.426239	2.20941	0.549819	2.69429	0.673242	3.54919	0.847158	4.45424	0.523454	2.75775	0.67708	3.55647	0.900675	4.73434		
0.516911	2.70217	0.429259	2.21156	0.546775	2.69494	0.674881	3.53586	0.849059	4.43674	0.525535	2.75163	0.679315	3.54625	0.901679	4.71044		
0.519937	2.70134	0.432278	2.21367	0.543731	2.69559	0.676519	3.52269	0.85097	4.41951	0.527616	2.74558	0.681561	3.53622	0.902691	4.68687		
0.522965	2.70054	0.435295	2.21575	0.540689	2.69627	0.678155	3.50968	0.852889	4.40253	0.529697	2.73961	0.683818	3.52637	0.90371	4.66362		
0.525996	2.69976	0.43831	2.21779	0.537649	2.69696	0.679791	3.49681	0.854818	4.38581	0.531778	2.73371	0.686086	3.51669	0.904736	4.6407		
0.529029	2.69901	0.441324	2.21981	0.534611	2.69766	0.681426	3.4841	0.856754	4.36932	0.533859	2.72788	0.688364	3.50718	0.905771	4.61809		
0.532064	2.69827	0.444336	2.22179	0.531574	2.69839	0.68306	3.47154	0.858699	4.35308	0.535941	2.72213	0.690653	3.49784	0.906813	4.59579		
0.535101	2.69755	0.447346	2.22373	0.528539	2.69913	0.684694	3.45912	0.860652	4.33707	0.538024	2.71645	0.692951	3.48866	0.907863	4.57379		
0.53814	2.69684	0.450355	2.22565	0.525506	2.69989	0.686327	3.44685	0.862613	4.32129	0.540108	2.71084	0.695259	3.47964	0.908921	4.55209		
0.541181	2.69616	0.453361	2.22753	0.522476	2.70067	0.68796	3.43473	0.864582	4.30573	0.542194	2.70531	0.697577	3.47076	0.909987	4.53069		
0.544223	2.69549	0.456366	2.22939	0.519448	2.70148	0.689593	3.42274	0.866558	4.29039	0.544281	2.69985	0.699904	3.46204	0.911061	4.50958		
0.547266	2.69483	0.459368	2.23121	0.516422	2.7023	0.691227	3.4109	0.868542	4.27527	0.546371	2.69446	0.702239	3.45346	0.912144	4.48875		
0.550311	2.69419	0.462368	2.233	0.513399	2.70315	0.69286	3.39919	0.870532	4.26035	0.548462	2.68915	0.704583	3.44502	0.913234	4.4682		
0.553357	2.69356	0.465366	2.23476	0.510379	2.70403	0.694494	3.38762	0.87253	4.24564	0.550556	2.68391	0.706936	3.43672	0.914333	4.44793		
0.556404	2.69295	0.468362	2.23648	0.507362	2.70494	0.696129	3.37618	0.874534	4.23113	0.552653	2.67874	0.709296	3.42855	0.91544	4.42793		
0.559452	2.69234	0.471355	2.23818	0.504348	2.70587	0.697764	3.36488	0.876545	4.21681	0.554753	2.67364	0.711664	3.42051	0.916556	4.4082		
0.562502	2.69175	0.474345	2.23985	0.501338	2.70684	0.699401	3.35371	0.878562	4.20269	0.556855	2.66862	0.714039	3.4126	0.91768	4.38873		
0.565551	2.69117	0.477333	2.24148	0.498332	2.70783	0.701038	3.34268	0.880585	4.18875	0.558962	2.66367	0.716421	3.4048	0.918812	4.36952		
0.568602	2.69059	0.480318	2.24309	0.495329	2.70886	0.702677	3.33177	0.882614	4.175	0.561071	2.65879	0.71881	3.39713	0.919954	4.35056		
0.571653	2.69003	0.4833	2.24466	0.49233	2.70993	0.704317	3.32099	0.884649	4.16143	0.563185	2.65399	0.721206	3.38957	0.921104	4.33186		
0.574705	2.68948	0.48628	2.2462	0.489336	2.71104	0.705958	3.31033	0.886689	4.14803	0.565303	2.64925	0.723607	3.38213	0.922263	4.3134		
0.577758	2.68893	0.489256	2.24771	0.486347	2.71218	0.707601	3.2998	0.888735	4.1348	0.567425	2.64459	0.726015	3.3748	0.92343	4.29519		
0.58081	2.6884	0.492229	2.2492	0.483363	2.71337	0.709246	3.28939	0.890786	4.12175	0.569552	2.64	0.728429	3.36757	0.924607	4.27722		
0.583864	2.68786	0.495199	2.25065	0.480384	2.71461	0.710893	3.27911	0.892842	4.10885	0.571683	2.63549	0.730848	3.36044	0.925793	4.25948		
0.586917	2.68734	0.498166	2.25207	0.47741	2.71589	0.712542	3.26894	0.894902	4.09612	0.57382	2.63104	0.733272	3.35342	0.926987	4.24198		
0.58997	2.68682	0.501129	2.25346	0.474443	2.71723	0.714193	3.2589	0.896967	4.08354	0.575962	2.62667	0.735702	3.34649	0.928191	4.2247		
0.593024	2.68631	0.504089	2.25482	0.471482	2.71862	0.715847	3.24897	0.899037	4.07112	0.578109	2.62237	0.738136	3.33966	0.929405	4.20766		
0.596078	2.68581	0.507045	2.25615	0.468528	2.72007	0.717503	3.23917	0.901111	4.05885	0.580262	2.61814	0.740574	3.33292	0.930627	4.19083		
0.599131	2.68531	0.509997	2.25744	0.465581	2.72159	0.719162	3.22947	0.903188	4.04673	0.582421	2.61398	0.743017	3.32627	0.931859	4.17423		
0.602185	2.68481	0.512945	2.25871	0.462642	2.72316	0.720824	3.21989	0.90527	4.03475	0.584587	2.60989	0.745463	3.31971	0.933101	4.15784		
0.605238	2.68432	0.51589	2.25995	0.459711	2.72481	0.722489	3.21043	0.907355	4.02291	0.586758	2.60588	0.747914	3.31323	0.934352	4.14166		
0.608291	2.68383	0.51883	2.26116	0.456789	2.72654	0.724157	3.20108	0.909444	4.01122	0.588936	2.60193	0.750367	3.30684	0.935613	4.1257		
0.611343	2.68335	0.521766	2.26233	0.453876	2.72835	0.725828	3.19184	0.911536	3.99965	0.591121	2.59806	0.752824	3.30052	0.936883	4.10994		
0.614396	2.68287	0.524698	2.26348	0.450973	2.73024	0.727503	3.18271	0.913631	3.98822	0.593313	2.59425	0.755284	3.29429	0.938163	4.09439		
0.617447	2.68239	0.527625	2.26459	0.448081	2.73222	0.729181	3.17369	0.915729	3.97692	0.595512	2.59052	0.757747	3.28813	0.939454	4.07904		
0.620498	2.68191	0.530548	2.26568	0.4452	2.73431	0.730863	3.16477	0.91783	3.96575	0.597718	2.58686	0.760212	3.28204	0.940754	4.06389		
0.623549	2.68144	0.533466	2.26673	0.442331	2.73649	0.732549	3.15597	0.919934	3.9547	0.599932	2.58326	0.76268	3.27603	0.942064	4.04894		
0.626599	2.68097	0.536379	2.26775	0.439475	2.73879	0.734238	3.14727	0.92204	3.94377	0.602154	2.57974	0.76515	3.27008	0.943384	4.03418		
0.629647	2.68049	0.539288	2.26875	0.436633	2.74121	0.735932	3.13868	0.924148	3.93297	0.604384	2.57629	0.767621	3.2642	0.944715	4.01961		
0.632695	2.68002	0.542191	2.26971	0.433806	2.74376	0.737631	3.13019	0.926258	3.92227	0.606622	2.5729	0.770094	3.25839	0.946056	4.00523		
0.635743	2.67955	0.545089	2.27064	0.430994	2.74645	0.739333	3.1218	0.92837	3.9117	0.608869	2.56958	0.772569	3.25264	0.947407	3.99104		
0.638789	2.67909	0.547982	2.27154	0.428199	2.74928	0.741041	3.11351	0.930484	3.90123	0.611124	2.56634	0.775044	3.24695	0.948768	3.97703		
0.641833	2.67862	0.55087	2.27241	0.425421	2.75228	0.742753	3.10533	0.9326	3.89088	0.613388	2.56316	0.777521	3.24133	0.950141	3.96321		
0.644877	2.67815	0.553752	2.27324	0.422663	2.75544	0.74447	3.09725	0.934717	3.88063	0.61566	2.56005	0.779999	3.23576	0.951523	3.94956		
0.64792	2.67768	0.556628	2.27405	0.419925	2.75879	0.746192	3.08927	0.936836	3.87049	0.617942	2.55701	0.782477	3.23024	0.952917	3.93609		
0.650961	2.67721	0.559499	2.27482	0.417208	2.76233	0.747919	3.08138	0.938955	3.86045	0.620234	2.55403	0.784955	3.22479	0.954321	3.92279		
0.654	2.67673	0.562364	2.27557	0.414515	2.76607	0.749651	3.0736	0.941076	3.85051	0.622534	2.55113	0.787434	3.21938	0.955736	3.90967		
0.657038	2.67626	0.565223	2.27628	0.411845	2.77005	0.751389	3.06591	0.943197	3.84067	0.624845	2.54829	0.789912	3.21403	0.957162	3.89672		
0.660075	2.67578	0.568076	2.27697	0.409202	2.77426	0.753133	3.05832	0.945319	3.83093	0.627165	2.54551	0.79239	3.20873	0.9586	3.88393		
0.663109	2.6753	0.570922	2.27762	0.406586	2.77873	0.754882	3.05082	0.947442	3.82128	0.629495	2.54281	0.794868	3.20347	0.960048	3.87132		
0.666142	2.67482	0.573763	2.27824	0.404	2.78347	0.756638	3.04342	0.949565	3.81172	0.631835	2.54017	0.797345	3.19827	0.961507	3.85886		
0.669173	2.67433	0.576597	2.27883	0.401444	2.7885	0.758399	3.03611	0.951688	3.80226	0.634185	2.5376	0.799822	3.1931	0.962978	3.84657		
0.672202	2.67385	0.579425	2.27939	0.39892	2.79384	0.760167	3.0289	0.953812	3.79288	0.636546	2.53509	0.802297	3.18799	0.96446	3.83444		
0.675228	2.67335	0.582246	2.27992	0.396431	2.79952	0.761941	3.02178	0.955935	3.7836	0.638918	2.53264	0.804771	3.18291	0.965954	3.82247		
0.678253	2.67285	0.585061	2.28041	0.393979	2.80555	0.763721	3.01475	0.958058	3.77439	0.6413	2.53027	0.807244	3.17788	0.967459	3.81065		
0.681275	2.67235	0.587869	2.28088	0.391563	2.81195	0.765509	3.00781	0.960182	3.76528	0.643692	2.52795	0.809715	3.17289	0.968975	3.79899		
0.684294	2.67185	0.59067	2.28132	0.389188	2.81874	0.767303	3.00096	0.962304	3.75624	0.646096	2.5257	0.812184	3.16793	0.970504	3.78749		
0.687311	2.67133	0.593465	2.28173	0.386853	2.82595	0.769104	2.99421	0.964426	3.74729	0.648511	2.52352	0.814652	3.16302	0.972044	3.77613		
0.690325	2.67081	0.596252	2.2821	0.384561	2.8336	0.770913	2.98754	0.966548	3.73841	0.650937	2.52139	0.817117	3.15814	0.973595	3.76492		
0.693336	2.67029	0.599033	2.28245	0.382313	2.84172	0.772729	2.98097	0.968668	3.72961	0.653373	2.51933	0.81958	3.1533	0.975159	3.75386		
0.696345	2.66976	0.601807	2.28277	0.380111	2.85032	0.774553	2.97448	0.970788	3.72089	0.655822	2.51733	0.822041	3.14849	0.976735	3.74294		
0.69935	2.66922	0.604574	2.28306	0.377956	2.85942	0.776384	2.96808	0.972907	3.71224	0.658281	2.5154	0.824499	3.14371	0.978323	3.73217		
0.702351	2.66867	0.607334	2.28332	0.375848	2.86906	0.778224	2.96177	0.975024	3.70367	0.660752	2.51352	0.826954	3.13897	0.979922	3.72155		
0.705349	2.66811	0.610086	2.28355	0.37379	2.87925	0.780072	2.95554	0.977141	3.69517	0.663235	2.5117	0.829407	3.13426	0.981534	3.71106		
0.708344	2.66755	0.612832	2.28375	0.371781	2.89001	0.781928	2.94941	0.979256	3.68673	0.665729	2.50994	0.831856	3.12958	0.983159	3.70071		
0.711335	2.66698	0.615571	2.28393	0.369822	2.90137	0.783792	2.94336	0.981369	3.67837	0.668234	2.50825	0.834302	3.12492	0.984795	3.6905		
0.714322	2.66639	0.618303	2.28408	0.367914	2.91333	0.785666	2.93739	0.983481	3.67007	0.670752	2.50661	0.836745	3.1203	0.986444	3.68042		
0.717304	2.6658	0.621028	2.2842	0.366057	2.92594	0.787549	2.93151	0.985591	3.66184	0.67328	2.50502	0.839185	3.1157	0.988105	3.67048		
0.720283	2.6652	0.623746	2.2843	0.364251	2.93919	0.78944	2.92572	0.9877	3.65368	0.675821	2.5035	0.84162	3.11113	0.989779	3.66067		
0.723256	2.66458	0.626457	2.28436	0.362496	2.95311	0.791342	2.92001	0.989806	3.64558	0.678373	2.50203	0.844052	3.10659	0.991466	3.651		
0.726225	2.66395	0.629161	2.28441	0.360792	2.96772	0.793253	2.91439	0.991911	3.63754	0.680936	2.50061	0.84648	3.10207	0.993164	3.64145		
0.72919	2.66331	0.631858	2.28443	0.359138	2.98303	0.795173	2.90885	0.994013	3.62956	0.683512	2.49926	0.848904	3.09758	0.994876	3.63203		
0.732149	2.66266	0.634548	2.28442	0.357535	2.99907	0.797105	2.9034	0.996114	3.62165	0.686098	2.49795	0.851324	3.09311	0.9966	3.62274		
0.735102	2.66199	0.637232	2.28439	0.35598	3.01584	0.799046	2.89803	0.998212	3.61379	0.688696	2.4967	0.85374	3.08866	0.998337	3.61357		
0.73805	2.66131	0.639909	2.28434	0.354474	3.03337	0.800998	2.89275	1.00031	3.60599	0.691306	2.49549	0.856151	3.08423	1.00009	3.60453		
0.740993	2.66061	0.64258	2.28426	0.353017	3.05167	0.802961	2.88755			0.693927	2.49435	0.858558	3.07982				
0.743929	2.6599	0.645244	2.28416	0.351607	3.07077	0.804936	2.88243			0.696559	2.49325	0.86096	3.07544				
0.746859	2.65917	0.647902	2.28404	0.350243	3.09067	0.806922	2.8774			0.699203	2.49219	0.863357	3.07107				
0.749782	2.65842	0.650553	2.2839	0.348925	3.1114	0.808919	2.87245			0.701858	2.49119	0.865749	3.06673				
0.752698	2.65766	0.653199	2.28374	0.347652	3.13297	0.810929	2.86759			0.704524	2.49024	0.868137	3.0624				
0.755608	2.65687	0.655838	2.28355	0.346424	3.15541	0.812951	2.86281			0.7072	2.48933	0.87052	3.05809				
0.75851	2.65607	0.658471	2.28335	0.345238	3.17874	0.814986	2.85811			0.709888	2.48847	0.872897	3.0538				
0.761404	2.65525	0.661099	2.28314	0.344096	3.20297	0.817034	2.8535			0.712586	2.48765	0.87527	3.04953				
0.76429	2.65441	0.663721	2.2829	0.342995	3.22814	0.819095	2.84897			0.715295	2.48687	0.877637	3.04527				
0.767168	2.65354	0.666337	2.28265	0.341936	3.25426	0.82117	2.84453			0.718015	2.48614	0.879998	3.04103				
0.770038	2.65265	0.668949	2.28238	0.340917	3.28137	0.823258	2.84017			0.720744	2.48545	0.882355	3.03681				
0.772898	2.65174	0.671554	2.28209	0.339938	3.30949	0.825361	2.83589			0.723484	2.4848	0.884706	3.0326				
0.77575	2.65081	0.674155	2.28179	0.338998	3.33864	0.827479	2.8317			0.726234	2.48419	0.887051	3.0284				
0.778592	2.64985	0.676751	2.28148	0.338097	3.36887	0.829611	2.8276			0.728994	2.48362	0.889392	3.02423				
0.781424	2.64886	0.679342	2.28115	0.337233	3.4002	0.831758	2.82357			0.731763	2.48308	0.891726	3.02006				
0.784246	2.64785	0.681929	2.28081	0.336408	3.43266	0.833922	2.81964			0.734542	2.48259	0.894055	3.01591				
0.787058	2.64681	0.684511	2.28046	0.335619	3.46629	0.836101	2.81578			0.73733	2.48212	0.896378	3.01177				
0.78986	2.64575	0.687089	2.28009	0.334867	3.50114	0.838296	2.81202			0.740128	2.4817	0.898695	3.00765				
0.79265	2.64465	0.689663	2.27972	0.334151	3.53724	0.840507	2.80833			0.742935	2.4813	0.901007	3.00354				
0.795429	2.64353	0.692233	2.27933	0.33347	3.57463	0.842736	2.80473			0.74575	2.48094	0.903313	2.99945				
0.798196	2.64238	0.694799	2.27894	0.332825	3.61336	0.844981	2.80122			0.748574	2.48061	0.905614	2.99536				
0.800952	2.6412	0.697361	2.27854	0.332214	3.65347	0.847244	2.79779			0.751407	2.48031	0.907908	2.99129				
0.803696	2.63999	0.69992	2.27812	0.331638	3.69503	0.849524	2.79445			0.754248	2.48004	0.910197	2.98723				
0.806428	2.63874	0.702475	2.27771	0.331096	3.73807	0.851822	2.79118			0.757097	2.4798	0.91248	2.98319				
0.809147	2.63747	0.705028	2.27728	0.330587	3.78266	0.854138	2.78801			0.759954	2.47958	0.914758	2.97916				
0.811854	2.63617	0.707577	2.27685	0.330112	3.82885	0.856473	2.78491			0.762819	2.4794	0.91703	2.97514				
0.814549	2.63484	0.710123	2.27641	0.32967	3.87672	0.858825	2.7819			0.765692	2.47924	0.919296	2.97113				
0.81723	2.63347	0.712667	2.27596	0.329261	3.92632	0.861196	2.77898			0.768572	2.4791	0.921556	2.96713				
0.819899	2.63207	0.715208	2.27551	0.328884	3.97773	0.863586	2.77613			0.771459	2.47899	0.923811	2.96315				
0.822555	2.63065	0.717747	2.27506	0.328539	4.03101	0.865994	2.77336			0.774353	2.47891	0.92606	2.95918				
0.825197	2.62919	0.720284	2.2746	0.328227	4.08626	0.868421	2.77068			0.777255	2.47884	0.928304	2.95522				
0.827827	2.6277	0.722818	2.27414	0.327945	4.14356	0.870867	2.76808			0.780163	2.4788	0.930542	2.95127				
0.830444	2.62619	0.72535	2.27368	0.327696	4.20298	0.873332	2.76555			0.783077	2.47878	0.932775	2.94733				
0.833049	2.62464	0.727881	2.27322	0.327477	4.26464	0.875815	2.7631			0.785999	2.47878	0.935002	2.94341				
0.83564	2.62307	0.730409	2.27275	0.327289	4.32862	0.878317	2.76073			0.788926	2.4788	0.937224	2.9395				
0.83822	2.62146	0.732936	2.27228	0.327131	4.39504	0.880837	2.75843			0.79186	2.47884	0.93944	2.9356				
0.840787	2.61984	0.735462	2.27181	0.327004	4.46401	0.883375	2.75621			0.794799	2.47889	0.941652	2.93172				
0.843341	2.61818	0.737986	2.27134	0.326906	4.53565	0.885931	2.75406			0.797745	2.47897	0.943858	2.92784				
0.845884	2.6165	0.740509	2.27086	0.326839	4.61009	0.888506	2.75198			0.800696	2.47906	0.946059	2.92398				
0.848416	2.6148	0.743031	2.27039	0.3268	4.68747	0.891097	2.74997			0.803652	2.47917	0.948256	2.92013				
0.850936	2.61308	0.745552	2.26992	0.326791	4.76794	0.893706	2.74802			0.806614	2.47929	0.950447	2.9163				
0.853445	2.61133	0.748072	2.26945	0.326811	4.85165	0.896332	2.74615			0.809581	2.47943	0.952633	2.91247				
0.855943	2.60957	0.750591	2.26898	0.326859	4.93877	0.898975	2.74433			0.812554	2.47958	0.954815	2.90866				
0.858432	2.60778	0.753109	2.26851	0.326935	5.02948	0.901633	2.74258			0.815531	2.47975	0.956992	2.90487				
0.86091	2.60598	0.755627	2.26804	0.32704	5.12398	0.904308	2.74089			0.818513	2.47993	0.959165	2.90108				
0.863379	2.60417	0.758144	2.26758	0.327171	5.22248	0.906998	2.73926			0.8215	2.48013	0.961333	2.89731				
0.865839	2.60234	0.760661	2.26711	0.327331	5.3252	0.909703	2.73769			0.824491	2.48033	0.963496	2.89356				
0.868291	2.60049	0.763177	2.26665	0.327517	5.43238	0.912423	2.73617			0.827487	2.48055	0.965656	2.88981				
0.870734	2.59864	0.765693	2.26619	0.327729	5.54428	0.915157	2.7347			0.830487	2.48078	0.967811	2.88609				
0.87317	2.59677	0.768209	2.26574	0.327968	5.66119	0.917905	2.73329			0.833492	2.48102	0.969962	2.88237				
0.875598	2.5949	0.770725	2.26528	0.328233	5.78341	0.920666	2.73192			0.8365	2.48127	0.972109	2.87867				
0.87802	2.59302	0.773241	2.26483	0.328523	5.91127	0.92344	2.73061			0.839513	2.48153	0.974253	2.87498				
0.880435	2.59114	0.775757	2.26439	0.328838	6.04513	0.926226	2.72933			0.84253	2.4818	0.976392	2.87131				
0.882844	2.58924	0.778273	2.26394	0.329178	6.18538	0.929025	2.72811			0.84555	2.48208	0.978528	2.86766				
0.885247	2.58735	0.780789	2.2635	0.329542	6.33245	0.931835	2.72692			0.848574	2.48237	0.980661	2.86401				
0.887646	2.58546	0.783306	2.26307	0.329929	6.4868	0.934656	2.72578			0.851601	2.48267	0.98279	2.86039				
0.89004	2.58356	0.785823	2.26263	0.33034	6.64894	0.937488	2.72467			0.854633	2.48298	0.984916	2.85677				
0.892429	2.58166	0.78834	2.2622	0.330773	6.81942	0.940331	2.7236			0.857667	2.48329	0.987039	2.85318				
0.894815	2.57977	0.790858	2.26178	0.331229	6.99887	0.943183	2.72257			0.860705	2.48361	0.989158	2.8496				
0.897197	2.57788	0.793376	2.26136	0.331707	7.18795	0.946045	2.72157			0.863746	2.48394	0.991275	2.84603				
0.899575	2.57599	0.795894	2.26094	0.332205	7.38741	0.948916	2.72061			0.86679	2.48427	0.993389	2.84248				
0.901952	2.57411	0.798414	2.26053	0.332724	7.59807	0.951796	2.71968			0.869837	2.48462	0.9955	2.83895				
0.904325	2.57223	0.800934	2.26013	0.333262	7.82084	0.954684	2.71877			0.872888	2.48496	0.997608	2.83544				
0.906697	2.57036	0.803454	2.25972	0.333747	8.02565	0.95758	2.7179			0.875941	2.48532	0.999714	2.83194				
0.909067	2.5685	0.805976	2.25933	0.334172	8.20867	0.960484	2.71705			0.878997	2.48568	1.00182	2.82845				
0.911435	2.56664	0.808498	2.25893	0.33453	8.36625	0.963395	2.71623			0.882056	2.48604						
0.913803	2.5648	0.811021	2.25855	0.334818	8.49507	0.966314	2.71544			0.885117	2.48641						
0.916169	2.56296	0.813544	2.25816	0.335032	8.59226	0.969239	2.71467			0.888181	2.48679						
0.918535	2.56114	0.816069	2.25779	0.335231	8.6836	0.972171	2.71392			0.891248	2.48716						
0.920901	2.55932	0.818595	2.25741	0.335371	8.74826	0.975109	2.7132			0.894317	2.48755						
0.923267	2.55752	0.821121	2.25704	0.335591	8.85117	0.978053	2.7125			0.897388	2.48794						
0.925633	2.55573	0.823649	2.25668	0.335893	8.99494	0.981002	2.71181			0.900462	2.48833						
0.927999	2.55396	0.826177	2.25632	0.33628	9.18334	0.983957	2.71115			0.903539	2.48872						
0.930366	2.55219	0.828707	2.25597	0.336756	9.42158	0.986917	2.7105			0.906617	2.48912						
0.932734	2.55044	0.831237	2.25562	0.337324	9.71665	0.989882	2.70988			0.909698	2.48953						
0.935104	2.54871	0.833769	2.25528	0.337987	10.0779	0.992852	2.70926			0.91278	2.48993						
0.937474	2.54699	0.836302	2.25494	0.338663	10.4658	0.995827	2.70867			0.915865	2.49034						
0.939846	2.54528	0.838836	2.25461	0.33935	10.8834	0.998805	2.70809			0.918952	2.49075						
0.94222	2.54359	0.841371	2.25428	0.340046	11.3341	1.00179	2.70753			0.922041	2.49117						
0.944596	2.54192	0.843907	2.25396	0.34075	11.822					0.925132	2.49158						
0.946973	2.54026	0.846444	2.25365	0.341461	12.3516					0.928225	2.492						
0.949353	2.53862	0.848983	2.25334	0.342176	12.9287					0.931319	2.49243						
0.951735	2.537	0.851523	2.25303	0.342894	13.5596					0.934415	2.49285						
0.95412	2.53539	0.854064	2.25273	0.343614	14.2523					0.937514	2.49328						
0.956507	2.5338	0.856606	2.25243	0.344332	15.0161					0.940613	2.4937						
0.958898	2.53222	0.85915	2.25214	0.345047	15.8625					0.943715	2.49413						
0.96129	2.53067	0.861695	2.25186	0.345755	16.8055					0.946818	2.49457						
0.963687	2.52913	0.864241	2.25158	0.346456	17.8628					0.949922	2.495						
0.966086	2.52761	0.866788	2.2513	0.347144	19.0562					0.953029	2.49543						
0.968488	2.5261	0.869337	2.25103	0.347818	20.4138					0.956136	2.49587						
0.970893	2.52462	0.871887	2.25076	0.348474	21.9721					0.959246	2.49631						
0.973302	2.52315	0.874438	2.2505	0.349108	23.779					0.962356	2.49674						
0.975715	2.5217	0.876991	2.25025	0.349716	25.8995					0.965469	2.49718						
0.978131	2.52027	0.879545	2.25	0.350295	28.4231					0.968582	2.49762						
0.980551	2.51885	0.8821	2.24975	0.35084	31.4774					0.971697	2.49806						
0.982974	2.51746	0.884657	2.24951	0.351347	35.25					0.974813	2.4985						
0.985401	2.51608	0.887215	2.24927	0.351812	40.0297					0.97793	2.49895						
0.987833	2.51472	0.889774	2.24904	0.352229	46.2835					0.981049	2.49939						
0.990268	2.51338	0.892334	2.24882	0.352596	54.8212					0.984169	2.49983						
0.992707	2.51205	0.894896	2.24859	0.352908	67.1792					0.98729	2.50027						
0.99515	2.51075	0.897459	2.24838	0.353162	86.6713					0.990412	2.50072						
0.997597	2.50946	0.900024	2.24816	0.353354	122.006					0.993536	2.50116						
1.00005	2.50819	0.90259	2.24796	0.353483	205.788					0.996661	2.50161						
		0.905157	2.24775	0.353546	655.693					0.999786	2.50205						
		0.907726	2.24755							1.00291	2.50249						
		0.910295	2.24736														
		0.912867	2.24717														
		0.915439	2.24698														
		0.918013	2.2468														
		0.920588	2.24662														
		0.923164	2.24645														
		0.925742	2.24628														
		0.928321	2.24611														
		0.930901	2.24595														
		0.933483	2.2458														
		0.936066	2.24564														
		0.93865	2.24549														
		0.941235	2.24535														
		0.943822	2.24521														
		0.94641	2.24507														
		0.948999	2.24493														
		0.951589	2.2448														
		0.954181	2.24468														
		0.956773	2.24455														
		0.959367	2.24443														
		0.961962	2.24432														
		0.964559	2.2442														
		0.967156	2.24409														
		0.969755	2.24399														
		0.972354	2.24388														
		0.974955	2.24378														
		0.977557	2.24368														
		0.980161	2.24359														
		0.982765	2.2435														
		0.98537	2.24341														
		0.987977	2.24333														
		0.990584	2.24324														
		0.993193	2.24317														
		0.995802	2.24309														
		0.998413	2.24302														
		1.00102	2.24294														
