Sym0		Asym0		Sym1		Sym2		Sym3		Asym1		Asym2		Asym3		Asym4	
338  Points		378  Points		339  Points		320  Points		237  Points		345  Points		299  Points		232  Points		121  Points	
Freq (MHz)	Vph (m/ms)	Freq (MHz)	Vph (m/ms)	Freq (MHz)	Vph (m/ms)	Freq (MHz)	Vph (m/ms)	Freq (MHz)	Vph (m/ms)	Freq (MHz)	Vph (m/ms)	Freq (MHz)	Vph (m/ms)	Freq (MHz)	Vph (m/ms)	Freq (MHz)	Vph (m/ms)
0.353539	321.902	0.000285045	0.104332	1.00243	2.55429	0.429323	106407	0.707107	2853.11	0.176777	1401.63	0.53033	1563.4	0.858645	1054.04	0.883884	5294.55
0.35349	155.258	0.000582999	0.149082	0.999993	2.55574	0.429357	363.078	0.707114	495.751	0.17684	135.548	0.530336	349.428	0.858638	430.798	0.883903	656.955
0.353408	102.28	0.000985197	0.193589	0.997553	2.55721	0.429455	181.891	0.70713	271.466	0.177005	71.2826	0.53035	196.7	0.858624	270.719	0.883952	350.224
0.353293	76.2424	0.00149023	0.237766	0.995114	2.55869	0.429619	121.376	0.707156	186.912	0.177273	48.4132	0.53037	136.879	0.858603	197.373	0.884031	238.767
0.353146	60.7581	0.00209632	0.281531	0.992676	2.56018	0.429848	91.1065	0.707191	142.525	0.177641	36.7015	0.530399	104.962	0.858577	155.295	0.884139	181.139
0.352968	50.4901	0.00280162	0.324839	0.990238	2.56168	0.43014	72.9473	0.707236	115.178	0.17811	29.5928	0.530435	85.1178	0.858545	128.004	0.884276	145.932
0.35276	43.1809	0.00360386	0.367622	0.987802	2.56319	0.430496	60.8466	0.707291	96.6389	0.178677	24.8259	0.530478	71.5867	0.858508	108.869	0.884443	122.194
0.352523	37.7116	0.00450052	0.409821	0.985366	2.56471	0.430913	52.209	0.707355	83.2435	0.17934	21.4119	0.530529	61.7699	0.858465	94.7094	0.884637	105.107
0.352258	33.4644	0.005489	0.451392	0.98293	2.56624	0.43139	45.7363	0.707429	73.1122	0.180097	18.8501	0.530587	54.3228	0.858418	83.8077	0.884861	92.2207
0.351968	30.0702	0.00656653	0.492292	0.980494	2.56778	0.431927	40.707	0.707512	65.1818	0.180947	16.8593	0.530653	48.48	0.858367	75.1555	0.885111	82.156
0.351654	27.2952	0.00773015	0.532482	0.978058	2.56933	0.432521	36.6881	0.707605	58.8056	0.181885	15.27	0.530727	43.7737	0.858313	68.1215	0.885389	74.0784
0.351318	24.9837	0.00897685	0.57193	0.975622	2.57089	0.433171	33.4039	0.707707	53.5677	0.18291	13.9735	0.530808	39.9019	0.858255	62.2906	0.885693	67.4528
0.350961	23.0283	0.0103036	0.61061	0.973185	2.57246	0.433875	30.6708	0.707819	49.1884	0.184018	12.897	0.530897	36.6607	0.858195	57.3784	0.886024	61.9204
0.350586	21.3526	0.0117071	0.648497	0.970747	2.57403	0.43463	28.3615	0.707941	45.4727	0.185206	11.99	0.530994	33.9079	0.858133	53.1837	0.88638	57.2316
0.350194	19.9003	0.0131845	0.685575	0.968308	2.57562	0.435437	26.385	0.708072	42.2806	0.186472	11.2162	0.531098	31.5409	0.85807	49.5599	0.886761	53.2074
0.349787	18.6295	0.0147325	0.721834	0.965868	2.5772	0.436292	24.6747	0.708213	39.5087	0.187813	10.549	0.53121	29.484	0.858005	46.398	0.887166	49.7162
0.349367	17.5082	0.0163481	0.757269	0.963427	2.5788	0.437193	23.1807	0.708364	37.0793	0.189039	10.0388	0.53133	27.6801	0.85794	43.6149	0.887595	46.6587
0.348935	16.5114	0.0180283	0.79187	0.960983	2.5804	0.43814	21.8646	0.708525	34.9328	0.190125	9.64795	0.531458	26.0852	0.857876	41.1465	0.888047	43.9592
0.348494	15.6195	0.0197703	0.825643	0.958537	2.582	0.439129	20.6968	0.708695	33.0224	0.191051	9.35139	0.531594	24.6652	0.857812	38.9422	0.888522	41.5583
0.348046	14.8168	0.0215709	0.858586	0.956089	2.58361	0.44016	19.6537	0.708875	31.3113	0.1918	9.13219	0.531738	23.3927	0.857749	36.9618	0.889019	39.4092
0.347591	14.0905	0.0234277	0.890708	0.953639	2.58522	0.44123	18.7166	0.709065	29.77	0.19236	8.97893	0.53189	22.246	0.857688	35.173	0.889537	37.4744
0.347132	13.4302	0.0253378	0.922017	0.951185	2.58683	0.442339	17.8703	0.709264	28.3745	0.192723	8.88416	0.53205	21.2074	0.857629	33.5491	0.890077	35.7236
0.34667	12.8275	0.0272987	0.952524	0.948728	2.58845	0.443483	17.1022	0.709473	27.1049	0.19325	8.75222	0.532218	20.2623	0.857572	32.0685	0.890637	34.1316
0.346206	12.2751	0.0293079	0.982241	0.946267	2.59006	0.444663	16.4023	0.709693	25.9451	0.19383	8.61429	0.532395	19.3986	0.857518	30.713	0.891217	32.678
0.345743	11.767	0.031363	1.01118	0.943802	2.59167	0.445875	15.7618	0.709922	24.8815	0.194631	8.43531	0.532579	18.6064	0.857468	29.4674	0.891817	31.3455
0.345282	11.2981	0.0334619	1.03935	0.941333	2.59328	0.44712	15.1737	0.710161	23.9026	0.195664	8.22209	0.532772	17.8771	0.857421	28.3188	0.892437	30.1196
0.344823	10.8641	0.0356023	1.06679	0.938859	2.59489	0.448395	14.6317	0.71041	22.9987	0.196941	7.98209	0.532974	17.2035	0.857378	27.2565	0.893075	28.9882
0.344369	10.4614	0.0377821	1.09349	0.93638	2.5965	0.449698	14.1309	0.710669	22.1616	0.198476	7.72286	0.533184	16.5796	0.857339	26.271	0.893731	27.9407
0.34392	10.0866	0.0399994	1.11948	0.933895	2.5981	0.45103	13.6666	0.710938	21.3841	0.200286	7.45158	0.533403	16.0001	0.857305	25.3544	0.894406	26.9682
0.343477	9.73709	0.0422524	1.14477	0.931405	2.5997	0.452388	13.2351	0.711217	20.6601	0.202145	7.20482	0.53363	15.4604	0.857276	24.4996	0.895099	26.0629
0.343042	9.41038	0.0445392	1.16939	0.928909	2.60129	0.453772	12.8332	0.711506	19.9844	0.204049	6.97954	0.533866	14.9565	0.857252	23.7007	0.895808	25.2182
0.342616	9.10435	0.0468584	1.19336	0.926406	2.60287	0.45518	12.4578	0.711806	19.3522	0.205997	6.77314	0.534111	14.4851	0.857233	22.9523	0.896535	24.4282
0.3422	8.81717	0.0492082	1.21669	0.923897	2.60444	0.456612	12.1064	0.712115	18.7595	0.207987	6.58345	0.534365	14.0432	0.85722	22.2499	0.897279	23.6879
0.341795	8.54718	0.051587	1.23939	0.92138	2.606	0.458065	11.777	0.712435	18.2028	0.210016	6.4086	0.534628	13.628	0.857213	21.5893	0.89804	22.9926
0.341401	8.29293	0.0539937	1.26149	0.918855	2.60756	0.45954	11.4675	0.712765	17.6789	0.212081	6.24698	0.534901	13.2373	0.857211	20.9669	0.898816	22.3384
0.341019	8.05313	0.0564267	1.28301	0.916323	2.6091	0.461036	11.1761	0.713105	17.185	0.214182	6.0972	0.535182	12.8689	0.857216	20.3796	0.899609	21.7219
0.340652	7.82663	0.0588848	1.30396	0.913783	2.61062	0.462551	10.9014	0.713456	16.7187	0.216315	5.95804	0.535473	12.5211	0.857227	19.8244	0.900417	21.1399
0.340298	7.61238	0.0613669	1.32436	0.911234	2.61213	0.464084	10.642	0.713817	16.2776	0.21848	5.82847	0.535773	12.1921	0.857245	19.2988	0.901241	20.5895
0.339959	7.40947	0.0638718	1.34423	0.908676	2.61363	0.465636	10.3966	0.714188	15.8598	0.220674	5.70756	0.536082	11.8806	0.857269	18.8006	0.90208	20.0684
0.339636	7.21705	0.0663983	1.36358	0.906109	2.61511	0.467205	10.1641	0.71457	15.4636	0.222896	5.59449	0.536402	11.5851	0.8573	18.3275	0.902934	19.5742
0.339329	7.03438	0.0689456	1.38244	0.903532	2.61658	0.468586	9.9714	0.714963	15.0873	0.225144	5.48857	0.536731	11.3044	0.857337	17.8779	0.903804	19.1049
0.33904	6.86075	0.0715127	1.40081	0.900946	2.61802	0.469772	9.81381	0.715366	14.7295	0.227416	5.38914	0.53707	11.0376	0.857382	17.45	0.904687	18.6588
0.338767	6.69557	0.0740986	1.41871	0.898349	2.61945	0.470759	9.68793	0.71578	14.3889	0.229712	5.29565	0.537419	10.7836	0.857434	17.0423	0.905586	18.2341
0.338514	6.53826	0.0767025	1.43616	0.895743	2.62085	0.471544	9.59109	0.716204	14.0642	0.23203	5.2076	0.537778	10.5415	0.857493	16.6534	0.906498	17.8294
0.338279	6.38831	0.0793236	1.45317	0.893126	2.62224	0.472123	9.52136	0.716639	13.7545	0.234368	5.12454	0.538147	10.3106	0.857559	16.282	0.907425	17.4433
0.338063	6.24524	0.0819611	1.46976	0.890498	2.6236	0.472495	9.47737	0.717085	13.4586	0.236726	5.04607	0.538477	10.1178	0.857632	15.927	0.908366	17.0746
0.337867	6.10863	0.0846142	1.48593	0.88786	2.62494	0.473031	9.41499	0.717542	13.1757	0.239103	4.97182	0.538765	9.95939	0.857713	15.5874	0.90932	16.7221
0.337691	5.97808	0.0872824	1.50171	0.885211	2.62626	0.473615	9.3483	0.71801	12.9051	0.241496	4.90148	0.539007	9.83228	0.857801	15.2621	0.910289	16.3848
0.337537	5.85322	0.0899649	1.5171	0.88255	2.62756	0.474412	9.25941	0.718488	12.6458	0.243906	4.83474	0.539201	9.73419	0.857897	14.9503	0.91127	16.0617
0.337403	5.73373	0.0926612	1.53212	0.879879	2.62883	0.475424	9.14989	0.718978	12.3973	0.246331	4.77135	0.539346	9.66337	0.858	14.6512	0.912265	15.7521
0.337292	5.6193	0.0953706	1.54678	0.877197	2.63007	0.476655	9.02158	0.719479	12.1588	0.24877	4.71106	0.539439	9.61862	0.858111	14.3641	0.913274	15.455
0.337202	5.50963	0.0980927	1.56109	0.874503	2.63129	0.478108	8.87654	0.719991	11.9299	0.251223	4.65365	0.539574	9.55505	0.85823	14.0881	0.914295	15.1697
0.337135	5.40447	0.100827	1.57506	0.871799	2.63249	0.479787	8.71699	0.720514	11.7099	0.253688	4.59892	0.539722	9.48696	0.858356	13.8228	0.91533	14.8956
0.337091	5.30357	0.103572	1.5887	0.869083	2.63366	0.481478	8.56433	0.721048	11.4983	0.256166	4.54669	0.539925	9.396	0.85849	13.5674	0.916377	14.6321
0.337071	5.2067	0.106329	1.60203	0.866356	2.63481	0.483181	8.41814	0.721594	11.2948	0.258654	4.49679	0.540186	9.28358	0.858632	13.3216	0.917437	14.3784
0.337074	5.11365	0.109097	1.61505	0.863618	2.63593	0.484894	8.27802	0.722151	11.0988	0.261152	4.44908	0.540508	9.15141	0.858781	13.0846	0.918509	14.1342
0.337101	5.02424	0.111874	1.62777	0.860869	2.63703	0.486617	8.1436	0.72272	10.9099	0.263661	4.4034	0.540892	9.00141	0.858938	12.8562	0.919594	13.8988
0.337144	4.94913	0.114662	1.6402	0.85811	2.6381	0.488351	8.01454	0.7233	10.7278	0.266178	4.35963	0.541344	8.83563	0.859103	12.6358	0.920692	13.6719
0.337196	4.88708	0.117459	1.65235	0.85534	2.63914	0.490094	7.89053	0.723892	10.5521	0.268704	4.31766	0.541807	8.6763	0.859276	12.423	0.921801	13.4529
0.337249	4.8371	0.120265	1.66424	0.85256	2.64016	0.491846	7.77129	0.724417	10.404	0.271238	4.27737	0.542281	8.52304	0.859456	12.2174	0.922923	13.2415
0.337298	4.7984	0.12308	1.67586	0.849769	2.64116	0.493606	7.65654	0.724872	10.2813	0.273778	4.23867	0.542767	8.37554	0.859645	12.0188	0.924056	13.0374
0.337337	4.7704	0.125903	1.68722	0.846968	2.64213	0.495375	7.54603	0.725253	10.1821	0.276326	4.20145	0.543264	8.23349	0.859841	11.8266	0.925202	12.84
0.337364	4.75268	0.128734	1.69834	0.844157	2.64308	0.497152	7.43954	0.725557	10.1052	0.27888	4.16564	0.543774	8.09659	0.860045	11.6407	0.926359	12.6492
0.337405	4.72747	0.131573	1.70922	0.841337	2.64401	0.498936	7.33685	0.725782	10.0494	0.281439	4.13114	0.544295	7.96459	0.860257	11.4608	0.927528	12.4646
0.337453	4.70042	0.134419	1.71986	0.838507	2.64491	0.500727	7.23776	0.725928	10.0141	0.284004	4.0979	0.544828	7.83724	0.860477	11.2865	0.928709	12.2859
0.337523	4.66421	0.137273	1.73028	0.835668	2.64579	0.502526	7.14209	0.726137	9.96377	0.286574	4.06584	0.545373	7.71431	0.860705	11.1177	0.929901	12.1128
0.337621	4.61935	0.140133	1.74049	0.83282	2.64665	0.504331	7.04966	0.726367	9.90968	0.289147	4.03489	0.545931	7.59558	0.860941	10.9539	0.931104	11.9451
0.337752	4.56644	0.143	1.75048	0.829964	2.64749	0.506141	6.96031	0.726681	9.83715	0.291725	4.005	0.546501	7.48085	0.861184	10.7952	0.932318	11.7825
0.337924	4.5062	0.145874	1.76026	0.827099	2.6483	0.507958	6.87389	0.727083	9.74707	0.294306	3.97611	0.547084	7.36994	0.861403	10.6607	0.933544	11.6249
0.338146	4.43939	0.148754	1.76984	0.824225	2.6491	0.50978	6.79026	0.727575	9.64052	0.296891	3.94816	0.54768	7.26266	0.861594	10.5488	0.934781	11.4719
0.338395	4.37496	0.15164	1.77923	0.821344	2.64988	0.511608	6.70928	0.72816	9.51874	0.299478	3.92111	0.548288	7.15885	0.861755	10.458	0.936028	11.3235
0.33867	4.31281	0.154532	1.78843	0.818455	2.65063	0.51344	6.63083	0.728844	9.38312	0.302068	3.89492	0.54891	7.05835	0.861885	10.3874	0.937287	11.1793
0.338972	4.25283	0.157429	1.79744	0.815558	2.65137	0.515277	6.55479	0.729539	9.25171	0.304659	3.86954	0.549544	6.96102	0.861981	10.3362	0.938556	11.0393
0.339302	4.19494	0.160331	1.80628	0.812655	2.65209	0.517118	6.48105	0.730247	9.12431	0.307253	3.84492	0.550192	6.86672	0.862044	10.3036	0.939836	10.9032
0.339659	4.13905	0.163239	1.81494	0.809744	2.6528	0.518963	6.40951	0.730967	9.00077	0.309848	3.82104	0.550853	6.77532	0.862134	10.2572	0.94096	10.7877
0.340043	4.08507	0.166152	1.82343	0.806827	2.65349	0.520813	6.34006	0.731699	8.88091	0.312444	3.79786	0.551528	6.6867	0.862233	10.2073	0.941924	10.6914
0.340456	4.03293	0.16907	1.83176	0.803903	2.65416	0.522665	6.27263	0.732444	8.76458	0.31504	3.77534	0.552217	6.60073	0.86237	10.1402	0.942726	10.6133
0.340897	3.98255	0.171992	1.83993	0.800972	2.65481	0.524521	6.20711	0.733201	8.65164	0.317638	3.75345	0.55292	6.51732	0.862545	10.0567	0.943362	10.5525
0.341366	3.93387	0.174919	1.84795	0.798036	2.65545	0.52638	6.14343	0.733971	8.54194	0.320235	3.73217	0.553636	6.43636	0.86276	9.95754	0.943832	10.5083
0.341864	3.88682	0.177851	1.85581	0.795094	2.65608	0.528242	6.08151	0.734754	8.43535	0.322832	3.71147	0.554367	6.35775	0.863019	9.84385	0.944133	10.4802
0.342391	3.84134	0.180786	1.86352	0.792146	2.65669	0.530106	6.02127	0.735549	8.33176	0.325429	3.69131	0.555112	6.28139	0.863323	9.7167	0.944567	10.4401
0.342946	3.79737	0.183726	1.8711	0.789193	2.65729	0.531973	5.96266	0.736358	8.23103	0.328026	3.67168	0.555871	6.20721	0.863635	9.59297	0.94504	10.397
0.343532	3.75485	0.186669	1.87853	0.786235	2.65787	0.533841	5.90559	0.737179	8.13307	0.330621	3.65255	0.556645	6.13512	0.863955	9.47253	0.945686	10.339
0.344146	3.71373	0.189617	1.88582	0.783271	2.65845	0.535712	5.85002	0.738013	8.03776	0.333216	3.6339	0.557434	6.06503	0.864283	9.35524	0.946505	10.2667
0.344791	3.67396	0.192568	1.89299	0.780303	2.65901	0.537584	5.79587	0.73886	7.94501	0.335809	3.61571	0.558238	5.99688	0.864619	9.24099	0.947501	10.1808
0.345465	3.6355	0.195523	1.90002	0.777331	2.65956	0.539457	5.7431	0.73972	7.85472	0.338401	3.59796	0.559056	5.93059	0.864962	9.12966	0.948677	10.0822
0.34617	3.59829	0.198481	1.90693	0.774353	2.6601	0.541332	5.69165	0.740593	7.7668	0.34099	3.58063	0.55989	5.8661	0.865313	9.02115	0.950035	9.97173
0.346906	3.5623	0.201442	1.91371	0.771372	2.66063	0.543207	5.64146	0.74148	7.68116	0.343578	3.5637	0.560739	5.80334	0.865672	8.91536	0.951403	9.86408
0.347673	3.52748	0.204407	1.92038	0.768386	2.66115	0.545084	5.5925	0.74238	7.59773	0.346164	3.54716	0.561604	5.74225	0.866039	8.81218	0.952781	9.75912
0.34847	3.4938	0.207375	1.92693	0.765397	2.66166	0.546961	5.54472	0.743293	7.51642	0.348747	3.53099	0.562484	5.68277	0.866414	8.71153	0.954168	9.65676
0.3493	3.46122	0.210346	1.93336	0.762403	2.66216	0.548838	5.49806	0.744219	7.43715	0.351327	3.51517	0.563379	5.62484	0.866797	8.61331	0.955565	9.5569
0.350161	3.4297	0.21332	1.93969	0.759407	2.66265	0.550716	5.4525	0.745159	7.35987	0.353905	3.49969	0.564291	5.56843	0.867187	8.51745	0.956971	9.45947
0.351054	3.39921	0.216297	1.9459	0.756406	2.66314	0.552594	5.40799	0.746113	7.2845	0.356479	3.48454	0.565219	5.51346	0.867585	8.42385	0.958386	9.36437
0.35198	3.36973	0.219277	1.95201	0.753402	2.66361	0.554471	5.36449	0.74708	7.21097	0.359051	3.46971	0.566162	5.4599	0.867991	8.33244	0.959811	9.27153
0.352939	3.34121	0.222259	1.95802	0.750396	2.66408	0.556349	5.32198	0.748061	7.13922	0.361619	3.45517	0.567122	5.40769	0.868405	8.24316	0.961244	9.18086
0.353932	3.31363	0.22486	1.96317	0.747385	2.66455	0.558225	5.2804	0.749055	7.06921	0.364183	3.44093	0.568098	5.35681	0.868826	8.15592	0.962687	9.09229
0.354958	3.28698	0.227078	1.9675	0.744373	2.665	0.560101	5.23973	0.750063	7.00086	0.366744	3.42696	0.569091	5.30719	0.869255	8.07066	0.964138	9.00576
0.356019	3.26121	0.228914	1.97104	0.741357	2.66545	0.561977	5.19995	0.751085	6.93412	0.3693	3.41326	0.5701	5.2588	0.869692	7.98732	0.965598	8.92119
0.357114	3.2363	0.230366	1.97382	0.738338	2.66589	0.563851	5.16101	0.752121	6.86895	0.371853	3.39982	0.571126	5.21161	0.870137	7.90584	0.967067	8.83853
0.358245	3.21224	0.231434	1.97584	0.735317	2.66633	0.565724	5.1229	0.753171	6.80529	0.374401	3.38663	0.572169	5.16558	0.87059	7.82615	0.968545	8.7577
0.359411	3.189	0.232118	1.97713	0.732294	2.66676	0.567596	5.08557	0.754235	6.7431	0.376945	3.37368	0.573229	5.12066	0.87105	7.7482	0.970031	8.67866
0.360614	3.16656	0.233101	1.97898	0.729268	2.66719	0.569466	5.04902	0.755312	6.68233	0.379484	3.36095	0.574306	5.07684	0.871518	7.67194	0.971525	8.60134
0.361854	3.14491	0.23417	1.98098	0.72624	2.66761	0.571335	5.0132	0.756404	6.62293	0.382019	3.34845	0.5754	5.03406	0.871994	7.59731	0.973028	8.52568
0.363131	3.12401	0.235624	1.98367	0.723209	2.66803	0.573202	4.97811	0.75751	6.56487	0.384548	3.33616	0.576511	4.99231	0.872477	7.52426	0.974539	8.45165
0.364447	3.10386	0.237464	1.98705	0.720177	2.66845	0.575068	4.94371	0.75863	6.50811	0.387073	3.32408	0.57764	4.95155	0.872968	7.45275	0.976057	8.37918
0.365802	3.08444	0.23969	1.99109	0.717143	2.66886	0.576931	4.90998	0.759764	6.4526	0.389592	3.31219	0.578786	4.91176	0.873467	7.38273	0.977585	8.30824
0.367196	3.06573	0.242302	1.99577	0.714107	2.66927	0.578792	4.87691	0.760912	6.39831	0.392106	3.3005	0.57995	4.8729	0.873974	7.31416	0.979119	8.23876
0.36863	3.04772	0.245302	2.00105	0.711069	2.66967	0.580651	4.84447	0.762074	6.3452	0.394615	3.28899	0.581132	4.83495	0.874488	7.24699	0.980662	8.17072
0.370105	3.03039	0.248305	2.00625	0.708029	2.67007	0.582508	4.81264	0.763251	6.29325	0.397118	3.27765	0.582331	4.79789	0.875011	7.18118	0.982213	8.10406
0.371622	3.01373	0.251309	2.01137	0.704987	2.67047	0.584363	4.78141	0.764442	6.24241	0.399616	3.2665	0.583548	4.76168	0.87554	7.1167	0.983771	8.03875
0.373182	2.99772	0.254314	2.01641	0.701945	2.67087	0.586214	4.75075	0.765647	6.19265	0.402107	3.2555	0.584783	4.72631	0.876078	7.0535	0.985336	7.97475
0.374784	2.98236	0.257322	2.02137	0.6989	2.67126	0.588064	4.72065	0.766866	6.14395	0.404593	3.24467	0.586036	4.69175	0.876623	6.99155	0.986909	7.91201
0.376429	2.96762	0.260332	2.02625	0.695855	2.67166	0.58991	4.69109	0.7681	6.09627	0.407073	3.23399	0.587308	4.65798	0.877176	6.93081	0.98849	7.85051
0.378119	2.9535	0.263343	2.03106	0.692807	2.67205	0.591754	4.66206	0.769347	6.04959	0.409547	3.22347	0.588597	4.62498	0.877737	6.87126	0.990078	7.79021
0.379853	2.93999	0.266355	2.03579	0.689759	2.67244	0.593594	4.63354	0.77061	6.00388	0.412015	3.21309	0.589905	4.59272	0.878305	6.81286	0.991672	7.73106
0.381633	2.92706	0.26937	2.04045	0.68671	2.67283	0.595432	4.60552	0.771886	5.95911	0.414476	3.20284	0.591231	4.5612	0.878881	6.75557	0.993274	7.67306
0.383458	2.91471	0.272385	2.04504	0.683659	2.67322	0.597267	4.57798	0.773177	5.91525	0.416931	3.19274	0.592575	4.53038	0.879465	6.69937	0.994883	7.61615
0.385328	2.90292	0.275403	2.04956	0.680608	2.67361	0.599099	4.55091	0.774482	5.87229	0.41938	3.18277	0.593938	4.50025	0.880057	6.64423	0.996499	7.56031
0.387244	2.89168	0.278421	2.05401	0.677555	2.67399	0.600927	4.5243	0.775801	5.83019	0.421822	3.17293	0.595319	4.47079	0.880656	6.59011	0.998121	7.50551
0.389206	2.88098	0.281441	2.05839	0.674501	2.67438	0.602752	4.49813	0.777134	5.78894	0.424258	3.16321	0.596719	4.44199	0.881263	6.53701	0.99975	7.45172
0.391214	2.8708	0.284462	2.06271	0.671447	2.67477	0.604574	4.47239	0.778482	5.74852	0.426687	3.15361	0.598137	4.41382	0.881877	6.48487	1.00139	7.39892
0.393267	2.86112	0.287485	2.06696	0.668392	2.67516	0.606393	4.44707	0.779844	5.70889	0.42911	3.14412	0.599573	4.38628	0.8825	6.4337		
0.395365	2.85193	0.290508	2.07115	0.665336	2.67555	0.608208	4.42216	0.78122	5.67005	0.431526	3.13476	0.601029	4.35934	0.88313	6.38344		
0.397507	2.84321	0.293533	2.07528	0.66228	2.67594	0.61002	4.39766	0.78261	5.63196	0.433935	3.1255	0.602502	4.33299	0.883767	6.3341		
0.399693	2.83495	0.296559	2.07934	0.659223	2.67633	0.611828	4.37353	0.784014	5.59462	0.436337	3.11635	0.603995	4.30722	0.884413	6.28563		
0.401922	2.82713	0.299586	2.08335	0.656165	2.67672	0.613633	4.34979	0.785432	5.558	0.438733	3.1073	0.605505	4.282	0.885066	6.23803		
0.404193	2.81973	0.302614	2.0873	0.653107	2.67712	0.615435	4.32642	0.786865	5.52208	0.441121	3.09836	0.607035	4.25734	0.885727	6.19126		
0.406505	2.81273	0.305643	2.0912	0.650048	2.67752	0.617232	4.3034	0.788311	5.48685	0.443503	3.08952	0.608583	4.2332	0.886396	6.14531		
0.408856	2.80612	0.308672	2.09503	0.646989	2.67792	0.619027	4.28074	0.789771	5.45229	0.445878	3.08077	0.610149	4.20959	0.887072	6.10016		
0.411246	2.79987	0.311703	2.09881	0.64393	2.67832	0.620817	4.25842	0.791245	5.41839	0.448247	3.07212	0.611734	4.18649	0.887757	6.05578		
0.413672	2.79397	0.314734	2.10254	0.640871	2.67872	0.622605	4.23643	0.792733	5.38511	0.450608	3.06356	0.613337	4.16387	0.888448	6.01217		
0.416134	2.78841	0.317766	2.10621	0.637811	2.67913	0.624388	4.21477	0.794234	5.35246	0.452963	3.05509	0.614959	4.14175	0.889148	5.9693		
0.41863	2.78315	0.320799	2.10983	0.634751	2.67954	0.626168	4.19343	0.79575	5.32042	0.455311	3.04671	0.616599	4.12009	0.889856	5.92715		
0.421158	2.77819	0.323833	2.11341	0.631692	2.67996	0.627945	4.17239	0.797278	5.28896	0.457652	3.03841	0.618257	4.09889	0.890571	5.88572		
0.423717	2.77352	0.326867	2.11693	0.628632	2.68038	0.629718	4.15166	0.79882	5.25809	0.459987	3.03021	0.619933	4.07814	0.891294	5.84497		
0.426306	2.7691	0.329902	2.1204	0.625572	2.68081	0.631487	4.13123	0.800376	5.22777	0.462315	3.02208	0.621628	4.05783	0.892025	5.8049		
0.428923	2.76493	0.332937	2.12382	0.622512	2.68123	0.633253	4.11109	0.801945	5.19801	0.464636	3.01403	0.62334	4.03794	0.892763	5.76549		
0.431566	2.76099	0.335973	2.12719	0.619453	2.68167	0.635016	4.09123	0.803527	5.16878	0.466951	3.00607	0.625071	4.01848	0.89351	5.72673		
0.434234	2.75728	0.339009	2.13052	0.616393	2.68211	0.636775	4.07165	0.805122	5.14008	0.469259	2.99818	0.626819	3.99941	0.894264	5.68859		
0.436926	2.75376	0.342046	2.1338	0.613334	2.68255	0.638531	4.05234	0.806731	5.11188	0.471561	2.99037	0.628585	3.98075	0.895026	5.65107		
0.439641	2.75044	0.345083	2.13703	0.610276	2.68301	0.640283	4.03329	0.808352	5.08419	0.473857	2.98264	0.630369	3.96247	0.895796	5.61416		
0.442376	2.7473	0.34812	2.14022	0.607217	2.68346	0.642032	4.01451	0.809986	5.05698	0.476146	2.97498	0.63217	3.94457	0.896574	5.57784		
0.445132	2.74432	0.351158	2.14337	0.60416	2.68393	0.643778	3.99598	0.811633	5.03025	0.478429	2.9674	0.633988	3.92704	0.897359	5.54209		
0.447906	2.74151	0.354196	2.14647	0.601102	2.6844	0.645521	3.9777	0.813292	5.00399	0.480706	2.95989	0.635824	3.90987	0.898153	5.50691		
0.450697	2.73884	0.357234	2.14953	0.598046	2.68488	0.64726	3.95966	0.814964	4.97817	0.482978	2.95245	0.637677	3.89305	0.898954	5.47228		
0.453505	2.7363	0.360272	2.15255	0.59499	2.68537	0.648997	3.94187	0.816648	4.95281	0.485243	2.94508	0.639547	3.87657	0.899764	5.43819		
0.456329	2.7339	0.36331	2.15552	0.591934	2.68587	0.65073	3.9243	0.818344	4.92787	0.487503	2.93778	0.641433	3.86043	0.900581	5.40464		
0.459167	2.73162	0.366349	2.15846	0.58888	2.68637	0.652461	3.90697	0.820053	4.90336	0.489757	2.93055	0.643336	3.84462	0.901406	5.3716		
0.462019	2.72945	0.369387	2.16135	0.585827	2.68689	0.654188	3.88987	0.821773	4.87927	0.492006	2.92339	0.645256	3.82912	0.902239	5.33906		
0.464883	2.72738	0.372426	2.16421	0.582774	2.68741	0.655913	3.87298	0.823506	4.85558	0.494249	2.9163	0.647192	3.81394	0.90308	5.30703		
0.46776	2.72542	0.375464	2.16702	0.579723	2.68795	0.657636	3.85632	0.82525	4.83228	0.496487	2.90928	0.649144	3.79906	0.903929	5.27548		
0.470648	2.72354	0.378503	2.1698	0.576672	2.6885	0.659355	3.83986	0.827005	4.80937	0.498721	2.90232	0.651112	3.78447	0.904786	5.24441		
0.473547	2.72176	0.381541	2.17254	0.573623	2.68906	0.661072	3.82362	0.828772	4.78684	0.500949	2.89543	0.653096	3.77018	0.905651	5.21381		
0.476456	2.72005	0.384579	2.17524	0.570576	2.68963	0.662787	3.80758	0.83055	4.76468	0.503172	2.8886	0.655095	3.75616	0.906524	5.18367		
0.479374	2.71842	0.387617	2.17791	0.567529	2.69022	0.664499	3.79175	0.83234	4.74288	0.505391	2.88185	0.657109	3.74243	0.907405	5.15397		
0.482301	2.71686	0.390655	2.18054	0.564485	2.69081	0.666209	3.77611	0.83414	4.72143	0.507606	2.87515	0.659139	3.72896	0.908294	5.12472		
0.485237	2.71537	0.393692	2.18313	0.561441	2.69143	0.667916	3.76067	0.835951	4.70033	0.509817	2.86852	0.661184	3.71575	0.909191	5.0959		
0.48818	2.71395	0.396729	2.18569	0.5584	2.69206	0.669622	3.74542	0.837773	4.67956	0.512023	2.86196	0.663243	3.7028	0.910096	5.0675		
0.491131	2.71258	0.399766	2.18821	0.55536	2.6927	0.671326	3.73036	0.839605	4.65913	0.514225	2.85546	0.665317	3.6901	0.911009	5.03951		
0.494089	2.71127	0.402802	2.1907	0.552323	2.69336	0.673027	3.71548	0.841448	4.63901	0.516424	2.84903	0.667405	3.67764	0.911931	5.01194		
0.497053	2.71001	0.405838	2.19315	0.549287	2.69404	0.674727	3.70079	0.843301	4.61922	0.518619	2.84266	0.669507	3.66542	0.91286	4.98476		
0.500023	2.7088	0.408873	2.19557	0.546254	2.69474	0.676426	3.68628	0.845164	4.59973	0.520812	2.83635	0.671623	3.65343	0.913798	4.95797		
0.502999	2.70763	0.411908	2.19796	0.543223	2.69546	0.678122	3.67194	0.847036	4.58054	0.523	2.83011	0.673752	3.64167	0.914744	4.93157		
0.505981	2.70651	0.414942	2.20031	0.540195	2.6962	0.679817	3.65778	0.848919	4.56165	0.525186	2.82393	0.675895	3.63013	0.915698	4.90555		
0.508968	2.70543	0.417976	2.20263	0.537169	2.69696	0.681511	3.64379	0.850811	4.54305	0.527369	2.81781	0.678051	3.6188	0.91666	4.87989		
0.51196	2.70439	0.421009	2.20492	0.534146	2.69775	0.683204	3.62996	0.852712	4.52473	0.52955	2.81175	0.68022	3.60769	0.917631	4.8546		
0.514956	2.70339	0.424041	2.20718	0.531126	2.69856	0.684895	3.61631	0.854623	4.50668	0.531728	2.80576	0.682401	3.59677	0.91861	4.82967		
0.517956	2.70242	0.427072	2.2094	0.528109	2.69939	0.686586	3.60281	0.856542	4.48891	0.533904	2.79983	0.684595	3.58606	0.919597	4.80509		
0.520961	2.70149	0.430102	2.2116	0.525096	2.70026	0.688275	3.58948	0.858471	4.4714	0.536078	2.79397	0.686801	3.57554	0.920593	4.78085		
0.52397	2.70059	0.433132	2.21376	0.522086	2.70115	0.689964	3.57631	0.860408	4.45415	0.538251	2.78817	0.689019	3.56522	0.921597	4.75695		
0.526982	2.69971	0.436161	2.21589	0.51908	2.70207	0.691652	3.56329	0.862354	4.43715	0.540422	2.78242	0.691248	3.55507	0.922609	4.73338		
0.529997	2.69887	0.439188	2.21799	0.516078	2.70303	0.69334	3.55043	0.864308	4.4204	0.542591	2.77675	0.693489	3.54511	0.92363	4.71014		
0.533016	2.69805	0.442215	2.22007	0.51308	2.70402	0.695027	3.53772	0.86627	4.40389	0.54476	2.77113	0.695741	3.53532	0.924659	4.68722		
0.536038	2.69725	0.44524	2.22211	0.510086	2.70504	0.696714	3.52516	0.868241	4.38762	0.546927	2.76558	0.698004	3.52571	0.925696	4.66461		
0.539063	2.69648	0.448265	2.22412	0.507098	2.7061	0.6984	3.51274	0.870219	4.37158	0.549094	2.76008	0.700278	3.51626	0.926742	4.64231		
0.54209	2.69574	0.451288	2.2261	0.504114	2.70721	0.700086	3.50048	0.872204	4.35577	0.55126	2.75465	0.702562	3.50698	0.927797	4.62032		
0.54512	2.69501	0.45431	2.22806	0.501136	2.70836	0.701773	3.48835	0.874198	4.34018	0.553426	2.74929	0.704856	3.49785	0.92886	4.59862		
0.548153	2.6943	0.457331	2.22998	0.498163	2.70955	0.703459	3.47637	0.876198	4.32481	0.555592	2.74398	0.70716	3.48888	0.929931	4.57722		
0.551187	2.69362	0.46035	2.23188	0.495197	2.71079	0.705146	3.46453	0.878206	4.30965	0.557758	2.73874	0.709473	3.48006	0.931012	4.55611		
0.554224	2.69295	0.463368	2.23375	0.492237	2.71208	0.706833	3.45283	0.880221	4.2947	0.559924	2.73356	0.711796	3.47139	0.9321	4.53528		
0.557263	2.6923	0.466384	2.23559	0.489283	2.71343	0.708521	3.44126	0.882243	4.27995	0.56209	2.72843	0.714129	3.46286	0.933198	4.51473		
0.560304	2.69166	0.469399	2.2374	0.486337	2.71483	0.710209	3.42983	0.884271	4.26541	0.564258	2.72338	0.71647	3.45447	0.934304	4.49446		
0.563346	2.69104	0.472412	2.23919	0.483399	2.7163	0.711898	3.41853	0.886306	4.25105	0.566426	2.71838	0.71882	3.44622	0.935419	4.47446		
0.56639	2.69044	0.475424	2.24094	0.480468	2.71783	0.713587	3.40736	0.888347	4.23689	0.568596	2.71344	0.721178	3.4381	0.936543	4.45472		
0.569436	2.68985	0.478434	2.24267	0.477547	2.71943	0.715278	3.39632	0.890394	4.22292	0.570766	2.70857	0.723544	3.43011	0.937675	4.43524		
0.572483	2.68927	0.481442	2.24438	0.474634	2.72111	0.71697	3.38541	0.892447	4.20913	0.572938	2.70376	0.725918	3.42224	0.938817	4.41603		
0.575532	2.68871	0.484449	2.24605	0.471731	2.72286	0.718663	3.37462	0.894506	4.19552	0.575112	2.69901	0.7283	3.4145	0.939967	4.39706		
0.578582	2.68815	0.487453	2.2477	0.468839	2.72471	0.720357	3.36396	0.896571	4.18209	0.577288	2.69431	0.73069	3.40688	0.941126	4.37835		
0.581633	2.68761	0.490456	2.24932	0.465958	2.72664	0.722052	3.35342	0.898641	4.16883	0.579466	2.68969	0.733087	3.39938	0.942294	4.35988		
0.584685	2.68708	0.493456	2.25092	0.463089	2.72866	0.723749	3.34301	0.900716	4.15574	0.581646	2.68512	0.73549	3.39199	0.943471	4.34165		
0.587738	2.68656	0.496454	2.25248	0.460232	2.73079	0.725448	3.33271	0.902797	4.14281	0.583829	2.68061	0.737901	3.38471	0.944657	4.32366		
0.590792	2.68605	0.499451	2.25403	0.457389	2.73303	0.727148	3.32253	0.904883	4.13005	0.586015	2.67616	0.740318	3.37753	0.945852	4.3059		
0.593847	2.68555	0.502445	2.25554	0.454559	2.73539	0.728851	3.31247	0.906973	4.11744	0.588203	2.67178	0.742741	3.37047	0.947056	4.28837		
0.596902	2.68506	0.505436	2.25703	0.451745	2.73787	0.730555	3.30253	0.909068	4.10499	0.590394	2.66745	0.74517	3.3635	0.948269	4.27108		
0.599959	2.68458	0.508426	2.25849	0.448948	2.74049	0.732261	3.2927	0.911168	4.09269	0.592589	2.66319	0.747605	3.35664	0.949492	4.254		
0.603016	2.6841	0.511413	2.25993	0.446167	2.74325	0.733969	3.28299	0.913272	4.08054	0.594787	2.65898	0.750046	3.34987	0.950723	4.23715		
0.606074	2.68364	0.514397	2.26134	0.443405	2.74617	0.73568	3.27338	0.91538	4.06854	0.596989	2.65484	0.752492	3.3432	0.951964	4.22051		
0.609132	2.68318	0.517379	2.26273	0.440662	2.74925	0.737393	3.26389	0.917492	4.05667	0.599194	2.65075	0.754943	3.33662	0.953214	4.20409		
0.61219	2.68272	0.520358	2.26409	0.437939	2.7525	0.739109	3.25451	0.919608	4.04495	0.601404	2.64673	0.757399	3.33013	0.954474	4.18787		
0.615249	2.68227	0.523334	2.26542	0.435239	2.75594	0.740827	3.24523	0.921728	4.03337	0.603617	2.64276	0.75986	3.32373	0.955743	4.17187		
0.618308	2.68183	0.526307	2.26673	0.432561	2.75958	0.742548	3.23606	0.923851	4.02192	0.605835	2.63886	0.762326	3.31741	0.957021	4.15607		
0.621368	2.6814	0.529278	2.26801	0.429908	2.76343	0.744271	3.227	0.925978	4.0106	0.608058	2.63501	0.764795	3.31118	0.958309	4.14047		
0.624427	2.68097	0.532246	2.26927	0.427282	2.76751	0.745998	3.21804	0.928108	3.99941	0.610285	2.63123	0.767269	3.30502	0.959606	4.12507		
0.627487	2.68054	0.53521	2.2705	0.424682	2.77183	0.747728	3.20919	0.930241	3.98835	0.612517	2.6275	0.769747	3.29895	0.960912	4.10987		
0.630547	2.68012	0.538172	2.2717	0.422112	2.77641	0.74946	3.20044	0.932377	3.97741	0.614754	2.62383	0.772228	3.29295	0.962229	4.09486		
0.633607	2.6797	0.54113	2.27288	0.419572	2.78126	0.751196	3.19179	0.934516	3.96659	0.616996	2.62022	0.774713	3.28703	0.963555	4.08004		
0.636667	2.67929	0.544085	2.27404	0.417063	2.78641	0.752936	3.18324	0.936658	3.9559	0.619244	2.61667	0.777201	3.28118	0.96489	4.0654		
0.639726	2.67888	0.547036	2.27517	0.414589	2.79185	0.754678	3.17479	0.938802	3.94532	0.621497	2.61318	0.779692	3.2754	0.966236	4.05096		
0.642786	2.67847	0.549984	2.27627	0.412149	2.79763	0.756425	3.16644	0.940948	3.93485	0.623756	2.60975	0.782186	3.26969	0.967591	4.03669		
0.645845	2.67807	0.552928	2.27735	0.409745	2.80374	0.758174	3.15818	0.943097	3.92449	0.626021	2.60637	0.784682	3.26404	0.968956	4.02261		
0.648904	2.67767	0.555869	2.2784	0.40738	2.81021	0.759928	3.15002	0.945248	3.91425	0.628292	2.60305	0.787182	3.25847	0.970331	4.00871		
0.651963	2.67727	0.558806	2.27943	0.405053	2.81707	0.761685	3.14196	0.947401	3.90411	0.630569	2.59979	0.789683	3.25295	0.971716	3.99498		
0.655021	2.67687	0.561739	2.28043	0.402767	2.82432	0.763447	3.13399	0.949556	3.89408	0.632852	2.59659	0.792186	3.2475	0.97311	3.98142		
0.658079	2.67648	0.564669	2.28141	0.400522	2.83198	0.765212	3.12611	0.951712	3.88415	0.635142	2.59344	0.794692	3.24211	0.974515	3.96803		
0.661136	2.67608	0.567594	2.28236	0.39832	2.84007	0.766982	3.11833	0.953871	3.87432	0.637438	2.59035	0.797199	3.23677	0.97593	3.95482		
0.664193	2.67569	0.570515	2.28329	0.396161	2.84862	0.768756	3.11063	0.95603	3.8646	0.639741	2.58732	0.799708	3.23149	0.977355	3.94177		
0.667249	2.6753	0.573432	2.28419	0.394046	2.85763	0.770534	3.10303	0.958191	3.85497	0.642052	2.58435	0.802218	3.22627	0.97879	3.92888		
0.670304	2.67491	0.576345	2.28506	0.391976	2.86712	0.772316	3.09552	0.960353	3.84543	0.644369	2.58143	0.804729	3.22111	0.980235	3.91616		
0.673359	2.67453	0.579254	2.28591	0.389952	2.87711	0.774103	3.0881	0.962516	3.83599	0.646693	2.57857	0.807241	3.21599	0.981691	3.90359		
0.676413	2.67414	0.582158	2.28674	0.387973	2.88762	0.775895	3.08076	0.964681	3.82664	0.649025	2.57576	0.809754	3.21093	0.983157	3.89119		
0.679466	2.67375	0.585057	2.28754	0.386039	2.89865	0.777692	3.07351	0.966845	3.81739	0.651364	2.57301	0.812268	3.20591	0.984633	3.87894		
0.682518	2.67336	0.587952	2.28831	0.384152	2.91023	0.779493	3.06635	0.969011	3.80822	0.653711	2.57032	0.814782	3.20095	0.98612	3.86684		
0.685569	2.67297	0.590843	2.28906	0.38231	2.92237	0.781299	3.05927	0.971177	3.79913	0.656066	2.56768	0.817296	3.19603	0.987617	3.8549		
0.688619	2.67258	0.593728	2.28979	0.380514	2.93508	0.783111	3.05228	0.973344	3.79014	0.658428	2.56509	0.819811	3.19115	0.989125	3.8431		
0.691667	2.67219	0.596609	2.29049	0.378763	2.94838	0.784927	3.04537	0.975511	3.78122	0.660799	2.56256	0.822325	3.18632	0.990643	3.83146		
0.694715	2.6718	0.599485	2.29116	0.377056	2.96227	0.786749	3.03854	0.977678	3.77239	0.663178	2.56009	0.82484	3.18154	0.992172	3.81996		
0.697761	2.67141	0.602356	2.29181	0.375394	2.97677	0.788576	3.0318	0.979846	3.76364	0.665565	2.55766	0.827354	3.17679	0.993711	3.80861		
0.700806	2.67102	0.605222	2.29244	0.373776	2.9919	0.790408	3.02514	0.982013	3.75497	0.66796	2.5553	0.829867	3.17209	0.995262	3.7974		
0.70385	2.67062	0.608083	2.29304	0.372201	3.00766	0.792247	3.01856	0.98418	3.74637	0.670364	2.55298	0.83238	3.16743	0.996823	3.78633		
0.706891	2.67022	0.610938	2.29361	0.370668	3.02408	0.79409	3.01206	0.986348	3.73785	0.672776	2.55072	0.834892	3.1628	0.998395	3.7754		
0.709932	2.66982	0.613789	2.29416	0.369177	3.04116	0.79594	3.00564	0.988514	3.72941	0.675197	2.54851	0.837403	3.15822	0.999978	3.76461		
0.71297	2.66942	0.616634	2.29469	0.367728	3.05891	0.797796	2.9993	0.990681	3.72104	0.677627	2.54636	0.839913	3.15367	1.00157	3.75395		
0.716007	2.66901	0.619474	2.29519	0.366318	3.07736	0.799657	2.99304	0.992847	3.71274	0.680065	2.54425	0.842422	3.14915				
0.719042	2.6686	0.622308	2.29567	0.364949	3.09651	0.801525	2.98685	0.995012	3.70451	0.682513	2.5422	0.844929	3.14467				
0.722075	2.66819	0.625137	2.29612	0.363619	3.11639	0.803399	2.98075	0.997177	3.69635	0.68497	2.5402	0.847435	3.14022				
0.725107	2.66777	0.62796	2.29655	0.362327	3.137	0.805279	2.97471	0.99934	3.68826	0.687435	2.53825	0.849939	3.13581				
0.728136	2.66735	0.630778	2.29696	0.361073	3.15837	0.807166	2.96876	1.0015	3.68023	0.68991	2.53635	0.852441	3.13142				
0.731162	2.66692	0.63359	2.29734	0.359857	3.18052	0.80906	2.96288			0.692395	2.53451	0.854942	3.12707				
0.734187	2.66649	0.636397	2.2977	0.358677	3.20345	0.81096	2.95708			0.694888	2.53271	0.85744	3.12275				
0.737209	2.66606	0.639198	2.29803	0.357533	3.22721	0.812867	2.95135			0.697391	2.53096	0.859936	3.11845				
0.740228	2.66562	0.641994	2.29834	0.356424	3.25179	0.814781	2.94569			0.699903	2.52926	0.862429	3.11418				
0.743245	2.66517	0.644783	2.29863	0.355351	3.27723	0.816702	2.94011			0.702425	2.52761	0.86492	3.10994				
0.746259	2.66472	0.647567	2.2989	0.354312	3.30356	0.818631	2.93461			0.704956	2.526	0.867409	3.10573				
0.74927	2.66426	0.650346	2.29915	0.353307	3.33079	0.820567	2.92917			0.707497	2.52445	0.869894	3.10154				
0.752278	2.66379	0.653119	2.29937	0.352335	3.35895	0.82251	2.92381			0.710048	2.52294	0.872377	3.09738				
0.755283	2.66332	0.655886	2.29957	0.351397	3.38807	0.824462	2.91852			0.712607	2.52148	0.874857	3.09324				
0.758285	2.66283	0.658647	2.29975	0.350491	3.41818	0.826421	2.9133			0.715177	2.52006	0.877334	3.08913				
0.761283	2.66235	0.661402	2.2999	0.349618	3.44931	0.828388	2.90815			0.717756	2.51869	0.879807	3.08504				
0.764278	2.66185	0.664152	2.30004	0.348777	3.48149	0.830363	2.90308			0.720345	2.51736	0.882278	3.08097				
0.767269	2.66134	0.666897	2.30016	0.347967	3.51475	0.832347	2.89807			0.722943	2.51608	0.884745	3.07692				
0.770256	2.66083	0.669636	2.30025	0.347189	3.54914	0.834339	2.89314			0.725551	2.51484	0.887208	3.07289				
0.773239	2.6603	0.672369	2.30033	0.346442	3.58469	0.83634	2.88827			0.728169	2.51364	0.889668	3.06889				
0.776217	2.65976	0.675096	2.30039	0.345726	3.62144	0.83835	2.88348			0.730796	2.51249	0.892124	3.0649				
0.779192	2.65922	0.677819	2.30043	0.34504	3.65943	0.840369	2.87875			0.733432	2.51138	0.894577	3.06093				
0.782162	2.65866	0.680536	2.30044	0.344384	3.6987	0.842397	2.8741			0.736078	2.51031	0.897025	3.05698				
0.785127	2.65809	0.683247	2.30045	0.343758	3.73931	0.844435	2.86951			0.738733	2.50928	0.89947	3.05305				
0.788087	2.65751	0.685953	2.30043	0.343162	3.7813	0.846482	2.86499			0.741398	2.50829	0.901911	3.04914				
0.791042	2.65692	0.688654	2.30039	0.342595	3.82472	0.848539	2.86055			0.744072	2.50734	0.904347	3.04524				
0.793992	2.65631	0.69135	2.30034	0.342058	3.86963	0.850607	2.85617			0.746756	2.50643	0.90678	3.04136				
0.796936	2.65569	0.69404	2.30028	0.341549	3.91609	0.852684	2.85186			0.749448	2.50556	0.909208	3.0375				
0.799875	2.65505	0.696726	2.30019	0.341069	3.96415	0.854772	2.84762			0.75215	2.50472	0.911631	3.03365				
0.802807	2.6544	0.699407	2.30009	0.340618	4.01389	0.856871	2.84345			0.75486	2.50392	0.914051	3.02982				
0.805734	2.65374	0.702083	2.29998	0.340194	4.06536	0.858981	2.83934			0.75758	2.50315	0.916466	3.02601				
0.808654	2.65306	0.704754	2.29985	0.339799	4.11864	0.861102	2.83531			0.760308	2.50243	0.918876	3.02221				
0.811567	2.65236	0.70742	2.29971	0.339432	4.17381	0.863234	2.83134			0.763045	2.50173	0.921282	3.01842				
0.814473	2.65165	0.710082	2.29955	0.339092	4.23094	0.865379	2.82745			0.765791	2.50107	0.923684	3.01465				
0.817372	2.65091	0.71274	2.29938	0.33878	4.29013	0.867535	2.82362			0.768545	2.50044	0.926081	3.01089				
0.820264	2.65016	0.715393	2.2992	0.338494	4.35146	0.869703	2.81986			0.771308	2.49984	0.928473	3.00715				
0.823148	2.64939	0.718042	2.29901	0.338236	4.41502	0.871884	2.81617			0.774079	2.49928	0.930861	3.00341				
0.826025	2.6486	0.720687	2.2988	0.338004	4.48093	0.874077	2.81255			0.776858	2.49874	0.933243	2.9997				
0.828893	2.6478	0.723328	2.29858	0.337798	4.54928	0.876284	2.809			0.779646	2.49824	0.935621	2.99599				
0.831753	2.64697	0.725965	2.29836	0.337619	4.62019	0.878503	2.80551			0.782441	2.49777	0.937995	2.9923				
0.834604	2.64612	0.728598	2.29812	0.337465	4.69379	0.880737	2.8021			0.785245	2.49732	0.940363	2.98862				
0.837446	2.64524	0.731227	2.29787	0.337337	4.7702	0.882984	2.79876			0.788056	2.4969	0.942727	2.98495				
0.84028	2.64435	0.733853	2.29761	0.337235	4.84956	0.885245	2.79548			0.790875	2.49651	0.945086	2.9813				
0.843104	2.64343	0.736475	2.29735	0.337157	4.93203	0.88752	2.79227			0.793701	2.49614	0.94744	2.97765				
0.845918	2.64249	0.739094	2.29707	0.337104	5.01776	0.88981	2.78914			0.796534	2.49581	0.94979	2.97402				
0.848722	2.64153	0.74171	2.29679	0.337075	5.10691	0.892114	2.78607			0.799375	2.49549	0.952134	2.9704				
0.851517	2.64054	0.744323	2.2965	0.33707	5.19968	0.894433	2.78307			0.802223	2.4952	0.954474	2.96679				
0.854301	2.63953	0.746932	2.2962	0.337089	5.29626	0.896768	2.78014			0.805078	2.49494	0.956809	2.9632				
0.857075	2.63849	0.749539	2.2959	0.337131	5.39685	0.899118	2.77727			0.80794	2.4947	0.959139	2.95961				
0.859839	2.63743	0.752143	2.29559	0.337197	5.50169	0.901483	2.77448			0.810809	2.49448	0.961465	2.95604				
0.862591	2.63634	0.754744	2.29527	0.337284	5.61102	0.903865	2.77176			0.813684	2.49428	0.963786	2.95247				
0.865333	2.63523	0.757343	2.29495	0.337394	5.72509	0.906262	2.7691			0.816565	2.4941	0.966102	2.94892				
0.868064	2.63409	0.75994	2.29462	0.337526	5.8442	0.908675	2.76651			0.819453	2.49394	0.968413	2.94538				
0.870784	2.63293	0.762534	2.29429	0.337679	5.96864	0.911104	2.76399			0.822348	2.49381	0.97072	2.94185				
0.873493	2.63174	0.765125	2.29395	0.337853	6.09876	0.913549	2.76154			0.825248	2.49369	0.973022	2.93834				
0.876191	2.63053	0.767715	2.29361	0.338048	6.23491	0.916011	2.75915			0.828154	2.49359	0.97532	2.93483				
0.878877	2.6293	0.770303	2.29327	0.338262	6.37748	0.918489	2.75682			0.831066	2.49351	0.977613	2.93133				
0.881553	2.62803	0.772888	2.29292	0.338495	6.52691	0.920983	2.75457			0.833984	2.49345	0.979902	2.92785				
0.884217	2.62675	0.775472	2.29257	0.338748	6.68366	0.923494	2.75238			0.836908	2.49341	0.982186	2.92438				
0.88687	2.62544	0.778055	2.29222	0.339019	6.84824	0.926021	2.75025			0.839837	2.49338	0.984466	2.92092				
0.889513	2.62411	0.780635	2.29187	0.339307	7.02122	0.928564	2.74818			0.842771	2.49337	0.986741	2.91747				
0.892144	2.62275	0.783214	2.29151	0.339613	7.2032	0.931124	2.74618			0.845711	2.49337	0.989013	2.91403				
0.894765	2.62137	0.785792	2.29115	0.339935	7.39488	0.933699	2.74423			0.848655	2.49339	0.99128	2.9106				
0.897376	2.61998	0.788368	2.29079	0.340272	7.59698	0.93629	2.74235			0.851605	2.49342	0.993543	2.90719				
0.899976	2.61856	0.790943	2.29043	0.340625	7.81036	0.938897	2.74053			0.854559	2.49347	0.995802	2.90378				
0.902566	2.61712	0.793517	2.29007	0.340992	8.03592	0.941519	2.73876			0.857519	2.49353	0.998057	2.90039				
0.905146	2.61566	0.79609	2.28971	0.341372	8.2747	0.944157	2.73705			0.860483	2.4936	1.00031	2.89701				
0.907717	2.61419	0.798662	2.28934	0.341714	8.49444	0.94681	2.73539			0.863451	2.49369						
0.910278	2.6127	0.801233	2.28898	0.342012	8.691	0.949477	2.73379			0.866425	2.49379						
0.91283	2.61119	0.803803	2.28862	0.342264	8.86039	0.952159	2.73224			0.869402	2.4939						
0.915374	2.60967	0.806373	2.28825	0.342465	8.99896	0.954855	2.73074			0.872384	2.49402						
0.917909	2.60813	0.808942	2.28789	0.342615	9.10358	0.957565	2.7293			0.87537	2.49415						
0.920436	2.60659	0.81151	2.28753	0.342754	9.20195	0.960288	2.7279			0.87836	2.49429						
0.922956	2.60503	0.814077	2.28717	0.342851	9.27162	0.963025	2.72654			0.881353	2.49445						
0.925468	2.60346	0.816644	2.28681	0.343004	9.38254	0.965774	2.72523			0.884351	2.49461						
0.927974	2.60188	0.819211	2.28645	0.343214	9.53762	0.968536	2.72397			0.887353	2.49479						
0.930472	2.60029	0.821778	2.2861	0.343482	9.74104	0.971311	2.72275			0.890358	2.49497						
0.932965	2.5987	0.824344	2.28574	0.34381	9.99859	0.974097	2.72156			0.893367	2.49516						
0.935451	2.5971	0.82691	2.28539	0.3442	10.3181	0.976894	2.72042			0.896379	2.49536						
0.937932	2.5955	0.829476	2.28504	0.344653	10.71	0.979702	2.71932			0.899395	2.49557						
0.940408	2.59389	0.832041	2.28469	0.34511	11.1319	0.982521	2.71825			0.902414	2.49578						
0.942879	2.59228	0.834607	2.28434	0.34557	11.5872	0.985351	2.71722			0.905437	2.49601						
0.945345	2.59066	0.837173	2.284	0.346033	12.0801	0.98819	2.71622			0.908462	2.49624						
0.947808	2.58905	0.839738	2.28365	0.346497	12.6153	0.991039	2.71526			0.911491	2.49648						
0.950266	2.58744	0.842304	2.28331	0.346959	13.1985	0.993897	2.71432			0.914523	2.49672						
0.952721	2.58582	0.84487	2.28298	0.34742	13.8363	0.996765	2.71342			0.917558	2.49697						
0.955173	2.58421	0.847437	2.28264	0.347876	14.5368	0.99964	2.71255			0.920596	2.49723						
0.957622	2.5826	0.850003	2.28231	0.348327	15.3095	1.00252	2.7117			0.923636	2.49749						
0.960069	2.581	0.85257	2.28198	0.348771	16.1664					0.92668	2.49776						
0.962513	2.5794	0.855137	2.28165	0.349207	17.1219					0.929726	2.49804						
0.964955	2.5778	0.857704	2.28133	0.349631	18.1941					0.932774	2.49832						
0.967396	2.57621	0.860272	2.28101	0.350043	19.4056					0.935826	2.49861						
0.969835	2.57463	0.862841	2.28069	0.350441	20.7857					0.93888	2.4989						
0.972273	2.57305	0.865409	2.28038	0.350823	22.3722					0.941936	2.49919						
0.97471	2.57148	0.867979	2.28007	0.351187	24.2153					0.944995	2.49949						
0.977147	2.56992	0.870549	2.27976	0.351531	26.3829					0.948056	2.4998						
0.979583	2.56836	0.873119	2.27946	0.351854	28.9694					0.951119	2.5001						
0.982019	2.56682	0.87569	2.27916	0.352153	32.1097					0.954185	2.50042						
0.984455	2.56528	0.878262	2.27886	0.352427	36.0036					0.957252	2.50073						
0.986891	2.56376	0.880834	2.27857	0.352674	40.9603					0.960322	2.50105						
0.989327	2.56224	0.883407	2.27828	0.352894	47.4853					0.963395	2.50138						
0.991764	2.56074	0.885981	2.27799	0.353083	56.465					0.966469	2.5017						
0.994202	2.55924	0.888555	2.27771	0.353242	69.6096					0.969545	2.50203						
0.99664	2.55776	0.89113	2.27743	0.353369	90.698					0.972623	2.50237						
0.99908	2.55629	0.893706	2.27716	0.353463	130.065					0.975703	2.5027						
1.00152	2.55483	0.896283	2.27689	0.353524	229.698					0.978785	2.50304						
		0.898861	2.27662	0.353552	980.529					0.981868	2.50338						
		0.901439	2.27635							0.984954	2.50373						
		0.904018	2.27609							0.988041	2.50407						
		0.906598	2.27584							0.99113	2.50442						
		0.909179	2.27558							0.994221	2.50477						
		0.911761	2.27533							0.997313	2.50512						
		0.914344	2.27509							1.00041	2.50548						
		0.916927	2.27485														
		0.919512	2.27461														
		0.922097	2.27437														
		0.924684	2.27414														
		0.927271	2.27391														
		0.929859	2.27369														
		0.932449	2.27347														
		0.935039	2.27325														
		0.93763	2.27304														
		0.940223	2.27283														
		0.942816	2.27263														
		0.94541	2.27242														
		0.948005	2.27223														
		0.950602	2.27203														
		0.953199	2.27184														
		0.955797	2.27165														
		0.958396	2.27147														
		0.960997	2.27129														
		0.963598	2.27111														
		0.9662	2.27093														
		0.968804	2.27076														
		0.971408	2.27059														
		0.974014	2.27043														
		0.97662	2.27027														
		0.979227	2.27011														
		0.981836	2.26996														
		0.984445	2.2698														
		0.987056	2.26966														
		0.989667	2.26951														
		0.99228	2.26937														
		0.994893	2.26923														
		0.997508	2.26909														
		1.00012	2.26896														
