Sym0		Asym0		Sym1		Sym2		Sym3		Asym1		Asym2		Asym3	
450  Points		491  Points		157  Points		128  Points		109  Points		275  Points		139  Points		111  Points	
Freq (MHz)	Vph (m/ms)	Freq (MHz)	Vph (m/ms)	Freq (MHz)	Vph (m/ms)	Freq (MHz)	Vph (m/ms)	Freq (MHz)	Vph (m/ms)	Freq (MHz)	Vph (m/ms)	Freq (MHz)	Vph (m/ms)	Freq (MHz)	Vph (m/ms)
0.00400658	8.03212	0.000441183	0.226032	0.279511	1911.66	0.555268	979.375	0.55914	606.346	0.139812	284.689	0.419265	2594.93	0.698773	3804.35
0.0114894	8.03168	0.000955615	0.331401	0.279621	259.41	0.555162	370.44	0.559492	301.802	0.140239	98.5657	0.419344	383.57	0.698821	626.536
0.0189701	8.03065	0.00165592	0.434026	0.279898	139.28	0.555	228.362	0.56003	201.049	0.141078	59.9184	0.419541	207.185	0.698939	341.434
0.0264473	8.02916	0.00253102	0.533189	0.280341	95.3121	0.554826	165.026	0.560714	150.842	0.142318	43.3079	0.419855	142.003	0.699126	234.703
0.0339196	8.02717	0.00356793	0.628308	0.280951	72.541	0.554671	129.181	0.561517	120.784	0.143948	34.128	0.420286	108.088	0.699382	178.849
0.0413856	8.02467	0.00475282	0.718998	0.281724	58.6353	0.554556	106.126	0.562422	100.781	0.145951	28.3423	0.420834	87.3091	0.699707	144.503
0.0488439	8.02167	0.00607109	0.804968	0.28266	49.275	0.554493	90.057	0.563421	86.5163	0.148309	24.3879	0.421498	73.2818	0.700101	121.254
0.0562929	8.01815	0.00750821	0.886058	0.283757	42.5545	0.554488	78.22	0.564507	75.8338	0.151003	21.5319	0.422277	63.1827	0.700565	104.475
0.0637312	8.01411	0.00905022	0.962235	0.285012	37.5027	0.554548	69.1411	0.565677	67.5378	0.15401	19.3854	0.423172	55.5699	0.701097	91.7998
0.0711573	8.00954	0.010684	1.03355	0.286423	33.5725	0.554674	61.9594	0.566927	60.9114	0.157311	17.7225	0.42418	49.6301	0.701697	81.8885
0.0785696	8.00443	0.012397	1.10012	0.287987	30.4324	0.554869	56.1386	0.568256	55.4986	0.160885	16.4033	0.425301	44.87	0.702366	73.9284
0.0859665	7.99877	0.0141786	1.16213	0.2897	27.8696	0.555136	51.3273	0.569663	50.9958	0.16471	15.3365	0.426534	40.9726	0.703103	67.3966
0.0933462	7.99254	0.0160184	1.21978	0.29156	25.7413	0.555475	47.2854	0.571147	47.1926	0.168769	14.46	0.427878	37.7254	0.703907	61.9418
0.100707	7.98574	0.0179079	1.27332	0.293564	23.9482	0.555888	43.8432	0.572708	43.9389	0.173042	13.73	0.429331	34.98	0.70478	57.3192
0.108047	7.97834	0.0198392	1.323	0.295706	22.4191	0.556376	40.8779	0.574344	41.1248	0.177511	13.1152	0.430893	32.6303	0.705719	53.3528
0.115365	7.97034	0.0218058	1.36908	0.297985	21.1013	0.55694	38.2977	0.576056	38.6678	0.182162	12.592	0.432561	30.5978	0.706726	49.9132
0.122658	7.9617	0.0238017	1.41181	0.300396	19.9554	0.557581	36.0332	0.577842	36.5047	0.186351	12.197	0.434335	28.8237	0.707799	46.9027
0.129924	7.95242	0.025822	1.45143	0.302935	18.9511	0.5583	34.0307	0.579704	34.5865	0.190015	11.8978	0.436213	27.2627	0.708938	44.2465
0.137161	7.94247	0.0275992	1.48362	0.305598	18.0648	0.559098	32.2479	0.581639	32.8746	0.193105	11.673	0.438193	25.8795	0.710144	41.886
0.144367	7.93182	0.0291244	1.50945	0.308382	17.2778	0.559975	30.6514	0.583649	31.338	0.195585	11.5081	0.440274	24.6462	0.711414	39.7752
0.15154	7.92045	0.0303918	1.52976	0.311282	16.5751	0.560934	29.214	0.585733	29.9515	0.197428	11.3935	0.442454	23.5405	0.71275	37.8768
0.158676	7.90835	0.0313974	1.54518	0.314295	15.9445	0.561975	27.9137	0.58789	28.6947	0.198617	11.3229	0.444732	22.5441	0.714151	36.1609
0.165774	7.89546	0.0321386	1.55618	0.317417	15.3761	0.563099	26.7325	0.59012	27.5507	0.200336	11.225	0.447105	21.6423	0.715615	34.6026
0.17283	7.88177	0.0326137	1.56306	0.320645	14.8618	0.564308	25.6551	0.592423	26.5053	0.20222	11.1232	0.449571	20.8226	0.717144	33.1816
0.179841	7.86725	0.0332976	1.57276	0.323976	14.3945	0.565603	24.669	0.594799	25.5467	0.204806	10.9919	0.45213	20.0748	0.718735	31.8809
0.186805	7.85185	0.0340421	1.58305	0.327405	13.9686	0.566984	23.7636	0.597247	24.6648	0.208114	10.8366	0.454779	19.3903	0.72039	30.6862
0.193717	7.83555	0.0350564	1.59662	0.33093	13.5792	0.568454	22.9298	0.599768	23.8512	0.212169	10.6634	0.457516	18.7617	0.722106	29.5851
0.200575	7.8183	0.0363419	1.61311	0.334548	13.2222	0.570013	22.1599	0.60236	23.0985	0.216995	10.4783	0.46034	18.1828	0.723884	28.5675
0.207375	7.80006	0.0378998	1.63213	0.338257	12.894	0.571663	21.4472	0.605023	22.4003	0.222619	10.2871	0.463248	17.6482	0.725724	27.6244
0.214112	7.7808	0.0397314	1.6532	0.342054	12.5915	0.573405	20.786	0.607758	21.7512	0.228328	10.1154	0.466238	17.1533	0.727624	26.7481
0.220783	7.76047	0.0418375	1.67586	0.345433	12.3469	0.575241	20.1713	0.610564	21.1465	0.234114	9.96063	0.46931	16.694	0.729584	25.932
0.227383	7.73902	0.0439471	1.69703	0.348365	12.1511	0.57717	19.5986	0.61344	20.582	0.239971	9.82054	0.47246	16.267	0.731603	25.1702
0.233909	7.71643	0.0460594	1.71683	0.350824	11.9974	0.579196	19.0643	0.616387	20.054	0.245893	9.69328	0.475688	15.8691	0.733682	24.4577
0.240354	7.69263	0.0481735	1.73537	0.35279	11.8808	0.581318	18.5648	0.619404	19.5592	0.251873	9.57727	0.47899	15.4975	0.735818	23.7901
0.246716	7.6676	0.0502889	1.75274	0.354248	11.7977	0.583539	18.0973	0.62249	19.0949	0.257907	9.47118	0.482366	15.1501	0.738012	23.1633
0.252989	7.64129	0.052405	1.76905	0.355187	11.7456	0.585858	17.6589	0.625647	18.6585	0.26399	9.37383	0.485814	14.8246	0.740264	22.5738
0.259168	7.61366	0.0545216	1.78438	0.356544	11.6723	0.588277	17.2475	0.628872	18.2477	0.270117	9.28423	0.489331	14.5191	0.742571	22.0186
0.265248	7.58467	0.0566381	1.7988	0.358029	11.5946	0.590796	16.8608	0.632167	17.8604	0.276284	9.20153	0.492916	14.232	0.744935	21.4949
0.271224	7.55431	0.0587545	1.81239	0.360065	11.4921	0.593417	16.4969	0.635531	17.4949	0.282486	9.12496	0.496568	13.9619	0.747354	21.0001
0.277092	7.52254	0.0608704	1.8252	0.362667	11.3675	0.59614	16.1542	0.638964	17.1496	0.288721	9.05389	0.500284	13.7073	0.749827	20.5321
0.282847	7.48935	0.0629858	1.8373	0.365854	11.2239	0.598964	15.8311	0.642466	16.8229	0.294985	8.98772	0.504062	13.467	0.752354	20.0888
0.288485	7.45472	0.0651004	1.84874	0.369649	11.0648	0.601891	15.5261	0.646036	16.5135	0.301275	8.92597	0.507902	13.24	0.754934	19.6684
0.294001	7.41866	0.0672143	1.85957	0.374078	10.8935	0.60492	15.238	0.649675	16.2203	0.307587	8.86818	0.511802	13.0254	0.757567	19.2692
0.299393	7.38117	0.0693273	1.86983	0.378587	10.7336	0.608051	14.9656	0.653384	15.942	0.313918	8.81397	0.51576	12.822	0.760252	18.8899
0.304656	7.34227	0.0714393	1.87956	0.383177	10.5842	0.611283	14.7079	0.657161	15.6778	0.320267	8.76298	0.519255	12.6535	0.762988	18.5289
0.309788	7.302	0.0735505	1.88881	0.387846	10.4444	0.614616	14.4639	0.661007	15.4266	0.326629	8.7149	0.522267	12.5158	0.765775	18.1851
0.314787	7.26038	0.0756607	1.8976	0.392596	10.3135	0.618049	14.2326	0.664922	15.1878	0.333004	8.66947	0.524781	12.4059	0.768611	17.8574
0.319651	7.21747	0.07777	1.90596	0.397427	10.191	0.621581	14.0133	0.668907	14.9604	0.339387	8.62642	0.526783	12.3214	0.771497	17.5447
0.32438	7.17334	0.0798783	1.91393	0.402339	10.0762	0.62521	13.8051	0.672962	14.7439	0.345778	8.58553	0.528262	12.2606	0.774432	17.246
0.328972	7.12804	0.0819857	1.92153	0.407332	9.96865	0.628934	13.6074	0.677087	14.5375	0.352173	8.54662	0.529213	12.2223	0.777414	16.9605
0.333429	7.08165	0.0840921	1.92878	0.412406	9.86782	0.632752	13.4195	0.681282	14.3407	0.358572	8.50949	0.530584	12.1679	0.780444	16.6874
0.337752	7.03426	0.0861977	1.93571	0.41756	9.77327	0.636662	13.2408	0.685549	14.1529	0.364971	8.47398	0.532081	12.1098	0.78352	16.426
0.341941	6.98596	0.0883024	1.94233	0.422794	9.68459	0.640661	13.0707	0.689887	13.9737	0.371368	8.43994	0.534127	12.0325	0.786643	16.1755
0.346	6.93683	0.0904063	1.94868	0.428107	9.60138	0.644217	12.9291	0.694297	13.8026	0.377762	8.40724	0.536732	11.9372	0.78981	15.9353
0.34993	6.88698	0.0925093	1.95475	0.433497	9.52328	0.647298	12.8129	0.698781	13.6391	0.384151	8.37576	0.539906	11.8258	0.793023	15.7049
0.353734	6.8365	0.0946115	1.96057	0.438963	9.44993	0.64988	12.7199	0.703337	13.4828	0.390533	8.34538	0.543664	11.7001	0.796279	15.4837
0.357417	6.78548	0.096713	1.96616	0.444502	9.38102	0.651944	12.6483	0.707968	13.3335	0.396906	8.316	0.548022	11.562	0.799579	15.2712
0.36098	6.73402	0.0988137	1.97152	0.450113	9.31624	0.653473	12.5966	0.712675	13.1907	0.403269	8.28752	0.552425	11.4302	0.802922	15.0669
0.364429	6.68221	0.100914	1.97668	0.455791	9.25529	0.654457	12.564	0.716837	13.0713	0.409619	8.25987	0.556874	11.3044	0.806307	14.8705
0.367766	6.63014	0.103013	1.98163	0.461534	9.1979	0.655878	12.5178	0.720432	12.9731	0.415954	8.23295	0.561367	11.184	0.809733	14.6814
0.370997	6.5779	0.105112	1.9864	0.467339	9.1438	0.657432	12.4682	0.723436	12.8943	0.422274	8.2067	0.565903	11.069	0.813201	14.4993
0.374125	6.52556	0.10721	1.991	0.473202	9.09277	0.659561	12.4022	0.725833	12.8335	0.428577	8.18105	0.570482	10.9588	0.816708	14.3239
0.377154	6.4732	0.109307	1.99542	0.47912	9.04456	0.662277	12.3207	0.727606	12.7896	0.43486	8.15593	0.575102	10.8533	0.820255	14.1548
0.380089	6.4209	0.111404	1.99969	0.485089	8.99896	0.665598	12.225	0.728747	12.7619	0.441121	8.13129	0.579763	10.7522	0.823842	13.9918
0.382933	6.36871	0.1135	2.00381	0.491105	8.95578	0.669542	12.1168	0.730393	12.7225	0.447361	8.10706	0.584463	10.6553	0.827467	13.8344
0.385691	6.3167	0.115596	2.00778	0.497165	8.91482	0.674127	11.9975	0.732193	12.6804	0.453576	8.08321	0.589203	10.5623	0.83113	13.6825
0.388367	6.26493	0.117692	2.01163	0.503265	8.8759	0.678774	11.8831	0.734656	12.6241	0.459765	8.05968	0.593981	10.473	0.83483	13.5358
0.390964	6.21344	0.119786	2.01534	0.5094	8.83888	0.683479	11.7735	0.737798	12.5546	0.465926	8.03644	0.598796	10.3873	0.838084	13.412
0.393487	6.16228	0.121881	2.01893	0.515569	8.80359	0.688237	11.6682	0.741637	12.473	0.472058	8.01342	0.603649	10.3049	0.84088	13.3094
0.395938	6.11149	0.123975	2.0224	0.521767	8.7699	0.693046	11.567	0.746198	12.3807	0.478159	7.99061	0.608539	10.2257	0.843207	13.2264
0.398321	6.06111	0.126068	2.02576	0.527991	8.73768	0.6979	11.4696	0.751506	12.2789	0.484228	7.96797	0.613464	10.1496	0.845057	13.162
0.40064	6.01118	0.128161	2.02902	0.534238	8.70681	0.702798	11.3759	0.756895	12.1815	0.490262	7.94545	0.618425	10.0763	0.846422	13.1153
0.402898	5.96172	0.130254	2.03218	0.540505	8.67719	0.707736	11.2857	0.762364	12.0883	0.496261	7.92304	0.623421	10.0058	0.847298	13.0857
0.405098	5.91275	0.132347	2.03524	0.546789	8.64872	0.71271	11.1986	0.767915	11.9991	0.502222	7.90069	0.628451	9.93798	0.848561	13.0435
0.407243	5.86431	0.134439	2.0382	0.553088	8.62129	0.717717	11.1146	0.773547	11.9136	0.508145	7.87839	0.633516	9.87262	0.849938	12.9982
0.409335	5.81641	0.13653	2.04108	0.559398	8.59484	0.722754	11.0334	0.779259	11.8318	0.514027	7.85611	0.638615	9.80965	0.851817	12.9374
0.411378	5.76906	0.138622	2.04388	0.565719	8.56928	0.727819	10.9549	0.785052	11.7535	0.519867	7.83382	0.643747	9.74896	0.854206	12.8619
0.413375	5.72229	0.140713	2.0466	0.572046	8.54454	0.732909	10.879	0.790925	11.6785	0.525664	7.8115	0.648913	9.69046	0.857111	12.7725
0.415326	5.6761	0.142803	2.04924	0.578379	8.52055	0.738022	10.8054	0.796877	11.6067	0.531416	7.78914	0.654111	9.63405	0.860543	12.6703
0.417236	5.63051	0.144894	2.0518	0.584714	8.49726	0.743156	10.7341	0.802907	11.538	0.537122	7.76671	0.659342	9.57963	0.864513	12.5565
0.418868	5.59127	0.146984	2.0543	0.591051	8.47461	0.748309	10.665	0.809015	11.4722	0.542781	7.7442	0.664605	9.52713	0.868515	12.4462
0.420236	5.55818	0.149074	2.05673	0.597388	8.45254	0.753478	10.598	0.815198	11.4091	0.548391	7.72159	0.6699	9.47647	0.872549	12.3393
0.421352	5.53107	0.151164	2.05909	0.603722	8.43102	0.758664	10.5329	0.821457	11.3487	0.553951	7.69888	0.675226	9.42756	0.876615	12.2356
0.422225	5.5098	0.153253	2.06139	0.610052	8.40999	0.763864	10.4697	0.827788	11.2909	0.559459	7.67604	0.680584	9.38034	0.880713	12.135
0.422862	5.49425	0.155342	2.06363	0.616377	8.38943	0.769078	10.4082	0.834191	11.2354	0.564915	7.65307	0.685972	9.33474	0.884841	12.0373
0.423267	5.48434	0.157431	2.06581	0.622694	8.36929	0.774304	10.3485	0.840665	11.1823	0.570318	7.62996	0.691391	9.29068	0.888999	11.9425
0.423847	5.47016	0.15952	2.06794	0.629004	8.34953	0.779543	10.2903	0.847206	11.1313	0.575667	7.6067	0.696839	9.24811	0.893188	11.8505
0.424473	5.45481	0.161608	2.07001	0.635303	8.33013	0.784792	10.2338	0.853814	11.0825	0.58096	7.58329	0.702317	9.20696	0.897406	11.7611
0.425317	5.43406	0.163697	2.07203	0.641592	8.31106	0.790053	10.1787	0.860486	11.0356	0.586197	7.55971	0.707823	9.16718	0.901653	11.6742
0.426375	5.40804	0.165785	2.074	0.647869	8.29229	0.795324	10.1251	0.867221	10.9907	0.591377	7.53597	0.713358	9.12871	0.905928	11.5897
0.42764	5.37687	0.167873	2.07593	0.654132	8.27379	0.800606	10.0729	0.874016	10.9475	0.5965	7.51206	0.718921	9.0915	0.910232	11.5076
0.429103	5.34074	0.169961	2.07781	0.660381	8.25554	0.805898	10.022	0.880869	10.9061	0.601565	7.48798	0.724511	9.0555	0.914564	11.4278
0.430756	5.29986	0.172048	2.07964	0.666614	8.23752	0.8112	9.97235	0.88778	10.8663	0.606571	7.46374	0.730127	9.02064	0.918922	11.3501
0.432383	5.25959	0.174136	2.08143	0.672831	8.21971	0.816512	9.92399	0.894744	10.8281	0.611518	7.43932	0.735769	8.9869	0.923308	11.2745
0.433986	5.21993	0.176223	2.08318	0.679031	8.20209	0.821835	9.87683	0.901761	10.7913	0.616406	7.41474	0.741435	8.95422	0.927721	11.201
0.435566	5.18088	0.17831	2.08489	0.685212	8.18464	0.827167	9.83085	0.908829	10.756	0.621234	7.39	0.747126	8.92255	0.93216	11.1294
0.437124	5.14242	0.180397	2.08656	0.691373	8.16734	0.832511	9.78599	0.915945	10.722	0.626002	7.36509	0.752841	8.89186	0.936624	11.0597
0.438662	5.10456	0.182484	2.08819	0.697514	8.15019	0.837864	9.74222	0.923108	10.6892	0.63071	7.34003	0.758577	8.86209	0.941115	10.9917
0.44018	5.06729	0.18457	2.08979	0.703634	8.13315	0.843229	9.69952	0.930315	10.6577	0.635359	7.31481	0.764336	8.83322	0.94563	10.9256
0.44168	5.03061	0.186657	2.09136	0.709732	8.11623	0.848604	9.65785	0.937565	10.6273	0.639947	7.28944	0.770115	8.8052	0.95017	10.8611
0.443164	4.9945	0.188743	2.09288	0.715807	8.09941	0.85399	9.61717	0.944856	10.5981	0.644476	7.26394	0.775913	8.77799	0.954735	10.7983
0.44463	4.95896	0.19083	2.09438	0.721858	8.08267	0.859388	9.57747	0.952185	10.5698	0.648944	7.2383	0.781731	8.75155	0.959324	10.7371
0.446082	4.92399	0.192916	2.09585	0.727885	8.066	0.864797	9.53871	0.959552	10.5426	0.653354	7.21253	0.787565	8.72586	0.963937	10.6774
0.44752	4.88957	0.195002	2.09728	0.733886	8.04939	0.870218	9.50086	0.966955	10.5162	0.657704	7.18663	0.793417	8.70087	0.968573	10.6191
0.448944	4.8557	0.197088	2.09868	0.739861	8.03284	0.87565	9.46391	0.97439	10.4908	0.661996	7.16063	0.799284	8.67656	0.973232	10.5623
0.450355	4.82237	0.199174	2.10006	0.745809	8.01633	0.881095	9.42782	0.981858	10.4662	0.666228	7.13451	0.805165	8.65289	0.977915	10.5069
0.451755	4.78957	0.201259	2.10141	0.75173	7.99986	0.886551	9.39256	0.989355	10.4424	0.670403	7.1083	0.81106	8.62984	0.98262	10.4528
0.453143	4.7573	0.203345	2.10273	0.757622	7.98341	0.89202	9.35813	0.996881	10.4194	0.674521	7.08199	0.816967	8.60736	0.987347	10.4
0.454522	4.72555	0.20543	2.10402	0.763486	7.96698	0.897501	9.32449	1.00443	10.3971	0.678581	7.0556	0.822886	8.58544	0.992096	10.3485
0.45589	4.69431	0.207516	2.10529	0.76932	7.95056	0.902995	9.29163			0.682585	7.02914	0.828814	8.56405	0.996868	10.2982
0.45725	4.66356	0.209601	2.10654	0.775123	7.93414	0.908501	9.25951			0.686533	7.00261	0.834752	8.54315	1.00166	10.249
0.458601	4.63332	0.211686	2.10776	0.780896	7.91772	0.91402	9.22813			0.690425	6.97602	0.840697	8.52273		
0.459944	4.60356	0.213771	2.10895	0.786637	7.90129	0.919551	9.19746			0.694263	6.94937	0.846649	8.50277		
0.46128	4.57427	0.215857	2.11013	0.792346	7.88484	0.925095	9.16748			0.698047	6.92269	0.852608	8.48322		
0.462609	4.54546	0.217941	2.11128	0.798023	7.86838	0.930652	9.13818			0.701777	6.89596	0.85857	8.46409		
0.463932	4.5171	0.220026	2.11241	0.803666	7.85189	0.936221	9.10953			0.705455	6.86921	0.864537	8.44534		
0.465249	4.4892	0.222111	2.11352	0.809275	7.83537	0.941804	9.08151			0.70908	6.84244	0.870506	8.42695		
0.466561	4.46175	0.224196	2.11461	0.814851	7.81882	0.947398	9.05412			0.712655	6.81566	0.876476	8.40891		
0.467868	4.43473	0.22628	2.11568	0.820392	7.80224	0.953005	9.02732			0.716179	6.78886	0.882447	8.39119		
0.46917	4.40815	0.228365	2.11673	0.825897	7.78561	0.958625	9.00111			0.719653	6.76208	0.888418	8.37377		
0.470468	4.38198	0.230449	2.11777	0.831367	7.76894	0.964256	8.97547			0.723078	6.73529	0.894387	8.35665		
0.471762	4.35623	0.232534	2.11878	0.836802	7.75223	0.9699	8.95038			0.726455	6.70853	0.900354	8.3398		
0.473053	4.33089	0.234618	2.11978	0.8422	7.73547	0.975556	8.92583			0.729784	6.68178	0.906317	8.32321		
0.474341	4.30596	0.236702	2.12076	0.847561	7.71866	0.981223	8.9018			0.733066	6.65507	0.912276	8.30686		
0.475626	4.28141	0.238787	2.12172	0.852886	7.7018	0.986902	8.87827			0.736303	6.62838	0.91823	8.29073		
0.476909	4.25725	0.240871	2.12266	0.858173	7.68489	0.992591	8.85524			0.739494	6.60174	0.924178	8.27482		
0.478189	4.23347	0.242955	2.12359	0.863423	7.66793	0.998292	8.83268			0.742641	6.57514	0.930118	8.25912		
0.479467	4.21006	0.245039	2.12451	0.868635	7.65091	1.004	8.81058			0.745744	6.5486	0.936051	8.2436		
0.480744	4.18702	0.247123	2.12541	0.873809	7.63384					0.748804	6.52211	0.941975	8.22825		
0.48202	4.16433	0.249207	2.12629	0.878945	7.61672					0.751822	6.49569	0.947889	8.21307		
0.483294	4.142	0.251291	2.12716	0.884043	7.59953					0.754799	6.46933	0.953793	8.19805		
0.484567	4.12002	0.253374	2.12802	0.889103	7.5823					0.757735	6.44304	0.959686	8.18317		
0.48584	4.09837	0.255458	2.12886	0.894124	7.56501					0.760632	6.41684	0.965567	8.16842		
0.487112	4.07706	0.257542	2.12969	0.899106	7.54767					0.763489	6.39071	0.971435	8.1538		
0.488383	4.05607	0.259626	2.13051	0.90405	7.53027					0.766308	6.36467	0.97729	8.13929		
0.489655	4.03541	0.261709	2.13131	0.908955	7.51283					0.769089	6.33872	0.983131	8.12488		
0.490927	4.01506	0.263793	2.1321	0.913821	7.49533					0.771833	6.31286	0.988956	8.11058		
0.492199	3.99502	0.265876	2.13288	0.918649	7.47778					0.774541	6.2871	0.994767	8.09637		
0.493471	3.97528	0.26796	2.13364	0.923438	7.46019					0.777214	6.26144	1.00056	8.08224		
0.494744	3.95585	0.270043	2.1344	0.928188	7.44254					0.779852	6.23589				
0.496017	3.9367	0.272126	2.13514	0.9329	7.42485					0.782457	6.21044				
0.497291	3.91784	0.27421	2.13587	0.937573	7.40712					0.785027	6.18511				
0.498566	3.89927	0.276293	2.1366	0.942208	7.38935					0.787566	6.15989				
0.499843	3.88097	0.278376	2.13731	0.946804	7.37153					0.790072	6.13479				
0.50112	3.86294	0.280459	2.13801	0.951362	7.35367					0.792547	6.10981				
0.502399	3.84519	0.282543	2.1387	0.955882	7.33578					0.794992	6.08495				
0.503679	3.82769	0.284626	2.13938	0.960364	7.31785					0.797407	6.06022				
0.504961	3.81045	0.286709	2.14005	0.964808	7.29989					0.799792	6.03561				
0.506244	3.79346	0.288792	2.14071	0.969214	7.2819					0.802149	6.01113				
0.507529	3.77672	0.290875	2.14136	0.973583	7.26388					0.804479	5.98679				
0.508816	3.76023	0.292958	2.142	0.977914	7.24582					0.80678	5.96257				
0.510104	3.74397	0.295041	2.14264	0.982209	7.22775					0.809055	5.9385				
0.511395	3.72795	0.297124	2.14326	0.986466	7.20965					0.811304	5.91456				
0.512688	3.71216	0.299206	2.14388	0.990687	7.19152					0.813528	5.89075				
0.513982	3.6966	0.301289	2.14449	0.994871	7.17338					0.815726	5.86709				
0.515279	3.68126	0.303372	2.14509	0.999019	7.15522					0.8179	5.84357				
0.516579	3.66614	0.305455	2.14568	1.00313	7.13705					0.820051	5.82019				
0.51788	3.65124	0.307538	2.14626							0.822178	5.79696				
0.519184	3.63654	0.30962	2.14684							0.824282	5.77386				
0.52049	3.62205	0.311703	2.1474							0.826364	5.75092				
0.521799	3.60777	0.313786	2.14797							0.828425	5.72812				
0.52311	3.59369	0.315868	2.14852							0.830465	5.70546				
0.524424	3.5798	0.317951	2.14906							0.832484	5.68296				
0.52574	3.5661	0.320033	2.1496							0.834483	5.6606				
0.52706	3.5526	0.322116	2.15014							0.836462	5.63839				
0.528381	3.53928	0.324198	2.15066							0.838422	5.61633				
0.529706	3.52615	0.326281	2.15118							0.840364	5.59442				
0.531033	3.51319	0.328363	2.15169							0.842287	5.57266				
0.532363	3.50042	0.330446	2.1522							0.844192	5.55105				
0.533696	3.48781	0.332528	2.1527							0.846081	5.52959				
0.535032	3.47538	0.334611	2.15319							0.847952	5.50828				
0.53637	3.46312	0.336693	2.15368							0.849807	5.48712				
0.537712	3.45102	0.338775	2.15416							0.851646	5.46611				
0.539056	3.43908	0.340858	2.15464							0.853469	5.44525				
0.540403	3.42731	0.34294	2.15511							0.855277	5.42454				
0.541754	3.41569	0.345022	2.15557							0.85707	5.40398				
0.543107	3.40422	0.347104	2.15603							0.858849	5.38357				
0.544463	3.39291	0.349187	2.15649							0.860613	5.36331				
0.545822	3.38175	0.351269	2.15693							0.862364	5.34319				
0.547185	3.37073	0.353351	2.15738							0.864101	5.32323				
0.54855	3.35986	0.355433	2.15782							0.865826	5.30341				
0.549919	3.34913	0.357515	2.15825							0.867537	5.28374				
0.55129	3.33854	0.359598	2.15868							0.869237	5.26422				
0.552665	3.32808	0.36168	2.1591							0.870924	5.24485				
0.554042	3.31776	0.363762	2.15952							0.8726	5.22562				
0.555423	3.30758	0.365844	2.15993							0.874264	5.20653				
0.556807	3.29752	0.367926	2.16034							0.875917	5.1876				
0.558194	3.2876	0.370008	2.16075							0.877559	5.1688				
0.559584	3.2778	0.37209	2.16115							0.879191	5.15015				
0.560977	3.26812	0.374172	2.16154							0.880813	5.13164				
0.562374	3.25857	0.376254	2.16193							0.882424	5.11327				
0.563773	3.24914	0.378336	2.16232							0.884026	5.09505				
0.565175	3.23983	0.380418	2.1627							0.885619	5.07697				
0.566581	3.23063	0.3825	2.16308							0.887202	5.05902				
0.56799	3.22155	0.384582	2.16346							0.888776	5.04122				
0.569402	3.21258	0.386664	2.16383							0.890342	5.02355				
0.570817	3.20372	0.388745	2.16419							0.891899	5.00602				
0.572235	3.19497	0.390827	2.16455							0.893449	4.98863				
0.573656	3.18633	0.392909	2.16491							0.89499	4.97137				
0.57508	3.1778	0.394991	2.16527							0.896523	4.95425				
0.576508	3.16937	0.397073	2.16562							0.898049	4.93726				
0.577939	3.16104	0.399155	2.16597							0.899568	4.92041				
0.579372	3.15282	0.401236	2.16631							0.901079	4.90369				
0.580809	3.14469	0.403318	2.16665							0.902584	4.8871				
0.582249	3.13667	0.4054	2.16699							0.904082	4.87064				
0.583692	3.12874	0.407482	2.16732							0.905574	4.85431				
0.585138	3.1209	0.409563	2.16766							0.907059	4.8381				
0.586587	3.11316	0.411645	2.16798							0.908538	4.82203				
0.588039	3.10551	0.413727	2.16831							0.910011	4.80608				
0.589494	3.09795	0.415809	2.16863							0.911478	4.79026				
0.590952	3.09048	0.41789	2.16894							0.91294	4.77457				
0.592413	3.0831	0.419972	2.16926							0.914397	4.75899				
0.593878	3.07581	0.422054	2.16957							0.915848	4.74354				
0.595345	3.0686	0.424135	2.16988							0.917294	4.72822				
0.596815	3.06148	0.426217	2.17018							0.918735	4.71301				
0.598288	3.05444	0.428299	2.17049							0.920171	4.69793				
0.599765	3.04748	0.43038	2.17079							0.921603	4.68296				
0.601244	3.0406	0.432462	2.17108							0.92303	4.66811				
0.602726	3.0338	0.434543	2.17138							0.924453	4.65338				
0.604211	3.02708	0.436625	2.17167							0.925872	4.63877				
0.605699	3.02044	0.438706	2.17196							0.927287	4.62427				
0.607191	3.01387	0.440788	2.17224							0.928698	4.60989				
0.608684	3.00738	0.44287	2.17253							0.930104	4.59562				
0.610181	3.00096	0.444951	2.17281							0.931508	4.58146				
0.611681	2.99461	0.447033	2.17308							0.932907	4.56742				
0.613184	2.98834	0.449114	2.17336							0.934304	4.55348				
0.614689	2.98214	0.451196	2.17363							0.935697	4.53966				
0.616198	2.976	0.453277	2.1739							0.937086	4.52594				
0.617709	2.96994	0.455359	2.17417							0.938473	4.51233				
0.619223	2.96394	0.45744	2.17443							0.939857	4.49883				
0.62074	2.95801	0.459522	2.1747							0.941238	4.48544				
0.62226	2.95214	0.461603	2.17496							0.942616	4.47215				
0.623782	2.94634	0.463684	2.17522							0.943991	4.45897				
0.625308	2.94061	0.465766	2.17547							0.945364	4.44588				
0.626836	2.93493	0.467847	2.17573							0.946735	4.43291				
0.628367	2.92932	0.469929	2.17598							0.948103	4.42003				
0.629901	2.92377	0.47201	2.17623							0.949469	4.40725				
0.631437	2.91829	0.474092	2.17647							0.950832	4.39458				
0.632976	2.91286	0.476173	2.17672							0.952194	4.382				
0.634518	2.90749	0.478254	2.17696							0.953553	4.36952				
0.636062	2.90217	0.480336	2.1772							0.954911	4.35714				
0.63761	2.89692	0.482417	2.17744							0.956267	4.34486				
0.63916	2.89172	0.484498	2.17768							0.957621	4.33267				
0.640712	2.88658	0.48658	2.17791							0.958973	4.32058				
0.642267	2.88149	0.488661	2.17814							0.960324	4.30857				
0.643825	2.87645	0.490742	2.17837							0.961673	4.29667				
0.645386	2.87147	0.492824	2.1786							0.963021	4.28485				
0.646949	2.86654	0.494905	2.17883							0.964368	4.27313				
0.648514	2.86167	0.496986	2.17906							0.965713	4.2615				
0.650083	2.85684	0.499068	2.17928							0.967057	4.24995				
0.651654	2.85207	0.501149	2.1795							0.968399	4.2385				
0.653227	2.84734	0.50323	2.17972							0.969741	4.22714				
0.654803	2.84267	0.505311	2.17994							0.971082	4.21586				
0.656381	2.83804	0.507393	2.18015							0.972421	4.20467				
0.657962	2.83346	0.509474	2.18037							0.97376	4.19356				
0.659546	2.82893	0.511555	2.18058							0.975098	4.18254				
0.661132	2.82445	0.513636	2.18079							0.976435	4.1716				
0.66272	2.82001	0.515718	2.181							0.977771	4.16075				
0.664311	2.81562	0.517799	2.18121							0.979107	4.14998				
0.665904	2.81127	0.51988	2.18141							0.980442	4.13929				
0.6675	2.80696	0.521961	2.18161							0.981776	4.12869				
0.669098	2.8027	0.524043	2.18182							0.98311	4.11816				
0.670699	2.79849	0.526124	2.18202							0.984444	4.10772				
0.672302	2.79431	0.528205	2.18222							0.985777	4.09735				
0.673907	2.79018	0.530286	2.18241							0.987109	4.08706				
0.675515	2.78609	0.532367	2.18261							0.988442	4.07685				
0.677125	2.78204	0.534448	2.18281							0.989774	4.06672				
0.678738	2.77803	0.53653	2.183							0.991105	4.05666				
0.680352	2.77406	0.538611	2.18319							0.992437	4.04668				
0.681969	2.77013	0.540692	2.18338							0.993768	4.03677				
0.683589	2.76624	0.542773	2.18357							0.9951	4.02694				
0.685211	2.76239	0.544854	2.18376							0.996431	4.01718				
0.686834	2.75857	0.546935	2.18394							0.997762	4.00749				
0.688461	2.7548	0.549017	2.18413							0.999093	3.99788				
0.690089	2.75106	0.551098	2.18431							1.00042	3.98834				
0.69172	2.74735	0.553179	2.18449												
0.693353	2.74368	0.55526	2.18467												
0.694988	2.74005	0.557341	2.18485												
0.696625	2.73646	0.559422	2.18503												
0.698265	2.73289	0.561503	2.1852												
0.699906	2.72937	0.563584	2.18538												
0.70155	2.72587	0.565665	2.18555												
0.703196	2.72241	0.567746	2.18573												
0.704844	2.71899	0.569827	2.1859												
0.706494	2.71559	0.571909	2.18607												
0.708147	2.71223	0.57399	2.18624												
0.709801	2.7089	0.576071	2.1864												
0.711458	2.7056	0.578152	2.18657												
0.713116	2.70233	0.580233	2.18673												
0.714777	2.6991	0.582314	2.1869												
0.71644	2.69589	0.584395	2.18706												
0.718104	2.69272	0.586476	2.18722												
0.719771	2.68957	0.588557	2.18738												
0.72144	2.68645	0.590638	2.18754												
0.723111	2.68336	0.592719	2.1877												
0.724783	2.6803	0.5948	2.18786												
0.726458	2.67727	0.596881	2.18802												
0.728135	2.67427	0.598962	2.18817												
0.729813	2.67129	0.601043	2.18832												
0.731494	2.66835	0.603124	2.18848												
0.733177	2.66542	0.605205	2.18863												
0.734861	2.66253	0.607286	2.18878												
0.736547	2.65966	0.609367	2.18893												
0.738236	2.65682	0.611448	2.18908												
0.739926	2.654	0.613529	2.18923												
0.741618	2.65121	0.61561	2.18937												
0.743311	2.64845	0.617691	2.18952												
0.745007	2.6457	0.619772	2.18966												
0.746705	2.64299	0.621852	2.18981												
0.748404	2.6403	0.623933	2.18995												
0.750105	2.63763	0.626014	2.19009												
0.751808	2.63498	0.628095	2.19023												
0.753513	2.63236	0.630176	2.19037												
0.755219	2.62976	0.632257	2.19051												
0.756928	2.62719	0.634338	2.19065												
0.758638	2.62464	0.636419	2.19079												
0.76035	2.62211	0.6385	2.19092												
0.762063	2.6196	0.640581	2.19106												
0.763779	2.61712	0.642662	2.19119												
0.765496	2.61465	0.644743	2.19133												
0.767214	2.61221	0.646823	2.19146												
0.768935	2.60979	0.648904	2.19159												
0.770657	2.60739	0.650985	2.19172												
0.772381	2.60501	0.653066	2.19185												
0.774106	2.60265	0.655147	2.19198												
0.775833	2.60031	0.657228	2.19211												
0.777562	2.59799	0.659309	2.19224												
0.779292	2.59569	0.66139	2.19237												
0.781025	2.59341	0.66347	2.19249												
0.782758	2.59116	0.665551	2.19262												
0.784493	2.58891	0.667632	2.19274												
0.78623	2.58669	0.669713	2.19287												
0.787969	2.58449	0.671794	2.19299												
0.789709	2.58231	0.673875	2.19311												
0.79145	2.58014	0.675955	2.19324												
0.793194	2.57799	0.678036	2.19336												
0.794938	2.57586	0.680117	2.19348												
0.796685	2.57375	0.682198	2.1936												
0.798432	2.57166	0.684279	2.19372												
0.800182	2.56958	0.68636	2.19383												
0.801933	2.56752	0.68844	2.19395												
0.803685	2.56548	0.690521	2.19407												
0.805439	2.56345	0.692602	2.19418												
0.807194	2.56145	0.694683	2.1943												
0.808951	2.55945	0.696764	2.19441												
0.810709	2.55748	0.698844	2.19453												
0.812469	2.55552	0.700925	2.19464												
0.81423	2.55357	0.703006	2.19475												
0.815993	2.55165	0.705087	2.19487												
0.817757	2.54973	0.707168	2.19498												
0.819522	2.54784	0.709248	2.19509												
0.821289	2.54596	0.711329	2.1952												
0.823058	2.54409	0.71341	2.19531												
0.824827	2.54224	0.715491	2.19541												
0.826598	2.5404	0.717571	2.19552												
0.828371	2.53858	0.719652	2.19563												
0.830145	2.53677	0.721733	2.19574												
0.83192	2.53498	0.723814	2.19584												
0.833697	2.5332	0.725894	2.19595												
0.835475	2.53144	0.727975	2.19605												
0.837254	2.52969	0.730056	2.19616												
0.839035	2.52795	0.732137	2.19626												
0.840817	2.52623	0.734217	2.19637												
0.8426	2.52452	0.736298	2.19647												
0.844384	2.52283	0.738379	2.19657												
0.84617	2.52114	0.74046	2.19667												
0.847958	2.51948	0.74254	2.19677												
0.849746	2.51782	0.744621	2.19687												
0.851536	2.51618	0.746702	2.19697												
0.853327	2.51455	0.748782	2.19707												
0.855119	2.51293	0.750863	2.19717												
0.856913	2.51132	0.752944	2.19727												
0.858708	2.50973	0.755024	2.19737												
0.860504	2.50815	0.757105	2.19746												
0.862301	2.50658	0.759186	2.19756												
0.864099	2.50502	0.761267	2.19765												
0.865899	2.50348	0.763347	2.19775												
0.8677	2.50195	0.765428	2.19785												
0.869502	2.50043	0.767509	2.19794												
0.871306	2.49892	0.769589	2.19803												
0.87311	2.49742	0.77167	2.19813												
0.874916	2.49593	0.773751	2.19822												
0.876723	2.49446	0.775831	2.19831												
0.878531	2.49299	0.777912	2.1984												
0.88034	2.49154	0.779993	2.1985												
0.882151	2.4901	0.782073	2.19859												
0.883962	2.48867	0.784154	2.19868												
0.885775	2.48725	0.786235	2.19877												
0.887589	2.48584	0.788315	2.19886												
0.889404	2.48444	0.790396	2.19895												
0.89122	2.48305	0.792477	2.19903												
0.893037	2.48167	0.794557	2.19912												
0.894856	2.4803	0.796638	2.19921												
0.896675	2.47894	0.798719	2.1993												
0.898496	2.47759	0.800799	2.19938												
0.900317	2.47625	0.80288	2.19947												
0.90214	2.47493	0.804961	2.19956												
0.903964	2.47361	0.807041	2.19964												
0.905789	2.4723	0.809122	2.19973												
0.907615	2.471	0.811202	2.19981												
0.909442	2.46971	0.813283	2.19989												
0.91127	2.46843	0.815364	2.19998												
0.913099	2.46715	0.817444	2.20006												
0.914929	2.46589	0.819525	2.20014												
0.916761	2.46464	0.821606	2.20023												
0.918593	2.46339	0.823686	2.20031												
0.920426	2.46216	0.825767	2.20039												
0.92226	2.46093	0.827847	2.20047												
0.924096	2.45971	0.829928	2.20055												
0.925932	2.4585	0.832009	2.20063												
0.927769	2.4573	0.834089	2.20071												
0.929608	2.45611	0.83617	2.20079												
0.931447	2.45493	0.83825	2.20087												
0.933287	2.45375	0.840331	2.20095												
0.935129	2.45259	0.842412	2.20103												
0.936971	2.45143	0.844492	2.20111												
0.938814	2.45028	0.846573	2.20118												
0.940658	2.44914	0.848653	2.20126												
0.942503	2.448	0.850734	2.20134												
0.94435	2.44688	0.852815	2.20141												
0.946197	2.44576	0.854895	2.20149												
0.948045	2.44465	0.856976	2.20157												
0.949894	2.44354	0.859056	2.20164												
0.951743	2.44245	0.861137	2.20172												
0.953594	2.44136	0.863217	2.20179												
0.955446	2.44028	0.865298	2.20186												
0.957299	2.43921	0.867378	2.20194												
0.959152	2.43814	0.869459	2.20201												
0.961007	2.43708	0.87154	2.20208												
0.962862	2.43603	0.87362	2.20216												
0.964718	2.43499	0.875701	2.20223												
0.966575	2.43395	0.877781	2.2023												
0.968433	2.43293	0.879862	2.20237												
0.970292	2.4319	0.881942	2.20245												
0.972152	2.43089	0.884023	2.20252												
0.974013	2.42988	0.886103	2.20259												
0.975874	2.42888	0.888184	2.20266												
0.977737	2.42788	0.890265	2.20273												
0.9796	2.4269	0.892345	2.2028												
0.981464	2.42591	0.894426	2.20287												
0.983329	2.42494	0.896506	2.20294												
0.985195	2.42397	0.898587	2.203												
0.987061	2.42301	0.900667	2.20307												
0.988929	2.42205	0.902748	2.20314												
0.990797	2.42111	0.904828	2.20321												
0.992666	2.42016	0.906909	2.20328												
0.994536	2.41923	0.908989	2.20334												
0.996407	2.4183	0.91107	2.20341												
0.998279	2.41737	0.91315	2.20348												
1.00015	2.41645	0.915231	2.20354												
		0.917311	2.20361												
		0.919392	2.20368												
		0.921472	2.20374												
		0.923553	2.20381												
		0.925633	2.20387												
		0.927714	2.20394												
		0.929794	2.204												
		0.931875	2.20406												
		0.933955	2.20413												
		0.936036	2.20419												
		0.938116	2.20425												
		0.940197	2.20432												
		0.942277	2.20438												
		0.944358	2.20444												
		0.946438	2.2045												
		0.948519	2.20456												
		0.950599	2.20463												
		0.95268	2.20469												
		0.95476	2.20475												
		0.95684	2.20481												
		0.958921	2.20487												
		0.961001	2.20493												
		0.963082	2.20499												
		0.965162	2.20505												
		0.967243	2.20511												
		0.969323	2.20517												
		0.971404	2.20523												
		0.973484	2.20528												
		0.975565	2.20534												
		0.977645	2.2054												
		0.979725	2.20546												
		0.981806	2.20552												
		0.983886	2.20557												
		0.985967	2.20563												
		0.988047	2.20569												
		0.990128	2.20574												
		0.992208	2.2058												
		0.994289	2.20586												
		0.996369	2.20591												
		0.998449	2.20597												
		1.00053	2.20602												
