Sym0		Asym0		Sym1		Sym2		Sym3		Asym1		Asym2		Asym3	
446  Points		491  Points		153  Points		127  Points		111  Points		254  Points		137  Points		110  Points	
Freq (MHz)	Vph (m/ms)	Freq (MHz)	Vph (m/ms)	Freq (MHz)	Vph (m/ms)	Freq (MHz)	Vph (m/ms)	Freq (MHz)	Vph (m/ms)	Freq (MHz)	Vph (m/ms)	Freq (MHz)	Vph (m/ms)	Freq (MHz)	Vph (m/ms)
0.00744962	8.03205	0.000446534	0.22739	0.279517	962.554	0.559017	3136.95	0.567089	3538.55	0.139909	174.357	0.419319	461.855	0.698781	1456.3
0.0149318	8.03138	0.000963406	0.332733	0.279655	228.834	0.559028	503.675	0.567175	519.412	0.140475	81.0066	0.419495	228.036	0.698852	495.103
0.0224116	8.0303	0.00166593	0.435295	0.279963	129.987	0.559055	273.833	0.567385	280.377	0.141451	53.061	0.419789	151.478	0.698993	298.304
0.0298878	8.02881	0.00254309	0.534396	0.28044	90.8905	0.559103	188.042	0.567718	192.099	0.142825	39.7012	0.420202	113.476	0.699205	213.503
0.0373592	8.02686	0.00358201	0.62947	0.281086	69.9711	0.559175	143.195	0.568169	146.17	0.144585	31.9228	0.420733	90.7792	0.699487	166.283
0.0448245	8.02449	0.00476852	0.72008	0.281898	56.9622	0.559276	115.632	0.568733	118.025	0.146713	26.866	0.421381	75.7012	0.699839	136.2
0.0522825	8.02168	0.00608821	0.805968	0.282876	48.1036	0.559413	96.9793	0.569404	99.0194	0.14919	23.3379	0.422147	64.965	0.700261	115.364
0.0597319	8.0184	0.00752658	0.886983	0.284016	41.692	0.559589	83.5199	0.570178	85.3289	0.151996	20.7523	0.423029	56.937	0.700752	100.083
0.0671714	8.01468	0.00906954	0.963073	0.285318	36.8439	0.55981	73.3526	0.571051	75.002	0.15511	18.7875	0.424026	50.712	0.701314	88.4002
0.0745995	8.01048	0.010704	1.03431	0.286777	33.0554	0.560078	65.4033	0.57202	66.938	0.158511	17.2525	0.425138	45.7474	0.701944	79.1807
0.0820151	8.00582	0.0124177	1.10079	0.288391	30.0178	0.560399	59.0194	0.57308	60.4693	0.162178	16.0265	0.426363	41.6987	0.702644	71.7219
0.0894165	8.00066	0.0141995	1.16271	0.290157	27.5317	0.560773	53.7816	0.57423	55.1672	0.166091	15.0294	0.427701	38.3363	0.703412	65.565
0.0968023	7.99502	0.0160396	1.22029	0.292072	25.4624	0.561204	49.4081	0.575467	50.744	0.170232	14.2064	0.429149	35.5014	0.70425	60.3979
0.104171	7.98886	0.0179291	1.27375	0.294132	23.7157	0.561693	45.7024	0.57679	46.9994	0.174582	13.5183	0.430708	33.0807	0.705155	56.0009
0.111521	7.98219	0.0198603	1.32336	0.296333	22.2237	0.562243	42.5235	0.578197	43.7896	0.179124	12.9368	0.432375	30.991	0.706129	52.2147
0.11885	7.97498	0.0218267	1.36937	0.298672	20.9362	0.562855	39.7676	0.579688	41.0088	0.183227	12.5001	0.434149	29.1702	0.707171	48.9214
0.126158	7.96722	0.0238223	1.41204	0.301145	19.8154	0.563531	37.3562	0.58126	38.5774	0.186824	12.1708	0.436029	27.5705	0.70828	46.0312
0.133441	7.95889	0.0258423	1.4516	0.303747	18.8321	0.564272	35.2295	0.582914	36.4342	0.189862	11.9241	0.438012	26.1551	0.709456	43.4752
0.140698	7.94997	0.027619	1.48374	0.306475	17.9636	0.565079	33.3405	0.584649	34.5317	0.192303	11.7437	0.440098	24.8947	0.710698	41.1991
0.147928	7.94043	0.0291439	1.50953	0.309325	17.1918	0.565953	31.6521	0.586463	32.8321	0.19412	11.6185	0.442285	23.7658	0.712007	39.1599
0.155127	7.93027	0.030411	1.52981	0.312293	16.5022	0.566897	30.1347	0.588356	31.3053	0.195291	11.5415	0.44457	22.7497	0.713382	37.323
0.162294	7.91945	0.0314163	1.54521	0.315374	15.8831	0.56791	28.764	0.590328	29.9266	0.196988	11.4349	0.446953	21.8308	0.714822	35.6601
0.169426	7.90795	0.0321573	1.55619	0.318566	15.3247	0.568995	27.5203	0.592378	28.6761	0.198847	11.3241	0.449431	20.9963	0.716327	34.148
0.176521	7.89574	0.0326323	1.56306	0.321864	14.8192	0.570153	26.3872	0.594506	27.5371	0.201402	11.1814	0.452002	20.2357	0.717897	32.7675
0.183576	7.8828	0.0333159	1.57275	0.325264	14.3598	0.571384	25.3511	0.59671	26.4958	0.204673	11.0131	0.454665	19.5399	0.71953	31.5024
0.190588	7.86908	0.0340603	1.58302	0.328763	13.9408	0.572691	24.4004	0.598992	25.5405	0.208687	10.8259	0.457418	18.9014	0.721227	30.3391
0.197554	7.85456	0.0350743	1.59657	0.332359	13.5577	0.574075	23.5255	0.601349	24.6613	0.21347	10.6265	0.460259	18.3137	0.722987	29.2661
0.204472	7.83921	0.0363594	1.61304	0.336047	13.2062	0.575537	22.718	0.603781	23.8498	0.219051	10.421	0.463186	17.7713	0.724809	28.2735
0.211338	7.82298	0.0379168	1.63203	0.339824	12.8829	0.577078	21.9708	0.606289	23.0987	0.224722	10.237	0.466197	17.2695	0.726693	27.3529
0.218147	7.80585	0.0397479	1.65307	0.343188	12.6219	0.578701	21.2778	0.608871	22.4019	0.230478	10.0717	0.46929	16.8041	0.728638	26.4969
0.224898	7.78777	0.0418534	1.6757	0.346106	12.4133	0.580406	20.6337	0.611527	21.7539	0.236309	9.92258	0.472464	16.3716	0.730644	25.6991
0.231585	7.76869	0.0439624	1.69684	0.348553	12.2496	0.582195	20.0337	0.614257	21.15	0.24221	9.78747	0.475716	15.9687	0.73271	24.954
0.238205	7.74859	0.046074	1.71662	0.350511	12.1256	0.584069	19.4739	0.617059	20.5861	0.248176	9.66466	0.479044	15.5928	0.734835	24.2567
0.244754	7.72742	0.0481875	1.73513	0.351962	12.0372	0.586031	18.9506	0.619934	20.0586	0.254199	9.55264	0.482447	15.2414	0.73702	23.6029
0.251227	7.70513	0.0503023	1.75249	0.352897	11.9819	0.58808	18.4607	0.622881	19.5641	0.260276	9.45014	0.485923	14.9122	0.739262	22.9888
0.257619	7.68169	0.0524178	1.76878	0.354247	11.904	0.59022	18.0014	0.6259	19.1	0.266402	9.35606	0.48947	14.6035	0.741563	22.411
0.263927	7.65705	0.0545338	1.78409	0.355725	11.8215	0.59245	17.5701	0.628989	18.6637	0.272573	9.26945	0.493087	14.3136	0.74392	21.8666
0.270146	7.63119	0.0566498	1.7985	0.35775	11.7127	0.594773	17.1647	0.632149	18.2528	0.278783	9.18949	0.49677	14.0407	0.746334	21.3528
0.27627	7.60406	0.0587657	1.81207	0.360339	11.5804	0.59719	16.7832	0.635379	17.8655	0.28503	9.11545	0.50052	13.7837	0.748803	20.8672
0.282295	7.57563	0.060881	1.82487	0.363508	11.4281	0.599701	16.4237	0.638679	17.4998	0.29131	9.04673	0.504333	13.5413	0.751328	20.4077
0.288217	7.54588	0.0629959	1.83696	0.36728	11.2593	0.602307	16.0847	0.642048	17.1542	0.297619	8.98276	0.508209	13.3124	0.753907	19.9723
0.294031	7.51478	0.0651101	1.84839	0.371679	11.0777	0.605011	15.7646	0.645486	16.8272	0.303955	8.92308	0.512145	13.0959	0.75654	19.5593
0.299732	7.48233	0.0672235	1.85921	0.376154	10.9082	0.607811	15.4622	0.648992	16.5174	0.310315	8.86724	0.515623	12.9166	0.759226	19.167
0.305317	7.44851	0.069336	1.86947	0.380704	10.7497	0.61071	15.1763	0.652567	16.2237	0.316695	8.81488	0.518623	12.7704	0.761964	18.7941
0.310782	7.41333	0.0714476	1.8792	0.385329	10.6014	0.613707	14.9056	0.65621	15.9449	0.323094	8.76566	0.521127	12.6537	0.764754	18.4392
0.316124	7.3768	0.0735584	1.88844	0.390029	10.4625	0.616802	14.6493	0.65992	15.6801	0.329508	8.71928	0.523122	12.5641	0.767596	18.1011
0.321339	7.33893	0.0756683	1.89722	0.394804	10.3324	0.619996	14.4064	0.663698	15.4283	0.335936	8.67548	0.524597	12.4996	0.770488	17.7786
0.326425	7.29977	0.0777772	1.90558	0.399655	10.2104	0.623288	14.176	0.667543	15.1887	0.342374	8.63402	0.525545	12.459	0.773429	17.4709
0.331381	7.25934	0.0798851	1.91355	0.404581	10.0959	0.626679	13.9573	0.671455	14.9606	0.348822	8.59468	0.526912	12.4014	0.77642	17.177
0.336204	7.2177	0.0819922	1.92115	0.409583	9.9885	0.630166	13.7497	0.675434	14.7432	0.355277	8.55727	0.528405	12.3399	0.779459	16.8959
0.340896	7.1749	0.0840983	1.9284	0.414661	9.88767	0.633751	13.5524	0.67948	14.5359	0.361736	8.52162	0.530446	12.258	0.782546	16.6271
0.345455	7.13102	0.0862036	1.93532	0.419815	9.793	0.63743	13.3648	0.683593	14.3381	0.368198	8.48757	0.533044	12.1573	0.78568	16.3696
0.349881	7.08611	0.088308	1.94195	0.425044	9.70409	0.640714	13.2088	0.687774	14.1493	0.374662	8.45497	0.536213	12.0395	0.78886	16.1229
0.354177	7.04027	0.0904116	1.94829	0.430349	9.62056	0.643569	13.081	0.692021	13.9689	0.381124	8.4237	0.539965	11.9067	0.792086	15.8863
0.358343	6.99357	0.0925143	1.95436	0.435729	9.54208	0.645967	12.9788	0.696336	13.7965	0.387585	8.39364	0.544318	11.761	0.795357	15.6593
0.362383	6.94609	0.0946163	1.96019	0.441182	9.46831	0.647888	12.9001	0.700719	13.6317	0.394041	8.36468	0.548718	11.6221	0.798673	15.4413
0.366297	6.89793	0.0967176	1.96578	0.446707	9.39895	0.649314	12.8434	0.705169	13.4741	0.400491	8.33672	0.553165	11.4896	0.802033	15.2319
0.370089	6.84917	0.0988181	1.97114	0.452302	9.33371	0.650233	12.8076	0.709103	13.3423	0.406933	8.30966	0.557657	11.363	0.805435	15.0306
0.373762	6.79991	0.100918	1.9763	0.457966	9.27231	0.651561	12.7569	0.712498	13.2338	0.413366	8.28344	0.562194	11.242	0.80888	14.8369
0.37732	6.75022	0.103017	1.98126	0.463695	9.21449	0.653016	12.7026	0.715334	13.1467	0.419789	8.25796	0.566775	11.1263	0.812367	14.6505
0.380766	6.70019	0.105116	1.98603	0.469488	9.16001	0.655012	12.6302	0.717595	13.0795	0.426199	8.23316	0.571397	11.0156	0.815895	14.471
0.384104	6.6499	0.107214	1.99063	0.475341	9.10863	0.657566	12.5411	0.719267	13.031	0.432595	8.20897	0.576061	10.9096	0.819464	14.298
0.387338	6.59943	0.109311	1.99506	0.481252	9.06014	0.660696	12.4366	0.720343	13.0003	0.438975	8.18533	0.580766	10.808	0.823073	14.1312
0.390471	6.54886	0.111408	1.99933	0.487216	9.01431	0.664425	12.3185	0.721895	12.9567	0.445339	8.16218	0.58551	10.7105	0.826721	13.9704
0.393508	6.49825	0.113504	2.00345	0.493232	8.97097	0.66878	12.1887	0.72359	12.91	0.451684	8.13948	0.590293	10.6171	0.830408	13.8152
0.396452	6.44766	0.1156	2.00743	0.499294	8.92991	0.673211	12.0646	0.72591	12.8477	0.458008	8.11717	0.595114	10.5274	0.833653	13.6843
0.399307	6.39717	0.117695	2.01127	0.505401	8.89098	0.677716	11.9459	0.728868	12.7707	0.464311	8.09521	0.599971	10.4412	0.836441	13.5759
0.402077	6.34682	0.119789	2.01499	0.511548	8.854	0.682292	11.8322	0.732481	12.6802	0.470591	8.07355	0.604866	10.3584	0.838762	13.4882
0.404767	6.29666	0.121884	2.01858	0.517733	8.81883	0.686935	11.7233	0.736769	12.5777	0.476846	8.05215	0.609796	10.2789	0.840607	13.4202
0.407379	6.24675	0.123978	2.02206	0.523951	8.78532	0.691642	11.6189	0.741756	12.4646	0.483075	8.03098	0.614761	10.2023	0.841969	13.371
0.409916	6.19713	0.126071	2.02542	0.5302	8.75335	0.696409	11.5187	0.746815	12.3561	0.489275	8.01	0.619761	10.1287	0.842843	13.3397
0.412384	6.14784	0.128164	2.02868	0.536476	8.7228	0.701234	11.4225	0.751946	12.2521	0.495447	7.98918	0.624795	10.0578	0.844103	13.2953
0.414784	6.09891	0.130257	2.03184	0.542778	8.69356	0.706113	11.33	0.757151	12.1525	0.501588	7.96848	0.629863	9.98959	0.845477	13.2475
0.41712	6.05038	0.132349	2.03491	0.5491	8.66552	0.711042	11.2411	0.762428	12.0569	0.507697	7.94789	0.634964	9.92385	0.847353	13.1834
0.419396	6.00227	0.134441	2.03788	0.555442	8.63859	0.716017	11.1554	0.767779	11.9652	0.513771	7.92736	0.640098	9.8605	0.849738	13.1038
0.421614	5.95461	0.136533	2.04076	0.561801	8.61267	0.721037	11.0729	0.773203	11.8773	0.519811	7.90689	0.645264	9.79943	0.85264	13.0097
0.423776	5.90742	0.138624	2.04356	0.568173	8.5877	0.726097	10.9933	0.778702	11.793	0.525814	7.88643	0.650462	9.74055	0.856068	12.9022
0.425887	5.86072	0.140715	2.04628	0.574557	8.5636	0.731194	10.9165	0.784275	11.7121	0.531779	7.86597	0.655691	9.68376	0.860034	12.7825
0.427948	5.81454	0.142806	2.04892	0.58095	8.54029	0.736326	10.8423	0.789922	11.6346	0.537704	7.8455	0.660952	9.62896	0.864034	12.6665
0.429962	5.76887	0.144896	2.0515	0.587351	8.51772	0.741489	10.7705	0.795643	11.5602	0.543588	7.82498	0.666244	9.57607	0.868067	12.5542
0.431931	5.72374	0.146987	2.05399	0.593757	8.49583	0.746681	10.7011	0.801438	11.4889	0.54943	7.8044	0.671566	9.52502	0.872134	12.4453
0.433613	5.68486	0.149076	2.05642	0.600166	8.47456	0.751899	10.6339	0.807306	11.4204	0.555229	7.78375	0.676919	9.47572	0.876232	12.3397
0.435022	5.65205	0.151166	2.05879	0.606577	8.45387	0.757141	10.5688	0.813247	11.3548	0.560982	7.76301	0.682302	9.42811	0.880362	12.2373
0.436171	5.62515	0.153256	2.06109	0.612988	8.43371	0.762406	10.5057	0.81926	11.2919	0.566689	7.74217	0.687714	9.38211	0.884524	12.138
0.437069	5.60403	0.155345	2.06334	0.619397	8.41403	0.76769	10.4444	0.825345	11.2315	0.572349	7.72121	0.693156	9.33766	0.888716	12.0415
0.437725	5.58859	0.157434	2.06552	0.625804	8.39481	0.772993	10.3849	0.8315	11.1736	0.57796	7.70013	0.698627	9.2947	0.892939	11.9479
0.438141	5.57874	0.159523	2.06765	0.632205	8.376	0.778313	10.3271	0.837724	11.1181	0.583522	7.6789	0.704127	9.25317	0.897192	11.857
0.438737	5.56464	0.161611	2.06973	0.638601	8.35758	0.783648	10.2709	0.844017	11.0648	0.589032	7.65754	0.709654	9.21302	0.901474	11.7687
0.439381	5.54938	0.163699	2.07175	0.64499	8.3395	0.788998	10.2163	0.850377	11.0136	0.594491	7.63602	0.71521	9.17418	0.905785	11.6829
0.440249	5.52875	0.165788	2.07373	0.651371	8.32175	0.79436	10.1631	0.856803	10.9645	0.599898	7.61433	0.720793	9.1366	0.910125	11.5995
0.441336	5.50285	0.167876	2.07566	0.657741	8.3043	0.799735	10.1114	0.863292	10.9174	0.60525	7.59249	0.726404	9.10024	0.914492	11.5183
0.442634	5.47181	0.169963	2.07754	0.664102	8.28711	0.805122	10.061	0.869844	10.8722	0.610549	7.57047	0.73204	9.06505	0.918888	11.4395
0.444136	5.43581	0.172051	2.07938	0.67045	8.27018	0.81052	10.0118	0.876457	10.8287	0.615792	7.54828	0.737703	9.03098	0.923311	11.3627
0.445831	5.39504	0.174139	2.08117	0.676785	8.25348	0.815929	9.96398	0.88313	10.787	0.62098	7.52592	0.743391	8.99798	0.927761	11.2881
0.447498	5.35484	0.176226	2.08292	0.683107	8.23698	0.821347	9.91731	0.88986	10.7469	0.626111	7.50339	0.749104	8.96602	0.932237	11.2154
0.449139	5.31522	0.178313	2.08464	0.689414	8.22068	0.826776	9.87181	0.896646	10.7084	0.631185	7.48067	0.754842	8.93505	0.936739	11.1446
0.450755	5.27617	0.1804	2.08631	0.695705	8.20454	0.832215	9.82742	0.903486	10.6713	0.636202	7.45778	0.760603	8.90503	0.941267	11.0757
0.452348	5.23769	0.182487	2.08795	0.70198	8.18857	0.837663	9.78411	0.910379	10.6357	0.641162	7.43472	0.766386	8.87593	0.945821	11.0086
0.453918	5.19978	0.184574	2.08955	0.708237	8.17273	0.84312	9.74184	0.917322	10.6014	0.646063	7.41148	0.772192	8.8477	0.9504	10.9433
0.455467	5.16243	0.18666	2.09112	0.714476	8.15703	0.848588	9.70058	0.924314	10.5684	0.650906	7.38808	0.778019	8.8203	0.955003	10.8795
0.456996	5.12563	0.188747	2.09265	0.720695	8.14143	0.854065	9.6603	0.931353	10.5366	0.655691	7.36451	0.783866	8.79371	0.959631	10.8174
0.458507	5.08939	0.190833	2.09415	0.726895	8.12594	0.859551	9.62097	0.938437	10.506	0.660418	7.34078	0.789734	8.76789	0.964282	10.7569
0.46	5.0537	0.192919	2.09562	0.733073	8.11054	0.865047	9.58256	0.945565	10.4766	0.665086	7.31689	0.79562	8.7428	0.968957	10.6979
0.461476	5.01855	0.195006	2.09705	0.739231	8.09521	0.870554	9.54504	0.952734	10.4482	0.669696	7.29285	0.801523	8.71842	0.973656	10.6403
0.462937	4.98393	0.197092	2.09846	0.745365	8.07996	0.87607	9.50839	0.959944	10.4207	0.674247	7.26867	0.807444	8.69471	0.978378	10.5841
0.464382	4.94985	0.199177	2.09984	0.751477	8.06476	0.881596	9.47258	0.967192	10.3943	0.67874	7.24434	0.813381	8.67164	0.983122	10.5293
0.465814	4.91629	0.201263	2.10119	0.757565	8.0496	0.887132	9.43759	0.974477	10.3688	0.683175	7.21989	0.819333	8.64918	0.987889	10.4759
0.467233	4.88324	0.203349	2.10251	0.763628	8.03449	0.892679	9.4034	0.981797	10.3441	0.687553	7.1953	0.825299	8.62731	0.992678	10.4237
0.468639	4.85071	0.205435	2.10381	0.769666	8.01941	0.898237	9.36998	0.98915	10.3203	0.691873	7.1706	0.831279	8.606	0.997489	10.3727
0.470034	4.81868	0.20752	2.10508	0.775679	8.00435	0.903805	9.33731	0.996536	10.2972	0.696136	7.14578	0.83727	8.58522	1.00232	10.3229
0.471418	4.78714	0.209605	2.10633	0.781664	7.9893	0.909384	9.30538	1.00395	10.2749	0.700342	7.12085	0.843273	8.56494		
0.472792	4.7561	0.211691	2.10755	0.787623	7.97427	0.914974	9.27416			0.704492	7.09583	0.849286	8.54515		
0.474157	4.72553	0.213776	2.10875	0.793553	7.95923	0.920575	9.24364			0.708586	7.07071	0.855308	8.52582		
0.475512	4.69544	0.215861	2.10993	0.799456	7.94419	0.926187	9.2138			0.712625	7.04551	0.861338	8.50692		
0.476859	4.66582	0.217946	2.11108	0.805329	7.92914	0.93181	9.18461			0.716609	7.02023	0.867376	8.48844		
0.478199	4.63665	0.220031	2.11222	0.811172	7.91408	0.937445	9.15607			0.720539	6.99488	0.87342	8.47036		
0.479531	4.60794	0.222116	2.11333	0.816985	7.899	0.943091	9.12815			0.724415	6.96948	0.879469	8.45265		
0.480856	4.57968	0.224201	2.11442	0.822768	7.88389	0.948749	9.10084			0.728237	6.94401	0.885522	8.43529		
0.482175	4.55185	0.226286	2.1155	0.828519	7.86875	0.954418	9.07412			0.732008	6.9185	0.891578	8.41827		
0.483488	4.52445	0.22837	2.11655	0.834239	7.85357	0.960098	9.04798			0.735726	6.89294	0.897637	8.40157		
0.484796	4.49748	0.230455	2.11758	0.839926	7.83836	0.96579	9.0224			0.739393	6.86735	0.903697	8.38517		
0.486099	4.47092	0.232539	2.1186	0.845581	7.82311	0.971494	8.99737			0.74301	6.84174	0.909758	8.36905		
0.487398	4.44478	0.234624	2.1196	0.851202	7.80782	0.977208	8.97287			0.746576	6.8161	0.915819	8.35321		
0.488692	4.41903	0.236708	2.12058	0.85679	7.79248	0.982934	8.94889			0.750093	6.79045	0.921877	8.33762		
0.489982	4.39368	0.238793	2.12155	0.862344	7.77709	0.988671	8.92541			0.753562	6.7648	0.927934	8.32227		
0.491269	4.36872	0.240877	2.12249	0.867863	7.76165	0.99442	8.90243			0.756983	6.73914	0.933988	8.30715		
0.492553	4.34415	0.242961	2.12343	0.873348	7.74615	1.00018	8.87992			0.760357	6.71349	0.940038	8.29224		
0.493834	4.31995	0.245045	2.12434	0.878797	7.7306					0.763684	6.68785	0.946082	8.27753		
0.495112	4.29611	0.247129	2.12525	0.884211	7.715					0.766965	6.66223	0.952122	8.26302		
0.496388	4.27264	0.249213	2.12613	0.88959	7.69934					0.770201	6.63663	0.958154	8.24867		
0.497662	4.24953	0.251297	2.12701	0.894932	7.68362					0.773393	6.61106	0.96418	8.2345		
0.498934	4.22677	0.253381	2.12786	0.900239	7.66784					0.776542	6.58552	0.970197	8.22048		
0.500205	4.20435	0.255465	2.12871	0.905508	7.652					0.779647	6.56002	0.976206	8.20661		
0.501475	4.18227	0.257549	2.12954	0.910742	7.6361					0.78271	6.53457	0.982205	8.19287		
0.502743	4.16052	0.259633	2.13036	0.915938	7.62015					0.785732	6.50917	0.988194	8.17926		
0.504011	4.13909	0.261716	2.13116	0.921098	7.60413					0.788713	6.48382	0.994172	8.16577		
0.505277	4.11799	0.2638	2.13196	0.92622	7.58805					0.791654	6.45853	1.00014	8.15238		
0.506544	4.0972	0.265884	2.13274	0.931305	7.57192					0.794556	6.4333				
0.50781	4.07672	0.267967	2.1335	0.936353	7.55572					0.797419	6.40815				
0.509076	4.05654	0.270051	2.13426	0.941363	7.53947					0.800245	6.38306				
0.510343	4.03666	0.272134	2.13501	0.946336	7.52316					0.803033	6.35805				
0.511609	4.01708	0.274218	2.13574	0.951272	7.5068					0.805785	6.33312				
0.512876	3.99778	0.276301	2.13646	0.95617	7.49038					0.808501	6.30827				
0.514143	3.97876	0.278385	2.13718	0.96103	7.4739					0.811182	6.28351				
0.515411	3.96002	0.280468	2.13788	0.965853	7.45738					0.813828	6.25884				
0.51668	3.94156	0.282551	2.13857	0.970639	7.4408					0.816441	6.23427				
0.51795	3.92336	0.284635	2.13925	0.975387	7.42417					0.819021	6.20979				
0.519221	3.90542	0.286718	2.13993	0.980098	7.4075					0.821569	6.18541				
0.520492	3.88774	0.288801	2.14059	0.984771	7.39078					0.824084	6.16113				
0.521766	3.87032	0.290884	2.14124	0.989407	7.37401					0.826569	6.13696				
0.52304	3.85314	0.292967	2.14189	0.994006	7.3572					0.829024	6.1129				
0.524316	3.83621	0.29505	2.14252	0.998568	7.34034					0.831449	6.08895				
0.525594	3.81953	0.297133	2.14315	1.00309	7.32345					0.833844	6.06511				
0.526873	3.80307	0.299216	2.14377							0.836211	6.04139				
0.528154	3.78685	0.301299	2.14438							0.838551	6.01778				
0.529437	3.77086	0.303382	2.14498							0.840863	5.99429				
0.530722	3.75509	0.305465	2.14557							0.843148	5.97093				
0.532008	3.73954	0.307548	2.14616							0.845407	5.94769				
0.533297	3.72421	0.309631	2.14673							0.847641	5.92457				
0.534588	3.70909	0.311714	2.1473							0.84985	5.90157				
0.535881	3.69418	0.313797	2.14787							0.852034	5.87871				
0.537176	3.67948	0.315879	2.14842							0.854195	5.85597				
0.538473	3.66498	0.317962	2.14897							0.856333	5.83337				
0.539773	3.65067	0.320045	2.14951							0.858447	5.81089				
0.541075	3.63656	0.322128	2.15004							0.86054	5.78855				
0.54238	3.62265	0.32421	2.15057							0.862611	5.76634				
0.543687	3.60892	0.326293	2.15109							0.86466	5.74427				
0.544996	3.59538	0.328375	2.15161							0.866689	5.72233				
0.546309	3.58202	0.330458	2.15211							0.868698	5.70052				
0.547623	3.56883	0.332541	2.15261							0.870687	5.67886				
0.548941	3.55583	0.334623	2.15311							0.872657	5.65733				
0.550261	3.543	0.336706	2.1536							0.874608	5.63593				
0.551583	3.53034	0.338788	2.15408							0.876541	5.61468				
0.552909	3.51784	0.340871	2.15456							0.878456	5.59356				
0.554237	3.50551	0.342953	2.15503							0.880353	5.57258				
0.555568	3.49334	0.345036	2.1555							0.882234	5.55174				
0.556902	3.48133	0.347118	2.15596							0.884097	5.53104				
0.558238	3.46948	0.3492	2.15641							0.885945	5.51048				
0.559578	3.45779	0.351283	2.15686							0.887777	5.49006				
0.56092	3.44624	0.353365	2.15731							0.889593	5.46978				
0.562265	3.43484	0.355448	2.15775							0.891394	5.44964				
0.563613	3.42359	0.35753	2.15818							0.893181	5.42963				
0.564964	3.41249	0.359612	2.15861							0.894954	5.40977				
0.566318	3.40152	0.361694	2.15904							0.896712	5.39004				
0.567675	3.3907	0.363777	2.15945							0.898457	5.37046				
0.569035	3.38001	0.365859	2.15987							0.900189	5.35101				
0.570398	3.36946	0.367941	2.16028							0.901908	5.3317				
0.571764	3.35904	0.370023	2.16069							0.903615	5.31252				
0.573133	3.34875	0.372106	2.16109							0.905309	5.29349				
0.574504	3.33859	0.374188	2.16148							0.906991	5.27459				
0.575879	3.32856	0.37627	2.16188							0.908662	5.25583				
0.577257	3.31865	0.378352	2.16226							0.910321	5.2372				
0.578638	3.30887	0.380434	2.16265							0.91197	5.21871				
0.580022	3.2992	0.382516	2.16303							0.913607	5.20036				
0.581409	3.28966	0.384598	2.1634							0.915235	5.18214				
0.582799	3.28023	0.38668	2.16378							0.916852	5.16405				
0.584192	3.27092	0.388762	2.16414							0.918459	5.1461				
0.585588	3.26172	0.390844	2.16451							0.920057	5.12828				
0.586987	3.25263	0.392926	2.16487							0.921645	5.1106				
0.588389	3.24366	0.395008	2.16522							0.923224	5.09304				
0.589794	3.23479	0.39709	2.16558							0.924795	5.07562				
0.591202	3.22603	0.399172	2.16593							0.926356	5.05832				
0.592613	3.21737	0.401254	2.16627							0.92791	5.04116				
0.594028	3.20882	0.403336	2.16661							0.929455	5.02412				
0.595445	3.20037	0.405418	2.16695							0.930992	5.00721				
0.596865	3.19201	0.4075	2.16729							0.932522	4.99043				
0.598289	3.18376	0.409582	2.16762							0.934044	4.97378				
0.599715	3.17561	0.411664	2.16795							0.935559	4.95725				
0.601144	3.16755	0.413746	2.16827							0.937067	4.94085				
0.602577	3.15959	0.415828	2.16859							0.938568	4.92457				
0.604012	3.15172	0.41791	2.16891							0.940062	4.90842				
0.60545	3.14394	0.419992	2.16923							0.941549	4.89238				
0.606892	3.13625	0.422073	2.16954							0.943031	4.87647				
0.608336	3.12865	0.424155	2.16985							0.944506	4.86068				
0.609783	3.12114	0.426237	2.17016							0.945975	4.84501				
0.611234	3.11371	0.428319	2.17046							0.947439	4.82947				
0.612687	3.10637	0.430401	2.17076							0.948897	4.81403				
0.614143	3.09911	0.432483	2.17106							0.95035	4.79872				
0.615602	3.09194	0.434564	2.17135							0.951797	4.78352				
0.617064	3.08485	0.436646	2.17164							0.953239	4.76844				
0.618529	3.07784	0.438728	2.17193							0.954676	4.75348				
0.619997	3.0709	0.440809	2.17222							0.956108	4.73863				
0.621468	3.06405	0.442891	2.1725							0.957536	4.72389				
0.622942	3.05727	0.444973	2.17279							0.958959	4.70927				
0.624418	3.05057	0.447055	2.17306							0.960378	4.69475				
0.625898	3.04394	0.449136	2.17334							0.961793	4.68035				
0.62738	3.03739	0.451218	2.17361							0.963203	4.66606				
0.628866	3.03091	0.4533	2.17389							0.96461	4.65188				
0.630354	3.0245	0.455381	2.17415							0.966012	4.6378				
0.631845	3.01816	0.457463	2.17442							0.967411	4.62384				
0.633338	3.01189	0.459545	2.17468							0.968807	4.60998				
0.634835	3.00569	0.461626	2.17495							0.970198	4.59622				
0.636334	2.99956	0.463708	2.17521							0.971587	4.58257				
0.637837	2.99349	0.46579	2.17546							0.972972	4.56903				
0.639342	2.98749	0.467871	2.17572							0.974354	4.55559				
0.640849	2.98156	0.469953	2.17597							0.975733	4.54225				
0.64236	2.97569	0.472034	2.17622							0.977109	4.52901				
0.643873	2.96988	0.474116	2.17647							0.978483	4.51588				
0.645389	2.96413	0.476198	2.17671							0.979853	4.50284				
0.646908	2.95845	0.478279	2.17696							0.981221	4.4899				
0.648429	2.95283	0.480361	2.1772							0.982587	4.47706				
0.649954	2.94726	0.482442	2.17744							0.98395	4.46432				
0.651481	2.94176	0.484524	2.17767							0.98531	4.45168				
0.65301	2.93631	0.486605	2.17791							0.986669	4.43913				
0.654542	2.93092	0.488687	2.17814							0.988025	4.42667				
0.656077	2.92559	0.490768	2.17838							0.989379	4.41432				
0.657615	2.92031	0.49285	2.1786							0.990731	4.40205				
0.659155	2.91509	0.494931	2.17883							0.992082	4.38988				
0.660698	2.90992	0.497013	2.17906							0.99343	4.37779				
0.662243	2.90481	0.499094	2.17928							0.994777	4.3658				
0.663791	2.89975	0.501176	2.1795							0.996122	4.3539				
0.665341	2.89474	0.503257	2.17972							0.997465	4.34209				
0.666895	2.88978	0.505339	2.17994							0.998807	4.33037				
0.66845	2.88488	0.50742	2.18016							1.00015	4.31874				
0.670008	2.88002	0.509502	2.18037												
0.671569	2.87522	0.511583	2.18059												
0.673132	2.87046	0.513665	2.1808												
0.674698	2.86575	0.515746	2.18101												
0.676266	2.86109	0.517827	2.18122												
0.677837	2.85647	0.519909	2.18142												
0.67941	2.85191	0.52199	2.18163												
0.680986	2.84739	0.524072	2.18183												
0.682564	2.84291	0.526153	2.18203												
0.684145	2.83848	0.528234	2.18223												
0.685728	2.83409	0.530316	2.18243												
0.687313	2.82974	0.532397	2.18263												
0.688901	2.82544	0.534479	2.18282												
0.690491	2.82119	0.53656	2.18302												
0.692083	2.81697	0.538641	2.18321												
0.693678	2.81279	0.540723	2.1834												
0.695275	2.80866	0.542804	2.18359												
0.696875	2.80456	0.544885	2.18378												
0.698477	2.80051	0.546967	2.18396												
0.700081	2.7965	0.549048	2.18415												
0.701687	2.79252	0.551129	2.18433												
0.703296	2.78858	0.553211	2.18451												
0.704907	2.78468	0.555292	2.1847												
0.70652	2.78082	0.557373	2.18488												
0.708136	2.77699	0.559455	2.18505												
0.709753	2.77321	0.561536	2.18523												
0.711373	2.76945	0.563617	2.18541												
0.712995	2.76574	0.565698	2.18558												
0.71462	2.76206	0.56778	2.18575												
0.716246	2.75841	0.569861	2.18593												
0.717875	2.7548	0.571942	2.1861												
0.719506	2.75122	0.574023	2.18627												
0.721139	2.74767	0.576105	2.18643												
0.722774	2.74416	0.578186	2.1866												
0.724411	2.74068	0.580267	2.18677												
0.72605	2.73724	0.582348	2.18693												
0.727692	2.73382	0.58443	2.1871												
0.729335	2.73044	0.586511	2.18726												
0.730981	2.72709	0.588592	2.18742												
0.732628	2.72377	0.590673	2.18758												
0.734278	2.72048	0.592755	2.18774												
0.73593	2.71722	0.594836	2.1879												
0.737583	2.71399	0.596917	2.18805												
0.739239	2.71079	0.598998	2.18821												
0.740897	2.70761	0.601079	2.18836												
0.742557	2.70447	0.603161	2.18852												
0.744218	2.70136	0.605242	2.18867												
0.745882	2.69827	0.607323	2.18882												
0.747548	2.69521	0.609404	2.18897												
0.749215	2.69218	0.611485	2.18912												
0.750885	2.68918	0.613566	2.18927												
0.752556	2.6862	0.615648	2.18942												
0.75423	2.68325	0.617729	2.18956												
0.755905	2.68033	0.61981	2.18971												
0.757582	2.67743	0.621891	2.18985												
0.759261	2.67455	0.623972	2.18999												
0.760942	2.67171	0.626053	2.19014												
0.762625	2.66888	0.628134	2.19028												
0.76431	2.66609	0.630216	2.19042												
0.765996	2.66331	0.632297	2.19056												
0.767684	2.66057	0.634378	2.1907												
0.769374	2.65784	0.636459	2.19084												
0.771066	2.65514	0.63854	2.19097												
0.77276	2.65246	0.640621	2.19111												
0.774455	2.64981	0.642702	2.19124												
0.776153	2.64718	0.644783	2.19138												
0.777852	2.64457	0.646865	2.19151												
0.779552	2.64198	0.648946	2.19164												
0.781255	2.63942	0.651027	2.19178												
0.782959	2.63687	0.653108	2.19191												
0.784665	2.63435	0.655189	2.19204												
0.786373	2.63185	0.65727	2.19217												
0.788082	2.62938	0.659351	2.1923												
0.789793	2.62692	0.661432	2.19242												
0.791506	2.62448	0.663513	2.19255												
0.79322	2.62207	0.665594	2.19268												
0.794937	2.61967	0.667675	2.1928												
0.796654	2.6173	0.669756	2.19293												
0.798374	2.61494	0.671837	2.19305												
0.800095	2.61261	0.673918	2.19317												
0.801817	2.61029	0.675999	2.19329												
0.803542	2.60799	0.678081	2.19342												
0.805267	2.60571	0.680162	2.19354												
0.806995	2.60346	0.682243	2.19366												
0.808724	2.60121	0.684324	2.19378												
0.810455	2.59899	0.686405	2.19389												
0.812187	2.59679	0.688486	2.19401												
0.813921	2.5946	0.690567	2.19413												
0.815656	2.59244	0.692648	2.19425												
0.817393	2.59029	0.694729	2.19436												
0.819131	2.58815	0.69681	2.19448												
0.820871	2.58604	0.698891	2.19459												
0.822612	2.58394	0.700972	2.19471												
0.824355	2.58186	0.703053	2.19482												
0.8261	2.57979	0.705134	2.19493												
0.827846	2.57775	0.707215	2.19504												
0.829593	2.57571	0.709296	2.19515												
0.831342	2.5737	0.711377	2.19526												
0.833092	2.5717	0.713458	2.19537												
0.834844	2.56972	0.715539	2.19548												
0.836597	2.56775	0.71762	2.19559												
0.838352	2.5658	0.719701	2.1957												
0.840108	2.56386	0.721782	2.19581												
0.841866	2.56194	0.723863	2.19591												
0.843625	2.56004	0.725944	2.19602												
0.845385	2.55814	0.728025	2.19612												
0.847147	2.55627	0.730105	2.19623												
0.84891	2.55441	0.732186	2.19633												
0.850674	2.55256	0.734267	2.19644												
0.85244	2.55073	0.736348	2.19654												
0.854207	2.54891	0.738429	2.19664												
0.855976	2.54711	0.74051	2.19674												
0.857746	2.54532	0.742591	2.19685												
0.859517	2.54354	0.744672	2.19695												
0.86129	2.54178	0.746753	2.19705												
0.863064	2.54003	0.748834	2.19715												
0.864839	2.53829	0.750915	2.19725												
0.866616	2.53657	0.752996	2.19734												
0.868394	2.53486	0.755077	2.19744												
0.870173	2.53317	0.757158	2.19754												
0.871953	2.53148	0.759239	2.19764												
0.873735	2.52981	0.76132	2.19773												
0.875518	2.52816	0.7634	2.19783												
0.877302	2.52651	0.765481	2.19792												
0.879088	2.52488	0.767562	2.19802												
0.880875	2.52326	0.769643	2.19811												
0.882663	2.52165	0.771724	2.19821												
0.884452	2.52005	0.773805	2.1983												
0.886242	2.51847	0.775886	2.19839												
0.888034	2.5169	0.777967	2.19848												
0.889827	2.51534	0.780048	2.19858												
0.891621	2.51379	0.782129	2.19867												
0.893417	2.51225	0.784209	2.19876												
0.895213	2.51073	0.78629	2.19885												
0.897011	2.50921	0.788371	2.19894												
0.89881	2.50771	0.790452	2.19903												
0.90061	2.50622	0.792533	2.19912												
0.902411	2.50473	0.794614	2.19921												
0.904214	2.50326	0.796695	2.19929												
0.906017	2.5018	0.798776	2.19938												
0.907822	2.50035	0.800856	2.19947												
0.909628	2.49892	0.802937	2.19956												
0.911435	2.49749	0.805018	2.19964												
0.913243	2.49607	0.807099	2.19973												
0.915052	2.49466	0.80918	2.19981												
0.916863	2.49326	0.811261	2.1999												
0.918674	2.49188	0.813342	2.19998												
0.920487	2.4905	0.815422	2.20007												
0.9223	2.48913	0.817503	2.20015												
0.924115	2.48777	0.819584	2.20023												
0.925931	2.48643	0.821665	2.20032												
0.927748	2.48509	0.823746	2.2004												
0.929566	2.48376	0.825827	2.20048												
0.931385	2.48244	0.827907	2.20056												
0.933205	2.48113	0.829988	2.20064												
0.935027	2.47983	0.832069	2.20072												
0.936849	2.47854	0.83415	2.2008												
0.938672	2.47726	0.836231	2.20088												
0.940497	2.47598	0.838312	2.20096												
0.942322	2.47472	0.840392	2.20104												
0.944148	2.47346	0.842473	2.20112												
0.945976	2.47222	0.844554	2.2012												
0.947804	2.47098	0.846635	2.20128												
0.949634	2.46975	0.848716	2.20135												
0.951464	2.46853	0.850796	2.20143												
0.953296	2.46731	0.852877	2.20151												
0.955128	2.46611	0.854958	2.20158												
0.956962	2.46492	0.857039	2.20166												
0.958796	2.46373	0.85912	2.20174												
0.960631	2.46255	0.8612	2.20181												
0.962468	2.46138	0.863281	2.20189												
0.964305	2.46021	0.865362	2.20196												
0.966144	2.45906	0.867443	2.20204												
0.967983	2.45791	0.869524	2.20211												
0.969823	2.45677	0.871604	2.20218												
0.971664	2.45564	0.873685	2.20226												
0.973506	2.45452	0.875766	2.20233												
0.975349	2.4534	0.877847	2.2024												
0.977193	2.45229	0.879927	2.20247												
0.979038	2.45119	0.882008	2.20254												
0.980884	2.4501	0.884089	2.20262												
0.982731	2.44901	0.88617	2.20269												
0.984578	2.44793	0.888251	2.20276												
0.986427	2.44686	0.890331	2.20283												
0.988276	2.44579	0.892412	2.2029												
0.990127	2.44474	0.894493	2.20297												
0.991978	2.44369	0.896574	2.20304												
0.99383	2.44264	0.898654	2.20311												
0.995683	2.4416	0.900735	2.20318												
0.997537	2.44057	0.902816	2.20324												
0.999392	2.43955	0.904897	2.20331												
1.00125	2.43854	0.906977	2.20338												
		0.909058	2.20345												
		0.911139	2.20351												
		0.91322	2.20358												
		0.9153	2.20365												
		0.917381	2.20371												
		0.919462	2.20378												
		0.921543	2.20385												
		0.923623	2.20391												
		0.925704	2.20398												
		0.927785	2.20404												
		0.929866	2.20411												
		0.931946	2.20417												
		0.934027	2.20423												
		0.936108	2.2043												
		0.938188	2.20436												
		0.940269	2.20442												
		0.94235	2.20449												
		0.944431	2.20455												
		0.946511	2.20461												
		0.948592	2.20467												
		0.950673	2.20474												
		0.952753	2.2048												
		0.954834	2.20486												
		0.956915	2.20492												
		0.958995	2.20498												
		0.961076	2.20504												
		0.963157	2.2051												
		0.965238	2.20516												
		0.967318	2.20522												
		0.969399	2.20528												
		0.97148	2.20534												
		0.97356	2.2054												
		0.975641	2.20546												
		0.977722	2.20552												
		0.979802	2.20557												
		0.981883	2.20563												
		0.983964	2.20569												
		0.986044	2.20575												
		0.988125	2.2058												
		0.990206	2.20586												
		0.992286	2.20592												
		0.994367	2.20597												
		0.996448	2.20603												
		0.998528	2.20609												
		1.00061	2.20614												
