Sym0		Asym0		Sym1		Sym2		Sym3		Asym1		Asym2		Asym3	
458  Points		493  Points		162  Points		126  Points		108  Points		315  Points		139  Points		110  Points	
Freq (MHz)	Vph (m/ms)	Freq (MHz)	Vph (m/ms)	Freq (MHz)	Vph (m/ms)	Freq (MHz)	Vph (m/ms)	Freq (MHz)	Vph (m/ms)	Freq (MHz)	Vph (m/ms)	Freq (MHz)	Vph (m/ms)	Freq (MHz)	Vph (m/ms)
0.00664824	8.21107	3.42004e-005	0.0638194	0.279523	724.848	0.512488	755.428	0.559036	993.342	0.139758	1115.72	0.419264	3133.53	0.698772	4529.96
0.014297	8.21021	0.000255623	0.174179	0.279678	212.307	0.512558	318.339	0.559151	374.145	0.140033	132.487	0.419342	393.565	0.698819	643.509
0.0219423	8.20869	0.000678938	0.282975	0.280002	124.499	0.512684	201.701	0.559371	230.557	0.140738	70.7703	0.41954	210.065	0.698937	346.412
0.0295826	8.20655	0.00129668	0.389279	0.280494	88.1858	0.512868	147.652	0.559695	166.682	0.141864	48.5779	0.419859	143.351	0.699126	237.045
0.037216	8.20377	0.00209842	0.492277	0.281153	68.367	0.51311	116.479	0.560123	130.578	0.143401	37.2272	0.420297	108.869	0.699386	180.206
0.0448407	8.20035	0.00307135	0.591284	0.281978	55.9025	0.51341	96.2004	0.560653	107.379	0.145331	30.3802	0.420856	87.8196	0.699716	145.389
0.0524547	8.19626	0.00420146	0.685834	0.282966	47.3521	0.513771	81.9597	0.561286	91.2223	0.147636	25.8312	0.421533	73.6435	0.700117	121.878
0.0600563	8.19151	0.00547357	0.775539	0.284116	41.1316	0.514192	71.4129	0.562021	79.3294	0.150296	22.6107	0.422329	63.454	0.700588	104.939
0.0676434	8.18607	0.00687258	0.860206	0.285425	36.41	0.514676	63.2905	0.562857	70.2136	0.153289	20.2259	0.423242	55.7825	0.701129	92.159
0.0752139	8.17994	0.00838359	0.939743	0.286889	32.7093	0.515224	56.8451	0.563792	63.0074	0.156591	18.3997	0.424272	49.8027	0.70174	82.1757
0.0827659	8.1731	0.0099925	1.01417	0.288507	29.7351	0.515838	51.6078	0.564827	57.1702	0.160181	16.9644	0.425417	45.0141	0.702421	74.1638
0.090297	8.16553	0.0116862	1.08361	0.290274	27.296	0.516519	47.2698	0.565959	52.3482	0.164038	15.8125	0.426677	41.096	0.703171	67.5938
0.097805	8.1572	0.0134528	1.14821	0.292186	25.2626	0.51727	43.6193	0.567188	48.2996	0.16814	14.8722	0.42805	37.8332	0.703991	62.1099
0.105287	8.14811	0.0152814	1.20821	0.294241	23.5437	0.518092	40.5062	0.568512	44.8537	0.172467	14.0935	0.429535	35.076	0.70488	57.4648
0.112742	8.13822	0.0171627	1.26386	0.296434	22.0736	0.518988	37.8212	0.569931	41.8866	0.177001	13.4408	0.431131	32.7171	0.705837	53.4806
0.120166	8.1275	0.0190883	1.31541	0.298761	20.8036	0.51996	35.4829	0.571443	39.3063	0.181725	12.8877	0.432835	30.6775	0.706862	50.0268
0.127556	8.11594	0.0210511	1.36315	0.301219	19.6969	0.52101	33.4291	0.573046	37.0427	0.186623	12.4147	0.434647	28.8977	0.707956	47.0047
0.134911	8.10348	0.0230447	1.40734	0.303803	18.725	0.52214	31.6118	0.574741	35.0417	0.191679	12.0069	0.436565	27.3321	0.709116	44.339
0.142226	8.09011	0.0250639	1.44825	0.30651	17.8659	0.523353	29.9934	0.576524	33.2611	0.19688	11.6526	0.438588	25.9453	0.710344	41.9707
0.149498	8.07578	0.0268408	1.48142	0.309334	17.1018	0.524651	28.5437	0.578396	31.6669	0.202214	11.3428	0.440712	24.7091	0.711639	39.8533
0.156724	8.06046	0.0283662	1.508	0.312274	16.4186	0.526038	27.2385	0.580354	30.232	0.206961	11.1034	0.442937	23.601	0.713	37.9494
0.1639	8.04409	0.0296339	1.52888	0.315325	15.8048	0.527514	26.0578	0.582399	28.9342	0.211074	10.9187	0.445261	22.6028	0.714426	36.2288
0.171023	8.02664	0.0306399	1.54472	0.318483	15.2509	0.529084	24.9854	0.584528	27.7552	0.21452	10.7778	0.447682	21.6994	0.715918	34.6666
0.178088	8.00806	0.0313814	1.556	0.321746	14.7491	0.530749	24.0078	0.58674	26.68	0.21727	10.6733	0.450198	20.8785	0.717474	33.2422
0.185091	7.98829	0.0318568	1.56306	0.32511	14.2929	0.532512	23.1134	0.589034	25.6957	0.219307	10.6001	0.452807	20.1297	0.719095	31.9386
0.192028	7.96728	0.032541	1.57301	0.328573	13.8767	0.534374	22.2927	0.591409	24.7917	0.220616	10.5548	0.455506	19.4443	0.720779	30.7413
0.198893	7.94498	0.0332859	1.58354	0.332132	13.496	0.53634	21.5376	0.593865	23.9589	0.222507	10.4916	0.458295	18.8151	0.722527	29.6381
0.205681	7.92133	0.0343008	1.59743	0.335787	13.1468	0.53841	20.841	0.596399	23.1895	0.224572	10.4254	0.461171	18.2356	0.724337	28.6186
0.212387	7.89627	0.035587	1.61431	0.339534	12.8256	0.540588	20.1969	0.599012	22.4768	0.227399	10.3394	0.464133	17.7006	0.726209	27.6738
0.219006	7.86975	0.037146	1.63373	0.343373	12.5297	0.542875	19.6001	0.601701	21.815	0.231	10.2367	0.467177	17.2054	0.728142	26.7961
0.225531	7.8417	0.0389788	1.65524	0.347303	12.2564	0.545273	19.046	0.604467	21.1992	0.235392	10.1209	0.470302	16.7459	0.730137	25.9788
0.231957	7.81206	0.0410863	1.67833	0.351323	12.0036	0.547785	18.5307	0.607307	20.6249	0.240594	9.99565	0.473507	16.3186	0.732191	25.216
0.238278	7.7808	0.0431972	1.69987	0.355434	11.7694	0.550411	18.0506	0.610222	20.0883	0.246622	9.86429	0.476788	15.9205	0.734305	24.5026
0.244488	7.74784	0.0453108	1.71998	0.359636	11.5521	0.553153	17.6027	0.613211	19.5859	0.252709	9.7446	0.480145	15.5489	0.736477	23.8341
0.25058	7.71316	0.047426	1.73877	0.363373	11.3755	0.556013	17.1842	0.616272	19.1149	0.258848	9.63517	0.483576	15.2013	0.738708	23.2065
0.256548	7.67672	0.0495425	1.75637	0.366613	11.2335	0.558992	16.7927	0.619405	18.6725	0.265034	9.53475	0.487078	14.8757	0.740997	22.6165
0.262387	7.63849	0.0516596	1.77287	0.369331	11.1218	0.56209	16.426	0.622609	18.2563	0.271262	9.44232	0.490649	14.5702	0.743342	22.0607
0.268092	7.59845	0.053777	1.78836	0.371505	11.0368	0.565308	16.0822	0.625885	17.8643	0.277527	9.35695	0.494288	14.2831	0.745744	21.5365
0.273656	7.55661	0.0558944	1.80291	0.373118	10.9762	0.568645	15.7595	0.62923	17.4946	0.283826	9.27787	0.497994	14.0129	0.748201	21.0413
0.279075	7.51297	0.0580113	1.8166	0.374156	10.9383	0.572103	15.4562	0.632645	17.1454	0.290153	9.20439	0.501763	13.7583	0.750713	20.5729
0.284346	7.46756	0.0601278	1.8295	0.375658	10.8847	0.575681	15.171	0.63613	16.8152	0.296507	9.13591	0.505595	13.518	0.753279	20.1293
0.289465	7.42043	0.0622436	1.84167	0.377301	10.828	0.579377	14.9025	0.639683	16.5027	0.302881	9.07189	0.509488	13.291	0.755899	19.7086
0.294429	7.37163	0.0643586	1.85316	0.379556	10.753	0.583192	14.6495	0.643306	16.2066	0.309274	9.01189	0.513441	13.0763	0.758571	19.3092
0.299238	7.32125	0.0664728	1.86403	0.38244	10.6619	0.587122	14.411	0.646997	15.9258	0.315683	8.95549	0.517451	12.873	0.761296	18.9296
0.30389	7.26936	0.068586	1.87432	0.385976	10.5567	0.591168	14.1859	0.650757	15.6592	0.322103	8.90233	0.521518	12.6802	0.764072	18.5685
0.308386	7.21607	0.0706982	1.88407	0.390192	10.4402	0.595327	13.9733	0.654585	15.406	0.328532	8.85207	0.525639	12.4973	0.766899	18.2246
0.312726	7.1615	0.0728095	1.89333	0.395121	10.315	0.599596	13.7723	0.658482	15.1652	0.334967	8.80444	0.529814	12.3236	0.769776	17.8967
0.316913	7.10577	0.0749197	1.90212	0.400147	10.1981	0.603972	13.5822	0.662449	14.936	0.341406	8.75918	0.534042	12.1585	0.772702	17.5838
0.320949	7.04901	0.0770289	1.91047	0.405269	10.0891	0.608454	13.4021	0.666484	14.7178	0.347846	8.71605	0.53832	12.0013	0.775677	17.2851
0.324838	6.99136	0.0791371	1.91843	0.410487	9.98735	0.613036	13.2315	0.67059	14.51	0.354284	8.67485	0.542648	11.8516	0.7787	16.9995
0.328583	6.93295	0.0812444	1.92602	0.415799	9.89234	0.617717	13.0697	0.674767	14.3118	0.360718	8.63538	0.54646	11.7269	0.781771	16.7263
0.33219	6.87392	0.0833507	1.93325	0.421203	9.8036	0.622491	12.9161	0.679014	14.1228	0.367145	8.59748	0.549738	11.6246	0.784888	16.4648
0.335662	6.8144	0.0854561	1.94015	0.426695	9.72065	0.627355	12.7702	0.683335	13.9425	0.373563	8.561	0.552468	11.5426	0.788051	16.2142
0.339006	6.75452	0.0875606	1.94675	0.432274	9.64306	0.632304	12.6314	0.687729	13.7704	0.379969	8.52578	0.554639	11.4795	0.79126	15.974
0.342226	6.69441	0.0896641	1.95307	0.437935	9.57043	0.637333	12.4992	0.692198	13.606	0.386362	8.49171	0.556243	11.4339	0.794513	15.7436
0.345329	6.63419	0.0917668	1.95911	0.443674	9.50238	0.642437	12.3732	0.696743	13.4491	0.39274	8.45866	0.557272	11.4051	0.79781	15.5224
0.348318	6.57395	0.0938688	1.9649	0.449487	9.43853	0.647612	12.253	0.701366	13.2991	0.399099	8.42652	0.558756	11.3643	0.80115	15.3098
0.351201	6.51382	0.0959699	1.97045	0.455369	9.37856	0.652851	12.1382	0.706068	13.1559	0.405437	8.39521	0.560374	11.3206	0.804534	15.1055
0.353982	6.45387	0.0980703	1.97578	0.461315	9.32215	0.658149	12.0283	0.710853	13.019	0.411754	8.36462	0.562584	11.2623	0.807959	14.909
0.356666	6.3942	0.10017	1.9809	0.467321	9.269	0.66281	11.9364	0.71572	12.8882	0.418045	8.33468	0.565394	11.1903	0.811426	14.72
0.359259	6.33487	0.102269	1.98582	0.473381	9.21884	0.666813	11.8606	0.720674	12.7633	0.42431	8.30531	0.568814	11.1059	0.814934	14.5379
0.361766	6.27597	0.104367	1.99055	0.479491	9.17141	0.670141	11.7997	0.725715	12.644	0.430545	8.27643	0.572857	11.0103	0.818483	14.3625
0.364192	6.21756	0.106465	1.99511	0.485645	9.12649	0.672783	11.7526	0.730846	12.53	0.43675	8.24798	0.577537	10.905	0.82207	14.1934
0.366541	6.15968	0.108562	1.9995	0.49184	9.08385	0.674732	11.7185	0.736069	12.4211	0.442921	8.21989	0.582259	10.8041	0.825698	14.0303
0.368817	6.10239	0.110659	2.00373	0.498071	9.04331	0.675982	11.6969	0.741386	12.3172	0.449057	8.19212	0.587022	10.7073	0.829363	13.873
0.371025	6.04572	0.112754	2.0078	0.504332	9.00468	0.677781	11.6663	0.7468	12.218	0.455156	8.1646	0.591827	10.6146	0.833067	13.7211
0.373169	5.98972	0.11485	2.01174	0.510622	8.96779	0.679741	11.6334	0.751597	12.1353	0.461215	8.1373	0.596673	10.5256	0.836808	13.5744
0.375252	5.93441	0.116945	2.01554	0.516934	8.93249	0.682413	11.5894	0.755746	12.0674	0.467233	8.11015	0.601558	10.4402	0.840586	13.4327
0.377279	5.87983	0.119039	2.01922	0.523266	8.89865	0.685801	11.5348	0.759218	12.0131	0.473207	8.08313	0.606484	10.3582	0.8444	13.2957
0.379252	5.82598	0.121133	2.02277	0.529615	8.86614	0.68991	11.4704	0.761991	11.9712	0.479135	8.05618	0.611449	10.2794	0.848251	13.1632
0.381175	5.7729	0.123227	2.0262	0.535977	8.83484	0.694745	11.3969	0.764045	11.9411	0.485017	8.02929	0.616454	10.2037	0.852136	13.035
0.38305	5.72058	0.12532	2.02953	0.542348	8.80464	0.700308	11.3152	0.765366	11.922	0.490848	8.0024	0.621497	10.131	0.856057	12.911
0.384882	5.66905	0.127412	2.03275	0.548727	8.77546	0.705882	11.2361	0.767275	11.8951	0.496629	7.9755	0.626578	10.061	0.860011	12.7909
0.386672	5.61832	0.129505	2.03587	0.55511	8.74721	0.711463	11.1595	0.769362	11.8662	0.502357	7.94855	0.631698	9.99371	0.864	12.6746
0.388422	5.56837	0.131597	2.03889	0.561495	8.7198	0.717045	11.085	0.772221	11.8277	0.50803	7.92154	0.636856	9.92896	0.868022	12.5619
0.390136	5.51923	0.133688	2.04182	0.567879	8.69316	0.722627	11.0127	0.775871	11.7804	0.513646	7.89442	0.642051	9.86664	0.871554	12.4665
0.391816	5.47088	0.135779	2.04466	0.57426	8.66723	0.728205	10.9423	0.780336	11.725	0.519205	7.8672	0.647284	9.80664	0.874584	12.3872
0.393464	5.42333	0.13787	2.04743	0.580637	8.64195	0.733776	10.8738	0.785646	11.6625	0.524704	7.83985	0.652553	9.74886	0.877103	12.323
0.395081	5.37658	0.139961	2.05011	0.587006	8.61726	0.739338	10.807	0.791833	11.594	0.530142	7.81235	0.657859	9.6932	0.879103	12.2731
0.39667	5.33062	0.142051	2.05271	0.593367	8.5931	0.74489	10.7419	0.798118	11.5287	0.535518	7.78469	0.6632	9.63958	0.880579	12.2368
0.398233	5.28544	0.144141	2.05524	0.599717	8.56943	0.750431	10.6783	0.804501	11.4666	0.54083	7.75685	0.668577	9.58789	0.881525	12.2138
0.399574	5.2467	0.146231	2.0577	0.606054	8.54622	0.755961	10.6163	0.81098	11.4075	0.546078	7.72884	0.67399	9.53807	0.882889	12.1811
0.400703	5.21415	0.148321	2.0601	0.612378	8.52341	0.761479	10.5557	0.817551	11.3511	0.55126	7.70065	0.679436	9.49002	0.884375	12.1458
0.401628	5.18754	0.15041	2.06243	0.618686	8.50097	0.766986	10.4964	0.824212	11.2975	0.556376	7.67226	0.684916	9.44367	0.886402	12.0985
0.402353	5.16671	0.152499	2.06469	0.624978	8.47887	0.772482	10.4386	0.830961	11.2463	0.561425	7.64367	0.69043	9.39895	0.888976	12.0395
0.402884	5.15151	0.154588	2.0669	0.631251	8.45707	0.777969	10.382	0.837793	11.1976	0.566406	7.61489	0.695975	9.35578	0.892105	11.9697
0.403222	5.14183	0.156676	2.06905	0.637504	8.43556	0.783446	10.3267	0.844706	11.1512	0.571319	7.58592	0.701552	9.31409	0.895796	11.8897
0.403706	5.12798	0.158764	2.07114	0.643736	8.41429	0.788916	10.2726	0.851697	11.1068	0.576162	7.55675	0.707159	9.27382	0.90006	11.8004
0.404229	5.11303	0.160852	2.07319	0.649946	8.39324	0.794381	10.2198	0.858762	11.0645	0.580937	7.52739	0.712796	9.23491	0.904353	11.7136
0.404938	5.09283	0.16294	2.07518	0.656132	8.3724	0.79984	10.1681	0.865897	11.0241	0.585642	7.49784	0.718462	9.19729	0.908676	11.6292
0.405827	5.06755	0.165028	2.07712	0.662294	8.35174	0.805295	10.1177	0.8731	10.9855	0.590278	7.46811	0.724155	9.16091	0.913028	11.5473
0.406895	5.03734	0.167116	2.07901	0.66843	8.33123	0.810749	10.0683	0.880367	10.9486	0.594845	7.43821	0.729874	9.1257	0.917408	11.4675
0.408135	5.00241	0.169203	2.08086	0.674539	8.31086	0.816201	10.0201	0.887695	10.9133	0.599343	7.40815	0.735618	9.09161	0.921816	11.39
0.409543	4.96299	0.17129	2.08267	0.680621	8.29062	0.821654	9.97298	0.895081	10.8795	0.603772	7.37792	0.741386	9.05859	0.926252	11.3145
0.410936	4.92428	0.173377	2.08443	0.686673	8.27048	0.827109	9.92693	0.902522	10.8471	0.608132	7.34755	0.747177	9.02659	0.930715	11.2411
0.412316	4.88627	0.175464	2.08615	0.692695	8.25043	0.832567	9.88193	0.910014	10.816	0.612424	7.31704	0.752989	8.99555	0.935205	11.1697
0.413684	4.84893	0.177551	2.08783	0.698686	8.23046	0.838029	9.83797	0.917556	10.7862	0.616649	7.28641	0.758821	8.96543	0.939722	11.1001
0.415039	4.81226	0.179637	2.08948	0.704646	8.21054	0.843496	9.79501	0.925145	10.7576	0.620806	7.25565	0.764672	8.93619	0.944265	11.0323
0.416383	4.77626	0.181724	2.09108	0.710572	8.19068	0.848969	9.75305	0.932777	10.7301	0.624897	7.22479	0.77054	8.90778	0.948834	10.9663
0.417718	4.74089	0.18381	2.09265	0.716465	8.17085	0.854449	9.71205	0.94045	10.7036	0.628922	7.19384	0.776423	8.88015	0.953429	10.902
0.419043	4.70617	0.185896	2.09419	0.722323	8.15105	0.859937	9.672	0.948163	10.6782	0.632883	7.16281	0.782322	8.85326	0.958049	10.8394
0.420359	4.67206	0.187982	2.09569	0.728146	8.13127	0.865433	9.63288	0.955912	10.6537	0.636779	7.1317	0.788233	8.82709	0.962694	10.7783
0.421667	4.63857	0.190068	2.09717	0.733932	8.11149	0.870939	9.59466	0.963695	10.63	0.640612	7.10054	0.794155	8.80158	0.967363	10.7188
0.422968	4.60568	0.192154	2.09861	0.739682	8.09171	0.876454	9.55732	0.971511	10.6072	0.644382	7.06933	0.800088	8.77671	0.972057	10.6608
0.424262	4.57337	0.194239	2.10001	0.745393	8.07193	0.88198	9.52085	0.979356	10.5852	0.648092	7.03808	0.80603	8.75243	0.976776	10.6042
0.42555	4.54164	0.196325	2.10139	0.751067	8.05212	0.887516	9.48521	0.987229	10.5639	0.65174	7.00681	0.811978	8.72872	0.981517	10.5489
0.426833	4.51048	0.19841	2.10275	0.756701	8.03229	0.893064	9.4504	0.995127	10.5433	0.655329	6.97552	0.817933	8.70554	0.986283	10.4951
0.42811	4.47987	0.200495	2.10407	0.762295	8.01243	0.898623	9.41639	1.00305	10.5234	0.65886	6.94424	0.823892	8.68286	0.991071	10.4425
0.429383	4.4498	0.20258	2.10537	0.767848	7.99253	0.904194	9.38316			0.662333	6.91296	0.829855	8.66066	0.995883	10.3912
0.430651	4.42027	0.204666	2.10664	0.773361	7.9726	0.909777	9.35069			0.66575	6.8817	0.835819	8.63891	1.00072	10.3411
0.431916	4.39126	0.206751	2.10788	0.778832	7.95261	0.915372	9.31895			0.669111	6.85047	0.841784	8.61757		
0.433177	4.36276	0.208835	2.10911	0.784261	7.93258	0.920979	9.28794			0.672418	6.81928	0.847748	8.59663		
0.434436	4.33476	0.21092	2.1103	0.789648	7.9125	0.926598	9.25763			0.675671	6.78813	0.85371	8.57607		
0.435692	4.30725	0.213005	2.11148	0.794991	7.89236	0.93223	9.22799			0.678872	6.75704	0.859669	8.55585		
0.436945	4.28022	0.21509	2.11263	0.800291	7.87217	0.937874	9.19902			0.682022	6.72602	0.865623	8.53595		
0.438197	4.25366	0.217174	2.11376	0.805548	7.85191	0.943529	9.17069			0.685122	6.69508	0.871571	8.51637		
0.439448	4.22756	0.219259	2.11487	0.81076	7.83159	0.949197	9.14298			0.688172	6.66421	0.877513	8.49706		
0.440697	4.20191	0.221343	2.11596	0.815928	7.81122	0.954876	9.11587			0.691175	6.63344	0.883446	8.47803		
0.441945	4.17671	0.223427	2.11703	0.821052	7.79078	0.960566	9.08935			0.69413	6.60276	0.88937	8.45925		
0.443192	4.15194	0.225511	2.11808	0.82613	7.77027	0.966268	9.06339			0.69704	6.57219	0.895284	8.4407		
0.444439	4.12759	0.227596	2.11911	0.831164	7.74971	0.97198	9.03799			0.699904	6.54173	0.901186	8.42236		
0.445685	4.10366	0.22968	2.12013	0.836153	7.72908	0.977702	9.01311			0.702725	6.51139	0.907076	8.40423		
0.446932	4.08014	0.231764	2.12112	0.841096	7.70839	0.983434	8.98875			0.705502	6.48117	0.912952	8.38628		
0.448179	4.05701	0.233847	2.1221	0.845995	7.68764	0.989176	8.96489			0.708238	6.45109	0.918814	8.3685		
0.449426	4.03428	0.235931	2.12306	0.850848	7.66683	0.994926	8.9415			0.710932	6.42114	0.92466	8.35089		
0.450674	4.01192	0.238015	2.124	0.855655	7.64596	1.00069	8.91858			0.713586	6.39133	0.93049	8.33342		
0.451922	3.98995	0.240099	2.12493	0.860418	7.62503					0.716201	6.36166	0.936303	8.31609		
0.453172	3.96834	0.242183	2.12584	0.865135	7.60405					0.718778	6.33215	0.942098	8.29888		
0.454423	3.94709	0.244266	2.12674	0.869808	7.58302					0.721318	6.30279	0.947873	8.28178		
0.455675	3.92619	0.24635	2.12762	0.874435	7.56194					0.723822	6.27359	0.953629	8.26479		
0.456928	3.90563	0.248433	2.12849	0.879018	7.54081					0.726289	6.24456	0.959363	8.24789		
0.458183	3.88542	0.250517	2.12934	0.883555	7.51964					0.728723	6.21569	0.965077	8.23108		
0.45944	3.86553	0.2526	2.13018	0.888049	7.49842					0.731122	6.18698	0.970768	8.21435		
0.460698	3.84597	0.254683	2.131	0.892498	7.47717					0.733489	6.15846	0.976436	8.19768		
0.461959	3.82673	0.256767	2.13182	0.896903	7.45588					0.735824	6.13011	0.98208	8.18108		
0.463221	3.8078	0.25885	2.13262	0.901264	7.43455					0.738127	6.10193	0.987701	8.16453		
0.464486	3.78918	0.260933	2.1334	0.905582	7.41319					0.7404	6.07394	0.993296	8.14802		
0.465753	3.77085	0.263016	2.13418	0.909857	7.39181					0.742643	6.04613	0.998865	8.13156		
0.467022	3.75282	0.265099	2.13494	0.914088	7.3704					0.744858	6.01851	1.00441	8.11514		
0.468293	3.73507	0.267182	2.13569	0.918277	7.34897					0.747044	5.99107				
0.469568	3.71761	0.269265	2.13643	0.922424	7.32751					0.749203	5.96382				
0.470844	3.70042	0.271348	2.13716	0.926528	7.30605					0.751335	5.93677				
0.472124	3.68351	0.273431	2.13788	0.930591	7.28457					0.753441	5.9099				
0.473406	3.66686	0.275514	2.13858	0.934613	7.26308					0.755522	5.88323				
0.474691	3.65046	0.277597	2.13928	0.938594	7.24158					0.757578	5.85675				
0.475979	3.63433	0.27968	2.13996	0.942534	7.22008					0.759611	5.83047				
0.47727	3.61844	0.281762	2.14064	0.946433	7.19857					0.76162	5.80438				
0.478563	3.6028	0.283845	2.1413	0.950293	7.17707					0.763607	5.77849				
0.47986	3.5874	0.285928	2.14196	0.954114	7.15557					0.765571	5.75279				
0.48116	3.57224	0.28801	2.14261	0.957895	7.13408					0.767514	5.7273				
0.482463	3.55731	0.290093	2.14325	0.961637	7.1126					0.769436	5.702				
0.483769	3.5426	0.292176	2.14388	0.965342	7.09113					0.771338	5.6769				
0.485078	3.52812	0.294258	2.1445	0.969008	7.06968					0.773221	5.65199				
0.486391	3.51385	0.296341	2.14511	0.972636	7.04824					0.775084	5.62729				
0.487707	3.4998	0.298423	2.14571	0.976228	7.02683					0.776928	5.60278				
0.489026	3.48596	0.300506	2.14631	0.979783	7.00544					0.778755	5.57847				
0.490348	3.47233	0.302588	2.14689	0.983301	6.98407					0.780564	5.55436				
0.491674	3.45889	0.30467	2.14747	0.986784	6.96273					0.782355	5.53044				
0.493003	3.44566	0.306753	2.14804	0.990231	6.94142					0.784131	5.50673				
0.494336	3.43262	0.308835	2.14861	0.993643	6.92014					0.78589	5.4832				
0.495672	3.41977	0.310917	2.14916	0.99702	6.89889					0.787633	5.45987				
0.497011	3.40711	0.312999	2.14971	1.00036	6.87768					0.789362	5.43674				
0.498354	3.39464	0.315082	2.15025							0.791075	5.4138				
0.499701	3.38234	0.317164	2.15079							0.792774	5.39106				
0.50105	3.37023	0.319246	2.15131							0.79446	5.3685				
0.502404	3.35828	0.321328	2.15183							0.796131	5.34614				
0.503761	3.34651	0.32341	2.15235							0.79779	5.32397				
0.505121	3.33491	0.325492	2.15286							0.799436	5.30199				
0.506485	3.32347	0.327574	2.15336							0.80107	5.2802				
0.507852	3.31219	0.329656	2.15385							0.802691	5.25859				
0.509223	3.30107	0.331738	2.15434							0.804301	5.23718				
0.510598	3.29011	0.33382	2.15482							0.8059	5.21594				
0.511976	3.27931	0.335902	2.1553							0.807488	5.19489				
0.513357	3.26865	0.337984	2.15577							0.809065	5.17403				
0.514742	3.25814	0.340066	2.15624							0.810632	5.15334				
0.516131	3.24778	0.342148	2.1567							0.812189	5.13284				
0.517523	3.23756	0.34423	2.15715							0.813737	5.11252				
0.518919	3.22748	0.346312	2.1576							0.815275	5.09237				
0.520318	3.21753	0.348394	2.15804							0.816804	5.0724				
0.521721	3.20773	0.350475	2.15848							0.818324	5.05261				
0.523127	3.19805	0.352557	2.15891							0.819836	5.03299				
0.524537	3.18851	0.354639	2.15934							0.821339	5.01354				
0.525951	3.1791	0.356721	2.15977							0.822835	4.99427				
0.527368	3.16981	0.358802	2.16018							0.824323	4.97517				
0.528788	3.16065	0.360884	2.1606							0.825803	4.95623				
0.530212	3.15161	0.362966	2.16101							0.827276	4.93746				
0.531639	3.14269	0.365048	2.16141							0.828742	4.91886				
0.53307	3.13389	0.367129	2.16181							0.830201	4.90042				
0.534504	3.1252	0.369211	2.16221							0.831654	4.88215				
0.535942	3.11663	0.371292	2.1626							0.833101	4.86404				
0.537383	3.10817	0.373374	2.16298							0.834541	4.84609				
0.538828	3.09982	0.375456	2.16336							0.835976	4.82829				
0.540276	3.09158	0.377537	2.16374							0.837404	4.81066				
0.541728	3.08345	0.379619	2.16412							0.838828	4.79318				
0.543183	3.07542	0.3817	2.16449							0.840246	4.77586				
0.544641	3.0675	0.383782	2.16485							0.841658	4.75869				
0.546103	3.05967	0.385863	2.16521							0.843066	4.74167				
0.547568	3.05195	0.387945	2.16557							0.844469	4.7248				
0.549036	3.04433	0.390026	2.16593							0.845868	4.70808				
0.550508	3.0368	0.392108	2.16628							0.847262	4.69151				
0.551983	3.02937	0.394189	2.16662							0.848651	4.67509				
0.553461	3.02203	0.39627	2.16697							0.850037	4.65881				
0.554943	3.01478	0.398352	2.16731							0.851419	4.64267				
0.556428	3.00763	0.400433	2.16764							0.852796	4.62668				
0.557916	3.00056	0.402515	2.16798							0.854171	4.61083				
0.559408	2.99358	0.404596	2.16831							0.855541	4.59512				
0.560902	2.98669	0.406677	2.16863							0.856908	4.57955				
0.5624	2.97988	0.408759	2.16896							0.858272	4.56411				
0.563902	2.97316	0.41084	2.16927							0.859633	4.54881				
0.565406	2.96652	0.412921	2.16959							0.860991	4.53364				
0.566913	2.95996	0.415003	2.1699							0.862346	4.51861				
0.568424	2.95348	0.417084	2.17021							0.863698	4.50371				
0.569938	2.94708	0.419165	2.17052							0.865048	4.48894				
0.571455	2.94075	0.421246	2.17083							0.866395	4.47429				
0.572975	2.9345	0.423328	2.17113							0.867739	4.45978				
0.574498	2.92833	0.425409	2.17142							0.869082	4.44539				
0.576024	2.92223	0.42749	2.17172							0.870422	4.43113				
0.577554	2.91621	0.429571	2.17201							0.87176	4.41699				
0.579086	2.91026	0.431652	2.1723							0.873096	4.40298				
0.580621	2.90437	0.433734	2.17259							0.87443	4.38908				
0.58216	2.89856	0.435815	2.17287							0.875763	4.37531				
0.583701	2.89281	0.437896	2.17315							0.877094	4.36166				
0.585246	2.88714	0.439977	2.17343							0.878423	4.34812				
0.586793	2.88153	0.442058	2.17371							0.87975	4.3347				
0.588343	2.87598	0.444139	2.17398							0.881077	4.3214				
0.589896	2.8705	0.446221	2.17425							0.882401	4.30821				
0.591453	2.86508	0.448302	2.17452							0.883725	4.29513				
0.593012	2.85973	0.450383	2.17479							0.885047	4.28217				
0.594573	2.85443	0.452464	2.17505							0.886369	4.26932				
0.596138	2.8492	0.454545	2.17531							0.887689	4.25657				
0.597706	2.84403	0.456626	2.17557							0.889008	4.24394				
0.599276	2.83892	0.458707	2.17583							0.890327	4.23141				
0.600849	2.83386	0.460788	2.17608							0.891644	4.21899				
0.602426	2.82887	0.462869	2.17633							0.892961	4.20668				
0.604004	2.82392	0.46495	2.17658							0.894277	4.19447				
0.605586	2.81904	0.467031	2.17683							0.895593	4.18236				
0.60717	2.81421	0.469112	2.17708							0.896908	4.17036				
0.608757	2.80943	0.471193	2.17732							0.898222	4.15846				
0.610347	2.80471	0.473274	2.17756							0.899537	4.14665				
0.611939	2.80004	0.475355	2.1778							0.90085	4.13495				
0.613535	2.79542	0.477436	2.17804							0.902164	4.12335				
0.615132	2.79085	0.479517	2.17827							0.903477	4.11184				
0.616733	2.78634	0.481598	2.1785							0.90479	4.10043				
0.618336	2.78187	0.483679	2.17874							0.906103	4.08911				
0.619942	2.77745	0.48576	2.17896							0.907415	4.07789				
0.62155	2.77308	0.487841	2.17919							0.908728	4.06676				
0.623161	2.76876	0.489922	2.17942							0.910041	4.05573				
0.624774	2.76448	0.492003	2.17964							0.911354	4.04478				
0.62639	2.76025	0.494083	2.17986							0.912666	4.03393				
0.628009	2.75607	0.496164	2.18008							0.913979	4.02316				
0.62963	2.75193	0.498245	2.1803							0.915293	4.01249				
0.631253	2.74784	0.500326	2.18051							0.916606	4.0019				
0.632879	2.74379	0.502407	2.18073							0.91792	3.9914				
0.634507	2.73978	0.504488	2.18094							0.919234	3.98098				
0.636138	2.73582	0.506569	2.18115							0.920548	3.97065				
0.637772	2.7319	0.50865	2.18136							0.921863	3.96041				
0.639407	2.72802	0.51073	2.18157							0.923178	3.95025				
0.641046	2.72418	0.512811	2.18177							0.924493	3.94017				
0.642686	2.72038	0.514892	2.18197							0.925809	3.93017				
0.644329	2.71662	0.516973	2.18218							0.927126	3.92026				
0.645974	2.7129	0.519054	2.18238							0.928443	3.91042				
0.647622	2.70922	0.521134	2.18258							0.929761	3.90066				
0.649272	2.70557	0.523215	2.18277							0.931079	3.89099				
0.650924	2.70197	0.525296	2.18297							0.932399	3.88139				
0.652579	2.6984	0.527377	2.18316							0.933718	3.87186				
0.654236	2.69487	0.529458	2.18336							0.935039	3.86242				
0.655895	2.69137	0.531538	2.18355							0.93636	3.85305				
0.657556	2.68791	0.533619	2.18374							0.937682	3.84375				
0.65922	2.68449	0.5357	2.18393							0.939005	3.83453				
0.660885	2.6811	0.537781	2.18411							0.940329	3.82538				
0.662553	2.67775	0.539861	2.1843							0.941653	3.8163				
0.664224	2.67443	0.541942	2.18448							0.942979	3.8073				
0.665896	2.67114	0.544023	2.18466							0.944305	3.79836				
0.667571	2.66789	0.546103	2.18485							0.945632	3.7895				
0.669247	2.66467	0.548184	2.18502							0.94696	3.78071				
0.670926	2.66148	0.550265	2.1852							0.94829	3.77198				
0.672607	2.65832	0.552346	2.18538							0.94962	3.76333				
0.67429	2.6552	0.554426	2.18556							0.950951	3.75474				
0.675975	2.6521	0.556507	2.18573							0.952283	3.74622				
0.677663	2.64904	0.558588	2.1859							0.953617	3.73777				
0.679352	2.646	0.560668	2.18608							0.954951	3.72938				
0.681043	2.643	0.562749	2.18625							0.956287	3.72105				
0.682737	2.64003	0.56483	2.18642							0.957623	3.71279				
0.684432	2.63708	0.56691	2.18658							0.958961	3.7046				
0.686129	2.63417	0.568991	2.18675							0.9603	3.69647				
0.687829	2.63128	0.571072	2.18692							0.96164	3.6884				
0.68953	2.62842	0.573152	2.18708							0.962981	3.68039				
0.691234	2.62559	0.575233	2.18724							0.964324	3.67244				
0.692939	2.62278	0.577313	2.18741							0.965668	3.66456				
0.694646	2.62001	0.579394	2.18757							0.967013	3.65673				
0.696355	2.61726	0.581475	2.18773							0.968359	3.64897				
0.698067	2.61453	0.583555	2.18789							0.969706	3.64126				
0.69978	2.61183	0.585636	2.18804							0.971055	3.63361				
0.701495	2.60916	0.587716	2.1882							0.972405	3.62602				
0.703211	2.60651	0.589797	2.18835							0.973757	3.61849				
0.70493	2.60389	0.591878	2.18851							0.975109	3.61102				
0.706651	2.60129	0.593958	2.18866							0.976463	3.6036				
0.708373	2.59872	0.596039	2.18881							0.977819	3.59623				
0.710097	2.59617	0.598119	2.18896							0.979175	3.58893				
0.711823	2.59365	0.6002	2.18911							0.980533	3.58167				
0.713551	2.59115	0.60228	2.18926							0.981893	3.57447				
0.715281	2.58867	0.604361	2.18941							0.983254	3.56733				
0.717012	2.58622	0.606442	2.18956							0.984616	3.56024				
0.718745	2.58379	0.608522	2.1897							0.985979	3.5532				
0.72048	2.58138	0.610603	2.18985							0.987344	3.54621				
0.722217	2.57899	0.612683	2.18999							0.988711	3.53927				
0.723956	2.57663	0.614764	2.19014							0.990079	3.53239				
0.725696	2.57428	0.616844	2.19028							0.991448	3.52555				
0.727438	2.57196	0.618925	2.19042							0.992819	3.51877				
0.729181	2.56966	0.621005	2.19056							0.994191	3.51204				
0.730927	2.56738	0.623086	2.1907							0.995565	3.50535				
0.732673	2.56512	0.625166	2.19084							0.99694	3.49872				
0.734422	2.56289	0.627247	2.19097							0.998317	3.49213				
0.736172	2.56067	0.629327	2.19111							0.999695	3.48559				
0.737924	2.55847	0.631408	2.19125							1.00107	3.4791				
0.739678	2.55629	0.633488	2.19138												
0.741433	2.55414	0.635569	2.19151												
0.74319	2.552	0.637649	2.19165												
0.744948	2.54988	0.63973	2.19178												
0.746708	2.54778	0.64181	2.19191												
0.74847	2.54569	0.643891	2.19204												
0.750233	2.54363	0.645971	2.19217												
0.751998	2.54159	0.648052	2.1923												
0.753764	2.53956	0.650132	2.19243												
0.755532	2.53755	0.652212	2.19255												
0.757301	2.53556	0.654293	2.19268												
0.759072	2.53358	0.656373	2.1928												
0.760845	2.53163	0.658454	2.19293												
0.762619	2.52969	0.660534	2.19305												
0.764394	2.52776	0.662615	2.19318												
0.766171	2.52586	0.664695	2.1933												
0.767949	2.52397	0.666775	2.19342												
0.769729	2.52209	0.668856	2.19354												
0.77151	2.52024	0.670936	2.19366												
0.773293	2.5184	0.673017	2.19378												
0.775077	2.51657	0.675097	2.1939												
0.776863	2.51476	0.677177	2.19402												
0.77865	2.51297	0.679258	2.19413												
0.780438	2.51119	0.681338	2.19425												
0.782228	2.50942	0.683419	2.19437												
0.784019	2.50767	0.685499	2.19448												
0.785812	2.50594	0.687579	2.19459												
0.787606	2.50422	0.68966	2.19471												
0.789401	2.50251	0.69174	2.19482												
0.791198	2.50082	0.69382	2.19493												
0.792996	2.49915	0.695901	2.19504												
0.794795	2.49748	0.697981	2.19516												
0.796596	2.49584	0.700062	2.19527												
0.798398	2.4942	0.702142	2.19538												
0.800201	2.49258	0.704222	2.19548												
0.802005	2.49097	0.706303	2.19559												
0.803811	2.48938	0.708383	2.1957												
0.805618	2.48779	0.710463	2.19581												
0.807427	2.48623	0.712544	2.19591												
0.809237	2.48467	0.714624	2.19602												
0.811048	2.48313	0.716704	2.19612												
0.81286	2.4816	0.718785	2.19623												
0.814673	2.48008	0.720865	2.19633												
0.816488	2.47857	0.722945	2.19644												
0.818304	2.47708	0.725026	2.19654												
0.820121	2.4756	0.727106	2.19664												
0.82194	2.47413	0.729186	2.19674												
0.823759	2.47267	0.731266	2.19684												
0.82558	2.47123	0.733347	2.19694												
0.827402	2.46979	0.735427	2.19704												
0.829225	2.46837	0.737507	2.19714												
0.831049	2.46696	0.739588	2.19724												
0.832875	2.46556	0.741668	2.19734												
0.834702	2.46417	0.743748	2.19744												
0.836529	2.46279	0.745828	2.19753												
0.838358	2.46142	0.747909	2.19763												
0.840188	2.46007	0.749989	2.19773												
0.84202	2.45872	0.752069	2.19782												
0.843852	2.45739	0.754149	2.19792												
0.845685	2.45606	0.75623	2.19801												
0.84752	2.45475	0.75831	2.1981												
0.849356	2.45345	0.76039	2.1982												
0.851193	2.45215	0.76247	2.19829												
0.85303	2.45087	0.764551	2.19838												
0.854869	2.44959	0.766631	2.19848												
0.85671	2.44833	0.768711	2.19857												
0.858551	2.44708	0.770791	2.19866												
0.860393	2.44583	0.772872	2.19875												
0.862236	2.4446	0.774952	2.19884												
0.86408	2.44337	0.777032	2.19893												
0.865926	2.44216	0.779112	2.19902												
0.867772	2.44095	0.781193	2.1991												
0.869619	2.43975	0.783273	2.19919												
0.871468	2.43856	0.785353	2.19928												
0.873317	2.43738	0.787433	2.19937												
0.875168	2.43621	0.789513	2.19945												
0.877019	2.43505	0.791594	2.19954												
0.878872	2.4339	0.793674	2.19962												
0.880725	2.43276	0.795754	2.19971												
0.88258	2.43162	0.797834	2.19979												
0.884435	2.43049	0.799914	2.19988												
0.886291	2.42937	0.801995	2.19996												
0.888149	2.42826	0.804075	2.20005												
0.890007	2.42716	0.806155	2.20013												
0.891866	2.42607	0.808235	2.20021												
0.893727	2.42498	0.810315	2.20029												
0.895588	2.42391	0.812395	2.20038												
0.89745	2.42284	0.814476	2.20046												
0.899313	2.42177	0.816556	2.20054												
0.901177	2.42072	0.818636	2.20062												
0.903042	2.41967	0.820716	2.2007												
0.904908	2.41864	0.822796	2.20078												
0.906775	2.4176	0.824876	2.20086												
0.908642	2.41658	0.826957	2.20094												
0.910511	2.41556	0.829037	2.20101												
0.91238	2.41456	0.831117	2.20109												
0.914251	2.41356	0.833197	2.20117												
0.916122	2.41256	0.835277	2.20125												
0.917994	2.41157	0.837357	2.20132												
0.919867	2.41059	0.839437	2.2014												
0.921741	2.40962	0.841518	2.20148												
0.923616	2.40866	0.843598	2.20155												
0.925491	2.4077	0.845678	2.20163												
0.927368	2.40675	0.847758	2.2017												
0.929245	2.4058	0.849838	2.20178												
0.931123	2.40486	0.851918	2.20185												
0.933002	2.40393	0.853998	2.20193												
0.934882	2.40301	0.856078	2.202												
0.936763	2.40209	0.858158	2.20207												
0.938644	2.40117	0.860239	2.20215												
0.940526	2.40027	0.862319	2.20222												
0.942409	2.39937	0.864399	2.20229												
0.944293	2.39848	0.866479	2.20236												
0.946178	2.39759	0.868559	2.20243												
0.948064	2.39671	0.870639	2.2025												
0.94995	2.39584	0.872719	2.20258												
0.951837	2.39497	0.874799	2.20265												
0.953725	2.3941	0.876879	2.20272												
0.955614	2.39325	0.878959	2.20279												
0.957503	2.3924	0.881039	2.20285												
0.959393	2.39155	0.88312	2.20292												
0.961284	2.39072	0.8852	2.20299												
0.963176	2.38988	0.88728	2.20306												
0.965069	2.38906	0.88936	2.20313												
0.966962	2.38823	0.89144	2.2032												
0.968856	2.38742	0.89352	2.20326												
0.970751	2.38661	0.8956	2.20333												
0.972646	2.3858	0.89768	2.2034												
0.974543	2.385	0.89976	2.20346												
0.97644	2.38421	0.90184	2.20353												
0.978338	2.38342	0.90392	2.2036												
0.980236	2.38264	0.906	2.20366												
0.982135	2.38186	0.90808	2.20373												
0.984035	2.38109	0.91016	2.20379												
0.985936	2.38032	0.91224	2.20386												
0.987837	2.37956	0.91432	2.20392												
0.989739	2.3788	0.9164	2.20399												
0.991642	2.37805	0.91848	2.20405												
0.993545	2.3773	0.920561	2.20411												
0.99545	2.37656	0.922641	2.20418												
0.997354	2.37582	0.924721	2.20424												
0.99926	2.37509	0.926801	2.2043												
1.00117	2.37437	0.928881	2.20436												
		0.930961	2.20443												
		0.933041	2.20449												
		0.935121	2.20455												
		0.937201	2.20461												
		0.939281	2.20467												
		0.941361	2.20473												
		0.943441	2.20479												
		0.945521	2.20485												
		0.947601	2.20491												
		0.949681	2.20497												
		0.951761	2.20503												
		0.953841	2.20509												
		0.955921	2.20515												
		0.958001	2.20521												
		0.960081	2.20527												
		0.962161	2.20533												
		0.964241	2.20538												
		0.966321	2.20544												
		0.968401	2.2055												
		0.970481	2.20556												
		0.97256	2.20561												
		0.97464	2.20567												
		0.97672	2.20573												
		0.9788	2.20578												
		0.98088	2.20584												
		0.98296	2.20589												
		0.98504	2.20595												
		0.98712	2.206												
		0.9892	2.20606												
		0.99128	2.20611												
		0.99336	2.20617												
		0.99544	2.20622												
		0.99752	2.20628												
		0.9996	2.20633												
		1.00168	2.20638												
