Sym0		Asym0		Sym1		Sym2		Sym3		Asym1		Asym2		Asym3	
453  Points		491  Points		159  Points		128  Points		109  Points		289  Points		140  Points		112  Points	
Freq (MHz)	Vph (m/ms)	Freq (MHz)	Vph (m/ms)	Freq (MHz)	Vph (m/ms)	Freq (MHz)	Vph (m/ms)	Freq (MHz)	Vph (m/ms)	Freq (MHz)	Vph (m/ms)	Freq (MHz)	Vph (m/ms)	Freq (MHz)	Vph (m/ms)
0.00312909	8.03216	0.000437205	0.225018	0.279547	438.091	0.547543	876.323	0.559026	1691.21	0.139956	152.689	0.419316	468.962	0.698774	2495.74
0.010612	8.03168	0.000949876	0.330429	0.279743	178.203	0.547553	351.782	0.559148	442.98	0.140571	76.054	0.419487	229.751	0.698829	576.743
0.0180928	8.03067	0.00164842	0.433068	0.280103	111.974	0.547575	220.068	0.559411	254.98	0.141592	50.9326	0.419773	152.228	0.698953	326.099
0.0255698	8.02907	0.0025219	0.532263	0.280628	81.7397	0.547613	160.125	0.55981	179.103	0.143011	38.5298	0.420176	113.893	0.699145	227.359
0.0330417	8.02693	0.00355745	0.627443	0.281315	64.4496	0.547673	125.856	0.560341	138.106	0.144811	31.1864	0.420694	91.0412	0.699406	174.556
0.0405068	8.02425	0.00474111	0.718191	0.282163	53.2727	0.547762	103.678	0.560997	112.446	0.146975	26.3629	0.421327	75.8791	0.699735	141.691
0.0479635	8.021	0.00605828	0.804217	0.283171	45.4654	0.547887	88.1557	0.561771	94.8822	0.149486	22.9738	0.422075	65.0918	0.700132	119.27
0.0554103	8.01719	0.00749455	0.885374	0.284336	39.7119	0.548053	76.6863	0.562658	82.1109	0.152321	20.4775	0.422937	57.0304	0.700598	103.001
0.0628455	8.01281	0.00903581	0.96161	0.285656	35.3026	0.548266	67.8683	0.563651	72.4105	0.155461	18.5732	0.423912	50.7819	0.701131	90.661
0.0702673	8.00783	0.010669	1.03299	0.287129	31.8206	0.548532	60.8798	0.564747	64.7957	0.158884	17.0808	0.424999	45.8003	0.701732	80.9824
0.0776741	8.00226	0.0123817	1.09962	0.28875	29.0054	0.548854	55.2069	0.56594	58.6619	0.162569	15.8859	0.426197	41.7387	0.702401	73.1901
0.0850641	7.99609	0.0141629	1.16169	0.290518	26.6855	0.549237	50.5117	0.567228	53.6173	0.166497	14.9121	0.427506	38.3661	0.703137	66.7834
0.0924355	7.9893	0.0160026	1.2194	0.292429	24.7434	0.549685	46.5631	0.568606	49.3972	0.170649	14.1068	0.428923	35.5231	0.703941	61.4241
0.0997861	7.98186	0.0178921	1.273	0.294479	23.0962	0.5502	43.1975	0.570072	45.8162	0.175006	13.4324	0.430447	33.0956	0.704811	56.8762
0.107114	7.97378	0.0198235	1.32274	0.296665	21.6832	0.550785	40.2958	0.571625	42.7406	0.179553	12.8616	0.432078	31.0003	0.705748	52.9693
0.114418	7.96503	0.0217902	1.36887	0.298983	20.4594	0.551442	37.7694	0.573262	40.0715	0.184273	12.3739	0.433813	29.1746	0.706751	49.5777
0.121694	7.95558	0.0237863	1.41164	0.30143	19.3905	0.552174	35.5509	0.574982	37.7342	0.188516	12.0044	0.435652	27.5707	0.70782	46.6066
0.128941	7.94542	0.0258069	1.45131	0.304001	18.4501	0.552983	33.5881	0.576782	35.6713	0.192222	11.7237	0.437592	26.1515	0.708954	43.9831
0.136157	7.93452	0.0275844	1.48353	0.306693	17.6173	0.55387	31.8402	0.578663	33.8379	0.195344	11.5123	0.439633	24.8877	0.710154	41.65
0.143338	7.92285	0.0291098	1.50939	0.309503	16.8755	0.554838	30.2743	0.580623	32.1983	0.197848	11.3569	0.441772	23.7559	0.711418	39.5624
0.150483	7.9104	0.0303775	1.52973	0.312425	16.2114	0.555889	28.8643	0.582661	30.7239	0.199709	11.2489	0.444008	22.7369	0.712747	37.6838
0.157588	7.89712	0.0313833	1.54516	0.315458	15.6139	0.557023	27.5885	0.584776	29.3914	0.200907	11.1822	0.446339	21.8155	0.714139	35.9848
0.164651	7.88299	0.0321247	1.55617	0.318597	15.0741	0.558244	26.4294	0.586968	28.1819	0.202641	11.0898	0.448763	20.9786	0.715595	34.4412
0.171668	7.86798	0.0325998	1.56306	0.32184	14.5846	0.559551	25.3721	0.589235	27.0794	0.20454	10.9935	0.451279	20.2157	0.717114	33.0331
0.178636	7.85204	0.0332839	1.57277	0.325182	14.1391	0.560948	24.4044	0.591578	26.0708	0.207145	10.8692	0.453884	19.5178	0.718696	31.7436
0.185552	7.83515	0.0340285	1.58307	0.328622	13.7324	0.562434	23.5159	0.593995	25.1448	0.210476	10.722	0.456577	18.8773	0.720339	30.5586
0.192411	7.81726	0.035043	1.59665	0.332156	13.3599	0.564013	22.6977	0.596486	24.2922	0.214555	10.5575	0.459356	18.2878	0.722044	29.4663
0.199211	7.79834	0.0363288	1.61317	0.335783	13.0179	0.565685	21.9423	0.599051	23.5048	0.219406	10.3815	0.462219	17.7436	0.72381	28.4564
0.205947	7.77833	0.0378871	1.6322	0.3395	12.7032	0.567452	21.2431	0.601689	22.7757	0.225056	10.1992	0.465165	17.2401	0.725637	27.5202
0.212615	7.7572	0.039719	1.6533	0.343305	12.4128	0.569315	20.5945	0.6044	22.099	0.230785	10.0351	0.46819	16.773	0.727523	26.65
0.21921	7.7349	0.0418256	1.67599	0.346691	12.1778	0.571275	19.9917	0.607183	21.4693	0.236588	9.8869	0.471295	16.3389	0.729469	25.8394
0.225729	7.71139	0.0439357	1.69718	0.349629	11.9895	0.573334	19.4302	0.610038	20.8824	0.242458	9.75248	0.474476	15.9345	0.731473	25.0826
0.232165	7.68663	0.0460484	1.71699	0.352094	11.8416	0.575493	18.9064	0.612965	20.334	0.248388	9.63012	0.477731	15.557	0.733536	24.3746
0.238516	7.66056	0.048163	1.73555	0.354066	11.7294	0.577752	18.4169	0.615964	19.8209	0.254374	9.51837	0.48106	15.2041	0.735656	23.711
0.244774	7.63316	0.0502788	1.75294	0.355528	11.6494	0.580113	17.9588	0.619034	19.3399	0.26041	9.41597	0.48446	14.8736	0.737833	23.0879
0.250936	7.60438	0.0523955	1.76926	0.35647	11.5994	0.582577	17.5295	0.622175	18.8882	0.266492	9.32182	0.487929	14.5636	0.740067	22.5017
0.256997	7.5742	0.0545124	1.7846	0.357831	11.5288	0.585143	17.1266	0.625387	18.4635	0.272614	9.235	0.491467	14.2722	0.742356	21.9496
0.262951	7.54257	0.0566294	1.79903	0.35932	11.454	0.587813	16.748	0.628669	18.0635	0.278773	9.1547	0.49507	13.9981	0.744701	21.4286
0.268794	7.50948	0.0587462	1.81263	0.361363	11.3553	0.590587	16.3919	0.632023	17.6864	0.284965	9.08022	0.498737	13.7399	0.7471	20.9363
0.274521	7.47491	0.0608625	1.82545	0.363975	11.2353	0.593464	16.0565	0.635447	17.3304	0.291186	9.01093	0.502467	13.4962	0.749553	20.4706
0.280128	7.43885	0.0629782	1.83756	0.367176	11.097	0.596446	15.7404	0.638942	16.9939	0.297433	8.94631	0.506258	13.2661	0.752059	20.0294
0.28561	7.40131	0.0650932	1.849	0.370989	10.9438	0.59953	15.4421	0.642507	16.6755	0.303702	8.88587	0.510109	13.0484	0.754617	19.6109
0.290964	7.3623	0.0672075	1.85984	0.375443	10.7789	0.602717	15.1604	0.646144	16.3739	0.309991	8.82919	0.514017	12.8423	0.757228	19.2135
0.296186	7.32184	0.0693207	1.8701	0.37998	10.6249	0.606007	14.8941	0.649852	16.0881	0.316297	8.7759	0.517982	12.647	0.75989	18.8358
0.301275	7.27996	0.0714332	1.87984	0.384601	10.4811	0.609397	14.6421	0.653632	15.8168	0.322616	8.72567	0.521482	12.4849	0.762602	18.4763
0.306228	7.23672	0.0735447	1.88909	0.389307	10.3467	0.612886	14.4035	0.657483	15.5592	0.328947	8.67821	0.524498	12.3525	0.765365	18.1339
0.311043	7.19216	0.0756552	1.89788	0.394098	10.2209	0.616474	14.1774	0.661407	15.3144	0.335286	8.63324	0.527014	12.2466	0.768177	17.8074
0.31572	7.14635	0.0777647	1.90625	0.398973	10.1032	0.620158	13.963	0.665404	15.0816	0.341631	8.59055	0.529018	12.1653	0.771037	17.4959
0.320259	7.09937	0.0798733	1.91422	0.403932	9.99302	0.623935	13.7594	0.669473	14.86	0.347981	8.5499	0.530498	12.1067	0.773946	17.1983
0.324661	7.05131	0.0819809	1.92182	0.408977	9.88985	0.627805	13.566	0.673617	14.6491	0.354332	8.51111	0.531449	12.0697	0.776902	16.9138
0.328925	7.00224	0.0840876	1.92907	0.414104	9.7932	0.631763	13.3821	0.677836	14.4481	0.360682	8.47401	0.532821	12.0173	0.779905	16.6416
0.333056	6.95228	0.0861934	1.936	0.419315	9.70263	0.635808	13.2071	0.68213	14.2565	0.36703	8.43843	0.534318	11.9613	0.782954	16.381
0.337054	6.90151	0.0882983	1.94262	0.424606	9.61773	0.639935	13.0405	0.6865	14.0738	0.373373	8.40425	0.536365	11.8867	0.786048	16.1313
0.340922	6.85004	0.0904023	1.94896	0.429977	9.53809	0.644143	12.8817	0.690948	13.8995	0.37971	8.37132	0.538969	11.7948	0.789187	15.8919
0.344665	6.79797	0.0925055	1.95504	0.435425	9.46336	0.647873	12.7492	0.695474	13.7331	0.386038	8.33953	0.542144	11.6873	0.79237	15.6621
0.348284	6.74541	0.0946079	1.96086	0.440947	9.39318	0.651096	12.6405	0.700078	13.5743	0.392355	8.30876	0.545901	11.5658	0.795597	15.4415
0.351785	6.69244	0.0967096	1.96644	0.446541	9.32722	0.653791	12.5533	0.704763	13.4227	0.39866	8.27893	0.550256	11.4324	0.798867	15.2296
0.355171	6.63918	0.0988104	1.97181	0.452204	9.26519	0.65594	12.4861	0.709528	13.2778	0.40495	8.24994	0.554656	11.305	0.802179	15.0259
0.358446	6.5857	0.100911	1.97696	0.457931	9.20678	0.65753	12.4376	0.714376	13.1394	0.411224	8.2217	0.559101	11.1833	0.805533	14.8299
0.361614	6.5321	0.10301	1.98192	0.46372	9.15174	0.658552	12.407	0.719306	13.0072	0.417481	8.19415	0.56359	11.0668	0.808928	14.6412
0.364681	6.47846	0.105109	1.98668	0.469566	9.09979	0.660028	12.3635	0.723671	12.8968	0.423717	8.1672	0.568122	10.9554	0.812363	14.4596
0.36765	6.42486	0.107207	1.99128	0.475465	9.05071	0.661639	12.3169	0.727442	12.806	0.429931	8.14079	0.572695	10.8486	0.815839	14.2845
0.370525	6.37138	0.109305	1.9957	0.481415	9.00426	0.663843	12.2547	0.730596	12.7333	0.436122	8.11485	0.57731	10.7464	0.819353	14.1158
0.373311	6.31806	0.111402	1.99997	0.48741	8.96024	0.66665	12.1778	0.733112	12.6771	0.442288	8.08935	0.581965	10.6484	0.822907	13.9531
0.376012	6.26499	0.113498	2.00408	0.493446	8.91846	0.670074	12.0875	0.734976	12.6367	0.448427	8.06421	0.58666	10.5543	0.826498	13.796
0.378632	6.2122	0.115594	2.00805	0.499521	8.87874	0.674129	11.9852	0.736174	12.6111	0.454537	8.03939	0.591393	10.4641	0.830127	13.6444
0.381175	6.15976	0.117689	2.01189	0.50563	8.84092	0.67883	11.8721	0.737904	12.5748	0.460617	8.01484	0.596166	10.3775	0.833793	13.4979
0.383644	6.10771	0.119784	2.0156	0.511769	8.80483	0.683578	11.7634	0.739796	12.5359	0.466664	7.99053	0.600976	10.2943	0.837495	13.3564
0.386044	6.05608	0.121879	2.01919	0.517936	8.77034	0.688369	11.659	0.742385	12.4841	0.472678	7.96641	0.605824	10.2143	0.840751	13.237
0.388378	6.00492	0.123973	2.02266	0.524127	8.73732	0.693201	11.5584	0.74569	12.4201	0.478656	7.94245	0.610708	10.1374	0.843548	13.1378
0.390648	5.95426	0.126066	2.02602	0.530338	8.70566	0.69807	11.4615	0.74973	12.3451	0.484597	7.91861	0.615629	10.0634	0.845875	13.0577
0.39286	5.90412	0.128159	2.02927	0.536567	8.67523	0.702971	11.3681	0.75453	12.2602	0.490499	7.89485	0.620586	9.99229	0.847725	12.9954
0.395015	5.85453	0.130252	2.03243	0.542811	8.64594	0.707903	11.2779	0.760119	12.1668	0.496361	7.87116	0.625579	9.92381	0.84909	12.9503
0.397116	5.80551	0.132345	2.03548	0.549067	8.6177	0.712863	11.1908	0.765794	12.0776	0.50218	7.8475	0.630607	9.85787	0.849966	12.9217
0.399167	5.75708	0.134437	2.03845	0.555333	8.59042	0.717848	11.1066	0.771556	11.9922	0.507956	7.82385	0.63567	9.79437	0.851228	12.8809
0.40117	5.70924	0.136528	2.04133	0.561606	8.56403	0.722855	11.0252	0.777402	11.9106	0.513687	7.80018	0.640768	9.73319	0.852604	12.8371
0.403127	5.66203	0.13862	2.04412	0.567884	8.53845	0.727882	10.9463	0.783333	11.8326	0.519371	7.77647	0.645899	9.67423	0.854483	12.7784
0.405042	5.61544	0.140711	2.04684	0.574164	8.51363	0.732928	10.8699	0.789348	11.758	0.525007	7.75271	0.651065	9.61739	0.85687	12.7053
0.406916	5.56948	0.142802	2.04947	0.580446	8.48949	0.737991	10.7958	0.795444	11.6866	0.530593	7.72887	0.656264	9.56258	0.859774	12.6189
0.408518	5.52995	0.144892	2.05204	0.586726	8.46598	0.743069	10.7239	0.801622	11.6183	0.536129	7.70494	0.661496	9.50972	0.863203	12.52
0.409861	5.49664	0.146982	2.05453	0.593004	8.44305	0.748162	10.6542	0.807879	11.553	0.541613	7.68091	0.666761	9.45872	0.867169	12.4098
0.410958	5.46936	0.149072	2.05695	0.599277	8.42067	0.753268	10.5864	0.814213	11.4905	0.547044	7.65676	0.672059	9.4095	0.871166	12.303
0.411815	5.44797	0.151162	2.05931	0.605544	8.39877	0.758386	10.5206	0.820624	11.4306	0.552421	7.63249	0.677388	9.36199	0.875196	12.1994
0.412441	5.43233	0.153251	2.06161	0.611803	8.37732	0.763516	10.4566	0.827108	11.3734	0.557743	7.60807	0.682749	9.31612	0.879256	12.0989
0.41284	5.42237	0.15534	2.06385	0.618052	8.3563	0.768658	10.3944	0.833665	11.3185	0.563008	7.58352	0.68814	9.27181	0.883347	12.0013
0.413409	5.40811	0.157429	2.06603	0.624292	8.33565	0.773811	10.3339	0.840291	11.266	0.568216	7.55881	0.693562	9.22901	0.887468	11.9066
0.414025	5.39268	0.159518	2.06815	0.630519	8.31535	0.778974	10.275	0.846985	11.2156	0.573366	7.53395	0.699014	9.18765	0.891619	11.8146
0.414855	5.37184	0.161606	2.07022	0.636733	8.29537	0.784148	10.2177	0.853744	11.1674	0.578458	7.50893	0.704495	9.14767	0.8958	11.7252
0.415896	5.3457	0.163695	2.07224	0.642933	8.27569	0.789332	10.1619	0.860567	11.1211	0.583491	7.48374	0.710004	9.10901	0.900009	11.6384
0.41714	5.31441	0.165783	2.07421	0.649116	8.25628	0.794527	10.1075	0.867451	11.0767	0.588464	7.4584	0.715541	9.07161	0.904247	11.554
0.41858	5.27816	0.167871	2.07613	0.655284	8.23711	0.799733	10.0546	0.874395	11.0341	0.593376	7.43289	0.721106	9.03543	0.908513	11.4719
0.420208	5.23716	0.169958	2.07801	0.661433	8.21816	0.804949	10.003	0.881395	10.9931	0.598228	7.40722	0.726696	9.0004	0.912806	11.3921
0.421812	5.1968	0.172046	2.07984	0.667564	8.19941	0.810177	9.95269	0.888449	10.9538	0.60302	7.3814	0.732312	8.96649	0.917127	11.3145
0.423392	5.15707	0.174133	2.08163	0.673675	8.18085	0.815415	9.90369	0.895556	10.9161	0.60775	7.35542	0.737952	8.93363	0.921475	11.2389
0.42495	5.11797	0.176221	2.08337	0.679764	8.16245	0.820664	9.85591	0.902713	10.8797	0.61242	7.32928	0.743616	8.9018	0.92585	11.1654
0.426488	5.0795	0.178308	2.08508	0.685832	8.1442	0.825925	9.80934	0.909919	10.8448	0.617028	7.303	0.749302	8.87093	0.930251	11.0938
0.428006	5.04163	0.180395	2.08675	0.691878	8.12608	0.831198	9.76391	0.91717	10.8112	0.621576	7.27659	0.75501	8.84098	0.934677	11.0241
0.429506	5.00438	0.182481	2.08838	0.697899	8.10808	0.836482	9.71961	0.924466	10.7788	0.626062	7.25003	0.760738	8.81192	0.939129	10.9562
0.430989	4.96773	0.184568	2.08998	0.703896	8.09018	0.841778	9.6764	0.931804	10.7476	0.630488	7.22335	0.766486	8.78371	0.943607	10.8901
0.432455	4.93167	0.186655	2.09154	0.709868	8.07238	0.847087	9.63424	0.939181	10.7175	0.634854	7.19655	0.772253	8.7563	0.948109	10.8257
0.433907	4.8962	0.188741	2.09306	0.715814	8.05465	0.852408	9.59311	0.946597	10.6885	0.639159	7.16963	0.778036	8.72965	0.952635	10.7628
0.435344	4.86131	0.190827	2.09456	0.721732	8.03699	0.857742	9.55297	0.954049	10.6605	0.643405	7.14261	0.783836	8.70374	0.957186	10.7016
0.436768	4.82699	0.192913	2.09602	0.727623	8.01939	0.863089	9.5138	0.961535	10.6335	0.647591	7.11548	0.789651	8.67852	0.961761	10.6419
0.438179	4.79323	0.194999	2.09745	0.733486	8.00183	0.868449	9.47556	0.969053	10.6073	0.651719	7.08827	0.795479	8.65397	0.966359	10.5837
0.439578	4.76003	0.197085	2.09885	0.739319	7.98431	0.873822	9.43824	0.976602	10.582	0.655788	7.06098	0.80132	8.63004	0.970981	10.5269
0.440967	4.72737	0.199171	2.10023	0.745122	7.96682	0.879208	9.4018	0.984179	10.5575	0.659799	7.03361	0.807173	8.60671	0.975625	10.4715
0.442345	4.69524	0.201256	2.10157	0.750894	7.94935	0.884608	9.36623	0.991782	10.5338	0.663754	7.00618	0.813036	8.58395	0.980293	10.4174
0.443714	4.66365	0.203342	2.10289	0.756635	7.93189	0.890021	9.33149	0.999409	10.5108	0.667652	6.9787	0.818909	8.56173	0.984982	10.3646
0.445073	4.63258	0.205427	2.10418	0.762344	7.91444	0.895447	9.29756	1.00706	10.4885	0.671494	6.95116	0.824789	8.54002	0.989694	10.3131
0.446425	4.60201	0.207513	2.10545	0.76802	7.89698	0.900888	9.26443			0.675281	6.92359	0.830676	8.5188	0.994427	10.2628
0.447768	4.57195	0.209598	2.10669	0.773663	7.87952	0.906342	9.23206			0.679014	6.89599	0.836569	8.49804	0.999182	10.2136
0.449104	4.54239	0.211683	2.10791	0.779272	7.86205	0.911809	9.20044			0.682693	6.86836	0.842466	8.47771	1.00396	10.1656
0.450434	4.5133	0.213768	2.10911	0.784847	7.84455	0.91729	9.16954			0.686319	6.84072	0.848367	8.45779		
0.451758	4.4847	0.215853	2.11028	0.790387	7.82704	0.922785	9.13935			0.689893	6.81307	0.854271	8.43827		
0.453076	4.45656	0.217938	2.11143	0.795892	7.8095	0.928293	9.10984			0.693415	6.78542	0.860175	8.41911		
0.454388	4.42888	0.220023	2.11256	0.801361	7.79192	0.933815	9.08099			0.696887	6.75778	0.86608	8.4003		
0.455696	4.40166	0.222107	2.11367	0.806793	7.77431	0.939349	9.0528			0.700309	6.73016	0.871984	8.38182		
0.456999	4.37488	0.224192	2.11475	0.812189	7.75667	0.944897	9.02523			0.703682	6.70256	0.877885	8.36364		
0.458299	4.34853	0.226277	2.11582	0.817547	7.73899	0.950458	8.99826			0.707006	6.67499	0.883784	8.34576		
0.459595	4.32261	0.228361	2.11687	0.822869	7.72126	0.956031	8.97189			0.710283	6.64746	0.889679	8.32816		
0.460887	4.29712	0.230445	2.1179	0.828152	7.70349	0.961617	8.94609			0.713514	6.61997	0.895569	8.31081		
0.462177	4.27203	0.23253	2.11891	0.833397	7.68567	0.967215	8.92085			0.716699	6.59253	0.901453	8.2937		
0.463464	4.24735	0.234614	2.11991	0.838604	7.66781	0.972825	8.89614			0.719839	6.56515	0.90733	8.27683		
0.464748	4.22306	0.236698	2.12089	0.843773	7.6499	0.978447	8.87196			0.722934	6.53783	0.913199	8.26016		
0.466031	4.19916	0.238782	2.12185	0.848902	7.63194	0.98408	8.84829			0.725987	6.51058	0.91906	8.2437		
0.467312	4.17565	0.240866	2.12279	0.853993	7.61393	0.989724	8.8251			0.728996	6.4834	0.924911	8.22743		
0.468591	4.15251	0.24295	2.12372	0.859044	7.59587	0.995378	8.80239			0.731964	6.45629	0.930751	8.21133		
0.469869	4.12974	0.245034	2.12463	0.864057	7.57776	1.00104	8.78014			0.734891	6.42927	0.936581	8.19539		
0.471146	4.10733	0.247118	2.12553	0.869029	7.5596					0.737778	6.40234	0.942398	8.1796		
0.472422	4.08528	0.249202	2.12641	0.873963	7.54139					0.740625	6.3755	0.948202	8.16396		
0.473698	4.06357	0.251286	2.12728	0.878856	7.52314					0.743434	6.34876	0.953992	8.14845		
0.474973	4.0422	0.253369	2.12813	0.883711	7.50483					0.746205	6.32212	0.959768	8.13306		
0.476249	4.02117	0.255453	2.12898	0.888525	7.48649					0.748938	6.29559	0.965528	8.11779		
0.477524	4.00047	0.257537	2.1298	0.8933	7.46809					0.751636	6.26917	0.971273	8.10261		
0.478799	3.98009	0.25962	2.13062	0.898036	7.44966					0.754298	6.24285	0.977001	8.08754		
0.480075	3.96002	0.261704	2.13142	0.902732	7.43118					0.756925	6.21666	0.982712	8.07255		
0.481351	3.94027	0.263787	2.13221	0.907388	7.41266					0.759517	6.19058	0.988404	8.05764		
0.482628	3.92082	0.26587	2.13298	0.912005	7.3941					0.762077	6.16463	0.994079	8.04281		
0.483906	3.90167	0.267954	2.13375	0.916583	7.3755					0.764604	6.13881	0.999733	8.02805		
0.485185	3.88281	0.270037	2.1345	0.921122	7.35687					0.767099	6.11311	1.00537	8.01334		
0.486465	3.86424	0.27212	2.13524	0.925622	7.3382					0.769562	6.08754				
0.487746	3.84595	0.274204	2.13597	0.930083	7.31951					0.771995	6.06211				
0.489028	3.82794	0.276287	2.13669	0.934506	7.30078					0.774399	6.03682				
0.490312	3.8102	0.27837	2.1374	0.93889	7.28203					0.776773	6.01166				
0.491598	3.79273	0.280453	2.1381	0.943236	7.26325					0.779118	5.98664				
0.492885	3.77552	0.282536	2.13879	0.947543	7.24444					0.781435	5.96177				
0.494174	3.75857	0.284619	2.13947	0.951813	7.22562					0.783726	5.93704				
0.495464	3.74187	0.286702	2.14014	0.956045	7.20677					0.785989	5.91246				
0.496757	3.72542	0.288785	2.1408	0.96024	7.18791					0.788226	5.88802				
0.498051	3.70921	0.290868	2.14145	0.964398	7.16903					0.790438	5.86374				
0.499348	3.69324	0.292951	2.14209	0.968518	7.15014					0.792626	5.8396				
0.500647	3.67751	0.295034	2.14272	0.972602	7.13124					0.794789	5.81562				
0.501948	3.662	0.297116	2.14335	0.97665	7.11233					0.796928	5.79178				
0.503251	3.64672	0.299199	2.14396	0.980661	7.09342					0.799044	5.7681				
0.504557	3.63167	0.301282	2.14457	0.984636	7.07449					0.801137	5.74458				
0.505865	3.61683	0.303364	2.14517	0.988576	7.05557					0.803209	5.72121				
0.507176	3.6022	0.305447	2.14576	0.99248	7.03664					0.805259	5.698				
0.508489	3.58779	0.30753	2.14634	0.996349	7.01772					0.807288	5.67494				
0.509805	3.57358	0.309612	2.14691	1.00018	6.9988					0.809296	5.65205				
0.511123	3.55958	0.311695	2.14748							0.811285	5.6293				
0.512444	3.54577	0.313777	2.14804							0.813254	5.60672				
0.513768	3.53216	0.31586	2.14859							0.815204	5.5843				
0.515095	3.51874	0.317942	2.14914							0.817136	5.56203				
0.516424	3.50551	0.320025	2.14967							0.819049	5.53992				
0.517756	3.49246	0.322107	2.15021							0.820945	5.51797				
0.519091	3.4796	0.32419	2.15073							0.822824	5.49618				
0.520429	3.46692	0.326272	2.15125							0.824686	5.47455				
0.52177	3.45441	0.328354	2.15176							0.826532	5.45308				
0.523114	3.44207	0.330437	2.15226							0.828362	5.43176				
0.52446	3.42991	0.332519	2.15276							0.830177	5.41061				
0.52581	3.41791	0.334601	2.15326							0.831976	5.38961				
0.527163	3.40607	0.336683	2.15374							0.833761	5.36876				
0.528519	3.3944	0.338766	2.15422							0.835531	5.34808				
0.529878	3.38289	0.340848	2.1547							0.837288	5.32755				
0.53124	3.37153	0.34293	2.15517							0.839031	5.30718				
0.532605	3.36032	0.345012	2.15563							0.840761	5.28696				
0.533973	3.34926	0.347094	2.15609							0.842477	5.2669				
0.535344	3.33836	0.349176	2.15654							0.844182	5.24699				
0.536718	3.32759	0.351258	2.15699							0.845874	5.22724				
0.538096	3.31697	0.353341	2.15743							0.847554	5.20764				
0.539477	3.30649	0.355423	2.15787							0.849223	5.1882				
0.54086	3.29615	0.357505	2.1583							0.850881	5.1689				
0.542247	3.28595	0.359587	2.15873							0.852528	5.14976				
0.543637	3.27588	0.361669	2.15915							0.854164	5.13077				
0.545031	3.26594	0.36375	2.15957							0.855789	5.11192				
0.546427	3.25613	0.365832	2.15998							0.857405	5.09323				
0.547827	3.24644	0.367914	2.16039							0.859011	5.07468				
0.54923	3.23688	0.369996	2.16079							0.860607	5.05628				
0.550636	3.22745	0.372078	2.16119							0.862195	5.03803				
0.552045	3.21813	0.37416	2.16158							0.863773	5.01992				
0.553457	3.20894	0.376242	2.16197							0.865342	5.00196				
0.554873	3.19986	0.378324	2.16236							0.866903	4.98414				
0.556291	3.1909	0.380406	2.16274							0.868456	4.96646				
0.557713	3.18205	0.382487	2.16312							0.870001	4.94893				
0.559138	3.17331	0.384569	2.16349							0.871538	4.93154				
0.560567	3.16468	0.386651	2.16386							0.873067	4.91428				
0.561998	3.15616	0.388733	2.16423							0.874589	4.89717				
0.563433	3.14775	0.390814	2.16459							0.876104	4.88019				
0.56487	3.13944	0.392896	2.16495							0.877612	4.86335				
0.566311	3.13123	0.394978	2.1653							0.879113	4.84665				
0.567755	3.12313	0.397059	2.16565							0.880608	4.83008				
0.569202	3.11512	0.399141	2.166							0.882097	4.81364				
0.570653	3.10722	0.401223	2.16634							0.883579	4.79734				
0.572106	3.09941	0.403304	2.16668							0.885055	4.78117				
0.573563	3.09169	0.405386	2.16702							0.886526	4.76513				
0.575022	3.08407	0.407468	2.16735							0.887991	4.74922				
0.576485	3.07654	0.409549	2.16768							0.889451	4.73344				
0.577951	3.06911	0.411631	2.16801							0.890905	4.71779				
0.57942	3.06176	0.413712	2.16833							0.892354	4.70227				
0.580892	3.0545	0.415794	2.16865							0.893799	4.68687				
0.582367	3.04732	0.417876	2.16897							0.895238	4.67159				
0.583845	3.04024	0.419957	2.16928							0.896673	4.65644				
0.585326	3.03323	0.422039	2.16959							0.898104	4.64141				
0.58681	3.02631	0.42412	2.1699							0.89953	4.62651				
0.588297	3.01947	0.426202	2.1702							0.900952	4.61172				
0.589787	3.01272	0.428283	2.17051							0.90237	4.59705				
0.59128	3.00604	0.430365	2.17081							0.903784	4.58251				
0.592777	2.99944	0.432446	2.1711							0.905194	4.56808				
0.594276	2.99291	0.434528	2.17139							0.906601	4.55377				
0.595778	2.98646	0.436609	2.17168							0.908004	4.53957				
0.597283	2.98009	0.43869	2.17197							0.909403	4.52549				
0.598791	2.97379	0.440772	2.17226							0.9108	4.51152				
0.600302	2.96756	0.442853	2.17254							0.912193	4.49766				
0.601816	2.96141	0.444935	2.17282							0.913583	4.48392				
0.603332	2.95532	0.447016	2.1731							0.91497	4.47029				
0.604852	2.9493	0.449097	2.17337							0.916355	4.45676				
0.606374	2.94336	0.451179	2.17364							0.917736	4.44335				
0.6079	2.93748	0.45326	2.17391							0.919116	4.43004				
0.609428	2.93166	0.455341	2.17418							0.920492	4.41684				
0.610959	2.92591	0.457423	2.17444							0.921866	4.40375				
0.612493	2.92023	0.459504	2.17471							0.923238	4.39076				
0.61403	2.91461	0.461585	2.17497							0.924608	4.37787				
0.615569	2.90905	0.463667	2.17522							0.925975	4.36509				
0.617111	2.90355	0.465748	2.17548							0.92734	4.35241				
0.618656	2.89812	0.467829	2.17573							0.928704	4.33983				
0.620204	2.89274	0.469911	2.17598							0.930065	4.32736				
0.621754	2.88743	0.471992	2.17623							0.931425	4.31498				
0.623308	2.88217	0.474073	2.17648							0.932783	4.3027				
0.624864	2.87697	0.476154	2.17672							0.93414	4.29052				
0.626422	2.87183	0.478235	2.17696							0.935495	4.27843				
0.627983	2.86674	0.480317	2.1772							0.936848	4.26644				
0.629547	2.86171	0.482398	2.17744							0.9382	4.25455				
0.631114	2.85673	0.484479	2.17768							0.939551	4.24274				
0.632683	2.85181	0.48656	2.17791							0.9409	4.23104				
0.634255	2.84694	0.488642	2.17814							0.942248	4.21942				
0.63583	2.84212	0.490723	2.17837							0.943596	4.2079				
0.637407	2.83735	0.492804	2.1786							0.944942	4.19647				
0.638987	2.83263	0.494885	2.17883							0.946287	4.18512				
0.640569	2.82797	0.496966	2.17905							0.947631	4.17387				
0.642154	2.82335	0.499047	2.17927							0.948974	4.1627				
0.643741	2.81878	0.501129	2.17949							0.950317	4.15163				
0.645331	2.81427	0.50321	2.17971							0.951659	4.14063				
0.646923	2.80979	0.505291	2.17993							0.953	4.12973				
0.648518	2.80537	0.507372	2.18015							0.95434	4.11891				
0.650116	2.80099	0.509453	2.18036							0.95568	4.10817				
0.651715	2.79666	0.511534	2.18057							0.957019	4.09752				
0.653318	2.79237	0.513615	2.18078							0.958358	4.08695				
0.654923	2.78812	0.515696	2.18099							0.959697	4.07646				
0.65653	2.78392	0.517777	2.1812							0.961035	4.06605				
0.658139	2.77977	0.519858	2.1814							0.962373	4.05572				
0.659751	2.77565	0.521939	2.1816							0.96371	4.04547				
0.661366	2.77158	0.524021	2.18181							0.965047	4.0353				
0.662983	2.76755	0.526102	2.18201							0.966384	4.02521				
0.664602	2.76356	0.528183	2.18221							0.967721	4.0152				
0.666223	2.75961	0.530264	2.1824							0.969058	4.00526				
0.667847	2.7557	0.532345	2.1826							0.970395	3.9954				
0.669473	2.75183	0.534426	2.18279							0.971732	3.98562				
0.671102	2.748	0.536507	2.18298							0.973069	3.97591				
0.672732	2.74421	0.538588	2.18318							0.974405	3.96627				
0.674365	2.74046	0.540669	2.18336							0.975742	3.95671				
0.676001	2.73674	0.54275	2.18355							0.977079	3.94722				
0.677638	2.73306	0.544831	2.18374							0.978417	3.9378				
0.679278	2.72942	0.546912	2.18392							0.979754	3.92845				
0.68092	2.72581	0.548993	2.18411							0.981092	3.91917				
0.682564	2.72224	0.551074	2.18429							0.98243	3.90997				
0.684211	2.71871	0.553155	2.18447							0.983768	3.90083				
0.685859	2.71521	0.555236	2.18465							0.985107	3.89176				
0.68751	2.71174	0.557317	2.18483							0.986446	3.88276				
0.689163	2.70831	0.559397	2.18501							0.987786	3.87382				
0.690818	2.70491	0.561478	2.18518							0.989126	3.86496				
0.692475	2.70154	0.563559	2.18536							0.990466	3.85616				
0.694135	2.69821	0.56564	2.18553							0.991807	3.84742				
0.695796	2.6949	0.567721	2.1857							0.993148	3.83875				
0.69746	2.69163	0.569802	2.18587							0.99449	3.83014				
0.699125	2.6884	0.571883	2.18604							0.995833	3.8216				
0.700793	2.68519	0.573964	2.18621							0.997176	3.81312				
0.702463	2.68201	0.576045	2.18638							0.99852	3.8047				
0.704135	2.67887	0.578126	2.18655							0.999864	3.79635				
0.705808	2.67575	0.580207	2.18671							1.00121	3.78806				
0.707484	2.67266	0.582288	2.18687												
0.709162	2.6696	0.584368	2.18704												
0.710842	2.66658	0.586449	2.1872												
0.712524	2.66358	0.58853	2.18736												
0.714208	2.6606	0.590611	2.18752												
0.715893	2.65766	0.592692	2.18767												
0.717581	2.65474	0.594773	2.18783												
0.719271	2.65185	0.596854	2.18799												
0.720962	2.64899	0.598934	2.18814												
0.722656	2.64615	0.601015	2.18829												
0.724351	2.64334	0.603096	2.18845												
0.726049	2.64056	0.605177	2.1886												
0.727748	2.6378	0.607258	2.18875												
0.729449	2.63507	0.609338	2.1889												
0.731152	2.63236	0.611419	2.18905												
0.732856	2.62968	0.6135	2.18919												
0.734563	2.62702	0.615581	2.18934												
0.736271	2.62438	0.617662	2.18948												
0.737981	2.62177	0.619742	2.18963												
0.739693	2.61918	0.621823	2.18977												
0.741407	2.61662	0.623904	2.18991												
0.743123	2.61408	0.625985	2.19006												
0.74484	2.61156	0.628066	2.1902												
0.746559	2.60907	0.630146	2.19034												
0.74828	2.60659	0.632227	2.19048												
0.750002	2.60414	0.634308	2.19061												
0.751726	2.60171	0.636389	2.19075												
0.753452	2.5993	0.638469	2.19089												
0.75518	2.59692	0.64055	2.19102												
0.756909	2.59455	0.642631	2.19116												
0.75864	2.5922	0.644712	2.19129												
0.760373	2.58988	0.646792	2.19142												
0.762108	2.58758	0.648873	2.19155												
0.763843	2.58529	0.650954	2.19168												
0.765581	2.58303	0.653034	2.19181												
0.76732	2.58078	0.655115	2.19194												
0.769061	2.57856	0.657196	2.19207												
0.770804	2.57635	0.659277	2.1922												
0.772548	2.57417	0.661357	2.19233												
0.774293	2.572	0.663438	2.19245												
0.776041	2.56985	0.665519	2.19258												
0.777789	2.56772	0.667599	2.1927												
0.77954	2.5656	0.66968	2.19282												
0.781292	2.56351	0.671761	2.19295												
0.783045	2.56143	0.673841	2.19307												
0.7848	2.55937	0.675922	2.19319												
0.786557	2.55733	0.678003	2.19331												
0.788315	2.55531	0.680083	2.19343												
0.790074	2.5533	0.682164	2.19355												
0.791835	2.55131	0.684245	2.19367												
0.793598	2.54933	0.686325	2.19379												
0.795362	2.54738	0.688406	2.1939												
0.797127	2.54543	0.690487	2.19402												
0.798894	2.54351	0.692567	2.19414												
0.800662	2.5416	0.694648	2.19425												
0.802432	2.53971	0.696729	2.19436												
0.804203	2.53783	0.698809	2.19448												
0.805976	2.53597	0.70089	2.19459												
0.80775	2.53412	0.70297	2.1947												
0.809525	2.53229	0.705051	2.19481												
0.811302	2.53047	0.707132	2.19493												
0.81308	2.52867	0.709212	2.19504												
0.81486	2.52688	0.711293	2.19515												
0.816641	2.52511	0.713373	2.19525												
0.818423	2.52335	0.715454	2.19536												
0.820207	2.52161	0.717535	2.19547												
0.821992	2.51988	0.719615	2.19558												
0.823778	2.51816	0.721696	2.19568												
0.825566	2.51646	0.723776	2.19579												
0.827355	2.51477	0.725857	2.19589												
0.829145	2.51309	0.727938	2.196												
0.830937	2.51143	0.730018	2.1961												
0.83273	2.50978	0.732099	2.19621												
0.834524	2.50815	0.734179	2.19631												
0.836319	2.50653	0.73626	2.19641												
0.838116	2.50492	0.738341	2.19651												
0.839914	2.50332	0.740421	2.19661												
0.841714	2.50173	0.742502	2.19672												
0.843514	2.50016	0.744582	2.19682												
0.845316	2.4986	0.746663	2.19691												
0.847119	2.49706	0.748743	2.19701												
0.848923	2.49552	0.750824	2.19711												
0.850729	2.494	0.752904	2.19721												
0.852535	2.49249	0.754985	2.19731												
0.854343	2.49099	0.757065	2.1974												
0.856152	2.4895	0.759146	2.1975												
0.857962	2.48802	0.761226	2.1976												
0.859774	2.48656	0.763307	2.19769												
0.861586	2.4851	0.765388	2.19779												
0.8634	2.48366	0.767468	2.19788												
0.865215	2.48223	0.769549	2.19797												
0.867031	2.48081	0.771629	2.19807												
0.868849	2.4794	0.77371	2.19816												
0.870667	2.478	0.77579	2.19825												
0.872487	2.47661	0.777871	2.19834												
0.874307	2.47523	0.779951	2.19843												
0.876129	2.47386	0.782032	2.19852												
0.877952	2.47251	0.784112	2.19861												
0.879776	2.47116	0.786193	2.1987												
0.881601	2.46982	0.788273	2.19879												
0.883427	2.46849	0.790354	2.19888												
0.885255	2.46718	0.792434	2.19897												
0.887083	2.46587	0.794515	2.19906												
0.888912	2.46457	0.796595	2.19914												
0.890743	2.46329	0.798675	2.19923												
0.892575	2.46201	0.800756	2.19932												
0.894407	2.46074	0.802836	2.1994												
0.896241	2.45948	0.804917	2.19949												
0.898076	2.45823	0.806997	2.19957												
0.899911	2.45699	0.809078	2.19966												
0.901748	2.45576	0.811158	2.19974												
0.903586	2.45453	0.813239	2.19983												
0.905425	2.45332	0.815319	2.19991												
0.907265	2.45211	0.8174	2.19999												
0.909106	2.45092	0.81948	2.20008												
0.910948	2.44973	0.82156	2.20016												
0.912791	2.44855	0.823641	2.20024												
0.914634	2.44738	0.825721	2.20032												
0.916479	2.44622	0.827802	2.2004												
0.918325	2.44506	0.829882	2.20048												
0.920172	2.44392	0.831963	2.20056												
0.92202	2.44278	0.834043	2.20064												
0.923869	2.44165	0.836123	2.20072												
0.925718	2.44053	0.838204	2.2008												
0.927569	2.43942	0.840284	2.20088												
0.929421	2.43831	0.842365	2.20096												
0.931273	2.43722	0.844445	2.20103												
0.933127	2.43613	0.846526	2.20111												
0.934981	2.43505	0.848606	2.20119												
0.936836	2.43397	0.850686	2.20126												
0.938693	2.43291	0.852767	2.20134												
0.94055	2.43185	0.854847	2.20142												
0.942408	2.4308	0.856928	2.20149												
0.944267	2.42975	0.859008	2.20157												
0.946127	2.42872	0.861088	2.20164												
0.947988	2.42769	0.863169	2.20172												
0.949849	2.42666	0.865249	2.20179												
0.951712	2.42565	0.86733	2.20186												
0.953575	2.42464	0.86941	2.20194												
0.95544	2.42364	0.87149	2.20201												
0.957305	2.42264	0.873571	2.20208												
0.959171	2.42166	0.875651	2.20215												
0.961038	2.42068	0.877731	2.20223												
0.962906	2.4197	0.879812	2.2023												
0.964774	2.41874	0.881892	2.20237												
0.966644	2.41777	0.883973	2.20244												
0.968514	2.41682	0.886053	2.20251												
0.970385	2.41587	0.888133	2.20258												
0.972257	2.41493	0.890214	2.20265												
0.97413	2.414	0.892294	2.20272												
0.976004	2.41307	0.894374	2.20279												
0.977878	2.41215	0.896455	2.20286												
0.979753	2.41123	0.898535	2.20293												
0.981629	2.41032	0.900615	2.20299												
0.983506	2.40942	0.902696	2.20306												
0.985384	2.40852	0.904776	2.20313												
0.987262	2.40763	0.906856	2.2032												
0.989142	2.40674	0.908937	2.20326												
0.991022	2.40586	0.911017	2.20333												
0.992903	2.40499	0.913097	2.2034												
0.994784	2.40412	0.915178	2.20346												
0.996666	2.40326	0.917258	2.20353												
0.99855	2.4024	0.919338	2.20359												
1.00043	2.40155	0.921419	2.20366												
		0.923499	2.20372												
		0.925579	2.20379												
		0.92766	2.20385												
		0.92974	2.20392												
		0.93182	2.20398												
		0.933901	2.20404												
		0.935981	2.20411												
		0.938061	2.20417												
		0.940142	2.20423												
		0.942222	2.2043												
		0.944302	2.20436												
		0.946382	2.20442												
		0.948463	2.20448												
		0.950543	2.20454												
		0.952623	2.2046												
		0.954704	2.20466												
		0.956784	2.20472												
		0.958864	2.20478												
		0.960944	2.20484												
		0.963025	2.2049												
		0.965105	2.20496												
		0.967185	2.20502												
		0.969266	2.20508												
		0.971346	2.20514												
		0.973426	2.2052												
		0.975506	2.20526												
		0.977587	2.20531												
		0.979667	2.20537												
		0.981747	2.20543												
		0.983827	2.20549												
		0.985908	2.20554												
		0.987988	2.2056												
		0.990068	2.20566												
		0.992148	2.20571												
		0.994229	2.20577												
		0.996309	2.20582												
		0.998389	2.20588												
		1.00047	2.20593												
