Sym0		Asym0		Sym1		Sym2		Sym3		Asym2		Asym3		Asym4	
461  Points		491  Points		161  Points		124  Points		109  Points		327  Points		135  Points		107  Points	
Freq (MHz)	Vph (m/ms)	Freq (MHz)	Vph (m/ms)	Freq (MHz)	Vph (m/ms)	Freq (MHz)	Vph (m/ms)	Freq (MHz)	Vph (m/ms)	Freq (MHz)	Vph (m/ms)	Freq (MHz)	Vph (m/ms)	Freq (MHz)	Vph (m/ms)
1.9131e-005	8.412	0.000439787	0.230909	0.279509	6913.61	0.481539	1384.54	0.559043	839.127	0.139821	276.734	0.419278	903.18	0.698806	774.639
0.00785622	8.41165	0.00096752	0.341123	0.279605	287.623	0.481594	376.395	0.559169	349.937	0.140293	97.6327	0.419405	300.451	0.698915	381.129
0.0156914	8.41065	0.00168897	0.448243	0.279878	147.009	0.481712	217.852	0.559399	221.14	0.141213	59.6176	0.419659	180.296	0.699099	252.793
0.0235231	8.40903	0.00259177	0.55148	0.280327	98.863	0.481893	153.328	0.559731	161.711	0.142569	43.1983	0.420039	128.874	0.699357	189.159
0.0313492	8.40674	0.00366157	0.65021	0.280952	74.5782	0.482137	118.328	0.560167	127.513	0.144347	34.1083	0.420545	100.345	0.699689	151.157
0.039168	8.4038	0.00488302	0.744016	0.28175	59.9607	0.482446	96.3684	0.560705	105.303	0.146529	28.3765	0.421177	82.2177	0.700095	125.903
0.0469776	8.40019	0.00624005	0.832588	0.282719	50.2111	0.482821	81.3108	0.561345	89.7235	0.149092	24.4596	0.421934	69.6905	0.700575	107.909
0.054776	8.39589	0.00771686	0.915791	0.283856	43.2557	0.483262	70.3473	0.562087	78.197	0.152014	21.6325	0.422814	60.5223	0.701128	94.4411
0.0625611	8.39089	0.00929843	0.993619	0.285161	38.0519	0.483771	62.0111	0.562929	69.3281	0.155272	19.5095	0.423818	53.5273	0.701755	83.9856
0.070331	8.38519	0.0109706	1.06616	0.286627	34.0183	0.484349	55.4616	0.563872	62.2962	0.158842	17.8664	0.424944	48.0191	0.702455	75.6356
0.0780835	8.37876	0.0127206	1.13359	0.288254	30.805	0.484998	50.1822	0.564914	56.5867	0.162699	16.5644	0.426191	43.5725	0.703229	68.8154
0.0858163	8.37157	0.0145366	1.19611	0.290035	28.1887	0.485719	45.838	0.566055	51.861	0.166822	15.5127	0.427557	39.9106	0.704074	63.1414
0.093527	8.36361	0.0164085	1.254	0.291969	26.0204	0.486515	42.2024	0.567294	47.8868	0.171188	14.6495	0.429042	36.8448	0.704992	58.3485
0.101213	8.35486	0.0183273	1.30754	0.29405	24.1967	0.487388	39.1167	0.568629	44.4998	0.175778	13.9315	0.430643	34.2425	0.705982	54.2473
0.108872	8.34527	0.0202853	1.35703	0.296274	22.6437	0.48834	36.4663	0.570061	41.5801	0.180572	13.3273	0.432359	32.0077	0.707044	50.6993
0.116502	8.33483	0.0222757	1.40275	0.298636	21.307	0.489373	34.1664	0.571586	39.0384	0.185553	12.8138	0.434189	30.0692	0.708176	47.6004
0.124098	8.3235	0.0242927	1.44499	0.301133	20.146	0.490489	32.1529	0.573206	36.8069	0.190704	12.3735	0.43613	28.3729	0.70938	44.8712
0.131659	8.31123	0.0260686	1.47918	0.303759	19.1293	0.491692	30.3765	0.574918	34.8329	0.196011	11.9928	0.438181	26.8773	0.710653	42.4501
0.13918	8.29798	0.0275934	1.50654	0.30651	18.2328	0.492985	28.7987	0.576722	33.0751	0.20146	11.6614	0.44034	25.5496	0.711997	40.2881
0.146659	8.28372	0.0288609	1.528	0.309381	17.4372	0.494369	27.3889	0.578616	31.5006	0.207038	11.3711	0.442605	24.3639	0.713409	38.3464
0.154091	8.26839	0.0298667	1.54425	0.31237	16.7272	0.495848	26.1224	0.580598	30.0826	0.212734	11.1151	0.444974	23.2994	0.71489	36.5935
0.161473	8.25194	0.0306082	1.55582	0.31547	16.0905	0.497425	24.9794	0.582669	28.7997	0.218536	10.8882	0.447445	22.339	0.71644	35.0034
0.1688	8.23431	0.0310835	1.56306	0.318679	15.5168	0.499104	23.9435	0.584827	27.6337	0.224436	10.6861	0.450016	21.4687	0.718057	33.555
0.176067	8.21544	0.0317677	1.57325	0.321993	14.9977	0.500886	23.0009	0.58707	26.57	0.230424	10.5052	0.452684	20.6769	0.71974	32.2304
0.18327	8.19526	0.0325127	1.58404	0.325408	14.5264	0.502775	22.1404	0.589397	25.596	0.235707	10.3625	0.455448	19.954	0.721491	31.0148
0.190404	8.17371	0.0335277	1.59825	0.328923	14.097	0.504775	21.3524	0.591807	24.7012	0.240256	10.2506	0.458306	19.2917	0.723307	29.8955
0.197462	8.15071	0.0348141	1.6155	0.332534	13.7046	0.506888	20.6288	0.594299	23.8767	0.244045	10.1641	0.461254	18.6831	0.725188	28.8619
0.204439	8.12618	0.0363732	1.63533	0.336241	13.3449	0.509117	19.9626	0.596872	23.1149	0.247059	10.0992	0.464292	18.1223	0.727134	27.9046
0.211328	8.10005	0.0382063	1.65725	0.340041	13.0145	0.511465	19.3478	0.599524	22.409	0.249284	10.0535	0.467416	17.604	0.729144	27.0158
0.218123	8.07224	0.040314	1.68075	0.343933	12.7102	0.513935	18.7794	0.602254	21.7535	0.250712	10.0249	0.470625	17.124	0.731216	26.1885
0.224818	8.04266	0.0424251	1.70263	0.347919	12.4295	0.51653	18.2528	0.605062	21.1434	0.25277	9.98501	0.473917	16.6784	0.733352	25.4169
0.231403	8.01124	0.0445388	1.72303	0.351997	12.1701	0.519251	17.7641	0.607945	20.5743	0.255014	9.94295	0.477289	16.2638	0.735549	24.6956
0.237873	7.9779	0.0466542	1.74207	0.356169	11.9301	0.522102	17.3099	0.610903	20.0424	0.258076	9.88788	0.480739	15.8773	0.737807	24.02
0.24422	7.94256	0.0487706	1.75987	0.360436	11.7077	0.525083	16.8871	0.613934	19.5445	0.261966	9.82155	0.484265	15.5163	0.740125	23.3861
0.250435	7.90517	0.0508876	1.77654	0.3648	11.5013	0.528197	16.4931	0.617039	19.0775	0.266693	9.7459	0.487866	15.1785	0.742503	22.7903
0.256512	7.86566	0.0530047	1.79216	0.369263	11.3098	0.531445	16.1253	0.620214	18.6387	0.272269	9.66296	0.491538	14.862	0.74494	22.2294
0.262442	7.82398	0.0551217	1.80682	0.373826	11.1319	0.534828	15.7818	0.62346	18.226	0.278704	9.57474	0.495281	14.5648	0.747434	21.7005
0.26822	7.78013	0.0572383	1.8206	0.378493	10.9666	0.538347	15.4606	0.626775	17.8371	0.285174	9.49314	0.499091	14.2855	0.749987	21.2011
0.273838	7.73408	0.0593543	1.83356	0.383266	10.813	0.542002	15.1599	0.630159	17.4701	0.291673	9.41741	0.502968	14.0225	0.752596	20.7289
0.279291	7.68584	0.0614696	1.84579	0.387512	10.688	0.545792	14.8783	0.63361	17.1235	0.298198	9.34692	0.50691	13.7746	0.75526	20.2819
0.284574	7.63545	0.0635841	1.85732	0.391197	10.5875	0.549719	14.6141	0.637128	16.7957	0.304746	9.2811	0.510913	13.5406	0.75798	19.8581
0.289683	7.58297	0.0656976	1.86821	0.39429	10.5085	0.55378	14.3662	0.640711	16.4852	0.311311	9.21946	0.514978	13.3194	0.760754	19.4558
0.294615	7.52848	0.0678101	1.87851	0.396765	10.4484	0.557975	14.1335	0.644359	16.191	0.317892	9.16157	0.519102	13.1102	0.763582	19.0737
0.29937	7.47207	0.0699216	1.88827	0.398602	10.4056	0.562302	13.9147	0.648071	15.9117	0.324485	9.10702	0.523284	12.912	0.766463	18.7102
0.303945	7.41387	0.0720321	1.89752	0.399784	10.3788	0.566759	13.7089	0.651847	15.6465	0.331085	9.05549	0.527522	12.724	0.769395	18.3641
0.308344	7.35403	0.0741415	1.9063	0.401494	10.341	0.571344	13.5152	0.655685	15.3944	0.337691	9.00666	0.531814	12.5456	0.77238	18.0343
0.312567	7.2927	0.07625	1.91465	0.403366	10.3009	0.576055	13.3328	0.659585	15.1544	0.3443	8.96026	0.53616	12.3761	0.775414	17.7197
0.316618	7.23006	0.0783574	1.92259	0.405935	10.2481	0.580888	13.1609	0.663547	14.926	0.350908	8.91604	0.540558	12.2149	0.778499	17.4193
0.320502	7.16627	0.0804639	1.93015	0.40922	10.1839	0.585841	12.9987	0.66757	14.7082	0.357513	8.87379	0.545007	12.0615	0.781633	17.1322
0.324222	7.10153	0.0825693	1.93735	0.413248	10.11	0.59091	12.8456	0.671654	14.5005	0.364112	8.83331	0.549505	11.9154	0.784815	16.8577
0.327786	7.036	0.0846739	1.94423	0.418046	10.0282	0.596092	12.701	0.675798	14.3023	0.370702	8.79441	0.554052	11.7761	0.788045	16.595
0.3312	6.96988	0.0867775	1.9508	0.42365	9.94043	0.601382	12.5643	0.680003	14.113	0.377281	8.75693	0.558646	11.6432	0.791321	16.3434
0.334469	6.90333	0.0888803	1.95708	0.429354	9.85873	0.606778	12.435	0.684268	13.9321	0.383846	8.72071	0.563287	11.5163	0.794645	16.1021
0.337602	6.83652	0.0909822	1.96309	0.435153	9.78261	0.612274	12.3125	0.688593	13.7592	0.390394	8.68564	0.567974	11.395	0.798013	15.8708
0.340604	6.76959	0.0930833	1.96884	0.441043	9.71161	0.617866	12.1965	0.692979	13.5937	0.396924	8.65158	0.572706	11.2791	0.801427	15.6487
0.343483	6.7027	0.0951837	1.97436	0.447018	9.6453	0.62355	12.0864	0.697425	13.4354	0.403432	8.61841	0.577483	11.1683	0.804885	15.4354
0.346247	6.63598	0.0972832	1.97965	0.453073	9.58329	0.629321	11.9819	0.701933	13.2838	0.409916	8.58604	0.581681	11.0755	0.808386	15.2304
0.3489	6.56953	0.0993822	1.98474	0.459201	9.5252	0.635174	11.8825	0.706502	13.1387	0.416374	8.55436	0.585285	10.9992	0.811931	15.0333
0.351452	6.50348	0.10148	1.98962	0.465397	9.4707	0.641105	11.788	0.711135	12.9996	0.422803	8.52329	0.588284	10.9379	0.815518	14.8437
0.353907	6.43791	0.103578	1.99432	0.471655	9.41946	0.647108	11.698	0.71583	12.8663	0.4292	8.49274	0.590666	10.8906	0.819146	14.6611
0.356271	6.37292	0.105675	1.99883	0.477969	9.37117	0.653178	11.6122	0.720591	12.7385	0.435563	8.46263	0.592425	10.8564	0.822816	14.4852
0.358551	6.30856	0.107771	2.00318	0.484332	9.32558	0.65931	11.5302	0.725417	12.616	0.44189	8.43291	0.593553	10.8348	0.826526	14.3157
0.360752	6.24492	0.109867	2.00737	0.49074	9.28244	0.665499	11.4518	0.730311	12.4986	0.448178	8.40349	0.595178	10.8041	0.830277	14.1523
0.36288	6.18204	0.111962	2.01142	0.497186	9.24151	0.671738	11.3768	0.735275	12.3861	0.454425	8.37432	0.59695	10.7712	0.834066	13.9947
0.364938	6.11997	0.114057	2.01532	0.503666	9.20259	0.678023	11.3048	0.74031	12.2782	0.460627	8.34534	0.599369	10.7273	0.837894	13.8425
0.366932	6.05874	0.116151	2.01908	0.510175	9.1655	0.683531	11.2445	0.745418	12.1748	0.466784	8.31651	0.602442	10.6729	0.841761	13.6956
0.368866	5.9984	0.118245	2.02272	0.516709	9.13005	0.688248	11.1946	0.750603	12.0757	0.472892	8.28776	0.606179	10.609	0.845665	13.5536
0.370744	5.93896	0.120338	2.02623	0.523263	9.09611	0.692161	11.1544	0.755866	11.9808	0.478949	8.25905	0.610592	10.5366	0.849607	13.4165
0.37257	5.88044	0.122431	2.02963	0.529832	9.06352	0.695261	11.1233	0.761212	11.8899	0.484953	8.23035	0.615694	10.4565	0.853585	13.2839
0.374348	5.82287	0.124524	2.03292	0.536415	9.03216	0.697545	11.1007	0.766641	11.803	0.490901	8.20161	0.620838	10.3796	0.8576	13.1556
0.37608	5.76625	0.126616	2.03611	0.543005	9.00192	0.699008	11.0864	0.772159	11.7198	0.496791	8.1728	0.626023	10.3058	0.86165	13.0315
0.37777	5.71059	0.128707	2.03919	0.549602	8.97269	0.701112	11.0661	0.777767	11.6403	0.502621	8.14389	0.631248	10.2348	0.865736	12.9113
0.379421	5.65588	0.130799	2.04218	0.556201	8.94437	0.703402	11.0442	0.78347	11.5644	0.508389	8.11484	0.636514	10.1666	0.869856	12.795
0.381036	5.60215	0.13289	2.04508	0.5628	8.91689	0.706519	11.0149	0.788518	11.5011	0.514093	8.08564	0.64182	10.1011	0.874011	12.6823
0.382616	5.54937	0.13498	2.04789	0.569396	8.89016	0.710465	10.9784	0.792881	11.4492	0.519731	8.05626	0.647167	10.038	0.8782	12.5731
0.384165	5.49755	0.137071	2.05062	0.575986	8.86411	0.715241	10.9353	0.796531	11.4076	0.5253	8.02667	0.652553	9.97736	0.882423	12.4673
0.385685	5.44668	0.139161	2.05326	0.582568	8.83868	0.720847	10.8859	0.799445	11.3756	0.5308	7.99686	0.657979	9.91902	0.886678	12.3646
0.387178	5.39675	0.141251	2.05584	0.589141	8.81381	0.727277	10.8306	0.801603	11.3526	0.536229	7.96682	0.663443	9.86287	0.890966	12.2651
0.388645	5.34775	0.14334	2.05834	0.595701	8.78944	0.7337	10.7767	0.802991	11.338	0.541585	7.93654	0.668947	9.80883	0.895287	12.1685
0.390088	5.29967	0.145429	2.06077	0.602248	8.76553	0.74011	10.7241	0.804996	11.3174	0.546867	7.906	0.674489	9.7568	0.899639	12.0747
0.39151	5.2525	0.147518	2.06313	0.608778	8.74203	0.746501	10.6726	0.807188	11.2954	0.552074	7.8752	0.680068	9.70669	0.904023	11.9837
0.392912	5.20623	0.149607	2.06543	0.615291	8.7189	0.752869	10.6222	0.81019	11.2661	0.557204	7.84413	0.685685	9.65842	0.908438	11.8953
0.394295	5.16085	0.151696	2.06767	0.621784	8.69611	0.75921	10.5727	0.814024	11.23	0.562258	7.8128	0.691338	9.6119	0.912311	11.8204
0.395661	5.11633	0.153784	2.06985	0.628257	8.67361	0.76552	10.524	0.818713	11.1879	0.567233	7.7812	0.697026	9.56706	0.91563	11.7579
0.397011	5.07267	0.155872	2.07197	0.634707	8.65137	0.771796	10.4761	0.824289	11.1405	0.572131	7.74934	0.702749	9.52382	0.918388	11.7073
0.398346	5.02985	0.15796	2.07403	0.641132	8.62937	0.778036	10.4289	0.830787	11.0887	0.576949	7.71722	0.708506	9.48211	0.920576	11.6679
0.399498	4.99321	0.160047	2.07605	0.647533	8.60758	0.78424	10.3824	0.837391	11.0395	0.581689	7.68484	0.714295	9.44186	0.92219	11.6393
0.400473	4.96246	0.162135	2.07801	0.653906	8.58597	0.790405	10.3365	0.844097	10.9929	0.58635	7.65223	0.720116	9.40299	0.923225	11.6211
0.401274	4.93737	0.164222	2.07993	0.660252	8.56451	0.796534	10.2913	0.850905	10.9487	0.590932	7.61937	0.725967	9.36545	0.924715	11.5951
0.401904	4.91774	0.166309	2.0818	0.666568	8.54319	0.802626	10.2466	0.85781	10.9068	0.595435	7.5863	0.731846	9.32917	0.926338	11.5672
0.402366	4.90343	0.168396	2.08362	0.672853	8.52198	0.808684	10.2026	0.86481	10.8671	0.599859	7.55301	0.737754	9.29409	0.928551	11.5297
0.40266	4.89432	0.170483	2.0854	0.679106	8.50087	0.814709	10.1592	0.871901	10.8294	0.604206	7.51953	0.743687	9.26015	0.931361	11.483
0.403083	4.8813	0.17257	2.08714	0.685326	8.47983	0.820703	10.1164	0.879079	10.7936	0.608475	7.48586	0.749645	9.22728	0.934773	11.4276
0.403542	4.86724	0.174656	2.08883	0.691512	8.45885	0.826669	10.0743	0.88634	10.7597	0.612667	7.45202	0.755626	9.19545	0.938795	11.3639
0.404163	4.84827	0.176742	2.09049	0.697662	8.43792	0.832611	10.0328	0.893678	10.7275	0.616784	7.41803	0.761628	9.16458	0.943438	11.2928
0.404946	4.82454	0.178829	2.09211	0.703776	8.41702	0.83853	9.99192	0.901091	10.6968	0.620826	7.3839	0.76765	9.13464	0.948108	11.2235
0.405888	4.79621	0.180915	2.09369	0.709852	8.39613	0.84443	9.95173	0.908573	10.6676	0.624793	7.34964	0.773691	9.10557	0.952807	11.1561
0.406988	4.7635	0.183001	2.09524	0.715889	8.37524	0.850313	9.91223	0.916121	10.6399	0.628688	7.31528	0.779748	9.07732	0.957532	11.0904
0.408242	4.72665	0.185086	2.09676	0.721887	8.35435	0.856182	9.87341	0.92373	10.6134	0.63251	7.28083	0.78582	9.04986	0.962285	11.0265
0.40949	4.6905	0.187172	2.09824	0.727844	8.33343	0.86204	9.83529	0.931397	10.5881	0.636262	7.2463	0.791906	9.02312	0.967064	10.9642
0.410732	4.65504	0.189257	2.09969	0.73376	8.31249	0.867889	9.79787	0.939118	10.564	0.639944	7.21171	0.798003	8.99708	0.971869	10.9035
0.411968	4.62026	0.191343	2.1011	0.739632	8.2915	0.873731	9.76116	0.946889	10.541	0.643558	7.17708	0.80411	8.97169	0.976701	10.8444
0.413199	4.58614	0.193428	2.10249	0.745462	8.27047	0.879569	9.72515	0.954707	10.5189	0.647104	7.14242	0.810225	8.94692	0.981558	10.7867
0.414425	4.55268	0.195513	2.10385	0.751247	8.24939	0.885404	9.68985	0.96257	10.4978	0.650585	7.10774	0.816348	8.92273	0.98644	10.7305
0.415648	4.51985	0.197598	2.10518	0.756987	8.22824	0.891239	9.65525	0.970473	10.4775	0.654001	7.07307	0.822475	8.89908	0.991348	10.6757
0.416867	4.48764	0.199683	2.10648	0.762681	8.20702	0.897073	9.62135	0.978415	10.458	0.657354	7.03841	0.828606	8.87593	0.99628	10.6222
0.418083	4.45603	0.201768	2.10776	0.768329	8.18572	0.90291	9.58814	0.986392	10.4393	0.660646	7.00378	0.834739	8.85327	1.00124	10.5701
0.419296	4.42502	0.203853	2.10901	0.77393	8.16435	0.90875	9.55562	0.994402	10.4214	0.663876	6.9692	0.840872	8.83106		
0.420507	4.3946	0.205938	2.11024	0.779482	8.14289	0.914595	9.52377	1.00244	10.404	0.667048	6.93467	0.847004	8.80926		
0.421717	4.36474	0.208022	2.11144	0.784987	8.12135	0.920444	9.49258			0.670162	6.90021	0.853134	8.78785		
0.422925	4.33543	0.210107	2.11262	0.790442	8.09971	0.926299	9.46205			0.673219	6.86582	0.859259	8.76681		
0.424132	4.30667	0.212191	2.11378	0.795848	8.07798	0.932161	9.43216			0.676222	6.83153	0.865379	8.74611		
0.425338	4.27844	0.214275	2.11491	0.801204	8.05616	0.938031	9.40291			0.679171	6.79734	0.871492	8.72573		
0.426544	4.25074	0.21636	2.11603	0.806509	8.03424	0.943907	9.37426			0.682067	6.76326	0.877596	8.70564		
0.427749	4.22353	0.218444	2.11712	0.811764	8.01222	0.949792	9.34622			0.684912	6.72931	0.883691	8.68583		
0.428955	4.19683	0.220528	2.11819	0.816968	7.99011	0.955684	9.31877			0.687708	6.69548	0.889775	8.66626		
0.43016	4.17061	0.222612	2.11924	0.82212	7.9679	0.961584	9.29189			0.690455	6.6618	0.895847	8.64693		
0.431367	4.14486	0.224696	2.12027	0.827222	7.94559	0.967493	9.26556			0.693155	6.62826	0.901905	8.62782		
0.432574	4.11958	0.22678	2.12129	0.832271	7.92319	0.973409	9.23978			0.695808	6.59489	0.907949	8.6089		
0.433782	4.09476	0.228864	2.12228	0.837269	7.90069	0.979334	9.21453			0.698418	6.56167	0.913976	8.59017		
0.434992	4.07038	0.230947	2.12326	0.842215	7.8781	0.985266	9.18978			0.700983	6.52863	0.919986	8.5716		
0.436203	4.04643	0.233031	2.12422	0.847109	7.85542	0.991205	9.16553			0.703506	6.49576	0.925979	8.55318		
0.437415	4.02291	0.235115	2.12517	0.851952	7.83266	0.997151	9.14175			0.705988	6.46308	0.931951	8.5349		
0.438629	3.9998	0.237198	2.1261	0.856743	7.8098	1.0031	9.11844			0.70843	6.43059	0.937904	8.51674		
0.439845	3.9771	0.239282	2.12701	0.861482	7.78687					0.710833	6.39829	0.943835	8.4987		
0.441063	3.95479	0.241365	2.12791	0.866169	7.76386					0.713199	6.36619	0.949743	8.48075		
0.442283	3.93288	0.243448	2.12879	0.870806	7.74077					0.715527	6.33429	0.955628	8.46289		
0.443506	3.91135	0.245532	2.12965	0.875391	7.71761					0.71782	6.30261	0.961489	8.44512		
0.444731	3.89018	0.247615	2.13051	0.879925	7.69438					0.720078	6.27113	0.967325	8.42741		
0.445958	3.86938	0.249698	2.13134	0.884408	7.67109					0.722302	6.23987	0.973134	8.40976		
0.447188	3.84894	0.251781	2.13217	0.888842	7.64774					0.724494	6.20884	0.978917	8.39216		
0.448421	3.82885	0.253864	2.13298	0.893225	7.62433					0.726654	6.17802	0.984671	8.3746		
0.449657	3.8091	0.255948	2.13378	0.897558	7.60087					0.728784	6.14743	0.990397	8.35708		
0.450895	3.78968	0.258031	2.13456	0.901842	7.57736					0.730883	6.11706	0.996094	8.33959		
0.452137	3.77059	0.260113	2.13534	0.906077	7.55381					0.732953	6.08693	1.00176	8.32212		
0.453382	3.75182	0.262196	2.1361	0.910263	7.53022					0.734996	6.05702				
0.454629	3.73336	0.264279	2.13685	0.914401	7.5066					0.737011	6.02735				
0.455881	3.71521	0.266362	2.13759	0.918491	7.48294					0.739	5.99791				
0.457135	3.69736	0.268445	2.13831	0.922534	7.45926					0.740963	5.96871				
0.458393	3.6798	0.270528	2.13903	0.92653	7.43556					0.742901	5.93974				
0.459654	3.66253	0.27261	2.13973	0.93048	7.41183					0.744815	5.91102				
0.460919	3.64555	0.274693	2.14043	0.934383	7.3881					0.746706	5.88253				
0.462187	3.62884	0.276776	2.14111	0.938242	7.36435					0.748574	5.85427				
0.463459	3.6124	0.278858	2.14178	0.942055	7.3406					0.750421	5.82626				
0.464734	3.59622	0.280941	2.14245	0.945823	7.31685					0.752246	5.79849				
0.466013	3.58031	0.283023	2.1431	0.949548	7.2931					0.75405	5.77095				
0.467296	3.56464	0.285106	2.14375	0.953229	7.26935					0.755835	5.74366				
0.468582	3.54923	0.287188	2.14438	0.956867	7.24561					0.7576	5.7166				
0.469872	3.53406	0.28927	2.14501	0.960463	7.22189					0.759347	5.68978				
0.471166	3.51914	0.291353	2.14563	0.964017	7.19818					0.761076	5.66319				
0.472464	3.50444	0.293435	2.14624	0.967529	7.1745					0.762787	5.63685				
0.473765	3.48998	0.295517	2.14684	0.971	7.15084					0.764481	5.61074				
0.47507	3.47574	0.2976	2.14743	0.974431	7.1272					0.766159	5.58486				
0.476379	3.46172	0.299682	2.14801	0.977823	7.1036					0.767821	5.55922				
0.477693	3.44792	0.301764	2.14859	0.981174	7.08002					0.769468	5.53381				
0.479009	3.43432	0.303846	2.14916	0.984487	7.05649					0.771099	5.50864				
0.48033	3.42094	0.305929	2.14972	0.987762	7.033					0.772717	5.4837				
0.481655	3.40776	0.308011	2.15027	0.990999	7.00954					0.77432	5.45898				
0.482983	3.39479	0.310093	2.15082	0.994199	6.98614					0.77591	5.4345				
0.484316	3.382	0.312175	2.15136	0.997362	6.96278					0.777488	5.41024				
0.485652	3.36941	0.314257	2.15189	1.00049	6.93947					0.779052	5.3862				
0.486993	3.35701	0.316339	2.15241							0.780605	5.3624				
0.488337	3.3448	0.318421	2.15293							0.782146	5.33881				
0.489685	3.33277	0.320503	2.15344							0.783675	5.31544				
0.491037	3.32091	0.322585	2.15395							0.785193	5.2923				
0.492393	3.30923	0.324667	2.15444							0.786701	5.26937				
0.493753	3.29772	0.326749	2.15494							0.788199	5.24666				
0.495117	3.28638	0.32883	2.15542							0.789687	5.22417				
0.496485	3.2752	0.330912	2.1559							0.791165	5.20188				
0.497857	3.26419	0.332994	2.15638							0.792634	5.17981				
0.499232	3.25334	0.335076	2.15684							0.794095	5.15795				
0.500612	3.24264	0.337158	2.15731							0.795546	5.1363				
0.501995	3.23209	0.339239	2.15776							0.79699	5.11485				
0.503383	3.2217	0.341321	2.15821							0.798425	5.09361				
0.504774	3.21145	0.343403	2.15866							0.799853	5.07256				
0.506169	3.20135	0.345484	2.1591							0.801273	5.05172				
0.507568	3.19139	0.347566	2.15953							0.802687	5.03108				
0.50897	3.18158	0.349648	2.15996							0.804093	5.01064				
0.510377	3.1719	0.351729	2.16039							0.805493	4.99039				
0.511787	3.16235	0.353811	2.16081							0.806886	4.97033				
0.513202	3.15294	0.355893	2.16122							0.808274	4.95046				
0.51462	3.14365	0.357974	2.16163							0.809655	4.93079				
0.516041	3.1345	0.360056	2.16204							0.811031	4.9113				
0.517467	3.12547	0.362137	2.16244							0.812401	4.89199				
0.518896	3.11657	0.364219	2.16284							0.813766	4.87288				
0.520329	3.10778	0.3663	2.16323							0.815126	4.85394				
0.521766	3.09912	0.368382	2.16362							0.816481	4.83518				
0.523206	3.09057	0.370463	2.164							0.817832	4.8166				
0.524651	3.08214	0.372545	2.16438							0.819178	4.7982				
0.526098	3.07382	0.374626	2.16476							0.820519	4.77998				
0.52755	3.06561	0.376707	2.16513							0.821857	4.76192				
0.529005	3.05751	0.378789	2.16549							0.823191	4.74404				
0.530464	3.04952	0.38087	2.16586							0.824521	4.72633				
0.531926	3.04164	0.382952	2.16621							0.825847	4.70878				
0.533392	3.03386	0.385033	2.16657							0.82717	4.69141				
0.534861	3.02618	0.387114	2.16692							0.82849	4.67419				
0.536334	3.0186	0.389195	2.16727							0.829806	4.65714				
0.537811	3.01112	0.391277	2.16761							0.83112	4.64025				
0.539291	3.00374	0.393358	2.16795							0.832431	4.62351				
0.540774	2.99645	0.395439	2.16829							0.833739	4.60694				
0.542261	2.98926	0.397521	2.16862							0.835044	4.59052				
0.543752	2.98216	0.399602	2.16895							0.836347	4.57425				
0.545246	2.97515	0.401683	2.16928							0.837648	4.55814				
0.546743	2.96823	0.403764	2.1696							0.838946	4.54218				
0.548244	2.9614	0.405845	2.16992							0.840243	4.52636				
0.549748	2.95465	0.407927	2.17024							0.841537	4.5107				
0.551256	2.94799	0.410008	2.17055							0.84283	4.49518				
0.552766	2.94142	0.412089	2.17086							0.844121	4.4798				
0.554281	2.93492	0.41417	2.17117							0.84541	4.46457				
0.555798	2.92851	0.416251	2.17147							0.846698	4.44948				
0.557319	2.92218	0.418332	2.17177							0.847984	4.43452				
0.558843	2.91593	0.420414	2.17207							0.849269	4.41971				
0.56037	2.90975	0.422495	2.17237							0.850552	4.40503				
0.5619	2.90365	0.424576	2.17266							0.851835	4.39049				
0.563434	2.89762	0.426657	2.17295							0.853116	4.37608				
0.564971	2.89167	0.428738	2.17323							0.854397	4.3618				
0.566511	2.88579	0.430819	2.17352							0.855676	4.34765				
0.568054	2.87998	0.4329	2.1738							0.856955	4.33364				
0.5696	2.87425	0.434981	2.17408							0.858233	4.31975				
0.57115	2.86858	0.437062	2.17435							0.859511	4.30598				
0.572702	2.86298	0.439143	2.17463							0.860788	4.29234				
0.574258	2.85745	0.441224	2.1749							0.862064	4.27883				
0.575816	2.85198	0.443305	2.17517							0.86334	4.26544				
0.577378	2.84658	0.445386	2.17543							0.864615	4.25217				
0.578942	2.84124	0.447467	2.17569							0.865891	4.23901				
0.58051	2.83597	0.449548	2.17596							0.867165	4.22598				
0.582081	2.83075	0.451629	2.17621							0.86844	4.21306				
0.583654	2.8256	0.45371	2.17647							0.869715	4.20026				
0.585231	2.82051	0.455791	2.17672							0.87099	4.18758				
0.58681	2.81548	0.457872	2.17697							0.872264	4.175				
0.588392	2.81051	0.459953	2.17722							0.873539	4.16254				
0.589977	2.8056	0.462034	2.17747							0.874814	4.15019				
0.591565	2.80074	0.464114	2.17772							0.876089	4.13795				
0.593156	2.79594	0.466195	2.17796							0.877364	4.12582				
0.59475	2.79119	0.468276	2.1782							0.87864	4.11379				
0.596346	2.7865	0.470357	2.17844							0.879916	4.10187				
0.597945	2.78186	0.472438	2.17867							0.881192	4.09006				
0.599547	2.77728	0.474519	2.17891							0.882469	4.07835				
0.601152	2.77274	0.4766	2.17914							0.883746	4.06674				
0.602759	2.76826	0.47868	2.17937							0.885024	4.05523				
0.604369	2.76383	0.480761	2.1796							0.886302	4.04383				
0.605982	2.75945	0.482842	2.17982							0.887581	4.03252				
0.607598	2.75511	0.484923	2.18005							0.88886	4.02131				
0.609216	2.75083	0.487004	2.18027							0.89014	4.0102				
0.610837	2.74659	0.489084	2.18049							0.891421	3.99918				
0.61246	2.7424	0.491165	2.18071							0.892703	3.98826				
0.614086	2.73826	0.493246	2.18093							0.893985	3.97743				
0.615714	2.73416	0.495327	2.18114							0.895268	3.9667				
0.617346	2.73011	0.497408	2.18135							0.896552	3.95606				
0.618979	2.7261	0.499488	2.18157							0.897837	3.94551				
0.620615	2.72214	0.501569	2.18178							0.899123	3.93505				
0.622254	2.71822	0.50365	2.18198							0.90041	3.92468				
0.623895	2.71434	0.50573	2.18219							0.901698	3.91439				
0.625539	2.7105	0.507811	2.18239							0.902987	3.9042				
0.627185	2.70671	0.509892	2.1826							0.904276	3.89409				
0.628833	2.70296	0.511973	2.1828							0.905567	3.88406				
0.630484	2.69924	0.514053	2.183							0.906859	3.87412				
0.632138	2.69557	0.516134	2.1832							0.908152	3.86427				
0.633793	2.69193	0.518215	2.18339							0.909447	3.85449				
0.635451	2.68834	0.520295	2.18359							0.910742	3.8448				
0.637112	2.68478	0.522376	2.18378							0.912039	3.83519				
0.638775	2.68126	0.524457	2.18397							0.913336	3.82566				
0.64044	2.67778	0.526537	2.18416							0.914635	3.81621				
0.642107	2.67433	0.528618	2.18435							0.915936	3.80683				
0.643777	2.67092	0.530699	2.18454							0.917237	3.79754				
0.645449	2.66755	0.532779	2.18472							0.91854	3.78832				
0.647123	2.66421	0.53486	2.18491							0.919844	3.77918				
0.6488	2.6609	0.53694	2.18509							0.92115	3.77011				
0.650478	2.65763	0.539021	2.18527							0.922457	3.76112				
0.652159	2.6544	0.541102	2.18545							0.923765	3.7522				
0.653842	2.65119	0.543182	2.18563							0.925075	3.74335				
0.655528	2.64802	0.545263	2.18581							0.926386	3.73457				
0.657215	2.64489	0.547343	2.18598							0.927698	3.72587				
0.658905	2.64178	0.549424	2.18616							0.929012	3.71724				
0.660597	2.63871	0.551505	2.18633							0.930328	3.70868				
0.662291	2.63566	0.553585	2.1865							0.931644	3.70018				
0.663986	2.63265	0.555666	2.18668							0.932963	3.69176				
0.665685	2.62967	0.557746	2.18685							0.934283	3.6834				
0.667385	2.62672	0.559827	2.18701							0.935604	3.67511				
0.669087	2.6238	0.561907	2.18718							0.936927	3.66689				
0.670791	2.6209	0.563988	2.18735							0.938251	3.65873				
0.672497	2.61804	0.566068	2.18751							0.939577	3.65064				
0.674206	2.6152	0.568149	2.18767							0.940904	3.64261				
0.675916	2.6124	0.57023	2.18784							0.942234	3.63464				
0.677628	2.60962	0.57231	2.188							0.943564	3.62674				
0.679343	2.60687	0.574391	2.18816							0.944896	3.6189				
0.681059	2.60414	0.576471	2.18832							0.94623	3.61112				
0.682777	2.60144	0.578552	2.18847							0.947566	3.60341				
0.684497	2.59877	0.580632	2.18863							0.948903	3.59575				
0.686219	2.59613	0.582713	2.18879							0.950241	3.58816				
0.687943	2.59351	0.584793	2.18894							0.951582	3.58062				
0.689669	2.59091	0.586874	2.18909							0.952924	3.57314				
0.691397	2.58834	0.588954	2.18924							0.954267	3.56573				
0.693126	2.5858	0.591034	2.1894							0.955613	3.55836				
0.694858	2.58328	0.593115	2.18955							0.95696	3.55106				
0.696591	2.58079	0.595195	2.18969							0.958308	3.54381				
0.698326	2.57831	0.597276	2.18984							0.959659	3.53662				
0.700063	2.57587	0.599356	2.18999							0.961011	3.52948				
0.701802	2.57344	0.601437	2.19014							0.962364	3.5224				
0.703542	2.57104	0.603517	2.19028							0.96372	3.51538				
0.705285	2.56866	0.605598	2.19042							0.965077	3.5084				
0.707029	2.56631	0.607678	2.19057							0.966435	3.50148				
0.708774	2.56397	0.609758	2.19071							0.967796	3.49462				
0.710522	2.56166	0.611839	2.19085							0.969158	3.4878				
0.712271	2.55937	0.613919	2.19099							0.970522	3.48104				
0.714022	2.5571	0.616	2.19113							0.971888	3.47433				
0.715775	2.55485	0.61808	2.19127							0.973255	3.46766				
0.71753	2.55263	0.62016	2.1914							0.974625	3.46105				
0.719286	2.55042	0.622241	2.19154							0.975995	3.45449				
0.721043	2.54823	0.624321	2.19167							0.977368	3.44798				
0.722803	2.54607	0.626402	2.19181							0.978742	3.44152				
0.724564	2.54392	0.628482	2.19194							0.980119	3.4351				
0.726327	2.5418	0.630562	2.19208							0.981496	3.42874				
0.728091	2.53969	0.632643	2.19221							0.982876	3.42242				
0.729857	2.5376	0.634723	2.19234							0.984258	3.41614				
0.731625	2.53554	0.636804	2.19247							0.985641	3.40992				
0.733394	2.53349	0.638884	2.1926							0.987026	3.40374				
0.735165	2.53146	0.640964	2.19273							0.988412	3.3976				
0.736937	2.52945	0.643045	2.19285							0.989801	3.39151				
0.738711	2.52745	0.645125	2.19298							0.991191	3.38547				
0.740486	2.52548	0.647205	2.19311							0.992583	3.37947				
0.742263	2.52352	0.649286	2.19323							0.993977	3.37351				
0.744042	2.52158	0.651366	2.19335							0.995372	3.3676				
0.745822	2.51965	0.653446	2.19348							0.99677	3.36173				
0.747603	2.51775	0.655527	2.1936							0.998169	3.35591				
0.749386	2.51586	0.657607	2.19372							0.99957	3.35012				
0.751171	2.51398	0.659687	2.19384							1.00097	3.34438				
0.752957	2.51213	0.661767	2.19396												
0.754744	2.51029	0.663848	2.19408												
0.756533	2.50847	0.665928	2.1942												
0.758323	2.50666	0.668008	2.19432												
0.760115	2.50487	0.670089	2.19444												
0.761908	2.50309	0.672169	2.19456												
0.763703	2.50133	0.674249	2.19467												
0.765499	2.49959	0.67633	2.19479												
0.767297	2.49786	0.67841	2.1949												
0.769095	2.49614	0.68049	2.19502												
0.770896	2.49444	0.68257	2.19513												
0.772697	2.49276	0.684651	2.19524												
0.7745	2.49108	0.686731	2.19535												
0.776305	2.48943	0.688811	2.19546												
0.77811	2.48779	0.690891	2.19557												
0.779917	2.48616	0.692972	2.19568												
0.781725	2.48454	0.695052	2.19579												
0.783535	2.48294	0.697132	2.1959												
0.785346	2.48135	0.699212	2.19601												
0.787158	2.47978	0.701293	2.19612												
0.788972	2.47822	0.703373	2.19622												
0.790787	2.47667	0.705453	2.19633												
0.792603	2.47514	0.707533	2.19643												
0.79442	2.47362	0.709613	2.19654												
0.796239	2.47211	0.711694	2.19664												
0.798059	2.47061	0.713774	2.19675												
0.79988	2.46913	0.715854	2.19685												
0.801702	2.46765	0.717934	2.19695												
0.803526	2.46619	0.720015	2.19705												
0.80535	2.46475	0.722095	2.19715												
0.807176	2.46331	0.724175	2.19725												
0.809004	2.46189	0.726255	2.19735												
0.810832	2.46048	0.728335	2.19745												
0.812662	2.45907	0.730415	2.19755												
0.814492	2.45769	0.732496	2.19765												
0.816324	2.45631	0.734576	2.19775												
0.818157	2.45494	0.736656	2.19785												
0.819992	2.45359	0.738736	2.19794												
0.821827	2.45224	0.740816	2.19804												
0.823663	2.45091	0.742897	2.19813												
0.825501	2.44958	0.744977	2.19823												
0.82734	2.44827	0.747057	2.19832												
0.82918	2.44697	0.749137	2.19842												
0.831021	2.44568	0.751217	2.19851												
0.832863	2.4444	0.753297	2.1986												
0.834706	2.44313	0.755377	2.1987												
0.83655	2.44187	0.757457	2.19879												
0.838396	2.44061	0.759538	2.19888												
0.840242	2.43937	0.761618	2.19897												
0.84209	2.43814	0.763698	2.19906												
0.843938	2.43692	0.765778	2.19915												
0.845788	2.43571	0.767858	2.19924												
0.847639	2.43451	0.769938	2.19933												
0.84949	2.43331	0.772018	2.19942												
0.851343	2.43213	0.774099	2.1995												
0.853197	2.43096	0.776179	2.19959												
0.855052	2.42979	0.778259	2.19968												
0.856908	2.42863	0.780339	2.19976												
0.858764	2.42749	0.782419	2.19985												
0.860622	2.42635	0.784499	2.19994												
0.862481	2.42522	0.786579	2.20002												
0.864341	2.4241	0.788659	2.20011												
0.866202	2.42298	0.790739	2.20019												
0.868063	2.42188	0.792819	2.20027												
0.869926	2.42079	0.794899	2.20036												
0.87179	2.4197	0.79698	2.20044												
0.873655	2.41862	0.79906	2.20052												
0.87552	2.41755	0.80114	2.2006												
0.877387	2.41649	0.80322	2.20069												
0.879254	2.41543	0.8053	2.20077												
0.881123	2.41438	0.80738	2.20085												
0.882992	2.41335	0.80946	2.20093												
0.884862	2.41231	0.81154	2.20101												
0.886734	2.41129	0.81362	2.20109												
0.888606	2.41028	0.8157	2.20117												
0.890479	2.40927	0.81778	2.20125												
0.892353	2.40827	0.81986	2.20132												
0.894228	2.40727	0.82194	2.2014												
0.896103	2.40629	0.82402	2.20148												
0.89798	2.40531	0.8261	2.20156												
0.899858	2.40434	0.82818	2.20163												
0.901736	2.40337	0.83026	2.20171												
0.903615	2.40242	0.83234	2.20178												
0.905495	2.40147	0.83442	2.20186												
0.907376	2.40052	0.8365	2.20194												
0.909258	2.39959	0.83858	2.20201												
0.911141	2.39866	0.840661	2.20208												
0.913024	2.39774	0.842741	2.20216												
0.914909	2.39682	0.844821	2.20223												
0.916794	2.39591	0.846901	2.20231												
0.91868	2.39501	0.848981	2.20238												
0.920567	2.39411	0.851061	2.20245												
0.922454	2.39322	0.853141	2.20252												
0.924343	2.39234	0.855221	2.2026												
0.926232	2.39146	0.857301	2.20267												
0.928122	2.39059	0.859381	2.20274												
0.930013	2.38973	0.861461	2.20281												
0.931905	2.38887	0.86354	2.20288												
0.933797	2.38802	0.865621	2.20295												
0.93569	2.38717	0.8677	2.20302												
0.937585	2.38633	0.86978	2.20309												
0.939479	2.3855	0.87186	2.20316												
0.941375	2.38467	0.87394	2.20323												
0.943271	2.38385	0.87602	2.2033												
0.945168	2.38303	0.8781	2.20336												
0.947066	2.38222	0.88018	2.20343												
0.948965	2.38141	0.88226	2.2035												
0.950864	2.38061	0.88434	2.20357												
0.952764	2.37982	0.88642	2.20363												
0.954665	2.37903	0.8885	2.2037												
0.956567	2.37825	0.89058	2.20377												
0.958469	2.37747	0.89266	2.20383												
0.960372	2.3767	0.89474	2.2039												
0.962276	2.37593	0.89682	2.20396												
0.96418	2.37517	0.8989	2.20403												
0.966085	2.37441	0.90098	2.20409												
0.967991	2.37366	0.90306	2.20416												
0.969898	2.37291	0.90514	2.20422												
0.971805	2.37217	0.90722	2.20429												
0.973713	2.37144	0.9093	2.20435												
0.975622	2.37071	0.911379	2.20441												
0.977531	2.36998	0.913459	2.20448												
0.979441	2.36926	0.915539	2.20454												
0.981352	2.36854	0.917619	2.2046												
0.983263	2.36783	0.919699	2.20466												
0.985175	2.36713	0.921779	2.20472												
0.987088	2.36642	0.923859	2.20479												
0.989002	2.36573	0.925939	2.20485												
0.990916	2.36504	0.928019	2.20491												
0.99283	2.36435	0.930099	2.20497												
0.994746	2.36366	0.932179	2.20503												
0.996662	2.36299	0.934259	2.20509												
0.998579	2.36231	0.936338	2.20515												
1.0005	2.36164	0.938418	2.20521												
		0.940498	2.20527												
		0.942578	2.20533												
		0.944658	2.20539												
		0.946738	2.20544												
		0.948818	2.2055												
		0.950898	2.20556												
		0.952977	2.20562												
		0.955057	2.20568												
		0.957137	2.20573												
		0.959217	2.20579												
		0.961297	2.20585												
		0.963377	2.2059												
		0.965457	2.20596												
		0.967536	2.20602												
		0.969616	2.20607												
		0.971696	2.20613												
		0.973776	2.20618												
		0.975856	2.20624												
		0.977936	2.20629												
		0.980016	2.20635												
		0.982095	2.2064												
		0.984175	2.20646												
		0.986255	2.20651												
		0.988335	2.20656												
		0.990415	2.20662												
		0.992495	2.20667												
		0.994574	2.20672												
		0.996654	2.20678												
		0.998734	2.20683												
		1.00081	2.20688												
