Sym0		Asym0		Sym1		Sym2		Sym3		Asym1		Asym2		Asym3		Asym4	
462  Points		491  Points		161  Points		123  Points		110  Points		334  Points		334  Points		134  Points		107  Points	
Freq (MHz)	Vph (m/ms)	Freq (MHz)	Vph (m/ms)	Freq (MHz)	Vph (m/ms)	Freq (MHz)	Vph (m/ms)	Freq (MHz)	Vph (m/ms)	Freq (MHz)	Vph (m/ms)	Freq (MHz)	Vph (m/ms)	Freq (MHz)	Vph (m/ms)	Freq (MHz)	Vph (m/ms)
0.00713005	8.51058	0.000342374	0.205071	0.27951	2042.62	0.465299	1407.33	0.559037	968.124	0.139894	193.766	0.13982	282.98	0.41928	863.674	0.698792	1010.52
0.0150577	8.50968	0.000825074	0.317186	0.279627	261.692	0.465354	368.65	0.559154	370.512	0.140484	84.9529	0.140297	98.3993	0.419413	295.954	0.698887	430.559
0.0229819	8.50812	0.00150607	0.426296	0.279924	139.946	0.465475	212.157	0.559375	229.174	0.141529	54.7425	0.141232	59.9078	0.419676	178.673	0.699057	273.614
0.0309007	8.50587	0.00237343	0.531607	0.280401	95.6371	0.46566	148.977	0.559701	165.959	0.143018	40.6641	0.142614	43.3584	0.420068	128.048	0.699304	200.569
0.0388123	8.50296	0.00341273	0.632418	0.281055	72.7441	0.465912	114.83	0.56013	130.135	0.144933	32.5784	0.144426	34.2171	0.420589	99.8493	0.699626	158.347
0.0467147	8.49936	0.0046084	0.728254	0.281886	58.7837	0.46623	93.4497	0.560663	107.08	0.147255	27.3685	0.146651	28.4616	0.421239	81.8905	0.700024	130.846
0.054606	8.49508	0.00594403	0.81877	0.282891	49.396	0.466616	78.8097	0.561299	91.0076	0.149961	23.7575	0.149265	24.5329	0.422017	69.4606	0.700497	111.514
0.062484	8.49008	0.00740346	0.903808	0.284068	42.6611	0.467071	68.1607	0.562038	79.168	0.153027	21.1251	0.152245	21.6998	0.422922	60.3542	0.701046	97.1869
0.0703467	8.48436	0.00897112	0.983342	0.285412	37.6017	0.467595	60.0699	0.562879	70.0882	0.156429	19.1338	0.155567	19.574	0.423953	53.4011	0.70167	86.1465
0.0781919	8.47789	0.0106324	1.05745	0.286922	33.668	0.468192	53.7171	0.563821	62.9075	0.160141	17.584	0.159206	17.9299	0.425108	47.9226	0.702369	77.3809
0.0860173	8.47066	0.0123739	1.12628	0.288592	30.5266	0.468862	48.5989	0.564864	57.0893	0.164141	16.3505	0.163138	16.6279	0.426387	43.4982	0.703142	70.2547
0.0938203	8.46263	0.0141836	1.19008	0.29042	27.964	0.469607	44.3894	0.566006	52.2817	0.168404	15.3505	0.167338	15.5769	0.427789	39.8532	0.70399	64.3491
0.101599	8.45377	0.0160507	1.24909	0.2924	25.8368	0.47043	40.868	0.567248	48.2445	0.17291	14.5274	0.171787	14.7148	0.429311	36.8008	0.704911	59.3767
0.109349	8.44407	0.0179661	1.30363	0.294528	24.0453	0.471333	37.8804	0.568588	44.8078	0.177637	13.8411	0.176461	13.998	0.430952	34.2093	0.705906	55.1336
0.117069	8.43347	0.0199217	1.35399	0.2968	22.518	0.472318	35.3152	0.570024	41.8484	0.182566	13.2624	0.181342	13.3952	0.432711	31.9835	0.706974	51.4715
0.124756	8.42194	0.0219104	1.40048	0.29921	21.2021	0.473388	33.09	0.571557	39.2745	0.187679	12.7696	0.186412	12.8831	0.434585	30.0524	0.708114	48.2796
0.132406	8.40944	0.0239265	1.44338	0.301754	20.0581	0.474545	31.1428	0.573185	37.0165	0.192961	12.3463	0.191655	12.4441	0.436573	28.3626	0.709327	45.4737
0.140016	8.39593	0.0257017	1.47808	0.304426	19.0556	0.475794	29.4255	0.574907	35.0206	0.198397	11.9799	0.197054	12.0648	0.438673	26.8725	0.710612	42.9884
0.147581	8.38133	0.0272262	1.50582	0.307223	18.171	0.477135	27.9008	0.576721	33.2443	0.203971	11.6605	0.202596	11.7347	0.440884	25.5496	0.711968	40.7723
0.155098	8.36561	0.0284935	1.52756	0.31014	17.3854	0.478574	26.539	0.578627	31.6542	0.209673	11.3803	0.208268	11.4456	0.443202	24.3682	0.713394	38.7847
0.162563	8.3487	0.0294993	1.54402	0.313171	16.684	0.480113	25.3164	0.580624	30.223	0.215491	11.1331	0.214058	11.1908	0.445625	23.3075	0.71489	36.9922
0.169971	8.33053	0.0302408	1.55573	0.316313	16.0545	0.481755	24.2134	0.58271	28.9286	0.221413	10.9137	0.219955	10.965	0.448153	22.3506	0.716457	35.3682
0.177317	8.31104	0.0307161	1.56306	0.319562	15.4871	0.483505	23.2143	0.584884	27.7529	0.227431	10.7181	0.22595	10.764	0.450782	21.4834	0.718091	33.8901
0.184595	8.29014	0.0314003	1.57337	0.322914	14.9734	0.485364	22.3057	0.587145	26.6806	0.233534	10.5429	0.232034	10.584	0.45351	20.6945	0.719795	32.5397
0.191799	8.26775	0.0321453	1.58428	0.326366	14.5068	0.487338	21.4768	0.589491	25.6992	0.239716	10.3851	0.238197	10.4222	0.456334	19.9742	0.721566	31.3014
0.198924	8.24379	0.0331604	1.59865	0.329916	14.0814	0.489428	20.7183	0.591922	24.7979	0.245969	10.2426	0.244433	10.2762	0.459254	19.3144	0.723404	30.1621
0.205963	8.21817	0.0344468	1.61608	0.333561	13.6925	0.49164	20.0222	0.594436	23.9677	0.252285	10.1132	0.250735	10.1437	0.462266	18.708	0.725308	29.1106
0.212908	8.19079	0.036006	1.63611	0.3373	13.3359	0.493975	19.3819	0.597031	23.2008	0.257836	10.01	0.256274	10.0381	0.465368	18.1492	0.727278	28.1375
0.219752	8.16156	0.0378392	1.65823	0.341132	13.0082	0.496438	18.7916	0.599707	22.4905	0.262599	9.92811	0.261028	9.95446	0.468558	17.6329	0.729313	27.2345
0.226488	8.13038	0.039947	1.68193	0.345057	12.7065	0.49903	18.2462	0.602462	21.831	0.266558	9.86434	0.26498	9.88932	0.471833	17.1547	0.731412	26.3946
0.233106	8.09716	0.0420583	1.70398	0.349075	12.428	0.501756	17.7415	0.605295	21.2174	0.2697	9.81623	0.268117	9.84021	0.475192	16.7107	0.733574	25.6115
0.239599	8.0618	0.044172	1.72452	0.353188	12.1708	0.504616	17.2736	0.608205	20.6451	0.272017	9.78208	0.27043	9.80536	0.478632	16.2977	0.735799	24.8799
0.245959	8.02422	0.0462874	1.74368	0.357397	11.9327	0.507615	16.8392	0.611191	20.1105	0.273502	9.76075	0.271913	9.78359	0.48215	15.9127	0.738086	24.195
0.252175	7.98434	0.0484038	1.76158	0.361705	11.7122	0.510753	16.4353	0.61425	19.61	0.275641	9.73077	0.274049	9.75301	0.485745	15.5531	0.740435	23.5526
0.25824	7.94209	0.0505206	1.77832	0.366114	11.5078	0.514033	16.0594	0.617383	19.1406	0.277971	9.69907	0.276375	9.72068	0.489415	15.2167	0.742844	22.9491
0.264146	7.89743	0.0526377	1.794	0.370628	11.3182	0.517454	15.709	0.620587	18.6998	0.281146	9.65738	0.279546	9.67817	0.493157	14.9013	0.745312	22.3812
0.269885	7.85033	0.0547546	1.80872	0.37525	11.1423	0.521019	15.3822	0.623862	18.2852	0.285173	9.60684	0.283568	9.62668	0.496969	14.6054	0.74784	21.8459
0.27545	7.80079	0.0568709	1.82254	0.379983	10.9791	0.524728	15.0769	0.627207	17.8946	0.290059	9.54879	0.288448	9.56755	0.50085	14.3271	0.750425	21.3406
0.280834	7.74882	0.0589867	1.83554	0.384829	10.8277	0.52858	14.7917	0.63062	17.5261	0.295809	9.48458	0.294193	9.5022	0.504797	14.0652	0.753068	20.863
0.286034	7.69447	0.0611017	1.84778	0.389793	10.6872	0.532576	14.5248	0.6341	17.178	0.30243	9.41559	0.300808	9.43203	0.508809	13.8182	0.755767	20.4109
0.291044	7.63783	0.0632158	1.85932	0.394874	10.5568	0.536713	14.2749	0.637647	16.8488	0.309071	9.35111	0.307445	9.36649	0.512883	13.5851	0.758523	19.9825
0.295864	7.579	0.065329	1.87023	0.400074	10.4359	0.540992	14.0408	0.641259	16.5371	0.315728	9.29064	0.314099	9.30509	0.517018	13.3648	0.761333	19.5761
0.300492	7.51812	0.0674412	1.88054	0.404703	10.3377	0.54541	13.8212	0.644935	16.2417	0.322399	9.23378	0.320766	9.24737	0.521212	13.1564	0.764197	19.19
0.304928	7.45534	0.0695523	1.89029	0.408721	10.259	0.549965	13.6152	0.648674	15.9613	0.329079	9.18013	0.327444	9.19297	0.525464	12.959	0.767114	18.8229
0.309177	7.39085	0.0716624	1.89954	0.412091	10.1971	0.554656	13.4217	0.652475	15.6951	0.335765	9.12937	0.334129	9.14154	0.529772	12.7717	0.770084	18.4734
0.31324	7.32484	0.0737715	1.90832	0.414787	10.1501	0.559478	13.2399	0.656338	15.4419	0.342455	9.08121	0.340818	9.09276	0.534135	12.594	0.773106	18.1405
0.317122	7.25751	0.0758796	1.91666	0.416787	10.1167	0.56443	13.0689	0.660262	15.201	0.349144	9.03536	0.347508	9.04637	0.538551	12.4252	0.776179	17.8229
0.32083	7.18908	0.0779866	1.92459	0.418074	10.0958	0.569507	12.908	0.664246	14.9716	0.355831	8.99161	0.354196	9.00213	0.543018	12.2646	0.779302	17.5198
0.324371	7.11977	0.0800927	1.93214	0.419935	10.0663	0.574707	12.7565	0.668288	14.7529	0.362511	8.94972	0.360878	8.9598	0.547536	12.1118	0.782475	17.2302
0.32775	7.04978	0.0821977	1.93933	0.421971	10.035	0.580025	12.6137	0.67239	14.5443	0.369184	8.90951	0.367553	8.9192	0.552104	11.9662	0.785697	16.9534
0.330976	6.97931	0.0843019	1.94619	0.424763	9.99386	0.585458	12.479	0.676549	14.3452	0.375844	8.87079	0.374216	8.88013	0.556721	11.8275	0.788966	16.6884
0.334058	6.90855	0.0864051	1.95275	0.428329	9.94387	0.591002	12.3519	0.680765	14.1549	0.382491	8.83342	0.380867	8.84244	0.561385	11.695	0.792283	16.4347
0.337002	6.83769	0.0885074	1.95901	0.432693	9.88634	0.596653	12.2318	0.685039	13.9731	0.38912	8.79723	0.387501	8.80598	0.566095	11.5686	0.795646	16.1915
0.339817	6.76689	0.090609	1.965	0.437883	9.8227	0.602406	12.1183	0.689369	13.7992	0.39573	8.7621	0.394115	8.7706	0.570852	11.4479	0.799056	15.9583
0.342511	6.6963	0.0927096	1.97074	0.443926	9.7544	0.608257	12.0109	0.693756	13.6327	0.402317	8.72791	0.400709	8.73619	0.575654	11.3324	0.80251	15.7346
0.345092	6.62606	0.0948096	1.97624	0.450057	9.69072	0.614201	11.9092	0.698199	13.4734	0.40888	8.69454	0.407277	8.70263	0.5805	11.222	0.80601	15.5197
0.347567	6.55629	0.0969088	1.98151	0.456269	9.63125	0.620235	11.8127	0.702698	13.3207	0.415414	8.66188	0.413819	8.66981	0.585391	11.1163	0.809553	15.3132
0.349942	6.48709	0.0990073	1.98658	0.462554	9.57561	0.626353	11.7213	0.707254	13.1744	0.421918	8.62985	0.420331	8.63763	0.590326	11.0152	0.813139	15.1146
0.352226	6.41856	0.101105	1.99144	0.468907	9.52344	0.632551	11.6344	0.711866	13.0341	0.428389	8.59835	0.42681	8.60601	0.595304	10.9182	0.816768	14.9236
0.354423	6.35079	0.103202	1.99612	0.47532	9.47441	0.638825	11.5519	0.716535	12.8995	0.434824	8.5673	0.433254	8.57485	0.600325	10.8253	0.820439	14.7398
0.356541	6.28383	0.105299	2.00062	0.481787	9.42822	0.64517	11.4733	0.721262	12.7704	0.441221	8.53662	0.43966	8.54409	0.604735	10.7475	0.824152	14.5627
0.358585	6.21775	0.107395	2.00495	0.488302	9.38461	0.65158	11.3984	0.726047	12.6465	0.447576	8.50624	0.446026	8.51365	0.60852	10.6834	0.827905	14.3921
0.36056	6.1526	0.10949	2.00912	0.494858	9.34331	0.658052	11.327	0.73089	12.5276	0.453887	8.4761	0.452348	8.48345	0.611668	10.6318	0.831699	14.2276
0.362471	6.08841	0.111585	2.01314	0.501451	9.3041	0.66458	11.2588	0.735794	12.4134	0.460152	8.44613	0.458624	8.45345	0.614169	10.592	0.835533	14.069
0.364323	6.02522	0.11368	2.01702	0.508073	9.26679	0.671159	11.1936	0.740759	12.3038	0.466367	8.41628	0.464852	8.42358	0.616014	10.5632	0.839406	13.9159
0.366119	5.96305	0.115773	2.02077	0.514721	9.23118	0.677785	11.1312	0.745787	12.1985	0.47253	8.3865	0.471028	8.39378	0.617197	10.545	0.843317	13.7681
0.367865	5.90193	0.117867	2.02439	0.521391	9.1971	0.684452	11.0712	0.750879	12.0974	0.478639	8.35673	0.47715	8.36401	0.618902	10.5191	0.847267	13.6253
0.369564	5.84186	0.11996	2.02789	0.528076	9.16442	0.691154	11.0137	0.756037	12.0004	0.48469	8.32693	0.483216	8.33422	0.620761	10.4913	0.851255	13.4874
0.371219	5.78285	0.122052	2.03127	0.534774	9.13298	0.697887	10.9583	0.761264	11.9073	0.490682	8.29706	0.489222	8.30437	0.623298	10.4542	0.85528	13.354
0.372833	5.72491	0.124145	2.03454	0.54148	9.10267	0.703775	10.9116	0.766562	11.8179	0.496611	8.26707	0.495167	8.27442	0.62652	10.4084	0.859342	13.225
0.37441	5.66803	0.126236	2.03771	0.548191	9.07338	0.708806	10.8729	0.771934	11.7322	0.502475	8.23695	0.501047	8.24433	0.630438	10.3544	0.863441	13.1003
0.375952	5.61222	0.128328	2.04077	0.554904	9.04501	0.712974	10.8417	0.777383	11.6501	0.508273	8.20664	0.506861	8.21407	0.635064	10.2931	0.867576	12.9795
0.377462	5.55746	0.130419	2.04375	0.561615	9.01746	0.716272	10.8174	0.782911	11.5713	0.514001	8.17613	0.512606	8.18361	0.640411	10.2254	0.871746	12.8626
0.378942	5.50376	0.13251	2.04663	0.568323	8.99066	0.718698	10.7998	0.788523	11.496	0.519658	8.14539	0.518281	8.15294	0.645801	10.1603	0.875951	12.7494
0.380395	5.4511	0.1346	2.04942	0.575023	8.96453	0.720252	10.7886	0.794221	11.4239	0.525241	8.11441	0.523882	8.12201	0.651232	10.0977	0.880192	12.6397
0.381823	5.39946	0.13669	2.05214	0.581714	8.939	0.722486	10.7727	0.800009	11.355	0.530749	8.08315	0.529409	8.09082	0.656705	10.0376	0.884467	12.5334
0.383227	5.34885	0.13878	2.05477	0.588394	8.91402	0.724914	10.7555	0.805891	11.2892	0.536179	8.05161	0.534858	8.05935	0.662219	9.97974	0.888775	12.4304
0.384609	5.29923	0.140869	2.05732	0.595059	8.88952	0.728217	10.7324	0.81187	11.2264	0.541532	8.01978	0.54023	8.02759	0.667774	9.92412	0.893118	12.3304
0.385971	5.2506	0.142959	2.05981	0.601708	8.86546	0.732393	10.7037	0.817161	11.1741	0.546804	7.98764	0.545522	7.99553	0.673369	9.8706	0.897494	12.2335
0.387316	5.20294	0.145048	2.06222	0.60834	8.84179	0.737442	10.6696	0.821733	11.1313	0.551994	7.9552	0.550732	7.96316	0.679005	9.8191	0.901903	12.1394
0.388643	5.15623	0.147136	2.06457	0.614951	8.81847	0.743357	10.6303	0.825557	11.097	0.557103	7.92244	0.555861	7.93048	0.684679	9.76954	0.906344	12.0481
0.389954	5.11046	0.149225	2.06686	0.621541	8.79545	0.750131	10.5861	0.828609	11.0707	0.562128	7.88937	0.560907	7.89749	0.690393	9.72182	0.910818	11.9595
0.391252	5.06561	0.151313	2.06908	0.628107	8.77271	0.756884	10.5428	0.830869	11.0518	0.567069	7.856	0.565868	7.86419	0.696144	9.67586	0.915324	11.8734
0.392536	5.02167	0.153401	2.07124	0.634649	8.75021	0.763612	10.5002	0.832322	11.0398	0.571926	7.82231	0.570746	7.83058	0.701931	9.63157	0.919861	11.7897
0.393808	4.9786	0.155489	2.07335	0.641163	8.72792	0.770309	10.4583	0.834422	11.0229	0.576698	7.78833	0.575539	7.79667	0.707755	9.5889	0.924429	11.7085
0.39507	4.93641	0.157576	2.07541	0.64765	8.7058	0.776971	10.417	0.836716	11.0049	0.581385	7.75407	0.580247	7.76248	0.713613	9.54775	0.929028	11.6295
0.396321	4.89506	0.159664	2.07741	0.654107	8.68384	0.783594	10.3762	0.839859	10.9809	0.585987	7.71953	0.584869	7.728	0.719505	9.50805	0.933658	11.5527
0.397404	4.8597	0.161751	2.07936	0.660533	8.66201	0.790174	10.3358	0.843871	10.9514	0.590505	7.68472	0.589408	7.69325	0.725429	9.46974	0.937717	11.4875
0.398323	4.83005	0.163838	2.08126	0.666927	8.64029	0.79671	10.2958	0.848776	10.917	0.594938	7.64966	0.593862	7.65826	0.731384	9.43275	0.941195	11.4332
0.399079	4.80587	0.165925	2.08311	0.673287	8.61866	0.803199	10.2562	0.854605	10.8783	0.599288	7.61437	0.598232	7.62302	0.737367	9.397	0.944083	11.3891
0.399675	4.78696	0.168012	2.08493	0.679612	8.59709	0.809642	10.2169	0.861394	10.8362	0.603554	7.57886	0.602518	7.58756	0.743379	9.36245	0.946375	11.3548
0.400112	4.77317	0.170098	2.08669	0.6859	8.57557	0.816038	10.178	0.868286	10.7964	0.607738	7.54315	0.606723	7.5519	0.749416	9.32902	0.948065	11.3298
0.400391	4.7644	0.172185	2.08842	0.692151	8.55407	0.822389	10.1394	0.875279	10.7587	0.611841	7.50726	0.610845	7.51605	0.755478	9.29665	0.949148	11.3139
0.400792	4.75186	0.174271	2.0901	0.698363	8.5326	0.828696	10.1011	0.88237	10.7231	0.615863	7.4712	0.614887	7.48004	0.761562	9.26529	0.950707	11.2913
0.401227	4.73833	0.176357	2.09175	0.704535	8.51112	0.834961	10.0632	0.889555	10.6894	0.619806	7.435	0.618849	7.44387	0.767667	9.23489	0.952406	11.267
0.401818	4.72008	0.178443	2.09336	0.710666	8.48963	0.841188	10.0256	0.89683	10.6575	0.623671	7.39867	0.622733	7.40757	0.773791	9.20539	0.954723	11.2342
0.402563	4.69724	0.180529	2.09493	0.716755	8.46812	0.84738	9.98852	0.90419	10.6273	0.627459	7.36224	0.62654	7.37116	0.779933	9.17674	0.957662	11.1934
0.403461	4.67001	0.182615	2.09647	0.7228	8.44656	0.853539	9.95182	0.91163	10.5986	0.631172	7.32572	0.630271	7.33466	0.78609	9.14889	0.961231	11.145
0.404511	4.63857	0.1847	2.09797	0.728801	8.42496	0.859669	9.91559	0.919147	10.5715	0.634811	7.28913	0.633928	7.29808	0.79226	9.12179	0.965437	11.0894
0.405712	4.60317	0.186786	2.09944	0.734756	8.4033	0.865774	9.87983	0.926734	10.5458	0.638377	7.25248	0.637511	7.26145	0.798443	9.09541	0.970289	11.0271
0.40691	4.56846	0.188871	2.10088	0.740665	8.38157	0.871857	9.84458	0.934389	10.5213	0.641871	7.21581	0.641023	7.22478	0.804635	9.06969	0.975169	10.9664
0.408104	4.53444	0.190956	2.10228	0.746527	8.35976	0.877921	9.80985	0.942105	10.4981	0.645296	7.17912	0.644465	7.18809	0.810836	9.04459	0.980076	10.9073
0.409295	4.50108	0.193041	2.10366	0.75234	8.33786	0.883969	9.77566	0.94988	10.476	0.648653	7.14243	0.647839	7.1514	0.817043	9.02009	0.98501	10.8497
0.410484	4.46837	0.195126	2.10501	0.758104	8.31588	0.890005	9.74203	0.957709	10.4549	0.651944	7.10577	0.651145	7.11473	0.823255	8.99613	0.98997	10.7936
0.411671	4.4363	0.197211	2.10633	0.763818	8.2938	0.89603	9.70897	0.965588	10.4348	0.655169	7.06913	0.654386	7.07809	0.829469	8.97269	0.994956	10.7389
0.412857	4.40485	0.199296	2.10762	0.769482	8.27161	0.902047	9.67648	0.973514	10.4155	0.658331	7.03255	0.657564	7.0415	0.835685	8.94973	0.999967	10.6855
0.414042	4.37401	0.201381	2.10889	0.775094	8.24932	0.908059	9.64458	0.981483	10.3972	0.661431	6.99604	0.660679	7.00496	0.841901	8.92722	1.005	10.6335
0.415225	4.34376	0.203465	2.11013	0.780654	8.22692	0.914067	9.61326	0.989492	10.3796	0.664471	6.95961	0.663733	6.96851	0.848114	8.90513		
0.416409	4.31409	0.20555	2.11135	0.786161	8.2044	0.920073	9.58253	0.997539	10.3627	0.667452	6.92327	0.666728	6.93215	0.854324	8.88343		
0.417592	4.28499	0.207634	2.11254	0.791615	8.18176	0.926078	9.55238	1.00562	10.3465	0.670375	6.88704	0.669666	6.89589	0.860529	8.86209		
0.418775	4.25644	0.209719	2.11371	0.797015	8.15901	0.932084	9.52281			0.673243	6.85092	0.672547	6.85975	0.866726	8.84108		
0.419959	4.22843	0.211803	2.11486	0.802361	8.13614	0.938092	9.49383			0.676057	6.81495	0.675374	6.82373	0.872915	8.82039		
0.421144	4.20095	0.213887	2.11599	0.807653	8.11314	0.944103	9.46541			0.678818	6.77911	0.678148	6.78786	0.879095	8.79998		
0.422329	4.17398	0.215971	2.11709	0.812889	8.09003	0.950118	9.43755			0.681528	6.74343	0.68087	6.75214	0.885263	8.77984		
0.423516	4.14752	0.218055	2.11817	0.81807	8.06679	0.956136	9.41025			0.684188	6.70791	0.683542	6.71658	0.891418	8.75994		
0.424704	4.12155	0.220139	2.11924	0.823196	8.04344	0.96216	9.38349			0.686799	6.67256	0.686165	6.68119	0.897559	8.74026		
0.425893	4.09605	0.222223	2.12028	0.828266	8.01997	0.968188	9.35725			0.689364	6.6374	0.688741	6.64598	0.903684	8.72079		
0.427084	4.07103	0.224307	2.12131	0.833281	7.99639	0.974222	9.33154			0.691883	6.60242	0.691271	6.61096	0.909793	8.70151		
0.428278	4.04647	0.22639	2.12231	0.838239	7.97269	0.98026	9.30633			0.694358	6.56764	0.693756	6.57613	0.915883	8.68239		
0.429473	4.02236	0.228474	2.1233	0.843142	7.94888	0.986304	9.28161			0.696789	6.53307	0.696198	6.54151	0.921955	8.66343		
0.430671	3.99868	0.230558	2.12427	0.847989	7.92497	0.992353	9.25737			0.699179	6.49871	0.698599	6.5071	0.928005	8.6446		
0.431871	3.97543	0.232641	2.12522	0.85278	7.90095	0.998407	9.23359			0.701529	6.46457	0.700958	6.4729	0.934034	8.62589		
0.433073	3.9526	0.234725	2.12616	0.857516	7.87683	1.00447	9.21026			0.70384	6.43065	0.703278	6.43892	0.94004	8.6073		
0.434278	3.93018	0.236808	2.12708	0.862196	7.85261					0.706112	6.39696	0.70556	6.40518	0.946022	8.5888		
0.435486	3.90816	0.238891	2.12799	0.866821	7.82831					0.708348	6.3635	0.707804	6.37166	0.951979	8.57039		
0.436697	3.88653	0.240975	2.12887	0.871391	7.80392					0.710548	6.33028	0.710013	6.33838	0.957909	8.55205		
0.437911	3.86528	0.243058	2.12975	0.875906	7.77944					0.712713	6.2973	0.712187	6.30535	0.963813	8.53377		
0.439128	3.84441	0.245141	2.13061	0.880367	7.75489					0.714846	6.26457	0.714327	6.27255	0.969688	8.51554		
0.440348	3.8239	0.247224	2.13145	0.884774	7.73027					0.716945	6.23209	0.716435	6.24001	0.975535	8.49736		
0.441572	3.80375	0.249307	2.13228	0.889127	7.70558					0.719014	6.19986	0.718511	6.20772	0.981351	8.47921		
0.442799	3.78395	0.25139	2.1331	0.893427	7.68082					0.721052	6.16788	0.720556	6.17567	0.987137	8.46109		
0.444029	3.76449	0.253473	2.13391	0.897674	7.65601					0.72306	6.13616	0.722572	6.14389	0.992891	8.44298		
0.445263	3.74537	0.255556	2.1347	0.901869	7.63115					0.72504	6.10469	0.724559	6.11236	0.998612	8.42489		
0.4465	3.72657	0.257639	2.13548	0.906011	7.60624					0.726993	6.07349	0.726518	6.0811	1.0043	8.4068		
0.447741	3.7081	0.259722	2.13624	0.910103	7.58128					0.728919	6.04255	0.728451	6.05009				
0.448986	3.68993	0.261805	2.137	0.914143	7.55629					0.73082	6.01187	0.730357	6.01935				
0.450234	3.67208	0.263887	2.13774	0.918133	7.53127					0.732695	5.98145	0.732239	5.98887				
0.451486	3.65452	0.26597	2.13847	0.922073	7.50623					0.734546	5.9513	0.734096	5.95865				
0.452743	3.63725	0.268053	2.13919	0.925963	7.48116					0.736374	5.92141	0.73593	5.9287				
0.454002	3.62028	0.270135	2.1399	0.929805	7.45607					0.73818	5.89179	0.737741	5.89901				
0.455266	3.60358	0.272218	2.1406	0.933599	7.43097					0.739964	5.86243	0.73953	5.86959				
0.456534	3.58716	0.2743	2.14129	0.937345	7.40587					0.741727	5.83334	0.741298	5.84043				
0.457806	3.57101	0.276383	2.14197	0.941044	7.38076					0.743469	5.80451	0.743045	5.81154				
0.459081	3.55513	0.278465	2.14263	0.944696	7.35566					0.745192	5.77595	0.744773	5.78291				
0.460361	3.5395	0.280548	2.14329	0.948303	7.33056					0.746896	5.74765	0.746481	5.75455				
0.461645	3.52413	0.28263	2.14394	0.951864	7.30548					0.748582	5.71962	0.748171	5.72645				
0.462933	3.509	0.284712	2.14458	0.955381	7.28041					0.75025	5.69184	0.749843	5.69861				
0.464225	3.49412	0.286795	2.14521	0.958854	7.25536					0.751901	5.66433	0.751498	5.67103				
0.465521	3.47947	0.288877	2.14583	0.962283	7.23033					0.753535	5.63707	0.753137	5.64372				
0.466821	3.46506	0.290959	2.14644	0.965669	7.20533					0.755153	5.61008	0.754759	5.61666				
0.468125	3.45088	0.293041	2.14705	0.969013	7.18037					0.756756	5.58334	0.756366	5.58986				
0.469434	3.43692	0.295124	2.14764	0.972316	7.15544					0.758345	5.55686	0.757958	5.56332				
0.470746	3.42318	0.297206	2.14823	0.975577	7.13055					0.759919	5.53064	0.759535	5.53703				
0.472063	3.40965	0.299288	2.14881	0.978798	7.10571					0.761479	5.50466	0.761098	5.51099				
0.473384	3.39633	0.30137	2.14938	0.981979	7.08091					0.763025	5.47894	0.762648	5.48521				
0.474709	3.38323	0.303452	2.14994	0.985121	7.05616					0.764559	5.45347	0.764185	5.45968				
0.476038	3.37032	0.305534	2.1505	0.988225	7.03146					0.766081	5.42825	0.76571	5.4344				
0.477372	3.35761	0.307616	2.15105	0.99129	7.00683					0.76759	5.40328	0.767222	5.40936				
0.478709	3.3451	0.309698	2.15159	0.994318	6.98225					0.769088	5.37855	0.768723	5.38457				
0.480051	3.33278	0.31178	2.15212	0.99731	6.95773					0.770575	5.35406	0.770212	5.36003				
0.481396	3.32064	0.313862	2.15265	1.00026	6.93328					0.772051	5.32981	0.771691	5.33572				
0.482746	3.30869	0.315944	2.15317							0.773517	5.3058	0.773159	5.31165				
0.484101	3.29691	0.318026	2.15368							0.774972	5.28203	0.774617	5.28782				
0.485459	3.28532	0.320108	2.15419							0.776419	5.2585	0.776066	5.26423				
0.486821	3.2739	0.322189	2.15469							0.777855	5.23519	0.777505	5.24087				
0.488188	3.26264	0.324271	2.15518							0.779284	5.21212	0.778935	5.21774				
0.489558	3.25156	0.326353	2.15567							0.780703	5.18928	0.780357	5.19485				
0.490933	3.24063	0.328435	2.15615							0.782114	5.16666	0.78177	5.17217				
0.492311	3.22987	0.330516	2.15662							0.783518	5.14427	0.783175	5.14973				
0.493694	3.21926	0.332598	2.15709							0.784913	5.1221	0.784573	5.12751				
0.495081	3.20881	0.33468	2.15756							0.786302	5.10016	0.785963	5.1055				
0.496472	3.19851	0.336761	2.15802							0.787683	5.07843	0.787346	5.08372				
0.497867	3.18836	0.338843	2.15847							0.789058	5.05691	0.788722	5.06215				
0.499266	3.17836	0.340925	2.15892							0.790426	5.03561	0.790092	5.0408				
0.500669	3.1685	0.343006	2.15936							0.791788	5.01452	0.791455	5.01966				
0.502076	3.15877	0.345088	2.15979							0.793144	4.99364	0.792812	4.99873				
0.503487	3.14919	0.347169	2.16022							0.794494	4.97297	0.794164	4.97801				
0.504902	3.13975	0.349251	2.16065							0.795838	4.95251	0.79551	4.95749				
0.506321	3.13043	0.351332	2.16107							0.797178	4.93224	0.79685	4.93718				
0.507743	3.12125	0.353414	2.16149							0.798512	4.91218	0.798186	4.91707				
0.50917	3.11219	0.355495	2.1619							0.799841	4.89232	0.799516	4.89716				
0.510601	3.10327	0.357577	2.16231							0.801166	4.87266	0.800842	4.87745				
0.512035	3.09446	0.359658	2.16271							0.802486	4.85318	0.802164	4.85793				
0.513473	3.08578	0.36174	2.1631							0.803802	4.83391	0.803481	4.8386				
0.514916	3.07721	0.363821	2.1635							0.805114	4.81482	0.804794	4.81947				
0.516361	3.06877	0.365903	2.16389							0.806422	4.79592	0.806103	4.80052				
0.517811	3.06044	0.367984	2.16427							0.807727	4.77721	0.807408	4.78177				
0.519265	3.05222	0.370065	2.16465							0.809028	4.75868	0.80871	4.76319				
0.520722	3.04412	0.372147	2.16502							0.810325	4.74033	0.810008	4.7448				
0.522183	3.03612	0.374228	2.1654							0.811619	4.72217	0.811303	4.72659				
0.523648	3.02823	0.376309	2.16576							0.812911	4.70418	0.812595	4.70856				
0.525116	3.02045	0.378391	2.16613							0.814199	4.68637	0.813884	4.69071				
0.526588	3.01277	0.380472	2.16649							0.815485	4.66873	0.815171	4.67303				
0.528064	3.0052	0.382553	2.16684							0.816768	4.65127	0.816454	4.65552				
0.529543	2.99772	0.384634	2.16719							0.818049	4.63397	0.817736	4.63819				
0.531026	2.99034	0.386715	2.16754							0.819327	4.61685	0.819014	4.62102				
0.532513	2.98306	0.388797	2.16789							0.820603	4.59989	0.820291	4.60402				
0.534003	2.97588	0.390878	2.16823							0.821877	4.5831	0.821566	4.58719				
0.535497	2.96879	0.392959	2.16856							0.823149	4.56647	0.822838	4.57052				
0.536994	2.96179	0.39504	2.1689							0.82442	4.55	0.824109	4.55401				
0.538494	2.95488	0.397121	2.16923							0.825688	4.53368	0.825378	4.53766				
0.539999	2.94807	0.399203	2.16955							0.826955	4.51753	0.826645	4.52147				
0.541506	2.94134	0.401284	2.16988							0.828221	4.50153	0.827911	4.50543				
0.543017	2.93469	0.403365	2.1702							0.829485	4.48569	0.829176	4.48955				
0.544532	2.92813	0.405446	2.17051							0.830748	4.47	0.830439	4.47382				
0.54605	2.92166	0.407527	2.17083							0.83201	4.45446	0.831701	4.45824				
0.547571	2.91526	0.409608	2.17114							0.83327	4.43906	0.832962	4.44281				
0.549096	2.90895	0.411689	2.17144							0.83453	4.42382	0.834222	4.42753				
0.550624	2.90272	0.41377	2.17175							0.835789	4.40872	0.835481	4.4124				
0.552155	2.89657	0.415851	2.17205							0.837047	4.39376	0.836739	4.3974				
0.55369	2.89049	0.417932	2.17235							0.838304	4.37894	0.837997	4.38255				
0.555228	2.88449	0.420013	2.17264							0.839561	4.36427	0.839254	4.36784				
0.556769	2.87856	0.422094	2.17293							0.840817	4.34973	0.84051	4.35327				
0.558313	2.87271	0.424175	2.17322							0.842073	4.33533	0.841766	4.33884				
0.559861	2.86693	0.426256	2.17351							0.843328	4.32107	0.843021	4.32454				
0.561411	2.86122	0.428337	2.17379							0.844583	4.30694	0.844276	4.31038				
0.562965	2.85558	0.430418	2.17407							0.845838	4.29294	0.845531	4.29635				
0.564522	2.85001	0.432499	2.17435							0.847093	4.27907	0.846786	4.28245				
0.566082	2.8445	0.43458	2.17463							0.848347	4.26533	0.84804	4.26868				
0.567646	2.83907	0.436661	2.1749							0.849602	4.25172	0.849295	4.25504				
0.569212	2.83369	0.438742	2.17517							0.850856	4.23824	0.850549	4.24153				
0.570781	2.82839	0.440823	2.17544							0.852111	4.22488	0.851804	4.22814				
0.572354	2.82315	0.442904	2.17571							0.853365	4.21165	0.853058	4.21487				
0.573929	2.81797	0.444985	2.17597							0.85462	4.19854	0.854313	4.20173				
0.575508	2.81285	0.447066	2.17623							0.855875	4.18554	0.855568	4.18871				
0.577089	2.80779	0.449146	2.17649							0.857131	4.17267	0.856824	4.17581				
0.578673	2.8028	0.451227	2.17674							0.858387	4.15992	0.85808	4.16303				
0.580261	2.79786	0.453308	2.177							0.859643	4.14728	0.859336	4.15036				
0.581851	2.79298	0.455389	2.17725							0.8609	4.13476	0.860592	4.13781				
0.583444	2.78816	0.45747	2.1775							0.862157	4.12235	0.86185	4.12537				
0.58504	2.78339	0.459551	2.17774							0.863415	4.11005	0.863107	4.11305				
0.586639	2.77868	0.461631	2.17799							0.864673	4.09787	0.864366	4.10084				
0.588241	2.77403	0.463712	2.17823							0.865933	4.0858	0.865625	4.08874				
0.589845	2.76942	0.465793	2.17847							0.867192	4.07383	0.866884	4.07675				
0.591452	2.76488	0.467874	2.17871							0.868453	4.06198	0.868145	4.06487				
0.593062	2.76038	0.469955	2.17894							0.869714	4.05023	0.869406	4.05309				
0.594675	2.75594	0.472035	2.17918							0.870977	4.03858	0.870668	4.04142				
0.596291	2.75154	0.474116	2.17941							0.87224	4.02704	0.871931	4.02985				
0.597909	2.7472	0.476197	2.17964							0.873504	4.0156	0.873194	4.01839				
0.59953	2.7429	0.478277	2.17987							0.874768	4.00427	0.874459	4.00703				
0.601154	2.73866	0.480358	2.18009							0.876034	3.99303	0.875725	3.99577				
0.60278	2.73446	0.482439	2.18032							0.877301	3.9819	0.876991	3.98461				
0.604409	2.73031	0.48452	2.18054							0.878569	3.97086	0.878259	3.97355				
0.606041	2.72621	0.4866	2.18076							0.879838	3.95992	0.879528	3.96259				
0.607675	2.72215	0.488681	2.18098							0.881108	3.94908	0.880797	3.95172				
0.609311	2.71814	0.490762	2.18119							0.882379	3.93833	0.882068	3.94095				
0.610951	2.71417	0.492842	2.18141							0.883652	3.92767	0.88334	3.93027				
0.612593	2.71025	0.494923	2.18162							0.884925	3.91711	0.884614	3.91969				
0.614237	2.70637	0.497004	2.18183							0.8862	3.90664	0.885888	3.9092				
0.615884	2.70253	0.499084	2.18204							0.887476	3.89627	0.887164	3.8988				
0.617533	2.69873	0.501165	2.18225							0.888753	3.88598	0.888441	3.88849				
0.619185	2.69498	0.503246	2.18245							0.890032	3.87578	0.889719	3.87827				
0.62084	2.69126	0.505326	2.18266							0.891312	3.86567	0.890999	3.86814				
0.622496	2.68759	0.507407	2.18286							0.892593	3.85565	0.89228	3.85809				
0.624156	2.68396	0.509488	2.18306							0.893876	3.84571	0.893562	3.84813				
0.625817	2.68037	0.511568	2.18326							0.89516	3.83586	0.894846	3.83826				
0.627481	2.67681	0.513649	2.18346							0.896445	3.82609	0.896131	3.82847				
0.629148	2.67329	0.515729	2.18365							0.897732	3.81641	0.897417	3.81877				
0.630816	2.66982	0.51781	2.18385							0.89902	3.80681	0.898705	3.80915				
0.632487	2.66637	0.519891	2.18404							0.90031	3.79729	0.899995	3.79961				
0.634161	2.66297	0.521971	2.18423							0.901601	3.78785	0.901286	3.79015				
0.635836	2.6596	0.524052	2.18442							0.902894	3.77849	0.902578	3.78077				
0.637514	2.65627	0.526132	2.18461							0.904188	3.76921	0.903872	3.77147				
0.639195	2.65297	0.528213	2.1848							0.905484	3.76001	0.905167	3.76225				
0.640877	2.64971	0.530293	2.18498							0.906782	3.75088	0.906464	3.75311				
0.642562	2.64648	0.532374	2.18517							0.908081	3.74184	0.907763	3.74404				
0.644249	2.64328	0.534454	2.18535							0.909381	3.73286	0.909063	3.73505				
0.645938	2.64012	0.536535	2.18553							0.910683	3.72397	0.910365	3.72614				
0.647629	2.63699	0.538615	2.18571							0.911987	3.71514	0.911668	3.71729				
0.649323	2.63389	0.540696	2.18589							0.913292	3.70639	0.912973	3.70853				
0.651018	2.63083	0.542777	2.18607							0.914599	3.69772	0.914279	3.69983				
0.652716	2.6278	0.544857	2.18624							0.915908	3.68911	0.915588	3.69121				
0.654416	2.62479	0.546937	2.18642							0.917218	3.68058	0.916898	3.68266				
0.656118	2.62182	0.549018	2.18659							0.91853	3.67211	0.918209	3.67418				
0.657822	2.61888	0.551098	2.18676							0.919844	3.66372	0.919522	3.66576				
0.659528	2.61597	0.553179	2.18693							0.921159	3.65539	0.920837	3.65742				
0.661237	2.61309	0.555259	2.1871							0.922476	3.64713	0.922154	3.64915				
0.662947	2.61024	0.55734	2.18727							0.923795	3.63894	0.923472	3.64094				
0.664659	2.60742	0.55942	2.18743							0.925116	3.63082	0.924793	3.6328				
0.666374	2.60462	0.561501	2.1876							0.926438	3.62276	0.926114	3.62473				
0.66809	2.60186	0.563581	2.18776							0.927762	3.61477	0.927438	3.61672				
0.669809	2.59912	0.565662	2.18793							0.929088	3.60684	0.928763	3.60878				
0.671529	2.59641	0.567742	2.18809							0.930415	3.59898	0.93009	3.6009				
0.673251	2.59372	0.569823	2.18825							0.931744	3.59118	0.931419	3.59308				
0.674976	2.59107	0.571903	2.18841							0.933075	3.58344	0.93275	3.58533				
0.676702	2.58843	0.573983	2.18857							0.934408	3.57576	0.934082	3.57764				
0.67843	2.58583	0.576064	2.18872							0.935743	3.56815	0.935416	3.57001				
0.68016	2.58325	0.578144	2.18888							0.937079	3.5606	0.936752	3.56244				
0.681892	2.5807	0.580225	2.18903							0.938418	3.5531	0.93809	3.55493				
0.683626	2.57817	0.582305	2.18919							0.939758	3.54567	0.93943	3.54748				
0.685362	2.57566	0.584385	2.18934							0.941099	3.53829	0.940771	3.54009				
0.687099	2.57318	0.586466	2.18949							0.942443	3.53098	0.942114	3.53276				
0.688839	2.57073	0.588546	2.18964							0.943789	3.52372	0.943459	3.52549				
0.69058	2.5683	0.590627	2.18979							0.945136	3.51652	0.944806	3.51827				
0.692323	2.56589	0.592707	2.18994							0.946485	3.50937	0.946155	3.51111				
0.694068	2.5635	0.594787	2.19009							0.947836	3.50228	0.947506	3.50401				
0.695814	2.56114	0.596868	2.19023							0.949189	3.49525	0.948858	3.49696				
0.697563	2.5588	0.598948	2.19038							0.950544	3.48827	0.950212	3.48997				
0.699313	2.55648	0.601028	2.19052							0.9519	3.48134	0.951568	3.48303				
0.701065	2.55419	0.603109	2.19067							0.953259	3.47447	0.952926	3.47615				
0.702819	2.55191	0.605189	2.19081							0.954619	3.46765	0.954286	3.46932				
0.704574	2.54966	0.607269	2.19095							0.955981	3.46089	0.955648	3.46254				
0.706331	2.54743	0.60935	2.19109							0.957345	3.45418	0.957011	3.45581				
0.70809	2.54522	0.61143	2.19123							0.958711	3.44751	0.958377	3.44914				
0.70985	2.54304	0.61351	2.19137							0.960079	3.4409	0.959744	3.44252				
0.711613	2.54087	0.615591	2.19151							0.961448	3.43434	0.961113	3.43594				
0.713376	2.53872	0.617671	2.19164							0.96282	3.42784	0.962484	3.42942				
0.715142	2.53659	0.619751	2.19178							0.964193	3.42138	0.963857	3.42295				
0.716909	2.53448	0.621832	2.19191							0.965568	3.41497	0.965231	3.41653				
0.718678	2.5324	0.623912	2.19205							0.966945	3.4086	0.966608	3.41016				
0.720448	2.53033	0.625992	2.19218							0.968324	3.40229	0.967987	3.40383				
0.72222	2.52828	0.628073	2.19231							0.969705	3.39602	0.969367	3.39755				
0.723994	2.52625	0.630153	2.19244							0.971087	3.38981	0.970749	3.39132				
0.725769	2.52424	0.632233	2.19257							0.972472	3.38364	0.972133	3.38514				
0.727546	2.52224	0.634313	2.1927							0.973858	3.37751	0.973519	3.379				
0.729324	2.52027	0.636394	2.19283							0.975247	3.37143	0.974907	3.37291				
0.731104	2.51831	0.638474	2.19296							0.976637	3.3654	0.976297	3.36687				
0.732885	2.51637	0.640554	2.19309							0.978029	3.35941	0.977688	3.36087				
0.734668	2.51445	0.642634	2.19321							0.979423	3.35346	0.979082	3.35491				
0.736453	2.51254	0.644715	2.19334							0.980819	3.34756	0.980477	3.349				
0.738239	2.51066	0.646795	2.19346							0.982216	3.34171	0.981874	3.34314				
0.740026	2.50879	0.648875	2.19359							0.983616	3.3359	0.983274	3.33731				
0.741815	2.50693	0.650955	2.19371							0.985017	3.33013	0.984675	3.33153				
0.743606	2.5051	0.653036	2.19383							0.986421	3.3244	0.986077	3.3258				
0.745398	2.50328	0.655116	2.19395							0.987826	3.31871	0.987482	3.3201				
0.747191	2.50147	0.657196	2.19407							0.989233	3.31307	0.988889	3.31445				
0.748986	2.49968	0.659276	2.19419							0.990642	3.30747	0.990297	3.30884				
0.750782	2.49791	0.661357	2.19431							0.992053	3.30191	0.991707	3.30327				
0.75258	2.49615	0.663437	2.19443							0.993465	3.29639	0.99312	3.29773				
0.754379	2.49441	0.665517	2.19455							0.99488	3.29091	0.994534	3.29225				
0.75618	2.49269	0.667597	2.19467							0.996296	3.28547	0.99595	3.2868				
0.757982	2.49098	0.669677	2.19478							0.997715	3.28007	0.997368	3.28138				
0.759785	2.48928	0.671758	2.1949							0.999135	3.27471	0.998787	3.27601				
0.76159	2.4876	0.673838	2.19501							1.00056	3.26938	1.00021	3.27068				
0.763396	2.48594	0.675918	2.19513														
0.765203	2.48428	0.677998	2.19524														
0.767012	2.48265	0.680078	2.19535														
0.768822	2.48102	0.682158	2.19546														
0.770634	2.47941	0.684239	2.19557														
0.772446	2.47782	0.686319	2.19569														
0.774261	2.47624	0.688399	2.1958														
0.776076	2.47467	0.690479	2.1959														
0.777893	2.47312	0.692559	2.19601														
0.779711	2.47157	0.694639	2.19612														
0.78153	2.47005	0.69672	2.19623														
0.78335	2.46853	0.6988	2.19633														
0.785172	2.46703	0.70088	2.19644														
0.786995	2.46554	0.70296	2.19655														
0.78882	2.46406	0.70504	2.19665														
0.790645	2.4626	0.70712	2.19676														
0.792472	2.46115	0.7092	2.19686														
0.7943	2.45971	0.711281	2.19696														
0.796129	2.45828	0.713361	2.19706														
0.79796	2.45686	0.715441	2.19717														
0.799791	2.45546	0.717521	2.19727														
0.801624	2.45407	0.719601	2.19737														
0.803458	2.45268	0.721681	2.19747														
0.805293	2.45131	0.723761	2.19757														
0.80713	2.44996	0.725841	2.19767														
0.808967	2.44861	0.727921	2.19776														
0.810806	2.44727	0.730002	2.19786														
0.812646	2.44595	0.732082	2.19796														
0.814487	2.44463	0.734162	2.19806														
0.816329	2.44333	0.736242	2.19815														
0.818172	2.44204	0.738322	2.19825														
0.820016	2.44075	0.740402	2.19834														
0.821862	2.43948	0.742482	2.19844														
0.823708	2.43822	0.744562	2.19853														
0.825556	2.43697	0.746642	2.19862														
0.827404	2.43573	0.748722	2.19872														
0.829254	2.43449	0.750802	2.19881														
0.831105	2.43327	0.752882	2.1989														
0.832957	2.43206	0.754962	2.19899														
0.83481	2.43086	0.757042	2.19908														
0.836664	2.42966	0.759122	2.19917														
0.838519	2.42848	0.761203	2.19926														
0.840375	2.42731	0.763283	2.19935														
0.842232	2.42614	0.765363	2.19944														
0.84409	2.42498	0.767443	2.19953														
0.845949	2.42384	0.769523	2.19962														
0.847809	2.4227	0.771603	2.1997														
0.84967	2.42157	0.773683	2.19979														
0.851533	2.42045	0.775763	2.19988														
0.853396	2.41934	0.777843	2.19996														
0.85526	2.41824	0.779923	2.20005														
0.857125	2.41714	0.782003	2.20013														
0.858991	2.41606	0.784083	2.20022														
0.860858	2.41498	0.786163	2.2003														
0.862726	2.41391	0.788243	2.20039														
0.864595	2.41285	0.790323	2.20047														
0.866465	2.4118	0.792403	2.20055														
0.868336	2.41075	0.794483	2.20063														
0.870207	2.40972	0.796563	2.20072														
0.87208	2.40869	0.798643	2.2008														
0.873954	2.40767	0.800723	2.20088														
0.875828	2.40665	0.802803	2.20096														
0.877704	2.40565	0.804883	2.20104														
0.87958	2.40465	0.806963	2.20112														
0.881457	2.40366	0.809043	2.2012														
0.883335	2.40268	0.811123	2.20128														
0.885214	2.4017	0.813203	2.20136														
0.887094	2.40073	0.815282	2.20144														
0.888975	2.39977	0.817362	2.20151														
0.890857	2.39882	0.819442	2.20159														
0.892739	2.39787	0.821522	2.20167														
0.894623	2.39693	0.823602	2.20174														
0.896507	2.396	0.825682	2.20182														
0.898392	2.39508	0.827762	2.2019														
0.900278	2.39416	0.829842	2.20197														
0.902165	2.39324	0.831922	2.20205														
0.904053	2.39234	0.834002	2.20212														
0.905941	2.39144	0.836082	2.2022														
0.90783	2.39055	0.838162	2.20227														
0.90972	2.38966	0.840242	2.20234														
0.911611	2.38878	0.842322	2.20242														
0.913503	2.38791	0.844402	2.20249														
0.915396	2.38704	0.846482	2.20256														
0.917289	2.38618	0.848561	2.20263														
0.919183	2.38533	0.850641	2.20271														
0.921078	2.38448	0.852721	2.20278														
0.922974	2.38364	0.854801	2.20285														
0.92487	2.38281	0.856881	2.20292														
0.926767	2.38198	0.858961	2.20299														
0.928665	2.38115	0.861041	2.20306														
0.930564	2.38033	0.863121	2.20313														
0.932464	2.37952	0.865201	2.2032														
0.934364	2.37872	0.86728	2.20327														
0.936265	2.37792	0.86936	2.20334														
0.938167	2.37712	0.87144	2.20341														
0.94007	2.37633	0.87352	2.20347														
0.941973	2.37555	0.8756	2.20354														
0.943877	2.37477	0.87768	2.20361														
0.945782	2.374	0.87976	2.20368														
0.947687	2.37323	0.88184	2.20374														
0.949593	2.37247	0.88392	2.20381														
0.9515	2.37171	0.885999	2.20388														
0.953408	2.37096	0.888079	2.20394														
0.955316	2.37021	0.890159	2.20401														
0.957225	2.36947	0.892239	2.20407														
0.959135	2.36874	0.894319	2.20414														
0.961046	2.36801	0.896399	2.2042														
0.962957	2.36728	0.898478	2.20427														
0.964869	2.36656	0.900558	2.20433														
0.966781	2.36585	0.902638	2.20439														
0.968694	2.36514	0.904718	2.20446														
0.970608	2.36443	0.906798	2.20452														
0.972523	2.36373	0.908878	2.20458														
0.974438	2.36303	0.910958	2.20464														
0.976354	2.36234	0.913037	2.20471														
0.97827	2.36166	0.915117	2.20477														
0.980188	2.36097	0.917197	2.20483														
0.982106	2.3603	0.919277	2.20489														
0.984024	2.35962	0.921357	2.20495														
0.985943	2.35895	0.923436	2.20501														
0.987863	2.35829	0.925516	2.20507														
0.989783	2.35763	0.927596	2.20513														
0.991705	2.35698	0.929676	2.20519														
0.993626	2.35633	0.931756	2.20525														
0.995549	2.35568	0.933835	2.20531														
0.997472	2.35504	0.935915	2.20537														
0.999395	2.3544	0.937995	2.20543														
1.00132	2.35377	0.940075	2.20549														
		0.942155	2.20555														
		0.944234	2.20561														
		0.946314	2.20567														
		0.948394	2.20572														
		0.950474	2.20578														
		0.952554	2.20584														
		0.954633	2.20589														
		0.956713	2.20595														
		0.958793	2.20601														
		0.960873	2.20606														
		0.962952	2.20612														
		0.965032	2.20617														
		0.967112	2.20623														
		0.969192	2.20629														
		0.971271	2.20634														
		0.973351	2.20639														
		0.975431	2.20645														
		0.977511	2.2065														
		0.97959	2.20656														
		0.98167	2.20661														
		0.98375	2.20666														
		0.98583	2.20672														
		0.987909	2.20677														
		0.989989	2.20682														
		0.992069	2.20688														
		0.994149	2.20693														
		0.996228	2.20698														
		0.998308	2.20703														
		1.00039	2.20708														
