Sym0		Asym0		Sym1		Sym2		Sym3		Sym4		Asym1		Asym2		Asym3		Asym4	
531  Points		532  Points		420  Points		157  Points		144  Points		109  Points		486  Points		303  Points		152  Points		116  Points	
Freq (MHz)	Vph (m/ms)	Freq (MHz)	Vph (m/ms)	Freq (MHz)	Vph (m/ms)	Freq (MHz)	Vph (m/ms)	Freq (MHz)	Vph (m/ms)	Freq (MHz)	Vph (m/ms)	Freq (MHz)	Vph (m/ms)	Freq (MHz)	Vph (m/ms)	Freq (MHz)	Vph (m/ms)	Freq (MHz)	Vph (m/ms)
0.000750987	7.48384	0.00022399	0.155711	0.166386	485.084	0.279519	906.75	0.499157	1429.75	0.559018	5219.29	0.139796	310.899	0.332773	3744.28	0.419263	13708.2	0.665541	1762.83
0.00548407	7.48369	0.000462785	0.223465	0.166378	170.564	0.279605	297.224	0.499142	508.511	0.559055	755.928	0.139999	129.376	0.332767	461.324	0.419298	632.386	0.665509	658.922
0.0102168	7.48339	0.000785089	0.290408	0.166365	103.466	0.279778	177.843	0.499112	309.233	0.559148	407.537	0.140367	81.8675	0.332753	245.794	0.419395	323.733	0.665448	405.155
0.0149488	7.48294	0.00118881	0.356374	0.166345	74.2488	0.280038	126.965	0.499069	222.155	0.559295	279.024	0.140899	60.0334	0.33273	167.517	0.419556	217.618	0.665359	292.477
0.0196799	7.48236	0.0016712	0.421136	0.166319	57.8938	0.280384	98.7934	0.499011	173.331	0.559498	212.178	0.141594	47.5231	0.332698	127.047	0.41978	163.95	0.665243	228.813
0.0244096	7.48157	0.00222923	0.484535	0.166287	47.4391	0.280816	80.9142	0.49894	142.091	0.559755	171.211	0.142447	39.4379	0.332659	102.32	0.420066	131.564	0.665101	187.891
0.0291376	7.48062	0.00285952	0.546417	0.166251	40.1793	0.281333	68.5676	0.498856	120.385	0.560067	143.539	0.143455	33.7989	0.332611	85.6449	0.420414	109.903	0.664935	159.37
0.0338635	7.47946	0.00355844	0.606654	0.166212	34.8438	0.281934	59.5368	0.49876	104.424	0.560431	123.598	0.144615	29.6534	0.332557	73.6386	0.420824	94.4023	0.664747	138.353
0.0385869	7.4781	0.0043221	0.665129	0.166169	30.7569	0.282618	52.6495	0.498653	92.1935	0.560848	108.55	0.14592	26.4862	0.332495	64.5807	0.421295	82.7654	0.664538	122.221
0.0433074	7.47652	0.00514659	0.721762	0.166124	27.5263	0.283384	47.2278	0.498535	82.5222	0.561317	96.7921	0.147368	23.9944	0.332428	57.5038	0.421826	73.7112	0.664311	109.448
0.0480243	7.47471	0.00602799	0.776498	0.166079	24.9085	0.284231	42.8522	0.498407	74.6826	0.561837	87.3549	0.148951	21.988	0.332355	51.8217	0.422416	66.4684	0.664068	99.0836
0.052737	7.47263	0.00696229	0.829288	0.166035	22.7444	0.285157	39.2493	0.498271	68.199	0.562407	79.6146	0.150665	20.3419	0.332277	47.159	0.423066	60.5452	0.66381	90.5046
0.057445	7.47027	0.00794559	0.88011	0.165992	20.9257	0.286161	36.2334	0.498126	62.7475	0.563026	73.1528	0.152505	18.9703	0.332196	43.264	0.423773	55.6129	0.66354	83.286
0.0621473	7.46758	0.00897407	0.928953	0.165954	19.376	0.287243	33.6737	0.497975	58.0997	0.563693	67.6781	0.154464	17.8127	0.332111	39.9614	0.424537	51.4434	0.66326	77.1281
0.066843	7.46455	0.0100442	0.975842	0.165922	18.0401	0.288399	31.4755	0.497818	54.0901	0.564406	62.9814	0.156537	16.8247	0.332024	37.1256	0.425358	47.8739	0.662971	71.8129
0.071531	7.46111	0.0111524	1.02078	0.165897	16.8769	0.289629	29.5687	0.497656	50.5956	0.565166	58.9087	0.158719	15.9734	0.331936	34.6644	0.426234	44.7846	0.662676	67.1787
0.0762101	7.45722	0.0122954	1.06382	0.165882	15.8553	0.29093	27.9002	0.49749	47.523	0.565971	55.3441	0.161004	15.2337	0.331847	32.508	0.427164	42.0856	0.662375	63.1024
0.0808785	7.4528	0.01347	1.10498	0.16588	14.9512	0.292303	26.4288	0.497321	44.8002	0.566819	52.1988	0.163387	14.5863	0.331758	30.6033	0.428147	39.7082	0.66207	59.489
0.0855344	7.44778	0.0146733	1.14432	0.165894	14.1461	0.293743	25.1224	0.49715	42.3708	0.567711	49.4035	0.165863	14.0159	0.331671	28.9087	0.429182	37.5988	0.661764	56.2641
0.0901753	7.44204	0.0159026	1.1819	0.165926	13.4248	0.295251	23.9556	0.496979	40.1899	0.568644	46.9032	0.168425	13.5105	0.331587	27.3914	0.430269	35.7151	0.661457	53.3683
0.0947983	7.43547	0.0171555	1.21777	0.165982	12.7756	0.296824	22.9077	0.496808	38.2212	0.569617	44.6541	0.171071	13.0601	0.331506	26.025	0.431405	34.0233	0.661151	50.7537
0.0993996	7.4279	0.0184294	1.252	0.166066	12.1887	0.29846	21.962	0.496637	36.4352	0.570631	42.6204	0.173794	12.6569	0.331429	24.7882	0.432591	32.496	0.660846	48.3813
0.103974	7.41913	0.0197224	1.28464	0.166184	11.6563	0.300158	21.1048	0.496469	34.8078	0.571683	40.7729	0.176591	12.2943	0.331358	23.6635	0.433825	31.1106	0.660544	46.2192
0.108517	7.40889	0.0210325	1.31577	0.166343	11.1719	0.301916	20.3246	0.496304	33.3188	0.572773	39.0875	0.179456	11.9668	0.331293	22.6365	0.435106	29.8487	0.660246	44.2405
0.113018	7.39685	0.0223578	1.34544	0.166523	10.7848	0.303733	19.6119	0.496142	31.9514	0.573899	37.544	0.182386	11.67	0.331236	21.6951	0.436432	28.6947	0.659953	42.423
0.117469	7.38254	0.0236967	1.37373	0.166714	10.4783	0.305606	18.9586	0.495986	30.6912	0.575062	36.1254	0.185377	11.4	0.331188	20.8291	0.437804	27.6357	0.659665	40.7479
0.121854	7.36537	0.0250477	1.4007	0.166901	10.24	0.307534	18.3579	0.495835	29.5263	0.576259	34.8173	0.188423	11.1536	0.331149	20.0299	0.439219	26.6607	0.659384	39.1991
0.126155	7.34456	0.0264095	1.4264	0.167072	10.0609	0.309515	17.804	0.49569	28.4464	0.577491	33.6075	0.191523	10.9279	0.331122	19.2903	0.440678	25.7603	0.659109	37.763
0.130345	7.31904	0.0277808	1.4509	0.167212	9.93413	0.311548	17.2918	0.495552	27.4425	0.578756	32.4854	0.194671	10.7207	0.331106	18.604	0.442178	24.9264	0.658843	36.4277
0.134391	7.28739	0.0291606	1.47427	0.167308	9.85521	0.31363	16.8171	0.495423	26.5069	0.580054	31.4421	0.197864	10.5298	0.331104	17.9654	0.443719	24.1522	0.658585	35.1832
0.138245	7.24784	0.0305478	1.49655	0.167456	9.74467	0.315761	16.376	0.495302	25.6331	0.581383	30.4696	0.20068	10.3753	0.331117	17.37	0.4453	23.4316	0.658336	34.0204
0.141851	7.19819	0.031762	1.51513	0.167632	9.62834	0.317938	15.9652	0.495191	24.8151	0.582744	29.561	0.203104	10.2516	0.331146	16.8137	0.44692	22.7594	0.658097	32.9317
0.145141	7.13612	0.0328006	1.53037	0.167898	9.47644	0.32016	15.582	0.49509	24.0479	0.584134	28.7105	0.205123	10.1544	0.331192	16.2928	0.448578	22.1311	0.657868	31.9104
0.148052	7.0597	0.0336616	1.54258	0.168286	9.29449	0.322425	15.2236	0.495	23.3269	0.585555	27.9126	0.206729	10.0806	0.331257	15.8043	0.450273	21.5425	0.657649	30.9503
0.150539	6.96818	0.0343438	1.55199	0.168843	9.08943	0.324732	14.888	0.494922	22.6482	0.587004	27.1628	0.207914	10.028	0.331343	15.3454	0.452004	20.9902	0.657442	30.0462
0.152599	6.8626	0.034846	1.55878	0.169648	8.86961	0.327079	14.573	0.494856	22.0082	0.588482	26.4569	0.208675	9.995	0.331451	14.9136	0.45377	20.471	0.657246	29.1934
0.154265	6.74566	0.0351677	1.56306	0.170823	8.64515	0.329465	14.277	0.494804	21.4039	0.589987	25.7912	0.209772	9.94849	0.331583	14.5067	0.455571	19.9821	0.657061	28.3878
0.1556	6.62092	0.0356306	1.56914	0.172329	8.4509	0.331887	13.9983	0.494766	20.8323	0.591519	25.1625	0.210967	9.89913	0.331742	14.1228	0.457405	19.521	0.65689	27.6255
0.156673	6.49187	0.0361342	1.57565	0.174232	8.28716	0.334345	13.7355	0.494742	20.2909	0.593077	24.5678	0.212598	9.83391	0.331929	13.7603	0.459271	19.0855	0.656731	26.9032
0.157547	6.36138	0.0368199	1.58432	0.176571	8.15315	0.336836	13.4874	0.494734	19.7776	0.594661	24.0045	0.214669	9.75443	0.332146	13.4175	0.461169	18.6736	0.656585	26.218
0.158273	6.23157	0.0376882	1.59502	0.179349	8.04645	0.339359	13.2528	0.494742	19.2902	0.596271	23.4703	0.217186	9.66251	0.332398	13.0932	0.463097	18.2834	0.656453	25.567
0.158891	6.1039	0.0387399	1.60757	0.182529	7.96315	0.341912	13.0307	0.494767	18.8269	0.597905	22.963	0.220153	9.56009	0.332686	12.786	0.465056	17.9134	0.656334	24.9479
0.159429	5.97931	0.0399756	1.62176	0.186046	7.89868	0.344495	12.8201	0.49481	18.386	0.599563	22.4806	0.223574	9.44913	0.333014	12.4949	0.467043	17.5622	0.65623	24.3584
0.159909	5.85836	0.041396	1.63736	0.189833	7.84871	0.347104	12.6202	0.494871	17.9661	0.601244	22.0214	0.227008	9.34451	0.333385	12.2189	0.469058	17.2282	0.656141	23.7964
0.160348	5.74139	0.0428184	1.65229	0.193828	7.80964	0.349739	12.4301	0.494953	17.5657	0.602949	21.5839	0.230453	9.24561	0.333804	11.957	0.471101	16.9104	0.656067	23.2602
0.160756	5.62853	0.0442426	1.66658	0.197979	7.77869	0.352397	12.2493	0.495054	17.1836	0.604676	21.1665	0.233903	9.15182	0.334275	11.7087	0.47317	16.6076	0.656008	22.748
0.161142	5.51984	0.0456683	1.68025	0.20225	7.75381	0.355077	12.077	0.495178	16.8187	0.606425	20.7679	0.237355	9.06262	0.334803	11.473	0.475264	16.3189	0.655965	22.2584
0.161514	5.41526	0.0470952	1.69335	0.206612	7.73352	0.357778	11.9126	0.495323	16.4699	0.608195	20.387	0.240804	8.9775	0.335395	11.2495	0.477382	16.0432	0.655938	21.7898
0.161877	5.31472	0.048523	1.70589	0.211043	7.71672	0.360497	11.7555	0.495493	16.1362	0.609986	20.0225	0.244244	8.89601	0.336056	11.0375	0.479525	15.7798	0.655928	21.3411
0.162234	5.2181	0.0499515	1.71792	0.21553	7.70264	0.363232	11.6054	0.495687	15.8167	0.611797	19.6735	0.247671	8.8177	0.336694	10.8618	0.48169	15.5279	0.655935	20.911
0.162589	5.12526	0.0513807	1.72945	0.220059	7.69068	0.365982	11.4616	0.495907	15.5107	0.613628	19.3391	0.251079	8.74217	0.337287	10.7185	0.483876	15.2867	0.655959	20.4985
0.162899	5.04734	0.0528102	1.74051	0.224623	7.68042	0.368744	11.3239	0.496155	15.2174	0.615478	19.0183	0.254461	8.66903	0.337814	10.6043	0.486084	15.0557	0.656001	20.1025
0.163164	4.98302	0.0542399	1.75113	0.229215	7.67152	0.371517	11.1916	0.496431	14.9362	0.617347	18.7104	0.25781	8.59788	0.338256	10.5168	0.488312	14.8341	0.656062	19.7222
0.163385	4.93125	0.0556698	1.76133	0.233829	7.66373	0.374299	11.0646	0.496737	14.6663	0.619234	18.4146	0.26112	8.52838	0.338595	10.4539	0.490558	14.6214	0.656142	19.3565
0.163561	4.89121	0.0570997	1.77113	0.238462	7.65686	0.377087	10.9425	0.497075	14.4072	0.621138	18.1303	0.264382	8.46016	0.338819	10.4144	0.492823	14.4171	0.656241	19.0049
0.163691	4.86225	0.0585295	1.78055	0.243111	7.65075	0.379519	10.8397	0.497446	14.1585	0.62306	17.8567	0.267587	8.39288	0.339151	10.3584	0.495104	14.2207	0.65636	18.6664
0.163774	4.84393	0.0599591	1.78961	0.247772	7.64527	0.381594	10.7546	0.497852	13.9195	0.624998	17.5934	0.270727	8.32619	0.339525	10.2988	0.497402	14.0318	0.6565	18.3405
0.163895	4.81789	0.0613886	1.79833	0.252444	7.64033	0.38331	10.686	0.498295	13.6898	0.626952	17.3397	0.273792	8.25979	0.340055	10.2196	0.499715	13.85	0.656661	18.0265
0.164027	4.78996	0.0628177	1.80672	0.257125	7.63584	0.384666	10.6327	0.498778	13.469	0.628922	17.0951	0.276772	8.19334	0.340765	10.1228	0.502041	13.6747	0.656843	17.7238
0.164207	4.7526	0.0642464	1.8148	0.261814	7.63175	0.385663	10.5941	0.499301	13.2567	0.630906	16.8592	0.279656	8.12658	0.341684	10.0103	0.504381	13.5058	0.657048	17.4318
0.164438	4.70635	0.0656748	1.82259	0.266509	7.62799	0.386301	10.5697	0.499868	13.0526	0.632905	16.6316	0.282435	8.05922	0.342851	9.88493	0.506732	13.3428	0.657277	17.1501
0.164721	4.65189	0.0671027	1.83009	0.27121	7.62451	0.387217	10.5349	0.500482	12.8563	0.634917	16.4117	0.2851	7.99104	0.344317	9.74942	0.509094	13.1854	0.657529	16.8782
0.165058	4.58998	0.0685302	1.83733	0.275915	7.62128	0.388212	10.4974	0.501143	12.6675	0.636943	16.1992	0.287642	7.92185	0.345926	9.62265	0.511465	13.0333	0.657805	16.6155
0.165453	4.52144	0.0699571	1.84432	0.280624	7.61826	0.389565	10.4472	0.501856	12.4859	0.638981	15.9938	0.290054	7.85153	0.347685	9.50437	0.513845	12.8863	0.658107	16.3618
0.165857	4.45546	0.0713835	1.85106	0.285336	7.61544	0.391273	10.3848	0.502623	12.3113	0.641031	15.7951	0.292331	7.77999	0.349599	9.39428	0.516232	12.744	0.658436	16.1165
0.16627	4.39194	0.0728095	1.85757	0.290051	7.61277	0.393333	10.3109	0.503448	12.1433	0.643092	15.6027	0.294471	7.70722	0.351672	9.29208	0.518624	12.6063	0.658791	15.8794
0.166692	4.33075	0.0742349	1.86386	0.294768	7.61024	0.395742	10.2263	0.504332	11.9819	0.645163	15.4164	0.296473	7.63326	0.353906	9.1974	0.521021	12.4728	0.659175	15.6501
0.167125	4.2718	0.0756597	1.86994	0.299486	7.60783	0.398494	10.1319	0.50528	11.8267	0.647245	15.2359	0.298339	7.55822	0.356299	9.10985	0.523422	12.3434	0.659588	15.4282
0.167568	4.21497	0.0770839	1.87582	0.304205	7.60551	0.401228	10.0399	0.506295	11.6776	0.649335	15.0609	0.300073	7.48225	0.358848	9.02902	0.525823	12.2178	0.660031	15.2135
0.16802	4.16018	0.0785077	1.88151	0.308925	7.60329	0.403941	9.95034	0.507379	11.5343	0.651435	14.8911	0.30168	7.40553	0.361547	8.95444	0.528226	12.0958	0.660505	15.0057
0.168484	4.10733	0.0799308	1.88701	0.313645	7.60113	0.40663	9.86294	0.508537	11.3968	0.653542	14.7264	0.303167	7.32828	0.36439	8.88567	0.530627	11.9774	0.661012	14.8045
0.168957	4.05634	0.0813534	1.89234	0.318364	7.59903	0.409293	9.77752	0.509608	11.2815	0.655656	14.5664	0.304544	7.25071	0.367369	8.82224	0.533025	11.8622	0.661553	14.6097
0.169442	4.00712	0.0827754	1.8975	0.323083	7.59698	0.411924	9.69393	0.510568	11.1864	0.657776	14.411	0.305819	7.17305	0.370474	8.7637	0.53542	11.7501	0.662128	14.4209
0.169936	3.9596	0.0841968	1.90251	0.3278	7.59496	0.414522	9.61199	0.511396	11.1099	0.659902	14.26	0.307	7.0955	0.373695	8.7096	0.537808	11.6409	0.662739	14.2381
0.170442	3.9137	0.0856177	1.90735	0.332516	7.59295	0.417082	9.53156	0.512073	11.0509	0.662033	14.1132	0.308098	7.01828	0.377024	8.65954	0.540189	11.5345	0.663388	14.061
0.170958	3.86935	0.087038	1.91206	0.337229	7.59095	0.4196	9.4525	0.512583	11.0083	0.664167	13.9703	0.30912	6.94155	0.380451	8.61313	0.542561	11.4308	0.664076	13.8894
0.171484	3.8265	0.0884578	1.91662	0.34194	7.58895	0.422075	9.37467	0.512916	10.9813	0.666305	13.8313	0.310074	6.86548	0.383967	8.57003	0.544619	11.3425	0.664805	13.7231
0.172021	3.78506	0.089877	1.92104	0.346647	7.58693	0.424501	9.29796	0.513401	10.943	0.668445	13.6959	0.310969	6.7902	0.387564	8.5299	0.546366	11.2686	0.665575	13.562
0.172569	3.74499	0.0912958	1.92534	0.35135	7.58487	0.426877	9.22225	0.513939	10.902	0.670586	13.564	0.31181	6.71582	0.391235	8.49247	0.547805	11.2085	0.666388	13.4058
0.173126	3.70623	0.092714	1.92951	0.356049	7.58277	0.4292	9.14744	0.51469	10.8472	0.672728	13.4355	0.312605	6.64245	0.394971	8.45747	0.548938	11.1615	0.667247	13.2544
0.173695	3.66872	0.0941317	1.93357	0.360741	7.5806	0.431468	9.07347	0.515668	10.7796	0.674869	13.3101	0.313358	6.57016	0.398767	8.42467	0.54977	11.1273	0.668152	13.1077
0.174273	3.63241	0.0955489	1.93751	0.365427	7.57835	0.433678	9.00025	0.516897	10.7002	0.677009	13.1878	0.314075	6.49902	0.402618	8.39386	0.550301	11.1056	0.669105	12.9655
0.174862	3.59726	0.0969656	1.94134	0.370105	7.57599	0.43583	8.92773	0.518402	10.6103	0.679147	13.0684	0.31476	6.42906	0.406517	8.36486	0.551062	11.0745	0.670108	12.8278
0.17546	3.56321	0.0983818	1.94506	0.374773	7.5735	0.437924	8.85588	0.520216	10.5113	0.681281	12.9519	0.315418	6.36033	0.410461	8.3375	0.551888	11.041	0.671162	12.6942
0.176069	3.53023	0.0997976	1.94869	0.379431	7.57086	0.439958	8.78467	0.522123	10.4168	0.683411	12.838	0.316051	6.29284	0.414444	8.31163	0.553008	10.9958	0.672268	12.5649
0.176688	3.49827	0.101213	1.95221	0.384075	7.56802	0.441936	8.71411	0.524123	10.3264	0.685536	12.7267	0.316663	6.22662	0.418464	8.28713	0.554417	10.9393	0.673429	12.4395
0.177316	3.4673	0.102628	1.95565	0.388704	7.56495	0.443858	8.64421	0.526216	10.24	0.687654	12.6179	0.317257	6.16167	0.422516	8.26388	0.556112	10.8719	0.674646	12.3181
0.177954	3.43727	0.104042	1.95899	0.393313	7.56159	0.445727	8.575	0.528402	10.1575	0.689765	12.5114	0.317835	6.09799	0.426598	8.24177	0.558084	10.7942	0.675921	12.2005
0.178602	3.40814	0.105456	1.96224	0.397901	7.55789	0.447549	8.50655	0.530679	10.0788	0.691868	12.4072	0.3184	6.03558	0.430707	8.22071	0.560326	10.7066	0.677253	12.0865
0.179259	3.37989	0.10687	1.96542	0.402461	7.55376	0.449329	8.43893	0.533046	10.0036	0.693961	12.3052	0.318952	5.97443	0.434841	8.20061	0.562544	10.6206	0.678646	11.9762
0.179925	3.35248	0.108283	1.96851	0.406987	7.54911	0.451075	8.37227	0.535501	9.93174	0.696043	12.2053	0.319495	5.91452	0.438996	8.1814	0.564735	10.5362	0.680099	11.8694
0.180601	3.32588	0.109695	1.97152	0.411472	7.5438	0.452796	8.3067	0.538041	9.86316	0.698114	12.1073	0.320029	5.85585	0.443172	8.163	0.566898	10.4532	0.681416	11.7791
0.181286	3.30006	0.111108	1.97446	0.415906	7.53768	0.454504	8.24241	0.540664	9.79765	0.700172	12.0112	0.320555	5.79839	0.447366	8.14536	0.569031	10.3716	0.682576	11.7041
0.18198	3.27499	0.11252	1.97733	0.420274	7.53053	0.456216	8.17963	0.543367	9.73505	0.702216	11.917	0.321076	5.74212	0.451576	8.12841	0.571134	10.2913	0.683561	11.6434
0.182683	3.25064	0.113931	1.98013	0.42456	7.52208	0.457951	8.11868	0.546146	9.67522	0.703985	11.8363	0.321592	5.68702	0.4558	8.1121	0.573204	10.2122	0.684357	11.5963
0.183395	3.22699	0.115342	1.98286	0.428741	7.51198	0.459734	8.05992	0.548998	9.61799	0.705484	11.7686	0.322105	5.63308	0.460038	8.09639	0.57524	10.1343	0.684952	11.5621
0.184115	3.20401	0.116753	1.98553	0.432788	7.49978	0.461597	8.00383	0.551921	9.56323	0.706717	11.7132	0.322614	5.58026	0.464287	8.08122	0.577242	10.0575	0.685337	11.5405
0.184844	3.18167	0.118164	1.98813	0.436665	7.48493	0.463578	7.95099	0.55491	9.51079	0.707687	11.6699	0.323121	5.52855	0.468546	8.06655	0.579208	9.98174	0.685897	11.5096
0.185582	3.15997	0.119574	1.99067	0.440329	7.4668	0.465722	7.90205	0.557962	9.46056	0.708398	11.6383	0.323626	5.47792	0.472814	8.05235	0.581138	9.90702	0.686513	11.4764
0.186327	3.13886	0.120984	1.99316	0.443737	7.44474	0.468078	7.85769	0.561074	9.41239	0.708851	11.6181	0.324131	5.42835	0.477089	8.03858	0.583031	9.83327	0.687364	11.432
0.187081	3.11834	0.122393	1.99558	0.446848	7.41821	0.470687	7.81848	0.564243	9.36617	0.709502	11.5893	0.324635	5.37981	0.481371	8.0252	0.584887	9.76045	0.688461	11.3767
0.187844	3.09838	0.123802	1.99796	0.449637	7.38696	0.473579	7.78474	0.567465	9.32179	0.710206	11.5582	0.325139	5.33227	0.485656	8.01217	0.586705	9.68855	0.689821	11.3114
0.188614	3.07897	0.125211	2.00028	0.452101	7.35107	0.47676	7.7564	0.570737	9.27914	0.711161	11.5161	0.325644	5.28573	0.489945	7.99946	0.588487	9.61752	0.691462	11.2367
0.189392	3.06007	0.12662	2.00255	0.454261	7.311	0.480215	7.73304	0.574057	9.23812	0.712362	11.4635	0.32615	5.24014	0.494236	7.98704	0.590232	9.54736	0.693404	11.1536
0.190178	3.04169	0.128028	2.00477	0.456151	7.26745	0.483912	7.714	0.577421	9.19863	0.713804	11.4005	0.326657	5.1955	0.498528	7.97488	0.591942	9.47806	0.69541	11.0733
0.190971	3.02379	0.129436	2.00694	0.457813	7.22117	0.48781	7.69853	0.580826	9.16058	0.715481	11.3275	0.327166	5.15177	0.502817	7.96294	0.593618	9.4096	0.69748	10.9955
0.191772	3.00637	0.130844	2.00906	0.459288	7.17287	0.491872	7.68591	0.584271	9.1239	0.717386	11.2451	0.327677	5.10894	0.507105	7.95119	0.59526	9.34197	0.699612	10.9202
0.192581	2.98941	0.132251	2.01114	0.460611	7.12318	0.496063	7.67554	0.587752	9.08851	0.719269	11.1639	0.32819	5.06697	0.511387	7.93961	0.596871	9.2752	0.701806	10.8474
0.193397	2.97289	0.133658	2.01318	0.461811	7.07256	0.500356	7.66695	0.591268	9.05432	0.721129	11.084	0.328706	5.02586	0.515662	7.92814	0.598453	9.20927	0.70406	10.7769
0.19422	2.95679	0.135065	2.01517	0.462911	7.0214	0.50473	7.65973	0.594816	9.02127			0.329224	4.98558	0.519929	7.91676	0.600009	9.14421	0.706374	10.7086
0.19505	2.94112	0.136472	2.01713	0.46393	6.96998	0.509167	7.65361	0.598393	8.98931			0.329746	4.9461	0.524185	7.90543	0.601541	9.08004	0.708745	10.6425
0.195887	2.92584	0.137878	2.01904	0.464881	6.91853	0.513655	7.64836	0.601998	8.95835			0.33027	4.90742	0.528426	7.8941	0.603052	9.01678	0.711174	10.5785
0.196732	2.91095	0.139284	2.02091	0.465776	6.86722	0.518184	7.64381	0.605629	8.92836			0.330798	4.8695	0.532651	7.88273	0.604547	8.95445	0.713658	10.5165
0.197583	2.89644	0.14069	2.02275	0.466623	6.81615	0.522745	7.63983	0.609285	8.89927			0.331329	4.83233	0.536854	7.87127	0.60603	8.89311	0.716195	10.4565
0.198441	2.88229	0.142096	2.02455	0.467431	6.76545	0.527334	7.63631	0.612962	8.87103			0.331864	4.79589	0.541033	7.85966	0.607506	8.83279	0.718785	10.3983
0.199305	2.86849	0.143501	2.02632	0.468204	6.71516	0.531945	7.63317	0.61666	8.8436			0.332403	4.76017	0.545183	7.84783	0.608981	8.77355	0.721424	10.3418
0.200176	2.85504	0.144907	2.02805	0.468947	6.66537	0.536574	7.63035	0.620376	8.81692			0.332945	4.72514	0.549298	7.83573	0.61046	8.71545		
0.201053	2.84192	0.146312	2.02974	0.469665	6.61609	0.541219	7.6278	0.624109	8.79097			0.333491	4.69079	0.553372	7.82326	0.611952	8.65857		
0.201937	2.82912	0.147716	2.03141	0.47036	6.56738	0.545877	7.62547	0.627858	8.76568			0.334042	4.6571	0.557397	7.81033	0.613464	8.60298		
0.202827	2.81663	0.149121	2.03304	0.471036	6.51924	0.550546	7.62334	0.631621	8.74103			0.334596	4.62406	0.561365	7.79684	0.615007	8.5488		
0.203723	2.80444	0.150525	2.03464	0.471694	6.47171	0.555224	7.62137	0.635396	8.71698			0.335155	4.59164	0.565266	7.78266	0.616591	8.49613		
0.204625	2.79255	0.151929	2.03622	0.472338	6.42478	0.55991	7.61955	0.639182	8.69348			0.335717	4.55984	0.56909	7.76766	0.618229	8.4451		
0.205534	2.78094	0.153333	2.03776	0.472967	6.37847	0.564603	7.61784	0.642976	8.67051			0.336284	4.52864	0.572822	7.75168	0.619934	8.39585		
0.206448	2.76961	0.154737	2.03928	0.473585	6.33279	0.569301	7.61624	0.646778	8.64802			0.336856	4.49802	0.576449	7.73457	0.621722	8.34856		
0.207367	2.75854	0.156141	2.04076	0.474193	6.28774	0.574004	7.61473	0.650586	8.62598			0.337431	4.46798	0.579956	7.71615	0.623609	8.30337		
0.208293	2.74774	0.157544	2.04223	0.474791	6.24331	0.578711	7.6133	0.654397	8.60437			0.338011	4.43849	0.583326	7.69623	0.625611	8.26047		
0.209224	2.73718	0.158947	2.04366	0.47538	6.1995	0.583422	7.61194	0.65821	8.58313			0.338596	4.40954	0.586545	7.67465	0.627746	8.22002		
0.210161	2.72687	0.160351	2.04507	0.475963	6.15632	0.588135	7.61064	0.662024	8.56224			0.339185	4.38113	0.589597	7.65127	0.63003	8.18216		
0.211103	2.7168	0.161753	2.04646	0.476539	6.11376	0.592851	7.60938	0.665835	8.54167			0.339778	4.35323	0.592471	7.62598	0.632474	8.14699		
0.21205	2.70697	0.163156	2.04782	0.477109	6.07181	0.597569	7.60817	0.669643	8.52138			0.340376	4.32584	0.595159	7.59872	0.63509	8.11457		
0.213003	2.69735	0.164559	2.04915	0.477674	6.03046	0.602287	7.60699	0.673444	8.50132			0.340978	4.29894	0.597658	7.56949	0.637881	8.0849		
0.213961	2.68795	0.165961	2.05047	0.478235	5.98972	0.607007	7.60584	0.677236	8.48148			0.341585	4.27252	0.599968	7.53838	0.640846	8.05789		
0.214924	2.67877	0.167363	2.05176	0.478792	5.94957	0.611727	7.60472	0.681016	8.46179			0.342197	4.24658	0.602098	7.50549	0.643981	8.03342		
0.215892	2.66979	0.168765	2.05303	0.479346	5.91	0.616447	7.60361	0.684781	8.44224			0.342813	4.22109	0.604058	7.47102	0.647276	8.01132		
0.216866	2.66101	0.170167	2.05428	0.479897	5.87102	0.621166	7.60252	0.688528	8.42276			0.343433	4.19605	0.60586	7.43515	0.650718	7.99137		
0.217844	2.65243	0.171569	2.05551	0.480446	5.8326	0.625885	7.60143	0.692253	8.40331			0.344058	4.17146	0.607519	7.39809	0.654295	7.97337		
0.218827	2.64404	0.172971	2.05671	0.480992	5.79474	0.630602	7.60034	0.695953	8.38386			0.344688	4.14729	0.60905	7.36005	0.657991	7.95708		
0.219814	2.63583	0.174372	2.0579	0.481537	5.75744	0.635317	7.59925	0.699622	8.36433			0.345322	4.12354	0.610469	7.32124	0.661792	7.94231		
0.220807	2.6278	0.175773	2.05907	0.482081	5.72068	0.64003	7.59814	0.703256	8.34468			0.345961	4.1002	0.611787	7.28182	0.665687	7.92886		
0.221804	2.61995	0.177174	2.06022	0.482623	5.68445	0.644741	7.59702	0.70685	8.32485			0.346604	4.07727	0.613019	7.24196	0.669661	7.91656		
0.222805	2.61226	0.178575	2.06135	0.483165	5.64876	0.649448	7.59588	0.710398	8.30477			0.347252	4.05472	0.614173	7.20179	0.673706	7.90528		
0.223811	2.60474	0.179976	2.06247	0.483707	5.61358	0.654151	7.5947	0.713893	8.28439			0.347905	4.03256	0.615261	7.16143	0.677812	7.89486		
0.224822	2.59738	0.181377	2.06356	0.484248	5.57891	0.658848	7.59349	0.71733	8.26361			0.348561	4.01077	0.61629	7.12099	0.681971	7.88522		
0.225836	2.59018	0.182778	2.06464	0.484789	5.54475	0.663541	7.59222	0.7207	8.24239			0.349223	3.98935	0.617267	7.08054	0.686176	7.87624		
0.226855	2.58313	0.184178	2.0657	0.485331	5.51108	0.668226	7.5909					0.349889	3.96829	0.618199	7.04015	0.69042	7.86784		
0.227879	2.57623	0.185579	2.06675	0.485872	5.47789	0.672903	7.58951					0.350559	3.94758	0.619091	6.9999	0.6947	7.85997		
0.228906	2.56947	0.186979	2.06778	0.486415	5.44518	0.677571	7.58803					0.351234	3.92721	0.619948	6.95982	0.699011	7.85255		
0.229938	2.56286	0.188379	2.06879	0.486958	5.41293	0.682229	7.58645					0.351914	3.90717	0.620774	6.91996	0.703348	7.84553		
0.230973	2.55638	0.189779	2.06979	0.487502	5.38115	0.686872	7.58475					0.352598	3.88747	0.621572	6.88034	0.707709	7.83887		
0.232013	2.55003	0.191179	2.07077	0.488047	5.34982	0.691501	7.5829					0.353286	3.86808	0.622345	6.84101	0.71209	7.83253		
0.233056	2.54382	0.192578	2.07174	0.488594	5.31894	0.696111	7.58087					0.353978	3.84902	0.623096	6.80197	0.71649	7.82648		
0.234104	2.53773	0.193978	2.0727	0.489141	5.28849	0.700698	7.57863					0.354676	3.83025	0.623827	6.76326	0.720906	7.82069		
0.235155	2.53177	0.195378	2.07364	0.48969	5.25846	0.705258	7.57613					0.355377	3.81179	0.62454	6.72488				
0.23621	2.52593	0.196777	2.07456	0.490241	5.22886	0.709785	7.57331					0.356083	3.79363	0.625237	6.68685				
0.237268	2.5202	0.198176	2.07548	0.490793	5.19968	0.714272	7.57009					0.356793	3.77575	0.62592	6.64917				
0.238331	2.51459	0.199575	2.07638	0.491347	5.1709	0.718707	7.56638					0.357507	3.75816	0.626589	6.61186				
0.239396	2.5091	0.200974	2.07727	0.491903	5.14252	0.723079	7.56206					0.358226	3.74085	0.627247	6.57492				
0.240466	2.50371	0.202373	2.07814	0.492461	5.11453							0.358949	3.7238	0.627894	6.53836				
0.241539	2.49843	0.203772	2.079	0.49302	5.08693							0.359676	3.70703	0.628532	6.50217				
0.242615	2.49325	0.205171	2.07985	0.493582	5.05971							0.360408	3.69051	0.62916	6.46637				
0.243695	2.48817	0.20657	2.08069	0.494146	5.03286							0.361144	3.67425	0.629781	6.43094				
0.244778	2.4832	0.207968	2.08152	0.494711	5.00637							0.361884	3.65824	0.630394	6.3959				
0.245864	2.47832	0.209367	2.08233	0.49528	4.98025							0.362628	3.64247	0.631001	6.36124				
0.246954	2.47353	0.210765	2.08314	0.49585	4.95447							0.363376	3.62694	0.631601	6.32695				
0.248046	2.46883	0.212163	2.08393	0.496423	4.92905							0.364128	3.61165	0.632197	6.29305				
0.249142	2.46423	0.213561	2.08471	0.496998	4.90396							0.364885	3.5966	0.632787	6.25952				
0.250241	2.45971	0.214959	2.08548	0.497575	4.87921							0.365645	3.58176	0.633373	6.22636				
0.251343	2.45528	0.216357	2.08624	0.498155	4.85479							0.36641	3.56715	0.633955	6.19357				
0.252448	2.45094	0.217755	2.08699	0.498738	4.83069							0.367178	3.55276	0.634534	6.16115				
0.253557	2.44667	0.219153	2.08774	0.499323	4.80691							0.367951	3.53858	0.635109	6.1291				
0.254668	2.44248	0.22055	2.08847	0.49991	4.78344							0.368728	3.52461	0.635681	6.09741				
0.255781	2.43838	0.221948	2.08919	0.5005	4.76028							0.369508	3.51085	0.636251	6.06607				
0.256898	2.43435	0.223345	2.0899	0.501093	4.73742							0.370293	3.49729	0.636818	6.03509				
0.258018	2.43039	0.224743	2.0906	0.501688	4.71486							0.371081	3.48392	0.637383	6.00446				
0.25914	2.42651	0.22614	2.0913	0.502287	4.69259							0.371873	3.47075	0.637947	5.97418				
0.260265	2.42269	0.227537	2.09198	0.502887	4.6706							0.372669	3.45777	0.638509	5.94423				
0.261393	2.41895	0.228934	2.09266	0.503491	4.6489							0.373469	3.44498	0.63907	5.91463				
0.262523	2.41527	0.230331	2.09333	0.504097	4.62748							0.374273	3.43237	0.639629	5.88536				
0.263656	2.41167	0.231728	2.09399	0.504706	4.60632							0.37508	3.41994	0.640188	5.85642				
0.264792	2.40812	0.233125	2.09464	0.505317	4.58544							0.375892	3.40768	0.640746	5.8278				
0.26593	2.40464	0.234522	2.09528	0.505932	4.56481							0.376707	3.3956	0.641303	5.79951				
0.267071	2.40122	0.235918	2.09592	0.506549	4.54445							0.377525	3.38369	0.64186	5.77153				
0.268214	2.39787	0.237315	2.09654	0.507169	4.52434							0.378348	3.37195	0.642416	5.74387				
0.26936	2.39457	0.238711	2.09716	0.507792	4.50448							0.379174	3.36037	0.642973	5.71652				
0.270508	2.39133	0.240108	2.09778	0.508418	4.48487							0.380004	3.34895	0.643529	5.68948				
0.271658	2.38815	0.241504	2.09838	0.509046	4.4655							0.380837	3.33769	0.644085	5.66273				
0.272811	2.38502	0.2429	2.09898	0.509678	4.44637							0.381674	3.32659	0.644642	5.63628				
0.273966	2.38195	0.244296	2.09957	0.510312	4.42748							0.382514	3.31564	0.645199	5.61013				
0.275123	2.37893	0.245693	2.10015	0.510949	4.40881							0.383359	3.30484	0.645756	5.58427				
0.276283	2.37597	0.247089	2.10073	0.511589	4.39037							0.384206	3.29418	0.646314	5.55869				
0.277445	2.37305	0.248485	2.1013	0.512232	4.37216							0.385057	3.28367	0.646873	5.53339				
0.278609	2.37018	0.24988	2.10186	0.512877	4.35417							0.385912	3.27331	0.647432	5.50837				
0.279775	2.36737	0.251276	2.10241	0.513526	4.33639							0.38677	3.26308	0.647991	5.48363				
0.280943	2.3646	0.252672	2.10296	0.514177	4.31882							0.387631	3.25299	0.648552	5.45916				
0.282114	2.36188	0.254067	2.10351	0.514831	4.30147							0.388496	3.24303	0.649114	5.43495				
0.283286	2.3592	0.255463	2.10404	0.515488	4.28432							0.389364	3.23321	0.649676	5.41101				
0.284461	2.35657	0.256858	2.10457	0.516148	4.26737							0.390236	3.22352	0.65024	5.38732				
0.285638	2.35399	0.258254	2.1051	0.516811	4.25063							0.391111	3.21395	0.650804	5.36389				
0.286816	2.35144	0.259649	2.10562	0.517477	4.23408							0.391989	3.20452	0.65137	5.34072				
0.287997	2.34894	0.261044	2.10613	0.518145	4.21772							0.39287	3.1952	0.651937	5.31779				
0.289179	2.34648	0.26244	2.10664	0.518817	4.20156							0.393755	3.18601	0.652506	5.29511				
0.290364	2.34407	0.263835	2.10714	0.519491	4.18558							0.394643	3.17694	0.653075	5.27267				
0.29155	2.34169	0.26523	2.10763	0.520168	4.16979							0.395534	3.16798	0.653646	5.25047				
0.292738	2.33935	0.266625	2.10812	0.520848	4.15418							0.396428	3.15914	0.654219	5.22851				
0.293928	2.33705	0.268019	2.10861	0.521531	4.13875							0.397326	3.15042	0.654792	5.20677				
0.29512	2.33478	0.269414	2.10909	0.522217	4.12349							0.398227	3.1418	0.655368	5.18527				
0.296314	2.33255	0.270809	2.10956	0.522906	4.10841							0.399131	3.1333	0.655944	5.16399				
0.29751	2.33036	0.272204	2.11003	0.523597	4.0935							0.400038	3.1249	0.656523	5.14294				
0.298707	2.32821	0.273598	2.11049	0.524291	4.07876							0.400948	3.11662	0.657103	5.12211				
0.299906	2.32609	0.274993	2.11095	0.524988	4.06419							0.401861	3.10843	0.657684	5.10149				
0.301106	2.324	0.276387	2.1114	0.525688	4.04978							0.402777	3.10035	0.658267	5.08108				
0.302309	2.32194	0.277782	2.11185	0.526391	4.03553							0.403696	3.09237	0.658852	5.06089				
0.303513	2.31992	0.279176	2.1123	0.527096	4.02144							0.404618	3.08449	0.659439	5.04091				
0.304719	2.31793	0.28057	2.11274	0.527805	4.00751							0.405543	3.07671	0.660027	5.02113				
0.305926	2.31597	0.281964	2.11317	0.528516	3.99373							0.406471	3.06903	0.660617	5.00155				
0.307135	2.31405	0.283359	2.1136	0.52923	3.9801							0.407402	3.06144	0.661209	4.98218				
0.308345	2.31215	0.284753	2.11403	0.529947	3.96662							0.408336	3.05394	0.661802	4.963				
0.309557	2.31028	0.286147	2.11445	0.530666	3.9533							0.409273	3.04654	0.662398	4.94402				
0.310771	2.30844	0.28754	2.11486	0.531388	3.94011							0.410213	3.03922	0.662995	4.92522				
0.311986	2.30663	0.288934	2.11527	0.532113	3.92707							0.411156	3.032	0.663594	4.90662				
0.313203	2.30485	0.290328	2.11568	0.532841	3.91417							0.412101	3.02486	0.664195	4.88821				
0.314421	2.30309	0.291722	2.11609	0.533572	3.90141							0.413049	3.01781	0.664798	4.86998				
0.31564	2.30137	0.293115	2.11649	0.534305	3.88879							0.414	3.01085	0.665403	4.85193				
0.316861	2.29966	0.294509	2.11688	0.535041	3.87631							0.414954	3.00397	0.666009	4.83406				
0.318084	2.29799	0.295903	2.11727	0.53578	3.86395							0.415911	2.99717	0.666618	4.81636				
0.319308	2.29634	0.297296	2.11766	0.536521	3.85173							0.41687	2.99045	0.667229	4.79885				
0.320533	2.29471	0.298689	2.11804	0.537265	3.83964							0.417832	2.98382	0.667841	4.7815				
0.32176	2.29311	0.300083	2.11842	0.538012	3.82768							0.418796	2.97726	0.668456	4.76433				
0.322988	2.29154	0.301476	2.1188	0.538762	3.81584							0.419764	2.97078	0.669072	4.74732				
0.324217	2.28998	0.302869	2.11917	0.539514	3.80413							0.420734	2.96438	0.669691	4.73048				
0.325448	2.28845	0.304262	2.11954	0.540269	3.79254							0.421706	2.95805	0.670311	4.71381				
0.32668	2.28695	0.305655	2.1199	0.541027	3.78107							0.422682	2.95179	0.670933	4.69729				
0.327913	2.28546	0.307048	2.12026	0.541787	3.76972							0.42366	2.94561	0.671558	4.68094				
0.329148	2.284	0.308441	2.12062	0.54255	3.75849							0.42464	2.9395	0.672184	4.66474				
0.330384	2.28256	0.309834	2.12097	0.543315	3.74738							0.425623	2.93347	0.672813	4.6487				
0.331621	2.28114	0.311227	2.12133	0.544084	3.73637							0.426609	2.9275	0.673444	4.63281				
0.33286	2.27974	0.31262	2.12167	0.544854	3.72549							0.427597	2.9216	0.674076	4.61707				
0.334099	2.27836	0.314013	2.12202	0.545628	3.71471							0.428587	2.91577	0.674711	4.60149				
0.33534	2.277	0.315405	2.12236	0.546404	3.70405							0.42958	2.91	0.675348	4.58605				
0.336582	2.27566	0.316798	2.12269	0.547182	3.69349							0.430576	2.9043	0.675986	4.57076				
0.337825	2.27434	0.31819	2.12303	0.547964	3.68304							0.431574	2.89867	0.676627	4.55561				
0.33907	2.27304	0.319583	2.12336	0.548747	3.67269							0.432574	2.8931	0.67727	4.5406				
0.340315	2.27176	0.320975	2.12368	0.549534	3.66245							0.433577	2.88759	0.677915	4.52574				
0.341562	2.27049	0.322367	2.12401	0.550323	3.65232							0.434583	2.88215	0.678562	4.51101				
0.34281	2.26925	0.32376	2.12433	0.551114	3.64228							0.43559	2.87676	0.679211	4.49642				
0.344059	2.26802	0.325152	2.12465	0.551908	3.63234							0.4366	2.87144	0.679863	4.48197				
0.345309	2.26681	0.326544	2.12496	0.552704	3.62251							0.437613	2.86618	0.680516	4.46765				
0.34656	2.26562	0.327936	2.12527	0.553503	3.61277							0.438627	2.86097	0.681171	4.45346				
0.347812	2.26444	0.329328	2.12558	0.554305	3.60313							0.439644	2.85582	0.681829	4.4394				
0.349065	2.26328	0.33072	2.12589	0.555109	3.59358							0.440664	2.85073	0.682489	4.42547				
0.35032	2.26214	0.332112	2.12619	0.555915	3.58413							0.441685	2.8457	0.68315	4.41167				
0.351575	2.26101	0.333504	2.12649	0.556724	3.57476							0.442709	2.84072	0.683814	4.39799				
0.352832	2.2599	0.334896	2.12679	0.557536	3.56549							0.443735	2.8358	0.68448	4.38444				
0.354089	2.2588	0.336287	2.12709	0.558349	3.55632							0.444764	2.83093	0.685148	4.37101				
0.355347	2.25772	0.337679	2.12738	0.559166	3.54722							0.445794	2.82611	0.685818	4.3577				
0.356607	2.25666	0.339071	2.12767	0.559984	3.53822							0.446827	2.82135	0.68649	4.34452				
0.357867	2.2556	0.340462	2.12795	0.560806	3.52931							0.447862	2.81663	0.687164	4.33145				
0.359129	2.25457	0.341854	2.12824	0.561629	3.52048							0.448899	2.81197	0.687841	4.31849				
0.360391	2.25354	0.343245	2.12852	0.562455	3.51173							0.449939	2.80736	0.688519	4.30566				
0.361654	2.25254	0.344637	2.1288	0.563284	3.50307							0.45098	2.8028	0.6892	4.29293				
0.362919	2.25154	0.346028	2.12908	0.564114	3.49449							0.452024	2.79828	0.689882	4.28032				
0.364184	2.25056	0.347419	2.12935	0.564947	3.486							0.45307	2.79382	0.690567	4.26782				
0.36545	2.24959	0.34881	2.12962	0.565783	3.47758							0.454117	2.7894	0.691254	4.25544				
0.366717	2.24864	0.350202	2.12989	0.566621	3.46925							0.455167	2.78503	0.691943	4.24316				
0.367985	2.24769	0.351593	2.13016	0.567461	3.46099							0.456219	2.78071	0.692634	4.23098				
0.369254	2.24676	0.352984	2.13042	0.568303	3.45281							0.457273	2.77643	0.693327	4.21892				
0.370523	2.24585	0.354375	2.13068	0.569148	3.4447							0.458329	2.7722	0.694022	4.20696				
0.371794	2.24494	0.355766	2.13094	0.569996	3.43668							0.459387	2.76801	0.694719	4.1951				
0.373065	2.24405	0.357156	2.1312	0.570845	3.42872							0.460448	2.76386	0.695419	4.18335				
0.374338	2.24317	0.358547	2.13146	0.571697	3.42084							0.46151	2.75976	0.69612	4.1717				
0.375611	2.2423	0.359938	2.13171	0.572551	3.41304							0.462574	2.7557	0.696824	4.16014				
0.376885	2.24144	0.361329	2.13196	0.573407	3.4053							0.46364	2.75168	0.697529	4.14869				
0.378159	2.2406	0.362719	2.13221	0.574266	3.39764							0.464708	2.74771	0.698237	4.13734				
0.379435	2.23976	0.36411	2.13245	0.575127	3.39005							0.465778	2.74377	0.698946	4.12608				
0.380711	2.23894	0.3655	2.1327	0.57599	3.38253							0.46685	2.73988	0.699658	4.11492				
0.381989	2.23812	0.366891	2.13294	0.576855	3.37507							0.467923	2.73603	0.700372	4.10385				
0.383267	2.23732	0.368281	2.13318	0.577722	3.36769							0.468999	2.73221	0.701088	4.09288				
0.384545	2.23653	0.369672	2.13342	0.578592	3.36037							0.470077	2.72844	0.701806	4.082				
0.385825	2.23575	0.371062	2.13365	0.579464	3.35312							0.471156	2.7247	0.702526	4.07121				
0.387105	2.23497	0.372452	2.13389	0.580338	3.34593							0.472237	2.721	0.703248	4.06051				
0.388386	2.23421	0.373842	2.13412	0.581215	3.33881							0.473321	2.71734	0.703972	4.0499				
0.389668	2.23346	0.375232	2.13435	0.582093	3.33175							0.474406	2.71372	0.704698	4.03938				
0.390951	2.23272	0.376622	2.13458	0.582974	3.32475							0.475492	2.71013	0.705426	4.02895				
0.392234	2.23198	0.378012	2.1348	0.583857	3.31782							0.476581	2.70658	0.706156	4.0186				
0.393518	2.23126	0.379402	2.13503	0.584742	3.31095							0.477671	2.70306	0.706888	4.00834				
0.394803	2.23055	0.380792	2.13525	0.585629	3.30414							0.478764	2.69958	0.707623	3.99817				
0.396088	2.22984	0.382182	2.13547	0.586518	3.29739							0.479858	2.69613	0.708359	3.98808				
0.397374	2.22915	0.383572	2.13569	0.58741	3.2907							0.480953	2.69272	0.709097	3.97807				
0.398661	2.22846	0.384962	2.1359	0.588303	3.28407							0.482051	2.68934	0.709837	3.96814				
0.399949	2.22778	0.386351	2.13612	0.589199	3.2775							0.48315	2.686	0.71058	3.9583				
0.401237	2.22711	0.387741	2.13633	0.590096	3.27099							0.484251	2.68269	0.711324	3.94853				
0.402526	2.22645	0.389131	2.13654	0.590996	3.26453							0.485354	2.67941	0.71207	3.93885				
0.403815	2.22579	0.39052	2.13675	0.591898	3.25813							0.486458	2.67616	0.712818	3.92924				
0.405106	2.22515	0.39191	2.13696	0.592802	3.25178							0.487564	2.67294	0.713569	3.91971				
0.406396	2.22451	0.393299	2.13716	0.593708	3.24549							0.488672	2.66976	0.714321	3.91026				
0.407688	2.22388	0.394688	2.13737	0.594616	3.23926							0.489781	2.66661	0.715075	3.90088				
0.40898	2.22326	0.396078	2.13757	0.595526	3.23308							0.490892	2.66348	0.715831	3.89158				
0.410273	2.22265	0.397467	2.13777	0.596438	3.22695							0.492005	2.66039	0.716589	3.88235				
0.411566	2.22204	0.398856	2.13797	0.597352	3.22087							0.493119	2.65733	0.717349	3.8732				
0.41286	2.22144	0.400245	2.13817	0.598268	3.21485							0.494235	2.6543	0.718112	3.86412				
0.414155	2.22085	0.401634	2.13836	0.599186	3.20888							0.495353	2.65129	0.718876	3.85511				
0.41545	2.22027	0.403023	2.13856	0.600106	3.20296							0.496472	2.64832	0.719642	3.84617				
0.416746	2.21969	0.404412	2.13875	0.601028	3.19708							0.497592	2.64537	0.720409	3.8373				
0.418043	2.21912	0.405801	2.13894	0.601952	3.19126							0.498715	2.64245						
0.41934	2.21856	0.40719	2.13913	0.602878	3.18549							0.499839	2.63956						
0.420638	2.218	0.408579	2.13932	0.603806	3.17977							0.500964	2.6367						
0.421936	2.21745	0.409968	2.13951	0.604736	3.17409							0.502091	2.63386						
0.423235	2.21691	0.411356	2.13969	0.605667	3.16847							0.503219	2.63105						
0.424534	2.21637	0.412745	2.13987	0.606601	3.16288							0.504349	2.62827						
0.425834	2.21584	0.414134	2.14006	0.607537	3.15735							0.505481	2.62552						
0.427135	2.21532	0.415522	2.14024	0.608474	3.15186							0.506614	2.62278						
0.428436	2.2148	0.416911	2.14042	0.609414	3.14642							0.507748	2.62008						
0.429737	2.21429	0.418299	2.14059	0.610355	3.14103							0.508884	2.6174						
0.431039	2.21379	0.419687	2.14077	0.611298	3.13567							0.510022	2.61474						
0.432342	2.21329	0.421076	2.14095	0.612243	3.13037							0.511161	2.61211						
0.433645	2.21279	0.422464	2.14112	0.61319	3.1251							0.512301	2.60951						
0.434949	2.21231	0.423852	2.14129	0.614139	3.11988							0.513443	2.60692						
0.436253	2.21183	0.42524	2.14146	0.615089	3.1147							0.514586	2.60437						
0.437558	2.21135	0.426629	2.14163	0.616042	3.10957							0.515731	2.60183						
0.438863	2.21088	0.428017	2.1418	0.616996	3.10447							0.516877	2.59932						
0.440169	2.21042	0.429405	2.14197	0.617952	3.09942							0.518025	2.59683						
0.441475	2.20996	0.430793	2.14213	0.61891	3.09441							0.519174	2.59437						
0.442782	2.2095	0.432181	2.1423	0.61987	3.08944							0.520324	2.59192						
0.44409	2.20905	0.433568	2.14246	0.620831	3.08451							0.521476	2.5895						
0.445397	2.20861	0.434956	2.14262	0.621795	3.07962							0.522629	2.5871						
0.446706	2.20817	0.436344	2.14278	0.62276	3.07476							0.523783	2.58472						
0.448014	2.20774	0.437732	2.14294	0.623726	3.06995							0.524939	2.58237						
0.449324	2.20731	0.439119	2.1431	0.624695	3.06518							0.526096	2.58003						
0.450633	2.20689	0.440507	2.14325	0.625665	3.06044							0.527254	2.57772						
0.451943	2.20647	0.441894	2.14341	0.626637	3.05574							0.528414	2.57542						
0.453254	2.20606	0.443282	2.14356	0.627611	3.05108							0.529575	2.57315						
0.454565	2.20565	0.444669	2.14372	0.628587	3.04646							0.530737	2.5709						
0.455877	2.20525	0.446057	2.14387	0.629564	3.04187							0.531901	2.56867						
0.457189	2.20485	0.447444	2.14402	0.630543	3.03732							0.533066	2.56645						
0.458501	2.20445	0.448831	2.14417	0.631524	3.0328							0.534232	2.56426						
0.459814	2.20406	0.450219	2.14432	0.632506	3.02832							0.5354	2.56209						
0.461127	2.20368	0.451606	2.14446	0.63349	3.02388							0.536568	2.55993						
0.462441	2.2033	0.452993	2.14461	0.634476	3.01947							0.537738	2.5578						
0.463755	2.20292	0.45438	2.14475	0.635463	3.01509							0.53891	2.55568						
0.465069	2.20255	0.455767	2.1449	0.636452	3.01075							0.540082	2.55358						
0.466385	2.20218	0.457154	2.14504	0.637443	3.00644							0.541256	2.5515						
0.4677	2.20181	0.458541	2.14518	0.638435	3.00216							0.542431	2.54944						
0.469016	2.20145	0.459928	2.14532	0.639429	2.99792							0.543607	2.54739						
0.470332	2.2011	0.461315	2.14546	0.640425	2.99371							0.544784	2.54537						
0.471649	2.20075	0.462701	2.1456	0.641422	2.98954							0.545963	2.54336						
0.472966	2.2004	0.464088	2.14574	0.642421	2.98539							0.547143	2.54137						
0.474283	2.20005	0.465475	2.14587	0.643421	2.98128							0.548324	2.53939						
0.475601	2.19971	0.466861	2.14601	0.644424	2.9772							0.549506	2.53743						
0.476919	2.19938	0.468248	2.14614	0.645427	2.97315							0.550689	2.53549						
0.478238	2.19904	0.469634	2.14628	0.646432	2.96913							0.551874	2.53357						
0.479557	2.19871	0.471021	2.14641	0.647439	2.96514							0.553059	2.53166						
0.480876	2.19839	0.472407	2.14654	0.648448	2.96118							0.554246	2.52977						
0.482196	2.19807	0.473794	2.14667	0.649458	2.95725							0.555434	2.52789						
0.483516	2.19775	0.47518	2.1468	0.650469	2.95335							0.556623	2.52603						
0.484836	2.19743	0.476566	2.14693	0.651482	2.94948							0.557813	2.52419						
0.486157	2.19712	0.477952	2.14706	0.652497	2.94564							0.559004	2.52236						
0.487478	2.19681	0.479338	2.14718	0.653513	2.94183							0.560197	2.52055						
0.4888	2.19651	0.480725	2.14731	0.654531	2.93805							0.56139	2.51875						
0.490122	2.19621	0.482111	2.14743	0.65555	2.93429							0.562585	2.51697						
0.491444	2.19591	0.483497	2.14756	0.656571	2.93056							0.56378	2.5152						
0.492767	2.19561	0.484883	2.14768	0.657593	2.92686							0.564977	2.51345						
0.49409	2.19532	0.486268	2.1478	0.658617	2.92319							0.566175	2.51171						
0.495413	2.19503	0.487654	2.14792	0.659642	2.91955							0.567374	2.50999						
0.496737	2.19475	0.48904	2.14804	0.660668	2.91593							0.568574	2.50828						
0.498061	2.19447	0.490426	2.14816	0.661697	2.91234							0.569775	2.50658						
0.499385	2.19419	0.491811	2.14828	0.662726	2.90877							0.570977	2.5049						
0.50071	2.19391	0.493197	2.1484	0.663757	2.90523							0.57218	2.50323						
0.502035	2.19364	0.494583	2.14851	0.66479	2.90172							0.573384	2.50158						
0.50336	2.19337	0.495968	2.14863	0.665824	2.89823							0.574589	2.49994						
0.504686	2.1931	0.497354	2.14874	0.666859	2.89477							0.575795	2.49831						
0.506012	2.19283	0.498739	2.14886	0.667896	2.89133							0.577002	2.4967						
0.507338	2.19257	0.500125	2.14897	0.668934	2.88792							0.578211	2.4951						
0.508664	2.19231	0.50151	2.14908	0.669974	2.88453							0.57942	2.49351						
0.509991	2.19206	0.502895	2.14919	0.671015	2.88117							0.58063	2.49194						
0.511319	2.1918	0.50428	2.14931	0.672058	2.87783							0.581841	2.49038						
0.512646	2.19155	0.505666	2.14942	0.673102	2.87452							0.583053	2.48883						
0.513974	2.1913	0.507051	2.14952	0.674147	2.87123							0.584267	2.48729						
0.515302	2.19106	0.508436	2.14963	0.675194	2.86796							0.585481	2.48577						
0.516631	2.19082	0.509821	2.14974	0.676242	2.86471							0.586696	2.48425						
0.517959	2.19057	0.511206	2.14985	0.677292	2.86149							0.587912	2.48275						
0.519288	2.19034	0.512591	2.14995	0.678342	2.8583							0.589129	2.48127						
0.520618	2.1901	0.513976	2.15006	0.679395	2.85512							0.590347	2.47979						
0.521947	2.18987	0.515361	2.15016	0.680448	2.85197							0.591566	2.47833						
0.523277	2.18964	0.516745	2.15027	0.681503	2.84884							0.592786	2.47687						
0.524607	2.18941	0.51813	2.15037	0.682559	2.84573							0.594006	2.47543						
0.525938	2.18918	0.519515	2.15047	0.683617	2.84264							0.595228	2.474						
0.527269	2.18896	0.520899	2.15057	0.684676	2.83958							0.596451	2.47259						
0.5286	2.18874	0.522284	2.15067	0.685736	2.83654							0.597674	2.47118						
0.529931	2.18852	0.523669	2.15077	0.686798	2.83351							0.598899	2.46978						
0.531262	2.1883	0.525053	2.15087	0.687861	2.83051							0.600124	2.4684						
0.532594	2.18809	0.526438	2.15097	0.688925	2.82754							0.60135	2.46702						
0.533926	2.18788	0.527822	2.15107	0.689991	2.82458							0.602577	2.46566						
0.535259	2.18767	0.529206	2.15117	0.691057	2.82164							0.603806	2.46431						
0.536591	2.18746	0.530591	2.15126	0.692125	2.81872							0.605034	2.46297						
0.537924	2.18725	0.531975	2.15136	0.693195	2.81582							0.606264	2.46164						
0.539257	2.18705	0.533359	2.15145	0.694265	2.81294							0.607495	2.46031						
0.540591	2.18685	0.534743	2.15155	0.695337	2.81009							0.608726	2.459						
0.541925	2.18665	0.536127	2.15164	0.696411	2.80725							0.609959	2.4577						
0.543258	2.18645	0.537511	2.15173	0.697485	2.80443							0.611192	2.45641						
0.544593	2.18626	0.538895	2.15183	0.698561	2.80163							0.612426	2.45513						
0.545927	2.18606	0.540279	2.15192	0.699638	2.79885							0.613661	2.45386						
0.547262	2.18587	0.541663	2.15201	0.700716	2.79609							0.614897	2.4526						
0.548597	2.18568	0.543047	2.1521	0.701795	2.79335							0.616133	2.45135						
0.549932	2.1855	0.544431	2.15219	0.702876	2.79062							0.617371	2.45011						
0.551267	2.18531	0.545815	2.15228	0.703958	2.78792							0.618609	2.44887						
0.552603	2.18513	0.547199	2.15237	0.705041	2.78523							0.619848	2.44765						
0.553939	2.18494	0.548582	2.15246	0.706125	2.78256							0.621088	2.44644						
0.555275	2.18476	0.549966	2.15254	0.707211	2.77991							0.622329	2.44523						
0.556611	2.18459	0.551349	2.15263	0.708297	2.77728							0.62357	2.44404						
0.557948	2.18441	0.552733	2.15272	0.709385	2.77466							0.624813	2.44285						
0.559285	2.18424	0.554116	2.1528	0.710475	2.77207							0.626056	2.44167						
0.560622	2.18406	0.5555	2.15289	0.711565	2.76949							0.6273	2.4405						
0.561959	2.18389	0.556883	2.15297	0.712656	2.76692							0.628544	2.43935						
0.563296	2.18372	0.558267	2.15305	0.713749	2.76438							0.62979	2.43819						
0.564634	2.18355	0.55965	2.15314	0.714843	2.76185							0.631036	2.43705						
0.565972	2.18339	0.561033	2.15322	0.715938	2.75934							0.632283	2.43592						
0.56731	2.18322	0.562416	2.1533	0.717034	2.75684							0.633531	2.43479						
0.568649	2.18306	0.5638	2.15338	0.718131	2.75436							0.63478	2.43368						
0.569987	2.1829	0.565183	2.15346	0.719229	2.7519							0.636029	2.43257						
0.571326	2.18274	0.566566	2.15354	0.720329	2.74945							0.637279	2.43147						
0.572665	2.18258	0.567949	2.15362									0.63853	2.43037						
0.574004	2.18243	0.569332	2.1537									0.639781	2.42929						
0.575344	2.18227	0.570715	2.15378									0.641034	2.42821						
0.576683	2.18212	0.572097	2.15386									0.642287	2.42715						
0.578023	2.18197	0.57348	2.15394									0.643541	2.42609						
0.579363	2.18181	0.574863	2.15401									0.644795	2.42503						
0.580704	2.18167	0.576246	2.15409									0.64605	2.42399						
0.582044	2.18152	0.577629	2.15416									0.647306	2.42295						
0.583385	2.18137	0.579011	2.15424									0.648563	2.42192						
0.584726	2.18123	0.580394	2.15431									0.649821	2.4209						
0.586067	2.18108	0.581776	2.15439									0.651079	2.41989						
0.587408	2.18094	0.583159	2.15446									0.652337	2.41888						
0.588749	2.1808	0.584541	2.15454									0.653597	2.41788						
0.590091	2.18066	0.585924	2.15461									0.654857	2.41689						
0.591433	2.18053	0.587306	2.15468									0.656118	2.4159						
0.592775	2.18039	0.588688	2.15475									0.65738	2.41492						
0.594117	2.18025	0.590071	2.15482									0.658642	2.41395						
0.595459	2.18012	0.591453	2.15489									0.659905	2.41299						
0.596802	2.17999	0.592835	2.15496									0.661169	2.41203						
0.598145	2.17986	0.594217	2.15503									0.662433	2.41108						
0.599488	2.17973	0.595599	2.1551									0.663698	2.41013						
0.600831	2.1796	0.596981	2.15517									0.664964	2.4092						
0.602174	2.17947	0.598363	2.15524									0.66623	2.40827						
0.603517	2.17934	0.599745	2.15531									0.667497	2.40734						
0.604861	2.17922	0.601127	2.15538									0.668765	2.40643						
0.606205	2.1791	0.602509	2.15544									0.670033	2.40551						
0.607549	2.17897	0.603891	2.15551									0.671302	2.40461						
0.608893	2.17885	0.605273	2.15557									0.672571	2.40371						
0.610237	2.17873	0.606654	2.15564									0.673842	2.40282						
0.611582	2.17861	0.608036	2.1557									0.675113	2.40194						
0.612927	2.17849	0.609418	2.15577									0.676384	2.40106						
0.614271	2.17838	0.610799	2.15583									0.677656	2.40018						
0.615616	2.17826	0.612181	2.1559									0.678929	2.39932						
0.616962	2.17815	0.613562	2.15596									0.680202	2.39846						
0.618307	2.17803	0.614944	2.15602									0.681476	2.3976						
0.619652	2.17792	0.616325	2.15609									0.682751	2.39675						
0.620998	2.17781	0.617706	2.15615									0.684026	2.39591						
0.622344	2.1777	0.619088	2.15621									0.685302	2.39507						
0.62369	2.17759	0.620469	2.15627									0.686578	2.39424						
0.625036	2.17748	0.62185	2.15633									0.687855	2.39342						
0.626382	2.17737	0.623231	2.15639									0.689133	2.3926						
0.627729	2.17727	0.624613	2.15645									0.690411	2.39178						
0.629075	2.17716	0.625994	2.15651									0.69169	2.39097						
0.630422	2.17706	0.627375	2.15657									0.69297	2.39017						
0.631769	2.17695	0.628756	2.15663									0.69425	2.38937						
0.633116	2.17685	0.630137	2.15669									0.69553	2.38858						
0.634463	2.17675	0.631518	2.15674									0.696811	2.3878						
0.635811	2.17665	0.632899	2.1568									0.698093	2.38702						
0.637158	2.17655	0.634279	2.15686									0.699375	2.38624						
0.638506	2.17645	0.63566	2.15691									0.700658	2.38547						
0.639854	2.17635	0.637041	2.15697									0.701942	2.3847						
0.641201	2.17626	0.638422	2.15703									0.703226	2.38394						
0.64255	2.17616	0.639802	2.15708									0.70451	2.38319						
0.643898	2.17607	0.641183	2.15714									0.705796	2.38244						
0.645246	2.17597	0.642564	2.15719									0.707081	2.38169						
0.646595	2.17588	0.643944	2.15725									0.708368	2.38096						
0.647943	2.17579	0.645325	2.1573									0.709654	2.38022						
0.649292	2.1757	0.646705	2.15735									0.710942	2.37949						
0.650641	2.1756	0.648085	2.15741									0.71223	2.37877						
0.65199	2.17551	0.649466	2.15746									0.713518	2.37805						
0.653339	2.17543	0.650846	2.15751									0.714807	2.37733						
0.654688	2.17534	0.652226	2.15756									0.716096	2.37662						
0.656038	2.17525	0.653607	2.15762									0.717387	2.37591						
0.657387	2.17516	0.654987	2.15767									0.718677	2.37521						
0.658737	2.17508	0.656367	2.15772									0.719968	2.37452						
0.660087	2.17499	0.657747	2.15777									0.72126	2.37383						
0.661437	2.17491	0.659127	2.15782																
0.662787	2.17483	0.660507	2.15787																
0.664137	2.17474	0.661887	2.15792																
0.665488	2.17466	0.663267	2.15797																
0.666838	2.17458	0.664647	2.15802																
0.668189	2.1745	0.666027	2.15807																
0.669539	2.17442	0.667407	2.15811																
0.67089	2.17434	0.668786	2.15816																
0.672241	2.17426	0.670166	2.15821																
0.673592	2.17418	0.671546	2.15826																
0.674943	2.17411	0.672926	2.1583																
0.676295	2.17403	0.674305	2.15835																
0.677646	2.17396	0.675685	2.1584																
0.678998	2.17388	0.677064	2.15844																
0.680349	2.17381	0.678444	2.15849																
0.681701	2.17373	0.679823	2.15853																
0.683053	2.17366	0.681203	2.15858																
0.684405	2.17359	0.682582	2.15862																
0.685757	2.17352	0.683961	2.15867																
0.68711	2.17345	0.685341	2.15871																
0.688462	2.17338	0.68672	2.15876																
0.689814	2.17331	0.688099	2.1588																
0.691167	2.17324	0.689478	2.15884																
0.69252	2.17317	0.690857	2.15889																
0.693872	2.1731	0.692236	2.15893																
0.695225	2.17303	0.693616	2.15897																
0.696578	2.17297	0.694995	2.15901																
0.697931	2.1729	0.696373	2.15906																
0.699285	2.17284	0.697752	2.1591																
0.700638	2.17277	0.699131	2.15914																
0.701991	2.17271	0.70051	2.15918																
0.703345	2.17264	0.701889	2.15922																
0.704699	2.17258	0.703268	2.15926																
0.706052	2.17252	0.704646	2.1593																
0.707406	2.17246	0.706025	2.15934																
0.70876	2.17239	0.707404	2.15938																
0.710114	2.17233	0.708782	2.15942																
0.711468	2.17227	0.710161	2.15946																
0.712822	2.17221	0.71154	2.1595																
0.714177	2.17215	0.712918	2.15954																
0.715531	2.17209	0.714297	2.15957																
0.716886	2.17204	0.715675	2.15961																
0.71824	2.17198	0.717053	2.15965																
0.719595	2.17192	0.718432	2.15969																
0.72095	2.17186	0.71981	2.15972																
		0.721188	2.15976																
