Sym0		Asym0		Sym1		Sym2		Sym3		Sym4		Asym1		Asym2		Asym3		Asym4	
560  Points		560  Points		465  Points		270  Points		236  Points		179  Points		503  Points		398  Points		235  Points		170  Points	
Freq (MHz)	Vph (m/ms)	Freq (MHz)	Vph (m/ms)	Freq (MHz)	Vph (m/ms)	Freq (MHz)	Vph (m/ms)	Freq (MHz)	Vph (m/ms)	Freq (MHz)	Vph (m/ms)	Freq (MHz)	Vph (m/ms)	Freq (MHz)	Vph (m/ms)	Freq (MHz)	Vph (m/ms)	Freq (MHz)	Vph (m/ms)
0.00270252	4.61951	1.89925e-005	0.0356973	0.170936	325.158	0.279509	30876	0.512809	938.989	0.559025	1331.06	0.139761	493.475	0.341877	1953.97	0.419274	803.755	0.683742	1771.07
0.00562397	4.61935	9.08051e-005	0.0779778	0.170927	147.585	0.279528	435.736	0.512781	435.082	0.559068	531.211	0.139826	152.702	0.341869	423.409	0.419316	363.328	0.683664	671.235
0.00854507	4.61912	0.000216013	0.120211	0.17091	95.4476	0.279586	219.462	0.512732	283.115	0.559148	331.859	0.139958	90.4045	0.34185	237.416	0.419391	234.748	0.683518	414.009
0.0114656	4.61876	0.000394185	0.162256	0.170885	70.5244	0.279682	146.706	0.512664	209.807	0.559264	241.337	0.140158	64.2753	0.34182	164.945	0.419497	173.417	0.683309	299.247
0.0143853	4.61832	0.000624786	0.204054	0.170854	55.9166	0.279817	110.213	0.512575	166.64	0.559416	189.645	0.140425	49.9192	0.34178	126.361	0.419636	137.519	0.683042	234.249
0.0173042	4.61777	0.00090718	0.245561	0.170817	46.3172	0.279989	88.2876	0.512467	138.191	0.559603	156.215	0.140758	40.8528	0.34173	102.399	0.419806	113.956	0.682725	192.407
0.0202218	4.61711	0.00124054	0.286711	0.170773	39.5267	0.280199	73.6632	0.512341	118.027	0.559826	132.826	0.141157	34.6147	0.341669	86.0692	0.420007	97.3054	0.682363	163.214
0.0231381	4.61634	0.00162395	0.32746	0.170723	34.4693	0.280447	63.2172	0.512196	102.989	0.560083	115.548	0.14162	30.0654	0.341599	74.2258	0.420239	84.9168	0.681964	141.685
0.0260528	4.61547	0.00205639	0.367759	0.170667	30.5562	0.280731	55.3853	0.512034	91.3405	0.560374	102.265	0.142148	26.6051	0.341519	65.2424	0.420502	75.3415	0.681534	125.151
0.0289657	4.61449	0.00253665	0.407551	0.170606	27.4384	0.281053	49.2976	0.511856	82.0515	0.560697	91.7358	0.142737	23.8878	0.34143	58.1943	0.420796	67.7202	0.681077	112.053
0.0318765	4.61338	0.00306354	0.446802	0.170541	24.8956	0.281411	44.4314	0.511662	74.4703	0.561053	83.1862	0.143388	21.6999	0.341332	52.5164	0.421119	61.5114	0.680599	101.421
0.034785	4.61216	0.00363574	0.485474	0.170472	22.7821	0.281805	40.454	0.511454	68.1653	0.56144	76.1068	0.144098	19.9024	0.341226	47.8445	0.421472	56.3567	0.680103	92.6184
0.037691	4.6108	0.00425184	0.523529	0.170399	20.9976	0.282235	37.1434	0.511231	62.8388	0.561857	70.1492	0.144866	18.4012	0.341112	43.9326	0.421855	52.0095	0.679594	85.21
0.040594	4.60932	0.00491043	0.560938	0.170323	19.4708	0.282699	34.3458	0.510996	58.2793	0.562303	65.067	0.145692	17.1298	0.34099	40.6091	0.422266	48.2944	0.679074	78.8889
0.0434939	4.6077	0.00561	0.597671	0.170246	18.1497	0.283199	31.9514	0.510749	54.3321	0.562777	60.681	0.146572	16.0405	0.340862	37.7504	0.422705	45.0836	0.678546	73.4322
0.0463902	4.60593	0.00634904	0.633708	0.170167	16.9954	0.283732	29.8795	0.510491	50.8814	0.563279	56.8577	0.147505	15.0977	0.340727	35.2653	0.423172	42.2813	0.678012	68.6741
0.0492827	4.60401	0.0071261	0.669033	0.170088	15.9782	0.284299	28.0697	0.510223	47.839	0.563807	53.4958	0.148491	14.2745	0.340586	33.0851	0.423665	39.8147	0.677473	64.4884
0.052171	4.60193	0.00793955	0.703624	0.170009	15.0751	0.284899	26.4756	0.509946	45.1365	0.564361	50.5169	0.149526	13.5502	0.34044	31.1567	0.424186	37.6272	0.676932	60.7778
0.0550546	4.59968	0.0087879	0.737473	0.169931	14.268	0.285531	25.0614	0.509662	42.7198	0.564939	47.8592	0.15061	12.9086	0.340289	29.4389	0.424733	35.6743	0.676389	57.4659
0.0579331	4.59725	0.00966971	0.770575	0.169856	13.5426	0.286195	23.7986	0.50937	40.5459	0.565541	45.4738	0.151741	12.3368	0.340135	27.8991	0.425305	33.9204	0.675846	54.4917
0.060806	4.59463	0.0105834	0.802916	0.169784	12.887	0.28689	22.6644	0.509072	38.58	0.566165	43.3209	0.152916	11.8243	0.339977	26.5108	0.425902	32.3369	0.675303	51.8062
0.0636728	4.59181	0.0115274	0.834497	0.169716	12.2918	0.287615	21.6405	0.508769	36.7934	0.566811	41.3684	0.154135	11.3628	0.339816	25.2528	0.426523	30.9003	0.674762	49.3694
0.0665328	4.58877	0.0125005	0.865321	0.169653	11.7491	0.288371	20.7117	0.508461	35.1629	0.567478	39.5897	0.155395	10.9454	0.339652	24.1076	0.427168	29.5911	0.674224	47.1483
0.0693855	4.5855	0.013501	0.895381	0.169598	11.2524	0.289155	19.8656	0.50815	33.6688	0.568166	37.9626	0.156695	10.5663	0.339487	23.0607	0.427836	28.3934	0.673689	45.1155
0.0722301	4.58198	0.0145278	0.924691	0.16955	10.7962	0.289968	19.0919	0.507836	32.2947	0.568872	36.4687	0.158033	10.2206	0.339321	22.1	0.428527	27.2937	0.673157	43.2481
0.0750659	4.57819	0.0155794	0.953252	0.169511	10.3758	0.290808	18.3818	0.50752	31.0267	0.569597	35.0924	0.159408	9.90445	0.339155	21.2153	0.429239	26.2805	0.672629	41.5268
0.0778918	4.57411	0.0166546	0.981073	0.169483	9.98747	0.291676	17.7279	0.507202	29.853	0.57034	33.8203	0.160818	9.61426	0.338989	20.3979	0.429974	25.344	0.672106	39.9352
0.0807072	4.56971	0.017752	1.00816	0.169467	9.6277	0.29257	17.124	0.506885	28.7636	0.571101	32.6412	0.162262	9.34715	0.338824	19.6405	0.430729	24.4761	0.671588	38.4592
0.0835107	4.56498	0.0188706	1.03453	0.169464	9.29364	0.293489	16.5647	0.506567	27.7497	0.571877	31.5453	0.163738	9.1006	0.338661	18.9368	0.431504	23.6695	0.671075	37.0866
0.0863012	4.55987	0.0200091	1.06018	0.169478	8.98279	0.294434	16.0452	0.50625	26.8037	0.57267	30.5242	0.165244	8.87244	0.338499	18.2813	0.432299	22.918	0.670568	35.807
0.0890773	4.55436	0.0211665	1.08514	0.169508	8.69299	0.295404	15.5617	0.505935	25.9191	0.573478	29.5704	0.16678	8.66079	0.338341	17.6692	0.433114	22.2163	0.670067	34.6114
0.0918377	4.54841	0.0223416	1.10942	0.169557	8.42235	0.296397	15.1106	0.505621	25.0901	0.5743	28.6776	0.168343	8.46399	0.338186	17.0964	0.433947	21.5596	0.669572	33.4917
0.0945804	4.54198	0.0235336	1.13302	0.169628	8.16924	0.297413	14.6888	0.50531	24.3116	0.575137	27.8401	0.169933	8.28061	0.338035	16.5593	0.434798	20.9438	0.669084	32.441
0.0973037	4.53502	0.0247414	1.15597	0.169723	7.9322	0.298451	14.2936	0.505003	23.5793	0.575987	27.053	0.171548	8.10938	0.337888	16.0548	0.435667	20.3653	0.668603	31.4532
0.100005	4.52748	0.025964	1.17828	0.169844	7.70997	0.299511	13.9226	0.504699	22.8892	0.57685	26.312	0.173187	7.94919	0.337748	15.5799	0.436554	19.8207	0.668129	30.5227
0.102683	4.5193	0.0272007	1.19996	0.169995	7.50143	0.300593	13.5739	0.504399	22.2378	0.577726	25.613	0.174848	7.79904	0.337612	15.1322	0.437456	19.3073	0.667662	29.6449
0.105334	4.51042	0.0284505	1.22103	0.170152	7.33011	0.301695	13.2453	0.504104	21.6219	0.578614	24.9527	0.17653	7.65805	0.337484	14.7094	0.438375	18.8224	0.667202	28.8153
0.107955	4.50076	0.0297127	1.2415	0.170308	7.19125	0.302817	12.9354	0.503814	21.0387	0.579514	24.328	0.178233	7.52545	0.337363	14.3097	0.43931	18.3639	0.66675	28.0301
0.110542	4.49025	0.0309866	1.2614	0.170452	7.08118	0.303958	12.6426	0.503529	20.4858	0.580425	23.7361	0.179955	7.40052	0.337249	13.9311	0.44026	17.9296	0.666306	27.286
0.113093	4.47879	0.0322715	1.28073	0.170577	6.99707	0.305117	12.3655	0.503251	19.9609	0.581347	23.1744	0.181695	7.28265	0.337144	13.5722	0.441224	17.5177	0.66587	26.5797
0.115602	4.4663	0.0335665	1.2995	0.170675	6.93682	0.306295	12.1031	0.502979	19.4619	0.582279	22.6407	0.183224	7.18523	0.337048	13.2315	0.442203	17.1265	0.665443	25.9086
0.118066	4.45267	0.0348712	1.31775	0.170741	6.89896	0.30749	11.854	0.502715	18.987	0.583222	22.1331	0.184538	7.10582	0.336961	12.9076	0.443196	16.7545	0.665023	25.27
0.120477	4.43778	0.0361849	1.33547	0.170839	6.84547	0.308702	11.6175	0.502457	18.5345	0.584174	21.6496	0.18563	7.04253	0.336885	12.5994	0.444202	16.4004	0.664612	24.6617
0.122832	4.42152	0.0375071	1.3527	0.170952	6.78856	0.309931	11.3926	0.502207	18.103	0.585136	21.1886	0.186498	6.99393	0.336819	12.3059	0.445222	16.063	0.66421	24.0816
0.125124	4.40376	0.0388371	1.36943	0.171116	6.71317	0.311175	11.1784	0.501965	17.6909	0.586106	20.7486	0.187138	6.95898	0.336765	12.026	0.446254	15.741	0.663817	23.5278
0.127347	4.38439	0.0401745	1.38568	0.17134	6.62105	0.312434	10.9743	0.501732	17.2972	0.587086	20.3281	0.187548	6.93696	0.336723	11.7589	0.447298	15.4336	0.663433	22.9987
0.129494	4.3633	0.0415188	1.40148	0.171639	6.51431	0.313708	10.7796	0.501508	16.9205	0.588074	19.926	0.188139	6.90575	0.336693	11.5038	0.448353	15.1396	0.663057	22.4925
0.131558	4.34037	0.0428696	1.41683	0.17203	6.39539	0.314995	10.5936	0.501292	16.5599	0.589071	19.541	0.188784	6.87242	0.336677	11.26	0.449421	14.8583	0.662691	22.0079
0.133535	4.31552	0.0442263	1.43174	0.172539	6.26694	0.316296	10.4158	0.501087	16.2143	0.590075	19.1721	0.189662	6.82805	0.336675	11.0267	0.450499	14.5889	0.662335	21.5436
0.135417	4.2887	0.0455887	1.44623	0.173116	6.14672	0.317611	10.2457	0.500891	15.8829	0.591087	18.8182	0.190778	6.77347	0.336688	10.8033	0.451588	14.3307	0.661988	21.0983
0.137201	4.25987	0.0469562	1.46032	0.17377	6.03442	0.318937	10.0828	0.500705	15.5649	0.592106	18.4786	0.192132	6.70964	0.336716	10.5893	0.452687	14.0829	0.661651	20.6709
0.138883	4.22905	0.0483287	1.47401	0.174507	5.92977	0.320275	9.92662	0.50053	15.2594	0.593132	18.1524	0.193729	6.63763	0.33676	10.3841	0.453797	13.845	0.661323	20.2603
0.140462	4.19631	0.0497056	1.48731	0.175333	5.83249	0.321625	9.77681	0.500366	14.9659	0.594165	17.8387	0.19557	6.55859	0.33682	10.1873	0.454915	13.6164	0.661006	19.8657
0.141937	4.16174	0.0510868	1.50025	0.176255	5.74235	0.322986	9.63297	0.500213	14.6835	0.595205	17.5369	0.19742	6.48311	0.336898	9.99842	0.456043	13.3966	0.660698	19.4861
0.14331	4.12551	0.0524718	1.51283	0.177279	5.65911	0.324356	9.49475	0.500071	14.4118	0.596251	17.2464	0.199277	6.41096	0.336993	9.81699	0.45718	13.185	0.660401	19.1206
0.144585	4.08778	0.0538604	1.52505	0.178411	5.58253	0.325737	9.36185	0.499941	14.1501	0.597304	16.9664	0.201141	6.3419	0.337108	9.64267	0.458326	12.9813	0.660115	18.7687
0.145767	4.04879	0.0550732	1.53543	0.179654	5.51234	0.327127	9.23395	0.499824	13.898	0.598362	16.6965	0.203011	6.27571	0.337242	9.47509	0.45948	12.7849	0.659839	18.4294
0.14686	4.00874	0.056109	1.54408	0.181011	5.44825	0.328526	9.11078	0.499719	13.655	0.599426	16.4362	0.204886	6.2122	0.337396	9.31392	0.460641	12.5956	0.659573	18.1022
0.147873	3.96788	0.0569666	1.5511	0.182483	5.38995	0.329933	8.99208	0.499627	13.4205	0.600495	16.1848	0.206764	6.1512	0.337571	9.15884	0.46181	12.4129	0.659318	17.7865
0.148812	3.92644	0.0576456	1.55657	0.184069	5.3371	0.331348	8.87762	0.499548	13.1942	0.60157	15.942	0.208645	6.09253	0.337768	9.00958	0.462987	12.2365	0.659075	17.4817
0.149684	3.88463	0.0581452	1.56054	0.185766	5.28932	0.33277	8.76717	0.499482	12.9758	0.60265	15.7074	0.210528	6.03604	0.337987	8.86586	0.46417	12.0661	0.658842	17.1872
0.150497	3.84267	0.0584651	1.56306	0.187571	5.24624	0.334199	8.66051	0.49943	12.7647	0.603735	15.4805	0.212412	5.98159	0.33823	8.72743	0.46536	11.9014	0.658621	16.9025
0.151258	3.80072	0.0589252	1.56666	0.189479	5.20747	0.335634	8.55745	0.499392	12.5607	0.604824	15.2609	0.214296	5.92904	0.338496	8.59406	0.466556	11.742	0.658411	16.6272
0.151974	3.75896	0.0594256	1.57053	0.191481	5.1726	0.337076	8.45781	0.499368	12.3634	0.605917	15.0484	0.216178	5.87826	0.338788	8.46554	0.467758	11.5878	0.658212	16.3609
0.152565	3.72282	0.0601067	1.57574	0.193573	5.14126	0.338522	8.36142	0.49936	12.1726	0.607015	14.8425	0.218059	5.82914	0.339105	8.34164	0.468966	11.4385	0.658026	16.1031
0.153047	3.69227	0.0609689	1.58223	0.195746	5.11309	0.339974	8.26812	0.499366	11.9879	0.608117	14.643	0.219936	5.78157	0.339449	8.22219	0.47018	11.2939	0.657851	15.8535
0.153433	3.66722	0.0620126	1.58993	0.197993	5.08774	0.34143	8.17774	0.499387	11.8091	0.609223	14.4496	0.221809	5.73545	0.339821	8.107	0.471398	11.1537	0.657688	15.6116
0.153731	3.64755	0.0632383	1.59876	0.200308	5.06491	0.34289	8.09016	0.499425	11.636	0.610333	14.2619	0.223676	5.69068	0.340221	7.9959	0.472622	11.0178	0.657537	15.3772
0.153946	3.63318	0.0646467	1.60865	0.202683	5.0443	0.344353	8.00523	0.499478	11.4683	0.611446	14.0799	0.225537	5.64716	0.340651	7.88873	0.473849	10.8859	0.657399	15.1499
0.154082	3.62403	0.0660568	1.61827	0.205113	5.02567	0.34582	7.92284	0.499548	11.3057	0.612562	13.9031	0.227391	5.60482	0.34111	7.78535	0.475081	10.7579	0.657273	14.9294
0.154276	3.61093	0.0674684	1.62763	0.207592	5.00878	0.347289	7.84285	0.499634	11.1481	0.613682	13.7314	0.229236	5.56357	0.341601	7.68561	0.476317	10.6336	0.65716	14.7154
0.154483	3.59677	0.0688814	1.63675	0.210114	4.99344	0.34876	7.76517	0.499737	10.9952	0.614804	13.5645	0.231072	5.52335	0.342124	7.58939	0.477557	10.5129	0.657059	14.5077
0.154761	3.57766	0.0702958	1.64562	0.212675	4.97946	0.350233	7.68968	0.499858	10.8469	0.615929	13.4024	0.232897	5.48407	0.342607	7.50829	0.4788	10.3955	0.656971	14.306
0.155106	3.55372	0.0717112	1.65427	0.215271	4.96669	0.351707	7.61628	0.499997	10.703	0.617057	13.2446	0.234711	5.44567	0.343038	7.44113	0.480046	10.2814	0.656897	14.11
0.155516	3.52515	0.0731276	1.66268	0.217898	4.955	0.353182	7.54488	0.500153	10.5634	0.618187	13.0912	0.236512	5.40809	0.343409	7.38693	0.481295	10.1703	0.656836	13.9196
0.155986	3.49217	0.074545	1.67088	0.220553	4.94426	0.354467	7.48422	0.500328	10.4278	0.619319	12.9418	0.238298	5.37127	0.343712	7.34491	0.482546	10.0623	0.656788	13.7345
0.156514	3.45508	0.0759631	1.67887	0.223232	4.93436	0.355562	7.43361	0.500521	10.2961	0.620454	12.7964	0.24007	5.33515	0.34394	7.31448	0.4838	9.95713	0.656754	13.5545
0.157033	3.4188	0.0773819	1.68665	0.225934	4.92523	0.356468	7.3925	0.500734	10.1682	0.62159	12.6548	0.241826	5.29967	0.344089	7.2952	0.485055	9.8547	0.656734	13.3795
0.157544	3.38335	0.0788012	1.69423	0.228655	4.91676	0.357184	7.36046	0.500966	10.0439	0.622728	12.5168	0.243564	5.2648	0.344305	7.26777	0.486313	9.7549	0.656727	13.2092
0.158051	3.34875	0.080221	1.70162	0.231394	4.9089	0.35771	7.33715	0.501218	9.92312	0.623867	12.3822	0.245284	5.23048	0.344545	7.23832	0.487571	9.65762	0.656735	13.0434
0.158554	3.31499	0.0816413	1.70882	0.234149	4.90158	0.358047	7.32234	0.50149	9.80573	0.625007	12.2511	0.246985	5.19667	0.344878	7.19887	0.488831	9.56278	0.656757	12.882
0.159055	3.28207	0.0830619	1.71584	0.236918	4.89475	0.358531	7.30121	0.501783	9.6916	0.626149	12.1232	0.248666	5.16332	0.345312	7.14995	0.490092	9.47027	0.656794	12.7249
0.159556	3.24999	0.0844826	1.72268	0.239701	4.88835	0.359057	7.27844	0.502096	9.58062	0.627292	11.9984	0.250326	5.13041	0.345856	7.09222	0.491353	9.38	0.656845	12.5718
0.160058	3.21874	0.0859037	1.72935	0.242494	4.88235	0.359772	7.2478	0.502431	9.47269	0.628436	11.8766	0.251963	5.09788	0.346521	7.02644	0.492614	9.2919	0.656912	12.4227
0.160561	3.18831	0.0873247	1.73586	0.245298	4.8767	0.360675	7.20957	0.502787	9.3677	0.62958	11.7577	0.253577	5.06572	0.34732	6.95346	0.493876	9.20587	0.656993	12.2774
0.161067	3.15869	0.0887459	1.74221	0.248111	4.87138	0.361767	7.16411	0.503165	9.26556	0.630724	11.6416	0.255167	5.03388	0.348158	6.88309	0.495137	9.12184	0.657089	12.1358
0.161577	3.12987	0.090167	1.7484	0.250932	4.86634	0.363045	7.11181	0.503565	9.16618	0.631869	11.5281	0.256733	5.00235	0.349036	6.81524	0.496398	9.03974	0.657201	11.9977
0.162091	3.10182	0.091588	1.75444	0.253761	4.86157	0.36451	7.05312	0.503988	9.06947	0.633014	11.4173	0.258272	4.9711	0.349955	6.74982	0.497658	8.95949	0.657329	11.8631
0.16261	3.07454	0.093009	1.76033	0.256596	4.85704	0.365972	6.99579	0.504434	8.97534	0.634159	11.3089	0.259786	4.94009	0.350915	6.68676	0.498916	8.88104	0.657472	11.7317
0.163134	3.048	0.0944298	1.76608	0.259438	4.85273	0.36743	6.93976	0.504903	8.88372	0.635303	11.203	0.261273	4.90932	0.351916	6.62599	0.500174	8.8043	0.657632	11.6036
0.163664	3.0222	0.0958504	1.77169	0.262284	4.84861	0.368883	6.88497	0.505396	8.79452	0.636448	11.0994	0.262732	4.87877	0.352959	6.56742	0.50143	8.72923	0.657807	11.4786
0.164201	2.99711	0.0972707	1.77717	0.265135	4.84467	0.370333	6.83139	0.505912	8.70767	0.637591	10.998	0.264164	4.84841	0.354045	6.511	0.502684	8.65576	0.657999	11.3567
0.164744	2.97271	0.0986907	1.78252	0.26799	4.84089	0.371777	6.77895	0.506453	8.62311	0.638734	10.8988	0.265568	4.81824	0.355172	6.45664	0.503936	8.58384	0.658208	11.2376
0.165295	2.94899	0.10011	1.78774	0.270848	4.83726	0.373217	6.72761	0.507018	8.54076	0.639876	10.8017	0.266943	4.78825	0.356342	6.40428	0.505186	8.51342	0.658433	11.1213
0.165853	2.92593	0.10153	1.79284	0.273709	4.83376	0.37465	6.67732	0.507608	8.46057	0.641017	10.7067	0.26829	4.75843	0.357555	6.35385	0.506434	8.44444	0.658675	11.0078
0.166419	2.90352	0.102949	1.79781	0.276573	4.83039	0.376078	6.62806	0.508223	8.38245	0.642156	10.6136	0.269608	4.72876	0.35881	6.30528	0.507678	8.37685	0.658934	10.897
0.166992	2.88172	0.104367	1.80268	0.279439	4.82712	0.3775	6.57977	0.508864	8.30637	0.643294	10.5224	0.270898	4.69925	0.360107	6.25852	0.50892	8.3106	0.659211	10.7887
0.167574	2.86054	0.105785	1.80743	0.282306	4.82395	0.378914	6.53242	0.509529	8.23225	0.644431	10.4331	0.272159	4.6699	0.361447	6.2135	0.510158	8.24566	0.659505	10.683
0.168164	2.83995	0.107203	1.81207	0.285175	4.82086	0.380322	6.48597	0.510221	8.16004	0.645565	10.3455	0.273392	4.64069	0.362827	6.17016	0.511392	8.18198	0.659817	10.5796
0.168762	2.81994	0.10862	1.8166	0.288044	4.81785	0.381723	6.44039	0.510939	8.08969	0.646698	10.2597	0.274597	4.61164	0.364249	6.12843	0.512623	8.11951	0.660146	10.4787
0.169369	2.80048	0.110037	1.82103	0.290914	4.81492	0.383116	6.39564	0.511682	8.02115	0.647829	10.1755	0.275775	4.58274	0.365712	6.08825	0.51385	8.05822	0.660494	10.38
0.169984	2.78157	0.111453	1.82536	0.293783	4.81204	0.384501	6.35171	0.512453	7.95436	0.648957	10.093	0.276925	4.554	0.367215	6.04957	0.515073	7.99807	0.660859	10.2835
0.170608	2.76318	0.112869	1.82959	0.296652	4.80921	0.385878	6.30855	0.513249	7.88927	0.650083	10.012	0.278049	4.52542	0.368757	6.01233	0.516291	7.93902	0.661244	10.1892
0.171241	2.74531	0.114284	1.83373	0.29952	4.80643	0.387247	6.26614	0.513965	7.83391	0.651206	9.93254	0.279148	4.49701	0.370337	5.97647	0.517505	7.88104	0.661646	10.097
0.171883	2.72793	0.115698	1.83778	0.302387	4.80368	0.388608	6.22446	0.514592	7.78769	0.652327	9.85457	0.280221	4.46876	0.371955	5.94193	0.518559	7.83136	0.662067	10.0068
0.172533	2.71104	0.117112	1.84173	0.305252	4.80096	0.389961	6.18349	0.515121	7.75013	0.653445	9.77803	0.28127	4.4407	0.37361	5.90867	0.519454	7.78961	0.662507	9.91868
0.173192	2.69462	0.118525	1.8456	0.308116	4.79826	0.391305	6.14319	0.515546	7.72085	0.654559	9.70289	0.282295	4.41282	0.375301	5.87663	0.520193	7.7555	0.662967	9.83245
0.17386	2.67865	0.119938	1.84938	0.310976	4.79558	0.39264	6.10355	0.515863	7.69955	0.655671	9.62909	0.283297	4.38513	0.377026	5.84576	0.520775	7.72879	0.663445	9.74811
0.174536	2.66312	0.121349	1.85308	0.313834	4.7929	0.393967	6.06455	0.516068	7.68602	0.656779	9.5566	0.284277	4.35765	0.378786	5.81601	0.521203	7.70929	0.663942	9.6656
0.175221	2.64802	0.122761	1.8567	0.316688	4.79023	0.395285	6.02618	0.516364	7.66671	0.657884	9.48539	0.285236	4.33037	0.380578	5.78733	0.521476	7.69687	0.664459	9.58487
0.175915	2.63334	0.124171	1.86024	0.319539	4.78755	0.396595	5.98841	0.51669	7.6459	0.658985	9.41541	0.286175	4.3033	0.382402	5.75967	0.521868	7.67911	0.664995	9.50588
0.176618	2.61906	0.125581	1.86371	0.322385	4.78485	0.397897	5.95123	0.517138	7.61791	0.660083	9.34663	0.287095	4.27646	0.384257	5.733	0.522294	7.65992	0.665551	9.42858
0.177329	2.60518	0.126991	1.8671	0.325226	4.78213	0.399191	5.91464	0.517715	7.583	0.661177	9.27902	0.287996	4.24985	0.386141	5.70726	0.522872	7.634	0.666126	9.35294
0.178049	2.59167	0.128399	1.87042	0.328062	4.77937	0.400477	5.8786	0.518425	7.54151	0.662266	9.21254	0.28888	4.22347	0.388054	5.68241	0.523601	7.60153	0.666721	9.2789
0.178778	2.57854	0.129807	1.87366	0.330891	4.77658	0.401756	5.84313	0.519278	7.49383	0.663352	9.14717	0.289747	4.19734	0.389994	5.65842	0.52448	7.5627	0.667337	9.20642
0.179515	2.56576	0.131215	1.87684	0.333714	4.77375	0.403027	5.8082	0.520281	7.4404	0.664434	9.08287	0.290598	4.17145	0.391961	5.63524	0.525507	7.51777	0.667972	9.13547
0.18026	2.55333	0.132621	1.87996	0.336529	4.77086	0.404293	5.77381	0.521311	7.3883	0.665511	9.01962	0.291435	4.14582	0.393952	5.61283	0.52668	7.46699	0.668627	9.06601
0.181013	2.54124	0.134027	1.883	0.339336	4.7679	0.405552	5.73995	0.522368	7.33751	0.666584	8.95738	0.292258	4.12046	0.395968	5.59117	0.527847	7.41703	0.669302	8.998
0.181775	2.52948	0.135432	1.88599	0.342134	4.76486	0.406807	5.70662	0.523451	7.28798	0.667652	8.89613	0.293068	4.09536	0.398007	5.57022	0.529009	7.36787	0.669997	8.93141
0.182545	2.51803	0.136837	1.88891	0.344921	4.76175	0.408056	5.67381	0.524561	7.23968	0.668716	8.83584	0.293865	4.07053	0.400068	5.54993	0.530164	7.31949	0.670712	8.86619
0.183324	2.5069	0.138241	1.89177	0.347698	4.75853	0.409303	5.64153	0.525697	7.19258	0.669775	8.77649	0.294651	4.04597	0.40215	5.53029	0.531313	7.27186	0.671448	8.80232
0.18411	2.49606	0.139644	1.89458	0.350462	4.7552	0.410547	5.60977	0.526859	7.14664	0.67083	8.71806	0.295427	4.02169	0.404251	5.51126	0.532456	7.22496	0.672203	8.73977
0.184904	2.48552	0.141046	1.89732	0.353213	4.75175	0.411789	5.57854	0.528047	7.10183	0.671879	8.66052	0.296192	3.9977	0.406372	5.49281	0.533593	7.17878	0.672979	8.67849
0.185706	2.47525	0.142448	1.90001	0.35595	4.74817	0.413031	5.54783	0.529261	7.05812	0.672924	8.60385	0.296949	3.97399	0.408511	5.47492	0.534723	7.13329	0.673775	8.61846
0.186516	2.46526	0.143849	1.90265	0.35867	4.74442	0.414274	5.51766	0.5305	7.01547	0.673964	8.54802	0.297697	3.95056	0.410667	5.45755	0.535848	7.08849	0.674591	8.55965
0.187333	2.45554	0.145249	1.90523	0.361372	4.74051	0.415521	5.48803	0.531764	6.97386	0.674999	8.49302	0.298438	3.92742	0.412839	5.44069	0.536966	7.04434	0.675427	8.50203
0.188158	2.44607	0.146649	1.90777	0.364056	4.73642	0.416771	5.45895	0.533053	6.93326	0.67603	8.43883	0.299171	3.90458	0.415026	5.4243	0.538078	7.00085	0.676282	8.44556
0.18899	2.43686	0.148048	1.91025	0.366717	4.73211	0.418028	5.43043	0.534366	6.89363	0.677055	8.38543	0.299898	3.88202	0.417228	5.40837	0.539184	6.95798	0.677158	8.39023
0.18983	2.42789	0.149446	1.91268	0.369356	4.72757	0.419294	5.40248	0.535704	6.85495	0.678075	8.33279	0.300619	3.85975	0.419443	5.39287	0.540284	6.91573	0.678054	8.33601
0.190677	2.41916	0.150843	1.91506	0.371968	4.72278	0.42057	5.37512	0.537064	6.81719	0.679091	8.28091	0.301335	3.83778	0.421671	5.37779	0.541378	6.87409	0.678969	8.28286
0.191532	2.41065	0.15224	1.9174	0.374553	4.71772	0.421859	5.34837	0.538449	6.78033	0.680101	8.22976	0.302046	3.8161	0.42391	5.36309	0.542467	6.83304	0.679904	8.23076
0.192393	2.40237	0.153636	1.91969	0.377107	4.71235	0.423164	5.32224	0.539856	6.74434	0.680977	8.18577	0.302753	3.79471	0.426161	5.34876	0.54355	6.79256	0.680735	8.1862
0.193261	2.3943	0.155032	1.92194	0.379627	4.70664	0.424488	5.29676	0.541285	6.70918	0.681722	8.1487	0.303456	3.77361	0.428422	5.33479	0.544627	6.75265	0.681454	8.14881
0.194137	2.38645	0.156426	1.92414	0.382111	4.70058	0.425834	5.27194	0.542736	6.67485	0.682335	8.11833	0.304156	3.7528	0.430692	5.32115	0.545699	6.7133	0.682058	8.11831
0.195019	2.3788	0.15782	1.92631	0.384555	4.69412	0.427205	5.24783	0.544209	6.6413	0.682819	8.0945	0.304853	3.73228	0.432971	5.30783	0.546766	6.6745	0.68254	8.09445
0.195908	2.37135	0.159214	1.92843	0.386956	4.68724	0.428605	5.22444	0.545703	6.60853	0.683174	8.07708	0.305548	3.71204	0.435257	5.29481	0.547828	6.63623	0.682897	8.07705
0.196803	2.36409	0.160606	1.93051	0.38931	4.6799	0.430037	5.20179	0.547218	6.5765	0.6834	8.06598	0.306241	3.69209	0.437551	5.28208	0.548886	6.59849	0.683127	8.06598
0.197705	2.35702	0.161998	1.93255	0.391613	4.67207	0.431506	5.17993	0.548752	6.54519	0.683726	8.05008	0.306933	3.67243	0.439851	5.26962	0.549939	6.56126	0.683459	8.05015
0.198614	2.35013	0.16339	1.93455	0.393864	4.66373	0.433014	5.15887	0.550306	6.51458	0.684079	8.03287	0.307623	3.65304	0.442157	5.25741	0.550989	6.52455	0.683823	8.03306
0.199528	2.34341	0.16478	1.93651	0.396057	4.65483	0.434566	5.13864	0.551879	6.48465	0.684559	8.00961	0.308312	3.63393	0.444468	5.24544	0.552034	6.48834	0.684321	8.01
0.200449	2.33687	0.16617	1.93844	0.39819	4.64537	0.436166	5.11927	0.553471	6.45538	0.685164	7.98041	0.309001	3.61511	0.446783	5.23369	0.553077	6.45263	0.684957	7.98116
0.201376	2.3305	0.16756	1.94033	0.400259	4.63532	0.437816	5.10078	0.55508	6.42674	0.685893	7.94543	0.30969	3.59655	0.449102	5.22216	0.554117	6.41741	0.685736	7.94673
0.20231	2.32428	0.168948	1.94218	0.402264	4.62466	0.439521	5.08318	0.556707	6.39873	0.686745	7.90483	0.310378	3.57827	0.451423	5.21083	0.555154	6.38268	0.686663	7.90697
0.203249	2.31823	0.170336	1.94401	0.404201	4.61338	0.441281	5.06648	0.558351	6.3713	0.687719	7.85883	0.311068	3.56025	0.453746	5.19969	0.55619	6.34842	0.687744	7.86216
0.204194	2.31233	0.171723	1.94579	0.406069	4.60149	0.443101	5.0507	0.560011	6.34446	0.688689	7.81344	0.311757	3.5425	0.45607	5.18872	0.557224	6.31464	0.688842	7.81819
0.205145	2.30657	0.17311	1.94755	0.407869	4.589	0.44498	5.03582	0.561687	6.31818	0.689654	7.76864	0.312448	3.52502	0.458395	5.17791	0.558257	6.28133	0.689959	7.77505
0.206101	2.30097	0.174496	1.94927	0.409599	4.5759	0.446921	5.02183	0.563378	6.29244	0.690615	7.72444	0.31314	3.50779	0.46072	5.16726	0.55929	6.24848	0.691093	7.73272
0.207063	2.2955	0.175881	1.95096	0.411261	4.56223	0.448922	5.00872	0.565084	6.26722	0.691572	7.68081	0.313833	3.49082	0.463044	5.15674	0.560323	6.2161	0.692245	7.69118
0.208031	2.29017	0.177266	1.95262	0.412856	4.54802	0.450983	4.99647	0.566805	6.24251	0.692525	7.63774	0.314527	3.47411	0.465366	5.14635	0.561357	6.18418	0.693413	7.65041
0.209004	2.28497	0.17865	1.95425	0.414387	4.5333	0.453104	4.98503	0.568539	6.21829	0.693474	7.59524	0.315223	3.45764	0.467685	5.13608	0.562392	6.15272	0.694599	7.61038
0.209982	2.2799	0.180033	1.95586	0.415855	4.51809	0.455282	4.97438	0.570285	6.19455	0.69442	7.55328	0.315921	3.44143	0.470001	5.12591	0.56343	6.12171	0.695801	7.57109
0.210965	2.27496	0.181416	1.95743	0.417263	4.50246	0.457515	4.96447	0.572045	6.17127	0.695363	7.51185	0.316622	3.42546	0.472313	5.11583	0.564471	6.09116	0.697019	7.5325
0.211954	2.27013	0.182798	1.95897	0.418615	4.48643	0.4598	4.95526	0.573816	6.14843	0.696303	7.47096	0.317324	3.40972	0.474619	5.10584	0.565515	6.06107	0.698253	7.49462
0.212948	2.26543	0.18418	1.96049	0.419914	4.47005	0.462135	4.94671	0.575599	6.12601	0.69724	7.43059	0.318029	3.39423	0.47692	5.09592	0.566564	6.03142	0.699503	7.45741
0.213946	2.26085	0.185561	1.96198	0.421163	4.45337	0.464517	4.93877	0.577393	6.10402	0.698174	7.39073	0.318736	3.37897	0.479214	5.08606	0.567618	6.00223	0.700768	7.42086
0.21495	2.25637	0.186941	1.96344	0.422366	4.43642	0.466942	4.93139	0.579197	6.08242	0.699106	7.35138	0.319446	3.36395	0.4815	5.07625	0.568679	5.9735	0.702048	7.38495
0.215959	2.25201	0.18832	1.96488	0.423526	4.41924	0.469407	4.92453	0.58101	6.06121	0.700036	7.31253	0.320159	3.34915	0.483778	5.06648	0.569746	5.94522	0.703343	7.34968
0.216972	2.24775	0.1897	1.9663	0.424646	4.40188	0.471909	4.91815	0.582833	6.04037	0.700964	7.27416	0.320875	3.33457	0.486046	5.05674	0.570822	5.91739	0.704652	7.31501
0.21799	2.24359	0.191078	1.96768	0.425729	4.38437	0.474446	4.91222	0.584665	6.0199	0.70189	7.23629	0.321594	3.32022	0.488303	5.04701	0.571907	5.89002	0.705975	7.28094
0.219012	2.23954	0.192456	1.96905	0.426778	4.36673	0.477015	4.90668	0.586505	5.99977	0.702816	7.19889	0.322315	3.30608	0.490549	5.03729	0.573002	5.86311	0.707311	7.24745
0.220039	2.23558	0.193833	1.97039	0.427796	4.349	0.479612	4.90151	0.588352	5.97998	0.703741	7.16196	0.32304	3.29216	0.492782	5.02757	0.574108	5.83666	0.708661	7.21453
0.22107	2.23172	0.19521	1.97171	0.428786	4.33121	0.482237	4.89668	0.590206	5.96051	0.704665	7.1255	0.323769	3.27845	0.495001	5.01783	0.575227	5.81067	0.710024	7.18216
0.222106	2.22795	0.196586	1.973	0.429749	4.31338	0.484885	4.89215	0.592067	5.94135	0.705589	7.08951	0.3245	3.26495	0.497205	5.00807	0.576359	5.78515	0.711399	7.15033
0.223146	2.22427	0.197961	1.97427	0.430688	4.29554	0.487555	4.88791	0.593933	5.92249	0.706513	7.05397	0.325236	3.25166	0.499393	4.99827	0.577506	5.76009	0.712787	7.11902
0.224191	2.22068	0.199336	1.97553	0.431604	4.2777	0.490246	4.88392	0.595805	5.90392	0.707438	7.01888	0.325974	3.23857	0.501565	4.98843	0.578669	5.73551	0.714186	7.08822
0.225239	2.21718	0.20071	1.97676	0.432501	4.25988	0.492956	4.88016	0.597681	5.88563	0.708364	6.98424	0.326717	3.22567	0.503717	4.97852	0.579849	5.7114	0.715596	7.05791
0.226291	2.21375	0.202084	1.97796	0.433379	4.2421	0.495682	4.87661	0.599562	5.86761	0.709291	6.95005	0.327463	3.21298	0.505851	4.96855	0.581047	5.68777	0.717018	7.02809
0.227348	2.21041	0.203457	1.97915	0.434239	4.22437	0.498423	4.87326	0.601447	5.84984	0.71022	6.91629	0.328212	3.20047	0.507963	4.95849	0.582265	5.66463	0.71845	6.99875
0.228408	2.20715	0.20483	1.98032	0.435084	4.20671	0.501178	4.87009	0.603334	5.83232	0.711152	6.88297	0.328966	3.18816	0.510053	4.94835	0.583504	5.64197	0.719893	6.96986
0.229473	2.20397	0.206202	1.98147	0.435915	4.18913	0.503947	4.86707	0.605224	5.81504	0.712086	6.85008	0.329723	3.17603	0.512121	4.93811	0.584766	5.6198	0.721345	6.94142
0.230541	2.20086	0.207573	1.9826	0.436733	4.17163	0.506726	4.86421	0.607116	5.79798	0.713023	6.81762	0.330484	3.16408	0.514164	4.92775	0.586051	5.59812		
0.231613	2.19782	0.208944	1.98371	0.437538	4.15423	0.509517	4.86148	0.609009	5.78115	0.713965	6.78558	0.331249	3.15232	0.516181	4.91728	0.58736	5.57693		
0.232688	2.19485	0.210314	1.9848	0.438333	4.13693	0.512317	4.85888	0.610903	5.76452	0.71491	6.75397	0.332018	3.14073	0.518171	4.90668	0.588696	5.55625		
0.233767	2.19195	0.211684	1.98588	0.439117	4.11974	0.515126	4.85638	0.612797	5.74809	0.71586	6.72278	0.332791	3.12932	0.520133	4.89594	0.590059	5.53607		
0.23485	2.18912	0.213053	1.98693	0.439892	4.10267	0.517942	4.854	0.614691	5.73185	0.716816	6.692	0.333568	3.11809	0.522067	4.88505	0.59145	5.51639		
0.235936	2.18636	0.214422	1.98797	0.440659	4.08572	0.520766	4.85171	0.616584	5.71579	0.717777	6.66164	0.334349	3.10702	0.52397	4.87401	0.592871	5.49721		
0.237026	2.18366	0.21579	1.98899	0.441418	4.0689	0.523597	4.8495	0.618476	5.69991	0.718744	6.6317	0.335134	3.09612	0.525841	4.86282	0.594322	5.47854		
0.238119	2.18102	0.217158	1.99	0.442171	4.05221	0.526433	4.84738	0.620365	5.68419	0.719719	6.60216	0.335923	3.08538	0.527681	4.85145	0.595805	5.46037		
0.239215	2.17844	0.218525	1.99099	0.442916	4.03565	0.529275	4.84532	0.622252	5.66862	0.720701	6.57303	0.336716	3.0748	0.529488	4.83992	0.59732	5.44271		
0.240314	2.17592	0.219891	1.99196	0.443656	4.01924	0.532121	4.84334	0.624135	5.65321			0.337514	3.06438	0.531261	4.82822	0.598868	5.42556		
0.241417	2.17346	0.221257	1.99291	0.444391	4.00296	0.534972	4.84141	0.626015	5.63794			0.338315	3.05412	0.532999	4.81633	0.600451	5.4089		
0.242523	2.17106	0.222623	1.99386	0.445121	3.98682	0.537826	4.83955	0.62789	5.6228			0.339121	3.04402	0.534703	4.80427	0.602067	5.39274		
0.243632	2.1687	0.223988	1.99478	0.445846	3.97082	0.540684	4.83773	0.62976	5.60778			0.33993	3.03406	0.536371	4.79203	0.603718	5.37707		
0.244744	2.16641	0.225352	1.99569	0.446568	3.95497	0.543544	4.83595	0.631624	5.59289			0.340744	3.02425	0.538004	4.77961	0.605405	5.36188		
0.245859	2.16416	0.226716	1.99659	0.447286	3.93927	0.546407	4.83422	0.633483	5.57811			0.341562	3.01459	0.539601	4.76701	0.607126	5.34718		
0.246977	2.16197	0.22808	1.99747	0.448001	3.92371	0.549272	4.83253	0.635334	5.56343			0.342384	3.00507	0.541162	4.75424	0.608883	5.33294		
0.248098	2.15982	0.229443	1.99834	0.448714	3.9083	0.552138	4.83087	0.637179	5.54885			0.34321	2.99569	0.542688	4.7413	0.610675	5.31917		
0.249222	2.15772	0.230805	1.99919	0.449424	3.89304	0.555006	4.82924	0.639015	5.53436			0.344041	2.98646	0.544177	4.72819	0.612502	5.30586		
0.250348	2.15567	0.232167	2.00003	0.450132	3.87793	0.557875	4.82763	0.640843	5.51996			0.344876	2.97736	0.545632	4.71492	0.614363	5.29298		
0.251477	2.15366	0.233529	2.00086	0.450838	3.86296	0.560744	4.82605	0.642663	5.50563			0.345714	2.96839	0.547052	4.7015	0.616258	5.28054		
0.252609	2.1517	0.23489	2.00168	0.451543	3.84815	0.563613	4.82448	0.644473	5.49138			0.346557	2.95955	0.548438	4.68793	0.618187	5.26851		
0.253744	2.14979	0.23625	2.00248	0.452246	3.83348	0.566482	4.82293	0.646272	5.4772			0.347404	2.95085	0.549791	4.67422	0.620149	5.2569		
0.254881	2.14791	0.23761	2.00327	0.452948	3.81896	0.569351	4.82139	0.648062	5.46309			0.348255	2.94227	0.551111	4.66038	0.622142	5.24567		
0.25602	2.14608	0.23897	2.00404	0.45365	3.80459	0.572219	4.81986	0.649841	5.44903			0.349111	2.93382	0.552399	4.64642	0.624167	5.23483		
0.257163	2.14428	0.240329	2.00481	0.454351	3.79036	0.575085	4.81834	0.651609	5.43503			0.34997	2.9255	0.553656	4.63235	0.626223	5.22435		
0.258307	2.14253	0.241688	2.00556	0.455051	3.77628	0.57795	4.81682	0.653365	5.42108			0.350834	2.91729	0.554883	4.61818	0.628307	5.21423		
0.259454	2.14081	0.243046	2.0063	0.455751	3.76234	0.580813	4.8153	0.655109	5.40718			0.351701	2.90921	0.556081	4.60392	0.63042	5.20445		
0.260604	2.13914	0.244403	2.00703	0.456452	3.74855	0.583673	4.81377	0.656841	5.39332			0.352573	2.90124	0.557251	4.58957	0.63256	5.195		
0.261756	2.13749	0.245761	2.00775	0.457152	3.73491	0.586531	4.81224	0.65856	5.3795			0.353449	2.89339	0.558394	4.57515	0.634727	5.18585		
0.26291	2.13589	0.247117	2.00845	0.457853	3.7214	0.589385	4.81069	0.660267	5.36573			0.354328	2.88565	0.559511	4.56067	0.636919	5.17701		
0.264066	2.13432	0.248474	2.00915	0.458554	3.70804	0.592236	4.80913	0.661962	5.35199			0.355212	2.87802	0.560603	4.54614	0.639135	5.16845		
0.265225	2.13278	0.249829	2.00983	0.459255	3.69482	0.595082	4.80756	0.663643	5.33828			0.3561	2.87051	0.561672	4.53157	0.641374	5.16017		
0.266386	2.13127	0.251185	2.01051	0.459958	3.68173	0.597924	4.80596	0.665312	5.32462			0.356992	2.8631	0.562718	4.51696	0.643635	5.15215		
0.267549	2.1298	0.25254	2.01117	0.460661	3.66879	0.600761	4.80434	0.666968	5.31099			0.357888	2.8558	0.563742	4.50232	0.645918	5.14437		
0.268714	2.12836	0.253894	2.01183	0.461365	3.65598	0.603591	4.80268	0.668612	5.2974			0.358788	2.8486	0.564746	4.48767	0.64822	5.13684		
0.269881	2.12695	0.255248	2.01247	0.462071	3.64331	0.606416	4.80099	0.670243	5.28385			0.359692	2.84151	0.56573	4.47301	0.650542	5.12952		
0.271051	2.12557	0.256602	2.0131	0.462777	3.63078	0.609233	4.79927	0.671862	5.27034			0.360599	2.83452	0.566696	4.45835	0.652881	5.12243		
0.272222	2.12422	0.257955	2.01373	0.463485	3.61837	0.612042	4.79749	0.673471	5.25687			0.361511	2.82763	0.567644	4.4437	0.655238	5.11553		
0.273395	2.1229	0.259308	2.01434	0.464194	3.6061	0.614843	4.79567	0.675068	5.24345			0.362427	2.82084	0.568575	4.42906	0.65761	5.10883		
0.27457	2.12161	0.26066	2.01495	0.464904	3.59397	0.617634	4.79379	0.676655	5.23009			0.363346	2.81414	0.569491	4.41445	0.659998	5.10231		
0.275747	2.12034	0.262012	2.01554	0.465616	3.58196	0.620414	4.79185	0.678233	5.21678			0.364269	2.80754	0.570391	4.39985	0.662401	5.09597		
0.276926	2.1191	0.263363	2.01613	0.46633	3.57008	0.623184	4.78985	0.679803	5.20354			0.365196	2.80103	0.571277	4.3853	0.664817	5.08979		
0.278107	2.11789	0.264714	2.01671	0.467046	3.55833	0.625941	4.78776	0.681365	5.19038			0.366127	2.79461	0.57215	4.37078	0.667245	5.08377		
0.27929	2.1167	0.266065	2.01728	0.467763	3.5467	0.628684	4.78559	0.682922	5.17729			0.367062	2.78829	0.57301	4.3563	0.669686	5.07789		
0.280474	2.11553	0.267415	2.01784	0.468482	3.5352	0.631412	4.78333	0.684474	5.1643			0.368001	2.78205	0.573859	4.34187	0.672137	5.07216		
0.281661	2.11439	0.268765	2.01839	0.469203	3.52382	0.634123	4.78096	0.686023	5.15141			0.368943	2.7759	0.574696	4.3275	0.6746	5.06656		
0.282848	2.11328	0.270114	2.01894	0.469926	3.51257	0.636817	4.77849	0.687572	5.13863			0.369889	2.76984	0.575522	4.31318	0.677071	5.06108		
0.284038	2.11219	0.271463	2.01947	0.470651	3.50143	0.63949	4.77588	0.689121	5.12598			0.370839	2.76386	0.576338	4.29892	0.679552	5.05572		
0.285229	2.11112	0.272812	2.02	0.471378	3.49042	0.642143	4.77315	0.690673	5.11347			0.371792	2.75797	0.577145	4.28473	0.682041	5.05048		
0.286422	2.11007	0.27416	2.02052	0.472107	3.47952	0.644771	4.77026	0.692232	5.10112			0.372749	2.75215	0.577944	4.2706	0.684538	5.04534		
0.287617	2.10904	0.275508	2.02103	0.472838	3.46875	0.647374	4.76721	0.693798	5.08894			0.37371	2.74642	0.578734	4.25655	0.687042	5.04029		
0.288813	2.10804	0.276855	2.02154	0.473572	3.45808	0.649948	4.76398	0.695375	5.07696			0.374674	2.74077	0.579516	4.24257	0.689552	5.03535		
0.290011	2.10705	0.278202	2.02204	0.474308	3.44753	0.652492	4.76055	0.696966	5.06519			0.375642	2.73519	0.580291	4.22866	0.692068	5.03049		
0.29121	2.10609	0.279549	2.02253	0.475046	3.4371	0.655002	4.75692	0.698574	5.05365			0.376613	2.7297	0.581059	4.21483	0.694589	5.02571		
0.292411	2.10514	0.280895	2.02301	0.475786	3.42678	0.657476	4.75306	0.700203	5.04236			0.377588	2.72428	0.581821	4.20109	0.697115	5.02101		
0.293613	2.10422	0.282241	2.02348	0.476529	3.41656	0.659911	4.74894	0.701856	5.03135			0.378566	2.71893	0.582577	4.18742	0.699645	5.01638		
0.294817	2.10331	0.283586	2.02395	0.477275	3.40646	0.662304	4.74457	0.703536	5.02063			0.379548	2.71365	0.583327	4.17384	0.702178	5.01181		
0.296022	2.10242	0.284931	2.02441	0.478022	3.39647	0.664651	4.73991	0.705247	5.01022			0.380534	2.70845	0.584072	4.16035	0.704714	5.00731		
0.297229	2.10155	0.286276	2.02487	0.478773	3.38658	0.666949	4.73494	0.706992	5.00016			0.381523	2.70332	0.584813	4.14694	0.707253	5.00287		
0.298437	2.1007	0.28762	2.02531	0.479526	3.3768	0.669196	4.72966	0.708775	4.99045			0.382515	2.69826	0.585549	4.13362	0.709793	4.99847		
0.299646	2.09987	0.288964	2.02576	0.480281	3.36712	0.671389	4.72404	0.710599	4.98111			0.38351	2.69327	0.58628	4.12038	0.712335	4.99413		
0.300857	2.09905	0.290307	2.02619	0.481039	3.35755	0.673525	4.71807	0.712467	4.97216			0.384509	2.68834	0.587008	4.10724	0.714877	4.98983		
0.302069	2.09824	0.29165	2.02662	0.481799	3.34808	0.675601	4.71174	0.714381	4.96361			0.385512	2.68348	0.587732	4.09419	0.717419	4.98556		
0.303282	2.09746	0.292993	2.02704	0.482562	3.3387	0.677616	4.70504	0.716343	4.95546			0.386517	2.67869	0.588453	4.08123	0.719961	4.98134		
0.304497	2.09669	0.294335	2.02746	0.483328	3.32943	0.679568	4.69796	0.718355	4.94773			0.387526	2.67396	0.589171	4.06837	0.722502	4.97714		
0.305713	2.09593	0.295677	2.02787	0.484097	3.32026	0.681456	4.69051	0.720417	4.94041			0.388539	2.6693	0.589886	4.05559				
0.30693	2.09519	0.297019	2.02827	0.484868	3.31119	0.683281	4.68268					0.389554	2.6647	0.590599	4.04291				
0.308148	2.09447	0.29836	2.02867	0.485641	3.30221	0.685042	4.67449					0.390573	2.66016	0.591309	4.03033				
0.309368	2.09376	0.299701	2.02906	0.486418	3.29332	0.68674	4.66594					0.391595	2.65568	0.592017	4.01783				
0.310589	2.09306	0.301042	2.02945	0.487197	3.28454	0.688377	4.65705					0.39262	2.65126	0.592723	4.00543				
0.311811	2.09238	0.302382	2.02983	0.487979	3.27584	0.689954	4.64783					0.393648	2.6469	0.593428	3.99313				
0.313034	2.09171	0.303722	2.0302	0.488763	3.26723	0.691473	4.6383					0.394679	2.64259	0.594131	3.98092				
0.314258	2.09105	0.305062	2.03057	0.489551	3.25872	0.692937	4.62849					0.395714	2.63835	0.594832	3.9688				
0.315483	2.0904	0.306401	2.03094	0.490341	3.2503	0.694349	4.61841					0.396751	2.63416	0.595533	3.95677				
0.31671	2.08977	0.30774	2.03129	0.491134	3.24196	0.695711	4.60809					0.397792	2.63002	0.596232	3.94484				
0.317937	2.08915	0.309078	2.03165	0.49193	3.23371	0.697026	4.59754					0.398835	2.62594	0.596931	3.93301				
0.319166	2.08855	0.310416	2.032	0.492728	3.22555	0.698298	4.58679					0.399882	2.62191	0.597629	3.92127				
0.320395	2.08795	0.311754	2.03234	0.493529	3.21748	0.699528	4.57586					0.400931	2.61794	0.598326	3.90962				
0.321626	2.08737	0.313091	2.03268	0.494333	3.20948	0.700719	4.56477					0.401984	2.61402	0.599023	3.89806				
0.322858	2.0868	0.314429	2.03301	0.49514	3.20158	0.701875	4.55353					0.403039	2.61014	0.599719	3.8866				
0.32409	2.08624	0.315765	2.03334	0.49595	3.19375	0.702997	4.54218					0.404097	2.60632	0.600415	3.87523				
0.325324	2.08568	0.317102	2.03366	0.496762	3.18601	0.704088	4.53071					0.405159	2.60255	0.601112	3.86395				
0.326558	2.08515	0.318438	2.03398	0.497577	3.17834	0.705151	4.51916					0.406223	2.59883	0.601808	3.85276				
0.327794	2.08462	0.319774	2.0343	0.498395	3.17076	0.706186	4.50752					0.407289	2.59515	0.602504	3.84166				
0.32903	2.0841	0.32111	2.03461	0.499216	3.16325	0.707197	4.49583					0.408359	2.59152	0.603201	3.83066				
0.330268	2.08359	0.322445	2.03491	0.50004	3.15583	0.708184	4.48407					0.409432	2.58794	0.603898	3.81974				
0.331506	2.08309	0.32378	2.03521	0.500867	3.14847	0.70915	4.47228					0.410507	2.58441	0.604595	3.80891				
0.332745	2.0826	0.325114	2.03551	0.501696	3.1412	0.710096	4.46046					0.411585	2.58092	0.605293	3.79818				
0.333985	2.08212	0.326448	2.0358	0.502528	3.134	0.711024	4.44861					0.412666	2.57747	0.605991	3.78753				
0.335226	2.08165	0.327782	2.03609	0.503363	3.12687	0.711934	4.43675					0.413749	2.57407	0.60669	3.77697				
0.336468	2.08118	0.329116	2.03638	0.504201	3.11982	0.712828	4.42488					0.414835	2.57071	0.60739	3.76649				
0.33771	2.08073	0.330449	2.03666	0.505041	3.11284	0.713708	4.41301					0.415924	2.5674	0.60809	3.7561				
0.338954	2.08028	0.331782	2.03693	0.505884	3.10593	0.714573	4.40115					0.417015	2.56412	0.608792	3.7458				
0.340198	2.07985	0.333115	2.0372	0.50673	3.09909	0.715426	4.38931					0.418109	2.56089	0.609494	3.73559				
0.341443	2.07942	0.334448	2.03747	0.507579	3.09232	0.716266	4.37748					0.419206	2.5577	0.610197	3.72546				
0.342689	2.079	0.33578	2.03774	0.508431	3.08562	0.717095	4.36567					0.420305	2.55455	0.610902	3.71541				
0.343935	2.07858	0.337111	2.038	0.509285	3.07899	0.717913	4.35389					0.421406	2.55144	0.611607	3.70545				
0.345183	2.07818	0.338443	2.03825	0.510143	3.07242	0.718722	4.34214					0.422511	2.54836	0.612314	3.69557				
0.346431	2.07778	0.339774	2.03851	0.511003	3.06592	0.719522	4.33042					0.423617	2.54533	0.613022	3.68577				
0.34768	2.07739	0.341105	2.03875	0.511865	3.05949	0.720313	4.31874					0.424726	2.54233	0.613731	3.67606				
0.348929	2.07701	0.342436	2.039	0.512731	3.05312							0.425838	2.53937	0.614441	3.66643				
0.350179	2.07663	0.343766	2.03924	0.513599	3.04682							0.426952	2.53645	0.615153	3.65687				
0.35143	2.07626	0.345096	2.03948	0.51447	3.04058							0.428068	2.53356	0.615867	3.6474				
0.352682	2.0759	0.346426	2.03972	0.515344	3.0344							0.429187	2.53071	0.616581	3.63801				
0.353934	2.07555	0.347756	2.03995	0.51622	3.02828							0.430308	2.52789	0.617298	3.62869				
0.355188	2.0752	0.349085	2.04018	0.5171	3.02222							0.431432	2.52511	0.618015	3.61945				
0.356441	2.07486	0.350414	2.0404	0.517981	3.01623							0.432558	2.52237	0.618735	3.61029				
0.357696	2.07452	0.351743	2.04062	0.518866	3.01029							0.433686	2.51965	0.619456	3.60121				
0.358951	2.07419	0.353071	2.04084	0.519753	3.00442							0.434817	2.51697	0.620178	3.5922				
0.360206	2.07387	0.354399	2.04106	0.520643	2.9986							0.435949	2.51432	0.620903	3.58327				
0.361462	2.07355	0.355727	2.04127	0.521536	2.99284							0.437084	2.51171	0.621629	3.57442				
0.362719	2.07324	0.357055	2.04148	0.522431	2.98714							0.438222	2.50913	0.622356	3.56563				
0.363977	2.07293	0.358382	2.04168	0.523329	2.98149							0.439361	2.50657	0.623086	3.55692				
0.365235	2.07263	0.359709	2.04189	0.52423	2.9759							0.440503	2.50405	0.623817	3.54829				
0.366494	2.07234	0.361036	2.04209	0.525133	2.97036							0.441647	2.50156	0.62455	3.53972				
0.367753	2.07205	0.362362	2.04229	0.526039	2.96488							0.442793	2.4991	0.625285	3.53123				
0.369013	2.07176	0.363689	2.04248	0.526948	2.95945							0.443941	2.49667	0.626022	3.52281				
0.370273	2.07148	0.365015	2.04267	0.527859	2.95407							0.445091	2.49426	0.62676	3.51446				
0.371534	2.07121	0.366341	2.04286	0.528773	2.94875							0.446243	2.49189	0.627501	3.50618				
0.372795	2.07094	0.367666	2.04305	0.529689	2.94348							0.447398	2.48954	0.628243	3.49796				
0.374057	2.07068	0.368991	2.04323	0.530608	2.93826							0.448554	2.48722	0.628988	3.48982				
0.37532	2.07042	0.370316	2.04341	0.531529	2.93309							0.449713	2.48493	0.629734	3.48174				
0.376583	2.07016	0.371641	2.04359	0.532454	2.92797							0.450873	2.48267	0.630482	3.47373				
0.377847	2.06991	0.372966	2.04377	0.53338	2.9229							0.452036	2.48043	0.631232	3.46579				
0.379111	2.06966	0.37429	2.04394	0.534309	2.91788							0.453201	2.47822	0.631985	3.45791				
0.380375	2.06942	0.375614	2.04411	0.535241	2.91291							0.454367	2.47604	0.632739	3.4501				
0.38164	2.06919	0.376938	2.04428	0.536175	2.90798							0.455536	2.47388	0.633495	3.44235				
0.382906	2.06895	0.378262	2.04444	0.537112	2.9031							0.456706	2.47175	0.634254	3.43467				
0.384172	2.06872	0.379585	2.04461	0.538051	2.89827							0.457879	2.46964	0.635014	3.42705				
0.385438	2.0685	0.380908	2.04477	0.538993	2.89349							0.459053	2.46756	0.635776	3.41949				
0.386705	2.06828	0.382231	2.04493	0.539937	2.88875							0.460229	2.4655	0.636541	3.412				
0.387973	2.06806	0.383554	2.04508	0.540884	2.88405							0.461407	2.46346	0.637308	3.40456				
0.389241	2.06785	0.384876	2.04524	0.541833	2.8794							0.462587	2.46145	0.638076	3.39719				
0.390509	2.06764	0.386198	2.04539	0.542784	2.8748							0.463769	2.45946	0.638847	3.38988				
0.391778	2.06743	0.38752	2.04554	0.543738	2.87024							0.464952	2.45749	0.63962	3.38263				
0.393047	2.06723	0.388842	2.04569	0.544695	2.86572							0.466138	2.45555	0.640395	3.37544				
0.394317	2.06704	0.390164	2.04583	0.545653	2.86124							0.467325	2.45363	0.641172	3.36831				
0.395587	2.06684	0.391485	2.04598	0.546615	2.85681							0.468514	2.45173	0.641951	3.36123				
0.396857	2.06665	0.392806	2.04612	0.547578	2.85242							0.469705	2.44985	0.642733	3.35422				
0.398128	2.06646	0.394127	2.04626	0.548544	2.84806							0.470897	2.448	0.643516	3.34726				
0.399399	2.06628	0.395447	2.04639	0.549512	2.84375							0.472091	2.44616	0.644302	3.34036				
0.400671	2.0661	0.396768	2.04653	0.550483	2.83948							0.473287	2.44435	0.64509	3.33351				
0.401943	2.06592	0.398088	2.04666	0.551456	2.83525							0.474485	2.44256	0.64588	3.32672				
0.403216	2.06574	0.399408	2.04679	0.552431	2.83106							0.475684	2.44078	0.646672	3.31999				
0.404488	2.06557	0.400728	2.04692	0.553409	2.82691							0.476885	2.43903	0.647466	3.31331				
0.405762	2.0654	0.402048	2.04705	0.554389	2.82279							0.478087	2.4373	0.648263	3.30668				
0.407035	2.06524	0.403367	2.04718	0.555371	2.81872							0.479292	2.43558	0.649062	3.30011				
0.408309	2.06507	0.404686	2.0473	0.556355	2.81468							0.480498	2.43389	0.649862	3.29359				
0.409583	2.06491	0.406005	2.04742	0.557342	2.81068							0.481705	2.43221	0.650665	3.28712				
0.410858	2.06475	0.407324	2.04754	0.558331	2.80671							0.482914	2.43056	0.65147	3.28071				
0.412133	2.0646	0.408643	2.04766	0.559322	2.80279							0.484125	2.42892	0.652278	3.27434				
0.413408	2.06445	0.409961	2.04778	0.560316	2.79889							0.485337	2.4273	0.653087	3.26803				
0.414684	2.0643	0.411279	2.04789	0.561311	2.79504							0.486551	2.4257	0.653899	3.26177				
0.41596	2.06415	0.412597	2.048	0.562309	2.79121							0.487766	2.42411	0.654713	3.25556				
0.417236	2.06401	0.413915	2.04812	0.563309	2.78743							0.488983	2.42255	0.655529	3.2494				
0.418513	2.06387	0.415233	2.04823	0.564312	2.78368							0.490201	2.421	0.656347	3.24329				
0.41979	2.06373	0.41655	2.04833	0.565316	2.77996							0.491421	2.41946	0.657168	3.23722				
0.421067	2.06359	0.417868	2.04844	0.566323	2.77627							0.492643	2.41795	0.65799	3.23121				
0.422345	2.06345	0.419185	2.04855	0.567331	2.77262							0.493865	2.41645	0.658815	3.22524				
0.423623	2.06332	0.420502	2.04865	0.568342	2.769							0.49509	2.41496	0.659642	3.21932				
0.424901	2.06319	0.421819	2.04875	0.569355	2.76542							0.496315	2.4135	0.660471	3.21345				
0.426179	2.06307	0.423135	2.04885	0.57037	2.76186							0.497543	2.41205	0.661302	3.20762				
0.427458	2.06294	0.424451	2.04895	0.571388	2.75834							0.498771	2.41061	0.662135	3.20184				
0.428737	2.06282	0.425768	2.04905	0.572407	2.75485							0.500001	2.40919	0.662971	3.19611				
0.430017	2.0627	0.427084	2.04915	0.573428	2.75139							0.501233	2.40779	0.663809	3.19042				
0.431296	2.06258	0.4284	2.04924	0.574452	2.74796							0.502465	2.4064	0.664649	3.18478				
0.432576	2.06246	0.429715	2.04934	0.575477	2.74457							0.5037	2.40503	0.665491	3.17918				
0.433856	2.06234	0.431031	2.04943	0.576505	2.7412							0.504935	2.40367	0.666335	3.17362				
0.435137	2.06223	0.432346	2.04952	0.577534	2.73786							0.506172	2.40232	0.667181	3.16811				
0.436417	2.06212	0.433661	2.04961	0.578566	2.73455							0.50741	2.40099	0.66803	3.16264				
0.437698	2.06201	0.434976	2.0497	0.5796	2.73127							0.50865	2.39967	0.66888	3.15721				
0.43898	2.0619	0.436291	2.04978	0.580635	2.72802							0.509891	2.39837	0.669733	3.15183				
0.440261	2.0618	0.437606	2.04987	0.581673	2.7248							0.511133	2.39708	0.670588	3.14649				
0.441543	2.06169	0.43892	2.04995	0.582712	2.72161							0.512376	2.39581	0.671445	3.14119				
0.442825	2.06159	0.440235	2.05004	0.583754	2.71844							0.513621	2.39455	0.672304	3.13593				
0.444107	2.06149	0.441549	2.05012	0.584797	2.7153							0.514867	2.3933	0.673165	3.13071				
0.44539	2.06139	0.442863	2.0502	0.585843	2.71219							0.516114	2.39207	0.674029	3.12553				
0.446672	2.06129	0.444177	2.05028	0.58689	2.70911							0.517363	2.39084	0.674894	3.12039				
0.447955	2.0612	0.445491	2.05036	0.587939	2.70605							0.518612	2.38964	0.675762	3.11529				
0.449239	2.06111	0.446804	2.05043	0.588991	2.70302							0.519863	2.38844	0.676631	3.11023				
0.450522	2.06101	0.448118	2.05051	0.590044	2.70002							0.521115	2.38726	0.677503	3.10521				
0.451806	2.06092	0.449431	2.05059	0.591099	2.69704							0.522369	2.38608	0.678377	3.10023				
0.453089	2.06083	0.450744	2.05066	0.592156	2.69409							0.523623	2.38492	0.679253	3.09529				
0.454374	2.06075	0.452057	2.05073	0.593214	2.69116							0.524879	2.38378	0.680131	3.09038				
0.455658	2.06066	0.45337	2.0508	0.594275	2.68826							0.526136	2.38264	0.681011	3.08552				
0.456942	2.06058	0.454682	2.05087	0.595337	2.68538							0.527394	2.38152	0.681893	3.08069				
0.458227	2.06049	0.455995	2.05094	0.596402	2.68253							0.528653	2.38041	0.682778	3.07589				
0.459512	2.06041	0.457307	2.05101	0.597468	2.6797							0.529914	2.3793	0.683664	3.07113				
0.460797	2.06033	0.45862	2.05108	0.598536	2.6769							0.531175	2.37822	0.684552	3.06641				
0.462082	2.06025	0.459932	2.05115	0.599605	2.67412							0.532438	2.37714	0.685443	3.06173				
0.463368	2.06017	0.461244	2.05121	0.600677	2.67136							0.533702	2.37607	0.686335	3.05708				
0.464654	2.0601	0.462556	2.05128	0.60175	2.66863							0.534966	2.37501	0.68723	3.05246				
0.46594	2.06002	0.463867	2.05134	0.602825	2.66592							0.536232	2.37397	0.688126	3.04788				
0.467226	2.05995	0.465179	2.0514	0.603902	2.66323							0.537499	2.37293	0.689025	3.04334				
0.468512	2.05987	0.466491	2.05147	0.60498	2.66057							0.538767	2.37191	0.689926	3.03883				
0.469798	2.0598	0.467802	2.05153	0.606061	2.65793							0.540036	2.3709	0.690828	3.03435				
0.471085	2.05973	0.469113	2.05159	0.607143	2.65531							0.541307	2.36989	0.691733	3.02991				
0.472372	2.05966	0.470424	2.05164	0.608226	2.65271							0.542578	2.3689	0.692639	3.0255				
0.473659	2.0596	0.471735	2.0517	0.609312	2.65013							0.54385	2.36791	0.693548	3.02112				
0.474946	2.05953	0.473046	2.05176	0.610399	2.64758							0.545124	2.36694	0.694459	3.01677				
0.476233	2.05946	0.474357	2.05182	0.611488	2.64505							0.546398	2.36598	0.695371	3.01246				
0.477521	2.0594	0.475667	2.05187	0.612578	2.64253							0.547673	2.36502	0.696286	3.00818				
0.478809	2.05934	0.476978	2.05193	0.61367	2.64004							0.548949	2.36408	0.697202	3.00393				
0.480097	2.05927	0.478288	2.05198	0.614764	2.63757							0.550227	2.36314	0.698121	2.99972				
0.481385	2.05921	0.479598	2.05203	0.61586	2.63512							0.551505	2.36221	0.699041	2.99553				
0.482673	2.05915	0.480908	2.05209	0.616957	2.63269							0.552784	2.3613	0.699964	2.99138				
0.483961	2.05909	0.482218	2.05214	0.618056	2.63028							0.554065	2.36039	0.700888	2.98725				
0.48525	2.05903	0.483528	2.05219	0.619156	2.62789							0.555346	2.35949	0.701814	2.98316				
0.486538	2.05898	0.484838	2.05224	0.620258	2.62552							0.556628	2.3586	0.702742	2.9791				
0.487827	2.05892	0.486147	2.05229	0.621362	2.62317							0.557911	2.35772	0.703673	2.97506				
0.489116	2.05886	0.487457	2.05234	0.622467	2.62084							0.559195	2.35684	0.704605	2.97106				
0.490405	2.05881	0.488766	2.05238	0.623573	2.61852							0.56048	2.35598	0.705539	2.96708				
0.491695	2.05875	0.490076	2.05243	0.624682	2.61623							0.561766	2.35512	0.706474	2.96314				
0.492984	2.0587	0.491385	2.05248	0.625792	2.61395							0.563053	2.35428	0.707412	2.95922				
0.494273	2.05865	0.492694	2.05252	0.626903	2.6117							0.56434	2.35344	0.708352	2.95533				
0.495563	2.0586	0.494003	2.05257	0.628016	2.60946							0.565629	2.35261	0.709293	2.95147				
0.496853	2.05855	0.495312	2.05261	0.629131	2.60724							0.566918	2.35178	0.710237	2.94764				
0.498143	2.0585	0.49662	2.05266	0.630247	2.60504							0.568209	2.35097	0.711182	2.94384				
0.499433	2.05845	0.497929	2.0527	0.631364	2.60285							0.5695	2.35016	0.712129	2.94006				
0.500723	2.0584	0.499238	2.05274	0.632483	2.60068							0.570792	2.34936	0.713078	2.93631				
0.502014	2.05836	0.500546	2.05278	0.633604	2.59853							0.572085	2.34857	0.714029	2.93259				
0.503304	2.05831	0.501854	2.05283	0.634726	2.5964							0.573379	2.34778	0.714981	2.92889				
0.504595	2.05826	0.503163	2.05287	0.635849	2.59428							0.574673	2.34701	0.715936	2.92523				
0.505885	2.05822	0.504471	2.05291	0.636974	2.59219							0.575969	2.34624	0.716892	2.92158				
0.507176	2.05817	0.505779	2.05294	0.638101	2.5901							0.577265	2.34547	0.71785	2.91797				
0.508467	2.05813	0.507087	2.05298	0.639229	2.58804							0.578562	2.34472	0.71881	2.91438				
0.509758	2.05809	0.508395	2.05302	0.640358	2.58599							0.57986	2.34397	0.719772	2.91081				
0.51105	2.05805	0.509702	2.05306	0.641489	2.58395							0.581159	2.34323	0.720736	2.90727				
0.512341	2.05801	0.51101	2.0531	0.642621	2.58194							0.582458	2.3425						
0.513632	2.05796	0.512318	2.05313	0.643755	2.57994							0.583759	2.34177						
0.514924	2.05792	0.513625	2.05317	0.64489	2.57795							0.58506	2.34105						
0.516216	2.05789	0.514933	2.0532	0.646026	2.57598							0.586362	2.34034						
0.517508	2.05785	0.51624	2.05324	0.647164	2.57403							0.587664	2.33963						
0.518799	2.05781	0.517547	2.05327	0.648303	2.57209							0.588968	2.33893						
0.520092	2.05777	0.518854	2.05331	0.649444	2.57016							0.590272	2.33824						
0.521384	2.05773	0.520161	2.05334	0.650586	2.56826							0.591577	2.33755						
0.522676	2.0577	0.521468	2.05337	0.651729	2.56636							0.592882	2.33687						
0.523968	2.05766	0.522775	2.0534	0.652874	2.56448							0.594189	2.33619						
0.525261	2.05763	0.524082	2.05344	0.65402	2.56262							0.595496	2.33552						
0.526553	2.05759	0.525389	2.05347	0.655167	2.56077							0.596804	2.33486						
0.527846	2.05756	0.526695	2.0535	0.656316	2.55893							0.598112	2.33421						
0.529139	2.05753	0.528002	2.05353	0.657466	2.55711							0.599422	2.33356						
0.530431	2.05749	0.529308	2.05356	0.658617	2.5553							0.600732	2.33291						
0.531724	2.05746	0.530615	2.05359	0.65977	2.55351							0.602042	2.33227						
0.533017	2.05743	0.531921	2.05362	0.660924	2.55173							0.603354	2.33164						
0.534311	2.0574	0.533227	2.05365	0.662079	2.54996							0.604666	2.33102						
0.535604	2.05737	0.534533	2.05367	0.663236	2.54821							0.605979	2.33039						
0.536897	2.05734	0.53584	2.0537	0.664394	2.54647							0.607292	2.32978						
0.53819	2.05731	0.537146	2.05373	0.665553	2.54474							0.608606	2.32917						
0.539484	2.05728	0.538451	2.05376	0.666713	2.54303							0.609921	2.32856						
0.540778	2.05725	0.539757	2.05378	0.667875	2.54133							0.611237	2.32797						
0.542071	2.05722	0.541063	2.05381	0.669037	2.53964							0.612553	2.32737						
0.543365	2.05719	0.542369	2.05383	0.670201	2.53797							0.61387	2.32678						
0.544659	2.05717	0.543674	2.05386	0.671367	2.53631							0.615187	2.3262						
0.545953	2.05714	0.54498	2.05388	0.672533	2.53466							0.616505	2.32562						
0.547247	2.05711	0.546286	2.05391	0.673701	2.53302							0.617824	2.32505						
0.548541	2.05709	0.547591	2.05393	0.67487	2.5314							0.619143	2.32448						
0.549835	2.05706	0.548896	2.05396	0.67604	2.52978							0.620463	2.32392						
0.551129	2.05704	0.550202	2.05398	0.677211	2.52818							0.621784	2.32336						
0.552423	2.05701	0.551507	2.054	0.678384	2.5266							0.623105	2.32281						
0.553718	2.05699	0.552812	2.05403	0.679557	2.52502							0.624427	2.32226						
0.555012	2.05696	0.554117	2.05405	0.680732	2.52345							0.625749	2.32172						
0.556307	2.05694	0.555422	2.05407	0.681908	2.5219							0.627072	2.32118						
0.557602	2.05692	0.556727	2.05409	0.683085	2.52036							0.628396	2.32065						
0.558896	2.05689	0.558032	2.05411	0.684264	2.51883							0.62972	2.32012						
0.560191	2.05687	0.559337	2.05413	0.685443	2.51731							0.631045	2.3196						
0.561486	2.05685	0.560642	2.05415	0.686624	2.5158							0.63237	2.31908						
0.562781	2.05683	0.561947	2.05418	0.687805	2.51431							0.633696	2.31856						
0.564076	2.0568	0.563251	2.0542	0.688988	2.51282							0.635022	2.31805						
0.565371	2.05678	0.564556	2.05422	0.690172	2.51135							0.636349	2.31754						
0.566666	2.05676	0.56586	2.05423	0.691357	2.50988							0.637677	2.31704						
0.567961	2.05674	0.567165	2.05425	0.692543	2.50843							0.639005	2.31655						
0.569256	2.05672	0.568469	2.05427	0.693731	2.50699							0.640334	2.31605						
0.570551	2.0567	0.569774	2.05429	0.694919	2.50555							0.641663	2.31556						
0.571847	2.05668	0.571078	2.05431	0.696109	2.50413							0.642993	2.31508						
0.573142	2.05666	0.572382	2.05433	0.697299	2.50272							0.644324	2.3146						
0.574438	2.05664	0.573687	2.05435	0.698491	2.50132							0.645654	2.31412						
0.575733	2.05663	0.574991	2.05436	0.699683	2.49993							0.646986	2.31365						
0.577029	2.05661	0.576295	2.05438	0.700877	2.49855							0.648318	2.31318						
0.578325	2.05659	0.577599	2.0544	0.702072	2.49718							0.64965	2.31272						
0.57962	2.05657	0.578903	2.05441	0.703268	2.49582							0.650983	2.31225						
0.580916	2.05656	0.580207	2.05443	0.704464	2.49446							0.652317	2.3118						
0.582212	2.05654	0.581511	2.05445	0.705662	2.49312							0.653651	2.31134						
0.583508	2.05652	0.582815	2.05446	0.706861	2.49179							0.654985	2.3109						
0.584804	2.0565	0.584119	2.05448	0.708061	2.49047							0.65632	2.31045						
0.5861	2.05649	0.585422	2.05449	0.709262	2.48915							0.657656	2.31001						
0.587396	2.05647	0.586726	2.05451	0.710464	2.48785							0.658992	2.30957						
0.588692	2.05646	0.58803	2.05452	0.711667	2.48656							0.660328	2.30914						
0.589988	2.05644	0.589333	2.05454	0.712871	2.48527							0.661665	2.30871						
0.591284	2.05643	0.590637	2.05455	0.714076	2.48399							0.663003	2.30828						
0.592581	2.05641	0.59194	2.05457	0.715282	2.48273							0.664341	2.30786						
0.593877	2.0564	0.593244	2.05458	0.716489	2.48147							0.665679	2.30743						
0.595173	2.05638	0.594547	2.05459	0.717697	2.48022							0.667018	2.30702						
0.59647	2.05637	0.595851	2.05461	0.718906	2.47898							0.668358	2.30661						
0.597766	2.05635	0.597154	2.05462	0.720115	2.47775							0.669697	2.3062						
0.599063	2.05634	0.598457	2.05464									0.671038	2.30579						
0.600359	2.05633	0.599761	2.05465									0.672378	2.30539						
0.601656	2.05631	0.601064	2.05466									0.67372	2.30499						
0.602952	2.0563	0.602367	2.05467									0.675061	2.30459						
0.604249	2.05629	0.60367	2.05469									0.676403	2.3042						
0.605546	2.05627	0.604973	2.0547									0.677746	2.30381						
0.606843	2.05626	0.606276	2.05471									0.679089	2.30342						
0.60814	2.05625	0.607579	2.05472									0.680432	2.30303						
0.609436	2.05624	0.608882	2.05473									0.681776	2.30265						
0.610733	2.05622	0.610185	2.05475									0.68312	2.30228						
0.61203	2.05621	0.611488	2.05476									0.684465	2.3019						
0.613327	2.0562	0.612791	2.05477									0.68581	2.30153						
0.614624	2.05619	0.614094	2.05478									0.687155	2.30116						
0.615921	2.05618	0.615397	2.05479									0.688501	2.3008						
0.617218	2.05617	0.6167	2.0548									0.689848	2.30043						
0.618516	2.05616	0.618002	2.05481									0.691194	2.30007						
0.619813	2.05615	0.619305	2.05482									0.692542	2.29972						
0.62111	2.05613	0.620608	2.05483									0.693889	2.29936						
0.622407	2.05612	0.62191	2.05484									0.695237	2.29901						
0.623705	2.05611	0.623213	2.05485									0.696585	2.29866						
0.625002	2.0561	0.624515	2.05486									0.697934	2.29831						
0.626299	2.05609	0.625818	2.05487									0.699283	2.29797						
0.627597	2.05608	0.62712	2.05488									0.700633	2.29763						
0.628894	2.05607	0.628423	2.05489									0.701982	2.29729						
0.630192	2.05607	0.629725	2.0549									0.703333	2.29696						
0.631489	2.05606	0.631028	2.05491									0.704683	2.29662						
0.632787	2.05605	0.63233	2.05492									0.706034	2.29629						
0.634084	2.05604	0.633632	2.05493									0.707386	2.29597						
0.635382	2.05603	0.634935	2.05493									0.708737	2.29564						
0.63668	2.05602	0.636237	2.05494									0.71009	2.29532						
0.637977	2.05601	0.637539	2.05495									0.711442	2.295						
0.639275	2.056	0.638841	2.05496									0.712795	2.29468						
0.640573	2.05599	0.640144	2.05497									0.714148	2.29437						
0.64187	2.05599	0.641446	2.05497									0.715502	2.29405						
0.643168	2.05598	0.642748	2.05498									0.716855	2.29374						
0.644466	2.05597	0.64405	2.05499									0.71821	2.29343						
0.645764	2.05596	0.645352	2.055									0.719564	2.29313						
0.647062	2.05596	0.646654	2.055									0.720919	2.29283						
0.64836	2.05595	0.647956	2.05501																
0.649658	2.05594	0.649258	2.05502																
0.650956	2.05593	0.65056	2.05503																
0.652254	2.05593	0.651862	2.05503																
0.653552	2.05592	0.653164	2.05504																
0.65485	2.05591	0.654466	2.05505																
0.656148	2.0559	0.655768	2.05505																
0.657446	2.0559	0.657069	2.05506																
0.658744	2.05589	0.658371	2.05507																
0.660042	2.05588	0.659673	2.05507																
0.661341	2.05588	0.660975	2.05508																
0.662639	2.05587	0.662276	2.05509																
0.663937	2.05587	0.663578	2.05509																
0.665235	2.05586	0.66488	2.0551																
0.666533	2.05585	0.666182	2.0551																
0.667832	2.05585	0.667483	2.05511																
0.66913	2.05584	0.668785	2.05512																
0.670429	2.05584	0.670086	2.05512																
0.671727	2.05583	0.671388	2.05513																
0.673025	2.05582	0.67269	2.05513																
0.674324	2.05582	0.673991	2.05514																
0.675622	2.05581	0.675293	2.05514																
0.676921	2.05581	0.676594	2.05515																
0.678219	2.0558	0.677896	2.05515																
0.679518	2.0558	0.679197	2.05516																
0.680816	2.05579	0.680498	2.05516																
0.682115	2.05579	0.6818	2.05517																
0.683413	2.05578	0.683101	2.05517																
0.684712	2.05578	0.684403	2.05518																
0.68601	2.05577	0.685704	2.05518																
0.687309	2.05577	0.687005	2.05519																
0.688608	2.05576	0.688307	2.05519																
0.689906	2.05576	0.689608	2.0552																
0.691205	2.05576	0.690909	2.0552																
0.692504	2.05575	0.692211	2.0552																
0.693802	2.05575	0.693512	2.05521																
0.695101	2.05574	0.694813	2.05521																
0.6964	2.05574	0.696114	2.05522																
0.697699	2.05573	0.697416	2.05522																
0.698997	2.05573	0.698717	2.05522																
0.700296	2.05573	0.700018	2.05523																
0.701595	2.05572	0.701319	2.05523																
0.702894	2.05572	0.70262	2.05524																
0.704193	2.05571	0.703921	2.05524																
0.705492	2.05571	0.705222	2.05524																
0.70679	2.05571	0.706524	2.05525																
0.708089	2.0557	0.707825	2.05525																
0.709388	2.0557	0.709126	2.05525																
0.710687	2.0557	0.710427	2.05526																
0.711986	2.05569	0.711728	2.05526																
0.713285	2.05569	0.713029	2.05526																
0.714584	2.05569	0.71433	2.05527																
0.715883	2.05568	0.715631	2.05527																
0.717182	2.05568	0.716932	2.05527																
0.718481	2.05568	0.718233	2.05528																
0.71978	2.05567	0.719534	2.05528																
0.721079	2.05567	0.720835	2.05528																
