Sym0		Asym0		Sym1		Sym2		Sym3		Sym4		Asym1		Asym2		Asym3		Asym4	
534  Points		537  Points		428  Points		176  Points		163  Points		123  Points		490  Points		321  Points		170  Points		127  Points	
Freq (MHz)	Vph (m/ms)	Freq (MHz)	Vph (m/ms)	Freq (MHz)	Vph (m/ms)	Freq (MHz)	Vph (m/ms)	Freq (MHz)	Vph (m/ms)	Freq (MHz)	Vph (m/ms)	Freq (MHz)	Vph (m/ms)	Freq (MHz)	Vph (m/ms)	Freq (MHz)	Vph (m/ms)	Freq (MHz)	Vph (m/ms)
0.00379865	6.63374	3.88238e-005	0.0611349	0.167123	356.722	0.279516	933.208	0.501374	2069.62	0.559026	1445.95	0.139754	56254.6	0.33425	1521.46	0.419266	1931.6	0.668492	1507.39
0.00799393	6.63352	0.000154359	0.121781	0.167115	151.791	0.279585	299.991	0.501361	573.174	0.559079	548.617	0.139821	220.212	0.334242	392.235	0.41931	493.589	0.668453	621.278
0.0121887	6.63315	0.000346	0.182109	0.167099	96.3994	0.279723	178.802	0.501332	332.632	0.55918	338.584	0.140021	110.479	0.334225	225.128	0.419406	283.006	0.668382	391.235
0.0163826	6.63266	0.000612661	0.241927	0.167078	70.6202	0.279931	127.422	0.501288	234.288	0.559328	244.892	0.140352	73.8753	0.334199	157.86	0.419553	198.425	0.668279	285.487
0.0205755	6.63202	0.000952824	0.301062	0.16705	55.7145	0.280209	99.0367	0.501229	180.814	0.559523	191.851	0.140814	55.6069	0.334165	121.536	0.419753	152.811	0.668147	224.716
0.0247669	6.63121	0.00136477	0.359401	0.167017	46.0002	0.280556	81.0433	0.501156	147.203	0.559764	157.729	0.141404	44.6808	0.334122	98.7951	0.420004	124.286	0.667986	185.256
0.0289567	6.63025	0.00184624	0.416778	0.166978	39.167	0.280971	68.6256	0.50107	124.12	0.560052	133.941	0.142121	37.4278	0.334071	83.2176	0.420306	104.768	0.667798	157.566
0.0331443	6.62911	0.00239481	0.473074	0.166935	34.0984	0.281454	59.5454	0.50097	107.287	0.560386	116.412	0.142962	32.2738	0.334012	71.8788	0.420658	90.5762	0.667586	137.063
0.0373296	6.62781	0.00300784	0.528182	0.166889	30.1889	0.282004	52.6209	0.500857	94.4675	0.560764	102.963	0.143924	28.4316	0.333946	63.2553	0.421061	79.7962	0.667351	121.268
0.0415119	6.62629	0.0036825	0.582015	0.166839	27.0817	0.282621	47.1694	0.500733	84.3786	0.561186	92.3198	0.145004	25.4635	0.333873	56.4758	0.421513	71.3322	0.667096	108.726
0.045691	6.62459	0.00441579	0.634489	0.166788	24.5528	0.283303	42.7687	0.500597	76.2314	0.561651	83.689	0.146198	23.1068	0.333795	51.0058	0.422014	64.5122	0.666822	98.5253
0.0498662	6.62266	0.00520467	0.685541	0.166737	22.4546	0.28405	39.144	0.500451	69.5142	0.562159	76.5506	0.147502	21.1944	0.33371	46.4991	0.422564	58.9015	0.666533	90.0661
0.0540371	6.6205	0.00604598	0.735117	0.166686	20.6858	0.28486	36.1086	0.500296	63.8807	0.562708	70.5495	0.148913	19.6146	0.333621	42.7217	0.423161	54.206	0.666229	82.9371
0.058203	6.61807	0.00693656	0.783175	0.166636	19.1747	0.285733	33.5311	0.500132	59.0881	0.563298	65.4349	0.150427	18.2903	0.333527	39.5099	0.423805	50.2199	0.665914	76.8474
0.062363	6.61536	0.00787341	0.829703	0.16659	17.869	0.286667	31.3164	0.499961	54.9611	0.563928	61.0246	0.152039	17.1662	0.33343	36.7454	0.424495	46.7947	0.665588	71.5851
0.0665165	6.61233	0.00885342	0.874681	0.166549	16.7296	0.287661	29.3941	0.499783	51.3699	0.564596	57.1833	0.153746	16.202	0.333331	34.3409	0.425231	43.8207	0.665254	66.9923
0.0706625	6.60896	0.00987358	0.918102	0.166514	15.727	0.288714	27.7109	0.499599	48.2166	0.565302	53.8081	0.155543	15.3671	0.333229	32.2304	0.426011	41.2149	0.664914	62.9489
0.0747997	6.6052	0.0109311	0.959983	0.166488	14.8382	0.289825	26.2255	0.49941	45.4257	0.566045	50.8195	0.157426	14.6385	0.333127	30.3631	0.426835	38.9136	0.664569	59.3618
0.0789269	6.60099	0.0120232	1.00033	0.166472	14.0451	0.290992	24.9058	0.499218	42.9381	0.566824	48.155	0.159392	13.9981	0.333024	28.6994	0.427702	36.8669	0.66422	56.1581
0.0830426	6.59629	0.0131472	1.03916	0.166469	13.3334	0.292215	23.7261	0.499023	40.707	0.567637	45.7651	0.161436	13.4316	0.332922	27.2076	0.428611	35.0352	0.66387	53.2795
0.0871448	6.59102	0.0143006	1.07652	0.166481	12.6914	0.293491	22.6658	0.498826	38.6946	0.568485	43.6098	0.163555	12.9276	0.332822	25.8627	0.429561	33.3869	0.663518	50.6789
0.0912313	6.5851	0.015481	1.11241	0.166512	12.1099	0.29482	21.7081	0.498628	36.8704	0.569365	41.6563	0.165745	12.477	0.332723	24.6439	0.430552	31.896	0.663167	48.3181
0.0952993	6.57842	0.0166864	1.1469	0.166564	11.581	0.296199	20.8392	0.49843	35.2091	0.570278	39.8778	0.168002	12.0721	0.332628	23.5344	0.431582	30.5413	0.662818	46.1653
0.0993457	6.57087	0.0179143	1.18001	0.166641	11.0983	0.297629	20.0478	0.498233	33.69	0.571222	38.2521	0.170323	11.7069	0.332538	22.5202	0.432651	29.3054	0.662471	44.1943
0.103366	6.56228	0.0191632	1.21179	0.166749	10.6566	0.299107	19.3241	0.498037	32.2956	0.572196	36.7604	0.172704	11.376	0.332452	21.5897	0.433757	28.1734	0.662127	42.3832
0.107356	6.55247	0.0204309	1.24227	0.166892	10.2514	0.300633	18.6602	0.497843	31.0112	0.5732	35.3871	0.175141	11.0752	0.332372	20.733	0.4349	27.133	0.661788	40.7132
0.111308	6.54119	0.0217159	1.27151	0.167078	9.87906	0.302204	18.0492	0.497653	29.8244	0.574233	34.1187	0.177633	10.8008	0.332299	19.9417	0.43608	26.1738	0.661453	39.1686
0.115215	6.52817	0.0230166	1.29954	0.167281	9.5789	0.30382	17.4852	0.497467	28.7245	0.575293	32.9437	0.180175	10.5496	0.332234	19.2088	0.437294	25.2868	0.661124	37.7359
0.119067	6.51302	0.0243316	1.32642	0.167489	9.33958	0.305479	16.9633	0.497286	27.7024	0.576381	31.8524	0.182765	10.3191	0.332178	18.528	0.438543	24.4643	0.660802	36.4033
0.122851	6.49529	0.0256595	1.35219	0.16769	9.15249	0.30718	16.479	0.49711	26.7501	0.577496	30.8362	0.185399	10.107	0.332132	17.8942	0.439825	23.6997	0.660486	35.1609
0.12655	6.47439	0.0269991	1.37689	0.167869	9.01118	0.308922	16.0286	0.49694	25.8609	0.578636	29.8878	0.188075	9.91112	0.332097	17.3027	0.441141	22.9872	0.660178	33.9998
0.130145	6.4496	0.0283491	1.40057	0.168014	8.91088	0.310704	15.6088	0.496778	25.0286	0.579801	29.0006	0.19079	9.72991	0.332073	16.7495	0.442488	22.3217	0.659878	32.9123
0.133609	6.42006	0.0297088	1.42327	0.168112	8.84826	0.312523	15.2168	0.496623	24.2482	0.580991	28.169	0.193541	9.56181	0.332062	16.2312	0.443866	21.699	0.659587	31.8917
0.136912	6.38474	0.0310769	1.44503	0.168262	8.76036	0.31438	14.8499	0.496476	23.5149	0.582205	27.388	0.196326	9.4055	0.332065	15.7446	0.445275	21.115	0.659304	30.9322
0.140019	6.34254	0.0324528	1.46589	0.168438	8.66758	0.316272	14.5059	0.496338	22.8246	0.583442	26.6533	0.198778	9.278	0.332083	15.2871	0.446713	20.5664	0.659031	30.0283
0.142891	6.29238	0.0338354	1.4859	0.1687	8.54596	0.318199	14.1828	0.49621	22.1738	0.584702	25.9607	0.200886	9.17517	0.332118	14.8561	0.44818	20.0501	0.658768	29.1756
0.145494	6.23342	0.0352243	1.50509	0.169073	8.39952	0.320159	13.8789	0.496092	21.5592	0.585984	25.307	0.20264	9.09391	0.33217	14.4497	0.449675	19.5635	0.658515	28.3697
0.147804	6.16532	0.0364391	1.52118	0.169593	8.23321	0.32215	13.5926	0.495985	20.978	0.587288	24.689	0.204033	9.03194	0.332241	14.0658	0.451198	19.1041	0.658273	27.6071
0.149812	6.08844	0.0374776	1.53443	0.170317	8.0529	0.324173	13.3225	0.495889	20.4275	0.588613	24.1038	0.205062	8.9876	0.332332	13.7027	0.452747	18.6697	0.658042	26.8843
0.151528	6.00386	0.0383384	1.5451	0.171327	7.86546	0.326226	13.0672	0.495806	19.9055	0.589958	23.549	0.205721	8.95974	0.332444	13.359	0.454323	18.2585	0.657822	26.1984
0.152978	5.91316	0.0390201	1.55334	0.172565	7.69875	0.328306	12.8256	0.495735	19.4098	0.591323	23.0223	0.206672	8.9204	0.332579	13.0332	0.455923	17.8686	0.657613	25.5466
0.1542	5.81816	0.0395219	1.5593	0.174068	7.55267	0.330415	12.5967	0.495678	18.9386	0.592708	22.5216	0.207707	8.87854	0.332739	12.7241	0.457548	17.4986	0.657417	24.9266
0.155233	5.7206	0.0398433	1.56306	0.175865	7.42687	0.332549	12.3796	0.495634	18.4901	0.594112	22.0452	0.20912	8.82306	0.332926	12.4306	0.459197	17.1469	0.657233	24.336
0.156112	5.62198	0.0403057	1.56842	0.177975	7.32045	0.334708	12.1734	0.495605	18.0628	0.595534	21.5913	0.210913	8.7552	0.333141	12.1516	0.460869	16.8123	0.657062	23.7729
0.156872	5.52352	0.0408088	1.57415	0.180396	7.23191	0.33689	11.9772	0.495591	17.6554	0.596975	21.1583	0.21309	8.67638	0.333385	11.8864	0.462564	16.4936	0.656903	23.2355
0.157537	5.4261	0.0414936	1.58183	0.183109	7.15913	0.339096	11.7905	0.495593	17.2664	0.598433	20.745	0.215656	8.58811	0.333663	11.6339	0.46428	16.1897	0.656758	22.7221
0.158129	5.33039	0.0423607	1.59132	0.186081	7.09976	0.341322	11.6126	0.495612	16.8948	0.599909	20.35	0.218612	8.49196	0.333975	11.3935	0.466017	15.8996	0.656627	22.2311
0.158665	5.23682	0.0434108	1.60248	0.189273	7.05139	0.343568	11.4428	0.495648	16.5394	0.601401	19.9721	0.221579	8.40083	0.334325	11.1646	0.467775	15.6225	0.656509	21.7611
0.159159	5.1457	0.0446446	1.61516	0.192647	7.01189	0.345834	11.2806	0.495701	16.1993	0.60291	19.6104	0.224555	8.31428	0.334714	10.9464	0.469553	15.3575	0.656405	21.3109
0.15962	5.05721	0.0460625	1.62918	0.196169	6.97942	0.348117	11.1255	0.495773	15.8736	0.604435	19.2637	0.227535	8.23187	0.335147	10.7384	0.47135	15.1038	0.656316	20.8793
0.160058	4.97144	0.0474824	1.64266	0.19981	6.95251	0.350416	10.9772	0.495865	15.5614	0.605976	18.9312	0.230518	8.15323	0.335626	10.5402	0.473165	14.8608	0.656242	20.4652
0.160477	4.88844	0.0489042	1.65562	0.203546	6.93001	0.35273	10.835	0.495976	15.262	0.607531	18.612	0.233501	8.07801	0.336155	10.3512	0.474998	14.6278	0.656183	20.0675
0.160884	4.8082	0.0503273	1.66808	0.207359	6.91102	0.355058	10.6987	0.496108	14.9746	0.609101	18.3055	0.236479	8.00587	0.336737	10.171	0.476849	14.4042	0.656139	19.6854
0.161283	4.7307	0.0517518	1.68008	0.211234	6.89483	0.357399	10.5678	0.496262	14.6987	0.610686	18.0108	0.239449	7.9365	0.337377	9.99936	0.478715	14.1895	0.656111	19.318
0.161676	4.65587	0.0531772	1.69162	0.215159	6.8809	0.359751	10.4421	0.496439	14.4335	0.612285	17.7272	0.242408	7.86962	0.338078	9.83578	0.480598	13.9832	0.656099	18.9645
0.162017	4.5928	0.0546035	1.70274	0.219126	6.86882	0.362112	10.3211	0.496639	14.1786	0.613897	17.4543	0.245353	7.80496	0.338744	9.69962	0.482495	13.7847	0.656103	18.6242
0.162308	4.54057	0.0560306	1.71344	0.223126	6.85825	0.364482	10.2047	0.496863	13.9334	0.615522	17.1914	0.248278	7.74225	0.339353	9.58808	0.484407	13.5937	0.656125	18.2963
0.162549	4.49841	0.0574581	1.72376	0.227155	6.84894	0.366859	10.0926	0.497113	13.6975	0.61716	16.9379	0.251181	7.68126	0.339888	9.49892	0.486333	13.4098	0.656163	17.9803
0.16274	4.46573	0.058886	1.7337	0.231207	6.84067	0.369241	9.98437	0.497389	13.4704	0.618811	16.6935	0.254055	7.62176	0.340332	9.43036	0.488272	13.2325	0.65622	17.6755
0.16288	4.44206	0.0603142	1.74329	0.235279	6.83329	0.371627	9.87993	0.497692	13.2516	0.620473	16.4575	0.256897	7.56351	0.34067	9.38101	0.490223	13.0615	0.656294	17.3814
0.162971	4.42707	0.0617425	1.75254	0.239368	6.82665	0.374016	9.77901	0.498024	13.0408	0.622147	16.2297	0.259702	7.50631	0.340892	9.3499	0.492185	12.8965	0.656386	17.0975
0.163101	4.40574	0.0631709	1.76146	0.243472	6.82064	0.376098	9.69376	0.498385	12.8377	0.623832	16.0095	0.262464	7.44995	0.341218	9.30581	0.494159	12.7371	0.656497	16.8232
0.163243	4.38283	0.0645993	1.77007	0.247587	6.81518	0.377873	9.62297	0.498778	12.6419	0.625527	15.7966	0.265177	7.39423	0.341583	9.25874	0.496142	12.5831	0.656628	16.5582
0.163437	4.35215	0.0660276	1.77839	0.251713	6.81019	0.37934	9.56569	0.499203	12.453	0.627233	15.5907	0.267837	7.33897	0.342098	9.19611	0.498135	12.4342	0.656778	16.302
0.163684	4.3141	0.0674557	1.78642	0.255848	6.80561	0.380499	9.52116	0.499661	12.2708	0.628949	15.3914	0.270437	7.28399	0.342778	9.11917	0.500136	12.2901	0.656948	16.0542
0.163986	4.26919	0.0688835	1.79419	0.25999	6.80137	0.381351	9.48884	0.500154	12.0951	0.630674	15.1983	0.272972	7.22913	0.343648	9.02944	0.502146	12.1506	0.657139	15.8145
0.164345	4.218	0.0703111	1.80169	0.264139	6.79745	0.381896	9.46834	0.500684	11.9255	0.632408	15.0113	0.275437	7.17423	0.344735	8.92871	0.504162	12.0156	0.657352	15.5824
0.164763	4.16119	0.0717384	1.80895	0.268294	6.79379	0.382678	9.43911	0.501252	11.7619	0.634151	14.8301	0.277826	7.11918	0.346077	8.81899	0.506185	11.8846	0.657585	15.3577
0.165188	4.10635	0.0731653	1.81597	0.272453	6.79037	0.383528	9.40767	0.50186	11.6039	0.635901	14.6543	0.280134	7.06384	0.347522	8.71535	0.508213	11.7576	0.657842	15.14
0.165622	4.0534	0.0745918	1.82276	0.276617	6.78716	0.384683	9.36543	0.502508	11.4514	0.63766	14.4837	0.282357	7.00813	0.349074	8.6176	0.510245	11.6344	0.658121	14.9292
0.166064	4.00228	0.0760178	1.82933	0.280784	6.78412	0.386142	9.31285	0.5032	11.3043	0.639425	14.3181	0.284491	6.95197	0.350737	8.52554	0.512281	11.5148	0.658423	14.7248
0.166516	3.9529	0.0774433	1.8357	0.284954	6.78125	0.387901	9.25047	0.503936	11.1622	0.641198	14.1573	0.286534	6.89533	0.352512	8.43895	0.51432	11.3986	0.65875	14.5266
0.166976	3.9052	0.0788685	1.84187	0.289126	6.77851	0.389959	9.17889	0.504718	11.0251	0.642977	14.0011	0.288484	6.83817	0.3544	8.35762	0.516361	11.2856	0.659101	14.3344
0.167446	3.85911	0.080293	1.84784	0.2933	6.7759	0.39231	9.09877	0.505549	10.8928	0.644761	13.8492	0.290339	6.7805	0.356402	8.28132	0.518403	11.1758	0.659477	14.148
0.167926	3.81456	0.0817171	1.85364	0.297475	6.77339	0.394647	9.02067	0.50643	10.765	0.646551	13.7015	0.292101	6.72235	0.358517	8.2098	0.520445	11.0689	0.65988	13.9671
0.168415	3.7715	0.0831406	1.85925	0.301651	6.77097	0.396971	8.94447	0.507362	10.6418	0.648345	13.5578	0.29377	6.66376	0.360742	8.14282	0.522486	10.9648	0.660309	13.7916
0.168915	3.72985	0.0845637	1.8647	0.305828	6.76863	0.399277	8.87003	0.508349	10.5229	0.650144	13.418	0.295348	6.60481	0.363075	8.08012	0.524526	10.8634	0.660766	13.6212
0.169424	3.68958	0.0859861	1.86999	0.310005	6.76636	0.401564	8.79725	0.50939	10.4082	0.651947	13.2818	0.296839	6.54558	0.365511	8.02145	0.526562	10.7646	0.661251	13.4558
0.169944	3.65061	0.087408	1.87512	0.314181	6.76414	0.403831	8.72601	0.510488	10.2975	0.653753	13.1492	0.298246	6.48615	0.368048	7.96654	0.528595	10.6682	0.661765	13.2951
0.170473	3.6129	0.0888293	1.8801	0.318356	6.76196	0.406075	8.6562	0.511645	10.1909	0.655562	13.0199	0.299574	6.42663	0.370679	7.91514	0.530624	10.5742	0.662309	13.1391
0.171013	3.57641	0.0902501	1.88494	0.32253	6.75981	0.408295	8.58773	0.512703	10.101	0.657372	12.8939	0.300826	6.36711	0.3734	7.867	0.532646	10.4824	0.662883	12.9875
0.171563	3.54107	0.0916703	1.88964	0.326703	6.75768	0.410488	8.52051	0.513641	10.0267	0.659185	12.7711	0.302009	6.30771	0.376206	7.82189	0.534662	10.3927	0.663489	12.8403
0.172124	3.50686	0.09309	1.89421	0.330873	6.75556	0.412652	8.45446	0.514443	9.96678	0.660999	12.6512	0.303127	6.24851	0.379091	7.77957	0.536669	10.305	0.664127	12.6972
0.172694	3.47372	0.094509	1.89865	0.33504	6.75345	0.414787	8.38948	0.515093	9.92035	0.662813	12.5342	0.304185	6.18962	0.38205	7.73983	0.538668	10.2193	0.664798	12.5582
0.173274	3.44161	0.0959276	1.90297	0.339205	6.75132	0.41689	8.32552	0.515582	9.88674	0.664627	12.4199	0.305187	6.13112	0.385077	7.70247	0.540402	10.1461	0.665503	12.4231
0.173865	3.41049	0.0973455	1.90717	0.343365	6.74916	0.41896	8.26249	0.515898	9.86547	0.666441	12.3084	0.306139	6.07308	0.388168	7.66731	0.541874	10.0848	0.666244	12.2918
0.174465	3.38033	0.098763	1.91126	0.347521	6.74698	0.420995	8.20036	0.516359	9.8352	0.668253	12.1993	0.307046	6.01559	0.391318	7.63416	0.543086	10.0348	0.667019	12.1642
0.175075	3.35109	0.10018	1.91524	0.351672	6.74474	0.422996	8.13905	0.516869	9.80273	0.670064	12.0928	0.30791	5.9587	0.394522	7.60286	0.544041	9.9957	0.667832	12.0401
0.175695	3.32274	0.101596	1.91912	0.355816	6.74244	0.424959	8.07852	0.517574	9.75925	0.671872	11.9886	0.308737	5.90246	0.397777	7.57328	0.544742	9.9672	0.668682	11.9196
0.176325	3.29524	0.103012	1.92289	0.359953	6.74006	0.426887	8.01875	0.518489	9.7054	0.673678	11.8866	0.30953	5.84693	0.401078	7.54526	0.545189	9.94907	0.66957	11.8023
0.176965	3.26856	0.104427	1.92656	0.364082	6.73759	0.428777	7.9597	0.519629	9.64194	0.675479	11.7869	0.310293	5.79213	0.404421	7.5187	0.545831	9.92316	0.670497	11.6884
0.177614	3.24267	0.105842	1.93014	0.368202	6.735	0.430631	7.90134	0.521012	9.56974	0.677277	11.6893	0.311028	5.73811	0.407803	7.49347	0.546527	9.89518	0.671465	11.5776
0.178273	3.21754	0.107257	1.93363	0.372311	6.73227	0.432448	7.84367	0.522662	9.4898	0.679069	11.5937	0.311739	5.68489	0.411222	7.46948	0.547471	9.85744	0.672473	11.4699
0.178941	3.19315	0.10867	1.93703	0.376407	6.72938	0.434231	7.78668	0.524378	9.41288	0.680857	11.5	0.312428	5.63249	0.414673	7.44663	0.548659	9.81021	0.673523	11.3652
0.179618	3.16947	0.110084	1.94035	0.380488	6.72629	0.43598	7.73037	0.526162	9.33887	0.682638	11.4082	0.313097	5.58093	0.418155	7.42483	0.550089	9.75384	0.674616	11.2634
0.180305	3.14647	0.111496	1.94359	0.384552	6.72297	0.437698	7.67477	0.528011	9.26766	0.684412	11.3182	0.313749	5.53021	0.421665	7.404	0.551755	9.6887	0.675751	11.1645
0.181	3.12413	0.112909	1.94674	0.388596	6.71938	0.439388	7.6199	0.529927	9.19917	0.686179	11.23	0.314386	5.48034	0.4252	7.38408	0.553651	9.61521	0.67693	11.0683
0.181705	3.10242	0.114321	1.94982	0.392617	6.71545	0.441054	7.56581	0.531908	9.13329	0.687938	11.1434	0.31501	5.43133	0.428759	7.36499	0.55553	9.54302	0.678153	10.9748
0.182419	3.08133	0.115732	1.95283	0.396609	6.71114	0.4427	7.51254	0.533954	9.06991	0.689689	11.0585	0.315621	5.38317	0.43234	7.34668	0.55739	9.47207	0.679421	10.884
0.183141	3.06083	0.117143	1.95577	0.400568	6.70636	0.444332	7.46017	0.536063	9.00895	0.691431	10.9751	0.316222	5.33586	0.43594	7.3291	0.559231	9.4023	0.680735	10.7956
0.183872	3.04091	0.118553	1.95863	0.404487	6.70102	0.445957	7.40878	0.538233	8.9503	0.693162	10.8933	0.316814	5.28941	0.439559	7.31218	0.561052	9.33366	0.682094	10.7098
0.184611	3.02153	0.119963	1.96144	0.408359	6.69501	0.447584	7.35849	0.540464	8.89386	0.694884	10.8129	0.317399	5.24379	0.443194	7.29589	0.562852	9.26612	0.683499	10.6263
0.185359	3.00269	0.121373	1.96417	0.412173	6.6882	0.449223	7.30944	0.542754	8.83955	0.696595	10.7338	0.317976	5.19901	0.446843	7.28017	0.564631	9.19961	0.684761	10.5555
0.186116	2.98437	0.122782	1.96685	0.415918	6.68041	0.450887	7.26178	0.545102	8.78726	0.698294	10.6562	0.318548	5.15506	0.450506	7.26499	0.566388	9.13411	0.685865	10.4965
0.18688	2.96654	0.124191	1.96946	0.419579	6.67144	0.452591	7.21573	0.547504	8.73691	0.699765	10.5896	0.319116	5.11191	0.454182	7.25031	0.568122	9.06958	0.686797	10.4486
0.187653	2.94919	0.125599	1.97202	0.423139	6.66106	0.454353	7.17151	0.54996	8.68842	0.701012	10.5335	0.319679	5.06958	0.457868	7.23609	0.569834	9.00597	0.687546	10.4114
0.188433	2.93231	0.127007	1.97452	0.426578	6.64899	0.456195	7.1294	0.552468	8.64169	0.702038	10.4877	0.320239	5.02803	0.461563	7.22231	0.571522	8.94326	0.688104	10.3843
0.189222	2.91588	0.128415	1.97696	0.429873	6.63495	0.458139	7.0897	0.555025	8.59664	0.702845	10.4518	0.320797	4.98726	0.465267	7.20892	0.573187	8.88142	0.688465	10.3671
0.190018	2.89989	0.129822	1.97935	0.433001	6.61861	0.46021	7.05274	0.55763	8.5532	0.703437	10.4256	0.321353	4.94726	0.468978	7.1959	0.574829	8.82043	0.688987	10.3426
0.190822	2.88432	0.131229	1.98169	0.435939	6.59972	0.462434	7.01879	0.56028	8.51129	0.703815	10.4089	0.321907	4.90801	0.472694	7.18322	0.576448	8.76025	0.68956	10.3162
0.191633	2.86916	0.132636	1.98398	0.43867	6.57808	0.464832	6.9881	0.562974	8.47082	0.704357	10.385	0.322461	4.8695	0.476416	7.17086	0.578044	8.70088	0.690349	10.2808
0.192452	2.85439	0.134042	1.98623	0.441182	6.5536	0.467417	6.96078	0.565709	8.43175	0.704944	10.3592	0.323015	4.83171	0.480141	7.15877	0.579618	8.64229	0.691362	10.2366
0.193278	2.84	0.135447	1.98842	0.443475	6.52634	0.470196	6.93683	0.568485	8.39398	0.705741	10.3243	0.323568	4.79463	0.483868	7.14695	0.581169	8.58447	0.692611	10.1843
0.194111	2.82598	0.136853	1.99057	0.445556	6.4965	0.473164	6.91608	0.571298	8.35747	0.706743	10.2805	0.324122	4.75825	0.487596	7.13536	0.582699	8.52741	0.694108	10.1243
0.194952	2.81233	0.138258	1.99268	0.44744	6.46437	0.476309	6.89828	0.574147	8.32215	0.707947	10.2281	0.324678	4.72256	0.491324	7.12398	0.584209	8.4711	0.695869	10.0572
0.195799	2.79901	0.139663	1.99474	0.44915	6.43031	0.479613	6.88309	0.57703	8.28796	0.709351	10.1674	0.325234	4.68753	0.49505	7.11278	0.585699	8.41553	0.697676	9.99194
0.196654	2.78604	0.141067	1.99676	0.450705	6.39467	0.483056	6.87014	0.579945	8.25485	0.710947	10.0988	0.325792	4.65315	0.498773	7.10174	0.587171	8.3607	0.699526	9.92851
0.197515	2.77339	0.142471	1.99874	0.452127	6.3578	0.486617	6.8591	0.582891	8.22276	0.712529	10.0311	0.326352	4.61942	0.502491	7.09083	0.588626	8.30661	0.701421	9.86684
0.198383	2.76106	0.143875	2.00069	0.453437	6.32001	0.490278	6.84964	0.585866	8.19164	0.714095	9.96444	0.326914	4.58631	0.506204	7.08003	0.590065	8.25326	0.70336	9.80686
0.199258	2.74903	0.145278	2.00259	0.454651	6.28156	0.494022	6.84149	0.588868	8.16144	0.715647	9.89873	0.327478	4.55382	0.509908	7.0693	0.591491	8.20067	0.705341	9.74852
0.200139	2.7373	0.146682	2.00446	0.455783	6.24265	0.497835	6.83443	0.591896	8.13212	0.717183	9.83395	0.328044	4.52193	0.513602	7.05862	0.592906	8.14883	0.707364	9.69177
0.201026	2.72586	0.148084	2.00629	0.456846	6.20347	0.501705	6.82827	0.594948	8.10364	0.718704	9.77008	0.328614	4.49063	0.517284	7.04797	0.594312	8.09776	0.709429	9.63655
0.20192	2.7147	0.149487	2.00808	0.45785	6.16416	0.505623	6.82286	0.598023	8.07595	0.720209	9.70708	0.329186	4.45991	0.520952	7.0373	0.595711	8.04747	0.711534	9.58281
0.20282	2.70381	0.150889	2.00985	0.458803	6.12484	0.50958	6.81808	0.601119	8.04901			0.329761	4.42974	0.524603	7.02659	0.597107	7.99799	0.713678	9.53051
0.203726	2.69318	0.152291	2.01157	0.459712	6.0856	0.513571	6.81381	0.604234	8.02279			0.33034	4.40013	0.528234	7.01579	0.598502	7.94934	0.71586	9.47959
0.204638	2.68281	0.153693	2.01327	0.460583	6.04651	0.51759	6.80999	0.607368	7.99725			0.330921	4.37105	0.531842	7.00487	0.599901	7.90154	0.71808	9.43
0.205556	2.67268	0.155094	2.01494	0.461421	6.00763	0.521632	6.80654	0.61052	7.97235			0.331506	4.34251	0.535424	6.99379	0.601306	7.85462	0.720336	9.38171
0.20648	2.6628	0.156496	2.01657	0.46223	5.96901	0.525695	6.80341	0.613687	7.94806			0.332095	4.31447	0.538976	6.9825	0.602724	7.80863		
0.20741	2.65315	0.157897	2.01817	0.463014	5.93069	0.529776	6.80055	0.616868	7.92436			0.332687	4.28694	0.542493	6.97095	0.604158	7.76359		
0.208345	2.64372	0.159297	2.01975	0.463775	5.8927	0.533871	6.79793	0.620063	7.9012			0.333283	4.25991	0.54597	6.95907	0.605614	7.71957		
0.209286	2.63452	0.160698	2.0213	0.464516	5.85507	0.537978	6.79551	0.623269	7.87856			0.333883	4.23335	0.549403	6.94682	0.607098	7.6766		
0.210232	2.62553	0.162098	2.02282	0.465239	5.8178	0.542097	6.79327	0.626486	7.85641			0.334487	4.20727	0.552784	6.93413	0.608617	7.63475		
0.211184	2.61675	0.163498	2.02431	0.465946	5.78093	0.546225	6.79118	0.629712	7.83473			0.335095	4.18165	0.556108	6.92092	0.610178	7.59407		
0.212141	2.60817	0.164897	2.02578	0.46664	5.74445	0.550362	6.78922	0.632945	7.81348			0.335706	4.15648	0.559368	6.90711	0.611788	7.55465		
0.213103	2.59978	0.166297	2.02722	0.46732	5.70839	0.554506	6.78738	0.636186	7.79264			0.336322	4.13175	0.562555	6.89264	0.613456	7.51654		
0.214071	2.59159	0.167696	2.02863	0.46799	5.67274	0.558656	6.78565	0.639431	7.77219			0.336942	4.10745	0.565661	6.87741	0.61519	7.47983		
0.215043	2.58358	0.169095	2.03003	0.468649	5.63751	0.562811	6.784	0.642681	7.75209			0.337566	4.08357	0.56868	6.86135	0.617	7.44459		
0.216021	2.57575	0.170494	2.0314	0.469299	5.60271	0.566971	6.78244	0.645932	7.73232			0.338195	4.06011	0.571601	6.84437	0.618894	7.41088		
0.217003	2.5681	0.171892	2.03274	0.469941	5.56833	0.571134	6.78095	0.649185	7.71287			0.338827	4.03705	0.574418	6.8264	0.62088	7.37879		
0.217991	2.56062	0.173291	2.03406	0.470576	5.53438	0.575302	6.77951	0.652437	7.69369			0.339464	4.01439	0.577123	6.80738	0.622967	7.34835		
0.218983	2.55331	0.174689	2.03537	0.471204	5.50085	0.579471	6.77813	0.655686	7.67477			0.340105	3.99211	0.57971	6.78727	0.62516	7.31962		
0.21998	2.54615	0.176087	2.03665	0.471827	5.46775	0.583643	6.7768	0.658932	7.65608			0.34075	3.97021	0.582175	6.76602	0.627465	7.29261		
0.220981	2.53916	0.177485	2.0379	0.472445	5.43507	0.587817	6.77551	0.662172	7.6376			0.3414	3.94868	0.584515	6.74365	0.629886	7.26732		
0.221987	2.53231	0.178882	2.03914	0.473058	5.40281	0.591993	6.77425	0.665404	7.6193			0.342054	3.92752	0.586729	6.72016	0.632423	7.24373		
0.222997	2.52562	0.180279	2.04036	0.473666	5.37097	0.596169	6.77302	0.668626	7.60115			0.342712	3.90671	0.588819	6.69559	0.635075	7.2218		
0.224012	2.51907	0.181677	2.04156	0.474272	5.33954	0.600345	6.77181	0.671837	7.58313			0.343375	3.88624	0.590787	6.67	0.637841	7.20146		
0.225032	2.51266	0.183073	2.04274	0.474874	5.30853	0.604522	6.77063	0.675034	7.5652			0.344042	3.86612	0.592639	6.64347	0.640715	7.18262		
0.226055	2.50639	0.18447	2.0439	0.475474	5.27791	0.608699	6.76945	0.678214	7.54735			0.344713	3.84633	0.59438	6.61608	0.643692	7.16519		
0.227083	2.50025	0.185867	2.04504	0.476071	5.2477	0.612875	6.76829	0.681375	7.52953			0.345389	3.82686	0.596017	6.58793	0.646766	7.14907		
0.228115	2.49424	0.187263	2.04617	0.476666	5.21789	0.61705	6.76713	0.684515	7.51173			0.346069	3.80772	0.597559	6.55912	0.649929	7.13416		
0.229151	2.48836	0.188659	2.04728	0.47726	5.18847	0.621223	6.76597	0.68763	7.4939			0.346754	3.78888	0.599012	6.52974	0.653174	7.12035		
0.230191	2.4826	0.190055	2.04837	0.477853	5.15943	0.625394	6.7648	0.690717	7.47602			0.347443	3.77035	0.600384	6.49988	0.656494	7.10754		
0.231234	2.47697	0.191451	2.04944	0.478444	5.13078	0.629563	6.76362	0.693773	7.45805			0.348136	3.75213	0.601683	6.46964	0.659881	7.09563		
0.232282	2.47145	0.192847	2.0505	0.479035	5.10251	0.633729	6.76243	0.696796	7.43995			0.348834	3.73419	0.602915	6.4391	0.66333	7.08454		
0.233334	2.46604	0.194242	2.05154	0.479625	5.07461	0.637892	6.76122	0.69978	7.4217			0.349536	3.71654	0.604087	6.40833	0.666834	7.07417		
0.23439	2.46075	0.195637	2.05257	0.480215	5.04708	0.64205	6.75998	0.702724	7.40326			0.350242	3.69918	0.605205	6.3774	0.670388	7.06447		
0.235449	2.45557	0.197033	2.05358	0.480804	5.01991	0.646203	6.7587	0.705623	7.3846			0.350953	3.68209	0.606273	6.34637	0.673985	7.05536		
0.236512	2.45049	0.198428	2.05457	0.481394	4.99309	0.650351	6.75738	0.708473	7.36568			0.351668	3.66527	0.607298	6.31529	0.677623	7.04679		
0.237578	2.44551	0.199822	2.05555	0.481984	4.96663	0.654493	6.75602	0.711272	7.34647			0.352387	3.64872	0.608283	6.2842	0.681296	7.03869		
0.238648	2.44064	0.201217	2.05652	0.482575	4.94052	0.658626	6.75459	0.714016	7.32694			0.353111	3.63242	0.609232	6.25315	0.685001	7.03103		
0.239722	2.43586	0.202611	2.05747	0.483166	4.91475	0.662752	6.7531	0.716701	7.30708			0.353839	3.61638	0.610149	6.22216	0.688735	7.02376		
0.240799	2.43118	0.204006	2.05841	0.483758	4.88931	0.666867	6.75152	0.719327	7.28686			0.354571	3.60059	0.611036	6.19128	0.692494	7.01684		
0.241879	2.4266	0.2054	2.05934	0.48435	4.86421	0.670971	6.74985	0.72189	7.26627			0.355308	3.58504	0.611897	6.16053	0.696276	7.01024		
0.242963	2.4221	0.206794	2.06025	0.484944	4.83944	0.675062	6.74807					0.356048	3.56974	0.612735	6.12992	0.700079	7.00393		
0.24405	2.41769	0.208188	2.06115	0.485539	4.81498	0.679137	6.74615					0.356793	3.55467	0.61355	6.09949	0.703901	6.99788		
0.245141	2.41338	0.209582	2.06203	0.486135	4.79085	0.683194	6.74408					0.357542	3.53982	0.614345	6.06924	0.707739	6.99207		
0.246234	2.40914	0.210975	2.06291	0.486732	4.76702	0.68723	6.74183					0.358295	3.52521	0.615123	6.03919	0.711592	6.98648		
0.247331	2.40499	0.212368	2.06377	0.487331	4.7435	0.691241	6.73937					0.359053	3.51081	0.615884	6.00935	0.715458	6.9811		
0.248431	2.40092	0.213762	2.06462	0.487932	4.72029	0.695222	6.73665					0.359814	3.49664	0.616631	5.97973	0.719337	6.97589		
0.249534	2.39693	0.215155	2.06546	0.488534	4.69737	0.699169	6.73363					0.36058	3.48267	0.617364	5.95034	0.723226	6.97085		
0.250639	2.39301	0.216548	2.06629	0.489138	4.67475	0.703074	6.73024					0.36135	3.46892	0.618084	5.92119				
0.251748	2.38917	0.217941	2.0671	0.489743	4.65242	0.70693	6.72642					0.362124	3.45537	0.618793	5.89228				
0.25286	2.38541	0.219333	2.06791	0.490351	4.63037	0.710726	6.72209					0.362902	3.44202	0.619492	5.86362				
0.253975	2.38171	0.220726	2.0687	0.49096	4.6086	0.71445	6.71713					0.363684	3.42887	0.620181	5.83521				
0.255093	2.37809	0.222118	2.06948	0.491571	4.58711	0.718087	6.71142					0.36447	3.41591	0.620862	5.80706				
0.256213	2.37453	0.223511	2.07026	0.492185	4.56588	0.721621	6.70482					0.36526	3.40314	0.621534	5.77916				
0.257336	2.37104	0.224903	2.07102	0.4928	4.54493							0.366054	3.39056	0.622199	5.75153				
0.258462	2.36762	0.226295	2.07177	0.493418	4.52423							0.366851	3.37816	0.622858	5.72415				
0.259591	2.36426	0.227687	2.07251	0.494038	4.5038							0.367653	3.36594	0.623511	5.69704				
0.260722	2.36097	0.229078	2.07325	0.49466	4.48362							0.368459	3.3539	0.624158	5.67018				
0.261856	2.35773	0.23047	2.07397	0.495285	4.46369							0.369269	3.34202	0.6248	5.64359				
0.262992	2.35455	0.231861	2.07468	0.495911	4.44401							0.370082	3.33032	0.625437	5.61725				
0.264131	2.35144	0.233253	2.07539	0.496541	4.42457							0.370899	3.31879	0.62607	5.59118				
0.265272	2.34838	0.234644	2.07608	0.497172	4.40537							0.37172	3.30742	0.626699	5.56537				
0.266416	2.34537	0.236035	2.07677	0.497806	4.38641							0.372545	3.29621	0.627325	5.53981				
0.267563	2.34242	0.237426	2.07745	0.498443	4.36768							0.373374	3.28516	0.627948	5.51451				
0.268711	2.33952	0.238817	2.07812	0.499082	4.34917							0.374206	3.27426	0.628568	5.48946				
0.269863	2.33668	0.240208	2.07878	0.499723	4.33089							0.375042	3.26352	0.629185	5.46467				
0.271016	2.33389	0.241598	2.07943	0.500367	4.31284							0.375882	3.25292	0.6298	5.44013				
0.272172	2.33114	0.242989	2.08008	0.501014	4.295							0.376726	3.24248	0.630413	5.41584				
0.27333	2.32845	0.244379	2.08072	0.501663	4.27737							0.377573	3.23217	0.631024	5.39179				
0.27449	2.3258	0.245769	2.08134	0.502315	4.25996							0.378424	3.22201	0.631634	5.36799				
0.275652	2.3232	0.24716	2.08197	0.502969	4.24275							0.379278	3.21199	0.632242	5.34443				
0.276817	2.32065	0.24855	2.08258	0.503626	4.22575							0.380136	3.2021	0.632849	5.32112				
0.277984	2.31814	0.24994	2.08319	0.504286	4.20895							0.380997	3.19235	0.633455	5.29804				
0.279153	2.31567	0.251329	2.08379	0.504949	4.19235							0.381862	3.18273	0.63406	5.27519				
0.280324	2.31325	0.252719	2.08438	0.505614	4.17594							0.382731	3.17324	0.634664	5.25258				
0.281497	2.31087	0.254109	2.08496	0.506282	4.15973							0.383602	3.16388	0.635268	5.2302				
0.282672	2.30853	0.255498	2.08554	0.506952	4.14371							0.384478	3.15465	0.635871	5.20805				
0.283849	2.30623	0.256887	2.08611	0.507625	4.12787							0.385357	3.14553	0.636475	5.18613				
0.285028	2.30397	0.258277	2.08668	0.508301	4.11222							0.386239	3.13654	0.637078	5.16443				
0.286209	2.30175	0.259666	2.08723	0.50898	4.09675							0.387124	3.12767	0.637681	5.14295				
0.287391	2.29956	0.261055	2.08779	0.509662	4.08146							0.388013	3.11892	0.638284	5.12169				
0.288576	2.29742	0.262444	2.08833	0.510346	4.06634							0.388906	3.11028	0.638887	5.10064				
0.289763	2.2953	0.263832	2.08887	0.511033	4.0514							0.389801	3.10175	0.639491	5.07981				
0.290951	2.29323	0.265221	2.0894	0.511723	4.03663							0.3907	3.09334	0.640094	5.05919				
0.292142	2.29119	0.26661	2.08993	0.512415	4.02202							0.391602	3.08503	0.640699	5.03878				
0.293334	2.28918	0.267998	2.09045	0.51311	4.00759							0.392508	3.07683	0.641304	5.01858				
0.294527	2.28721	0.269387	2.09096	0.513808	3.99331							0.393416	3.06874	0.641909	4.99858				
0.295723	2.28527	0.270775	2.09147	0.514509	3.9792							0.394328	3.06075	0.642516	4.97878				
0.29692	2.28337	0.272163	2.09197	0.515213	3.96524							0.395243	3.05287	0.643123	4.95918				
0.298119	2.28149	0.273551	2.09247	0.515919	3.95145							0.396161	3.04509	0.643731	4.93978				
0.29932	2.27964	0.274939	2.09296	0.516628	3.9378							0.397083	3.0374	0.64434	4.92057				
0.300522	2.27783	0.276327	2.09345	0.51734	3.92431							0.398007	3.02981	0.64495	4.90155				
0.301726	2.27605	0.277715	2.09393	0.518055	3.91097							0.398934	3.02232	0.645561	4.88273				
0.302932	2.27429	0.279102	2.0944	0.518772	3.89777							0.399865	3.01493	0.646173	4.86409				
0.304139	2.27256	0.28049	2.09487	0.519492	3.88472							0.400799	3.00762	0.646786	4.84563				
0.305348	2.27086	0.281877	2.09534	0.520215	3.87182							0.401735	3.00041	0.6474	4.82736				
0.306558	2.26919	0.283264	2.0958	0.520941	3.85905							0.402675	2.99329	0.648016	4.80927				
0.30777	2.26754	0.284652	2.09625	0.521669	3.84643							0.403617	2.98626	0.648633	4.79136				
0.308983	2.26593	0.286039	2.0967	0.5224	3.83394							0.404563	2.97931	0.649251	4.77363				
0.310198	2.26433	0.287426	2.09715	0.523134	3.82159							0.405511	2.97245	0.64987	4.75606				
0.311415	2.26276	0.288813	2.09759	0.523871	3.80937							0.406463	2.96568	0.650491	4.73868				
0.312632	2.26122	0.2902	2.09802	0.52461	3.79728							0.407417	2.95898	0.651114	4.72146				
0.313852	2.2597	0.291586	2.09845	0.525352	3.78533							0.408374	2.95237	0.651738	4.70441				
0.315072	2.25821	0.292973	2.09888	0.526097	3.7735							0.409334	2.94585	0.652363	4.68752				
0.316294	2.25674	0.294359	2.0993	0.526845	3.76179							0.410297	2.9394	0.65299	4.6708				
0.317518	2.25529	0.295746	2.09972	0.527595	3.75021							0.411262	2.93302	0.653619	4.65424				
0.318742	2.25386	0.297132	2.10013	0.528348	3.73876							0.412231	2.92673	0.654249	4.63784				
0.319969	2.25246	0.298519	2.10054	0.529103	3.72742							0.413202	2.92051	0.654881	4.6216				
0.321196	2.25108	0.299905	2.10094	0.529862	3.71621							0.414176	2.91437	0.655514	4.60551				
0.322425	2.24972	0.301291	2.10134	0.530623	3.70511							0.415152	2.9083	0.656149	4.58958				
0.323655	2.24838	0.302677	2.10174	0.531387	3.69413							0.416132	2.9023	0.656786	4.5738				
0.324886	2.24706	0.304063	2.10213	0.532153	3.68326							0.417114	2.89637	0.657424	4.55817				
0.326119	2.24576	0.305448	2.10251	0.532922	3.67251							0.418098	2.89051	0.658065	4.54269				
0.327353	2.24448	0.306834	2.1029	0.533694	3.66187							0.419086	2.88473	0.658707	4.52736				
0.328588	2.24322	0.30822	2.10328	0.534468	3.65134							0.420076	2.87901	0.659351	4.51217				
0.329824	2.24198	0.309605	2.10365	0.535245	3.64091							0.421068	2.87335	0.659996	4.49712				
0.331061	2.24076	0.310991	2.10402	0.536025	3.6306							0.422063	2.86777	0.660644	4.48222				
0.3323	2.23956	0.312376	2.10439	0.536807	3.62039							0.423061	2.86225	0.661293	4.46745				
0.33354	2.23837	0.313761	2.10476	0.537592	3.61028							0.424061	2.85679	0.661944	4.45283				
0.334781	2.23721	0.315146	2.10512	0.538379	3.60028							0.425064	2.8514	0.662597	4.43834				
0.337267	2.23493	0.316531	2.10547	0.53917	3.59038							0.42607	2.84607	0.663252	4.42398				
0.338511	2.23381	0.317916	2.10583	0.539962	3.58058							0.427077	2.8408	0.663909	4.40976				
0.339757	2.23271	0.319301	2.10618	0.540758	3.57087							0.428088	2.83559	0.664567	4.39567				
0.341003	2.23163	0.320686	2.10652	0.541555	3.56127							0.429101	2.83044	0.665228	4.38171				
0.342251	2.23056	0.32207	2.10687	0.542356	3.55176							0.430116	2.82535	0.66589	4.36788				
0.3435	2.22951	0.323455	2.1072	0.543159	3.54235							0.431133	2.82032	0.666555	4.35417				
0.34475	2.22847	0.324839	2.10754	0.543964	3.53303							0.432153	2.81534	0.667221	4.34059				
0.346	2.22745	0.326224	2.10787	0.544772	3.5238							0.433176	2.81042	0.667889	4.32713				
0.347252	2.22645	0.327608	2.1082	0.545583	3.51467							0.434201	2.80556	0.66856	4.3138				
0.348505	2.22546	0.328992	2.10853	0.546396	3.50562							0.435228	2.80075	0.669232	4.30059				
0.349759	2.22448	0.330376	2.10885	0.547212	3.49667							0.436257	2.796	0.669906	4.28749				
0.351014	2.22352	0.331761	2.10917	0.54803	3.4878							0.437289	2.79129	0.670582	4.27452				
0.35227	2.22257	0.333145	2.10949	0.548851	3.47902							0.438323	2.78665	0.67126	4.26166				
0.353527	2.22163	0.334528	2.1098	0.549674	3.47032							0.43936	2.78205	0.67194	4.24892				
0.354785	2.22071	0.335912	2.11011	0.550499	3.46171							0.440398	2.7775	0.672623	4.23629				
0.356043	2.2198	0.337296	2.11042	0.551327	3.45319							0.441439	2.77301	0.673307	4.22378				
0.357303	2.21891	0.338679	2.11072	0.552158	3.44474							0.442482	2.76856	0.673993	4.21137				
0.358564	2.21802	0.340063	2.11103	0.552991	3.43638							0.443528	2.76416	0.674681	4.19908				
0.359825	2.21715	0.341446	2.11132	0.553826	3.4281							0.444575	2.75981	0.675371	4.18689				
0.361088	2.2163	0.34283	2.11162	0.554664	3.4199							0.445625	2.75551	0.676063	4.17481				
0.362351	2.21545	0.344213	2.11191	0.555504	3.41177							0.446677	2.75126	0.676758	4.16284				
0.363615	2.21462	0.345596	2.1122	0.556347	3.40373							0.447731	2.74705	0.677454	4.15098				
0.364881	2.21379	0.346979	2.11249	0.557192	3.39576							0.448787	2.74288	0.678152	4.13921				
0.366147	2.21298	0.348362	2.11277	0.558039	3.38786							0.449846	2.73877	0.678852	4.12756				
0.367413	2.21218	0.349745	2.11306	0.558889	3.38004							0.450906	2.73469	0.679555	4.116				
0.368681	2.2114	0.351128	2.11334	0.559741	3.3723							0.451969	2.73066	0.680259	4.10454				
0.36995	2.21062	0.352511	2.11361	0.560596	3.36462							0.453033	2.72668	0.680965	4.09318				
0.371219	2.20985	0.353893	2.11389	0.561452	3.35702							0.4541	2.72273	0.681674	4.08192				
0.372489	2.2091	0.355276	2.11416	0.562311	3.3495							0.455169	2.71883	0.682384	4.07076				
0.37376	2.20835	0.356658	2.11443	0.563173	3.34204							0.456239	2.71497	0.683097	4.05969				
0.375032	2.20761	0.358041	2.11469	0.564037	3.33465							0.457312	2.71115	0.683811	4.04872				
0.376304	2.20689	0.359423	2.11496	0.564903	3.32733							0.458387	2.70737	0.684528	4.03784				
0.377578	2.20617	0.360805	2.11522	0.565771	3.32007							0.459464	2.70363	0.685246	4.02706				
0.378852	2.20547	0.362187	2.11548	0.566642	3.31289							0.460543	2.69993	0.685967	4.01637				
0.380127	2.20477	0.363569	2.11573	0.567515	3.30577							0.461623	2.69627	0.68669	4.00576				
0.381402	2.20409	0.364951	2.11599	0.56839	3.29871							0.462706	2.69265	0.687414	3.99525				
0.382679	2.20341	0.366333	2.11624	0.569268	3.29172							0.463791	2.68906	0.688141	3.98483				
0.383956	2.20274	0.367715	2.11649	0.570147	3.2848							0.464877	2.68551	0.68887	3.97449				
0.385234	2.20208	0.369097	2.11674	0.571029	3.27793							0.465966	2.682	0.6896	3.96424				
0.386512	2.20143	0.370479	2.11698	0.571914	3.27113							0.467056	2.67853	0.690333	3.95408				
0.387791	2.20079	0.37186	2.11723	0.5728	3.2644							0.468148	2.67509	0.691068	3.944				
0.389071	2.20016	0.373242	2.11747	0.573689	3.25772							0.469242	2.67168	0.691805	3.934				
0.390352	2.19953	0.374623	2.11771	0.57458	3.2511							0.470338	2.66832	0.692544	3.92409				
0.391633	2.19892	0.376004	2.11794	0.575473	3.24454							0.471436	2.66498	0.693284	3.91426				
0.392916	2.19831	0.377386	2.11818	0.576368	3.23804							0.472535	2.66168	0.694027	3.90451				
0.394198	2.19771	0.378767	2.11841	0.577265	3.2316							0.473637	2.65841	0.694772	3.89485				
0.395482	2.19712	0.380148	2.11864	0.578165	3.22522							0.47474	2.65518	0.695519	3.88526				
0.396766	2.19653	0.381529	2.11887	0.579066	3.21889							0.475845	2.65198	0.696268	3.87575				
0.398051	2.19596	0.38291	2.11909	0.57997	3.21262							0.476952	2.64881	0.697019	3.86632				
0.399336	2.19539	0.38429	2.11932	0.580876	3.20641							0.47806	2.64568	0.697772	3.85696				
0.400622	2.19483	0.385671	2.11954	0.581784	3.20025							0.479171	2.64257	0.698527	3.84768				
0.401909	2.19427	0.387052	2.11976	0.582694	3.19414							0.480283	2.6395	0.699283	3.83848				
0.403196	2.19373	0.388432	2.11997	0.583606	3.18809							0.481396	2.63645	0.700042	3.82935				
0.404484	2.19319	0.389813	2.12019	0.584521	3.18209							0.482512	2.63344	0.700803	3.8203				
0.405772	2.19265	0.391193	2.12041	0.585437	3.17614							0.483629	2.63046	0.701566	3.81132				
0.407061	2.19213	0.392574	2.12062	0.586355	3.17025							0.484748	2.6275	0.702331	3.80241				
0.408351	2.19161	0.393954	2.12083	0.587276	3.1644							0.485868	2.62458	0.703098	3.79357				
0.409641	2.1911	0.395334	2.12104	0.588199	3.15861							0.48699	2.62169	0.703867	3.7848				
0.410932	2.19059	0.396714	2.12124	0.589123	3.15287							0.488114	2.61882	0.704637	3.7761				
0.412224	2.19009	0.398094	2.12145	0.59005	3.14717							0.48924	2.61598	0.70541	3.76748				
0.413516	2.1896	0.399474	2.12165	0.590979	3.14153							0.490367	2.61317	0.706185	3.75892				
0.414809	2.18911	0.400854	2.12185	0.591909	3.13593							0.491495	2.61039	0.706961	3.75042				
0.416102	2.18863	0.402234	2.12205	0.592842	3.13039							0.492626	2.60763	0.70774	3.742				
0.417396	2.18816	0.403613	2.12225	0.593777	3.12489							0.493758	2.6049	0.708521	3.73364				
0.41869	2.18769	0.404993	2.12244	0.594713	3.11943							0.494891	2.6022	0.709303	3.72535				
0.419985	2.18723	0.406372	2.12264	0.595652	3.11403							0.496026	2.59952	0.710087	3.71712				
0.42128	2.18677	0.407752	2.12283	0.596592	3.10866							0.497163	2.59687	0.710874	3.70896				
0.422576	2.18632	0.409131	2.12302	0.597535	3.10335							0.498301	2.59425	0.711662	3.70086				
0.423873	2.18588	0.410511	2.12321	0.598479	3.09808							0.499441	2.59165	0.712452	3.69282				
0.42517	2.18544	0.41189	2.1234	0.599426	3.09285							0.500582	2.58907	0.713245	3.68485				
0.426467	2.185	0.413269	2.12358	0.600374	3.08767							0.501725	2.58652	0.714039	3.67694				
0.427765	2.18458	0.414648	2.12377	0.601325	3.08253							0.502869	2.584	0.714835	3.66909				
0.429064	2.18415	0.416027	2.12395	0.602277	3.07743							0.504015	2.58149	0.715632	3.6613				
0.430363	2.18373	0.417406	2.12413	0.603231	3.07238							0.505162	2.57902	0.716432	3.65357				
0.431663	2.18332	0.418785	2.12431	0.604187	3.06737							0.506311	2.57656	0.717234	3.6459				
0.432963	2.18291	0.420163	2.12449	0.605145	3.0624							0.507461	2.57413	0.718038	3.63828				
0.434263	2.18251	0.421542	2.12467	0.606104	3.05747							0.508613	2.57172	0.718843	3.63073				
0.435564	2.18212	0.422921	2.12484	0.607066	3.05258							0.509766	2.56934	0.71965	3.62323				
0.436866	2.18172	0.424299	2.12502	0.608029	3.04773							0.51092	2.56697	0.72046	3.61579				
0.438168	2.18134	0.425678	2.12519	0.608995	3.04292							0.512076	2.56463						
0.43947	2.18095	0.427056	2.12536	0.609962	3.03816							0.513234	2.56231						
0.440773	2.18057	0.428434	2.12553	0.610931	3.03343							0.514393	2.56001						
0.442076	2.1802	0.429813	2.12569	0.611902	3.02874							0.515553	2.55774						
0.44338	2.17983	0.431191	2.12586	0.612874	3.02408							0.516714	2.55548						
0.444685	2.17947	0.432569	2.12603	0.613849	3.01947							0.517877	2.55325						
0.445989	2.17911	0.433947	2.12619	0.614825	3.01489							0.519042	2.55103						
0.447295	2.17875	0.435325	2.12635	0.615803	3.01035							0.520207	2.54884						
0.4486	2.1784	0.436702	2.12651	0.616782	3.00585							0.521375	2.54667						
0.449906	2.17805	0.43808	2.12667	0.617764	3.00138							0.522543	2.54451						
0.451213	2.17771	0.439458	2.12683	0.618747	2.99695							0.523713	2.54238						
0.45252	2.17737	0.440835	2.12699	0.619732	2.99255							0.524884	2.54026						
0.453827	2.17704	0.442213	2.12714	0.620719	2.98819							0.526056	2.53817						
0.455135	2.17671	0.44359	2.1273	0.621708	2.98386							0.52723	2.53609						
0.456443	2.17638	0.444968	2.12745	0.622698	2.97957							0.528405	2.53403						
0.457752	2.17606	0.446345	2.1276	0.62369	2.97531							0.529581	2.532						
0.459061	2.17574	0.447722	2.12775	0.624683	2.97109							0.530759	2.52998						
0.46037	2.17542	0.449099	2.1279	0.625679	2.9669							0.531937	2.52797						
0.46168	2.17511	0.450476	2.12805	0.626676	2.96274							0.533117	2.52599						
0.46299	2.17481	0.451853	2.12819	0.627674	2.95862							0.534299	2.52402						
0.464301	2.1745	0.45323	2.12834	0.628675	2.95452							0.535481	2.52207						
0.465612	2.1742	0.454607	2.12848	0.629677	2.95046							0.536665	2.52014						
0.466923	2.17391	0.455984	2.12862	0.630681	2.94643							0.53785	2.51823						
0.468235	2.17361	0.457361	2.12877	0.631686	2.94244							0.539037	2.51633						
0.469547	2.17332	0.458737	2.12891	0.632693	2.93847							0.540224	2.51445						
0.470859	2.17304	0.460114	2.12905	0.633702	2.93454							0.541413	2.51259						
0.472172	2.17275	0.46149	2.12918	0.634712	2.93063							0.542603	2.51074						
0.473485	2.17247	0.462867	2.12932	0.635724	2.92676							0.543794	2.50891						
0.474799	2.1722	0.464243	2.12946	0.636737	2.92291							0.544986	2.5071						
0.476113	2.17192	0.465619	2.12959	0.637753	2.9191							0.546179	2.5053						
0.477427	2.17165	0.466995	2.12973	0.638769	2.91531							0.547374	2.50351						
0.478742	2.17139	0.468372	2.12986	0.639787	2.91155							0.54857	2.50175						
0.480057	2.17112	0.469748	2.12999	0.640807	2.90783							0.549767	2.49999						
0.481372	2.17086	0.471124	2.13012	0.641829	2.90413							0.550965	2.49826						
0.482688	2.17061	0.472499	2.13025	0.642852	2.90046							0.552164	2.49653						
0.484004	2.17035	0.473875	2.13038	0.643876	2.89681							0.553364	2.49483						
0.48532	2.1701	0.475251	2.1305	0.644903	2.8932							0.554566	2.49313						
0.486637	2.16985	0.476627	2.13063	0.64593	2.88961							0.555768	2.49146						
0.487954	2.1696	0.478002	2.13076	0.646959	2.88605							0.556972	2.48979						
0.489271	2.16936	0.479378	2.13088	0.64799	2.88251							0.558177	2.48814						
0.490589	2.16912	0.480753	2.131	0.649022	2.879							0.559382	2.48651						
0.491907	2.16888	0.482129	2.13113	0.650056	2.87552							0.560589	2.48489						
0.493226	2.16865	0.483504	2.13125	0.651091	2.87207							0.561797	2.48328						
0.494544	2.16842	0.484879	2.13137	0.652128	2.86864							0.563007	2.48169						
0.495863	2.16819	0.486254	2.13149	0.653166	2.86523							0.564217	2.48011						
0.497182	2.16796	0.487629	2.1316	0.654206	2.86185							0.565428	2.47854						
0.498502	2.16774	0.489004	2.13172	0.655247	2.8585							0.56664	2.47699						
0.499822	2.16752	0.490379	2.13184	0.65629	2.85517							0.567854	2.47545						
0.501142	2.1673	0.491754	2.13195	0.657334	2.85187							0.569068	2.47392						
0.502462	2.16708	0.493129	2.13207	0.65838	2.84859							0.570283	2.47241						
0.503783	2.16686	0.494504	2.13218	0.659427	2.84533							0.5715	2.47091						
0.505104	2.16665	0.495878	2.13229	0.660475	2.8421							0.572717	2.46942						
0.506426	2.16644	0.497253	2.1324	0.661525	2.83889							0.573936	2.46794						
0.507747	2.16624	0.498628	2.13251	0.662577	2.83571							0.575155	2.46648						
0.509069	2.16603	0.500002	2.13262	0.663629	2.83254							0.576375	2.46503						
0.510391	2.16583	0.501376	2.13273	0.664684	2.82941							0.577597	2.46359						
0.511714	2.16563	0.502751	2.13284	0.665739	2.82629							0.578819	2.46216						
0.513037	2.16543	0.504125	2.13295	0.666796	2.8232							0.580043	2.46074						
0.51436	2.16524	0.505499	2.13305	0.667854	2.82013							0.581267	2.45934						
0.515683	2.16504	0.506873	2.13316	0.668914	2.81708							0.582492	2.45794						
0.517007	2.16485	0.508247	2.13326	0.669975	2.81405							0.583719	2.45656						
0.51833	2.16466	0.509621	2.13337	0.671038	2.81105							0.584946	2.45519						
0.519655	2.16447	0.510995	2.13347	0.672102	2.80806							0.586174	2.45383						
0.520979	2.16429	0.512369	2.13357	0.673167	2.8051							0.587403	2.45249						
0.522304	2.16411	0.513743	2.13367	0.674234	2.80216							0.588633	2.45115						
0.523629	2.16392	0.515116	2.13377	0.675301	2.79924							0.589864	2.44982						
0.524954	2.16375	0.51649	2.13387	0.676371	2.79634							0.591096	2.44851						
0.526279	2.16357	0.517864	2.13397	0.677441	2.79347							0.592329	2.4472						
0.527605	2.16339	0.519237	2.13407	0.678513	2.79061							0.593563	2.44591						
0.528931	2.16322	0.52061	2.13417	0.679587	2.78777							0.594798	2.44463						
0.530257	2.16305	0.521984	2.13426	0.680661	2.78495							0.596033	2.44335						
0.531583	2.16288	0.523357	2.13436	0.681737	2.78216							0.59727	2.44209						
0.53291	2.16271	0.52473	2.13445	0.682814	2.77938							0.598507	2.44084						
0.534237	2.16255	0.526103	2.13455	0.683893	2.77662							0.599745	2.4396						
0.535564	2.16238	0.527476	2.13464	0.684972	2.77388							0.600984	2.43836						
0.536891	2.16222	0.528849	2.13473	0.686053	2.77116							0.602224	2.43714						
0.538219	2.16206	0.530222	2.13483	0.687136	2.76846							0.603465	2.43593						
0.539547	2.1619	0.531595	2.13492	0.688219	2.76578							0.604707	2.43472						
0.540875	2.16175	0.532968	2.13501	0.689304	2.76312							0.60595	2.43353						
0.542203	2.16159	0.534341	2.1351	0.69039	2.76047							0.607193	2.43235						
0.543532	2.16144	0.535713	2.13519	0.691478	2.75784							0.608437	2.43117						
0.54486	2.16128	0.537086	2.13528	0.692566	2.75524							0.609683	2.43001						
0.546189	2.16113	0.538459	2.13536	0.693656	2.75265							0.610929	2.42885						
0.547518	2.16099	0.539831	2.13545	0.694747	2.75007							0.612175	2.4277						
0.548848	2.16084	0.541203	2.13554	0.695839	2.74752							0.613423	2.42656						
0.550177	2.16069	0.542576	2.13562	0.696933	2.74498							0.614672	2.42543						
0.551507	2.16055	0.543948	2.13571	0.698028	2.74246							0.615921	2.42431						
0.552837	2.16041	0.54532	2.13579	0.699124	2.73996							0.617171	2.4232						
0.554168	2.16027	0.546692	2.13587	0.700221	2.73747							0.618422	2.4221						
0.555498	2.16013	0.548065	2.13596	0.701319	2.73501							0.619674	2.421						
0.556829	2.15999	0.549437	2.13604	0.702419	2.73255							0.620926	2.41992						
0.55816	2.15985	0.550809	2.13612	0.703519	2.73012							0.622179	2.41884						
0.559491	2.15972	0.55218	2.1362	0.704621	2.7277							0.623433	2.41777						
0.560822	2.15959	0.553552	2.13628	0.705724	2.7253							0.624688	2.41671						
0.562154	2.15945	0.554924	2.13636	0.706829	2.72291							0.625944	2.41566						
0.563485	2.15932	0.556296	2.13644	0.707934	2.72054							0.6272	2.41461						
0.564817	2.15919	0.557667	2.13652	0.709041	2.71819							0.628458	2.41358						
0.566149	2.15907	0.559039	2.13659	0.710148	2.71585							0.629716	2.41255						
0.567482	2.15894	0.56041	2.13667	0.711257	2.71353							0.630974	2.41153						
0.568814	2.15881	0.561782	2.13675	0.712367	2.71122							0.632234	2.41051						
0.570147	2.15869	0.563153	2.13682	0.713478	2.70893							0.633494	2.40951						
0.57148	2.15857	0.564524	2.1369	0.714591	2.70665							0.634755	2.40851						
0.572813	2.15845	0.565896	2.13697	0.715704	2.70439							0.636017	2.40752						
0.574146	2.15833	0.567267	2.13705	0.716819	2.70215							0.637279	2.40654						
0.575479	2.15821	0.568638	2.13712	0.717934	2.69991							0.638542	2.40556						
0.576813	2.15809	0.570009	2.13719	0.719051	2.6977							0.639806	2.4046						
0.578147	2.15798	0.57138	2.13727	0.720169	2.6955							0.641071	2.40363						
0.579481	2.15786	0.572751	2.13734									0.642336	2.40268						
0.580815	2.15775	0.574122	2.13741									0.643602	2.40174						
0.582149	2.15763	0.575493	2.13748									0.644869	2.4008						
0.583484	2.15752	0.576863	2.13755									0.646137	2.39986						
0.584818	2.15741	0.578234	2.13762									0.647405	2.39894						
0.586153	2.1573	0.579605	2.13769									0.648674	2.39802						
0.587488	2.1572	0.580975	2.13776									0.649943	2.39711						
0.588823	2.15709	0.582346	2.13782									0.651214	2.39621						
0.590159	2.15698	0.583716	2.13789									0.652485	2.39531						
0.591494	2.15688	0.585087	2.13796									0.653756	2.39442						
0.59283	2.15678	0.586457	2.13802									0.655029	2.39353						
0.594166	2.15667	0.587827	2.13809									0.656302	2.39266						
0.595502	2.15657	0.589197	2.13815									0.657575	2.39178						
0.596838	2.15647	0.590568	2.13822									0.65885	2.39092						
0.598174	2.15637	0.591938	2.13828									0.660125	2.39006						
0.599511	2.15627	0.593308	2.13835									0.661401	2.38921						
0.600847	2.15618	0.594678	2.13841									0.662677	2.38836						
0.602184	2.15608	0.596047	2.13847									0.663954	2.38752						
0.603521	2.15599	0.597417	2.13853									0.665232	2.38669						
0.604858	2.15589	0.598787	2.1386									0.66651	2.38586						
0.606196	2.1558	0.600157	2.13866									0.667789	2.38504						
0.607533	2.15571	0.601526	2.13872									0.669068	2.38422						
0.608871	2.15561	0.602896	2.13878									0.670349	2.38342						
0.610208	2.15552	0.604266	2.13884									0.671629	2.38261						
0.611546	2.15543	0.605635	2.1389									0.672911	2.38181						
0.612884	2.15535	0.607005	2.13896									0.674193	2.38102						
0.614222	2.15526	0.608374	2.13901									0.675476	2.38023						
0.615561	2.15517	0.609743	2.13907									0.676759	2.37945						
0.616899	2.15508	0.611112	2.13913									0.678043	2.37868						
0.618238	2.155	0.612482	2.13919									0.679327	2.37791						
0.619576	2.15492	0.613851	2.13924									0.680613	2.37715						
0.620915	2.15483	0.61522	2.1393									0.681898	2.37639						
0.622254	2.15475	0.616589	2.13935									0.683185	2.37563						
0.623593	2.15467	0.617958	2.13941									0.684472	2.37489						
0.624933	2.15459	0.619327	2.13946									0.685759	2.37414						
0.626272	2.15451	0.620696	2.13952									0.687047	2.37341						
0.627612	2.15443	0.622064	2.13957									0.688336	2.37267						
0.628951	2.15435	0.623433	2.13963									0.689625	2.37195						
0.630291	2.15427	0.624802	2.13968									0.690915	2.37122						
0.631631	2.1542	0.62617	2.13973									0.692206	2.37051						
0.632971	2.15412	0.627539	2.13978									0.693497	2.3698						
0.634312	2.15404	0.628908	2.13983									0.694788	2.36909						
0.635652	2.15397	0.630276	2.13989									0.69608	2.36839						
0.636992	2.1539	0.631644	2.13994									0.697373	2.36769						
0.638333	2.15382	0.633013	2.13999									0.698666	2.367						
0.639674	2.15375	0.634381	2.14004									0.69996	2.36631						
0.641014	2.15368	0.635749	2.14009									0.701254	2.36563						
0.642355	2.15361	0.637117	2.14014									0.702549	2.36495						
0.643697	2.15354	0.638486	2.14019									0.703845	2.36428						
0.645038	2.15347	0.639854	2.14023									0.705141	2.36361						
0.646379	2.1534	0.641222	2.14028									0.706437	2.36295						
0.647721	2.15333	0.64259	2.14033									0.707734	2.36229						
0.649062	2.15326	0.643958	2.14038									0.709032	2.36164						
0.650404	2.1532	0.645325	2.14042									0.71033	2.36099						
0.651746	2.15313	0.646693	2.14047									0.711629	2.36034						
0.653088	2.15307	0.648061	2.14052									0.712928	2.3597						
0.65443	2.153	0.649429	2.14056									0.714228	2.35906						
0.655772	2.15294	0.650796	2.14061									0.715528	2.35843						
0.657114	2.15287	0.652164	2.14065									0.716829	2.3578						
0.658456	2.15281	0.653532	2.1407									0.71813	2.35718						
0.659799	2.15275	0.654899	2.14074									0.719432	2.35656						
0.661141	2.15269	0.656266	2.14079									0.720734	2.35595						
0.662484	2.15263	0.657634	2.14083																
0.663827	2.15257	0.659001	2.14087																
0.66517	2.15251	0.660368	2.14092																
0.666513	2.15245	0.661736	2.14096																
0.667856	2.15239	0.663103	2.141																
0.669199	2.15233	0.66447	2.14104																
0.670543	2.15227	0.665837	2.14109																
0.671886	2.15222	0.667204	2.14113																
0.67323	2.15216	0.668571	2.14117																
0.674573	2.1521	0.669938	2.14121																
0.675917	2.15205	0.671305	2.14125																
0.677261	2.15199	0.672672	2.14129																
0.678605	2.15194	0.674039	2.14133																
0.679949	2.15189	0.675405	2.14137																
0.681293	2.15183	0.676772	2.14141																
0.682637	2.15178	0.678139	2.14145																
0.683982	2.15173	0.679505	2.14149																
0.685326	2.15168	0.680872	2.14152																
0.686671	2.15162	0.682238	2.14156																
0.688015	2.15157	0.683605	2.1416																
0.68936	2.15152	0.684971	2.14164																
0.690705	2.15147	0.686337	2.14167																
0.69205	2.15143	0.687704	2.14171																
0.693395	2.15138	0.68907	2.14175																
0.69474	2.15133	0.690436	2.14178																
0.696085	2.15128	0.691802	2.14182																
0.69743	2.15123	0.693168	2.14185																
0.698776	2.15119	0.694534	2.14189																
0.700121	2.15114	0.6959	2.14192																
0.701466	2.15109	0.697266	2.14196																
0.702812	2.15105	0.698632	2.14199																
0.704158	2.151	0.699998	2.14203																
0.705504	2.15096	0.701364	2.14206																
0.70685	2.15092	0.70273	2.14209																
0.708195	2.15087	0.704096	2.14213																
0.709542	2.15083	0.705461	2.14216																
0.710888	2.15079	0.706827	2.14219																
0.712234	2.15074	0.708192	2.14223																
0.71358	2.1507	0.709558	2.14226																
0.714927	2.15066	0.710924	2.14229																
0.716273	2.15062	0.712289	2.14232																
0.717619	2.15058	0.713654	2.14235																
0.718966	2.15054	0.71502	2.14239																
0.720313	2.1505	0.716385	2.14242																
		0.71775	2.14245																
		0.719116	2.14248																
		0.720481	2.14251																
