Sym0		Asym0		Sym1		Sym2		Sym3		Sym4		Asym1		Asym2		Asym3		Asym4	
542  Points		543  Points		438  Points		198  Points		185  Points		140  Points		493  Points		343  Points		189  Points		140  Points	
Freq (MHz)	Vph (m/ms)	Freq (MHz)	Vph (m/ms)	Freq (MHz)	Vph (m/ms)	Freq (MHz)	Vph (m/ms)	Freq (MHz)	Vph (m/ms)	Freq (MHz)	Vph (m/ms)	Freq (MHz)	Vph (m/ms)	Freq (MHz)	Vph (m/ms)	Freq (MHz)	Vph (m/ms)	Freq (MHz)	Vph (m/ms)
0.00227562	5.88844	4.20884e-006	0.018936	0.168067	979.859	0.279528	532.451	0.504201	15714.3	0.559034	987.561	0.139769	424.126	0.336134	4017.17	0.419264	2841.3	0.672257	1384.38
0.00599957	5.88822	6.23643e-005	0.0729644	0.168062	209.038	0.279604	241.571	0.504192	758.708	0.559093	466.482	0.139877	145.402	0.336128	469.368	0.419296	537.548	0.672209	601.229
0.00972323	5.88799	0.000188557	0.126789	0.168049	116.991	0.279736	156.287	0.504167	388.719	0.559194	305.406	0.140091	87.8613	0.336113	249.234	0.419371	296.906	0.672124	383.958
0.0134462	5.88758	0.000382258	0.180342	0.16803	81.2176	0.279926	115.559	0.504125	261.279	0.559336	227.055	0.14041	63.0515	0.336088	169.652	0.41949	205.137	0.672003	282.002
0.0171683	5.88705	0.000642518	0.233466	0.168005	62.1929	0.280171	91.7149	0.504067	196.755	0.55952	180.73	0.140833	49.2533	0.336054	128.584	0.419652	156.74	0.671847	222.803
0.0208892	5.88638	0.000968201	0.286065	0.167973	50.3848	0.280473	76.0653	0.503994	157.776	0.559745	150.132	0.141359	40.4828	0.336011	103.517	0.419858	126.851	0.671658	184.123
0.0246087	5.88558	0.00135791	0.338041	0.167935	42.341	0.28083	65.0111	0.503906	131.677	0.560011	128.419	0.141985	34.4267	0.335959	86.6229	0.420105	106.564	0.67144	156.866
0.0283265	5.88463	0.00181005	0.389305	0.167892	36.5086	0.281242	56.7916	0.503802	112.979	0.560316	112.214	0.142711	30.0019	0.335899	74.4644	0.420396	91.8948	0.671193	136.622
0.0320423	5.88354	0.00232265	0.439737	0.167845	32.0856	0.281709	50.4436	0.503685	98.9222	0.560661	99.6602	0.143533	26.6336	0.335831	65.2946	0.420728	80.7973	0.670921	120.99
0.0357558	5.88228	0.0028938	0.489284	0.167793	28.616	0.282229	45.3958	0.503555	87.9696	0.561044	89.6497	0.14445	23.9885	0.335755	58.1316	0.421102	72.1107	0.670627	108.556
0.0394665	5.88086	0.00352126	0.537858	0.167739	25.8215	0.282803	41.2879	0.503411	79.1945	0.561464	81.4823	0.145459	21.8601	0.335672	52.3814	0.421517	65.1281	0.670312	98.4282
0.0431742	5.87927	0.00420269	0.585392	0.167682	23.5226	0.28343	37.8816	0.503256	72.0059	0.561922	74.693	0.146557	20.1133	0.335583	47.6634	0.421972	59.3945	0.669979	90.0194
0.0468784	5.87749	0.00493583	0.631849	0.167623	21.5981	0.284108	35.0126	0.50309	66.0088	0.562416	68.9612	0.147741	18.6565	0.335488	43.7224	0.422468	54.6034	0.669631	82.9258
0.0505787	5.87552	0.00571815	0.67717	0.167564	19.9637	0.284837	32.5643	0.502913	60.9296	0.562945	64.0584	0.149009	17.4249	0.335387	40.3809	0.423002	50.5411	0.66927	76.8612
0.0542744	5.87333	0.00654727	0.721332	0.167505	18.5583	0.285615	30.4515	0.502727	56.5723	0.563508	59.8175	0.150357	16.3717	0.335282	37.5117	0.423576	47.0539	0.668898	71.6167
0.0579651	5.8709	0.00742065	0.764299	0.167448	17.3371	0.286443	28.6105	0.502533	52.7931	0.564105	56.1136	0.151782	15.4621	0.335172	35.0214	0.424188	44.0285	0.668517	67.0365
0.0616502	5.86824	0.00833582	0.806051	0.167394	16.2664	0.28732	26.9929	0.502331	49.4841	0.564734	52.8512	0.153282	14.6698	0.335059	32.8394	0.424837	41.3795	0.668128	63.0019
0.0653289	5.8653	0.00929046	0.846588	0.167345	15.32	0.288243	25.5609	0.502123	46.5626	0.565395	49.9562	0.154853	13.9743	0.334944	30.9119	0.425523	39.0413	0.667734	59.421
0.0690002	5.86206	0.0102821	0.885896	0.167301	14.4777	0.289212	24.2848	0.501909	43.9643	0.566086	47.3702	0.156492	13.3597	0.334826	29.1969	0.426245	36.9627	0.667336	56.2213
0.0726635	5.85849	0.0113085	0.923978	0.167264	13.7235	0.290227	23.1411	0.50169	41.6384	0.566808	45.0465	0.158197	12.8134	0.334707	27.661	0.427002	35.1031	0.666935	53.3451
0.0763176	5.85457	0.0123674	0.960846	0.167237	13.0443	0.291286	22.1105	0.501467	39.5441	0.567558	42.9474	0.159965	12.3252	0.334588	26.2777	0.427794	33.4301	0.666532	50.7458
0.0799612	5.85024	0.0134567	0.996509	0.16722	12.4299	0.292388	21.1775	0.501241	37.6486	0.568336	41.0421	0.161792	11.8867	0.334469	25.0253	0.428619	31.9171	0.666129	48.3853
0.0835929	5.84546	0.0145742	1.03098	0.167216	11.8715	0.293532	20.3291	0.501013	35.9249	0.569141	39.3051	0.163676	11.4912	0.334351	23.8861	0.429478	30.5426	0.665727	46.2322
0.0872111	5.84018	0.0157181	1.06428	0.167228	11.3621	0.294718	19.5547	0.500784	34.3507	0.569973	37.7152	0.165614	11.1329	0.334235	22.8456	0.430369	29.2887	0.665326	44.2604
0.0908137	5.83434	0.0168865	1.09644	0.167257	10.8959	0.295943	18.8452	0.500554	32.9073	0.570831	36.2547	0.167603	10.8072	0.334121	21.8915	0.431292	28.1403	0.664928	42.448
0.0943986	5.82785	0.0180776	1.12748	0.167306	10.4678	0.297207	18.193	0.500324	31.5792	0.571713	34.9085	0.169641	10.51	0.334011	21.0135	0.432246	27.0848	0.664533	40.7764
0.0979629	5.82063	0.0192897	1.15742	0.16738	10.0738	0.298509	17.5916	0.500096	30.3531	0.572619	33.6638	0.171726	10.238	0.333905	20.203	0.433229	26.1117	0.664142	39.23
0.101503	5.81257	0.0205213	1.1863	0.167481	9.71024	0.299849	17.0356	0.499869	29.2178	0.573549	32.5097	0.173855	9.98831	0.333804	19.4525	0.434243	25.2117	0.663756	37.7952
0.105016	5.80355	0.0217708	1.21414	0.167613	9.37418	0.301224	16.5201	0.499645	28.1635	0.574501	31.4367	0.176025	9.75842	0.333709	18.7557	0.435285	24.3771	0.663376	36.4605
0.108497	5.79341	0.0230368	1.24097	0.167782	9.06305	0.302634	16.0411	0.499424	27.1821	0.575475	30.4367	0.178235	9.54621	0.33362	18.1071	0.436355	23.6011	0.663001	35.2158
0.11194	5.78198	0.0243181	1.26684	0.167993	8.77469	0.304078	15.5948	0.499207	26.2661	0.576471	29.5025	0.180482	9.34983	0.333539	17.5019	0.437452	22.8778	0.662632	34.0523
0.115338	5.76904	0.0256135	1.29176	0.168217	8.54054	0.305554	15.1782	0.498995	25.4094	0.577487	28.6279	0.182763	9.16765	0.333467	16.936	0.438577	22.2023	0.662271	32.9624
0.118683	5.75433	0.0269217	1.31577	0.168442	8.3527	0.307063	14.7886	0.498788	24.6064	0.578524	27.8074	0.185078	8.99828	0.333403	16.4058	0.439727	21.5699	0.661917	31.9394
0.121966	5.73754	0.0282418	1.3389	0.168654	8.20513	0.308603	14.4234	0.498587	23.8523	0.57958	27.0363	0.187423	8.84045	0.33335	15.9081	0.440902	20.9768	0.661571	30.9773
0.125174	5.71832	0.0295727	1.36118	0.16884	8.09323	0.310172	14.0805	0.498393	23.1428	0.580655	26.3102	0.189797	8.69309	0.333307	15.4401	0.442102	20.4194	0.661233	30.0709
0.128293	5.69624	0.0309135	1.38265	0.168988	8.01356	0.311771	13.7581	0.498205	22.474	0.581749	25.6254	0.192197	8.55521	0.333276	14.9992	0.443326	19.8948	0.660903	29.2156
0.131307	5.67082	0.0322635	1.40333	0.169088	7.96371	0.313397	13.4543	0.498026	21.8428	0.58286	24.9785	0.194622	8.42596	0.333258	14.5833	0.444574	19.4002	0.660583	28.4073
0.134197	5.64155	0.0336217	1.42325	0.169239	7.89358	0.315051	13.1678	0.497854	21.2459	0.583989	24.3664	0.196754	8.31975	0.333253	14.1903	0.445845	18.9331	0.660271	27.6421
0.136943	5.60788	0.0349874	1.44245	0.169414	7.81938	0.316731	12.8971	0.497692	20.6808	0.585135	23.7866	0.198585	8.23357	0.333262	13.8186	0.447137	18.4914	0.659969	26.9168
0.139524	5.56932	0.03636	1.46095	0.169672	7.72177	0.318435	12.641	0.497538	20.145	0.586297	23.2364	0.200107	8.16514	0.333287	13.4665	0.448451	18.073	0.659678	26.2283
0.141919	5.52545	0.0377389	1.47877	0.170031	7.60368	0.320165	12.3983	0.497395	19.6364	0.587476	22.7138	0.201315	8.11275	0.333329	13.1325	0.449786	17.6763	0.659396	25.574
0.144114	5.47605	0.0391235	1.49595	0.170522	7.4687	0.321917	12.1682	0.497262	19.1529	0.58867	22.2167	0.202206	8.07516	0.333388	12.8155	0.451142	17.2996	0.659125	24.9515
0.146098	5.42116	0.0405131	1.51251	0.171185	7.32101	0.323693	11.9496	0.49714	18.6928	0.589879	21.7433	0.202777	8.0515	0.333465	12.5143	0.452517	16.9414	0.658864	24.3584
0.14787	5.36111	0.0417279	1.52645	0.172078	7.16543	0.325489	11.7418	0.49703	18.2546	0.591103	21.2921	0.2036	8.01802	0.333562	12.2277	0.453912	16.6006	0.658615	23.7929
0.149438	5.29648	0.042766	1.53799	0.173135	7.02442	0.327307	11.544	0.496931	17.8366	0.592342	20.8614	0.204497	7.98232	0.33368	11.9549	0.455325	16.2758	0.658376	23.253
0.150815	5.2281	0.0436261	1.54731	0.174374	6.89771	0.329144	11.3555	0.496845	17.4377	0.593594	20.45	0.205719	7.93488	0.33382	11.6949	0.456757	15.966	0.65815	22.7371
0.152021	5.15686	0.0443072	1.55453	0.175816	6.78501	0.331	11.1757	0.496772	17.0565	0.594861	20.0566	0.20727	7.87666	0.333984	11.447	0.458206	15.6702	0.657934	22.2436
0.153079	5.08367	0.0448085	1.55975	0.177475	6.68584	0.332874	11.004	0.496713	16.692	0.59614	19.6801	0.209152	7.80876	0.334172	11.2104	0.459672	15.3876	0.657731	21.7712
0.15401	5.00938	0.0451295	1.56306	0.179358	6.59952	0.334765	10.8398	0.496667	16.3431	0.597432	19.3194	0.211368	7.73239	0.334386	10.9845	0.461155	15.1172	0.657541	21.3186
0.154836	4.93473	0.0455913	1.56777	0.181462	6.52511	0.336673	10.6828	0.496636	16.0089	0.598737	18.9736	0.21392	7.64879	0.334628	10.7687	0.462654	14.8582	0.657362	20.8846
0.155575	4.8603	0.0460937	1.57283	0.183779	6.46148	0.338596	10.5325	0.49662	15.6886	0.600054	18.6417	0.216481	7.56917	0.334899	10.5625	0.464168	14.6101	0.657197	20.4681
0.156242	4.78659	0.0467775	1.57961	0.186292	6.40736	0.340533	10.3884	0.49662	15.3813	0.601383	18.323	0.219047	7.49322	0.335201	10.3652	0.465698	14.3721	0.657044	20.068
0.156853	4.71396	0.0476433	1.58801	0.188981	6.36145	0.342484	10.2501	0.496635	15.0862	0.602724	18.0166	0.221619	7.42062	0.335535	10.1766	0.467241	14.1437	0.656904	19.6835
0.157418	4.64269	0.0486916	1.59793	0.191823	6.32251	0.344447	10.1174	0.496668	14.8028	0.604076	17.722	0.224192	7.35111	0.335904	9.99601	0.468799	13.9243	0.656778	19.3137
0.157946	4.57297	0.0499231	1.60924	0.194796	6.2894	0.346423	9.98981	0.496717	14.5304	0.605438	17.4384	0.226765	7.28442	0.33631	9.8232	0.47037	13.7134	0.656666	18.9579
0.158446	4.50494	0.0513384	1.62179	0.197881	6.26114	0.348409	9.86713	0.496784	14.2684	0.606811	17.1653	0.229336	7.22032	0.336754	9.65777	0.471955	13.5104	0.656568	18.6151
0.158923	4.4387	0.0527555	1.63392	0.201059	6.23691	0.350405	9.74904	0.49687	14.0162	0.608195	16.902	0.231903	7.1586	0.337239	9.49939	0.473551	13.3151	0.656484	18.2849
0.159383	4.37428	0.0541743	1.64562	0.204317	6.216	0.35241	9.63527	0.496974	13.7735	0.609588	16.6481	0.234463	7.09903	0.337768	9.34774	0.47516	13.1269	0.656414	17.9664
0.159831	4.31172	0.0555947	1.65694	0.20764	6.19786	0.354423	9.52559	0.497098	13.5396	0.610991	16.4031	0.237014	7.04142	0.338342	9.20256	0.476779	12.9454	0.656359	17.6592
0.160269	4.25103	0.0570163	1.66787	0.211019	6.18202	0.356443	9.41977	0.497243	13.3141	0.612403	16.1665	0.239553	6.98561	0.338965	9.06357	0.47841	12.7704	0.656319	17.3627
0.160647	4.19964	0.058439	1.67843	0.214445	6.16809	0.358469	9.31758	0.497408	13.0968	0.613824	15.9379	0.242078	6.9314	0.339638	8.93055	0.480051	12.6015	0.656294	17.0764
0.160966	4.15693	0.0598626	1.68865	0.21791	6.15578	0.3605	9.21882	0.497594	12.8871	0.615254	15.717	0.244586	6.87865	0.340365	8.80327	0.481703	12.4383	0.656285	16.7997
0.161229	4.12237	0.0612871	1.69853	0.221409	6.14484	0.362535	9.12332	0.497803	12.6847	0.616692	15.5032	0.247075	6.8272	0.341044	8.69687	0.483363	12.2806	0.656292	16.5322
0.161437	4.09551	0.0627121	1.70808	0.224937	6.13505	0.364574	9.03088	0.498034	12.4893	0.618138	15.2964	0.24954	6.7769	0.341659	8.60939	0.485032	12.1282	0.656315	16.2735
0.16159	4.07603	0.0641377	1.71733	0.228489	6.12625	0.366614	8.94135	0.498289	12.3006	0.619593	15.0961	0.25198	6.72761	0.342192	8.53923	0.48671	11.9806	0.656354	16.0232
0.161687	4.06368	0.0655636	1.72627	0.232061	6.11829	0.368656	8.85456	0.498569	12.1183	0.621054	14.9021	0.254392	6.6792	0.34263	8.48513	0.488395	11.8378	0.65641	15.7809
0.161828	4.04608	0.0669898	1.73493	0.235653	6.11107	0.370697	8.77037	0.498873	11.9422	0.622523	14.714	0.256771	6.63155	0.342963	8.44611	0.490088	11.6995	0.656483	15.5463
0.161981	4.02717	0.0684162	1.74332	0.239259	6.10448	0.372476	8.69901	0.499204	11.7718	0.623998	14.5317	0.259115	6.58454	0.343179	8.42146	0.491787	11.5655	0.656573	15.319
0.16219	4.00179	0.0698428	1.75144	0.24288	6.09844	0.37399	8.63958	0.499561	11.6072	0.62548	14.3547	0.261421	6.53806	0.343497	8.3865	0.493493	11.4355	0.656682	15.0987
0.162455	3.97027	0.0712693	1.75932	0.246512	6.09289	0.375242	8.59138	0.499946	11.4479	0.626968	14.183	0.263685	6.492	0.343851	8.34909	0.495204	11.3094	0.656808	14.8851
0.162777	3.93297	0.0726958	1.76694	0.250154	6.08775	0.37623	8.55385	0.50036	11.2938	0.628462	14.0163	0.265905	6.44627	0.344346	8.2992	0.496921	11.187	0.656952	14.678
0.163157	3.89036	0.0741222	1.77434	0.253806	6.08299	0.376956	8.52657	0.500802	11.1447	0.629961	13.8543	0.268077	6.40078	0.344995	8.23771	0.498642	11.0682	0.657116	14.4771
0.163599	3.84294	0.0755484	1.78151	0.257465	6.07855	0.377421	8.50925	0.501275	11.0004	0.631466	13.6969	0.270197	6.35544	0.345815	8.16569	0.500367	10.9527	0.657298	14.2821
0.164046	3.79703	0.0769744	1.78846	0.261131	6.0744	0.378088	8.48454	0.50178	10.8607	0.632976	13.5438	0.272265	6.31019	0.346829	8.08442	0.502095	10.8404	0.6575	14.0929
0.1645	3.7526	0.0784001	1.7952	0.264803	6.07051	0.378813	8.45793	0.502316	10.7255	0.63449	13.395	0.274276	6.26497	0.348062	7.99529	0.503826	10.7313	0.657722	13.9091
0.16496	3.70959	0.0798254	1.80175	0.26848	6.06685	0.379797	8.42215	0.502886	10.5946	0.636009	13.2501	0.276228	6.21971	0.349371	7.91044	0.50556	10.6251	0.657964	13.7305
0.165429	3.66796	0.0812505	1.8081	0.272162	6.06339	0.38104	8.37753	0.50349	10.4678	0.637531	13.1091	0.27812	6.17439	0.350759	7.82974	0.507295	10.5217	0.658227	13.5571
0.165905	3.62765	0.0826752	1.81427	0.275847	6.0601	0.382539	8.32451	0.504128	10.3451	0.639057	12.9718	0.27995	6.12896	0.352226	7.75303	0.509031	10.421	0.658511	13.3885
0.16639	3.58862	0.0840994	1.82026	0.279536	6.05698	0.384293	8.26356	0.504804	10.2262	0.640587	12.838	0.281717	6.08341	0.353774	7.68018	0.510768	10.3229	0.658816	13.2247
0.166883	3.55083	0.0855232	1.82608	0.283227	6.054	0.386297	8.19521	0.505516	10.1111	0.642119	12.7077	0.28342	6.03773	0.355403	7.61105	0.512505	10.2273	0.659144	13.0654
0.167386	3.51423	0.0869466	1.83174	0.286921	6.05114	0.388292	8.12846	0.506266	9.99963	0.643654	12.5806	0.285059	5.99192	0.357113	7.54547	0.514241	10.134	0.659494	12.9105
0.167897	3.47877	0.0883694	1.83723	0.290616	6.0484	0.390275	8.06322	0.507056	9.89166	0.645191	12.4566	0.286635	5.94598	0.358904	7.48332	0.515976	10.043	0.659867	12.7598
0.168418	3.44443	0.0897918	1.84258	0.294312	6.04575	0.392246	7.99943	0.507886	9.78709	0.646729	12.3357	0.288147	5.89995	0.360775	7.42443	0.517709	9.95424	0.660263	12.6132
0.168948	3.41115	0.0912136	1.84777	0.301707	6.04069	0.394205	7.93699	0.508757	9.68583	0.64827	12.2177	0.289597	5.85383	0.362725	7.36865	0.51944	9.86752	0.660683	12.4706
0.169488	3.3789	0.0926349	1.85283	0.305404	6.03826	0.396148	7.87583	0.50967	9.58777	0.649811	12.1025	0.290987	5.80768	0.364753	7.31584	0.521167	9.78279	0.661127	12.3317
0.170037	3.34764	0.0940557	1.85774	0.309102	6.03588	0.398077	7.8159	0.510626	9.49282	0.651354	11.99	0.292318	5.76151	0.366855	7.26584	0.52289	9.69999	0.661596	12.1966
0.170596	3.31734	0.0954759	1.86253	0.312798	6.03354	0.399989	7.75711	0.511626	9.40087	0.652897	11.8801	0.293592	5.71539	0.36903	7.21851	0.52461	9.61903	0.662091	12.065
0.171165	3.28796	0.0968955	1.86719	0.316493	6.03124	0.401883	7.69941	0.512671	9.31185	0.65444	11.7727	0.294812	5.66934	0.371276	7.17368	0.526324	9.53983	0.662611	11.9369
0.171743	3.25947	0.0983146	1.87172	0.320186	6.02896	0.403759	7.64274	0.513761	9.22567	0.655982	11.6677	0.295981	5.62343	0.373589	7.13123	0.528032	9.46232	0.663157	11.8122
0.172332	3.23184	0.0997332	1.87614	0.323877	6.02669	0.405615	7.58705	0.514897	9.14225	0.657524	11.565	0.297101	5.57768	0.375967	7.09101	0.529734	9.38645	0.66373	11.6907
0.172929	3.20504	0.101151	1.88044	0.327566	6.02443	0.407452	7.53229	0.515925	9.07173	0.659065	11.4646	0.298175	5.53216	0.378406	7.05289	0.53143	9.31213	0.664331	11.5724
0.173537	3.17904	0.102569	1.88463	0.331251	6.02216	0.409267	7.47841	0.51683	9.01318	0.660605	11.3663	0.299206	5.48689	0.380904	7.01673	0.533118	9.23931	0.664959	11.4571
0.174154	3.15381	0.103985	1.88871	0.334933	6.01988	0.411061	7.42538	0.517598	8.96583	0.662142	11.2701	0.300196	5.44193	0.383457	6.98241	0.534798	9.16794	0.665616	11.3448
0.174781	3.12932	0.105402	1.8927	0.338611	6.01757	0.412832	7.37314	0.518219	8.92906	0.663678	11.176	0.301148	5.39732	0.386063	6.94982	0.536254	9.10687	0.666301	11.2353
0.175418	3.10555	0.106817	1.89658	0.342283	6.01523	0.414581	7.32168	0.518682	8.90239	0.665211	11.0837	0.302065	5.35308	0.388717	6.91884	0.537491	9.05561	0.667015	11.1287
0.176064	3.08247	0.108232	1.90036	0.34595	6.01284	0.416308	7.27096	0.518981	8.88549	0.666741	10.9934	0.30295	5.30926	0.391419	6.88936	0.538509	9.01377	0.667759	11.0248
0.176719	3.06006	0.109647	1.90405	0.349611	6.01039	0.418011	7.22095	0.519417	8.86141	0.668268	10.9048	0.303806	5.26588	0.394163	6.86129	0.539312	8.98102	0.668533	10.9235
0.177384	3.0383	0.111061	1.90766	0.353264	6.00787	0.419692	7.17163	0.519896	8.83554	0.669791	10.818	0.304633	5.22297	0.396949	6.83454	0.5399	8.95713	0.669338	10.8248
0.178058	3.01716	0.112474	1.91117	0.356909	6.00527	0.421351	7.12299	0.520557	8.80083	0.67131	10.7329	0.305436	5.18055	0.399773	6.80901	0.540276	8.94193	0.670174	10.7286
0.178741	2.99662	0.113887	1.9146	0.360544	6.00256	0.422987	7.07501	0.521409	8.75772	0.672825	10.6495	0.306215	5.13864	0.402632	6.78463	0.540816	8.92018	0.671041	10.6348
0.179433	2.97667	0.115299	1.91795	0.364169	5.99974	0.424602	7.02769	0.522465	8.70674	0.674335	10.5676	0.306973	5.09727	0.405525	6.76132	0.541401	8.89668	0.671941	10.5434
0.180135	2.95728	0.116711	1.92122	0.367782	5.99677	0.426198	6.98102	0.523737	8.64851	0.67584	10.4872	0.307713	5.05644	0.408449	6.73901	0.542195	8.86497	0.672872	10.4542
0.180845	2.93843	0.118122	1.92442	0.37138	5.99364	0.427775	6.935	0.525243	8.58373	0.67734	10.4084	0.308434	5.01617	0.411403	6.71764	0.543195	8.82526	0.673836	10.3673
0.181564	2.92011	0.119533	1.92754	0.374963	5.99032	0.429334	6.88965	0.526797	8.52105	0.678833	10.3309	0.309141	4.97647	0.414383	6.69714	0.544398	8.77781	0.674833	10.2826
0.182292	2.90229	0.120943	1.93059	0.378528	5.98678	0.430879	6.84497	0.528399	8.46042	0.680321	10.2548	0.309833	4.93734	0.417388	6.67746	0.545801	8.72292	0.675863	10.2
0.183029	2.88497	0.122353	1.93357	0.382073	5.98299	0.432412	6.80099	0.530049	8.40176	0.681802	10.1801	0.310512	4.89879	0.420417	6.65854	0.547401	8.66094	0.676927	10.1195
0.183774	2.86812	0.123762	1.93648	0.385593	5.9789	0.433936	6.75773	0.531747	8.345	0.683276	10.1067	0.31118	4.86083	0.423467	6.64034	0.548987	8.59998	0.678024	10.0409
0.184528	2.85173	0.12517	1.93933	0.389086	5.97448	0.435454	6.71524	0.533491	8.2901	0.684743	10.0345	0.311837	4.82345	0.426538	6.6228	0.55056	8.54002	0.679155	9.96437
0.18529	2.83579	0.126578	1.94212	0.392548	5.96966	0.436972	6.67355	0.535281	8.23697	0.686202	9.96355	0.312486	4.78665	0.429627	6.6059	0.552121	8.48102	0.68032	9.8897
0.18606	2.82028	0.127986	1.94484	0.395973	5.96438	0.438493	6.63272	0.537117	8.18555	0.687654	9.89378	0.313126	4.75044	0.432733	6.58958	0.553667	8.42294	0.68152	9.81688
0.186838	2.80518	0.129393	1.9475	0.399356	5.95857	0.440024	6.59281	0.538998	8.1358	0.689098	9.82514	0.31376	4.71481	0.435855	6.57381	0.555199	8.36577	0.682754	9.74587
0.187624	2.79049	0.130799	1.95011	0.402689	5.95214	0.441572	6.5539	0.540922	8.08763	0.690534	9.75762	0.314387	4.67976	0.438992	6.55855	0.556718	8.30946	0.684021	9.6766
0.188418	2.77619	0.132206	1.95266	0.405966	5.945	0.443146	6.51608	0.542889	8.04101	0.691961	9.69118	0.315009	4.64529	0.442141	6.54378	0.558222	8.25399	0.685324	9.60905
0.18922	2.76226	0.133611	1.95516	0.409178	5.93704	0.444753	6.47946	0.544898	7.99586	0.693379	9.62578	0.315626	4.61138	0.445303	6.52945	0.559711	8.19933	0.68666	9.54316
0.19003	2.74871	0.135016	1.9576	0.412313	5.92813	0.446406	6.44416	0.546948	7.95214	0.694789	9.5614	0.31624	4.57804	0.448476	6.51555	0.561186	8.14548	0.687852	9.48707
0.190847	2.7355	0.136421	1.96	0.41536	5.91813	0.448114	6.4103	0.549037	7.90978	0.69601	9.5061	0.31685	4.54527	0.451658	6.50204	0.562647	8.09239	0.688889	9.4402
0.191672	2.72264	0.137825	1.96234	0.418309	5.90691	0.449892	6.37802	0.551165	7.86874	0.697045	9.45954	0.317458	4.51304	0.454849	6.4889	0.564093	8.04005	0.689761	9.40208
0.192504	2.71011	0.139229	1.96464	0.421145	5.89432	0.451752	6.34748	0.55333	7.82896	0.697897	9.42143	0.318064	4.48136	0.458048	6.4761	0.565525	7.98845	0.690459	9.37236
0.193343	2.69791	0.140632	1.96688	0.423857	5.88023	0.453708	6.31881	0.555531	7.79039	0.698568	9.39154	0.318668	4.45022	0.461253	6.46362	0.566943	7.93756	0.690977	9.35072
0.19419	2.68601	0.142035	1.96909	0.426435	5.86454	0.455771	6.29213	0.557768	7.75299	0.69906	9.3697	0.319271	4.4196	0.464464	6.45143	0.568346	7.88737	0.691311	9.33698
0.195043	2.67442	0.143438	1.97125	0.428869	5.84716	0.457954	6.26753	0.560037	7.7167	0.699374	9.35579	0.319874	4.38952	0.467679	6.43952	0.569737	7.83788	0.691795	9.31735
0.195904	2.66313	0.14484	1.97336	0.431156	5.82808	0.460262	6.24507	0.562339	7.68148	0.699825	9.33587	0.320476	4.35994	0.470897	6.42786	0.571114	7.78906	0.692324	9.2962
0.196771	2.65212	0.146241	1.97544	0.433292	5.80731	0.4627	6.22474	0.564673	7.64729	0.700314	9.31433	0.321078	4.33087	0.474118	6.41644	0.572479	7.7409	0.693051	9.26773
0.197645	2.64138	0.147642	1.97747	0.435282	5.78494	0.465269	6.20648	0.567036	7.61408	0.700977	9.28521	0.321682	4.30231	0.47734	6.40522	0.573833	7.69341	0.693981	9.23221
0.198526	2.63091	0.149043	1.97946	0.437131	5.76109	0.467963	6.1902	0.569428	7.58181	0.701813	9.24868	0.322285	4.27423	0.480563	6.39419	0.575174	7.64656	0.695123	9.18996
0.199413	2.62071	0.150444	1.98142	0.438849	5.73592	0.470776	6.17574	0.571848	7.55045	0.702818	9.20493	0.32289	4.24663	0.483784	6.38334	0.576506	7.60036	0.696485	9.14136
0.200307	2.61075	0.151844	1.98334	0.440446	5.7096	0.4737	6.16296	0.574294	7.51995	0.70399	9.15421	0.323497	4.21951	0.487003	6.37263	0.577828	7.5548	0.698079	9.08685
0.201207	2.60104	0.153243	1.98522	0.441934	5.68229	0.476722	6.15166	0.576765	7.49027	0.705327	9.09677	0.324105	4.19285	0.490219	6.36206	0.579142	7.50988	0.699704	9.03364
0.202113	2.59157	0.154642	1.98706	0.443324	5.65419	0.479832	6.14167	0.579261	7.46139	0.706653	9.04014	0.324715	4.16665	0.49343	6.3516	0.580449	7.4656	0.701361	8.98169
0.203025	2.58232	0.156041	1.98888	0.444627	5.62544	0.483021	6.13284	0.581779	7.43327	0.70797	8.9843	0.325327	4.1409	0.496636	6.34123	0.58175	7.42195	0.70305	8.93098
0.203944	2.5733	0.15744	1.99065	0.445855	5.59618	0.486277	6.125	0.584319	7.40588	0.709278	8.92923	0.325941	4.11559	0.499833	6.33094	0.583046	7.37895	0.704768	8.88145
0.204868	2.5645	0.158838	1.9924	0.447015	5.56656	0.489592	6.11802	0.586879	7.37918	0.710576	8.8749	0.326558	4.09071	0.503022	6.3207	0.584339	7.33659	0.706517	8.83309
0.205798	2.55591	0.160236	1.99411	0.448116	5.53666	0.492958	6.11178	0.589459	7.35314	0.711865	8.82132	0.327178	4.06625	0.5062	6.31048	0.585631	7.29488	0.708295	8.78585
0.206735	2.54753	0.161633	1.99579	0.449165	5.5066	0.496369	6.10618	0.592057	7.32774	0.713144	8.76846	0.3278	4.04221	0.509366	6.30027	0.586923	7.25383	0.710102	8.7397
0.207676	2.53934	0.16303	1.99745	0.450169	5.47644	0.499817	6.10113	0.594673	7.30295	0.714415	8.7163	0.328425	4.01858	0.512517	6.29005	0.588218	7.21345	0.711937	8.69461
0.208623	2.53135	0.164427	1.99907	0.451132	5.44625	0.503299	6.09657	0.597305	7.27874	0.715678	8.66484	0.329053	3.99535	0.515653	6.27978	0.589518	7.17375	0.7138	8.65054
0.209576	2.52354	0.165823	2.00066	0.452059	5.41609	0.506809	6.09241	0.599952	7.25508	0.716932	8.61407	0.329685	3.97251	0.51877	6.26945	0.590825	7.13474	0.71569	8.60747
0.210534	2.51592	0.167219	2.00223	0.452955	5.38602	0.510344	6.08862	0.602613	7.23195	0.718178	8.56396	0.330319	3.95006	0.521866	6.25903	0.592141	7.09644	0.717606	8.56536
0.211498	2.50848	0.168615	2.00376	0.453823	5.35605	0.513901	6.08514	0.605288	7.20933	0.719417	8.51452	0.330957	3.92798	0.524938	6.24848	0.59347	7.05887	0.719547	8.52418
0.212467	2.50121	0.17001	2.00527	0.454666	5.32624	0.517477	6.08193	0.607975	7.18719	0.720648	8.46573	0.331599	3.90627	0.527985	6.23778	0.594815	7.02203	0.721513	8.48391
0.213441	2.4941	0.171405	2.00676	0.455486	5.29661	0.521069	6.07897	0.610672	7.16551			0.332244	3.88493	0.531002	6.22691	0.596178	6.98597		
0.21442	2.48716	0.1728	2.00822	0.456286	5.26718	0.524676	6.07621	0.61338	7.14426			0.332893	3.86394	0.533987	6.21581	0.597563	6.95069		
0.215404	2.48038	0.174195	2.00965	0.457068	5.23796	0.528296	6.07365	0.616097	7.12344			0.333546	3.8433	0.536936	6.20446	0.598975	6.91623		
0.216393	2.47375	0.175589	2.01106	0.457834	5.20899	0.531927	6.07124	0.618822	7.103			0.334202	3.82301	0.539846	6.19283	0.600416	6.88261		
0.217387	2.46727	0.176982	2.01245	0.458586	5.18026	0.535567	6.06899	0.621554	7.08294			0.334862	3.80304	0.542713	6.18087	0.601892	6.84987		
0.218385	2.46094	0.178376	2.01381	0.459324	5.1518	0.539217	6.06686	0.624292	7.06324			0.335526	3.78341	0.545532	6.16855	0.603406	6.81803		
0.219388	2.45475	0.179769	2.01515	0.46005	5.1236	0.542874	6.06485	0.627035	7.04387			0.336194	3.7641	0.5483	6.15582	0.604964	6.78712		
0.220396	2.4487	0.181162	2.01647	0.460766	5.09568	0.546538	6.06295	0.629782	7.02481			0.336866	3.7451	0.551012	6.14266	0.606569	6.75718		
0.221409	2.44278	0.182555	2.01777	0.461472	5.06804	0.550208	6.06113	0.632531	7.00606			0.337543	3.72642	0.553664	6.12901	0.608226	6.72824		
0.222425	2.437	0.183947	2.01904	0.462169	5.04068	0.553883	6.0594	0.635283	6.98758			0.338223	3.70804	0.556252	6.11484	0.60994	6.70033		
0.223447	2.43134	0.185339	2.0203	0.462859	5.01362	0.557562	6.05774	0.638034	6.96936			0.338907	3.68995	0.558771	6.10012	0.611716	6.67346		
0.224472	2.4258	0.186731	2.02153	0.463541	4.98685	0.561246	6.05615	0.640785	6.95139			0.339595	3.67216	0.561218	6.08482	0.613557	6.64768		
0.225502	2.42039	0.188123	2.02275	0.464217	4.96037	0.564933	6.05461	0.643534	6.93364			0.340288	3.65465	0.563589	6.06891	0.615467	6.62299		
0.226536	2.41509	0.189514	2.02394	0.464888	4.93419	0.568623	6.05313	0.64628	6.9161			0.340984	3.63743	0.565881	6.05238	0.617449	6.59941		
0.227574	2.40991	0.190905	2.02512	0.465553	4.9083	0.572315	6.05169	0.649022	6.89875			0.341685	3.62048	0.568092	6.0352	0.619506	6.57693		
0.228616	2.40484	0.192296	2.02628	0.466213	4.88271	0.576009	6.05029	0.651758	6.88157			0.34239	3.6038	0.570221	6.01738	0.621639	6.55557		
0.229663	2.39988	0.193686	2.02742	0.46687	4.85741	0.579705	6.04892	0.654487	6.86454			0.343099	3.58738	0.572266	5.99893	0.623851	6.5353		
0.230713	2.39503	0.195076	2.02854	0.467523	4.8324	0.583401	6.04758	0.657207	6.84765			0.343813	3.57123	0.574228	5.97985	0.62614	6.51611		
0.231767	2.39027	0.196466	2.02965	0.468172	4.80769	0.587099	6.04627	0.659917	6.83087			0.34453	3.55532	0.576107	5.96016	0.628506	6.49797		
0.232825	2.38562	0.197856	2.03074	0.468819	4.78326	0.590797	6.04498	0.662616	6.81419			0.345252	3.53967	0.577905	5.9399	0.630948	6.48084		
0.233886	2.38107	0.199246	2.03181	0.469463	4.75912	0.594494	6.04371	0.665301	6.7976			0.345978	3.52426	0.579624	5.91909	0.633464	6.46468		
0.234951	2.37661	0.200635	2.03287	0.470105	4.73527	0.598192	6.04244	0.667972	6.78107			0.346709	3.50909	0.581267	5.89778	0.636051	6.44946		
0.23602	2.37225	0.202024	2.03391	0.470746	4.71171	0.601888	6.04119	0.670626	6.76458			0.347443	3.49416	0.582837	5.876	0.638707	6.43511		
0.237093	2.36798	0.203413	2.03493	0.471384	4.68842	0.605583	6.03994	0.673262	6.74812			0.348182	3.47946	0.584338	5.85381	0.641427	6.4216		
0.238169	2.36379	0.204801	2.03594	0.472022	4.66542	0.609277	6.03868	0.675878	6.73166			0.348925	3.46498	0.585774	5.83124	0.644207	6.40886		
0.239248	2.35969	0.20619	2.03693	0.472658	4.64268	0.612969	6.03743	0.678472	6.7152			0.349672	3.45073	0.587148	5.80835	0.647046	6.39685		
0.240331	2.35568	0.207578	2.03791	0.473294	4.62023	0.616658	6.03616	0.681042	6.69871			0.350423	3.4367	0.588465	5.78518	0.649937	6.38551		
0.241417	2.35175	0.208965	2.03888	0.473929	4.59804	0.620344	6.03488	0.683587	6.68217			0.351179	3.42288	0.589728	5.76178	0.652879	6.3748		
0.242507	2.34789	0.210353	2.03983	0.474564	4.57612	0.624027	6.03358	0.686105	6.66557			0.351939	3.40926	0.590941	5.73817	0.655866	6.36467		
0.2436	2.34412	0.21174	2.04077	0.475199	4.55446	0.627705	6.03226	0.688593	6.64889			0.352702	3.39586	0.592108	5.71441	0.658897	6.35507		
0.244696	2.34042	0.213128	2.04169	0.475834	4.53307	0.631379	6.03092	0.69105	6.63212			0.35347	3.38266	0.593233	5.69054	0.661966	6.34596		
0.245795	2.3368	0.214515	2.0426	0.476469	4.51193	0.635048	6.02953	0.693475	6.61524			0.354243	3.36965	0.594319	5.66657	0.665072	6.33731		
0.246897	2.33325	0.215901	2.0435	0.477104	4.49105	0.63871	6.02811	0.695866	6.59823			0.355019	3.35684	0.595368	5.64255	0.668211	6.32908		
0.248002	2.32977	0.217288	2.04439	0.47774	4.47043	0.642366	6.02663	0.698221	6.5811			0.3558	3.34422	0.596384	5.6185	0.67138	6.32123		
0.249111	2.32636	0.218674	2.04526	0.478376	4.45005	0.646013	6.02511	0.700539	6.56382			0.356584	3.33179	0.597369	5.59445	0.674578	6.31374		
0.250222	2.32302	0.22006	2.04612	0.479014	4.42991	0.649652	6.02351	0.70282	6.5464			0.357373	3.31954	0.598326	5.57042	0.677801	6.30657		
0.251336	2.31974	0.221446	2.04697	0.479652	4.41002	0.653281	6.02185	0.705062	6.52883			0.358166	3.30748	0.599257	5.54642	0.681047	6.29971		
0.252453	2.31653	0.222832	2.04781	0.480291	4.39037	0.656898	6.02009	0.707266	6.5111			0.358962	3.29559	0.600164	5.52249	0.684315	6.29312		
0.253573	2.31338	0.224217	2.04863	0.480932	4.37095	0.660502	6.01824	0.709432	6.49323			0.359763	3.28387	0.601049	5.49864	0.687602	6.28679		
0.254696	2.31029	0.225603	2.04945	0.481574	4.35177	0.664092	6.01628	0.711559	6.47522			0.360568	3.27233	0.601914	5.47487	0.690908	6.28069		
0.255821	2.30726	0.226988	2.05025	0.482217	4.33282	0.667664	6.01418	0.71365	6.45708			0.361377	3.26095	0.60276	5.45121	0.69423	6.27481		
0.256949	2.3043	0.228373	2.05104	0.482861	4.31409	0.671217	6.01194	0.715705	6.43883			0.36219	3.24974	0.603589	5.42766	0.697566	6.26913		
0.25808	2.30138	0.229757	2.05182	0.483507	4.29559	0.674749	6.00952	0.717727	6.42049			0.363006	3.23869	0.604402	5.40424	0.700917	6.26364		
0.259214	2.29853	0.231142	2.05259	0.484155	4.27731	0.678254	6.00691	0.71972	6.40209			0.363827	3.2278	0.6052	5.38095	0.704279	6.25832		
0.26035	2.29573	0.232526	2.05335	0.484804	4.25925	0.681731	6.00407	0.721686	6.38367			0.364652	3.21706	0.605985	5.3578	0.707653	6.25316		
0.261488	2.29298	0.23391	2.0541	0.485455	4.2414	0.685174	6.00097					0.36548	3.20648	0.606758	5.3348	0.711037	6.24814		
0.262629	2.29028	0.235294	2.05484	0.486108	4.22377	0.688579	5.99757					0.366313	3.19605	0.607519	5.31195	0.71443	6.24326		
0.263773	2.28764	0.236678	2.05557	0.486763	4.20634	0.691939	5.99381					0.367149	3.18576	0.60827	5.28927	0.717831	6.2385		
0.264919	2.28504	0.238061	2.0563	0.487419	4.18912	0.695247	5.98966					0.367989	3.17563	0.609011	5.26674	0.72124	6.23386		
0.266067	2.28249	0.239445	2.05701	0.488078	4.1721	0.698496	5.98504					0.368833	3.16563	0.609743	5.24439				
0.267218	2.28	0.240828	2.05771	0.488739	4.15529	0.701676	5.97988					0.369681	3.15578	0.610467	5.22221				
0.268371	2.27754	0.242211	2.0584	0.489402	4.13867	0.704778	5.97412					0.370532	3.14606	0.611183	5.2002				
0.269526	2.27514	0.243594	2.05909	0.490067	4.12224	0.707791	5.96766					0.371387	3.13648	0.611892	5.17836				
0.270684	2.27278	0.244976	2.05976	0.490734	4.10601	0.710704	5.96044					0.372246	3.12703	0.612594	5.15671				
0.271844	2.27046	0.246359	2.06043	0.491403	4.08997	0.713506	5.95236					0.373109	3.11771	0.613291	5.13523				
0.273006	2.26818	0.247741	2.06109	0.492075	4.07411	0.716186	5.94337					0.373975	3.10852	0.613982	5.11394				
0.27417	2.26595	0.249123	2.06174	0.492749	4.05844	0.718737	5.93339					0.374845	3.09946	0.614668	5.09282				
0.275336	2.26375	0.250505	2.06238	0.493425	4.04295	0.721152	5.9224					0.375718	3.09052	0.615349	5.07189				
0.276505	2.2616	0.251887	2.06301	0.494104	4.02764							0.376596	3.0817	0.616026	5.05114				
0.277675	2.25948	0.253268	2.06364	0.494785	4.01251							0.377476	3.07301	0.616699	5.03057				
0.278848	2.25741	0.25465	2.06426	0.495469	3.99755							0.378361	3.06443	0.617369	5.01019				
0.280022	2.25537	0.256031	2.06487	0.496154	3.98276							0.379248	3.05596	0.618035	4.98998				
0.281199	2.25337	0.257412	2.06547	0.496843	3.96814							0.38014	3.04761	0.618699	4.96996				
0.282377	2.2514	0.258793	2.06607	0.497534	3.95369							0.381034	3.03938	0.61936	4.95012				
0.283557	2.24947	0.260173	2.06665	0.498227	3.9394							0.381933	3.03125	0.620018	4.93046				
0.28474	2.24757	0.261554	2.06723	0.498924	3.92528							0.382834	3.02323	0.620674	4.91098				
0.285924	2.24571	0.262934	2.06781	0.499622	3.91131							0.38374	3.01532	0.621328	4.89168				
0.28711	2.24387	0.264315	2.06838	0.500323	3.8975							0.384648	3.00751	0.621981	4.87255				
0.288298	2.24208	0.265695	2.06894	0.501027	3.88385							0.38556	2.99981	0.622632	4.8536				
0.289487	2.24031	0.267075	2.06949	0.501734	3.87035							0.386475	2.9922	0.623282	4.83483				
0.290679	2.23857	0.268454	2.07003	0.502442	3.857							0.387394	2.9847	0.62393	4.81623				
0.291872	2.23686	0.269834	2.07057	0.503154	3.8438							0.388316	2.97729	0.624578	4.79781				
0.293067	2.23519	0.271213	2.07111	0.503868	3.83075							0.389241	2.96999	0.625224	4.77955				
0.294263	2.23354	0.272593	2.07164	0.504585	3.81784							0.390169	2.96277	0.62587	4.76147				
0.295461	2.23192	0.273972	2.07216	0.505305	3.80508							0.391101	2.95565	0.626516	4.74356				
0.296661	2.23033	0.275351	2.07267	0.506027	3.79246							0.392035	2.94862	0.627161	4.72581				
0.297863	2.22876	0.276729	2.07318	0.506752	3.77997							0.392973	2.94168	0.627805	4.70823				
0.299066	2.22723	0.278108	2.07368	0.50748	3.76763							0.393915	2.93483	0.62845	4.69082				
0.30027	2.22571	0.279487	2.07418	0.50821	3.75542							0.394859	2.92807	0.629094	4.67356				
0.301477	2.22423	0.280865	2.07467	0.508943	3.74334							0.395806	2.9214	0.629739	4.65647				
0.302684	2.22277	0.282243	2.07516	0.509679	3.73139							0.396757	2.9148	0.630384	4.63955				
0.303894	2.22133	0.283621	2.07564	0.510417	3.71957							0.39771	2.9083	0.631029	4.62277				
0.305105	2.21992	0.284999	2.07611	0.511158	3.70789							0.398667	2.90187	0.631674	4.60616				
0.306317	2.21853	0.286377	2.07658	0.511902	3.69632							0.399626	2.89553	0.63232	4.5897				
0.30753	2.21716	0.287754	2.07704	0.512649	3.68488							0.400589	2.88926	0.632966	4.5734				
0.308746	2.21582	0.289132	2.0775	0.513398	3.67357							0.401555	2.88307	0.633613	4.55725				
0.309962	2.2145	0.290509	2.07795	0.51415	3.66238							0.402523	2.87696	0.634261	4.54125				
0.31118	2.2132	0.291886	2.0784	0.514904	3.6513							0.403495	2.87093	0.634909	4.5254				
0.312399	2.21192	0.293263	2.07885	0.515662	3.64035							0.404469	2.86497	0.635558	4.50969				
0.31362	2.21067	0.29464	2.07928	0.516422	3.62951							0.405446	2.85908	0.636208	4.49414				
0.314842	2.20943	0.296016	2.07972	0.517184	3.61878							0.406426	2.85327	0.636859	4.47873				
0.316066	2.20822	0.297393	2.08014	0.51795	3.60817							0.407409	2.84753	0.637511	4.46346				
0.31729	2.20702	0.298769	2.08057	0.518718	3.59767							0.408395	2.84186	0.638164	4.44833				
0.318516	2.20584	0.300146	2.08099	0.519489	3.58728							0.409384	2.83625	0.638818	4.43335				
0.319743	2.20469	0.301522	2.0814	0.520262	3.577							0.410375	2.83072	0.639473	4.4185				
0.320972	2.20355	0.302898	2.08181	0.521038	3.56682							0.411369	2.82525	0.64013	4.40379				
0.322202	2.20243	0.304273	2.08221	0.521817	3.55676							0.412366	2.81985	0.640787	4.38922				
0.323433	2.20132	0.305649	2.08261	0.522599	3.54679							0.413366	2.81451	0.641446	4.37478				
0.324665	2.20024	0.307025	2.08301	0.523383	3.53693							0.414368	2.80924	0.642107	4.36048				
0.325898	2.19917	0.3084	2.0834	0.52417	3.52718							0.415373	2.80403	0.642768	4.3463				
0.327133	2.19812	0.309775	2.08379	0.524959	3.51752							0.416381	2.79888	0.643431	4.33226				
0.328368	2.19709	0.31115	2.08417	0.525751	3.50796							0.417391	2.7938	0.644096	4.31834				
0.329605	2.19607	0.312525	2.08455	0.526546	3.4985							0.418404	2.78877	0.644762	4.30456				
0.330843	2.19507	0.3139	2.08493	0.527343	3.48914							0.41942	2.78381	0.645429	4.29089				
0.332082	2.19408	0.315275	2.0853	0.528143	3.47987							0.420438	2.7789	0.646098	4.27736				
0.333323	2.19311	0.316649	2.08566	0.528946	3.47069							0.421459	2.77405	0.646769	4.26394				
0.334564	2.19216	0.318024	2.08603	0.529751	3.46161							0.422482	2.76926	0.647441	4.25065				
0.335806	2.19122	0.319398	2.08639	0.530559	3.45262							0.423508	2.76452	0.648115	4.23748				
0.33705	2.19029	0.320772	2.08674	0.53137	3.44372							0.424536	2.75984	0.64879	4.22443				
0.338294	2.18938	0.322146	2.08709	0.532183	3.43491							0.425567	2.75521	0.649467	4.21149				
0.33954	2.18849	0.32352	2.08744	0.532999	3.42619							0.4266	2.75064	0.650146	4.19868				
0.340786	2.1876	0.324894	2.08778	0.533817	3.41756							0.427636	2.74612	0.650827	4.18597				
0.342034	2.18673	0.326268	2.08812	0.534638	3.40901							0.428674	2.74165	0.651509	4.17338				
0.343283	2.18588	0.327641	2.08846	0.535461	3.40055							0.429715	2.73723	0.652193	4.16091				
0.344532	2.18503	0.329014	2.08879	0.536287	3.39217							0.430757	2.73286	0.652879	4.14854				
0.345783	2.1842	0.330388	2.08912	0.537116	3.38387							0.431803	2.72855	0.653566	4.13629				
0.347034	2.18339	0.331761	2.08945	0.537947	3.37566							0.43285	2.72428	0.654256	4.12415				
0.348287	2.18258	0.333134	2.08977	0.53878	3.36752							0.4339	2.72006	0.654947	4.11211				
0.34954	2.18179	0.334506	2.09009	0.539617	3.35947							0.434953	2.71589	0.65564	4.10018				
0.350794	2.18101	0.335879	2.09041	0.540455	3.3515							0.436007	2.71177	0.656335	4.08835				
0.352049	2.18024	0.337252	2.09072	0.541296	3.3436							0.437064	2.70769	0.657031	4.07663				
0.353306	2.17948	0.338624	2.09103	0.54214	3.33578							0.438124	2.70366	0.65773	4.06502				
0.354563	2.17874	0.339996	2.09134	0.542986	3.32803							0.439185	2.69967	0.65843	4.0535				
0.35582	2.178	0.341368	2.09164	0.543835	3.32036							0.440249	2.69573	0.659133	4.04209				
0.357079	2.17728	0.34274	2.09194	0.544686	3.31277							0.441315	2.69183	0.659837	4.03077				
0.358339	2.17656	0.344112	2.09224	0.545539	3.30524							0.442383	2.68798	0.660543	4.01956				
0.359599	2.17586	0.345484	2.09253	0.546395	3.29779							0.443453	2.68417	0.661251	4.00844				
0.360861	2.17517	0.346856	2.09282	0.547254	3.29041							0.444525	2.6804	0.661961	3.99742				
0.362123	2.17449	0.348227	2.09311	0.548115	3.28311							0.4456	2.67667	0.662673	3.98649				
0.363386	2.17382	0.349599	2.09339	0.548978	3.27587							0.446677	2.67298	0.663387	3.97566				
0.36465	2.17315	0.35097	2.09368	0.549844	3.2687							0.447756	2.66934	0.664103	3.96492				
0.365914	2.1725	0.352341	2.09396	0.550712	3.26159							0.448837	2.66573	0.664821	3.95427				
0.36718	2.17186	0.353712	2.09423	0.551582	3.25456							0.44992	2.66216	0.66554	3.94372				
0.368446	2.17123	0.355083	2.09451	0.552455	3.24759							0.451005	2.65863	0.666262	3.93326				
0.369713	2.1706	0.356454	2.09478	0.55333	3.24069							0.452092	2.65514	0.666986	3.92288				
0.37098	2.16999	0.357824	2.09504	0.554208	3.23385							0.453181	2.65169	0.667712	3.9126				
0.372249	2.16938	0.359195	2.09531	0.555088	3.22707							0.454273	2.64828	0.668439	3.9024				
0.373518	2.16878	0.360565	2.09557	0.55597	3.22036							0.455366	2.6449	0.669169	3.89229				
0.374788	2.16819	0.361935	2.09583	0.556854	3.21371							0.456461	2.64156	0.669901	3.88226				
0.376059	2.16762	0.363305	2.09609	0.557741	3.20712							0.457559	2.63825	0.670634	3.87232				
0.37733	2.16704	0.364675	2.09634	0.558631	3.2006							0.458658	2.63498	0.67137	3.86246				
0.378602	2.16648	0.366045	2.0966	0.559522	3.19413							0.459759	2.63174	0.672108	3.85269				
0.379875	2.16592	0.367415	2.09685	0.560416	3.18772							0.460862	2.62854	0.672847	3.843				
0.381148	2.16538	0.368785	2.09709	0.561312	3.18138							0.461967	2.62537	0.673589	3.83338				
0.382422	2.16484	0.370154	2.09734	0.56221	3.17509							0.463074	2.62224	0.674333	3.82385				
0.383697	2.16431	0.371524	2.09758	0.563111	3.16885							0.464183	2.61914	0.675078	3.8144				
0.384973	2.16378	0.372893	2.09782	0.564014	3.16268							0.465294	2.61607	0.675826	3.80503				
0.386249	2.16326	0.374262	2.09806	0.564919	3.15656							0.466406	2.61303	0.676576	3.79573				
0.387526	2.16275	0.375631	2.09829	0.565826	3.1505							0.467521	2.61003	0.677328	3.78652				
0.388803	2.16225	0.377	2.09853	0.566736	3.14449							0.468637	2.60706	0.678081	3.77737				
0.390081	2.16176	0.378369	2.09876	0.567648	3.13853							0.469755	2.60411	0.678837	3.76831				
0.39136	2.16127	0.379737	2.09898	0.568562	3.13263							0.470875	2.6012	0.679595	3.75932				
0.39264	2.16079	0.381106	2.09921	0.569478	3.12678							0.471997	2.59832	0.680355	3.7504				
0.39392	2.16031	0.382474	2.09943	0.570396	3.12099							0.473121	2.59547	0.681116	3.74155				
0.3952	2.15984	0.383843	2.09966	0.571317	3.11524							0.474246	2.59265	0.68188	3.73278				
0.396482	2.15938	0.385211	2.09987	0.572239	3.10955							0.475373	2.58986	0.682646	3.72408				
0.397763	2.15893	0.386579	2.10009	0.573164	3.10391							0.476502	2.58709	0.683414	3.71545				
0.399046	2.15848	0.387947	2.10031	0.574091	3.09832							0.477632	2.58435	0.684184	3.70689				
0.400329	2.15803	0.389315	2.10052	0.57502	3.09277							0.478765	2.58165	0.684955	3.69839				
0.401612	2.1576	0.390682	2.10073	0.575951	3.08728							0.479899	2.57897	0.685729	3.68997				
0.402897	2.15717	0.39205	2.10094	0.576885	3.08184							0.481034	2.57631	0.686505	3.68162				
0.404181	2.15674	0.393417	2.10115	0.57782	3.07644							0.482172	2.57369	0.687283	3.67333				
0.405467	2.15632	0.394785	2.10135	0.578758	3.07109							0.483311	2.57109	0.688063	3.66511				
0.406752	2.15591	0.396152	2.10155	0.579697	3.06579							0.484451	2.56851	0.688844	3.65695				
0.408039	2.1555	0.397519	2.10175	0.580639	3.06053							0.485594	2.56597	0.689628	3.64886				
0.409326	2.1551	0.398886	2.10195	0.581582	3.05532							0.486738	2.56344	0.690414	3.64084				
0.410613	2.15471	0.400253	2.10215	0.582528	3.05015							0.487883	2.56095	0.691202	3.63287				
0.411901	2.15431	0.40162	2.10235	0.583476	3.04503							0.489031	2.55848	0.691991	3.62497				
0.41319	2.15393	0.402986	2.10254	0.584426	3.03995							0.490179	2.55603	0.692783	3.61714				
0.414479	2.15355	0.404353	2.10273	0.585378	3.03492							0.49133	2.55361	0.693577	3.60936				
0.415768	2.15317	0.405719	2.10292	0.586331	3.02993							0.492482	2.55121	0.694372	3.60165				
0.417058	2.1528	0.407086	2.10311	0.587287	3.02498							0.493635	2.54883	0.69517	3.594				
0.418349	2.15244	0.408452	2.10329	0.588245	3.02008							0.49479	2.54648	0.69597	3.5864				
0.41964	2.15208	0.409818	2.10348	0.589205	3.01522							0.495947	2.54415	0.696771	3.57887				
0.420932	2.15172	0.411184	2.10366	0.590167	3.01039							0.497105	2.54185	0.697575	3.5714				
0.422224	2.15137	0.41255	2.10384	0.59113	3.00561							0.498265	2.53956	0.69838	3.56398				
0.423516	2.15103	0.413916	2.10402	0.592096	3.00087							0.499426	2.5373	0.699187	3.55662				
0.424809	2.15068	0.415281	2.1042	0.593064	2.99617							0.500589	2.53506	0.699997	3.54932				
0.426103	2.15035	0.416647	2.10437	0.594033	2.99151							0.501753	2.53285	0.700808	3.54207				
0.427397	2.15001	0.418012	2.10454	0.595005	2.98689							0.502919	2.53065	0.701621	3.53488				
0.428691	2.14969	0.419377	2.10472	0.595978	2.98231							0.504086	2.52848	0.702436	3.52775				
0.429986	2.14936	0.420743	2.10489	0.596953	2.97777							0.505255	2.52633	0.703254	3.52067				
0.431281	2.14904	0.422108	2.10506	0.59793	2.97326							0.506425	2.52419	0.704073	3.51365				
0.432577	2.14873	0.423473	2.10522	0.59891	2.96879							0.507596	2.52208	0.704893	3.50667				
0.433873	2.14842	0.424838	2.10539	0.599891	2.96436							0.508769	2.51999	0.705716	3.49976				
0.43517	2.14811	0.426202	2.10555	0.600873	2.95997							0.509943	2.51792	0.706541	3.49289				
0.436467	2.14781	0.427567	2.10571	0.601858	2.95561							0.511119	2.51587	0.707368	3.48608				
0.437764	2.14751	0.428932	2.10588	0.602844	2.95129							0.512296	2.51384	0.708196	3.47932				
0.439062	2.14721	0.430296	2.10604	0.603833	2.947							0.513475	2.51183	0.709027	3.47261				
0.44036	2.14692	0.43166	2.10619	0.604823	2.94275							0.514655	2.50983	0.709859	3.46595				
0.441659	2.14664	0.433025	2.10635	0.605815	2.93853							0.515836	2.50786	0.710693	3.45934				
0.442958	2.14635	0.434389	2.1065	0.606809	2.93435							0.517019	2.5059	0.711529	3.45278				
0.444258	2.14607	0.435753	2.10666	0.607804	2.93021							0.518203	2.50397	0.712367	3.44627				
0.445558	2.1458	0.437116	2.10681	0.608802	2.92609							0.519388	2.50205	0.713207	3.43981				
0.446858	2.14552	0.43848	2.10696	0.609801	2.92201							0.520575	2.50015	0.714049	3.43339				
0.448159	2.14525	0.439844	2.10711	0.610802	2.91797							0.521762	2.49826	0.714892	3.42703				
0.44946	2.14499	0.441207	2.10726	0.611805	2.91395							0.522952	2.4964	0.715738	3.42071				
0.450761	2.14473	0.442571	2.1074	0.612809	2.90997							0.524142	2.49455	0.716585	3.41444				
0.452063	2.14447	0.443934	2.10755	0.613815	2.90602							0.525334	2.49272	0.717434	3.40821				
0.453366	2.14421	0.445298	2.10769	0.614823	2.9021							0.526527	2.4909	0.718285	3.40203				
0.454668	2.14396	0.446661	2.10783	0.615833	2.89822							0.527722	2.48911	0.719138	3.3959				
0.455971	2.14371	0.448024	2.10797	0.616844	2.89436							0.528917	2.48733	0.719993	3.38981				
0.457275	2.14347	0.449387	2.10811	0.617857	2.89054							0.530114	2.48556	0.720849	3.38377				
0.458578	2.14322	0.45075	2.10825	0.618872	2.88674							0.531313	2.48382						
0.459882	2.14298	0.452112	2.10839	0.619889	2.88298							0.532512	2.48208						
0.461187	2.14275	0.453475	2.10852	0.620907	2.87925							0.533713	2.48037						
0.462492	2.14251	0.454837	2.10866	0.621927	2.87554							0.534915	2.47867						
0.463797	2.14228	0.4562	2.10879	0.622948	2.87187							0.536118	2.47698						
0.465102	2.14206	0.457562	2.10892	0.623972	2.86822							0.537322	2.47532						
0.466408	2.14183	0.458924	2.10905	0.624996	2.8646							0.538527	2.47366						
0.467714	2.14161	0.460286	2.10918	0.626023	2.86102							0.539734	2.47202						
0.469021	2.14139	0.461648	2.10931	0.627051	2.85746							0.540942	2.4704						
0.470328	2.14117	0.46301	2.10944	0.628081	2.85392							0.542151	2.46879						
0.471635	2.14096	0.464372	2.10956	0.629112	2.85042							0.543361	2.4672						
0.472942	2.14075	0.465734	2.10969	0.630145	2.84694							0.544573	2.46562						
0.47425	2.14054	0.467095	2.10981	0.63118	2.84349							0.545785	2.46405						
0.475558	2.14034	0.468457	2.10993	0.632216	2.84007							0.546999	2.4625						
0.476867	2.14013	0.469818	2.11006	0.633254	2.83667							0.548213	2.46096						
0.478175	2.13993	0.47118	2.11017	0.634293	2.8333							0.549429	2.45943						
0.479484	2.13973	0.472541	2.11029	0.635334	2.82995							0.550646	2.45792						
0.480794	2.13954	0.473902	2.11041	0.636377	2.82663							0.551864	2.45643						
0.482103	2.13935	0.475263	2.11053	0.637421	2.82334							0.553084	2.45494						
0.483413	2.13916	0.476624	2.11064	0.638466	2.82007							0.554304	2.45347						
0.484724	2.13897	0.477985	2.11076	0.639513	2.81683							0.555525	2.45201						
0.486034	2.13878	0.479345	2.11087	0.640562	2.81361							0.556748	2.45057						
0.487345	2.1386	0.480706	2.11098	0.641612	2.81041							0.557972	2.44914						
0.488656	2.13842	0.482066	2.11109	0.642664	2.80724							0.559196	2.44772						
0.489968	2.13824	0.483427	2.11121	0.643717	2.8041							0.560422	2.44631						
0.491279	2.13806	0.484787	2.11131	0.644772	2.80097							0.561649	2.44491						
0.492591	2.13788	0.486147	2.11142	0.645828	2.79787							0.562876	2.44353						
0.493903	2.13771	0.487507	2.11153	0.646886	2.7948							0.564105	2.44216						
0.495216	2.13754	0.488867	2.11164	0.647945	2.79175							0.565335	2.4408						
0.496529	2.13737	0.490227	2.11174	0.649005	2.78872							0.566566	2.43946						
0.497842	2.13721	0.491587	2.11185	0.650067	2.78571							0.567798	2.43812						
0.499155	2.13704	0.492947	2.11195	0.651131	2.78273							0.569031	2.4368						
0.500469	2.13688	0.494307	2.11205	0.652196	2.77976							0.570265	2.43548						
0.501782	2.13672	0.495666	2.11215	0.653262	2.77682							0.571499	2.43418						
0.503097	2.13656	0.497026	2.11225	0.65433	2.77391							0.572735	2.43289						
0.504411	2.13641	0.498385	2.11235	0.6554	2.77101							0.573972	2.43161						
0.505725	2.13625	0.499744	2.11245	0.65647	2.76813							0.57521	2.43035						
0.50704	2.1361	0.501103	2.11255	0.657542	2.76528							0.576449	2.42909						
0.508355	2.13595	0.502462	2.11264	0.658616	2.76245							0.577689	2.42784						
0.509671	2.1358	0.503821	2.11274	0.659691	2.75964							0.578929	2.42661						
0.510986	2.13565	0.50518	2.11283	0.660767	2.75684							0.580171	2.42538						
0.512302	2.13551	0.506539	2.11293	0.661845	2.75407							0.581414	2.42417						
0.513618	2.13536	0.507898	2.11302	0.662924	2.75132							0.582657	2.42296						
0.514935	2.13522	0.509256	2.11311	0.664004	2.74859							0.583902	2.42177						
0.516251	2.13508	0.510615	2.11321	0.665086	2.74588							0.585147	2.42059						
0.517568	2.13494	0.511973	2.1133	0.666169	2.74319							0.586394	2.41941						
0.518885	2.1348	0.513332	2.11339	0.667254	2.74052							0.587641	2.41825						
0.520202	2.13467	0.51469	2.11347	0.66834	2.73787							0.588889	2.41709						
0.52152	2.13454	0.516048	2.11356	0.669427	2.73523							0.590138	2.41595						
0.522837	2.1344	0.517406	2.11365	0.670515	2.73262							0.591388	2.41481						
0.524155	2.13427	0.518764	2.11374	0.671605	2.73002							0.592639	2.41369						
0.525473	2.13414	0.520122	2.11382	0.672696	2.72745							0.593891	2.41257						
0.526791	2.13402	0.52148	2.11391	0.673789	2.72489							0.595143	2.41146						
0.52811	2.13389	0.522838	2.11399	0.674883	2.72235							0.596397	2.41037						
0.529429	2.13377	0.524195	2.11407	0.675978	2.71983							0.597651	2.40928						
0.530748	2.13364	0.525553	2.11416	0.677074	2.71733							0.598906	2.4082						
0.532067	2.13352	0.52691	2.11424	0.678172	2.71484							0.600162	2.40713						
0.533386	2.1334	0.528268	2.11432	0.67927	2.71237							0.601419	2.40606						
0.534706	2.13328	0.529625	2.1144	0.680371	2.70992							0.602677	2.40501						
0.536026	2.13317	0.530982	2.11448	0.681472	2.70749							0.603936	2.40397						
0.537346	2.13305	0.532339	2.11456	0.682575	2.70507							0.605195	2.40293						
0.538666	2.13294	0.533697	2.11464	0.683679	2.70267							0.606455	2.4019						
0.539986	2.13282	0.535053	2.11471	0.684784	2.70029							0.607716	2.40088						
0.541307	2.13271	0.53641	2.11479	0.68589	2.69792							0.608978	2.39987						
0.542628	2.1326	0.537767	2.11486	0.686998	2.69557							0.610241	2.39887						
0.543949	2.13249	0.539124	2.11494	0.688107	2.69324							0.611505	2.39787						
0.54527	2.13239	0.54048	2.11501	0.689217	2.69093							0.612769	2.39689						
0.546591	2.13228	0.541837	2.11509	0.690328	2.68863							0.614034	2.39591						
0.547913	2.13217	0.543193	2.11516	0.691441	2.68634							0.6153	2.39494						
0.549234	2.13207	0.54455	2.11523	0.692554	2.68407							0.616567	2.39398						
0.550556	2.13197	0.545906	2.1153	0.693669	2.68182							0.617834	2.39302						
0.551878	2.13187	0.547262	2.11538	0.694785	2.67958							0.619102	2.39207						
0.5532	2.13176	0.548618	2.11545	0.695903	2.67736							0.620371	2.39113						
0.554523	2.13167	0.549974	2.11552	0.697021	2.67516							0.621641	2.3902						
0.555845	2.13157	0.55133	2.11559	0.698141	2.67296							0.622912	2.38928						
0.557168	2.13147	0.552686	2.11565	0.699261	2.67079							0.624183	2.38836						
0.558491	2.13137	0.554042	2.11572	0.700383	2.66863							0.625455	2.38745						
0.559814	2.13128	0.555398	2.11579	0.701506	2.66648							0.626728	2.38655						
0.561138	2.13119	0.556753	2.11585	0.702631	2.66435							0.628002	2.38565						
0.562461	2.13109	0.558109	2.11592	0.703756	2.66223							0.629276	2.38476						
0.563785	2.131	0.559464	2.11599	0.704883	2.66013							0.630551	2.38388						
0.565108	2.13091	0.56082	2.11605	0.70601	2.65804							0.631827	2.383						
0.566432	2.13082	0.562175	2.11611	0.707139	2.65597							0.633103	2.38214						
0.567757	2.13073	0.56353	2.11618	0.708269	2.6539							0.63438	2.38128						
0.569081	2.13065	0.564886	2.11624	0.7094	2.65186							0.635658	2.38042						
0.570405	2.13056	0.566241	2.1163	0.710532	2.64983							0.636937	2.37957						
0.57173	2.13048	0.567596	2.11636	0.711665	2.64781							0.638216	2.37873						
0.573055	2.13039	0.568951	2.11643	0.7128	2.6458							0.639496	2.3779						
0.57438	2.13031	0.570305	2.11649	0.713935	2.64381							0.640777	2.37707						
0.575705	2.13023	0.57166	2.11655	0.715071	2.64183							0.642058	2.37625						
0.57703	2.13014	0.573015	2.11661	0.716209	2.63986							0.643341	2.37543						
0.578355	2.13006	0.57437	2.11666	0.717348	2.63791							0.644623	2.37463						
0.579681	2.12998	0.575724	2.11672	0.718487	2.63597							0.645907	2.37382						
0.581006	2.12991	0.577079	2.11678	0.719628	2.63405							0.647191	2.37303						
0.582332	2.12983	0.578433	2.11684	0.72077	2.63213							0.648476	2.37224						
0.583658	2.12975	0.579787	2.11689									0.649761	2.37145						
0.584984	2.12967	0.581142	2.11695									0.651048	2.37067						
0.58631	2.1296	0.582496	2.11701									0.652334	2.3699						
0.587637	2.12953	0.58385	2.11706									0.653622	2.36914						
0.588963	2.12945	0.585204	2.11712									0.65491	2.36838						
0.59029	2.12938	0.586558	2.11717									0.656199	2.36762						
0.591617	2.12931	0.587912	2.11722									0.657488	2.36687						
0.592944	2.12924	0.589266	2.11728									0.658778	2.36613						
0.594271	2.12917	0.590619	2.11733									0.660069	2.36539						
0.595598	2.1291	0.591973	2.11738									0.66136	2.36466						
0.596925	2.12903	0.593327	2.11743									0.662652	2.36393						
0.598253	2.12896	0.59468	2.11748									0.663945	2.36321						
0.59958	2.12889	0.596034	2.11754									0.665238	2.3625						
0.600908	2.12883	0.597387	2.11759									0.666532	2.36179						
0.602236	2.12876	0.59874	2.11763									0.667826	2.36108						
0.603564	2.1287	0.600094	2.11768									0.669121	2.36038						
0.604892	2.12863	0.601447	2.11773									0.670417	2.35969						
0.60622	2.12857	0.6028	2.11778									0.671713	2.359						
0.607549	2.12851	0.604153	2.11783									0.67301	2.35832						
0.608877	2.12845	0.605506	2.11788									0.674307	2.35764						
0.610206	2.12838	0.606859	2.11792									0.675605	2.35696						
0.611534	2.12832	0.608212	2.11797									0.676904	2.3563						
0.612863	2.12826	0.609565	2.11802									0.678203	2.35563						
0.614192	2.1282	0.610917	2.11806									0.679503	2.35497						
0.615521	2.12815	0.61227	2.11811									0.680803	2.35432						
0.61685	2.12809	0.613623	2.11815									0.682104	2.35367						
0.61818	2.12803	0.614975	2.1182									0.683406	2.35303						
0.619509	2.12797	0.616327	2.11824									0.684708	2.35239						
0.620839	2.12792	0.61768	2.11828									0.68601	2.35175						
0.622168	2.12786	0.619032	2.11833									0.687313	2.35112						
0.623498	2.12781	0.620384	2.11837									0.688617	2.3505						
0.624828	2.12775	0.621737	2.11841									0.689921	2.34988						
0.626158	2.1277	0.623089	2.11845									0.691226	2.34926						
0.627488	2.12765	0.624441	2.1185									0.692532	2.34865						
0.628818	2.1276	0.625793	2.11854									0.693837	2.34804						
0.630148	2.12754	0.627145	2.11858									0.695144	2.34744						
0.631479	2.12749	0.628497	2.11862									0.696451	2.34684						
0.632809	2.12744	0.629849	2.11866									0.697758	2.34624						
0.63414	2.12739	0.6312	2.1187									0.699066	2.34565						
0.635471	2.12734	0.632552	2.11874									0.700375	2.34507						
0.636801	2.12729	0.633904	2.11878									0.701684	2.34449						
0.638132	2.12725	0.635255	2.11881									0.702994	2.34391						
0.639463	2.1272	0.636607	2.11885									0.704304	2.34333						
0.640795	2.12715	0.637958	2.11889									0.705614	2.34277						
0.642126	2.1271	0.63931	2.11893									0.706925	2.3422						
0.643457	2.12706	0.640661	2.11896									0.708237	2.34164						
0.644788	2.12701	0.642012	2.119									0.709549	2.34108						
0.64612	2.12697	0.643363	2.11904									0.710862	2.34053						
0.647451	2.12692	0.644715	2.11907									0.712175	2.33998						
0.648783	2.12688	0.646066	2.11911									0.713489	2.33943						
0.650115	2.12683	0.647417	2.11914									0.714803	2.33889						
0.651447	2.12679	0.648768	2.11918									0.716118	2.33836						
0.652779	2.12675	0.650119	2.11921									0.717433	2.33782						
0.654111	2.1267	0.651469	2.11925									0.718748	2.33729						
0.655443	2.12666	0.65282	2.11928									0.720064	2.33677						
0.656775	2.12662	0.654171	2.11932																
0.658107	2.12658	0.655522	2.11935																
0.65944	2.12654	0.656872	2.11938																
0.660772	2.1265	0.658223	2.11942																
0.662105	2.12646	0.659573	2.11945																
0.663438	2.12642	0.660924	2.11948																
0.66477	2.12638	0.662274	2.11951																
0.666103	2.12634	0.663625	2.11954																
0.667436	2.12631	0.664975	2.11957																
0.668769	2.12627	0.666325	2.11961																
0.670102	2.12623	0.667675	2.11964																
0.671435	2.12619	0.669026	2.11967																
0.672769	2.12616	0.670376	2.1197																
0.674102	2.12612	0.671726	2.11973																
0.675435	2.12609	0.673076	2.11976																
0.676769	2.12605	0.674426	2.11978																
0.678102	2.12602	0.675776	2.11981																
0.679436	2.12598	0.677125	2.11984																
0.68077	2.12595	0.678475	2.11987																
0.682103	2.12592	0.679825	2.1199																
0.683437	2.12588	0.681175	2.11993																
0.684771	2.12585	0.682524	2.11995																
0.686105	2.12582	0.683874	2.11998																
0.687439	2.12578	0.685223	2.12001																
0.688773	2.12575	0.686573	2.12004																
0.690108	2.12572	0.687922	2.12006																
0.691442	2.12569	0.689272	2.12009																
0.692776	2.12566	0.690621	2.12011																
0.694111	2.12563	0.69197	2.12014																
0.695445	2.1256	0.69332	2.12017																
0.69678	2.12557	0.694669	2.12019																
0.698114	2.12554	0.696018	2.12022																
0.699449	2.12551	0.697367	2.12024																
0.700784	2.12548	0.698716	2.12027																
0.702119	2.12545	0.700065	2.12029																
0.703454	2.12542	0.701414	2.12031																
0.704789	2.1254	0.702763	2.12034																
0.706124	2.12537	0.704112	2.12036																
0.707459	2.12534	0.705461	2.12038																
0.708794	2.12531	0.70681	2.12041																
0.710129	2.12529	0.708158	2.12043																
0.711464	2.12526	0.709507	2.12045																
0.7128	2.12523	0.710856	2.12048																
0.714135	2.12521	0.712204	2.1205																
0.715471	2.12518	0.713553	2.12052																
0.716806	2.12516	0.714901	2.12054																
0.718142	2.12513	0.71625	2.12056																
0.719477	2.12511	0.717598	2.12059																
0.720813	2.12508	0.718947	2.12061																
		0.720295	2.12063																
