Sym0		Asym0		Sym1		Sym2		Sym3		Sym4		Asym1		Asym2		Asym3		Asym4	
549  Points		549  Points		449  Points		223  Points		207  Points		157  Points		497  Points		364  Points		208  Points		152  Points	
Freq (MHz)	Vph (m/ms)	Freq (MHz)	Vph (m/ms)	Freq (MHz)	Vph (m/ms)	Freq (MHz)	Vph (m/ms)	Freq (MHz)	Vph (m/ms)	Freq (MHz)	Vph (m/ms)	Freq (MHz)	Vph (m/ms)	Freq (MHz)	Vph (m/ms)	Freq (MHz)	Vph (m/ms)	Freq (MHz)	Vph (m/ms)
0.00231105	5.29213	1.99672e-005	0.0391342	0.169142	374.323	0.279525	534.036	0.50743	1871.51	0.559029	1104.37	0.139781	281.96	0.338285	693.782	0.419276	794.407	0.676572	2867.09
0.0056579	5.29196	0.000100145	0.0876403	0.169133	155.982	0.279588	241.884	0.507413	561.553	0.55908	491.002	0.139893	123.996	0.338272	302.015	0.419326	361.413	0.676532	779.025
0.00900444	5.29173	0.000241395	0.135987	0.169118	98.5092	0.279699	156.402	0.507379	330.315	0.559169	315.717	0.140091	79.5675	0.33825	193.009	0.419414	233.957	0.676446	450.697
0.0123504	5.29136	0.0004431	0.184043	0.169095	71.9791	0.279857	115.606	0.507327	233.953	0.559297	232.695	0.140376	58.6582	0.338217	141.813	0.419539	172.995	0.676316	317.021
0.0156955	5.29088	0.000704575	0.231765	0.169066	56.7016	0.280062	91.726	0.507258	181.102	0.559462	184.275	0.140746	46.5187	0.338176	112.075	0.419702	137.265	0.676143	244.466
0.0190395	5.29027	0.00102483	0.279055	0.169031	46.7693	0.280314	76.0544	0.507172	147.717	0.559666	152.561	0.1412	38.5999	0.338124	92.6401	0.419901	113.792	0.675932	198.905
0.0223823	5.28954	0.00140281	0.325858	0.168989	39.7941	0.280612	64.9843	0.507069	124.714	0.559906	130.183	0.141737	33.0351	0.338064	78.944	0.420138	97.1975	0.675684	167.634
0.0257236	5.2887	0.00183705	0.372068	0.168943	34.6261	0.280957	56.7519	0.506951	107.9	0.560183	113.549	0.142355	28.9167	0.337995	68.7711	0.420411	84.8462	0.675403	144.838
0.029063	5.28771	0.0023262	0.41764	0.168891	30.6433	0.281347	50.3929	0.506818	95.0739	0.560496	100.703	0.143054	25.7504	0.337918	60.9164	0.42072	75.2975	0.675092	127.481
0.0324004	5.28659	0.00286857	0.462499	0.168835	27.4798	0.281782	45.3353	0.50667	84.9656	0.560844	90.4836	0.14383	23.244	0.337833	54.6682	0.421064	67.6965	0.674756	113.824
0.0357354	5.28532	0.00346249	0.506598	0.168775	24.9062	0.282262	41.2184	0.506508	76.7938	0.561227	82.1618	0.144683	21.2135	0.33774	49.579	0.421444	61.5037	0.674396	102.796
0.0390677	5.28392	0.0041061	0.549883	0.168712	22.7716	0.282787	37.8035	0.506333	70.0502	0.561643	75.255	0.14561	19.5377	0.33764	45.3536	0.421859	56.3621	0.674016	93.7045
0.0423971	5.28236	0.00479757	0.592316	0.168647	20.9725	0.283354	34.9264	0.506146	64.3903	0.562092	69.4313	0.146608	18.1329	0.337534	41.7892	0.422308	52.026	0.673619	86.0805
0.045723	5.28063	0.00553486	0.633849	0.16858	19.4356	0.283965	32.4704	0.505948	59.572	0.562573	64.4553	0.147677	16.94	0.337421	38.7417	0.42279	48.3205	0.673207	79.595
0.0490451	5.27873	0.00631608	0.674463	0.168513	18.1075	0.284617	30.3501	0.50574	55.4204	0.563085	60.155	0.148813	15.9156	0.337304	36.1063	0.423306	45.1182	0.672783	74.0107
0.0523629	5.27665	0.00713918	0.714128	0.168446	16.9485	0.285311	28.5019	0.505522	51.8061	0.563628	56.4021	0.150014	15.0276	0.337181	33.8046	0.423855	42.3236	0.67235	69.1518
0.0556761	5.27437	0.00800215	0.752824	0.168381	15.9284	0.286046	26.8771	0.505296	48.6309	0.564199	53.0987	0.151278	14.2513	0.337055	31.777	0.424435	39.864	0.671908	64.8857
0.058984	5.27187	0.00890306	0.790542	0.168319	15.0236	0.28682	25.4382	0.505061	45.8194	0.564799	50.1689	0.152602	13.5677	0.336925	29.9773	0.425047	37.683	0.671461	61.1101
0.0622861	5.26915	0.00983988	0.827268	0.16826	14.2159	0.287634	24.1554	0.504821	43.3124	0.565426	47.5532	0.153985	12.9618	0.336792	28.3691	0.425689	35.7362	0.671009	57.7451
0.0655817	5.26619	0.0108107	0.863003	0.168206	13.4905	0.288485	23.0051	0.504574	41.063	0.56608	45.2037	0.155424	12.4216	0.336657	26.9234	0.426362	33.9881	0.670554	54.7273
0.06887	5.26296	0.0118137	0.897746	0.168159	12.8356	0.289374	21.968	0.504322	39.0335	0.566759	43.0822	0.156916	11.9374	0.33652	25.6168	0.427063	32.41	0.670096	52.0056
0.0721503	5.25944	0.0128471	0.931503	0.168119	12.2416	0.2903	21.0286	0.504067	37.1931	0.567463	41.157	0.158459	11.5014	0.336383	24.4302	0.427794	30.9786	0.669639	49.5385
0.0754217	5.2556	0.013909	0.964276	0.168089	11.7006	0.291262	20.174	0.503808	35.5165	0.568191	39.4024	0.160051	11.1071	0.336246	23.3478	0.428553	29.6745	0.669182	47.292
0.078683	5.25142	0.0149977	0.99608	0.16807	11.2059	0.292258	19.3935	0.503546	33.9829	0.568943	37.7968	0.161691	10.7491	0.336109	22.3565	0.42934	28.4816	0.668725	45.2378
0.0819331	5.24686	0.0161116	1.02693	0.168064	10.7521	0.293288	18.678	0.503283	32.5748	0.569717	36.3221	0.163375	10.4228	0.335974	21.4453	0.430153	27.3866	0.668272	43.3523
0.0851706	5.24188	0.0172492	1.05683	0.168073	10.3345	0.294352	18.0199	0.503019	31.2774	0.570513	34.9631	0.165102	10.1245	0.33584	20.605	0.430992	26.3779	0.667821	41.6156
0.0883939	5.23644	0.0184089	1.08581	0.168098	9.94917	0.295448	17.4128	0.502755	30.0781	0.571329	33.7067	0.166869	9.85084	0.33571	19.8276	0.431857	25.4458	0.667373	40.0108
0.0916013	5.23048	0.0195892	1.11388	0.168143	9.59275	0.296576	16.8512	0.502492	28.9664	0.572166	32.5418	0.168676	9.59908	0.335582	19.1064	0.432747	24.5822	0.66693	38.5235
0.0947908	5.22394	0.020789	1.14106	0.16821	9.26236	0.297734	16.3301	0.50223	27.9329	0.573023	31.4589	0.170519	9.36684	0.33546	18.4355	0.433661	23.7798	0.666492	37.1413
0.0979599	5.21676	0.0220068	1.16738	0.168302	8.95554	0.298922	15.8456	0.50197	26.9697	0.573898	30.4497	0.172397	9.15205	0.335341	17.81	0.434599	23.0325	0.666058	35.8536
0.101106	5.20886	0.0232414	1.19285	0.168422	8.67015	0.300139	15.394	0.501713	26.07	0.574792	29.507	0.174308	8.95291	0.335229	17.2255	0.43556	22.3348	0.665631	34.6509
0.104225	5.20014	0.0244917	1.2175	0.168575	8.40436	0.301384	14.9722	0.501458	25.2278	0.575704	28.6244	0.176251	8.76787	0.335123	16.678	0.436544	21.682	0.66521	33.5252
0.107315	5.19049	0.0257566	1.24135	0.168763	8.15657	0.302657	14.5774	0.501208	24.4376	0.576632	27.7965	0.178223	8.59554	0.335024	16.1643	0.437549	21.0701	0.664795	32.4693
0.11037	5.1798	0.027035	1.26443	0.168993	7.92542	0.303956	14.2072	0.500963	23.695	0.577578	27.0184	0.180223	8.43473	0.334933	15.6814	0.438576	20.4953	0.664387	31.4771
0.113299	5.16398	0.0283261	1.28675	0.169231	7.73662	0.305281	13.8594	0.500722	22.9957	0.578539	26.2857	0.18225	8.28437	0.33485	15.2266	0.439623	19.9545	0.663987	30.5429
0.116355	5.15469	0.0296288	1.30834	0.169465	7.58442	0.30663	13.5322	0.500487	22.3361	0.579516	25.5946	0.184301	8.1435	0.334777	14.7977	0.44069	19.4447	0.663594	29.6619
0.119273	5.13993	0.0309424	1.32922	0.169683	7.46438	0.308004	13.2237	0.500259	21.7131	0.580509	24.9417	0.186376	8.01129	0.334713	14.3926	0.441777	18.9635	0.663209	28.8297
0.12213	5.12341	0.032266	1.34941	0.169871	7.37304	0.309402	12.9325	0.500037	21.1236	0.581515	24.324	0.188472	7.88699	0.334661	14.0093	0.442884	18.5085	0.662833	28.0424
0.124917	5.10491	0.0335988	1.36895	0.17002	7.30784	0.310822	12.6573	0.499822	20.5651	0.582536	23.7387	0.190589	7.76991	0.33462	13.6463	0.444008	18.0777	0.662465	27.2964
0.127625	5.08417	0.0349403	1.38784	0.17012	7.26698	0.312264	12.3967	0.499615	20.0352	0.583571	23.1834	0.192724	7.65947	0.334591	13.302	0.445151	17.6692	0.662106	26.5887
0.130242	5.06091	0.0362896	1.40611	0.17027	7.20938	0.313727	12.1498	0.499416	19.5318	0.584619	22.6558	0.194599	7.5682	0.334575	12.9752	0.446311	17.2815	0.661755	25.9164
0.132756	5.03486	0.0376463	1.42379	0.170442	7.14831	0.31521	11.9154	0.499226	19.0531	0.58568	22.1539	0.196206	7.49381	0.334573	12.6645	0.447488	16.9129	0.661415	25.277
0.135154	5.00574	0.0390097	1.44089	0.170692	7.06775	0.316713	11.6926	0.499045	18.5973	0.586754	21.676	0.197542	7.43451	0.334586	12.3688	0.448682	16.5621	0.661083	24.6681
0.137424	4.97332	0.0403793	1.45743	0.171037	6.9699	0.318235	11.4807	0.498873	18.1628	0.587839	21.2203	0.198602	7.38898	0.334614	12.0873	0.449891	16.2279	0.660761	24.0876
0.139556	4.93745	0.0417546	1.47343	0.1715	6.85747	0.319775	11.279	0.498712	17.7483	0.588937	20.7853	0.199384	7.35623	0.334658	11.8189	0.451116	15.9091	0.66045	23.5337
0.141539	4.89803	0.0431351	1.48892	0.172112	6.73357	0.321333	11.0866	0.498561	17.3523	0.590046	20.3698	0.199885	7.33559	0.33472	11.5628	0.452357	15.6048	0.660148	23.0045
0.14337	4.8551	0.0445204	1.50391	0.172918	6.60175	0.322907	10.903	0.498421	16.9738	0.591166	19.9724	0.200606	7.30633	0.3348	11.3182	0.453612	15.314	0.659857	22.4985
0.145045	4.80885	0.04591	1.51841	0.173846	6.4807	0.324497	10.7276	0.498292	16.6116	0.592297	19.592	0.201391	7.27509	0.334899	11.0846	0.45488	15.0358	0.659576	22.0142
0.146568	4.75955	0.0471243	1.53067	0.17491	6.37015	0.326103	10.5599	0.498175	16.2648	0.593438	19.2275	0.202462	7.2335	0.335017	10.8612	0.456163	14.7694	0.659306	21.5503
0.147946	4.7076	0.0481616	1.54085	0.17612	6.26981	0.327724	10.3994	0.49807	15.9324	0.59459	18.8779	0.203819	7.18231	0.335157	10.6474	0.457459	14.5142	0.659047	21.1055
0.149188	4.65347	0.0490209	1.54908	0.177487	6.17933	0.329358	10.2456	0.497977	15.6136	0.595751	18.5425	0.205466	7.12242	0.335319	10.4427	0.458768	14.2694	0.658799	20.6787
0.150307	4.59767	0.0497012	1.55548	0.179017	6.09832	0.331006	10.0982	0.497898	15.3075	0.596922	18.2203	0.207404	7.05482	0.335504	10.2466	0.460089	14.0344	0.658563	20.269
0.151315	4.54068	0.0502018	1.56012	0.180713	6.02628	0.332667	9.95677	0.497832	15.0136	0.598102	17.9105	0.209635	6.98054	0.335712	10.0587	0.461422	13.8086	0.658338	19.8751
0.152227	4.48297	0.0505224	1.56306	0.182575	5.9626	0.334339	9.82092	0.49778	14.731	0.599291	17.6125	0.211873	6.90953	0.335947	9.87853	0.462767	13.5916	0.658125	19.4965
0.153056	4.42496	0.0509836	1.56725	0.184596	5.90661	0.336023	9.69035	0.497742	14.4593	0.600488	17.3257	0.214115	6.84154	0.336207	9.7057	0.464122	13.3828	0.657923	19.132
0.153814	4.36702	0.0514852	1.57176	0.186768	5.85757	0.337717	9.56476	0.497719	14.1977	0.601694	17.0494	0.216361	6.77635	0.336496	9.53984	0.465489	13.1819	0.657734	18.7811
0.154512	4.30944	0.052168	1.57781	0.189079	5.81471	0.339421	9.44386	0.497711	13.9459	0.602908	16.783	0.218608	6.71375	0.336813	9.38064	0.466865	12.9882	0.657557	18.443
0.155159	4.25249	0.0530323	1.58532	0.191516	5.7773	0.341135	9.3274	0.497718	13.7033	0.604131	16.5261	0.220856	6.65354	0.33716	9.22778	0.468252	12.8016	0.657393	18.117
0.155765	4.19635	0.0540788	1.59421	0.194066	5.74462	0.342857	9.21513	0.497742	13.4694	0.60536	16.2781	0.223102	6.59555	0.33754	9.08097	0.469648	12.6215	0.657241	17.8025
0.156336	4.14119	0.055308	1.60438	0.196716	5.71604	0.344586	9.10681	0.497781	13.2438	0.606597	16.0386	0.225346	6.53961	0.337952	8.93995	0.471054	12.4477	0.657102	17.499
0.15688	4.08711	0.0567205	1.61571	0.199453	5.69097	0.346323	9.00225	0.497838	13.0261	0.607841	15.8072	0.227585	6.48556	0.338399	8.80448	0.472467	12.2798	0.656977	17.2059
0.157401	4.03421	0.0581348	1.62669	0.202265	5.66892	0.348067	8.90123	0.497912	12.816	0.609092	15.5834	0.229819	6.43326	0.338883	8.67432	0.47389	12.1176	0.656864	16.9226
0.157903	3.98254	0.0595508	1.63734	0.205143	5.64944	0.349816	8.80357	0.498004	12.613	0.61035	15.3669	0.232044	6.38256	0.339404	8.54925	0.47532	11.9607	0.656766	16.6488
0.158392	3.93215	0.0609682	1.64766	0.208078	5.63217	0.35157	8.7091	0.498114	12.4169	0.611614	15.1574	0.23426	6.33334	0.339964	8.42909	0.476757	11.809	0.65668	16.384
0.15881	3.88929	0.0623869	1.65767	0.211062	5.61679	0.353329	8.61765	0.498243	12.2273	0.612884	14.9545	0.236465	6.28548	0.340566	8.31363	0.478202	11.6621	0.656609	16.1277
0.15916	3.85354	0.0638067	1.66737	0.214089	5.60304	0.355091	8.52907	0.498391	12.044	0.614159	14.7578	0.238657	6.23886	0.34121	8.20271	0.479653	11.5198	0.656552	15.8796
0.159448	3.82453	0.0652274	1.67679	0.217153	5.59069	0.356856	8.44321	0.498559	11.8667	0.615441	14.5672	0.240834	6.19338	0.341899	8.09617	0.481111	11.3819	0.65651	15.6394
0.159674	3.80193	0.0666491	1.68592	0.220249	5.57955	0.358624	8.35993	0.498747	11.6951	0.616728	14.3824	0.242995	6.14893	0.342633	7.99385	0.482575	11.2482	0.656482	15.4066
0.159839	3.78552	0.0680714	1.69479	0.223373	5.56946	0.360393	8.27911	0.498956	11.5291	0.618019	14.203	0.245137	6.10541	0.343312	7.90801	0.484044	11.1186	0.656469	15.1809
0.159945	3.7751	0.0694943	1.70339	0.226522	5.56028	0.362163	8.20062	0.499186	11.3683	0.619316	14.0289	0.247258	6.06274	0.343921	7.83721	0.485518	10.9927	0.65647	14.9621
0.160097	3.76024	0.0709177	1.71174	0.229692	5.5519	0.363933	8.12435	0.499439	11.2125	0.620617	13.8598	0.249356	6.02083	0.344445	7.78027	0.486997	10.8705	0.656488	14.7499
0.160262	3.74425	0.0723415	1.71985	0.23288	5.54422	0.365702	8.05018	0.499713	11.0616	0.621923	13.6956	0.25143	5.97959	0.344873	7.73626	0.48848	10.7519	0.65652	14.544
0.160486	3.72276	0.0737656	1.72773	0.236086	5.53715	0.36747	7.97803	0.500011	10.9154	0.623233	13.5359	0.253478	5.93896	0.345196	7.70446	0.489967	10.6365	0.656569	14.3441
0.160769	3.69601	0.0751898	1.73539	0.239305	5.53063	0.369009	7.91671	0.500332	10.7736	0.624547	13.3806	0.255497	5.89885	0.345406	7.68435	0.491458	10.5244	0.656634	14.15
0.161111	3.66431	0.0766143	1.74282	0.242538	5.52459	0.370319	7.86553	0.500677	10.6362	0.625864	13.2296	0.257486	5.85921	0.345713	7.65579	0.492952	10.4153	0.656714	13.9615
0.161514	3.62799	0.0780387	1.75005	0.245782	5.51897	0.371401	7.82396	0.501047	10.503	0.627185	13.0826	0.259442	5.81997	0.346053	7.62518	0.494448	10.3092	0.656812	13.7783
0.161978	3.58745	0.0794632	1.75707	0.249036	5.51373	0.372255	7.79154	0.501442	10.3737	0.628509	12.9395	0.261364	5.78107	0.346526	7.58427	0.495947	10.2059	0.656926	13.6002
0.162446	3.54811	0.0808876	1.7639	0.252298	5.50883	0.372883	7.76795	0.501863	10.2483	0.629836	12.8002	0.26325	5.74246	0.347143	7.53372	0.497448	10.1052	0.657057	13.4271
0.162918	3.50994	0.0823118	1.77054	0.255569	5.50423	0.373284	7.75297	0.502311	10.1267	0.631165	12.6644	0.265099	5.70409	0.347918	7.47433	0.49895	10.0072	0.657206	13.2588
0.163395	3.4729	0.0837359	1.77699	0.258846	5.49989	0.373861	7.73157	0.502785	10.0086	0.632497	12.5321	0.266908	5.66591	0.348867	7.40701	0.500453	9.91158	0.657373	13.0951
0.163879	3.43697	0.0851597	1.78328	0.262129	5.4958	0.374487	7.70852	0.503288	9.89408	0.633832	12.4031	0.268677	5.6279	0.350009	7.3328	0.501957	9.81839	0.657557	12.9358
0.164368	3.40211	0.0865833	1.78939	0.265418	5.49193	0.375338	7.67748	0.503819	9.78288	0.635168	12.2773	0.270404	5.59002	0.35121	7.26174	0.503462	9.72747	0.657759	12.7807
0.164864	3.36829	0.0880066	1.79534	0.268711	5.48825	0.376412	7.63874	0.504379	9.67494	0.636506	12.1546	0.272088	5.55225	0.352471	7.19374	0.504966	9.63875	0.65798	12.6298
0.165368	3.33548	0.0894295	1.80113	0.272009	5.48475	0.377708	7.59264	0.504968	9.57015	0.637845	12.0348	0.273729	5.51455	0.353791	7.12867	0.506469	9.55213	0.65822	12.4829
0.16588	3.30366	0.090852	1.80676	0.275309	5.4814	0.379223	7.53958	0.505588	9.4684	0.639185	11.9179	0.275325	5.47692	0.355173	7.06644	0.507972	9.46754	0.658479	12.3398
0.166399	3.27278	0.0922742	1.81225	0.278613	5.47819	0.380956	7.47997	0.506238	9.3696	0.640527	11.8037	0.276876	5.43934	0.356614	7.00696	0.509473	9.38489	0.658757	12.2004
0.166927	3.24282	0.0936959	1.8176	0.281919	5.4751	0.38268	7.42167	0.50692	9.27367	0.641869	11.6922	0.278382	5.40181	0.358117	6.95011	0.510972	9.30411	0.659055	12.0646
0.167463	3.21375	0.0951171	1.8228	0.285227	5.47213	0.384397	7.36462	0.507634	9.18051	0.643211	11.5832	0.279843	5.36433	0.359679	6.8958	0.512469	9.22513	0.659373	11.9323
0.168008	3.18555	0.0965379	1.82787	0.288536	5.46926	0.386104	7.30876	0.508381	9.09004	0.644554	11.4766	0.281259	5.3269	0.361302	6.84392	0.513964	9.14789	0.659711	11.8033
0.168562	3.15818	0.0979582	1.83282	0.291846	5.46647	0.387801	7.25404	0.50916	9.00218	0.645896	11.3725	0.282631	5.28952	0.362984	6.79439	0.515455	9.0723	0.66007	11.6776
0.169125	3.13161	0.099378	1.83764	0.295157	5.46376	0.389487	7.20041	0.509973	8.91684	0.647239	11.2706	0.28396	5.25221	0.364724	6.74709	0.516943	8.99833	0.66045	11.555
0.169697	3.10583	0.100797	1.84233	0.298468	5.46112	0.391163	7.14781	0.510821	8.83397	0.64858	11.1709	0.285245	5.21499	0.366522	6.70193	0.518427	8.9259	0.660851	11.4355
0.170278	3.08081	0.102216	1.84691	0.301779	5.45854	0.392827	7.09621	0.511702	8.75348	0.649921	11.0734	0.286489	5.17786	0.368376	6.65882	0.519907	8.85495	0.661274	11.3189
0.170868	3.05651	0.103634	1.85138	0.30509	5.456	0.394479	7.04555	0.512619	8.6753	0.651261	10.9779	0.287692	5.14084	0.370284	6.61765	0.521382	8.78544	0.661718	11.2052
0.171468	3.03293	0.105052	1.85574	0.308399	5.4535	0.396118	6.9958	0.513572	8.59938	0.652599	10.8845	0.288856	5.10396	0.372245	6.57835	0.522852	8.71732	0.662185	11.0943
0.172077	3.01002	0.106469	1.85999	0.311707	5.45104	0.397743	6.94692	0.51456	8.52564	0.653936	10.7929	0.289983	5.06724	0.374258	6.54081	0.524317	8.65052	0.662674	10.9861
0.172695	2.98779	0.107885	1.86414	0.315013	5.44859	0.399356	6.89887	0.515584	8.45402	0.655271	10.7032	0.291073	5.03069	0.37632	6.50495	0.525776	8.58501	0.663186	10.8805
0.173323	2.96619	0.109301	1.86819	0.318317	5.44616	0.400954	6.85161	0.516645	8.38446	0.656604	10.6153	0.292129	4.99434	0.37843	6.47068	0.527229	8.52074	0.663721	10.7775
0.17396	2.94521	0.110716	1.87214	0.321619	5.44374	0.402537	6.80513	0.517742	8.3169	0.657935	10.5292	0.293151	4.95821	0.380585	6.43792	0.528676	8.45767	0.66428	10.6769
0.174606	2.92483	0.112131	1.87599	0.324917	5.44131	0.404107	6.75939	0.518728	8.25962	0.659263	10.4447	0.294143	4.92233	0.382785	6.40659	0.530115	8.39575	0.664862	10.5787
0.175261	2.90503	0.113545	1.87976	0.328211	5.43887	0.405661	6.71436	0.519591	8.21192	0.660588	10.3619	0.295105	4.8867	0.385027	6.37661	0.531547	8.33495	0.665468	10.4829
0.175926	2.8858	0.114958	1.88344	0.331501	5.43641	0.407201	6.67003	0.52032	8.17326	0.66191	10.2806	0.296039	4.85136	0.387309	6.34791	0.53279	8.28284	0.666098	10.3893
0.1766	2.8671	0.116371	1.88703	0.334786	5.43393	0.408726	6.62636	0.520906	8.14317	0.663228	10.2009	0.296946	4.81632	0.389629	6.32042	0.533844	8.23906	0.666753	10.2979
0.177283	2.84894	0.117783	1.89054	0.338066	5.43141	0.410237	6.58335	0.521342	8.12132	0.664543	10.1227	0.29783	4.7816	0.391986	6.29407	0.534712	8.20327	0.667432	10.2087
0.177974	2.83128	0.119195	1.89398	0.341339	5.42883	0.411733	6.54098	0.521624	8.10745	0.665855	10.0459	0.29869	4.74721	0.394376	6.2688	0.535397	8.17525	0.668137	10.1215
0.178675	2.81412	0.120606	1.89733	0.344606	5.4262	0.413216	6.49923	0.522033	8.08768	0.667162	9.97044	0.299529	4.71317	0.3968	6.24455	0.535899	8.15479	0.668867	10.0364
0.179385	2.79743	0.122016	1.90061	0.347864	5.4235	0.414685	6.45809	0.522482	8.0664	0.668465	9.89637	0.300348	4.67949	0.399255	6.22126	0.53622	8.14176	0.669622	9.95331
0.180104	2.7812	0.123426	1.90381	0.351114	5.42072	0.416141	6.41756	0.523099	8.03782	0.669764	9.82362	0.301149	4.64618	0.401739	6.19887	0.53668	8.12312	0.670403	9.87211
0.180831	2.76542	0.124835	1.90694	0.354354	5.41784	0.417586	6.37764	0.523893	8.00225	0.671058	9.75213	0.301933	4.61325	0.40425	6.17734	0.537179	8.10297	0.671209	9.79279
0.181567	2.75008	0.126244	1.91001	0.357583	5.41485	0.41902	6.33831	0.524872	7.96007	0.672347	9.68187	0.302701	4.58072	0.406788	6.15662	0.537857	8.07577	0.672042	9.71529
0.182311	2.73515	0.127652	1.91301	0.3608	5.41173	0.420444	6.29959	0.526045	7.91174	0.673631	9.61282	0.303454	4.54859	0.40935	6.13666	0.53871	8.04167	0.672901	9.63957
0.183064	2.72063	0.129059	1.91594	0.364002	5.40846	0.42186	6.26148	0.527427	7.85777	0.674909	9.54492	0.304194	4.51687	0.411935	6.11741	0.539738	8.00091	0.673786	9.56559
0.183825	2.70651	0.130466	1.91881	0.36719	5.40503	0.42327	6.22398	0.528844	7.80534	0.676182	9.47815	0.304922	4.48555	0.414542	6.09884	0.540938	7.95371	0.674697	9.49329
0.184595	2.69276	0.131872	1.92161	0.37036	5.4014	0.424676	6.1871	0.530298	7.75441	0.67745	9.41247	0.305639	4.45466	0.417169	6.08091	0.542306	7.90035	0.675635	9.42263
0.185372	2.67939	0.133278	1.92436	0.37351	5.39757	0.426079	6.15087	0.531787	7.70493	0.678712	9.34786	0.306347	4.42418	0.419815	6.06358	0.543664	7.84784	0.6766	9.35358
0.186158	2.66637	0.134683	1.92705	0.376639	5.39348	0.427483	6.1153	0.533311	7.65685	0.679968	9.28428	0.307045	4.39413	0.422479	6.04682	0.545014	7.79614	0.677591	9.2861
0.186952	2.6537	0.136087	1.92968	0.379743	5.38913	0.42889	6.08042	0.53487	7.61014	0.681217	9.22171	0.307734	4.3645	0.425159	6.03059	0.546353	7.74523	0.678609	9.22013
0.187753	2.64136	0.137491	1.93226	0.382819	5.38446	0.430305	6.04626	0.536464	7.56474	0.682461	9.16012	0.308417	4.33529	0.427855	6.01487	0.547683	7.69509	0.679654	9.15565
0.188562	2.62935	0.138894	1.93479	0.385864	5.37943	0.43173	6.01285	0.538092	7.52061	0.683698	9.09948	0.309093	4.3065	0.430565	5.99963	0.549004	7.6457	0.680725	9.09261
0.189379	2.61766	0.140297	1.93726	0.388874	5.37401	0.43317	5.98024	0.539752	7.47773	0.684929	9.03977	0.309763	4.27814	0.433288	5.98483	0.550314	7.59704	0.681823	9.03098
0.190204	2.60627	0.141699	1.93968	0.391844	5.36813	0.434631	5.94847	0.541445	7.43603	0.686153	8.98096	0.310428	4.2502	0.436024	5.97046	0.551616	7.54909	0.682947	8.97073
0.191036	2.59518	0.143101	1.94206	0.39477	5.36175	0.436117	5.91759	0.54317	7.39548	0.687371	8.92303	0.311089	4.22268	0.43877	5.95648	0.552907	7.50184	0.684098	8.91181
0.191875	2.58438	0.144502	1.94438	0.397645	5.3548	0.437636	5.88766	0.544927	7.35605	0.688581	8.86596	0.311746	4.19558	0.441527	5.94288	0.554189	7.45526	0.685275	8.85419
0.192722	2.57385	0.145903	1.94666	0.400463	5.34722	0.439192	5.85875	0.546714	7.3177	0.689786	8.80972	0.312399	4.16889	0.444293	5.92963	0.555462	7.40934	0.686478	8.79785
0.193575	2.5636	0.147303	1.94889	0.403219	5.33893	0.440794	5.83092	0.54853	7.28038	0.690983	8.7543	0.31305	4.14261	0.447067	5.91671	0.556726	7.36407	0.687708	8.74274
0.194436	2.55361	0.148702	1.95108	0.405905	5.32986	0.442449	5.80425	0.550376	7.24407	0.692173	8.69968	0.313699	4.11674	0.449848	5.9041	0.55798	7.31943	0.688963	8.68883
0.195304	2.54388	0.150101	1.95323	0.408514	5.31994	0.444164	5.77881	0.55225	7.20873	0.693205	8.65271	0.314345	4.09127	0.452636	5.89178	0.559226	7.27542	0.690078	8.64282
0.196178	2.53439	0.1515	1.95534	0.41104	5.3091	0.445947	5.75466	0.554151	7.17432	0.694081	8.61313	0.314991	4.0662	0.455429	5.87974	0.560464	7.23202	0.691043	8.60428
0.19706	2.52514	0.152898	1.9574	0.413475	5.29728	0.447806	5.73186	0.556079	7.14081	0.694802	8.58071	0.315635	4.04153	0.458227	5.86795	0.561694	7.18922	0.691852	8.57288
0.197947	2.51613	0.154295	1.95943	0.415813	5.28442	0.449746	5.71047	0.558033	7.10817	0.695371	8.55527	0.31628	4.01724	0.461029	5.85639	0.562916	7.14701	0.692499	8.54835
0.198842	2.50734	0.155692	1.96141	0.41805	5.27049	0.451773	5.6905	0.560012	7.07637	0.695788	8.53668	0.316923	3.99334	0.463833	5.84505	0.564132	7.10538	0.692977	8.53048
0.199743	2.49877	0.157088	1.96336	0.420183	5.25547	0.45389	5.67199	0.562015	7.04537	0.696055	8.52483	0.317567	3.96982	0.466639	5.83392	0.565341	7.06433	0.693286	8.51911
0.20065	2.49042	0.158484	1.96528	0.42221	5.23937	0.456099	5.6549	0.564041	7.01515	0.696437	8.50786	0.318212	3.94668	0.469446	5.82297	0.566543	7.02386	0.693731	8.50287
0.201563	2.48227	0.15988	1.96715	0.42413	5.22222	0.458401	5.63922	0.56609	6.98568	0.696852	8.4895	0.318857	3.9239	0.472253	5.81219	0.567741	6.98394	0.694218	8.48535
0.202483	2.47432	0.161275	1.96899	0.425947	5.20407	0.460794	5.62489	0.56816	6.95694	0.697415	8.46468	0.319504	3.90149	0.475059	5.80156	0.568934	6.94459	0.694885	8.46174
0.203408	2.46657	0.162669	1.9708	0.427664	5.18498	0.463274	5.61184	0.570251	6.92888	0.698124	8.43353	0.320151	3.87943	0.477863	5.79107	0.570124	6.90579	0.695738	8.43222
0.20434	2.45901	0.164063	1.97258	0.429286	5.16504	0.465837	5.59999	0.572362	6.9015	0.698979	8.3962	0.3208	3.85773	0.480663	5.78071	0.57131	6.86755	0.696781	8.39705
0.205277	2.45163	0.165457	1.97432	0.430819	5.14433	0.468478	5.58924	0.574493	6.87476	0.699978	8.3529	0.321451	3.83638	0.48346	5.77045	0.572494	6.82986	0.698021	8.35649
0.206221	2.44443	0.16685	1.97603	0.432268	5.12295	0.47119	5.5795	0.576641	6.84864	0.701118	8.30383	0.322104	3.81537	0.486252	5.76029	0.573677	6.79273	0.699466	8.31087
0.207169	2.4374	0.168243	1.97771	0.433641	5.10099	0.473968	5.57067	0.578808	6.82311	0.702252	8.25542	0.322758	3.7947	0.489037	5.7502	0.574861	6.75615	0.700935	8.2662
0.208124	2.43055	0.169635	1.97936	0.434945	5.07854	0.476805	5.56266	0.58099	6.79816	0.703379	8.20766	0.323416	3.77436	0.491814	5.74017	0.576045	6.72011	0.702426	8.22246
0.209084	2.42385	0.171027	1.98098	0.436185	5.05569	0.479695	5.55539	0.583189	6.77376	0.704502	8.16053	0.324075	3.75435	0.494583	5.73019	0.577232	6.68464	0.70394	8.17962
0.210049	2.41732	0.172418	1.98257	0.437369	5.03252	0.482633	5.54877	0.585403	6.74988	0.705618	8.11402	0.324737	3.73465	0.497341	5.72023	0.578423	6.64972	0.705476	8.13767
0.21102	2.41094	0.173809	1.98413	0.4385	5.00909	0.485614	5.54274	0.587631	6.72652	0.70673	8.06813	0.325402	3.71528	0.500088	5.71029	0.579618	6.61537	0.707033	8.09656
0.211996	2.40472	0.175199	1.98567	0.439586	4.98547	0.488632	5.53722	0.589872	6.70365	0.707837	8.02283	0.32607	3.69621	0.502823	5.70034	0.580821	6.58158	0.708612	8.05629
0.212977	2.39864	0.176589	1.98718	0.44063	4.96172	0.491685	5.53217	0.592126	6.68124	0.708939	7.97813	0.326741	3.67745	0.505542	5.69037	0.582031	6.54837	0.710211	8.01683
0.213963	2.3927	0.177979	1.98866	0.441636	4.93788	0.494768	5.52752	0.594392	6.65928	0.710036	7.93402	0.327415	3.65899	0.508245	5.68036	0.583252	6.51574	0.71183	7.97815
0.214954	2.3869	0.179368	1.99012	0.442608	4.91401	0.497877	5.52323	0.596669	6.63776	0.71113	7.89048	0.328092	3.64082	0.510931	5.67029	0.584484	6.48369	0.713469	7.94023
0.21595	2.38124	0.180757	1.99155	0.443551	4.89013	0.501011	5.51927	0.598956	6.61665	0.712221	7.8475	0.328772	3.62294	0.513596	5.66015	0.58573	6.45225	0.715127	7.90306
0.216951	2.37571	0.182145	1.99296	0.444465	4.86628	0.504165	5.51559	0.601253	6.59594	0.713308	7.80509	0.329456	3.60535	0.51624	5.64991	0.586991	6.4214	0.716804	7.86661
0.217956	2.3703	0.183533	1.99435	0.445355	4.84249	0.507338	5.51217	0.603558	6.5756	0.714392	7.76323	0.330143	3.58804	0.518861	5.63955	0.58827	6.39118	0.718499	7.83085
0.218967	2.36502	0.184921	1.99571	0.446223	4.81879	0.510528	5.50897	0.605871	6.55563	0.715474	7.72192	0.330834	3.571	0.521456	5.62906	0.58957	6.36158	0.720211	7.79578
0.219982	2.35986	0.186308	1.99705	0.447071	4.79519	0.513734	5.50598	0.608191	6.53601	0.716555	7.68115	0.331528	3.55423	0.524022	5.61841	0.590891	6.33263		
0.221001	2.35482	0.187694	1.99837	0.4479	4.77172	0.516952	5.50317	0.610518	6.51672	0.717634	7.64092	0.332226	3.53773	0.526559	5.60758	0.592238	6.30433		
0.222025	2.34989	0.189081	1.99966	0.448713	4.74838	0.520183	5.50053	0.61285	6.49775	0.718713	7.60122	0.332928	3.52149	0.529063	5.59655	0.593612	6.27669		
0.223053	2.34508	0.190467	2.00094	0.44951	4.7252	0.523424	5.49803	0.615186	6.47907	0.719792	7.56205	0.333633	3.5055	0.531532	5.58531	0.595015	6.24974		
0.224085	2.34037	0.191852	2.00219	0.450294	4.70218	0.526675	5.49567	0.617527	6.46069	0.720871	7.5234	0.334343	3.48976	0.533964	5.57382	0.596451	6.22348		
0.225122	2.33577	0.193238	2.00342	0.451066	4.67933	0.529934	5.49343	0.61987	6.44258			0.335056	3.47427	0.536357	5.56207	0.597922	6.19793		
0.226163	2.33127	0.194622	2.00464	0.451827	4.65667	0.533201	5.49129	0.622216	6.42472			0.335773	3.45902	0.538706	5.55004	0.599431	6.17309		
0.227208	2.32687	0.196007	2.00583	0.452577	4.6342	0.536475	5.48926	0.624563	6.40712			0.336495	3.44401	0.541012	5.53771	0.600979	6.149		
0.228257	2.32257	0.197391	2.007	0.453318	4.61192	0.539755	5.48731	0.62691	6.38974			0.33722	3.42924	0.54327	5.52506	0.602571	6.12564		
0.22931	2.31837	0.198775	2.00816	0.454051	4.58984	0.54304	5.48544	0.629257	6.37258			0.337949	3.41469	0.54548	5.51207	0.604207	6.10304		
0.230366	2.31425	0.200158	2.0093	0.454776	4.56796	0.54633	5.48364	0.631603	6.35563			0.338682	3.40037	0.547638	5.49874	0.605891	6.08119		
0.231427	2.31023	0.201541	2.01042	0.455494	4.5463	0.549625	5.4819	0.633946	6.33887			0.339419	3.38627	0.549743	5.48504	0.607624	6.06012		
0.232492	2.3063	0.202924	2.01152	0.456206	4.52484	0.552923	5.48023	0.636287	6.32229			0.340161	3.37239	0.551794	5.47098	0.609407	6.03981		
0.23356	2.30245	0.204306	2.01261	0.456912	4.50359	0.556224	5.4786	0.638623	6.30587			0.340906	3.35872	0.553789	5.45654	0.611243	6.02027		
0.234631	2.29868	0.205688	2.01367	0.457613	4.48256	0.559527	5.47702	0.640954	6.28961			0.341656	3.34526	0.555727	5.44173	0.613133	6.00149		
0.235707	2.29499	0.20707	2.01473	0.45831	4.46174	0.562833	5.47549	0.643279	6.27349			0.342409	3.332	0.557608	5.42654	0.615076	5.98347		
0.236786	2.29139	0.208451	2.01576	0.459002	4.44114	0.566141	5.47399	0.645597	6.25751			0.343167	3.31895	0.559431	5.41098	0.617074	5.9662		
0.237868	2.28786	0.209832	2.01678	0.459691	4.42075	0.569451	5.47252	0.647907	6.24163			0.343929	3.3061	0.561196	5.39505	0.619127	5.94967		
0.238954	2.28441	0.211213	2.01779	0.460376	4.40057	0.572761	5.47108	0.650208	6.22587			0.344695	3.29344	0.562905	5.37877	0.621234	5.93385		
0.240043	2.28103	0.212594	2.01878	0.461059	4.38062	0.576072	5.46966	0.652499	6.21019			0.345465	3.28097	0.564557	5.36215	0.623395	5.91873		
0.241135	2.27772	0.213974	2.01975	0.461739	4.36087	0.579383	5.46827	0.654779	6.1946			0.346239	3.26869	0.566153	5.34521	0.625608	5.90429		
0.242231	2.27448	0.215353	2.02071	0.462416	4.34134	0.582695	5.46689	0.657046	6.17908			0.347018	3.25659	0.567696	5.32796	0.627872	5.89051		
0.24333	2.27131	0.216733	2.02166	0.463092	4.32202	0.586006	5.46552	0.6593	6.16362			0.3478	3.24468	0.569187	5.31043	0.630187	5.87735		
0.244432	2.26821	0.218112	2.02259	0.463767	4.30292	0.589316	5.46416	0.66154	6.14821			0.348587	3.23294	0.570626	5.29263	0.63255	5.86479		
0.245537	2.26517	0.219491	2.02351	0.464439	4.28402	0.592624	5.4628	0.663764	6.13283			0.349378	3.22138	0.572018	5.27459	0.634959	5.85281		
0.246645	2.26219	0.220869	2.02441	0.465111	4.26534	0.595932	5.46145	0.665972	6.11749			0.350173	3.20999	0.573363	5.25634	0.637412	5.84137		
0.247756	2.25928	0.222247	2.0253	0.465782	4.24686	0.599237	5.46009	0.668163	6.10216			0.350972	3.19877	0.574664	5.2379	0.639908	5.83044		
0.248871	2.25642	0.223625	2.02618	0.466452	4.22858	0.60254	5.45873	0.670335	6.08683			0.351775	3.18772	0.575922	5.21928	0.642444	5.82001		
0.249988	2.25363	0.225003	2.02705	0.467122	4.21051	0.60584	5.45736	0.672487	6.07151			0.352582	3.17682	0.577141	5.20052	0.645018	5.81004		
0.251107	2.25089	0.22638	2.0279	0.467792	4.19265	0.609136	5.45597	0.674619	6.05618			0.353393	3.16609	0.578322	5.18163	0.647628	5.8005		
0.25223	2.24821	0.227757	2.02874	0.468461	4.17498	0.612429	5.45456	0.67673	6.04083			0.354209	3.15552	0.579467	5.16264	0.650271	5.79138		
0.253356	2.24558	0.229133	2.02957	0.469131	4.15752	0.615718	5.45313	0.678819	6.02546			0.355028	3.1451	0.580579	5.14356	0.652947	5.78263		
0.254484	2.24301	0.23051	2.03039	0.469801	4.14025	0.619001	5.45168	0.680886	6.01006			0.355852	3.13483	0.58166	5.12442	0.655652	5.77425		
0.255615	2.24048	0.231886	2.03119	0.470471	4.12317	0.622279	5.45019	0.682929	5.99463			0.356679	3.12471	0.582711	5.10524	0.658385	5.7662		
0.256748	2.23801	0.233262	2.03199	0.471142	4.10629	0.625551	5.44866	0.684948	5.97916			0.357511	3.11473	0.583735	5.08603	0.661145	5.75847		
0.257884	2.23559	0.234637	2.03277	0.471813	4.0896	0.628815	5.44709	0.686944	5.96366			0.358346	3.1049	0.584733	5.0668	0.663928	5.75104		
0.259023	2.23322	0.236012	2.03354	0.472485	4.0731	0.632072	5.44546	0.688915	5.94811			0.359186	3.09522	0.585707	5.04758	0.666735	5.74388		
0.260164	2.23089	0.237387	2.0343	0.473159	4.05678	0.635319	5.44378	0.690862	5.93253			0.360029	3.08567	0.586659	5.02837	0.669562	5.73698		
0.261307	2.22861	0.238762	2.03505	0.473833	4.04065	0.638557	5.44204	0.692786	5.91691			0.360876	3.07625	0.587589	5.0092	0.67241	5.73032		
0.262453	2.22638	0.240137	2.03579	0.474508	4.02471	0.641784	5.44021	0.694686	5.90126			0.361728	3.06698	0.5885	4.99006	0.675275	5.72389		
0.263602	2.22419	0.241511	2.03652	0.475185	4.00894	0.644999	5.43831	0.696563	5.88559			0.362583	3.05783	0.589393	4.97097	0.678157	5.71767		
0.264753	2.22204	0.242885	2.03724	0.475863	3.99335	0.6482	5.43631	0.698419	5.8699			0.363442	3.04881	0.590269	4.95194	0.681055	5.71165		
0.265906	2.21993	0.244258	2.03795	0.476542	3.97794	0.651385	5.4342	0.700255	5.85421			0.364305	3.03992	0.591129	4.93298	0.683968	5.70581		
0.267061	2.21787	0.245631	2.03865	0.477223	3.9627	0.654553	5.43197	0.702071	5.83853			0.365171	3.03116	0.591974	4.9141	0.686894	5.70015		
0.268219	2.21584	0.247005	2.03935	0.477905	3.94764	0.657702	5.4296	0.703872	5.82288			0.366042	3.02252	0.592806	4.8953	0.689832	5.69464		
0.269379	2.21386	0.248377	2.04003	0.47859	3.93274	0.660829	5.42708	0.705657	5.80726			0.366916	3.014	0.593624	4.87659	0.692782	5.68929		
0.270541	2.21191	0.24975	2.0407	0.479275	3.91802	0.663932	5.42439	0.707431	5.79172			0.367795	3.0056	0.594431	4.85798	0.695742	5.68408		
0.271705	2.21	0.251122	2.04136	0.479963	3.90346	0.667007	5.4215	0.709197	5.77627			0.368677	2.99731	0.595227	4.83947	0.698712	5.67899		
0.272871	2.20813	0.252494	2.04202	0.480653	3.88906	0.670052	5.41839	0.710958	5.76093			0.369562	2.98914	0.596012	4.82107	0.70169	5.67403		
0.27404	2.20629	0.253866	2.04266	0.481344	3.87483	0.673062	5.41504	0.712719	5.74575			0.370452	2.98109	0.596788	4.80277	0.704676	5.66919		
0.27521	2.20449	0.255237	2.0433	0.482038	3.86075	0.676034	5.41141	0.714483	5.73076			0.371345	2.97314	0.597555	4.78459	0.707669	5.66444		
0.276383	2.20272	0.256609	2.04393	0.482733	3.84684	0.678962	5.40748	0.716257	5.71599			0.372241	2.9653	0.598314	4.76653	0.710669	5.6598		
0.277557	2.20099	0.25798	2.04455	0.483431	3.83308	0.681842	5.40319	0.718046	5.70149			0.373142	2.95758	0.599065	4.74859	0.713674	5.65525		
0.278733	2.19929	0.25935	2.04516	0.48413	3.81947	0.684667	5.39853	0.719856	5.6873			0.374046	2.94995	0.599809	4.73077	0.716683	5.65078		
0.279912	2.19762	0.260721	2.04577	0.484832	3.80602	0.687432	5.39344	0.721695	5.67348			0.374953	2.94243	0.600547	4.71307	0.719698	5.64639		
0.281092	2.19598	0.262091	2.04636	0.485536	3.79271	0.690132	5.38788					0.375864	2.93502	0.601278	4.69551	0.722715	5.64207		
0.282274	2.19437	0.263461	2.04695	0.486243	3.77956	0.692758	5.38181					0.376779	2.9277	0.602003	4.67807				
0.283458	2.19279	0.264831	2.04753	0.486951	3.76655	0.695306	5.37519					0.377697	2.92048	0.602724	4.66076				
0.284644	2.19125	0.2662	2.04811	0.487662	3.75369	0.697769	5.36799					0.378619	2.91336	0.603439	4.64358				
0.285831	2.18973	0.26757	2.04867	0.488375	3.74096	0.700142	5.36016					0.379544	2.90634	0.60415	4.62654				
0.287021	2.18824	0.268939	2.04923	0.489091	3.72838	0.702421	5.3517					0.380473	2.89941	0.604857	4.60962				
0.288212	2.18677	0.270308	2.04978	0.489809	3.71594	0.704604	5.34259					0.381405	2.89257	0.60556	4.59284				
0.289404	2.18533	0.271676	2.05033	0.49053	3.70364	0.706689	5.33282					0.382341	2.88582	0.60626	4.5762				
0.290599	2.18392	0.273044	2.05087	0.491252	3.69147	0.708676	5.32241					0.383279	2.87917	0.606956	4.55969				
0.291795	2.18254	0.274413	2.0514	0.491978	3.67943	0.710566	5.31138					0.384222	2.8726	0.60765	4.54331				
0.292993	2.18118	0.27578	2.05192	0.492706	3.66753	0.712364	5.29976					0.385167	2.86612	0.608341	4.52707				
0.294192	2.17984	0.277148	2.05244	0.493436	3.65576	0.714072	5.28759					0.386116	2.85972	0.609029	4.51096				
0.295393	2.17853	0.278515	2.05295	0.494169	3.64411	0.715696	5.27491					0.387069	2.8534	0.609716	4.49499				
0.296595	2.17725	0.279883	2.05345	0.494905	3.6326	0.717241	5.26178					0.388024	2.84717	0.6104	4.47915				
0.297799	2.17598	0.28125	2.05395	0.495643	3.6212	0.718713	5.24823					0.388983	2.84102	0.611083	4.46345				
0.299005	2.17474	0.282616	2.05444	0.496384	3.60994	0.720118	5.23431					0.389945	2.83496	0.611764	4.44787				
0.300212	2.17352	0.283983	2.05493	0.497127	3.59879							0.39091	2.82896	0.612443	4.43243				
0.30142	2.17232	0.285349	2.05541	0.497873	3.58776							0.391878	2.82305	0.613122	4.41713				
0.30263	2.17115	0.286715	2.05588	0.498622	3.57686							0.39285	2.81721	0.613799	4.40195				
0.303842	2.16999	0.288081	2.05635	0.499373	3.56607							0.393825	2.81145	0.614476	4.3869				
0.305054	2.16886	0.289447	2.05681	0.500127	3.55539							0.394802	2.80576	0.615152	4.37199				
0.306269	2.16774	0.290812	2.05727	0.500884	3.54483							0.395783	2.80015	0.615827	4.3572				
0.307484	2.16665	0.292177	2.05772	0.501643	3.53439							0.396767	2.79461	0.616502	4.34255				
0.308701	2.16557	0.293542	2.05817	0.502405	3.52405							0.397754	2.78913	0.617177	4.32802				
0.309919	2.16451	0.294907	2.05861	0.50317	3.51383							0.398744	2.78373	0.617851	4.31361				
0.311139	2.16348	0.296271	2.05904	0.503937	3.50371							0.399737	2.77839	0.618525	4.29934				
0.31236	2.16246	0.297636	2.05947	0.504707	3.4937							0.400733	2.77312	0.6192	4.28519				
0.313582	2.16145	0.299	2.0599	0.50548	3.4838							0.401732	2.76792	0.619874	4.27116				
0.314805	2.16047	0.300364	2.06031	0.506255	3.474							0.402733	2.76279	0.620549	4.25726				
0.31603	2.1595	0.301727	2.06073	0.507033	3.4643							0.403738	2.75771	0.621224	4.24347				
0.317256	2.15855	0.303091	2.06114	0.507814	3.45471							0.404746	2.7527	0.621899	4.22981				
0.318483	2.15761	0.304454	2.06154	0.508598	3.44522							0.405756	2.74776	0.622575	4.21627				
0.319711	2.15669	0.305817	2.06194	0.509384	3.43582							0.406769	2.74287	0.623251	4.20285				
0.32094	2.15579	0.30718	2.06234	0.510173	3.42653							0.407785	2.73805	0.623928	4.18955				
0.322171	2.1549	0.308543	2.06273	0.510964	3.41733							0.408804	2.73328	0.624606	4.17637				
0.323403	2.15402	0.309905	2.06311	0.511758	3.40822							0.409826	2.72857	0.625285	4.1633				
0.324636	2.15316	0.311267	2.06349	0.512555	3.39921							0.41085	2.72392	0.625964	4.15034				
0.32587	2.15232	0.312629	2.06387	0.513355	3.3903							0.411878	2.71933	0.626644	4.1375				
0.327105	2.15149	0.313991	2.06424	0.514157	3.38147							0.412907	2.71479	0.627326	4.12478				
0.328341	2.15067	0.315353	2.06461	0.514963	3.37274							0.41394	2.71031	0.628008	4.11216				
0.329578	2.14987	0.316714	2.06497	0.51577	3.36409							0.414975	2.70588	0.628692	4.09966				
0.330816	2.14908	0.318075	2.06533	0.516581	3.35553							0.416013	2.70151	0.629376	4.08727				
0.332056	2.14831	0.319436	2.06568	0.517394	3.34707							0.417053	2.69719	0.630062	4.07498				
0.333296	2.14754	0.320797	2.06603	0.51821	3.33868							0.418097	2.69292	0.630749	4.06281				
0.334537	2.14679	0.322158	2.06638	0.519028	3.33039							0.419142	2.6887	0.631437	4.05074				
0.335779	2.14606	0.323518	2.06672	0.519849	3.32217							0.42019	2.68454	0.632127	4.03878				
0.337023	2.14533	0.324878	2.06706	0.520673	3.31404							0.421241	2.68042	0.632818	4.02692				
0.338267	2.14462	0.326238	2.06739	0.521499	3.30599							0.422294	2.67635	0.63351	4.01517				
0.339512	2.14392	0.327598	2.06772	0.522328	3.29803							0.42335	2.67233	0.634204	4.00351				
0.340758	2.14322	0.328958	2.06805	0.52316	3.29014							0.424409	2.66836	0.634899	3.99197				
0.342005	2.14255	0.330317	2.06837	0.523994	3.28233							0.425469	2.66443	0.635596	3.98052				
0.343253	2.14188	0.331677	2.06869	0.524831	3.2746							0.426533	2.66055	0.636294	3.96917				
0.344502	2.14122	0.333036	2.069	0.525671	3.26695							0.427598	2.65672	0.636994	3.95792				
0.345752	2.14057	0.334395	2.06932	0.526513	3.25937							0.428666	2.65293	0.637695	3.94677				
0.347003	2.13994	0.335753	2.06962	0.527358	3.25187							0.429737	2.64919	0.638398	3.93571				
0.348254	2.13931	0.337112	2.06993	0.528205	3.24444							0.430809	2.64548	0.639103	3.92476				
0.349507	2.1387	0.33847	2.07023	0.529055	3.23708							0.431885	2.64183	0.639809	3.91389				
0.35076	2.13809	0.339828	2.07053	0.529908	3.2298							0.432962	2.63821	0.640518	3.90312				
0.352014	2.13749	0.341186	2.07082	0.530763	3.22259							0.434042	2.63464	0.641227	3.89245				
0.353269	2.13691	0.342544	2.07111	0.53162	3.21545							0.435124	2.6311	0.641939	3.88186				
0.354525	2.13633	0.343901	2.0714	0.532481	3.20838							0.436208	2.62761	0.642652	3.87137				
0.355781	2.13576	0.345259	2.07168	0.533343	3.20138							0.437295	2.62416	0.643367	3.86097				
0.357039	2.1352	0.346616	2.07196	0.534209	3.19445							0.438384	2.62075	0.644084	3.85066				
0.358297	2.13465	0.347973	2.07224	0.535076	3.18758							0.439475	2.61738	0.644803	3.84043				
0.359556	2.13411	0.34933	2.07251	0.535947	3.18078							0.440568	2.61404	0.645524	3.8303				
0.360815	2.13358	0.350687	2.07279	0.53682	3.17405							0.441664	2.61074	0.646246	3.82025				
0.362076	2.13306	0.352043	2.07305	0.537695	3.16738							0.442762	2.60748	0.64697	3.81028				
0.363337	2.13254	0.353399	2.07332	0.538573	3.16078							0.443861	2.60426	0.647696	3.8004				
0.364599	2.13203	0.354755	2.07358	0.539453	3.15423							0.444963	2.60108	0.648424	3.79061				
0.365861	2.13153	0.356111	2.07384	0.540336	3.14776							0.446067	2.59792	0.649154	3.7809				
0.367125	2.13104	0.357467	2.0741	0.541221	3.14134							0.447174	2.59481	0.649886	3.77127				
0.368389	2.13056	0.358823	2.07435	0.542109	3.13498							0.448282	2.59173	0.65062	3.76172				
0.369654	2.13008	0.360178	2.0746	0.542999	3.12869							0.449392	2.58868	0.651356	3.75225				
0.370919	2.12961	0.361533	2.07485	0.543892	3.12245							0.450505	2.58567	0.652094	3.74286				
0.372185	2.12915	0.362888	2.07509	0.544787	3.11628							0.451619	2.58269	0.652833	3.73356				
0.373452	2.12869	0.364243	2.07533	0.545684	3.11016							0.452736	2.57975	0.653575	3.72433				
0.374719	2.12825	0.365598	2.07557	0.546584	3.1041							0.453854	2.57683	0.654318	3.71517				
0.375987	2.1278	0.366953	2.07581	0.547486	3.09809							0.454975	2.57395	0.655064	3.7061				
0.377256	2.12737	0.368307	2.07604	0.548391	3.09215							0.456097	2.5711	0.655811	3.6971				
0.378525	2.12694	0.369661	2.07628	0.549298	3.08625							0.457222	2.56829	0.656561	3.68818				
0.379795	2.12652	0.371015	2.0765	0.550207	3.08042							0.458348	2.5655	0.657313	3.67933				
0.381066	2.12611	0.372369	2.07673	0.551119	3.07463							0.459476	2.56274	0.658066	3.67055				
0.382337	2.1257	0.373723	2.07695	0.552033	3.0689							0.460607	2.56002	0.658822	3.66185				
0.383609	2.1253	0.375076	2.07718	0.552949	3.06323							0.461739	2.55732	0.659579	3.65321				
0.384882	2.1249	0.37643	2.07739	0.553868	3.0576							0.462873	2.55465	0.660339	3.64465				
0.386155	2.12451	0.377783	2.07761	0.554789	3.05203							0.464009	2.55201	0.661101	3.63616				
0.387428	2.12413	0.379136	2.07782	0.555712	3.04651							0.465146	2.5494	0.661864	3.62775				
0.388703	2.12375	0.380489	2.07804	0.556638	3.04104							0.466286	2.54682	0.66263	3.6194				
0.389977	2.12338	0.381841	2.07825	0.557566	3.03562							0.467427	2.54426	0.663398	3.61111				
0.391253	2.12301	0.383194	2.07845	0.558496	3.03025							0.468571	2.54174	0.664167	3.6029				
0.392529	2.12265	0.384546	2.07866	0.559428	3.02493							0.469716	2.53924	0.664939	3.59475				
0.393805	2.12229	0.385898	2.07886	0.560363	3.01966							0.470863	2.53676	0.665713	3.58667				
0.395082	2.12194	0.38725	2.07906	0.5613	3.01443							0.472011	2.53432	0.666489	3.57866				
0.39636	2.1216	0.388602	2.07926	0.562239	3.00925							0.473162	2.53189	0.667267	3.57071				
0.397638	2.12126	0.389954	2.07945	0.56318	3.00412							0.474314	2.5295	0.668047	3.56283				
0.398916	2.12092	0.391306	2.07965	0.564123	2.99904							0.475468	2.52713	0.668829	3.55501				
0.400195	2.12059	0.392657	2.07984	0.565069	2.994							0.476623	2.52478	0.669613	3.54725				
0.401475	2.12027	0.394008	2.08003	0.566017	2.98901							0.47778	2.52246	0.670399	3.53955				
0.402755	2.11995	0.395359	2.08021	0.566967	2.98406							0.478939	2.52017	0.671187	3.53192				
0.404036	2.11963	0.39671	2.0804	0.567919	2.97915							0.4801	2.51789	0.671977	3.52435				
0.405317	2.11932	0.398061	2.08058	0.568874	2.97429							0.481262	2.51565	0.672769	3.51684				
0.406599	2.11901	0.399412	2.08076	0.56983	2.96947							0.482426	2.51342	0.673564	3.50939				
0.407881	2.11871	0.400762	2.08094	0.570789	2.9647							0.483592	2.51122	0.67436	3.502				
0.409163	2.11842	0.402112	2.08112	0.571749	2.95996							0.484759	2.50904	0.675158	3.49467				
0.410446	2.11812	0.403462	2.08129	0.572712	2.95527							0.485928	2.50688	0.675958	3.48739				
0.41173	2.11783	0.404812	2.08147	0.573677	2.95062							0.487098	2.50475	0.676761	3.48018				
0.413014	2.11755	0.406162	2.08164	0.574644	2.94601							0.48827	2.50264	0.677565	3.47302				
0.414298	2.11727	0.407512	2.08181	0.575613	2.94144							0.489444	2.50055	0.678372	3.46591				
0.415583	2.11699	0.408861	2.08197	0.576584	2.93691							0.490619	2.49848	0.67918	3.45887				
0.416868	2.11672	0.410211	2.08214	0.577558	2.93242							0.491796	2.49643	0.679991	3.45188				
0.418154	2.11645	0.41156	2.0823	0.578533	2.92797							0.492974	2.4944	0.680803	3.44494				
0.41944	2.11619	0.412909	2.08246	0.57951	2.92356							0.494154	2.4924	0.681618	3.43806				
0.420727	2.11593	0.414258	2.08262	0.58049	2.91919							0.495335	2.49041	0.682434	3.43123				
0.422014	2.11567	0.415607	2.08278	0.581471	2.91485							0.496518	2.48844	0.683253	3.42446				
0.423301	2.11542	0.416955	2.08294	0.582454	2.91055							0.497702	2.4865	0.684074	3.41774				
0.424589	2.11517	0.418304	2.08309	0.58344	2.90629							0.498888	2.48457	0.684896	3.41107				
0.425877	2.11492	0.419652	2.08325	0.584427	2.90207							0.500076	2.48267	0.685721	3.40445				
0.427166	2.11468	0.421	2.0834	0.585416	2.89788							0.501264	2.48078	0.686547	3.39789				
0.428455	2.11444	0.422348	2.08355	0.586408	2.89373							0.502455	2.47891	0.687376	3.39137				
0.429745	2.11421	0.423696	2.0837	0.587401	2.88961							0.503646	2.47706	0.688206	3.38491				
0.431035	2.11398	0.425044	2.08384	0.588396	2.88553							0.504839	2.47523	0.689039	3.37849				
0.432325	2.11375	0.426391	2.08399	0.589393	2.88148							0.506034	2.47341	0.689874	3.37213				
0.433616	2.11352	0.427739	2.08413	0.590392	2.87747							0.50723	2.47162	0.69071	3.36581				
0.434907	2.1133	0.429086	2.08427	0.591393	2.87349							0.508427	2.46984	0.691549	3.35955				
0.436198	2.11308	0.430433	2.08441	0.592396	2.86954							0.509626	2.46808	0.692389	3.35333				
0.43749	2.11287	0.43178	2.08455	0.5934	2.86563							0.510826	2.46634	0.693232	3.34715				
0.438782	2.11265	0.433127	2.08469	0.594407	2.86175							0.512027	2.46461	0.694076	3.34103				
0.440074	2.11244	0.434474	2.08482	0.595416	2.8579							0.51323	2.46291	0.694922	3.33495				
0.441367	2.11224	0.435821	2.08496	0.596426	2.85409							0.514434	2.46121	0.695771	3.32892				
0.44266	2.11203	0.437167	2.08509	0.597438	2.85031							0.515639	2.45954	0.696621	3.32293				
0.443954	2.11183	0.438513	2.08522	0.598452	2.84655							0.516846	2.45788	0.697473	3.31699				
0.445248	2.11163	0.43986	2.08535	0.599468	2.84283							0.518054	2.45624	0.698327	3.31109				
0.446542	2.11144	0.441206	2.08548	0.600486	2.83915							0.519264	2.45461	0.699183	3.30524				
0.447836	2.11125	0.442552	2.08561	0.601505	2.83549							0.520474	2.453	0.700041	3.29943				
0.449131	2.11106	0.443897	2.08573	0.602526	2.83186							0.521686	2.45141	0.700901	3.29366				
0.450427	2.11087	0.445243	2.08586	0.60355	2.82826							0.5229	2.44983	0.701763	3.28794				
0.451722	2.11068	0.446588	2.08598	0.604574	2.82469							0.524114	2.44826	0.702627	3.28226				
0.453018	2.1105	0.447934	2.0861	0.605601	2.82115							0.52533	2.44671	0.703493	3.27663				
0.454314	2.11032	0.449279	2.08622	0.60663	2.81764							0.526547	2.44518	0.70436	3.27103				
0.455611	2.11015	0.450624	2.08634	0.60766	2.81416							0.527765	2.44366	0.70523	3.26548				
0.456907	2.10997	0.451969	2.08646	0.608692	2.81071							0.528985	2.44215	0.706101	3.25997				
0.458205	2.1098	0.453314	2.08657	0.609725	2.80728							0.530206	2.44066	0.706974	3.2545				
0.459502	2.10963	0.454659	2.08669	0.610761	2.80388							0.531427	2.43919	0.707849	3.24906				
0.4608	2.10946	0.456003	2.0868	0.611798	2.80051							0.532651	2.43772	0.708726	3.24367				
0.462098	2.1093	0.457348	2.08692	0.612837	2.79717							0.533875	2.43628	0.709605	3.23832				
0.463396	2.10914	0.458692	2.08703	0.613877	2.79385							0.5351	2.43484	0.710486	3.23301				
0.464695	2.10897	0.460036	2.08714	0.61492	2.79056							0.536327	2.43342	0.711369	3.22774				
0.465993	2.10882	0.46138	2.08725	0.615963	2.7873							0.537555	2.43201	0.712253	3.2225				
0.467293	2.10866	0.462724	2.08735	0.617009	2.78407							0.538784	2.43062	0.713139	3.21731				
0.468592	2.10851	0.464068	2.08746	0.618056	2.78086							0.540014	2.42924	0.714028	3.21215				
0.469892	2.10835	0.465412	2.08756	0.619105	2.77767							0.541245	2.42787	0.714918	3.20703				
0.471192	2.10821	0.466755	2.08767	0.620156	2.77451							0.542478	2.42651	0.715809	3.20194				
0.472492	2.10806	0.468099	2.08777	0.621208	2.77138							0.543711	2.42517	0.716703	3.1969				
0.473793	2.10791	0.469442	2.08787	0.622262	2.76827							0.544946	2.42384	0.717598	3.19189				
0.475093	2.10777	0.470785	2.08797	0.623317	2.76518							0.546182	2.42252	0.718496	3.18691				
0.476395	2.10763	0.472128	2.08807	0.624374	2.76212							0.547419	2.42121	0.719395	3.18197				
0.477696	2.10749	0.473471	2.08817	0.625433	2.75909							0.548657	2.41992	0.720296	3.17707				
0.478997	2.10735	0.474814	2.08827	0.626493	2.75607							0.549896	2.41864						
0.480299	2.10721	0.476157	2.08837	0.627555	2.75309							0.551136	2.41737						
0.481601	2.10708	0.477499	2.08846	0.628619	2.75012							0.552377	2.41611						
0.482904	2.10695	0.478842	2.08856	0.629684	2.74718							0.553619	2.41486						
0.484206	2.10682	0.480184	2.08865	0.63075	2.74426							0.554863	2.41363						
0.485509	2.10669	0.481526	2.08874	0.631818	2.74136							0.556107	2.41241						
0.486812	2.10656	0.482869	2.08883	0.632888	2.73849							0.557353	2.41119						
0.488116	2.10644	0.484211	2.08892	0.633959	2.73564							0.558599	2.40999						
0.489419	2.10631	0.485552	2.08901	0.635032	2.73281							0.559846	2.4088						
0.490723	2.10619	0.486894	2.0891	0.636106	2.73							0.561095	2.40762						
0.492027	2.10607	0.488236	2.08919	0.637182	2.72722							0.562344	2.40645						
0.493331	2.10595	0.489577	2.08927	0.638259	2.72445							0.563595	2.40529						
0.494636	2.10584	0.490919	2.08936	0.639338	2.72171							0.564846	2.40414						
0.49594	2.10572	0.49226	2.08944	0.640418	2.71899							0.566099	2.40301						
0.497245	2.10561	0.493601	2.08953	0.6415	2.71629							0.567352	2.40188						
0.49855	2.10549	0.494942	2.08961	0.642583	2.71361							0.568607	2.40076						
0.499856	2.10538	0.496283	2.08969	0.643668	2.71095							0.569862	2.39965						
0.501161	2.10527	0.497624	2.08977	0.644754	2.70831							0.571118	2.39856						
0.502467	2.10517	0.498965	2.08985	0.645841	2.70569							0.572376	2.39747						
0.503773	2.10506	0.500306	2.08993	0.646931	2.70309							0.573634	2.39639						
0.505079	2.10496	0.501646	2.09001	0.648021	2.70051							0.574893	2.39532						
0.506386	2.10485	0.502987	2.09009	0.649113	2.69795							0.576153	2.39426						
0.507692	2.10475	0.504327	2.09016	0.650206	2.6954							0.577414	2.39321						
0.508999	2.10465	0.505667	2.09024	0.651301	2.69288							0.578676	2.39217						
0.510306	2.10455	0.507007	2.09031	0.652397	2.69038							0.579939	2.39114						
0.511613	2.10445	0.508347	2.09039	0.653494	2.68789							0.581203	2.39012						
0.51292	2.10436	0.509687	2.09046	0.654593	2.68543							0.582467	2.38911						
0.514228	2.10426	0.511027	2.09053	0.655694	2.68298							0.583733	2.3881						
0.515536	2.10417	0.512366	2.0906	0.656795	2.68055							0.584999	2.38711						
0.516844	2.10407	0.513706	2.09067	0.657898	2.67814							0.586267	2.38612						
0.518152	2.10398	0.515045	2.09074	0.659003	2.67575							0.587535	2.38514						
0.51946	2.10389	0.516385	2.09081	0.660108	2.67337							0.588804	2.38417						
0.520769	2.1038	0.517724	2.09088	0.661215	2.67101							0.590074	2.38321						
0.522077	2.10371	0.519063	2.09095	0.662324	2.66867							0.591345	2.38226						
0.523386	2.10363	0.520402	2.09101	0.663433	2.66635							0.592616	2.38131						
0.524695	2.10354	0.521741	2.09108	0.664544	2.66404							0.593889	2.38038						
0.526004	2.10346	0.52308	2.09115	0.665657	2.66175							0.595162	2.37945						
0.527314	2.10337	0.524419	2.09121	0.66677	2.65948							0.596436	2.37853						
0.528623	2.10329	0.525758	2.09127	0.667885	2.65722							0.597711	2.37762						
0.529933	2.10321	0.527096	2.09134	0.669002	2.65499							0.598987	2.37671						
0.531243	2.10313	0.528435	2.0914	0.670119	2.65276							0.600263	2.37581						
0.532553	2.10305	0.529773	2.09146	0.671238	2.65055							0.601541	2.37493						
0.533863	2.10297	0.531111	2.09152	0.672358	2.64836							0.602819	2.37404						
0.535174	2.10289	0.532449	2.09158	0.673479	2.64619							0.604098	2.37317						
0.536484	2.10282	0.533787	2.09164	0.674602	2.64403							0.605378	2.3723						
0.537795	2.10274	0.535126	2.0917	0.675726	2.64188							0.606658	2.37144						
0.539106	2.10267	0.536463	2.09176	0.676851	2.63976							0.607939	2.37059						
0.540417	2.10259	0.537801	2.09182	0.677977	2.63764							0.609222	2.36975						
0.541728	2.10252	0.539139	2.09188	0.679105	2.63555							0.610504	2.36891						
0.543039	2.10245	0.540477	2.09193	0.680234	2.63346							0.611788	2.36808						
0.544351	2.10238	0.541814	2.09199	0.681364	2.63139							0.613072	2.36725						
0.545662	2.10231	0.543151	2.09204	0.682495	2.62934							0.614358	2.36644						
0.546974	2.10224	0.544489	2.0921	0.683627	2.6273							0.615643	2.36563						
0.548286	2.10217	0.545826	2.09215	0.684761	2.62528							0.61693	2.36482						
0.549598	2.10211	0.547163	2.09221	0.685896	2.62327							0.618217	2.36403						
0.55091	2.10204	0.5485	2.09226	0.687032	2.62127							0.619505	2.36324						
0.552223	2.10198	0.549837	2.09231	0.688169	2.61929							0.620794	2.36246						
0.553535	2.10191	0.551174	2.09236	0.689308	2.61732							0.622084	2.36168						
0.554848	2.10185	0.552511	2.09241	0.690447	2.61537							0.623374	2.36091						
0.556161	2.10179	0.553848	2.09246	0.691588	2.61343							0.624665	2.36014						
0.557473	2.10172	0.555184	2.09251	0.69273	2.6115							0.625957	2.35939						
0.558786	2.10166	0.556521	2.09256	0.693873	2.60959							0.627249	2.35864						
0.5601	2.1016	0.557857	2.09261	0.695017	2.60769							0.628542	2.35789						
0.561413	2.10154	0.559194	2.09266	0.696162	2.6058							0.629836	2.35715						
0.562726	2.10148	0.56053	2.09271	0.697309	2.60393							0.63113	2.35642						
0.56404	2.10143	0.561866	2.09276	0.698456	2.60207							0.632426	2.35569						
0.565354	2.10137	0.563203	2.0928	0.699605	2.60022							0.633721	2.35497						
0.566667	2.10131	0.564539	2.09285	0.700755	2.59839							0.635018	2.35425						
0.567981	2.10126	0.565875	2.09289	0.701906	2.59657							0.636315	2.35354						
0.569295	2.1012	0.56721	2.09294	0.703058	2.59476							0.637613	2.35284						
0.57061	2.10115	0.568546	2.09298	0.704211	2.59296							0.638911	2.35214						
0.571924	2.10109	0.569882	2.09303	0.705365	2.59118							0.64021	2.35145						
0.573238	2.10104	0.571218	2.09307	0.70652	2.58941							0.64151	2.35076						
0.574553	2.10099	0.572553	2.09311	0.707677	2.58765							0.642811	2.35008						
0.575867	2.10094	0.573889	2.09316	0.708834	2.5859							0.644112	2.34941						
0.577182	2.10089	0.575224	2.0932	0.709993	2.58416							0.645413	2.34874						
0.578497	2.10084	0.57656	2.09324	0.711152	2.58244							0.646716	2.34807						
0.579812	2.10079	0.577895	2.09328	0.712313	2.58072							0.648019	2.34741						
0.581127	2.10074	0.57923	2.09332	0.713475	2.57902							0.649322	2.34676						
0.582442	2.10069	0.580565	2.09336	0.714637	2.57733							0.650626	2.34611						
0.583758	2.10064	0.5819	2.0934	0.715801	2.57566							0.651931	2.34546						
0.585073	2.10059	0.583235	2.09344	0.716966	2.57399							0.653237	2.34483						
0.586389	2.10055	0.58457	2.09348	0.718132	2.57234							0.654543	2.34419						
0.587704	2.1005	0.585905	2.09352	0.719299	2.57069							0.655849	2.34356						
0.58902	2.10046	0.58724	2.09356	0.720467	2.56906							0.657157	2.34294						
0.590336	2.10041	0.588574	2.0936									0.658464	2.34232						
0.591652	2.10037	0.589909	2.09363									0.659773	2.34171						
0.592968	2.10032	0.591243	2.09367									0.661082	2.3411						
0.594284	2.10028	0.592578	2.09371									0.662391	2.34049						
0.595601	2.10024	0.593912	2.09374									0.663702	2.33989						
0.596917	2.1002	0.595247	2.09378									0.665012	2.3393						
0.598233	2.10016	0.596581	2.09381									0.666324	2.33871						
0.59955	2.10011	0.597915	2.09385									0.667636	2.33812						
0.600867	2.10007	0.599249	2.09388									0.668948	2.33754						
0.602183	2.10003	0.600583	2.09392									0.670261	2.33696						
0.6035	2.09999	0.601917	2.09395									0.671575	2.33639						
0.604817	2.09996	0.603251	2.09398									0.672889	2.33582						
0.606134	2.09992	0.604585	2.09402									0.674203	2.33526						
0.607451	2.09988	0.605919	2.09405									0.675519	2.3347						
0.608769	2.09984	0.607252	2.09408									0.676834	2.33415						
0.610086	2.09981	0.608586	2.09411									0.678151	2.3336						
0.611403	2.09977	0.60992	2.09414									0.679467	2.33305						
0.612721	2.09973	0.611253	2.09418									0.680785	2.33251						
0.614038	2.0997	0.612587	2.09421									0.682103	2.33197						
0.615356	2.09966	0.61392	2.09424									0.683421	2.33144						
0.616674	2.09963	0.615253	2.09427									0.68474	2.33091						
0.617992	2.09959	0.616587	2.0943									0.686059	2.33038						
0.61931	2.09956	0.61792	2.09433									0.687379	2.32986						
0.620628	2.09953	0.619253	2.09436									0.6887	2.32934						
0.621946	2.09949	0.620586	2.09438									0.690021	2.32883						
0.623264	2.09946	0.621919	2.09441									0.691342	2.32832						
0.624582	2.09943	0.623252	2.09444									0.692664	2.32781						
0.6259	2.0994	0.624585	2.09447									0.693987	2.32731						
0.627219	2.09936	0.625918	2.0945									0.695309	2.32681						
0.628537	2.09933	0.627251	2.09452									0.696633	2.32632						
0.629856	2.0993	0.628583	2.09455									0.697957	2.32583						
0.631175	2.09927	0.629916	2.09458									0.699281	2.32534						
0.632493	2.09924	0.631249	2.0946									0.700606	2.32485						
0.633812	2.09921	0.632581	2.09463									0.701931	2.32437						
0.635131	2.09918	0.633914	2.09465									0.703257	2.3239						
0.63645	2.09916	0.635246	2.09468									0.704584	2.32342						
0.637769	2.09913	0.636579	2.0947									0.70591	2.32295						
0.639088	2.0991	0.637911	2.09473									0.707238	2.32249						
0.640407	2.09907	0.639243	2.09475									0.708565	2.32203						
0.641726	2.09904	0.640576	2.09478									0.709893	2.32157						
0.643046	2.09902	0.641908	2.0948									0.711222	2.32111						
0.644365	2.09899	0.64324	2.09482									0.712551	2.32066						
0.645684	2.09896	0.644572	2.09485									0.713881	2.32021						
0.647004	2.09894	0.645904	2.09487									0.71521	2.31976						
0.648323	2.09891	0.647236	2.09489									0.716541	2.31932						
0.649643	2.09889	0.648568	2.09492									0.717872	2.31888						
0.650963	2.09886	0.6499	2.09494									0.719203	2.31844						
0.652282	2.09884	0.651231	2.09496									0.720535	2.31801						
0.653602	2.09881	0.652563	2.09498																
0.654922	2.09879	0.653895	2.095																
0.656242	2.09877	0.655227	2.09503																
0.657562	2.09874	0.656558	2.09505																
0.658882	2.09872	0.65789	2.09507																
0.660202	2.0987	0.659221	2.09509																
0.661523	2.09867	0.660553	2.09511																
0.662843	2.09865	0.661884	2.09513																
0.664163	2.09863	0.663216	2.09515																
0.665484	2.09861	0.664547	2.09517																
0.666804	2.09859	0.665878	2.09519																
0.668125	2.09856	0.667209	2.09521																
0.669445	2.09854	0.668541	2.09523																
0.670766	2.09852	0.669872	2.09524																
0.672086	2.0985	0.671203	2.09526																
0.673407	2.09848	0.672534	2.09528																
0.674728	2.09846	0.673865	2.0953																
0.676049	2.09844	0.675196	2.09532																
0.677369	2.09842	0.676527	2.09533																
0.67869	2.0984	0.677858	2.09535																
0.680011	2.09838	0.679188	2.09537																
0.681332	2.09837	0.680519	2.09539																
0.682654	2.09835	0.68185	2.0954																
0.683975	2.09833	0.683181	2.09542																
0.685296	2.09831	0.684511	2.09544																
0.686617	2.09829	0.685842	2.09545																
0.687938	2.09828	0.687172	2.09547																
0.68926	2.09826	0.688503	2.09549																
0.690581	2.09824	0.689833	2.0955																
0.691903	2.09822	0.691164	2.09552																
0.693224	2.09821	0.692494	2.09553																
0.694546	2.09819	0.693825	2.09555																
0.695867	2.09817	0.695155	2.09556																
0.697189	2.09816	0.696485	2.09558																
0.69851	2.09814	0.697816	2.09559																
0.699832	2.09813	0.699146	2.09561																
0.701154	2.09811	0.700476	2.09562																
0.702476	2.0981	0.701806	2.09564																
0.703798	2.09808	0.703136	2.09565																
0.705119	2.09807	0.704466	2.09566																
0.706441	2.09805	0.705796	2.09568																
0.707763	2.09804	0.707126	2.09569																
0.709085	2.09802	0.708456	2.0957																
0.710407	2.09801	0.709786	2.09572																
0.71173	2.09799	0.711116	2.09573																
0.713052	2.09798	0.712446	2.09574																
0.714374	2.09796	0.713776	2.09576																
0.715696	2.09795	0.715106	2.09577																
0.717018	2.09794	0.716435	2.09578																
0.718341	2.09792	0.717765	2.09579																
0.719663	2.09791	0.719095	2.09581																
0.720985	2.0979	0.720425	2.09582																
