Sym0		Asym0		Sym1		Sym2		Sym3		Sym4		Asym1		Asym2		Asym3		Asym4	
545  Points		545  Points		445  Points		212  Points		197  Points		149  Points		496  Points		354  Points		200  Points		147  Points	
Freq (MHz)	Vph (m/ms)	Freq (MHz)	Vph (m/ms)	Freq (MHz)	Vph (m/ms)	Freq (MHz)	Vph (m/ms)	Freq (MHz)	Vph (m/ms)	Freq (MHz)	Vph (m/ms)	Freq (MHz)	Vph (m/ms)	Freq (MHz)	Vph (m/ms)	Freq (MHz)	Vph (m/ms)	Freq (MHz)	Vph (m/ms)
0.00343227	5.53831	0.000184701	0.121712	0.168654	1164.37	0.27951	1654.41	0.505962	1978.09	0.559037	894.664	0.13976	648.205	0.337305	626.818	0.419263	8040.48	0.674614	2635.37
0.00693479	5.53814	0.000370024	0.172105	0.168649	216.968	0.27955	348.825	0.505946	569.607	0.559096	444.676	0.139839	164.892	0.337292	288.141	0.419286	612.455	0.674576	759.281
0.0104368	5.53782	0.0006181	0.222143	0.168637	119.621	0.27964	195.026	0.505914	332.686	0.559196	295.907	0.140013	94.5703	0.337269	187.057	0.419349	318.399	0.674496	443.486
0.0139382	5.5374	0.000927921	0.271727	0.168618	82.5663	0.279782	135.401	0.505864	234.942	0.559335	221.763	0.140281	66.3904	0.337237	138.468	0.419453	215.158	0.674376	313.175
0.0174387	5.53687	0.00129834	0.320788	0.168592	63.033	0.279975	103.742	0.505798	181.576	0.559513	177.36	0.140643	51.2278	0.337195	109.909	0.419595	162.51	0.674218	242.019
0.0209379	5.53619	0.00172794	0.369234	0.16856	50.9689	0.280218	84.1186	0.505716	147.954	0.55973	147.798	0.141096	41.7704	0.337145	91.1103	0.419778	130.592	0.674023	197.183
0.0244358	5.53539	0.00221509	0.416977	0.168522	42.7767	0.280512	70.7706	0.505617	124.828	0.559986	126.705	0.141639	35.3185	0.337085	77.7974	0.42	109.179	0.673794	166.339
0.027932	5.53445	0.00275806	0.463951	0.168479	36.8498	0.280856	61.1069	0.505504	107.945	0.560279	110.901	0.142272	30.6436	0.337017	67.8743	0.42026	93.8221	0.673534	143.82
0.0314261	5.53338	0.00335499	0.510096	0.16843	32.3625	0.281249	53.7905	0.505376	95.0772	0.560609	98.6207	0.142992	27.1062	0.336941	60.1921	0.42056	82.2725	0.673246	126.654
0.034918	5.53216	0.00400387	0.55535	0.168377	28.8468	0.281691	48.0616	0.505234	84.9435	0.560976	88.8048	0.143798	24.3407	0.336858	54.0683	0.420897	73.2728	0.672933	113.134
0.0384074	5.53078	0.00470258	0.599659	0.168321	26.018	0.282182	43.456	0.505079	76.7558	0.561378	80.7807	0.144687	22.1228	0.336767	49.0722	0.421272	66.0643	0.672597	102.21
0.0418937	5.52924	0.00544909	0.642995	0.168261	23.6925	0.28272	39.6747	0.504911	70.0022	0.561815	74.0999	0.145656	20.3072	0.336669	44.9184	0.421685	60.162	0.672242	93.1988
0.0453767	5.52754	0.0062412	0.68532	0.168199	21.7471	0.283306	36.5159	0.504732	64.3361	0.562286	68.4519	0.146704	18.796	0.336566	41.4103	0.422134	55.2416	0.671871	85.6382
0.0488559	5.52565	0.00707669	0.726601	0.168136	20.0957	0.283938	33.8389	0.504543	59.5141	0.56279	63.6153	0.147829	17.5204	0.336457	38.4081	0.42262	51.0777	0.671485	79.2041
0.0523309	5.52357	0.00795341	0.766822	0.168072	18.6763	0.284616	31.5422	0.504343	55.3605	0.563326	59.4274	0.149027	16.4307	0.336343	35.8098	0.423141	47.5092	0.671087	73.6619
0.0558012	5.52129	0.00886913	0.805965	0.168009	17.4434	0.285338	29.551	0.504135	51.7454	0.563894	55.7665	0.150295	15.4905	0.336225	33.5388	0.423698	44.4175	0.670678	68.8382
0.0592662	5.51878	0.00982179	0.844027	0.167948	16.3626	0.286105	27.8089	0.503919	48.5702	0.564492	52.5395	0.151633	14.6719	0.336103	31.5371	0.424289	41.7138	0.670262	64.6019
0.0627253	5.51602	0.0108093	0.881002	0.16789	15.4076	0.286915	26.2726	0.503695	45.7592	0.565119	49.6738	0.153036	13.9537	0.335979	29.7593	0.424913	39.3297	0.66984	60.8518
0.0661779	5.51302	0.0118295	0.916896	0.167836	14.5577	0.287767	24.9081	0.503466	43.2531	0.565775	47.1123	0.154502	13.3193	0.335852	28.17	0.425571	37.2122	0.669413	57.5088
0.069623	5.50972	0.0128806	0.95171	0.167788	13.7966	0.288661	23.6887	0.503231	41.005	0.566458	44.8094	0.156029	12.7555	0.335724	26.7407	0.426262	35.3193	0.668982	54.51
0.0730598	5.50612	0.0139605	0.985452	0.167746	13.1114	0.289596	22.5928	0.502992	38.9768	0.567169	42.7279	0.157614	12.2516	0.335594	25.4484	0.426984	33.6174	0.66855	51.8051
0.0764874	5.50218	0.0150676	1.01814	0.167713	12.4913	0.290571	21.6029	0.502749	37.1379	0.567905	40.8376	0.159254	11.7991	0.335465	24.2744	0.427737	32.0794	0.668117	49.3528
0.0799044	5.49785	0.0161999	1.04979	0.16769	11.9277	0.291584	20.7047	0.502503	35.463	0.568667	39.1135	0.160948	11.3908	0.335337	23.2032	0.428521	30.6828	0.667683	47.1195
0.0833098	5.49312	0.0173559	1.08042	0.16768	11.4135	0.292635	19.8863	0.502256	33.931	0.569452	37.5348	0.162692	11.0209	0.335209	22.222	0.429334	29.4092	0.667252	45.0771
0.0867018	5.48792	0.018534	1.11005	0.167683	10.9427	0.293723	19.1377	0.502007	32.5246	0.570262	36.0839	0.164484	10.6846	0.335084	21.3198	0.430177	28.2434	0.666822	43.2022
0.0900787	5.4822	0.0197326	1.13871	0.167703	10.5102	0.294847	18.4506	0.501759	31.2288	0.571094	34.746	0.166323	10.3777	0.334962	20.4876	0.431048	27.1723	0.666395	41.4751
0.0934385	5.47591	0.0209502	1.16641	0.167742	10.1118	0.296007	17.818	0.50151	30.0312	0.571949	33.5086	0.168205	10.0967	0.334843	19.7176	0.431947	26.185	0.665972	39.879
0.0967788	5.46896	0.0221856	1.19317	0.167802	9.74393	0.2972	17.2337	0.501263	28.9211	0.572825	32.3609	0.170129	9.83867	0.334729	19.0031	0.432873	25.2722	0.665553	38.3996
0.100097	5.46127	0.0234376	1.21904	0.167886	9.40349	0.298427	16.6927	0.501018	27.8893	0.573721	31.2934	0.172093	9.60106	0.33462	18.3385	0.433825	24.4259	0.665139	37.0247
0.103389	5.45275	0.0247047	1.24402	0.167999	9.08786	0.299686	16.1904	0.500776	26.9278	0.574638	30.2982	0.174094	9.38167	0.334517	17.7187	0.434803	23.6391	0.66473	35.7436
0.106652	5.44327	0.025986	1.26815	0.168143	8.79479	0.300977	15.7229	0.500537	26.0297	0.575574	29.3682	0.17613	9.17859	0.33442	17.1394	0.435806	22.9061	0.664327	34.547
0.109881	5.4327	0.0272804	1.29146	0.168325	8.52235	0.302299	15.2869	0.500301	25.189	0.576529	28.4973	0.178201	8.99016	0.334331	16.5969	0.436834	22.2214	0.663931	33.427
0.11307	5.42088	0.0285868	1.31397	0.168548	8.26887	0.30365	14.8793	0.500071	24.4004	0.577502	27.6801	0.180302	8.81493	0.33425	16.0877	0.437885	21.5806	0.663541	32.3764
0.116214	5.40761	0.0299044	1.3357	0.168781	8.06233	0.30503	14.4976	0.499845	23.6593	0.578493	26.9118	0.182434	8.65163	0.334178	15.6091	0.43896	20.9796	0.663158	31.3891
0.119304	5.39269	0.0312323	1.35669	0.169013	7.89617	0.306437	14.1395	0.499625	22.9615	0.579501	26.1882	0.184593	8.49913	0.334116	15.1584	0.440057	20.4149	0.662784	30.4595
0.122331	5.37586	0.0325696	1.37695	0.169229	7.76532	0.307872	13.8029	0.499412	22.3034	0.580526	25.5055	0.186779	8.35642	0.334064	14.7333	0.441176	19.8835	0.662417	29.5828
0.125286	5.35683	0.0339157	1.39652	0.169417	7.66591	0.309334	13.486	0.499205	21.6818	0.581567	24.8605	0.188989	8.22265	0.334024	14.3318	0.442317	19.3824	0.662058	28.7546
0.128156	5.33528	0.0352698	1.41541	0.169566	7.59503	0.31082	13.1872	0.499006	21.0937	0.582624	24.25	0.191223	8.097	0.333996	13.952	0.443478	18.9092	0.661708	27.9711
0.130929	5.31085	0.0366312	1.43366	0.169667	7.55063	0.312331	12.905	0.498815	20.5366	0.583696	23.6715	0.193477	7.97878	0.33398	13.5922	0.44466	18.4618	0.661367	27.2287
0.133588	5.28317	0.0379993	1.45128	0.169818	7.48811	0.313866	12.6382	0.498632	20.0081	0.584783	23.1225	0.195457	7.88132	0.333979	13.2511	0.445861	18.038	0.661035	26.5244
0.136118	5.25189	0.0393737	1.4683	0.169992	7.42187	0.315424	12.3855	0.498458	19.5061	0.585884	22.6009	0.197156	7.80203	0.333992	12.9272	0.447082	17.6361	0.660712	25.8553
0.138505	5.21668	0.0407535	1.48474	0.170246	7.3346	0.317004	12.1459	0.498293	19.0287	0.586999	22.1046	0.198569	7.73893	0.334021	12.6194	0.448321	17.2545	0.660399	25.2189
0.140734	5.17729	0.0421386	1.50063	0.170598	7.22878	0.318605	11.9184	0.498139	18.5742	0.588127	21.6319	0.199689	7.69054	0.334066	12.3266	0.449578	16.8917	0.660096	24.6129
0.142794	5.13363	0.0435284	1.51598	0.171074	7.10744	0.320226	11.7022	0.497995	18.141	0.589269	21.1812	0.200516	7.65577	0.334129	12.0478	0.450853	16.5465	0.659803	24.0352
0.144678	5.08573	0.0447429	1.52893	0.171709	6.97414	0.321867	11.4965	0.497861	17.7277	0.590424	20.7509	0.201046	7.63387	0.33421	11.782	0.452145	16.2174	0.659521	23.4838
0.146385	5.03382	0.0457806	1.53967	0.172553	6.83288	0.323528	11.3005	0.497739	17.333	0.591591	20.3398	0.201809	7.60285	0.334311	11.5285	0.453454	15.9036	0.659249	22.9572
0.147919	4.97832	0.0466403	1.54835	0.173535	6.70386	0.325206	11.1136	0.497629	16.9557	0.59277	19.9466	0.20264	7.56974	0.334432	11.2865	0.454778	15.6039	0.658989	22.4536
0.149291	4.91977	0.0473209	1.55509	0.17467	6.5868	0.326902	10.9352	0.497531	16.5948	0.593961	19.5702	0.203773	7.5257	0.334574	11.0554	0.456119	15.3175	0.658739	21.9716
0.150513	4.85878	0.0478218	1.55997	0.175974	6.48137	0.328614	10.7648	0.497446	16.2492	0.595163	19.2095	0.20521	7.47157	0.334739	10.8344	0.457474	15.0435	0.6585	21.5099
0.151602	4.79602	0.0481427	1.56306	0.177457	6.38722	0.330342	10.6017	0.497374	15.9179	0.596376	18.8636	0.206953	7.40832	0.334929	10.6231	0.458844	14.7812	0.658274	21.0672
0.152575	4.7321	0.0486041	1.56747	0.179127	6.30384	0.332085	10.4456	0.497315	15.6003	0.5976	18.5316	0.209005	7.33702	0.335143	10.4208	0.460228	14.5297	0.658058	20.6425
0.153447	4.6676	0.0491061	1.5722	0.180986	6.23058	0.333843	10.2961	0.497271	15.2955	0.598834	18.2127	0.211368	7.25882	0.335383	10.2272	0.461625	14.2885	0.657855	20.2347
0.154235	4.603	0.0497893	1.57855	0.18303	6.16667	0.335614	10.1527	0.497241	15.0027	0.600079	17.9061	0.213739	7.18418	0.335652	10.0417	0.463036	14.057	0.657664	19.8428
0.154951	4.53872	0.0506543	1.58644	0.185249	6.11122	0.337397	10.015	0.497226	14.7213	0.601333	17.6112	0.216114	7.11283	0.335949	9.86396	0.46446	13.8346	0.657486	19.466
0.155609	4.47509	0.0517016	1.59576	0.187631	6.06329	0.339193	9.8828	0.497227	14.4507	0.602597	17.3272	0.218494	7.04451	0.336277	9.69359	0.465896	13.6208	0.65732	19.1034
0.156219	4.41237	0.0529318	1.6064	0.190159	6.02191	0.341	9.75568	0.497243	14.1904	0.60387	17.0537	0.220875	6.97898	0.336638	9.53023	0.467344	13.4151	0.657167	18.7542
0.156789	4.35076	0.0543455	1.61824	0.192818	5.9862	0.342817	9.63337	0.497276	13.9397	0.605152	16.79	0.223257	6.91604	0.337032	9.37356	0.468803	13.217	0.657026	18.4178
0.157328	4.2904	0.0557611	1.6297	0.19559	5.95533	0.344645	9.5156	0.497326	13.6983	0.606443	16.5357	0.225638	6.85547	0.337462	9.22327	0.470273	13.0262	0.656899	18.0934
0.157841	4.23142	0.0571783	1.64079	0.19846	5.92856	0.346481	9.40211	0.497393	13.4655	0.607742	16.2902	0.228015	6.79708	0.337929	9.0791	0.471754	12.8422	0.656786	17.7806
0.158334	4.17387	0.058597	1.65153	0.201415	5.90525	0.348325	9.29267	0.497478	13.2411	0.609049	16.0531	0.230387	6.74071	0.338435	8.94078	0.473244	12.6648	0.656686	17.4786
0.158812	4.11781	0.060017	1.66193	0.204442	5.88488	0.350176	9.18705	0.497582	13.0246	0.610364	15.824	0.232752	6.68618	0.338983	8.80807	0.474745	12.4935	0.656601	17.187
0.159278	4.06325	0.0614381	1.672	0.207531	5.86698	0.352034	9.08505	0.497704	12.8157	0.611687	15.6024	0.235108	6.63334	0.339573	8.68075	0.476254	12.328	0.656529	16.9053
0.159677	4.01696	0.0628601	1.68175	0.210672	5.85118	0.353898	8.98648	0.497846	12.6139	0.613017	15.3881	0.237453	6.58205	0.340208	8.55862	0.477772	12.1681	0.656472	16.6329
0.160013	3.9784	0.064283	1.6912	0.213859	5.83716	0.355767	8.89114	0.498009	12.419	0.614354	15.1806	0.239784	6.53216	0.340891	8.44148	0.479299	12.0135	0.656429	16.3695
0.160289	3.94714	0.0657065	1.70036	0.217085	5.82466	0.35764	8.79887	0.498192	12.2307	0.615697	14.9797	0.242101	6.48355	0.341623	8.32916	0.480833	11.8638	0.656401	16.1147
0.160507	3.92283	0.0671306	1.70924	0.220344	5.81345	0.359516	8.70951	0.498396	12.0486	0.617047	14.7851	0.244399	6.4361	0.342302	8.23507	0.482375	11.719	0.656389	15.868
0.160667	3.90518	0.0685552	1.71785	0.223632	5.80336	0.361395	8.62291	0.498622	11.8726	0.618404	14.5964	0.246678	6.38968	0.342913	8.15756	0.483924	11.5787	0.656392	15.6291
0.160769	3.89398	0.0699801	1.7262	0.226945	5.79424	0.363275	8.53892	0.49887	11.7022	0.619766	14.4134	0.248934	6.34419	0.343441	8.09531	0.48548	11.4428	0.65641	15.3977
0.160916	3.87801	0.0714052	1.73429	0.230279	5.78594	0.365156	8.45741	0.499141	11.5374	0.621134	14.2358	0.251166	6.29953	0.343874	8.04723	0.487041	11.311	0.656444	15.1734
0.161076	3.86084	0.0728305	1.74215	0.233633	5.77838	0.367038	8.37825	0.499437	11.3779	0.622507	14.0634	0.253371	6.2556	0.344201	8.01252	0.488608	11.1831	0.656495	14.9559
0.161293	3.83779	0.074256	1.74978	0.237003	5.77144	0.368918	8.30133	0.499756	11.2235	0.623885	13.896	0.255546	6.2123	0.344413	7.99059	0.49018	11.059	0.656562	14.745
0.161567	3.80911	0.0756813	1.75718	0.240387	5.76507	0.370555	8.23602	0.500101	11.0739	0.625268	13.7333	0.257689	6.16955	0.344725	7.95944	0.491757	10.9385	0.656646	14.5403
0.161901	3.77515	0.0771067	1.76436	0.243784	5.75918	0.371949	8.18157	0.500471	10.9291	0.626656	13.5753	0.259798	6.12726	0.34507	7.92608	0.493339	10.8215	0.656746	14.3417
0.162293	3.7363	0.0785319	1.77134	0.247192	5.75372	0.3731	8.13736	0.500868	10.7888	0.628048	13.4215	0.261871	6.08537	0.345553	7.88154	0.494924	10.7077	0.656864	14.1489
0.162748	3.69298	0.079957	1.77812	0.250609	5.74864	0.37401	8.1029	0.501292	10.6528	0.629444	13.272	0.263904	6.04379	0.346183	7.82657	0.496512	10.597	0.657	13.9616
0.163206	3.651	0.0813818	1.7847	0.254035	5.7439	0.374678	8.07785	0.501744	10.521	0.630844	13.1264	0.265896	6.00247	0.346976	7.76205	0.498104	10.4894	0.657154	13.7797
0.163671	3.6103	0.0828064	1.7911	0.257469	5.73946	0.375105	8.06193	0.502225	10.3932	0.632248	12.9848	0.267845	5.96135	0.347951	7.68906	0.499697	10.3847	0.657325	13.6029
0.164141	3.57085	0.0842307	1.79732	0.260909	5.73529	0.375719	8.03922	0.502734	10.2693	0.633654	12.8468	0.269748	5.92038	0.34913	7.60877	0.501293	10.2827	0.657516	13.431
0.164618	3.53262	0.0856546	1.80337	0.264355	5.73136	0.376386	8.01475	0.503274	10.1493	0.635064	12.7124	0.271605	5.87951	0.350374	7.53207	0.50289	10.1833	0.657725	13.2639
0.165102	3.49557	0.0870781	1.80925	0.267806	5.72764	0.377291	7.98181	0.503845	10.0328	0.636476	12.5813	0.273412	5.8387	0.351685	7.45884	0.504488	10.0865	0.657954	13.1014
0.165593	3.45965	0.0885013	1.81497	0.271262	5.72412	0.378434	7.94073	0.504448	9.91988	0.63789	12.4536	0.27517	5.79793	0.353064	7.38897	0.506087	9.99212	0.658202	12.9434
0.166093	3.42483	0.089924	1.82053	0.274721	5.72076	0.379813	7.89187	0.505083	9.81035	0.639307	12.329	0.276877	5.75717	0.35451	7.32233	0.507686	9.90007	0.65847	12.7896
0.166601	3.39108	0.0913463	1.82594	0.278183	5.71756	0.381426	7.83565	0.505751	9.70412	0.640725	12.2075	0.278532	5.7164	0.356026	7.2588	0.509284	9.81024	0.658758	12.6399
0.167117	3.35836	0.0927681	1.83121	0.281648	5.71449	0.38327	7.77254	0.506453	9.60107	0.642145	12.0889	0.280134	5.67563	0.35761	7.19828	0.510881	9.72256	0.659067	12.4942
0.167642	3.32663	0.0941894	1.83634	0.285115	5.71154	0.385105	7.71086	0.507189	9.50112	0.643566	11.9731	0.281685	5.63483	0.359262	7.14064	0.512477	9.63694	0.659397	12.3524
0.168176	3.29586	0.0956101	1.84134	0.288584	5.7087	0.386931	7.65053	0.507961	9.40416	0.644988	11.86	0.283183	5.59403	0.360983	7.08576	0.514071	9.5533	0.659748	12.2142
0.168719	3.26603	0.0970304	1.8462	0.292054	5.70595	0.388746	7.59149	0.508769	9.31011	0.646411	11.7495	0.284629	5.55322	0.36277	7.03352	0.515663	9.47155	0.660121	12.0797
0.169272	3.23709	0.0984501	1.85094	0.295524	5.70329	0.39055	7.53368	0.509614	9.21887	0.647834	11.6415	0.286024	5.51242	0.364623	6.98381	0.517251	9.39163	0.660516	11.9486
0.169834	3.20902	0.0998693	1.85556	0.298995	5.7007	0.392343	7.47703	0.510496	9.13037	0.649257	11.536	0.287369	5.47165	0.366541	6.93651	0.518837	9.31347	0.660933	11.8209
0.170405	3.18179	0.101288	1.86006	0.302467	5.69817	0.394122	7.42149	0.511416	9.04452	0.65068	11.4328	0.288666	5.43094	0.368521	6.89151	0.520418	9.23699	0.661373	11.6965
0.170985	3.15537	0.102706	1.86445	0.305937	5.69569	0.395888	7.36701	0.512375	8.96124	0.652102	11.3319	0.289915	5.3903	0.370562	6.84868	0.521995	9.16213	0.661837	11.5752
0.171575	3.12973	0.104123	1.86872	0.309407	5.69325	0.39764	7.31353	0.513373	8.88047	0.653523	11.2331	0.291119	5.34977	0.372663	6.80792	0.523568	9.08883	0.662324	11.457
0.172175	3.10484	0.10554	1.87289	0.312876	5.69085	0.399376	7.26101	0.514411	8.80212	0.654944	11.1365	0.292278	5.30938	0.37482	6.76912	0.525135	9.01704	0.662835	11.3418
0.172784	3.08069	0.106957	1.87696	0.316343	5.68848	0.401097	7.20941	0.515488	8.72612	0.656362	11.0418	0.293396	5.26915	0.377032	6.73217	0.526696	8.94668	0.66337	11.2294
0.173402	3.05724	0.108372	1.88093	0.319808	5.68612	0.402803	7.15867	0.516606	8.65242	0.65778	10.9492	0.294474	5.22911	0.379296	6.69698	0.528251	8.87772	0.66393	11.1198
0.17403	3.03448	0.109787	1.8848	0.32327	5.68376	0.404491	7.10878	0.517614	8.59	0.659195	10.8584	0.295514	5.1893	0.381611	6.66343	0.529799	8.8101	0.664515	11.013
0.174668	3.01237	0.111202	1.88858	0.32673	5.68141	0.406162	7.05968	0.518498	8.5381	0.660607	10.7695	0.296519	5.14975	0.383973	6.63144	0.53134	8.74377	0.665126	10.9088
0.175315	2.99091	0.112616	1.89227	0.330186	5.67905	0.407816	7.01136	0.519246	8.49606	0.662018	10.6823	0.29749	5.11047	0.38638	6.60092	0.532874	8.67868	0.665762	10.8071
0.175971	2.97005	0.114029	1.89587	0.333637	5.67666	0.409453	6.96377	0.519848	8.46337	0.663425	10.5969	0.298429	5.07151	0.388831	6.57178	0.534204	8.62294	0.666425	10.7079
0.176636	2.9498	0.115442	1.89939	0.337084	5.67425	0.411071	6.9169	0.520297	8.43965	0.664829	10.5131	0.299339	5.03288	0.391322	6.54394	0.535333	8.57612	0.667114	10.6112
0.177311	2.93012	0.116854	1.90282	0.340526	5.6718	0.412672	6.87072	0.520587	8.4246	0.666229	10.431	0.300221	4.9946	0.393852	6.51731	0.536262	8.53788	0.667829	10.5167
0.177995	2.91099	0.118266	1.90617	0.343961	5.6693	0.414256	6.82521	0.521008	8.40316	0.667626	10.3503	0.301078	4.9567	0.396418	6.49184	0.536995	8.50793	0.668572	10.4246
0.178688	2.89241	0.119677	1.90945	0.34739	5.66674	0.415822	6.78036	0.521471	8.38009	0.669019	10.2712	0.301911	4.91919	0.399019	6.46744	0.537533	8.48608	0.669343	10.3347
0.179389	2.87434	0.121087	1.91265	0.350811	5.66411	0.417371	6.73615	0.522109	8.34912	0.670407	10.1936	0.302722	4.8821	0.401652	6.44406	0.537876	8.47216	0.670141	10.247
0.1801	2.85678	0.122497	1.91579	0.354223	5.66139	0.418904	6.69257	0.522929	8.31061	0.671791	10.1173	0.303513	4.84543	0.404316	6.42163	0.538369	8.45226	0.670967	10.1613
0.18082	2.83971	0.123906	1.91885	0.357625	5.65857	0.420421	6.64962	0.523943	8.265	0.67317	10.0424	0.304285	4.80921	0.407007	6.4001	0.538903	8.43075	0.671822	10.0778
0.181548	2.8231	0.125315	1.92184	0.361017	5.65563	0.421924	6.6073	0.52516	8.21281	0.674544	9.96885	0.305041	4.77343	0.409726	6.37941	0.539628	8.40172	0.672705	9.99617
0.182285	2.80696	0.126723	1.92477	0.364395	5.65256	0.423413	6.5656	0.526596	8.15461	0.675912	9.89657	0.30578	4.73811	0.41247	6.3595	0.540542	8.36534	0.673617	9.91652
0.183031	2.79125	0.128131	1.92763	0.36776	5.64933	0.424891	6.52453	0.528073	8.09817	0.677275	9.82554	0.306506	4.70326	0.415237	6.34034	0.541641	8.32185	0.674557	9.83876
0.183785	2.77598	0.129538	1.93043	0.371109	5.64592	0.42636	6.48411	0.529591	8.04343	0.678632	9.75571	0.307219	4.66889	0.418026	6.32188	0.542924	8.27152	0.675527	9.76285
0.184547	2.76111	0.130944	1.93317	0.374439	5.6423	0.42782	6.44433	0.531149	7.99034	0.679982	9.68705	0.30792	4.63499	0.420836	6.30407	0.544387	8.21465	0.676526	9.68873
0.185317	2.74665	0.13235	1.93585	0.37775	5.63844	0.429276	6.40524	0.532747	7.93885	0.681327	9.61953	0.30861	4.60158	0.423665	6.28688	0.545839	8.1587	0.677555	9.61636
0.186096	2.73258	0.133756	1.93847	0.381037	5.63432	0.430729	6.36684	0.534385	7.88891	0.682665	9.55312	0.309291	4.56865	0.426511	6.27028	0.54728	8.10363	0.678613	9.54569
0.186883	2.71888	0.135161	1.94104	0.384298	5.62989	0.432184	6.32918	0.536061	7.84045	0.683996	9.48777	0.309963	4.5362	0.429374	6.25421	0.54871	8.04943	0.6797	9.47668
0.187678	2.70555	0.136565	1.94356	0.387529	5.6251	0.433644	6.29228	0.537776	7.79344	0.68532	9.42347	0.310628	4.50424	0.432252	6.23866	0.550129	7.99605	0.680817	9.40928
0.18848	2.69257	0.137969	1.94602	0.390726	5.61992	0.435114	6.2562	0.539529	7.74783	0.686637	9.36018	0.311286	4.47276	0.435144	6.22359	0.551537	7.94349	0.681964	9.34346
0.18929	2.67993	0.139372	1.94843	0.393884	5.61427	0.436599	6.22098	0.541318	7.70356	0.687947	9.29788	0.311938	4.44177	0.438049	6.20898	0.552933	7.89172	0.68314	9.27917
0.190108	2.66762	0.140775	1.9508	0.396998	5.6081	0.438106	6.18669	0.543144	7.66059	0.68925	9.23653	0.312586	4.41126	0.440966	6.19478	0.554318	7.84071	0.684346	9.21637
0.190933	2.65563	0.142177	1.95311	0.400062	5.60133	0.43964	6.1534	0.545005	7.61887	0.690545	9.17611	0.313228	4.38122	0.443893	6.18099	0.555691	7.79044	0.685581	9.15503
0.191766	2.64396	0.143579	1.95538	0.403068	5.59389	0.441209	6.12118	0.5469	7.57837	0.691832	9.11661	0.313867	4.35166	0.44683	6.16757	0.557053	7.7409	0.686846	9.0951
0.192606	2.63259	0.14498	1.9576	0.406009	5.58568	0.442822	6.09012	0.548829	7.53903	0.693112	9.05798	0.314502	4.32256	0.449776	6.15451	0.558404	7.69206	0.688139	9.03655
0.193453	2.6215	0.146381	1.95978	0.408877	5.57662	0.444488	6.06032	0.550791	7.50081	0.694221	9.00759	0.315135	4.29394	0.452729	6.14177	0.559743	7.64392	0.68929	8.98663
0.194308	2.61071	0.147782	1.96192	0.411663	5.5666	0.446216	6.03186	0.552785	7.46368	0.695162	8.96515	0.315766	4.26577	0.45569	6.12933	0.561072	7.59645	0.690289	8.94485
0.195169	2.60018	0.149181	1.96401	0.414358	5.55553	0.448015	6.00485	0.554809	7.42759	0.695936	8.93039	0.316395	4.23806	0.458655	6.11719	0.56239	7.54965	0.691126	8.91085
0.196037	2.58993	0.150581	1.96607	0.416953	5.54331	0.449896	5.97937	0.556864	7.3925	0.696547	8.90313	0.317023	4.21079	0.461626	6.10531	0.563697	7.50349	0.691796	8.8843
0.196912	2.57993	0.15198	1.96808	0.41944	5.52988	0.451867	5.9555	0.558947	7.35837	0.696994	8.8832	0.31765	4.18398	0.4646	6.09367	0.564994	7.45797	0.692293	8.86496
0.197794	2.57019	0.153378	1.97005	0.421812	5.51517	0.453935	5.9333	0.561059	7.32518	0.69728	8.87051	0.318276	4.1576	0.467577	6.08227	0.566282	7.41308	0.692613	8.85267
0.198682	2.56069	0.154776	1.97199	0.424065	5.49915	0.456106	5.9128	0.563197	7.29288	0.697691	8.85232	0.318903	4.13165	0.470556	6.07107	0.567561	7.36881	0.693075	8.83511
0.199577	2.55142	0.156174	1.97389	0.426195	5.48181	0.458383	5.89399	0.565362	7.26144	0.698136	8.83266	0.31953	4.10613	0.473536	6.06007	0.568831	7.32515	0.693581	8.81618
0.200478	2.54238	0.157571	1.97576	0.428202	5.46319	0.460768	5.87686	0.567551	7.23082	0.69874	8.80607	0.320158	4.08102	0.476516	6.04924	0.570093	7.2821	0.694275	8.79067
0.201386	2.53357	0.158968	1.97759	0.43009	5.44334	0.463257	5.86133	0.569765	7.201	0.6995	8.7727	0.320786	4.05633	0.479494	6.03856	0.571348	7.23964	0.695162	8.75882
0.202299	2.52498	0.160364	1.97939	0.431861	5.42236	0.465848	5.84732	0.572001	7.17194	0.700417	8.73274	0.321416	4.03205	0.48247	6.02803	0.572596	7.19778	0.696249	8.72088
0.203219	2.51659	0.16176	1.98115	0.433524	5.40035	0.468534	5.83471	0.57426	7.14361	0.701486	8.68638	0.322047	4.00817	0.485443	6.01762	0.573839	7.15651	0.697543	8.67719
0.204145	2.50841	0.163156	1.98288	0.435085	5.37743	0.471308	5.8234	0.57654	7.11599	0.702706	8.63387	0.32268	3.98468	0.488411	6.00731	0.575077	7.11582	0.699053	8.62809
0.205077	2.50042	0.164551	1.98458	0.436552	5.35372	0.474163	5.81325	0.57884	7.08904	0.703919	8.58208	0.323315	3.96157	0.491373	5.9971	0.576312	7.07573	0.70059	8.58008
0.206014	2.49263	0.165945	1.98625	0.437935	5.32934	0.477091	5.80414	0.581159	7.06274	0.705124	8.53099	0.323951	3.93885	0.494328	5.98695	0.577544	7.03622	0.702153	8.53313
0.206957	2.48503	0.16734	1.98789	0.439241	5.30441	0.480084	5.79595	0.583497	7.03706	0.706322	8.4806	0.32459	3.91651	0.497275	5.97686	0.578775	6.9973	0.703741	8.4872
0.207906	2.4776	0.168733	1.9895	0.440479	5.27904	0.483135	5.78859	0.585852	7.01198	0.707512	8.43087	0.325232	3.89453	0.500212	5.9668	0.580006	6.95898	0.705355	8.44228
0.20886	2.47036	0.170127	1.99108	0.441655	5.25332	0.486237	5.78194	0.588224	6.98747	0.708696	8.38181	0.325876	3.87291	0.503137	5.95675	0.581239	6.92125	0.706994	8.39832
0.20982	2.46328	0.17152	1.99264	0.442776	5.22733	0.489384	5.77593	0.590611	6.96351	0.709874	8.3334	0.326523	3.85164	0.506049	5.94671	0.582475	6.88412	0.708657	8.3553
0.210785	2.45638	0.172913	1.99416	0.443849	5.20115	0.492571	5.77047	0.593013	6.94008	0.711045	8.28563	0.327173	3.83073	0.508947	5.93663	0.583716	6.8476	0.710344	8.3132
0.211756	2.44963	0.174305	1.99567	0.444878	5.17486	0.495793	5.76549	0.595428	6.91715	0.71221	8.23849	0.327825	3.81016	0.511828	5.92652	0.584963	6.81169	0.712055	8.27199
0.212731	2.44304	0.175697	1.99714	0.445868	5.1485	0.499045	5.76094	0.597857	6.89471	0.71337	8.19198	0.328481	3.78992	0.514691	5.91634	0.586219	6.77641	0.713788	8.23164
0.213712	2.43661	0.177088	1.99859	0.446823	5.12212	0.502325	5.75677	0.600297	6.87272	0.714524	8.14607	0.32914	3.77002	0.517533	5.90608	0.587485	6.74176	0.715543	8.19214
0.214698	2.43032	0.17848	2.00002	0.447748	5.09578	0.505628	5.75293	0.602749	6.85118	0.715674	8.10076	0.329803	3.75043	0.520353	5.8957	0.588765	6.70776	0.71732	8.15344
0.215688	2.42418	0.17987	2.00142	0.448644	5.06949	0.508953	5.74939	0.605211	6.83006	0.716819	8.05605	0.330468	3.73117	0.523147	5.88519	0.590059	6.67441	0.719118	8.11553
0.216684	2.41818	0.181261	2.00279	0.449516	5.0433	0.512296	5.7461	0.607682	6.80935	0.71796	8.01193	0.331138	3.71222	0.525914	5.87452	0.591372	6.64174	0.720936	8.07839
0.217684	2.41232	0.182651	2.00415	0.450365	5.01722	0.515655	5.74304	0.610161	6.78902	0.719098	7.96839	0.331811	3.69358	0.528651	5.86367	0.592705	6.60976		
0.218689	2.40659	0.184041	2.00548	0.451194	4.99129	0.519029	5.74018	0.612649	6.76906	0.720233	7.92542	0.332487	3.67523	0.531356	5.85261	0.594061	6.57849		
0.219699	2.40099	0.18543	2.00679	0.452004	4.96551	0.522416	5.73751	0.615142	6.74945			0.333168	3.65718	0.534024	5.84131	0.595443	6.54793		
0.220713	2.39552	0.186819	2.00808	0.452799	4.93992	0.525815	5.735	0.617642	6.73017			0.333852	3.63943	0.536654	5.82975	0.596855	6.51812		
0.221732	2.39017	0.188208	2.00935	0.453578	4.91451	0.529223	5.73263	0.620146	6.71121			0.334539	3.62195	0.539242	5.81789	0.598299	6.48908		
0.222755	2.38494	0.189597	2.0106	0.454344	4.8893	0.532641	5.73039	0.622654	6.69254			0.335231	3.60476	0.541786	5.80571	0.599779	6.46081		
0.223783	2.37982	0.190985	2.01182	0.455098	4.86431	0.536067	5.72827	0.625166	6.67417			0.335927	3.58784	0.544281	5.79319	0.601298	6.43334		
0.224815	2.37482	0.192373	2.01303	0.45584	4.83953	0.539499	5.72625	0.627679	6.65605			0.336626	3.57119	0.546726	5.7803	0.602859	6.4067		
0.225851	2.36993	0.19376	2.01422	0.456573	4.81498	0.542938	5.72433	0.630193	6.6382			0.33733	3.5548	0.549116	5.76701	0.604467	6.38089		
0.226891	2.36515	0.195147	2.01539	0.457297	4.79066	0.546383	5.72249	0.632707	6.62058			0.338038	3.53867	0.55145	5.75331	0.606123	6.35594		
0.227935	2.36047	0.196534	2.01654	0.458012	4.76657	0.549833	5.72072	0.635221	6.60318			0.338749	3.5228	0.553724	5.73916	0.607831	6.33186		
0.228983	2.3559	0.197921	2.01767	0.45872	4.74272	0.553287	5.71903	0.637732	6.58598			0.339465	3.50717	0.555936	5.72457	0.609594	6.30866		
0.230035	2.35142	0.199307	2.01879	0.459421	4.71912	0.556744	5.71739	0.640241	6.56899			0.340185	3.4918	0.558085	5.70951	0.611414	6.28635		
0.231091	2.34704	0.200693	2.01989	0.460117	4.69575	0.560205	5.71581	0.642745	6.55216			0.340909	3.47666	0.560168	5.69398	0.613293	6.26493		
0.232151	2.34276	0.202078	2.02097	0.460806	4.67263	0.563669	5.71427	0.645244	6.5355			0.341637	3.46175	0.562184	5.67797	0.615234	6.24442		
0.233215	2.33857	0.203464	2.02203	0.461491	4.64976	0.567135	5.71278	0.647737	6.51899			0.342369	3.44708	0.564133	5.66149	0.617237	6.22479		
0.234282	2.33446	0.204849	2.02308	0.462172	4.62713	0.570603	5.71133	0.650223	6.50262			0.343105	3.43264	0.566014	5.64454	0.619303	6.20604		
0.235353	2.33045	0.206234	2.02412	0.462848	4.60474	0.574072	5.70991	0.652699	6.48636			0.343846	3.41842	0.567828	5.62714	0.621433	6.18817		
0.236427	2.32652	0.207618	2.02513	0.463521	4.58261	0.577543	5.70852	0.655166	6.47021			0.34459	3.40441	0.569576	5.60931	0.623626	6.17114		
0.237505	2.32267	0.209002	2.02614	0.464191	4.56071	0.581014	5.70715	0.657622	6.45415			0.345339	3.39062	0.571259	5.59105	0.625882	6.15494		
0.238587	2.3189	0.210386	2.02712	0.464859	4.53906	0.584485	5.7058	0.660065	6.43816			0.346092	3.37705	0.572877	5.5724	0.628198	6.13954		
0.239672	2.31522	0.21177	2.0281	0.465523	4.51765	0.587956	5.70447	0.662494	6.42224			0.346849	3.36368	0.574435	5.55339	0.630575	6.1249		
0.24076	2.31161	0.213153	2.02906	0.466186	4.49649	0.591427	5.70315	0.664909	6.40637			0.347611	3.35051	0.575933	5.53404	0.633009	6.11101		
0.241851	2.30807	0.214536	2.03	0.466847	4.47556	0.594897	5.70183	0.667307	6.39053			0.348376	3.33754	0.577375	5.51438	0.635499	6.09781		
0.242946	2.30461	0.215919	2.03093	0.467507	4.45487	0.598366	5.70052	0.669687	6.37472			0.349146	3.32477	0.578763	5.49444	0.638042	6.08528		
0.244044	2.30122	0.217302	2.03185	0.468165	4.43442	0.601833	5.69922	0.672048	6.35891			0.349919	3.31219	0.580099	5.47426	0.640636	6.07339		
0.245145	2.2979	0.218684	2.03275	0.468822	4.4142	0.605298	5.69791	0.674389	6.3431			0.350697	3.2998	0.581387	5.45387	0.643277	6.06208		
0.246249	2.29464	0.220066	2.03364	0.469479	4.39422	0.608761	5.69659	0.676709	6.32727			0.351479	3.28759	0.58263	5.43329	0.645964	6.05133		
0.247357	2.29146	0.221448	2.03452	0.470135	4.37446	0.612221	5.69526	0.679005	6.31142			0.352266	3.27557	0.58383	5.41256	0.648693	6.04111		
0.248467	2.28833	0.222829	2.03539	0.47079	4.35494	0.615677	5.69391	0.681277	6.29553			0.353056	3.26372	0.58499	5.3917	0.651462	6.03137		
0.24958	2.28527	0.224211	2.03624	0.471446	4.33564	0.61913	5.69254	0.683524	6.27959			0.35385	3.25205	0.586113	5.37074	0.654268	6.02209		
0.250696	2.28228	0.225592	2.03708	0.472102	4.31656	0.622578	5.69115	0.685744	6.2636			0.354649	3.24056	0.5872	5.3497	0.657109	6.01323		
0.251815	2.27934	0.226972	2.03791	0.472757	4.2977	0.626021	5.68973	0.687937	6.24754			0.355451	3.22923	0.588256	5.32861	0.659982	6.00477		
0.252937	2.27646	0.228353	2.03873	0.473414	4.27907	0.629458	5.68827	0.690102	6.23141			0.356258	3.21807	0.589281	5.30749	0.662885	5.99668		
0.254061	2.27364	0.229733	2.03953	0.47407	4.26064	0.632888	5.68677	0.692238	6.2152			0.357069	3.20707	0.590278	5.28636	0.665816	5.98893		
0.255189	2.27088	0.231113	2.04033	0.474728	4.24244	0.636311	5.68522	0.694345	6.19891			0.357883	3.19623	0.591249	5.26524	0.668773	5.98149		
0.256319	2.26816	0.232493	2.04111	0.475386	4.22444	0.639726	5.68361	0.696422	6.18255			0.358702	3.18555	0.592196	5.24413	0.671754	5.97436		
0.257451	2.26551	0.233872	2.04189	0.476045	4.20665	0.643132	5.68194	0.69847	6.16611			0.359525	3.17502	0.593121	5.22307	0.674757	5.9675		
0.258586	2.2629	0.235252	2.04265	0.476705	4.18907	0.646527	5.6802	0.700488	6.14959			0.360351	3.16464	0.594025	5.20205	0.67778	5.96089		
0.259724	2.26035	0.236631	2.0434	0.477366	4.1717	0.64991	5.67837	0.702478	6.13301			0.361182	3.15442	0.594909	5.1811	0.680822	5.95452		
0.260864	2.25785	0.23801	2.04415	0.478028	4.15452	0.65328	5.67644	0.70444	6.11637			0.362016	3.14434	0.595776	5.16023	0.683881	5.94838		
0.262007	2.25539	0.239388	2.04488	0.478692	4.13755	0.656634	5.67441	0.706376	6.09968			0.362855	3.1344	0.596626	5.13944	0.686956	5.94243		
0.263152	2.25298	0.240767	2.0456	0.479357	4.12077	0.659972	5.67225	0.708287	6.08296			0.363697	3.12461	0.59746	5.11874	0.690046	5.93668		
0.2643	2.25062	0.242145	2.04631	0.480023	4.10419	0.663291	5.66996	0.710176	6.06623			0.364544	3.11495	0.598281	5.09814	0.693149	5.93111		
0.26545	2.2483	0.243523	2.04702	0.480691	4.08779	0.666588	5.6675	0.712044	6.04951			0.365394	3.10544	0.599088	5.07766	0.696265	5.9257		
0.266602	2.24603	0.2449	2.04771	0.481361	4.07159	0.669861	5.66487	0.713897	6.03283			0.366248	3.09605	0.599883	5.05729	0.699392	5.92045		
0.267757	2.2438	0.246278	2.0484	0.482032	4.05557	0.673106	5.66202	0.715736	6.01622			0.367105	3.0868	0.600667	5.03703	0.702529	5.91533		
0.268914	2.24162	0.247655	2.04907	0.482706	4.03974	0.67632	5.65895	0.717567	5.99972			0.367967	3.07768	0.60144	5.01691	0.705676	5.91035		
0.270073	2.23947	0.249032	2.04974	0.483381	4.02409	0.679498	5.65561	0.719395	5.98336			0.368832	3.06868	0.602203	4.99692	0.70883	5.9055		
0.271234	2.23737	0.250409	2.0504	0.484058	4.00862	0.682635	5.65197	0.721225	5.9672			0.369701	3.05981	0.602957	4.97706	0.711993	5.90075		
0.272398	2.23531	0.251785	2.05105	0.484737	3.99333	0.685726	5.64799					0.370574	3.05106	0.603703	4.95733	0.715162	5.89611		
0.273563	2.23328	0.253162	2.05169	0.485418	3.97821	0.688766	5.64362					0.371451	3.04244	0.604442	4.93775	0.718337	5.89157		
0.274731	2.23129	0.254538	2.05232	0.486101	3.96327	0.691746	5.63882					0.372331	3.03393	0.605173	4.91831	0.721518	5.88712		
0.275901	2.22934	0.255914	2.05295	0.486786	3.9485	0.69466	5.63353					0.373215	3.02554	0.605897	4.89902				
0.277073	2.22743	0.257289	2.05357	0.487473	3.93389	0.6975	5.6277					0.374102	3.01727	0.606615	4.87987				
0.278246	2.22555	0.258665	2.05418	0.488163	3.91945	0.700258	5.62126					0.374993	3.0091	0.607328	4.86087				
0.279422	2.2237	0.26004	2.05478	0.488855	3.90517	0.702925	5.61418					0.375888	3.00105	0.608035	4.84203				
0.2806	2.22189	0.261415	2.05537	0.489549	3.89106	0.705496	5.60639					0.376786	2.99311	0.608738	4.82333				
0.28178	2.22012	0.26279	2.05596	0.490245	3.8771	0.707962	5.59785					0.377688	2.98528	0.609436	4.80478				
0.282961	2.21837	0.264165	2.05654	0.490944	3.86331	0.710319	5.58854					0.378594	2.97755	0.61013	4.78639				
0.284144	2.21666	0.265539	2.05711	0.491645	3.84966	0.712564	5.57844					0.379502	2.96992	0.610821	4.76815				
0.28533	2.21498	0.266914	2.05767	0.492349	3.83618	0.714695	5.56756					0.380415	2.9624	0.611508	4.75006				
0.286517	2.21332	0.268288	2.05823	0.493055	3.82284	0.716713	5.55591					0.38133	2.95498	0.612192	4.73212				
0.287706	2.2117	0.269662	2.05878	0.493763	3.80965	0.718622	5.54353					0.38225	2.94765	0.612873	4.71434				
0.288896	2.21011	0.271035	2.05932	0.494474	3.79661	0.720425	5.53046					0.383172	2.94043	0.613551	4.69671				
0.290089	2.20854	0.272409	2.05986	0.495187	3.78371							0.384098	2.9333	0.614227	4.67923				
0.291283	2.20701	0.273782	2.06039	0.495903	3.77096							0.385028	2.92626	0.614901	4.66191				
0.292478	2.2055	0.275155	2.06092	0.496622	3.75835							0.38596	2.91932	0.615573	4.64473				
0.293676	2.20402	0.276528	2.06143	0.497343	3.74588							0.386896	2.91246	0.616244	4.6277				
0.294875	2.20256	0.2779	2.06194	0.498066	3.73354							0.387835	2.9057	0.616913	4.61083				
0.296075	2.20113	0.279273	2.06245	0.498793	3.72134							0.388778	2.89903	0.61758	4.5941				
0.297278	2.19973	0.280645	2.06295	0.499521	3.70928							0.389724	2.89244	0.618247	4.57752				
0.298481	2.19834	0.282017	2.06344	0.500253	3.69734							0.390673	2.88593	0.618912	4.56109				
0.299687	2.19699	0.283389	2.06393	0.500987	3.68554							0.391625	2.87951	0.619577	4.54481				
0.300893	2.19566	0.284761	2.06441	0.501724	3.67387							0.39258	2.87318	0.620241	4.52867				
0.302102	2.19435	0.286133	2.06489	0.502463	3.66232							0.393539	2.86692	0.620905	4.51268				
0.303312	2.19306	0.287504	2.06536	0.503205	3.6509							0.3945	2.86075	0.621568	4.49683				
0.304523	2.19179	0.288875	2.06582	0.503949	3.6396							0.395465	2.85465	0.622231	4.48112				
0.305736	2.19055	0.290246	2.06628	0.504697	3.62842							0.396433	2.84863	0.622894	4.46555				
0.30695	2.18933	0.291617	2.06673	0.505447	3.61737							0.397404	2.84269	0.623556	4.45013				
0.308165	2.18813	0.292987	2.06718	0.506199	3.60643							0.398378	2.83682	0.624219	4.43484				
0.309382	2.18695	0.294358	2.06762	0.506955	3.59561							0.399355	2.83103	0.624882	4.41969				
0.310601	2.18579	0.295728	2.06806	0.507713	3.58491							0.400335	2.82531	0.625545	4.40468				
0.31182	2.18465	0.297098	2.06849	0.508474	3.57432							0.401317	2.81966	0.626209	4.3898				
0.313041	2.18353	0.298468	2.06892	0.509237	3.56384							0.402303	2.81408	0.626873	4.37506				
0.314263	2.18242	0.299838	2.06934	0.510003	3.55347							0.403292	2.80857	0.627537	4.36045				
0.315487	2.18134	0.301207	2.06976	0.510772	3.54321							0.404284	2.80313	0.628202	4.34597				
0.316712	2.18027	0.302577	2.07017	0.511543	3.53306							0.405278	2.79776	0.628868	4.33162				
0.317938	2.17923	0.303946	2.07058	0.512318	3.52302							0.406275	2.79245	0.629535	4.31741				
0.319165	2.1782	0.305315	2.07098	0.513094	3.51309							0.407276	2.78721	0.630202	4.30332				
0.320394	2.17718	0.306683	2.07138	0.513874	3.50325							0.408279	2.78203	0.63087	4.28936				
0.321623	2.17619	0.308052	2.07178	0.514656	3.49352							0.409284	2.77692	0.631539	4.27552				
0.322854	2.17521	0.309421	2.07216	0.515441	3.48389							0.410293	2.77187	0.63221	4.26181				
0.324086	2.17424	0.310789	2.07255	0.516229	3.47437							0.411304	2.76688	0.632881	4.24822				
0.32532	2.1733	0.312157	2.07293	0.517019	3.46494							0.412318	2.76195	0.633553	4.23476				
0.326554	2.17236	0.313525	2.07331	0.517812	3.4556							0.413335	2.75708	0.634227	4.22141				
0.327789	2.17145	0.314893	2.07368	0.518608	3.44637							0.414355	2.75227	0.634901	4.20819				
0.329026	2.17054	0.31626	2.07405	0.519406	3.43723							0.415377	2.74751	0.635577	4.19508				
0.330264	2.16966	0.317628	2.07441	0.520207	3.42818							0.416401	2.74282	0.636254	4.18209				
0.331502	2.16878	0.318995	2.07477	0.521011	3.41922							0.417429	2.73818	0.636933	4.16922				
0.332742	2.16792	0.320362	2.07513	0.521817	3.41036							0.418459	2.73359	0.637613	4.15647				
0.333983	2.16708	0.321729	2.07548	0.522626	3.40159							0.419491	2.72906	0.638294	4.14382				
0.335225	2.16625	0.323096	2.07582	0.523438	3.3929							0.420527	2.72459	0.638977	4.13129				
0.336468	2.16543	0.324462	2.07617	0.524252	3.38431							0.421564	2.72016	0.639661	4.11887				
0.337712	2.16463	0.325829	2.07651	0.525069	3.3758							0.422605	2.71579	0.640347	4.10656				
0.338957	2.16383	0.327195	2.07684	0.525888	3.36737							0.423647	2.71147	0.641034	4.09437				
0.340203	2.16305	0.328561	2.07718	0.52671	3.35904							0.424692	2.70721	0.641723	4.08227				
0.34145	2.16229	0.329927	2.07751	0.527535	3.35078							0.42574	2.70299	0.642413	4.07029				
0.342698	2.16153	0.331293	2.07783	0.528363	3.34261							0.42679	2.69882	0.643105	4.05841				
0.343947	2.16079	0.332658	2.07815	0.529192	3.33452							0.427843	2.6947	0.643799	4.04664				
0.345196	2.16006	0.334024	2.07847	0.530025	3.32651							0.428898	2.69062	0.644494	4.03497				
0.346447	2.15934	0.335389	2.07878	0.53086	3.31857							0.429955	2.6866	0.645191	4.0234				
0.347699	2.15863	0.336754	2.0791	0.531698	3.31072							0.431015	2.68262	0.64589	4.01194				
0.348951	2.15793	0.338119	2.0794	0.532538	3.30295							0.432077	2.67868	0.646591	4.00057				
0.350205	2.15725	0.339484	2.07971	0.533381	3.29525							0.433142	2.67479	0.647293	3.98931				
0.351459	2.15657	0.340849	2.08001	0.534226	3.28762							0.434208	2.67095	0.647997	3.97814				
0.352714	2.15591	0.342213	2.08031	0.535074	3.28008							0.435277	2.66715	0.648703	3.96707				
0.35397	2.15525	0.343577	2.0806	0.535925	3.2726							0.436349	2.66339	0.649411	3.9561				
0.355227	2.15461	0.344941	2.08089	0.536778	3.2652							0.437422	2.65968	0.65012	3.94522				
0.356484	2.15397	0.346305	2.08118	0.537633	3.25787							0.438498	2.65601	0.650832	3.93444				
0.357743	2.15335	0.347669	2.08146	0.538491	3.25061							0.439576	2.65238	0.651545	3.92375				
0.359002	2.15273	0.349033	2.08175	0.539352	3.24342							0.440657	2.64879	0.65226	3.91315				
0.360262	2.15213	0.350397	2.08202	0.540215	3.2363							0.441739	2.64524	0.652977	3.90264				
0.361523	2.15153	0.35176	2.0823	0.54108	3.22925							0.442824	2.64173	0.653696	3.89222				
0.362785	2.15094	0.353123	2.08257	0.541948	3.22227							0.443911	2.63826	0.654416	3.8819				
0.364047	2.15037	0.354486	2.08284	0.542818	3.21535							0.445	2.63483	0.655139	3.87166				
0.365311	2.1498	0.355849	2.08311	0.543691	3.2085							0.446091	2.63143	0.655863	3.86151				
0.366575	2.14924	0.357212	2.08337	0.544566	3.20172							0.447184	2.62808	0.65659	3.85144				
0.367839	2.14868	0.358574	2.08364	0.545444	3.195							0.44828	2.62476	0.657318	3.84147				
0.369105	2.14814	0.359937	2.08389	0.546324	3.18834							0.449377	2.62148	0.658049	3.83157				
0.370371	2.1476	0.361299	2.08415	0.547207	3.18175							0.450477	2.61823	0.658781	3.82176				
0.371638	2.14707	0.362661	2.0844	0.548092	3.17522							0.451578	2.61502	0.659516	3.81204				
0.372906	2.14655	0.364023	2.08465	0.548979	3.16875							0.452682	2.61185	0.660252	3.80239				
0.374174	2.14604	0.365385	2.0849	0.549869	3.16234							0.453787	2.60871	0.66099	3.79283				
0.375443	2.14554	0.366747	2.08515	0.550761	3.15599							0.454895	2.6056	0.66173	3.78335				
0.376713	2.14504	0.368108	2.08539	0.551655	3.1497							0.456005	2.60253	0.662473	3.77394				
0.377983	2.14455	0.36947	2.08563	0.552552	3.14347							0.457116	2.59949	0.663217	3.76462				
0.379254	2.14407	0.370831	2.08586	0.553451	3.1373							0.45823	2.59648	0.663963	3.75537				
0.380526	2.14359	0.372192	2.0861	0.554353	3.13118							0.459345	2.59351	0.664711	3.7462				
0.381798	2.14313	0.373553	2.08633	0.555256	3.12512							0.460463	2.59057	0.665461	3.73711				
0.383071	2.14267	0.374914	2.08656	0.556162	3.11912							0.461582	2.58766	0.666214	3.72809				
0.384345	2.14221	0.376274	2.08679	0.557071	3.11317							0.462703	2.58478	0.666968	3.71915				
0.385619	2.14176	0.377635	2.08701	0.557982	3.10728							0.463826	2.58193	0.667724	3.71029				
0.386894	2.14132	0.378995	2.08724	0.558894	3.10144							0.464951	2.57911	0.668483	3.70149				
0.388169	2.14089	0.380356	2.08746	0.55981	3.09565							0.466078	2.57632	0.669243	3.69277				
0.389445	2.14046	0.381716	2.08767	0.560727	3.08992							0.467207	2.57357	0.670005	3.68412				
0.390722	2.14004	0.383076	2.08789	0.561647	3.08424							0.468337	2.57084	0.67077	3.67554				
0.391999	2.13962	0.384435	2.0881	0.562569	3.07861							0.46947	2.56814	0.671536	3.66703				
0.393277	2.13921	0.385795	2.08831	0.563493	3.07303							0.470604	2.56547	0.672304	3.65859				
0.394556	2.13881	0.387154	2.08852	0.564419	3.0675							0.47174	2.56282	0.673075	3.65022				
0.395835	2.13841	0.388514	2.08873	0.565348	3.06202							0.472877	2.56021	0.673847	3.64192				
0.397114	2.13802	0.389873	2.08893	0.566279	3.0566							0.474017	2.55762	0.674622	3.63368				
0.398395	2.13763	0.391232	2.08914	0.567212	3.05122							0.475158	2.55506	0.675398	3.62551				
0.399675	2.13725	0.392591	2.08934	0.568147	3.04588							0.476301	2.55252	0.676176	3.61741				
0.400956	2.13688	0.39395	2.08954	0.569084	3.0406							0.477446	2.55001	0.676957	3.60937				
0.402238	2.13651	0.395309	2.08973	0.570024	3.03536							0.478592	2.54753	0.677739	3.6014				
0.403521	2.13614	0.396667	2.08993	0.570965	3.03017							0.47974	2.54507	0.678524	3.59349				
0.404803	2.13578	0.398025	2.09012	0.571909	3.02503							0.48089	2.54264	0.679311	3.58565				
0.406087	2.13543	0.399384	2.09031	0.572855	3.01993							0.482041	2.54023	0.680099	3.57787				
0.407371	2.13508	0.400742	2.0905	0.573803	3.01487							0.483194	2.53785	0.68089	3.57015				
0.408655	2.13473	0.4021	2.09068	0.574753	3.00986							0.484349	2.5355	0.681682	3.56249				
0.40994	2.13439	0.403458	2.09087	0.575705	3.0049							0.485506	2.53316	0.682477	3.55489				
0.411225	2.13406	0.404815	2.09105	0.57666	2.99997							0.486663	2.53085	0.683274	3.54736				
0.412511	2.13373	0.406173	2.09123	0.577616	2.99509							0.487823	2.52857	0.684072	3.53988				
0.413798	2.1334	0.40753	2.09141	0.578574	2.99026							0.488984	2.5263	0.684873	3.53246				
0.415085	2.13308	0.408887	2.09159	0.579535	2.98546							0.490147	2.52406	0.685675	3.5251				
0.416372	2.13277	0.410245	2.09176	0.580497	2.98071							0.491311	2.52185	0.68648	3.5178				
0.41766	2.13245	0.411602	2.09193	0.581462	2.976							0.492477	2.51965	0.687287	3.51056				
0.418948	2.13215	0.412958	2.0921	0.582429	2.97133							0.493645	2.51748	0.688095	3.50337				
0.420237	2.13184	0.414315	2.09227	0.583397	2.9667							0.494814	2.51533	0.688906	3.49624				
0.421526	2.13154	0.415672	2.09244	0.584368	2.9621							0.495984	2.5132	0.689718	3.48916				
0.422815	2.13125	0.417028	2.09261	0.58534	2.95755							0.497156	2.51109	0.690533	3.48214				
0.424106	2.13096	0.418385	2.09277	0.586315	2.95304							0.49833	2.509	0.691349	3.47518				
0.425396	2.13067	0.419741	2.09294	0.587291	2.94857							0.499505	2.50693	0.692168	3.46826				
0.426687	2.13039	0.421097	2.0931	0.58827	2.94413							0.500681	2.50489	0.692988	3.46141				
0.427978	2.13011	0.422453	2.09326	0.58925	2.93973							0.501859	2.50286	0.693811	3.4546				
0.42927	2.12984	0.423809	2.09341	0.590233	2.93537							0.503039	2.50085	0.694635	3.44785				
0.430562	2.12956	0.425164	2.09357	0.591217	2.93105							0.50422	2.49887	0.695462	3.44115				
0.431855	2.1293	0.42652	2.09372	0.592203	2.92676							0.505402	2.4969	0.69629	3.4345				
0.433148	2.12903	0.427875	2.09388	0.593191	2.92251							0.506586	2.49495	0.69712	3.4279				
0.434442	2.12877	0.429231	2.09403	0.594181	2.91829							0.507771	2.49303	0.697952	3.42135				
0.435735	2.12852	0.430586	2.09418	0.595173	2.91411							0.508957	2.49112	0.698786	3.41485				
0.43703	2.12826	0.431941	2.09433	0.596167	2.90997							0.510145	2.48923	0.699622	3.4084				
0.438324	2.12802	0.433296	2.09447	0.597163	2.90586							0.511335	2.48735	0.70046	3.402				
0.439619	2.12777	0.434651	2.09462	0.59816	2.90178							0.512526	2.4855	0.7013	3.39565				
0.440915	2.12753	0.436005	2.09476	0.59916	2.89774							0.513718	2.48366	0.702142	3.38935				
0.442211	2.12729	0.43736	2.0949	0.600161	2.89373							0.514911	2.48184	0.702986	3.38309				
0.443507	2.12705	0.438714	2.09505	0.601164	2.88975							0.516106	2.48004	0.703832	3.37689				
0.444803	2.12682	0.440069	2.09518	0.602169	2.88581							0.517302	2.47826	0.704679	3.37072				
0.4461	2.12659	0.441423	2.09532	0.603176	2.8819							0.5185	2.47649	0.705529	3.36461				
0.447398	2.12636	0.442777	2.09546	0.604184	2.87802							0.519698	2.47474	0.70638	3.35854				
0.448695	2.12614	0.444131	2.09559	0.605194	2.87418							0.520898	2.47301	0.707233	3.35251				
0.449993	2.12592	0.445485	2.09573	0.606207	2.87036							0.5221	2.47129	0.708088	3.34653				
0.451292	2.1257	0.446838	2.09586	0.607221	2.86658							0.523303	2.46959	0.708945	3.3406				
0.45259	2.12548	0.448192	2.09599	0.608236	2.86282							0.524506	2.46791	0.709804	3.33471				
0.453889	2.12527	0.449545	2.09612	0.609254	2.8591							0.525712	2.46624	0.710665	3.32886				
0.455189	2.12506	0.450899	2.09625	0.610273	2.85541							0.526918	2.46459	0.711528	3.32306				
0.456488	2.12486	0.452252	2.09638	0.611294	2.85175							0.528126	2.46295	0.712392	3.3173				
0.457788	2.12465	0.453605	2.0965	0.612316	2.84812							0.529335	2.46133	0.713258	3.31158				
0.459089	2.12445	0.454958	2.09663	0.613341	2.84451							0.530545	2.45972	0.714127	3.3059				
0.46039	2.12426	0.456311	2.09675	0.614367	2.84094							0.531757	2.45813	0.714997	3.30027				
0.461691	2.12406	0.457663	2.09687	0.615395	2.83739							0.532969	2.45655	0.715869	3.29467				
0.462992	2.12387	0.459016	2.09699	0.616424	2.83388							0.534183	2.45499	0.716742	3.28912				
0.464294	2.12368	0.460368	2.09711	0.617455	2.83039							0.535398	2.45345	0.717618	3.28361				
0.465596	2.12349	0.461721	2.09723	0.618488	2.82693							0.536615	2.45191	0.718495	3.27813				
0.466898	2.1233	0.463073	2.09735	0.619523	2.82349							0.537832	2.45039	0.719374	3.2727				
0.468201	2.12312	0.464425	2.09746	0.620559	2.82009							0.539051	2.44889	0.720255	3.26731				
0.469503	2.12294	0.465777	2.09758	0.621597	2.81671							0.54027	2.4474						
0.470807	2.12276	0.467129	2.09769	0.622636	2.81335							0.541491	2.44592						
0.47211	2.12259	0.468481	2.0978	0.623678	2.81003							0.542713	2.44446						
0.473414	2.12242	0.469832	2.09791	0.62472	2.80673							0.543937	2.44301						
0.474718	2.12224	0.471184	2.09802	0.625765	2.80346							0.545161	2.44157						
0.476022	2.12208	0.472535	2.09813	0.626811	2.80021							0.546387	2.44015						
0.477327	2.12191	0.473887	2.09824	0.627858	2.79698							0.547613	2.43874						
0.478632	2.12174	0.475238	2.09835	0.628907	2.79379							0.548841	2.43734						
0.479937	2.12158	0.476589	2.09845	0.629958	2.79061							0.55007	2.43596						
0.481243	2.12142	0.47794	2.09856	0.631011	2.78747							0.5513	2.43459						
0.482549	2.12126	0.479291	2.09866	0.632065	2.78434							0.552531	2.43323						
0.483855	2.12111	0.480642	2.09876	0.63312	2.78124							0.553763	2.43188						
0.485161	2.12095	0.481992	2.09887	0.634177	2.77817							0.554996	2.43054						
0.486467	2.1208	0.483343	2.09897	0.635236	2.77512							0.55623	2.42922						
0.487774	2.12065	0.484693	2.09907	0.636296	2.77209							0.557465	2.42791						
0.489081	2.1205	0.486044	2.09916	0.637357	2.76909							0.558702	2.42661						
0.490389	2.12036	0.487394	2.09926	0.638421	2.7661							0.559939	2.42532						
0.491696	2.12021	0.488744	2.09936	0.639485	2.76315							0.561178	2.42404						
0.493004	2.12007	0.490094	2.09945	0.640551	2.76021							0.562417	2.42278						
0.494312	2.11993	0.491444	2.09955	0.641619	2.7573							0.563657	2.42153						
0.495621	2.11979	0.492794	2.09964	0.642688	2.7544							0.564899	2.42028						
0.496929	2.11966	0.494143	2.09973	0.643759	2.75153							0.566141	2.41905						
0.498238	2.11952	0.495493	2.09982	0.644831	2.74869							0.567385	2.41783						
0.499547	2.11939	0.496843	2.09992	0.645905	2.74586							0.568629	2.41662						
0.500856	2.11926	0.498192	2.1	0.64698	2.74306							0.569875	2.41542						
0.502166	2.11913	0.499541	2.10009	0.648056	2.74027							0.571121	2.41423						
0.503476	2.119	0.50089	2.10018	0.649134	2.73751							0.572368	2.41305						
0.504786	2.11887	0.502239	2.10027	0.650214	2.73477							0.573617	2.41189						
0.506096	2.11875	0.503588	2.10035	0.651295	2.73204							0.574866	2.41073						
0.507406	2.11862	0.504937	2.10044	0.652377	2.72934							0.576116	2.40958						
0.508717	2.1185	0.506286	2.10052	0.65346	2.72666							0.577368	2.40844						
0.510028	2.11838	0.507635	2.10061	0.654545	2.724							0.57862	2.40731						
0.511339	2.11826	0.508983	2.10069	0.655632	2.72136							0.579873	2.4062						
0.51265	2.11814	0.510332	2.10077	0.65672	2.71874							0.581127	2.40509						
0.513962	2.11803	0.51168	2.10085	0.657809	2.71614							0.582382	2.40399						
0.515274	2.11791	0.513028	2.10093	0.6589	2.71355							0.583637	2.4029						
0.516586	2.1178	0.514376	2.10101	0.659992	2.71099							0.584894	2.40182						
0.517898	2.11769	0.515724	2.10109	0.661085	2.70844							0.586152	2.40075						
0.51921	2.11758	0.517072	2.10117	0.66218	2.70592							0.58741	2.39969						
0.520523	2.11747	0.51842	2.10124	0.663276	2.70341							0.58867	2.39864						
0.521836	2.11736	0.519768	2.10132	0.664373	2.70092							0.58993	2.39759						
0.523148	2.11726	0.521116	2.1014	0.665472	2.69845							0.591191	2.39656						
0.524462	2.11715	0.522463	2.10147	0.666572	2.69599							0.592453	2.39553						
0.525775	2.11705	0.523811	2.10154	0.667673	2.69356							0.593716	2.39451						
0.527089	2.11695	0.525158	2.10162	0.668776	2.69114							0.59498	2.39351						
0.528402	2.11685	0.526505	2.10169	0.66988	2.68874							0.596244	2.39251						
0.529716	2.11675	0.527853	2.10176	0.670985	2.68636							0.59751	2.39151						
0.53103	2.11665	0.5292	2.10183	0.672092	2.68399							0.598776	2.39053						
0.532345	2.11655	0.530547	2.1019	0.6732	2.68164							0.600043	2.38956						
0.533659	2.11646	0.531894	2.10197	0.674309	2.67931							0.601311	2.38859						
0.534974	2.11636	0.53324	2.10204	0.675419	2.677							0.60258	2.38763						
0.536289	2.11627	0.534587	2.10211	0.676531	2.6747							0.60385	2.38668						
0.537604	2.11618	0.535934	2.10218	0.677644	2.67242							0.60512	2.38574						
0.538919	2.11609	0.53728	2.10224	0.678758	2.67015							0.606391	2.3848						
0.540234	2.116	0.538627	2.10231	0.679873	2.6679							0.607663	2.38388						
0.54155	2.11591	0.539973	2.10237	0.68099	2.66567							0.608936	2.38296						
0.542866	2.11582	0.541319	2.10244	0.682108	2.66345							0.61021	2.38205						
0.544181	2.11573	0.542666	2.1025	0.683227	2.66125							0.611484	2.38114						
0.545497	2.11565	0.544012	2.10256	0.684347	2.65906							0.612759	2.38025						
0.546814	2.11556	0.545358	2.10263	0.685469	2.65689							0.614035	2.37936						
0.54813	2.11548	0.546704	2.10269	0.686592	2.65473							0.615312	2.37847						
0.549447	2.1154	0.548049	2.10275	0.687716	2.65259							0.616589	2.3776						
0.550763	2.11532	0.549395	2.10281	0.688841	2.65047							0.617868	2.37673						
0.55208	2.11524	0.550741	2.10287	0.689967	2.64835							0.619147	2.37587						
0.553397	2.11516	0.552086	2.10293	0.691095	2.64626							0.620426	2.37502						
0.554714	2.11508	0.553432	2.10299	0.692224	2.64418							0.621707	2.37417						
0.556032	2.115	0.554777	2.10305	0.693354	2.64211							0.622988	2.37333						
0.557349	2.11492	0.556123	2.10311	0.694485	2.64006							0.62427	2.3725						
0.558667	2.11485	0.557468	2.10316	0.695617	2.63802							0.625553	2.37168						
0.559985	2.11477	0.558813	2.10322	0.69675	2.636							0.626836	2.37086						
0.561303	2.1147	0.560158	2.10327	0.697885	2.63399							0.62812	2.37004						
0.562621	2.11463	0.561503	2.10333	0.69902	2.63199							0.629405	2.36924						
0.563939	2.11456	0.562848	2.10338	0.700157	2.63001							0.630691	2.36844						
0.565257	2.11449	0.564193	2.10344	0.701295	2.62804							0.631977	2.36765						
0.566576	2.11442	0.565537	2.10349	0.702434	2.62608							0.633264	2.36686						
0.567895	2.11435	0.566882	2.10355	0.703574	2.62414							0.634552	2.36608						
0.569213	2.11428	0.568227	2.1036	0.704716	2.62221							0.63584	2.3653						
0.570532	2.11421	0.569571	2.10365	0.705858	2.6203							0.637129	2.36454						
0.571851	2.11414	0.570916	2.1037	0.707002	2.61839							0.638419	2.36377						
0.573171	2.11408	0.57226	2.10375	0.708146	2.6165							0.639709	2.36302						
0.57449	2.11401	0.573604	2.1038	0.709292	2.61463							0.641	2.36227						
0.57581	2.11395	0.574948	2.10385	0.710439	2.61276							0.642292	2.36153						
0.577129	2.11388	0.576292	2.1039	0.711587	2.61091							0.643584	2.36079						
0.578449	2.11382	0.577636	2.10395	0.712736	2.60907							0.644877	2.36006						
0.579769	2.11376	0.57898	2.104	0.713886	2.60725							0.646171	2.35933						
0.581089	2.1137	0.580324	2.10405	0.715037	2.60543							0.647465	2.35861						
0.582409	2.11364	0.581668	2.10409	0.716189	2.60363							0.648761	2.35789						
0.583729	2.11358	0.583012	2.10414	0.717342	2.60184							0.650056	2.35718						
0.58505	2.11352	0.584355	2.10419	0.718496	2.60006							0.651352	2.35648						
0.58637	2.11346	0.585699	2.10423	0.719651	2.5983							0.652649	2.35578						
0.587691	2.1134	0.587042	2.10428	0.720808	2.59654							0.653947	2.35509						
0.589011	2.11335	0.588386	2.10432									0.655245	2.3544						
0.590332	2.11329	0.589729	2.10437									0.656544	2.35372						
0.591653	2.11323	0.591073	2.10441									0.657843	2.35304						
0.592974	2.11318	0.592416	2.10445									0.659144	2.35237						
0.594296	2.11312	0.593759	2.1045									0.660444	2.35171						
0.595617	2.11307	0.595102	2.10454									0.661745	2.35105						
0.596938	2.11302	0.596445	2.10458									0.663047	2.35039						
0.59826	2.11297	0.597788	2.10462									0.66435	2.34974						
0.599582	2.11291	0.599131	2.10467									0.665653	2.34909						
0.600904	2.11286	0.600473	2.10471									0.666957	2.34845						
0.602225	2.11281	0.601816	2.10475									0.668261	2.34782						
0.603547	2.11276	0.603159	2.10479									0.669566	2.34718						
0.60487	2.11271	0.604501	2.10483									0.670871	2.34656						
0.606192	2.11266	0.605844	2.10487									0.672177	2.34594						
0.607514	2.11262	0.607186	2.1049									0.673484	2.34532						
0.608837	2.11257	0.608529	2.10494									0.674791	2.34471						
0.610159	2.11252	0.609871	2.10498									0.676098	2.3441						
0.611482	2.11248	0.611213	2.10502									0.677407	2.3435						
0.612805	2.11243	0.612555	2.10506									0.678715	2.3429						
0.614127	2.11238	0.613897	2.10509									0.680025	2.3423						
0.61545	2.11234	0.615239	2.10513									0.681335	2.34172						
0.616773	2.1123	0.616581	2.10516									0.682645	2.34113						
0.618097	2.11225	0.617923	2.1052									0.683956	2.34055						
0.61942	2.11221	0.619265	2.10524									0.685268	2.33997						
0.620743	2.11217	0.620607	2.10527									0.68658	2.3394						
0.622067	2.11212	0.621949	2.10531									0.687892	2.33883						
0.62339	2.11208	0.62329	2.10534									0.689206	2.33827						
0.624714	2.11204	0.624632	2.10537									0.690519	2.33771						
0.626038	2.112	0.625973	2.10541									0.691833	2.33716						
0.627361	2.11196	0.627315	2.10544									0.693148	2.33661						
0.628685	2.11192	0.628656	2.10547									0.694463	2.33606						
0.630009	2.11188	0.629997	2.10551									0.695779	2.33552						
0.631333	2.11184	0.631339	2.10554									0.697095	2.33498						
0.632657	2.1118	0.63268	2.10557									0.698412	2.33444						
0.633982	2.11177	0.634021	2.1056									0.699729	2.33391						
0.635306	2.11173	0.635362	2.10563									0.701047	2.33338						
0.636631	2.11169	0.636703	2.10566									0.702365	2.33286						
0.637955	2.11166	0.638044	2.10569									0.703684	2.33234						
0.63928	2.11162	0.639385	2.10572									0.705003	2.33183						
0.640604	2.11158	0.640726	2.10575									0.706323	2.33131						
0.641929	2.11155	0.642067	2.10578									0.707643	2.33081						
0.643254	2.11151	0.643408	2.10581									0.708964	2.3303						
0.644579	2.11148	0.644748	2.10584									0.710285	2.3298						
0.645904	2.11145	0.646089	2.10587									0.711607	2.3293						
0.647229	2.11141	0.647429	2.1059									0.712929	2.32881						
0.648554	2.11138	0.64877	2.10593									0.714252	2.32832						
0.649879	2.11135	0.65011	2.10595									0.715575	2.32783						
0.651205	2.11131	0.651451	2.10598									0.716898	2.32735						
0.65253	2.11128	0.652791	2.10601									0.718222	2.32687						
0.653856	2.11125	0.654131	2.10603									0.719547	2.3264						
0.655181	2.11122	0.655472	2.10606									0.720872	2.32592						
0.656507	2.11119	0.656812	2.10609																
0.657832	2.11116	0.658152	2.10611																
0.659158	2.11113	0.659492	2.10614																
0.660484	2.1111	0.660832	2.10617																
0.66181	2.11107	0.662172	2.10619																
0.663136	2.11104	0.663512	2.10622																
0.664462	2.11101	0.664852	2.10624																
0.665788	2.11098	0.666192	2.10626																
0.667114	2.11095	0.667531	2.10629																
0.668441	2.11092	0.668871	2.10631																
0.669767	2.1109	0.670211	2.10634																
0.671093	2.11087	0.67155	2.10636																
0.67242	2.11084	0.67289	2.10638																
0.673746	2.11082	0.67423	2.10641																
0.675073	2.11079	0.675569	2.10643																
0.6764	2.11076	0.676908	2.10645																
0.677726	2.11074	0.678248	2.10647																
0.679053	2.11071	0.679587	2.10649																
0.68038	2.11069	0.680926	2.10652																
0.681707	2.11066	0.682266	2.10654																
0.683034	2.11064	0.683605	2.10656																
0.684361	2.11061	0.684944	2.10658																
0.685688	2.11059	0.686283	2.1066																
0.687015	2.11057	0.687622	2.10662																
0.688342	2.11054	0.688961	2.10664																
0.68967	2.11052	0.6903	2.10666																
0.690997	2.1105	0.691639	2.10668																
0.692325	2.11048	0.692978	2.1067																
0.693652	2.11045	0.694317	2.10672																
0.69498	2.11043	0.695656	2.10674																
0.696307	2.11041	0.696994	2.10676																
0.697635	2.11039	0.698333	2.10678																
0.698962	2.11037	0.699672	2.1068																
0.70029	2.11035	0.70101	2.10682																
0.701618	2.11032	0.702349	2.10683																
0.702946	2.1103	0.703687	2.10685																
0.704274	2.11028	0.705026	2.10687																
0.705602	2.11026	0.706364	2.10689																
0.70693	2.11024	0.707703	2.10691																
0.708258	2.11022	0.709041	2.10692																
0.709586	2.11021	0.710379	2.10694																
0.710914	2.11019	0.711718	2.10696																
0.712242	2.11017	0.713056	2.10697																
0.71357	2.11015	0.714394	2.10699																
0.714899	2.11013	0.715732	2.10701																
0.716227	2.11011	0.71707	2.10702																
0.717555	2.11009	0.718409	2.10704																
0.718884	2.11008	0.719747	2.10706																
0.720212	2.11006	0.721085	2.10707																
