Sym0		Asym0		Sym1		Sym2		Sym3		Sym4		Asym1		Asym2		Asym3		Asym4	
532  Points		534  Points		422  Points		160  Points		148  Points		112  Points		487  Points		306  Points		155  Points		118  Points	
Freq (MHz)	Vph (m/ms)	Freq (MHz)	Vph (m/ms)	Freq (MHz)	Vph (m/ms)	Freq (MHz)	Vph (m/ms)	Freq (MHz)	Vph (m/ms)	Freq (MHz)	Vph (m/ms)	Freq (MHz)	Vph (m/ms)	Freq (MHz)	Vph (m/ms)	Freq (MHz)	Vph (m/ms)	Freq (MHz)	Vph (m/ms)
0.000514048	7.30328	5.90929e-005	0.0790985	0.166521	1825.86	0.279525	698.116	0.499563	2662.68	0.559018	5171.09	0.139764	632.939	0.333042	1487.46	0.419279	918.873	0.666077	1480.67
0.00513306	7.3033	0.00020113	0.145796	0.166517	230.105	0.27962	270.725	0.499551	609.155	0.559054	754.907	0.139899	163.956	0.333034	388.897	0.419353	385.168	0.666041	615.391
0.00975177	7.30307	0.000426558	0.212008	0.166506	122.782	0.279797	168.015	0.499525	343.9	0.559144	407.238	0.140194	94.3602	0.333018	223.68	0.419488	243.717	0.665976	388.378
0.0143699	7.30267	0.00073382	0.277495	0.166488	83.7226	0.280058	121.883	0.499484	239.563	0.559287	278.881	0.140645	66.3991	0.332993	156.978	0.419683	178.31	0.665882	283.69
0.0189869	7.30208	0.0011209	0.342061	0.166464	63.5111	0.280401	95.6929	0.49943	183.787	0.559483	212.092	0.141253	51.3527	0.332959	120.912	0.419938	140.63	0.66576	223.434
0.0236028	7.30133	0.0015854	0.405541	0.166435	51.1559	0.280826	78.8245	0.499361	149.068	0.559732	171.152	0.142013	41.9773	0.332918	98.3166	0.420253	116.138	0.665613	184.272
0.0282169	7.3004	0.0021245	0.467764	0.1664	42.8212	0.281333	67.0617	0.49928	125.373	0.560034	143.494	0.142923	35.5924	0.332868	82.8312	0.420627	98.9472	0.665441	156.774
0.0328291	7.2993	0.00273493	0.528564	0.166361	36.8187	0.281919	58.3975	0.499186	108.17	0.560387	123.561	0.143979	30.9765	0.332812	71.5556	0.421061	86.2213	0.665246	136.404
0.0374389	7.29799	0.00341336	0.587829	0.166319	32.2897	0.282585	51.7551	0.49908	95.1125	0.560791	108.517	0.145177	27.4933	0.332748	62.9782	0.421552	76.4243	0.665031	120.706
0.0420458	7.29647	0.00415616	0.645448	0.166274	28.7508	0.28333	46.5047	0.498963	84.8617	0.561245	96.7629	0.146513	24.7784	0.332679	56.2337	0.422101	68.6522	0.664798	108.239
0.0466493	7.29472	0.00495956	0.701332	0.166228	25.9094	0.284151	42.2533	0.498836	76.6006	0.561748	87.3275	0.147981	22.6084	0.332604	50.7912	0.422706	62.3382	0.664548	98.0968
0.0512489	7.29273	0.00581987	0.755426	0.166182	23.5779	0.285049	38.7431	0.4987	69.8006	0.5623	79.5882	0.149576	20.8387	0.332524	46.3067	0.423368	57.1092	0.664283	89.6848
0.0558438	7.29045	0.00673327	0.807681	0.166137	21.6305	0.286021	35.798	0.498555	64.1056	0.562899	73.1268	0.151295	19.3712	0.33244	42.5477	0.424084	52.709	0.664006	82.5948
0.0604335	7.28789	0.00769599	0.858066	0.166094	19.9798	0.287067	33.2935	0.498403	59.2663	0.563544	67.6522	0.15313	18.1375	0.332353	39.3512	0.424855	48.9565	0.663718	76.5378
0.0650169	7.285	0.00870439	0.906569	0.166057	18.563	0.288185	31.139	0.498244	55.1033	0.564235	62.9552	0.155078	17.0881	0.332264	36.5999	0.42568	45.7195	0.663422	71.3033
0.0695931	7.28173	0.009755	0.953203	0.166025	17.3339	0.289373	29.2673	0.49808	51.484	0.56497	58.8821	0.157133	16.1865	0.332173	34.2068	0.426556	42.8996	0.663118	66.7344
0.0741609	7.27804	0.0108443	0.997969	0.166001	16.2579	0.290629	27.6272	0.497911	48.3085	0.565749	55.317	0.159289	15.405	0.332082	32.1063	0.427485	40.4218	0.66281	62.7118
0.0787188	7.27387	0.0119692	1.0409	0.165989	15.3084	0.291954	26.1791	0.497739	45.4998	0.56657	52.1711	0.161542	14.7224	0.331991	30.248	0.428463	38.2282	0.662497	59.1431
0.0832651	7.26915	0.0131265	1.08204	0.165989	14.4648	0.293343	24.8921	0.497565	42.998	0.567433	49.375	0.163887	14.122	0.331901	28.5922	0.429492	36.2731	0.662183	55.9557
0.0877977	7.26379	0.0143134	1.12141	0.166005	13.7106	0.294797	23.7413	0.497388	40.7553	0.568335	46.8739	0.166318	13.5909	0.331813	27.1077	0.430569	34.5202	0.661867	53.0917
0.0923141	7.25768	0.0155271	1.15907	0.166041	13.0328	0.296314	22.7069	0.497212	38.7335	0.569277	44.6239	0.168832	13.1183	0.331729	25.7693	0.431693	32.9401	0.661552	50.5042
0.096811	7.2507	0.0167652	1.19507	0.166101	12.4208	0.297891	21.7725	0.497036	36.9017	0.570257	42.5893	0.171423	12.6957	0.331648	24.5566	0.432864	31.5088	0.661239	48.1552
0.101284	7.24266	0.0180254	1.22947	0.166189	11.8662	0.299528	20.9249	0.496861	35.2343	0.571275	40.741	0.174087	12.3161	0.331573	23.4527	0.43408	30.2067	0.660928	46.0132
0.105729	7.23336	0.0193055	1.26233	0.166311	11.3618	0.301222	20.1528	0.496689	33.7102	0.572329	39.0546	0.17682	11.9737	0.331504	22.4438	0.435341	29.0174	0.660621	44.0522
0.110138	7.22252	0.0206035	1.2937	0.166475	10.902	0.302972	19.4471	0.496519	32.3117	0.573418	37.5101	0.179617	11.6637	0.331442	21.5183	0.436645	27.927	0.660318	42.2501
0.114504	7.20978	0.0219176	1.32365	0.166659	10.5339	0.304776	18.7997	0.496354	31.0241	0.574542	36.0905	0.182476	11.3818	0.331389	20.6662	0.437992	26.9241	0.66002	40.5886
0.118815	7.19469	0.0232462	1.35224	0.166852	10.2419	0.306634	18.2041	0.496194	29.8347	0.5757	34.7814	0.185391	11.1248	0.331345	19.8794	0.439381	25.9987	0.659729	39.0518
0.123056	7.17664	0.0245876	1.37951	0.167042	10.0147	0.308542	17.6545	0.496039	28.7327	0.57689	33.5706	0.188359	10.8896	0.331311	19.1507	0.44081	25.1423	0.659445	37.6263
0.127206	7.15481	0.0259406	1.40555	0.167214	9.84375	0.3105	17.146	0.495891	27.709	0.578113	32.4475	0.191377	10.6738	0.331289	18.4741	0.442279	24.3478	0.659168	36.3006
0.131241	7.12818	0.0273038	1.4304	0.167354	9.72271	0.312506	16.6744	0.49575	26.7556	0.579367	31.4032	0.194441	10.4752	0.33128	17.8442	0.443786	23.6088	0.658899	35.0645
0.135125	7.09537	0.0286762	1.45411	0.16745	9.64728	0.314558	16.236	0.495618	25.8656	0.580651	30.4296	0.197547	10.2919	0.331285	17.2566	0.445331	22.9198	0.658639	33.9094
0.138812	7.0547	0.0300567	1.47675	0.167598	9.54158	0.316655	15.8276	0.495494	25.0328	0.581965	29.5201	0.200286	10.1433	0.331305	16.7072	0.446913	22.2761	0.658388	32.8275
0.142248	7.00422	0.0314443	1.49837	0.167774	9.43029	0.318795	15.4463	0.495379	24.2522	0.583308	28.6685	0.202643	10.0242	0.331342	16.1927	0.448531	21.6735	0.658147	31.8123
0.145374	6.94195	0.0326587	1.51641	0.168038	9.28482	0.320977	15.0896	0.495275	23.5188	0.58468	27.8696	0.204606	9.93041	0.331397	15.7098	0.450184	21.1083	0.657917	30.8579
0.148135	6.86643	0.0336973	1.53123	0.16842	9.1104	0.323199	14.7553	0.495182	22.8288	0.586079	27.1187	0.206166	9.85916	0.331471	15.2559	0.451871	20.5772	0.657697	29.9589
0.150499	6.77731	0.0345583	1.54312	0.168968	8.91346	0.32546	14.4415	0.495101	22.1784	0.587506	26.4118	0.207318	9.80831	0.331566	14.8287	0.453592	20.0773	0.657489	29.1107
0.152467	6.67578	0.0352403	1.55228	0.169751	8.70179	0.327758	14.1465	0.495032	21.5644	0.588959	25.7451	0.208058	9.77642	0.331685	14.4259	0.455344	19.606	0.657292	28.3093
0.154073	6.56433	0.0357425	1.55889	0.170882	8.48471	0.330091	13.8686	0.494976	20.9838	0.590437	25.1154	0.209123	9.73145	0.331828	14.0458	0.457129	19.1611	0.657107	27.5508
0.155374	6.44606	0.0360642	1.56306	0.17232	8.29556	0.332459	13.6066	0.494934	20.4341	0.591941	24.5197	0.210284	9.6837	0.331998	13.6866	0.458944	18.7403	0.656934	26.8321
0.156432	6.32401	0.0365269	1.56899	0.17412	8.13456	0.334859	13.359	0.494906	19.913	0.59347	23.9555	0.211869	9.62057	0.332197	13.3468	0.460788	18.342	0.656774	26.15
0.157302	6.20067	0.0370304	1.57533	0.176324	8.00111	0.337291	13.1249	0.494894	19.4184	0.595023	23.4203	0.213881	9.54357	0.332427	13.025	0.462662	17.9643	0.656628	25.502
0.158032	6.07791	0.0377159	1.58379	0.17894	7.89328	0.339752	12.9031	0.494898	18.9483	0.596599	22.9119	0.216325	9.45444	0.332691	12.7202	0.464564	17.6058	0.656495	24.8856
0.158657	5.95706	0.0385841	1.59424	0.181942	7.80787	0.342241	12.6927	0.494918	18.5011	0.598198	22.4286	0.219206	9.35503	0.332992	12.4311	0.466493	17.2651	0.656375	24.2985
0.159205	5.83896	0.0396354	1.6065	0.185277	7.74093	0.344757	12.493	0.494956	18.0752	0.59982	21.9685	0.222528	9.24721	0.333332	12.1568	0.468449	16.9409	0.65627	23.7388
0.159695	5.72417	0.0408707	1.62037	0.188886	7.68852	0.347297	12.3031	0.495013	17.6692	0.601463	21.5299	0.225864	9.14545	0.333717	11.8964	0.47043	16.6322	0.65618	23.2047
0.160144	5.61299	0.0422906	1.63565	0.192708	7.64725	0.349861	12.1223	0.495089	17.2817	0.603129	21.1116	0.229209	9.04915	0.334149	11.6492	0.472437	16.3378	0.656105	22.6945
0.160561	5.50559	0.0437126	1.65028	0.196696	7.61439	0.352447	11.95	0.495185	16.9117	0.604815	20.7121	0.232559	8.95776	0.334633	11.4144	0.474467	16.0568	0.656045	22.2066
0.160957	5.40202	0.0451363	1.66429	0.200811	7.5879	0.355053	11.7857	0.495302	16.5581	0.606521	20.3302	0.235911	8.87078	0.335174	11.1914	0.47652	15.7884	0.656001	21.7397
0.161338	5.30226	0.0465615	1.67772	0.205023	7.56624	0.357677	11.6286	0.495441	16.2198	0.608247	19.9648	0.239261	8.78775	0.335777	10.9796	0.478596	15.5317	0.655973	21.2925
0.161709	5.20624	0.0479879	1.69059	0.209311	7.5483	0.360318	11.4785	0.495602	15.8959	0.609993	19.6149	0.242604	8.70824	0.336448	10.7787	0.480693	15.286	0.655961	20.8638
0.162075	5.11387	0.0494153	1.70293	0.213658	7.53325	0.362974	11.3347	0.495788	15.5857	0.611757	19.2796	0.245935	8.63183	0.337093	10.612	0.482811	15.0506	0.655966	20.4525
0.162437	5.02503	0.0508434	1.71477	0.218052	7.52047	0.365643	11.1969	0.496	15.2884	0.61354	18.9579	0.249248	8.55816	0.337691	10.4758	0.484948	14.825	0.655989	20.0577
0.162753	4.95039	0.0522722	1.72614	0.222483	7.50951	0.368324	11.0647	0.496237	15.0033	0.615341	18.6491	0.252539	8.48684	0.338221	10.3673	0.487105	14.6085	0.656029	19.6784
0.163023	4.88875	0.0537013	1.73705	0.226945	7.50001	0.371014	10.9377	0.496502	14.7296	0.617159	18.3524	0.2558	8.41755	0.338664	10.2841	0.489279	14.4005	0.656088	19.3138
0.163248	4.83911	0.0551308	1.74754	0.231432	7.4917	0.373711	10.8156	0.496796	14.4669	0.618995	18.0672	0.259027	8.34993	0.339004	10.2243	0.491471	14.2007	0.656166	18.963
0.163426	4.80069	0.0565603	1.75762	0.235939	7.48437	0.376414	10.698	0.497121	14.2146	0.620846	17.7928	0.26221	8.28367	0.339228	10.1866	0.493678	14.0085	0.656262	18.6253
0.163559	4.7729	0.05799	1.76731	0.240463	7.47785	0.378772	10.599	0.497478	13.9721	0.622713	17.5286	0.265343	8.21845	0.339559	10.1333	0.495901	13.8235	0.656379	18.3002
0.163643	4.75532	0.0594195	1.77663	0.245001	7.47202	0.380783	10.517	0.497868	13.739	0.624596	17.274	0.268419	8.15397	0.339931	10.0765	0.498138	13.6453	0.656515	17.9868
0.163766	4.73031	0.060849	1.78561	0.249551	7.46677	0.382446	10.4508	0.498293	13.5149	0.626494	17.0287	0.271427	8.08993	0.340459	10.0011	0.500388	13.4735	0.656672	17.6847
0.1639	4.70349	0.0622782	1.79425	0.254111	7.462	0.38376	10.3994	0.498756	13.2993	0.628405	16.792	0.27436	8.02604	0.341164	9.90871	0.502651	13.3078	0.656851	17.3932
0.164083	4.6676	0.0637071	1.80257	0.25868	7.45766	0.384726	10.3621	0.499258	13.0919	0.630331	16.5635	0.277208	7.96205	0.342074	9.80139	0.504925	13.1478	0.657052	17.112
0.164317	4.62317	0.0651357	1.81059	0.263256	7.45367	0.385344	10.3385	0.4998	12.8923	0.63227	16.3428	0.279963	7.89771	0.343225	9.68149	0.507209	12.9933	0.657276	16.8404
0.164604	4.57081	0.066564	1.81833	0.267838	7.44999	0.386232	10.3049	0.500386	12.7002	0.634221	16.1296	0.282615	7.8328	0.344665	9.55172	0.509503	12.844	0.657522	16.5781
0.164945	4.51125	0.0679919	1.82579	0.272425	7.44658	0.387196	10.2688	0.501018	12.5153	0.636185	15.9234	0.285158	7.76713	0.34624	9.43006	0.511804	12.6995	0.657793	16.3246
0.165345	4.44528	0.0694192	1.83298	0.277016	7.4434	0.388507	10.2202	0.501698	12.3374	0.63816	15.7239	0.287585	7.70056	0.347954	9.31627	0.514112	12.5597	0.658089	16.0796
0.165753	4.38175	0.0708461	1.83994	0.281611	7.44042	0.390162	10.1599	0.502428	12.1661	0.640146	15.5309	0.289889	7.633	0.349813	9.21009	0.516427	12.4243	0.65841	15.8426
0.16617	4.32055	0.0722726	1.84665	0.286209	7.43762	0.392158	10.0885	0.503212	12.0013	0.642143	15.3438	0.292067	7.56438	0.35182	9.11123	0.518745	12.293	0.658758	15.6134
0.166597	4.26156	0.0736984	1.85314	0.290809	7.43497	0.394493	10.0067	0.504051	11.8427	0.644149	15.1626	0.294118	7.49473	0.353977	9.01935	0.521068	12.1657	0.659133	15.3915
0.167033	4.2047	0.0751238	1.85941	0.295411	7.43244	0.397159	9.91525	0.504949	11.6901	0.646164	14.987	0.296041	7.42409	0.356283	8.93412	0.523392	12.0422	0.659537	15.1768
0.16748	4.14987	0.0765486	1.86547	0.300015	7.43003	0.399809	9.82626	0.505908	11.5433	0.648188	14.8166	0.297839	7.35255	0.358734	8.85516	0.525717	11.9222	0.659969	14.9689
0.167936	4.09698	0.0779729	1.87134	0.304619	7.42772	0.40244	9.73953	0.506932	11.4021	0.65022	14.6512	0.299515	7.28026	0.361328	8.78208	0.528042	11.8056	0.660432	14.7676
0.168403	4.04594	0.0793966	1.87701	0.309224	7.42549	0.405049	9.65489	0.508024	11.2664	0.652259	14.4906	0.301075	7.20737	0.364057	8.71445	0.530364	11.6922	0.660926	14.5725
0.16888	3.99667	0.0808197	1.88251	0.313828	7.42332	0.407633	9.57218	0.509185	11.136	0.654304	14.3347	0.302525	7.13407	0.366915	8.65189	0.532684	11.5818	0.661453	14.3836
0.169368	3.9491	0.0822423	1.88784	0.318433	7.42121	0.410189	9.49123	0.510257	11.0265	0.656355	14.1831	0.303872	7.06055	0.369894	8.59397	0.534998	11.4744	0.662012	14.2005
0.169865	3.90315	0.0836643	1.893	0.323036	7.41914	0.412713	9.41191	0.511215	10.9362	0.658412	14.0357	0.305126	6.98699	0.372986	8.54031	0.537307	11.3696	0.662607	14.023
0.170374	3.85876	0.0850858	1.898	0.327638	7.4171	0.415203	9.33406	0.51204	10.8635	0.660473	13.8923	0.306292	6.91358	0.376182	8.49054	0.539608	11.2675	0.663237	13.8509
0.170893	3.81585	0.0865067	1.90285	0.332238	7.41507	0.417655	9.25757	0.512714	10.8074	0.662537	13.7528	0.307381	6.84049	0.379474	8.4443	0.541899	11.1679	0.663904	13.6841
0.171422	3.77437	0.087927	1.90755	0.336836	7.41306	0.420067	9.18231	0.51322	10.7668	0.664604	13.6169	0.308398	6.76788	0.382854	8.40127	0.543887	11.083	0.66461	13.5224
0.171962	3.73426	0.0893468	1.91212	0.341431	7.41103	0.422436	9.10817	0.51355	10.7411	0.666674	13.4846	0.309352	6.69587	0.386314	8.36115	0.545575	11.012	0.665356	13.3656
0.172512	3.69545	0.090766	1.91655	0.346023	7.40898	0.424759	9.03505	0.514032	10.7047	0.668744	13.3556	0.310249	6.6246	0.389846	8.32367	0.546965	10.9541	0.666142	13.2135
0.173073	3.65791	0.0921847	1.92086	0.35061	7.4069	0.427034	8.96286	0.514565	10.6656	0.670815	13.2299	0.311095	6.55416	0.393445	8.28858	0.54806	10.9089	0.666971	13.066
0.173644	3.62156	0.0936029	1.92504	0.355193	7.40477	0.429258	8.89152	0.515308	10.6134	0.672886	13.1072	0.311896	6.48464	0.397104	8.25567	0.548863	10.876	0.667844	12.923
0.174225	3.58638	0.0950206	1.9291	0.359769	7.40258	0.431431	8.82097	0.516275	10.5489	0.674956	12.9875	0.312658	6.41611	0.400818	8.22473	0.549376	10.8551	0.668762	12.7843
0.174816	3.5523	0.0964378	1.93305	0.364339	7.40031	0.433551	8.75115	0.517487	10.4732	0.677023	12.8707	0.313385	6.34863	0.404581	8.19558	0.550112	10.8252	0.669727	12.6498
0.175418	3.51929	0.0978544	1.93689	0.368901	7.39793	0.435617	8.68202	0.518969	10.3873	0.679088	12.7566	0.314081	6.28223	0.408389	8.16808	0.55091	10.7929	0.670739	12.5194
0.176029	3.48731	0.0992706	1.94063	0.373454	7.39543	0.43763	8.61356	0.520751	10.2927	0.681148	12.645	0.314749	6.21696	0.412237	8.14206	0.551991	10.7494	0.671802	12.3929
0.17665	3.45631	0.100686	1.94427	0.377995	7.39277	0.43959	8.54576	0.522619	10.2021	0.683204	12.536	0.315394	6.15283	0.416123	8.11741	0.553353	10.695	0.672915	12.2703
0.177281	3.42625	0.102101	1.94781	0.382523	7.38993	0.441499	8.47862	0.524574	10.1154	0.685254	12.4294	0.316018	6.08987	0.420042	8.094	0.55499	10.6301	0.67408	12.1514
0.177922	3.39711	0.103516	1.95125	0.387037	7.38686	0.443359	8.41217	0.526617	10.0324	0.687298	12.3251	0.316624	6.02807	0.423992	8.07175	0.556896	10.5552	0.675298	12.0361
0.178572	3.36884	0.104931	1.95461	0.391531	7.38352	0.445174	8.34645	0.528746	9.95302	0.689334	12.223	0.317214	5.96745	0.42797	8.05054	0.559063	10.4708	0.676571	11.9244
0.179232	3.34142	0.106344	1.95788	0.396004	7.37985	0.446949	8.28152	0.53096	9.87711	0.691362	12.123	0.31779	5.908	0.431973	8.0303	0.561207	10.3879	0.677899	11.8161
0.179901	3.31481	0.107758	1.96107	0.40045	7.37577	0.448689	8.21747	0.533258	9.80451	0.69338	12.025	0.318355	5.84972	0.435999	8.01096	0.563327	10.3064	0.679285	11.7111
0.180579	3.28898	0.109171	1.96417	0.404864	7.37121	0.450403	8.15441	0.535639	9.73507	0.695387	11.929	0.318909	5.79259	0.440046	7.99243	0.56542	10.2264	0.680727	11.6094
0.181267	3.2639	0.110583	1.9672	0.409239	7.36604	0.452101	8.09248	0.538099	9.66865	0.697383	11.8348	0.319455	5.7366	0.444111	7.97467	0.567486	10.1477	0.682032	11.5234
0.181963	3.23955	0.111995	1.97016	0.413565	7.36012	0.453794	8.03187	0.540637	9.6051	0.699367	11.7424	0.319993	5.68174	0.448194	7.95761	0.569524	10.0702	0.68318	11.4518
0.182668	3.2159	0.113407	1.97304	0.417831	7.35326	0.455499	7.9728	0.54325	9.54429	0.701338	11.6518	0.320526	5.62799	0.452292	7.94119	0.571531	9.99398	0.684153	11.394
0.183383	3.19292	0.114819	1.97586	0.42202	7.34524	0.457236	7.91557	0.545936	9.48606	0.703043	11.5742	0.321053	5.57533	0.456404	7.92538	0.573508	9.91885	0.684939	11.349
0.184105	3.17059	0.11623	1.9786	0.426114	7.33575	0.459029	7.86054	0.54869	9.4303	0.704489	11.5089	0.321576	5.52375	0.460528	7.91012	0.575453	9.8448	0.685526	11.3164
0.184837	3.14889	0.11764	1.98129	0.430088	7.32441	0.460908	7.80815	0.551512	9.37686	0.705677	11.4556	0.322096	5.47322	0.464662	7.89537	0.577365	9.77179	0.685906	11.2957
0.185577	3.12779	0.11905	1.9839	0.43391	7.31076	0.462909	7.75893	0.554396	9.32562	0.706612	11.4139	0.322614	5.42373	0.468806	7.88109	0.579244	9.69976	0.686457	11.2662
0.186325	3.10728	0.12046	1.98646	0.437545	7.29428	0.465074	7.71345	0.557341	9.27647	0.707298	11.3834	0.323129	5.37524	0.472959	7.86725	0.58109	9.62869	0.687063	11.2345
0.187081	3.08733	0.12187	1.98896	0.440954	7.2744	0.467444	7.67227	0.560343	9.22929	0.707735	11.364	0.323644	5.32775	0.477118	7.8538	0.582901	9.55854	0.6879	11.192
0.187846	3.06793	0.123279	1.99141	0.444098	7.25062	0.470054	7.63585	0.5634	9.18396	0.708362	11.3363	0.324158	5.28123	0.481282	7.84073	0.584679	9.48928	0.688979	11.1391
0.188618	3.04905	0.124688	1.9938	0.446952	7.22264	0.472927	7.60439	0.566508	9.14039	0.709042	11.3063	0.324672	5.23566	0.485451	7.82798	0.586424	9.42088	0.690314	11.0766
0.189399	3.03068	0.126097	1.99613	0.449505	7.1904	0.476066	7.57781	0.569664	9.09847	0.709963	11.2658	0.325186	5.19101	0.489622	7.81554	0.588135	9.35334	0.691922	11.005
0.190187	3.01281	0.127505	1.99842	0.451765	7.15417	0.479456	7.5557	0.572867	9.05812	0.711121	11.215	0.325702	5.14727	0.493795	7.80337	0.589814	9.28663	0.693824	10.9254
0.190983	2.9954	0.128913	2.00065	0.453758	7.11448	0.483068	7.53749	0.576112	9.01925	0.712513	11.1543	0.326218	5.10441	0.497967	7.79143	0.591461	9.22075	0.695785	10.8482
0.191786	2.97846	0.13032	2.00284	0.455519	7.07196	0.486867	7.52254	0.579399	8.98176	0.714132	11.084	0.326736	5.06242	0.502138	7.7797	0.593079	9.15569	0.697805	10.7735
0.192597	2.96196	0.131728	2.00498	0.457084	7.02726	0.49082	7.51022	0.582723	8.94559	0.715971	11.0046	0.327256	5.02127	0.506306	7.76816	0.594668	9.09146	0.699884	10.7011
0.193416	2.94589	0.133135	2.00708	0.458488	6.98097	0.494896	7.50001	0.586083	8.91066	0.71779	10.9263	0.327778	4.98094	0.510468	7.75675	0.59623	9.02805	0.70202	10.631
0.194241	2.93024	0.134542	2.00913	0.45976	6.93356	0.499071	7.49147	0.589477	8.87691	0.719589	10.8492	0.328303	4.94142	0.514624	7.74546	0.597768	8.96548	0.704213	10.563
0.195074	2.91499	0.135948	2.01114	0.460923	6.88544	0.503324	7.48426	0.592903	8.84426	0.721366	10.7733	0.32883	4.90268	0.51877	7.73425	0.599284	8.90376	0.706461	10.4971
0.195913	2.90013	0.137354	2.0131	0.461998	6.8369	0.50764	7.47811	0.596358	8.81265			0.32936	4.86471	0.522905	7.72307	0.600781	8.84291	0.708763	10.4333
0.19676	2.88564	0.13876	2.01503	0.462999	6.78818	0.512006	7.47281	0.59984	8.78204			0.329892	4.82748	0.527026	7.7119	0.602263	8.78296	0.711119	10.3714
0.197613	2.87152	0.140166	2.01692	0.463939	6.73947	0.516413	7.46819	0.603348	8.75236			0.330428	4.79099	0.53113	7.70068	0.603733	8.72394	0.713526	10.3114
0.198473	2.85776	0.141571	2.01877	0.464827	6.6909	0.520854	7.46414	0.606881	8.72356			0.330968	4.7552	0.535213	7.68937	0.605196	8.66588	0.715983	10.2532
0.19934	2.84433	0.142977	2.02059	0.465672	6.64259	0.525321	7.46055	0.610435	8.6956			0.331511	4.72011	0.539272	7.67792	0.606656	8.60883	0.718489	10.1967
0.200213	2.83124	0.144382	2.02237	0.466479	6.5946	0.529812	7.45734	0.614009	8.66842			0.332057	4.6857	0.543302	7.66626	0.60812	8.55284	0.721043	10.1419
0.201093	2.81848	0.145786	2.02411	0.467254	6.54702	0.534321	7.45445	0.617602	8.64198			0.332607	4.65194	0.547298	7.65434	0.609593	8.49796		
0.201979	2.80602	0.147191	2.02582	0.468001	6.49988	0.538847	7.45184	0.621213	8.61625			0.333161	4.61883	0.551254	7.64207	0.611083	8.44428		
0.202871	2.79387	0.148595	2.0275	0.468723	6.45323	0.543386	7.44945	0.624839	8.59118			0.333719	4.58635	0.555164	7.62938	0.612598	8.39187		
0.203769	2.78201	0.149999	2.02915	0.469424	6.40709	0.547936	7.44726	0.628479	8.56674			0.334281	4.55449	0.559019	7.61617	0.614147	8.34083		
0.204674	2.77043	0.151403	2.03077	0.470106	6.36149	0.552496	7.44523	0.632132	8.54288			0.334847	4.52322	0.562812	7.60233	0.61574	8.29125		
0.205584	2.75913	0.152807	2.03235	0.470772	6.31644	0.557064	7.44335	0.635795	8.51957			0.335417	4.49254	0.56653	7.58774	0.61739	8.24326		
0.2065	2.74811	0.15421	2.03391	0.471423	6.27195	0.561639	7.4416	0.639468	8.49678			0.335991	4.46243	0.570164	7.57227	0.619108	8.19698		
0.207422	2.73734	0.155613	2.03544	0.472061	6.22803	0.56622	7.43995	0.643149	8.47447			0.336569	4.43287	0.573701	7.55578	0.620909	8.15256		
0.20835	2.72682	0.157016	2.03694	0.472687	6.18469	0.570806	7.4384	0.646836	8.45262			0.337152	4.40387	0.577128	7.53812	0.622807	8.11014		
0.209283	2.71655	0.158419	2.03841	0.473304	6.14193	0.575397	7.43692	0.650528	8.43118			0.337739	4.37539	0.58043	7.51913	0.624818	8.06986		
0.210222	2.70652	0.159822	2.03986	0.473911	6.09975	0.579991	7.43552	0.654223	8.41012			0.338331	4.34743	0.583593	7.49868	0.626955	8.03186		
0.211167	2.69671	0.161224	2.04128	0.47451	6.05815	0.584588	7.43418	0.657918	8.38942			0.338926	4.31998	0.586606	7.47663	0.629233	7.99624		
0.212116	2.68714	0.162626	2.04268	0.475102	6.01712	0.589188	7.43289	0.661613	8.36904			0.339527	4.29302	0.589456	7.45288	0.631661	7.9631		
0.213071	2.67778	0.164029	2.04405	0.475688	5.97666	0.593789	7.43165	0.665305	8.34895			0.340131	4.26655	0.592137	7.42738	0.634247	7.93245		
0.214031	2.66863	0.16543	2.0454	0.476268	5.93677	0.598392	7.43044	0.668992	8.32911			0.34074	4.24055	0.594644	7.40012	0.636994	7.90429		
0.214996	2.6597	0.166832	2.04673	0.476843	5.89745	0.602997	7.42927	0.672672	8.30949			0.341354	4.21501	0.596977	7.37113	0.639902	7.87855		
0.215967	2.65096	0.168234	2.04803	0.477414	5.85868	0.607601	7.42812	0.676342	8.29006			0.341972	4.18992	0.59914	7.34051	0.642966	7.8551		
0.216942	2.64241	0.169635	2.04931	0.477981	5.82047	0.612206	7.42699	0.679999	8.27077			0.342595	4.16527	0.601141	7.3084	0.646177	7.8338		
0.217922	2.63406	0.171036	2.05057	0.478544	5.7828	0.616811	7.42588	0.683641	8.2516			0.343222	4.14106	0.60299	7.27495	0.649526	7.81448		
0.218907	2.62589	0.172437	2.05181	0.479105	5.74566	0.621415	7.42477	0.687265	8.23249			0.343854	4.11726	0.604701	7.24034	0.652999	7.79694		
0.219897	2.6179	0.173838	2.05303	0.479664	5.70906	0.626018	7.42367	0.690866	8.21341			0.34449	4.09387	0.606285	7.20475	0.656585	7.78099		
0.220891	2.61009	0.175239	2.05423	0.480221	5.67298	0.630619	7.42257	0.694442	8.19431			0.345131	4.07089	0.607756	7.16835	0.660271	7.76647		
0.22189	2.60244	0.17664	2.05541	0.480776	5.63742	0.635219	7.42146	0.697988	8.17514			0.345776	4.0483	0.609125	7.13131	0.664045	7.75319		
0.222893	2.59496	0.17804	2.05657	0.481329	5.60236	0.639816	7.42034	0.7015	8.15585			0.346426	4.0261	0.610406	7.09378	0.667898	7.741		
0.223901	2.58765	0.17944	2.05771	0.481882	5.56781	0.64441	7.4192	0.704972	8.13639			0.34708	4.00427	0.611608	7.05588	0.671818	7.72978		
0.224914	2.58048	0.18084	2.05884	0.482434	5.53374	0.649	7.41803	0.7084	8.1167			0.347739	3.98281	0.612741	7.01775	0.675799	7.71941		
0.22593	2.57347	0.18224	2.05994	0.482985	5.50017	0.653585	7.41683	0.711777	8.09673			0.348402	3.9617	0.613812	6.97946	0.679831	7.70977		
0.226951	2.56661	0.18364	2.06103	0.483536	5.46707	0.658166	7.41558	0.715099	8.07641			0.34907	3.94096	0.614829	6.94111	0.683909	7.70079		
0.227976	2.5599	0.18504	2.0621	0.484087	5.43444	0.66274	7.41429	0.718358	8.05568			0.349742	3.92055	0.615799	6.90278	0.688028	7.69238		
0.229006	2.55332	0.18644	2.06316	0.484639	5.40227	0.667308	7.41294	0.721549	8.03448			0.350418	3.90048	0.616727	6.86451	0.692181	7.68448		
0.230039	2.54688	0.187839	2.0642	0.48519	5.37056	0.671867	7.41151					0.3511	3.88074	0.617617	6.82637	0.696366	7.67703		
0.231076	2.54058	0.189238	2.06522	0.485743	5.33929	0.676416	7.41					0.351785	3.86133	0.618475	6.78839	0.700577	7.66998		
0.232118	2.53441	0.190637	2.06623	0.486295	5.30847	0.680954	7.40838					0.352475	3.84223	0.619302	6.75061	0.704812	7.66329		
0.233163	2.52836	0.192037	2.06722	0.486849	5.27807	0.685478	7.40664					0.353169	3.82344	0.620104	6.71306	0.709069	7.65691		
0.234212	2.52244	0.193435	2.0682	0.487404	5.2481	0.689986	7.40475					0.353868	3.80495	0.620881	6.67577	0.713344	7.65083		
0.235265	2.51663	0.194834	2.06917	0.48796	5.21855	0.694475	7.40268					0.354571	3.78676	0.621638	6.63876	0.717636	7.645		
0.236322	2.51095	0.196233	2.07011	0.488517	5.18941	0.698941	7.40039					0.355279	3.76886	0.622375	6.60204	0.721943	7.63941		
0.237382	2.50538	0.197631	2.07105	0.489076	5.16067	0.70338	7.39785					0.355991	3.75124	0.623095	6.56563				
0.238446	2.49992	0.19903	2.07197	0.489636	5.13233	0.707785	7.39499					0.356707	3.73391	0.6238	6.52954				
0.239514	2.49457	0.200428	2.07288	0.490198	5.10438	0.712149	7.39174					0.357427	3.71684	0.62449	6.49378				
0.240585	2.48933	0.201826	2.07378	0.490761	5.07681	0.716462	7.38801					0.358152	3.70004	0.625168	6.45836				
0.241659	2.48419	0.203224	2.07466	0.491326	5.04962	0.720713	7.38369					0.358881	3.68351	0.625834	6.42327				
0.242737	2.47915	0.204622	2.07553	0.491893	5.0228							0.359614	3.66723	0.62649	6.38854				
0.243818	2.47421	0.20602	2.07639	0.492462	4.99634							0.360352	3.6512	0.627137	6.35415				
0.244903	2.46937	0.207418	2.07723	0.493033	4.97024							0.361093	3.63541	0.627775	6.32011				
0.245991	2.46462	0.208815	2.07807	0.493606	4.94449							0.361839	3.61987	0.628404	6.28643				
0.247082	2.45997	0.210213	2.07889	0.494181	4.91909							0.362589	3.60457	0.629027	6.25309				
0.248176	2.4554	0.21161	2.0797	0.494758	4.89402							0.363343	3.5895	0.629644	6.22011				
0.249274	2.45092	0.213008	2.0805	0.495337	4.86929							0.364101	3.57465	0.630254	6.18748				
0.250374	2.44653	0.214405	2.08129	0.495919	4.84489							0.364864	3.56003	0.630859	6.15521				
0.251478	2.44222	0.215802	2.08207	0.496503	4.82081							0.36563	3.54563	0.631459	6.12328				
0.252584	2.43799	0.217199	2.08284	0.49709	4.79704							0.3664	3.53144	0.632055	6.0917				
0.253694	2.43384	0.218596	2.0836	0.497679	4.77359							0.367175	3.51746	0.632647	6.06046				
0.254806	2.42977	0.219992	2.08435	0.49827	4.75045							0.367953	3.50369	0.633235	6.02956				
0.255921	2.42578	0.221389	2.08509	0.498864	4.7276							0.368735	3.49012	0.633821	5.99901				
0.25704	2.42186	0.222786	2.08581	0.49946	4.70505							0.369521	3.47675	0.634403	5.96879				
0.25816	2.41801	0.224182	2.08653	0.500059	4.6828							0.370312	3.46357	0.634982	5.9389				
0.259284	2.41423	0.225578	2.08724	0.500661	4.66082							0.371106	3.45059	0.63556	5.90935				
0.260411	2.41053	0.226975	2.08794	0.501265	4.63913							0.371904	3.43779	0.636135	5.88012				
0.26154	2.40689	0.228371	2.08864	0.501871	4.61772							0.372705	3.42518	0.636708	5.85121				
0.262671	2.40331	0.229767	2.08932	0.502481	4.59658							0.373511	3.41274	0.63728	5.82262				
0.263806	2.39981	0.231163	2.08999	0.503093	4.57571							0.37432	3.40049	0.637851	5.79435				
0.264943	2.39636	0.232559	2.09066	0.503708	4.55509							0.375133	3.38841	0.63842	5.7664				
0.266082	2.39298	0.233955	2.09132	0.504325	4.53474							0.37595	3.3765	0.638989	5.73875				
0.267224	2.38966	0.23535	2.09197	0.504946	4.51465							0.376771	3.36475	0.639556	5.71141				
0.268368	2.38639	0.236746	2.09261	0.505569	4.4948							0.377595	3.35318	0.640123	5.68436				
0.269515	2.38319	0.238141	2.09324	0.506194	4.4752							0.378423	3.34176	0.64069	5.65762				
0.270664	2.38004	0.239537	2.09387	0.506823	4.45584							0.379255	3.3305	0.641256	5.63117				
0.271816	2.37695	0.240932	2.09448	0.507454	4.43672							0.38009	3.3194	0.641822	5.60501				
0.27297	2.37391	0.242327	2.09509	0.508088	4.41784							0.380929	3.30845	0.642388	5.57914				
0.274126	2.37092	0.243723	2.0957	0.508725	4.39918							0.381771	3.29766	0.642954	5.55355				
0.275284	2.36799	0.245118	2.09629	0.509365	4.38075							0.382617	3.28701	0.64352	5.52824				
0.276445	2.3651	0.246513	2.09688	0.510007	4.36255							0.383467	3.2765	0.644087	5.50321				
0.277608	2.36227	0.247908	2.09746	0.510653	4.34457							0.38432	3.26614	0.644654	5.47845				
0.278773	2.35949	0.249302	2.09804	0.511301	4.3268							0.385176	3.25592	0.645221	5.45395				
0.27994	2.35675	0.250697	2.0986	0.511952	4.30925							0.386036	3.24583	0.645789	5.42973				
0.28111	2.35406	0.252092	2.09916	0.512606	4.2919							0.386899	3.23589	0.646357	5.40576				
0.282281	2.35142	0.253486	2.09972	0.513262	4.27476							0.387766	3.22607	0.646927	5.38205				
0.283455	2.34882	0.254881	2.10027	0.513922	4.25783							0.388636	3.21639	0.647497	5.3586				
0.28463	2.34626	0.256275	2.10081	0.514584	4.24109							0.38951	3.20683	0.648067	5.3354				
0.285808	2.34375	0.25767	2.10134	0.51525	4.22456							0.390387	3.1974	0.648639	5.31245				
0.286987	2.34128	0.259064	2.10187	0.515918	4.20821							0.391267	3.1881	0.649212	5.28974				
0.288169	2.33885	0.260458	2.1024	0.516589	4.19206							0.39215	3.17891	0.649786	5.26727				
0.289352	2.33646	0.261852	2.10291	0.517262	4.17609							0.393037	3.16985	0.650361	5.24504				
0.290538	2.33412	0.263246	2.10343	0.517939	4.16031							0.393927	3.1609	0.650938	5.22305				
0.291725	2.33181	0.26464	2.10393	0.518619	4.14472							0.39482	3.15207	0.651515	5.20129				
0.292914	2.32953	0.266034	2.10443	0.519301	4.1293							0.395717	3.14336	0.652094	5.17975				
0.294105	2.3273	0.267428	2.10493	0.519986	4.11405							0.396616	3.13476	0.652674	5.15845				
0.295297	2.3251	0.268821	2.10541	0.520674	4.09899							0.397519	3.12626	0.653255	5.13736				
0.296492	2.32294	0.270215	2.1059	0.521365	4.08409							0.398425	3.11788	0.653838	5.1165				
0.297688	2.32081	0.271608	2.10638	0.522058	4.06936							0.399334	3.1096	0.654423	5.09585				
0.298886	2.31872	0.273002	2.10685	0.522755	4.0548							0.400246	3.10143	0.655008	5.07542				
0.300086	2.31666	0.274395	2.10732	0.523454	4.04041							0.401161	3.09336	0.655596	5.05519				
0.301287	2.31463	0.275789	2.10778	0.524156	4.02617							0.40208	3.0854	0.656185	5.03518				
0.30249	2.31264	0.277182	2.10824	0.524861	4.01209							0.403001	3.07753	0.656775	5.01537				
0.303695	2.31067	0.278575	2.10869	0.525569	3.99818							0.403925	3.06976	0.657367	4.99576				
0.304902	2.30874	0.279968	2.10914	0.526279	3.98441							0.404852	3.06209	0.657961	4.97636				
0.30611	2.30684	0.281361	2.10958	0.526993	3.9708							0.405783	3.05452	0.658556	4.95715				
0.307319	2.30497	0.282754	2.11002	0.527709	3.95733							0.406716	3.04703	0.659153	4.93813				
0.30853	2.30313	0.284147	2.11045	0.528428	3.94402							0.407652	3.03964	0.659752	4.91931				
0.309743	2.30132	0.28554	2.11088	0.529149	3.93085							0.408591	3.03235	0.660353	4.90068				
0.310957	2.29953	0.286932	2.11131	0.529874	3.91783							0.409533	3.02514	0.660955	4.88224				
0.312173	2.29778	0.288325	2.11173	0.530601	3.90494							0.410477	3.01802	0.66156	4.86398				
0.31339	2.29605	0.289718	2.11214	0.531331	3.8922							0.411425	3.01098	0.662166	4.8459				
0.314609	2.29435	0.29111	2.11255	0.532064	3.87959							0.412375	3.00403	0.662773	4.828				
0.315829	2.29267	0.292503	2.11296	0.532799	3.86712							0.413328	2.99717	0.663383	4.81028				
0.317051	2.29102	0.293895	2.11336	0.533537	3.85478							0.414284	2.99038	0.663995	4.79273				
0.318274	2.28939	0.295287	2.11376	0.534278	3.84258							0.415243	2.98368	0.664608	4.77536				
0.319498	2.28779	0.296679	2.11416	0.535022	3.8305							0.416205	2.97706	0.665223	4.75816				
0.320724	2.28622	0.298072	2.11455	0.535768	3.81855							0.417169	2.97052	0.665841	4.74113				
0.321951	2.28466	0.299464	2.11493	0.536517	3.80673							0.418136	2.96406	0.66646	4.72426				
0.32318	2.28314	0.300856	2.11531	0.537269	3.79504							0.419105	2.95767	0.667081	4.70756				
0.324409	2.28163	0.302248	2.11569	0.538023	3.78346							0.420077	2.95136	0.667704	4.69102				
0.325641	2.28015	0.30364	2.11607	0.53878	3.77201							0.421052	2.94512	0.668329	4.67464				
0.326873	2.27869	0.305031	2.11644	0.53954	3.76068							0.42203	2.93896	0.668956	4.65842				
0.328107	2.27725	0.306423	2.11681	0.540302	3.74946							0.42301	2.93286	0.669585	4.64235				
0.329342	2.27583	0.307815	2.11717	0.541068	3.73836							0.423993	2.92684	0.670216	4.62644				
0.330578	2.27443	0.309206	2.11753	0.541835	3.72738							0.424978	2.92089	0.670849	4.61068				
0.331816	2.27305	0.310598	2.11789	0.542606	3.71651							0.425966	2.91501	0.671484	4.59507				
0.333055	2.2717	0.311989	2.11824	0.543378	3.70575							0.426956	2.9092	0.672121	4.57961				
0.334295	2.27036	0.313381	2.11859	0.544154	3.6951							0.427949	2.90345	0.67276	4.56429				
0.335536	2.26905	0.314772	2.11894	0.544932	3.68456							0.428944	2.89777	0.673401	4.54912				
0.336778	2.26775	0.316163	2.11928	0.545713	3.67413							0.429942	2.89215	0.674044	4.53409				
0.338022	2.26647	0.317555	2.11962	0.546496	3.6638							0.430942	2.8866	0.674689	4.51921				
0.339266	2.26521	0.318946	2.11995	0.547282	3.65358							0.431945	2.88111	0.675336	4.50446				
0.340512	2.26397	0.320337	2.12029	0.548071	3.64346							0.43295	2.87568	0.675985	4.48985				
0.341759	2.26274	0.321728	2.12062	0.548862	3.63344							0.433957	2.87032	0.676636	4.47537				
0.343007	2.26154	0.323119	2.12094	0.549655	3.62352							0.434967	2.86501	0.67729	4.46103				
0.344256	2.26035	0.32451	2.12127	0.550451	3.6137							0.43598	2.85977	0.677945	4.44683				
0.345507	2.25918	0.3259	2.12159	0.55125	3.60398							0.436994	2.85458	0.678603	4.43275				
0.346758	2.25802	0.327291	2.1219	0.552051	3.59436							0.438011	2.84945	0.679262	4.4188				
0.348011	2.25688	0.328682	2.12222	0.552855	3.58483							0.439031	2.84438	0.679924	4.40498				
0.349264	2.25576	0.330072	2.12253	0.553661	3.57539							0.440052	2.83936	0.680587	4.39129				
0.350519	2.25465	0.331463	2.12284	0.554469	3.56605							0.441076	2.8344	0.681253	4.37772				
0.351774	2.25356	0.332853	2.12314	0.55528	3.5568							0.442102	2.8295	0.681921	4.36427				
0.353031	2.25248	0.334244	2.12345	0.556094	3.54764							0.443131	2.82465	0.682591	4.35095				
0.354288	2.25142	0.335634	2.12375	0.55691	3.53857							0.444161	2.81985	0.683263	4.33775				
0.355547	2.25038	0.337024	2.12404	0.557729	3.52958							0.445194	2.8151	0.683937	4.32466				
0.356807	2.24934	0.338415	2.12434	0.558549	3.52069							0.446229	2.81041	0.684613	4.31169				
0.358067	2.24833	0.339805	2.12463	0.559373	3.51188							0.447267	2.80576	0.685291	4.29884				
0.359329	2.24732	0.341195	2.12492	0.560199	3.50315							0.448306	2.80117	0.685971	4.2861				
0.360591	2.24633	0.342585	2.1252	0.561027	3.49451							0.449348	2.79663	0.686654	4.27348				
0.361854	2.24536	0.343975	2.12549	0.561857	3.48595							0.450391	2.79213	0.687338	4.26097				
0.363119	2.24439	0.345365	2.12577	0.56269	3.47747							0.451437	2.78769	0.688025	4.24857				
0.364384	2.24344	0.346755	2.12605	0.563526	3.46908							0.452485	2.78329	0.688713	4.23627				
0.36565	2.24251	0.348145	2.12632	0.564363	3.46076							0.453535	2.77894	0.689404	4.22409				
0.366917	2.24158	0.349534	2.1266	0.565203	3.45252							0.454588	2.77463	0.690097	4.21201				
0.368185	2.24067	0.350924	2.12687	0.566046	3.44436							0.455642	2.77037	0.690791	4.20004				
0.369454	2.23977	0.352314	2.12713	0.56689	3.43628							0.456698	2.76616	0.691488	4.18817				
0.370724	2.23889	0.353703	2.1274	0.567737	3.42827							0.457757	2.76199	0.692187	4.17641				
0.371994	2.23801	0.355093	2.12766	0.568587	3.42033							0.458817	2.75786	0.692888	4.16474				
0.373266	2.23715	0.356482	2.12792	0.569439	3.41247							0.459879	2.75378	0.693591	4.15318				
0.374538	2.2363	0.357871	2.12818	0.570293	3.40469							0.460944	2.74974	0.694297	4.14172				
0.375811	2.23546	0.359261	2.12844	0.571149	3.39697							0.46201	2.74574	0.695004	4.13035				
0.377085	2.23463	0.36065	2.12869	0.572007	3.38933							0.463078	2.74178	0.695713	4.11909				
0.37836	2.23381	0.362039	2.12895	0.572868	3.38176							0.464149	2.73787	0.696424	4.10792				
0.379635	2.233	0.363428	2.1292	0.573731	3.37425							0.465221	2.73399	0.697138	4.09684				
0.380912	2.2322	0.364817	2.12944	0.574597	3.36682							0.466295	2.73016	0.697853	4.08586				
0.382189	2.23142	0.366206	2.12969	0.575464	3.35945							0.467371	2.72636	0.698571	4.07497				
0.383467	2.23064	0.367595	2.12993	0.576334	3.35216							0.468449	2.72261	0.69929	4.06418				
0.384745	2.22988	0.368984	2.13017	0.577206	3.34492							0.469529	2.71889	0.700012	4.05347				
0.386025	2.22912	0.370373	2.13041	0.57808	3.33776							0.470611	2.71521	0.700736	4.04285				
0.387305	2.22838	0.371761	2.13065	0.578957	3.33065							0.471694	2.71157	0.701461	4.03233				
0.388586	2.22764	0.37315	2.13088	0.579835	3.32362							0.47278	2.70796	0.702189	4.02189				
0.389868	2.22691	0.374539	2.13112	0.580716	3.31664							0.473867	2.70439	0.702919	4.01154				
0.39115	2.2262	0.375927	2.13135	0.581599	3.30973							0.474956	2.70086	0.703651	4.00127				
0.392433	2.22549	0.377316	2.13158	0.582484	3.30288							0.476047	2.69736	0.704385	3.99109				
0.393717	2.22479	0.378704	2.1318	0.583371	3.29609							0.47714	2.6939	0.70512	3.98099				
0.395002	2.2241	0.380092	2.13203	0.584261	3.28936							0.478234	2.69047	0.705858	3.97098				
0.396287	2.22342	0.381481	2.13225	0.585152	3.28269							0.479331	2.68708	0.706598	3.96105				
0.397573	2.22275	0.382869	2.13247	0.586046	3.27608							0.480429	2.68372	0.70734	3.9512				
0.398859	2.22208	0.384257	2.13269	0.586942	3.26953							0.481529	2.68039	0.708084	3.94143				
0.400147	2.22143	0.385645	2.13291	0.587839	3.26303							0.48263	2.6771	0.70883	3.93174				
0.401435	2.22078	0.387033	2.13313	0.588739	3.2566							0.483733	2.67384	0.709578	3.92213				
0.402723	2.22014	0.388422	2.13334	0.589642	3.25021							0.484838	2.67061	0.710328	3.9126				
0.404013	2.21951	0.389809	2.13355	0.590546	3.24389							0.485945	2.66741	0.711079	3.90314				
0.405303	2.21889	0.391197	2.13376	0.591452	3.23762							0.487053	2.66425	0.711833	3.89376				
0.406593	2.21827	0.392585	2.13397	0.59236	3.2314							0.488163	2.66111	0.712589	3.88446				
0.407885	2.21767	0.393973	2.13418	0.59327	3.22524							0.489275	2.65801	0.713347	3.87523				
0.409177	2.21707	0.395361	2.13438	0.594183	3.21913							0.490388	2.65494	0.714107	3.86607				
0.410469	2.21647	0.396748	2.13458	0.595097	3.21308							0.491503	2.65189	0.714869	3.85699				
0.411762	2.21589	0.398136	2.13479	0.596013	3.20707							0.49262	2.64888	0.715632	3.84798				
0.413056	2.21531	0.399524	2.13499	0.596932	3.20112							0.493738	2.64589	0.716398	3.83904				
0.41435	2.21474	0.400911	2.13518	0.597852	3.19522							0.494858	2.64294	0.717166	3.83017				
0.415645	2.21418	0.402298	2.13538	0.598774	3.18937							0.495979	2.64001	0.717935	3.82138				
0.416941	2.21362	0.403686	2.13557	0.599699	3.18357							0.497102	2.63711	0.718707	3.81265				
0.418237	2.21307	0.405073	2.13577	0.600625	3.17781							0.498227	2.63424	0.71948	3.80399				
0.419534	2.21253	0.40646	2.13596	0.601553	3.17211							0.499353	2.63139	0.720256	3.7954				
0.420831	2.21199	0.407848	2.13615	0.602483	3.16646							0.500481	2.62857						
0.422129	2.21146	0.409235	2.13634	0.603416	3.16085							0.50161	2.62578						
0.423428	2.21094	0.410622	2.13653	0.60435	3.15529							0.502741	2.62302						
0.424727	2.21042	0.412009	2.13671	0.605286	3.14977							0.503873	2.62028						
0.426026	2.20991	0.413396	2.13689	0.606224	3.14431							0.505007	2.61756						
0.427326	2.20941	0.414783	2.13708	0.607164	3.13889							0.506142	2.61488						
0.428627	2.20891	0.41617	2.13726	0.608105	3.13351							0.507279	2.61222						
0.429928	2.20842	0.417556	2.13744	0.609049	3.12818							0.508417	2.60958						
0.43123	2.20793	0.418943	2.13762	0.609994	3.12289							0.509557	2.60697						
0.432532	2.20745	0.42033	2.13779	0.610942	3.11764							0.510698	2.60438						
0.433835	2.20698	0.421716	2.13797	0.611891	3.11244							0.511841	2.60181						
0.435138	2.20651	0.423103	2.13814	0.612842	3.10728							0.512985	2.59927						
0.436442	2.20604	0.424489	2.13831	0.613795	3.10217							0.514131	2.59675						
0.437746	2.20559	0.425876	2.13848	0.61475	3.09709							0.515277	2.59426						
0.439051	2.20513	0.427262	2.13865	0.615706	3.09206							0.516426	2.59179						
0.440357	2.20469	0.428649	2.13882	0.616665	3.08707							0.517576	2.58934						
0.441662	2.20424	0.430035	2.13899	0.617625	3.08212							0.518727	2.58691						
0.442969	2.20381	0.431421	2.13916	0.618587	3.07721							0.519879	2.58451						
0.444276	2.20338	0.432807	2.13932	0.619551	3.07233							0.521033	2.58213						
0.445583	2.20295	0.434193	2.13948	0.620517	3.0675							0.522189	2.57977						
0.446891	2.20253	0.435579	2.13964	0.621484	3.06271							0.523345	2.57743						
0.448199	2.20211	0.436965	2.1398	0.622453	3.05795							0.524503	2.57511						
0.449508	2.2017	0.438351	2.13996	0.623424	3.05324							0.525663	2.57281						
0.450817	2.20129	0.439737	2.14012	0.624397	3.04856							0.526823	2.57054						
0.452126	2.20089	0.441123	2.14028	0.625371	3.04392							0.527985	2.56828						
0.453436	2.20049	0.442509	2.14043	0.626347	3.03931							0.529149	2.56605						
0.454747	2.2001	0.443894	2.14059	0.627325	3.03474							0.530313	2.56383						
0.456058	2.19971	0.44528	2.14074	0.628305	3.03021							0.531479	2.56163						
0.457369	2.19933	0.446666	2.14089	0.629286	3.02572							0.532646	2.55946						
0.458681	2.19895	0.448051	2.14104	0.630269	3.02125							0.533815	2.5573						
0.459993	2.19858	0.449437	2.14119	0.631254	3.01683							0.534984	2.55516						
0.461306	2.1982	0.450822	2.14134	0.63224	3.01244							0.536155	2.55304						
0.462619	2.19784	0.452207	2.14149	0.633228	3.00808							0.537328	2.55094						
0.463933	2.19748	0.453593	2.14163	0.634218	3.00376							0.538501	2.54886						
0.465247	2.19712	0.454978	2.14178	0.63521	2.99947							0.539676	2.5468						
0.466561	2.19676	0.456363	2.14192	0.636203	2.99521							0.540852	2.54475						
0.467876	2.19641	0.457748	2.14207	0.637197	2.99099							0.542029	2.54272						
0.469191	2.19607	0.459133	2.14221	0.638194	2.9868							0.543207	2.54071						
0.470507	2.19573	0.460518	2.14235	0.639192	2.98264							0.544387	2.53872						
0.471823	2.19539	0.461903	2.14249	0.640191	2.97852							0.545568	2.53675						
0.473139	2.19505	0.463288	2.14262	0.641193	2.97442							0.54675	2.53479						
0.474456	2.19472	0.464673	2.14276	0.642195	2.97036							0.547933	2.53285						
0.475773	2.19439	0.466058	2.1429	0.6432	2.96633							0.549117	2.53092						
0.477091	2.19407	0.467443	2.14303	0.644206	2.96233							0.550303	2.52901						
0.478409	2.19375	0.468827	2.14317	0.645213	2.95836							0.55149	2.52712						
0.479727	2.19344	0.470212	2.1433	0.646223	2.95442							0.552677	2.52525						
0.481046	2.19312	0.471597	2.14343	0.647233	2.95051							0.553866	2.52339						
0.482365	2.19281	0.472981	2.14356	0.648246	2.94663							0.555057	2.52154						
0.483684	2.19251	0.474366	2.14369	0.64926	2.94277							0.556248	2.51972						
0.485004	2.19221	0.47575	2.14382	0.650275	2.93895							0.55744	2.5179						
0.486324	2.19191	0.477135	2.14395	0.651292	2.93516							0.558634	2.51611						
0.487645	2.19161	0.478519	2.14408	0.652311	2.93139							0.559828	2.51433						
0.488965	2.19132	0.479903	2.1442	0.653331	2.92766							0.561024	2.51256						
0.490287	2.19103	0.481287	2.14433	0.654352	2.92395							0.562221	2.51081						
0.491608	2.19074	0.482671	2.14445	0.655375	2.92027							0.563418	2.50907						
0.49293	2.19046	0.484056	2.14458	0.6564	2.91661							0.564617	2.50735						
0.494252	2.19018	0.48544	2.1447	0.657426	2.91298							0.565817	2.50564						
0.495575	2.1899	0.486824	2.14482	0.658453	2.90938							0.567018	2.50394						
0.496898	2.18963	0.488207	2.14494	0.659482	2.90581							0.568221	2.50226						
0.498221	2.18936	0.489591	2.14506	0.660513	2.90226							0.569424	2.5006						
0.499545	2.18909	0.490975	2.14518	0.661545	2.89874							0.570628	2.49895						
0.500868	2.18883	0.492359	2.1453	0.662578	2.89525							0.571833	2.49731						
0.502193	2.18857	0.493743	2.14541	0.663613	2.89178							0.57304	2.49568						
0.503517	2.18831	0.495126	2.14553	0.66465	2.88833							0.574247	2.49407						
0.504842	2.18805	0.49651	2.14564	0.665687	2.88491							0.575455	2.49247						
0.506167	2.1878	0.497894	2.14576	0.666727	2.88152							0.576665	2.49089						
0.507493	2.18755	0.499277	2.14587	0.667767	2.87815							0.577875	2.48931						
0.508819	2.1873	0.50066	2.14599	0.668809	2.87481							0.579086	2.48776						
0.510145	2.18705	0.502044	2.1461	0.669853	2.87148							0.580299	2.48621						
0.511471	2.18681	0.503427	2.14621	0.670898	2.86819							0.581512	2.48467						
0.512798	2.18657	0.50481	2.14632	0.671944	2.86491							0.582727	2.48315						
0.514125	2.18633	0.506194	2.14643	0.672992	2.86166							0.583942	2.48164						
0.515452	2.1861	0.507577	2.14654	0.674041	2.85844							0.585158	2.48015						
0.51678	2.18586	0.50896	2.14664	0.675091	2.85524							0.586375	2.47866						
0.518108	2.18563	0.510343	2.14675	0.676143	2.85205							0.587594	2.47719						
0.519436	2.18541	0.511726	2.14686	0.677196	2.8489							0.588813	2.47573						
0.520764	2.18518	0.513109	2.14696	0.678251	2.84576							0.590033	2.47428						
0.522093	2.18496	0.514492	2.14707	0.679307	2.84265							0.591254	2.47284						
0.523422	2.18474	0.515875	2.14717	0.680364	2.83956							0.592476	2.47141						
0.524751	2.18452	0.517258	2.14727	0.681423	2.83649							0.593699	2.47						
0.526081	2.1843	0.51864	2.14738	0.682483	2.83344							0.594923	2.46859						
0.527411	2.18409	0.520023	2.14748	0.683544	2.83042							0.596148	2.4672						
0.528741	2.18388	0.521406	2.14758	0.684607	2.82741							0.597373	2.46582						
0.530071	2.18367	0.522788	2.14768	0.685671	2.82443							0.5986	2.46445						
0.531402	2.18346	0.524171	2.14778	0.686736	2.82147							0.599827	2.46309						
0.532733	2.18326	0.525553	2.14788	0.687802	2.81852							0.601056	2.46174						
0.534064	2.18305	0.526936	2.14797	0.68887	2.8156							0.602285	2.4604						
0.535396	2.18285	0.528318	2.14807	0.689939	2.8127							0.603515	2.45907						
0.536727	2.18265	0.529701	2.14817	0.69101	2.80982							0.604746	2.45776						
0.538059	2.18246	0.531083	2.14826	0.692081	2.80696							0.605978	2.45645						
0.539392	2.18226	0.532465	2.14836	0.693154	2.80412							0.607211	2.45515						
0.540724	2.18207	0.533847	2.14845	0.694229	2.8013							0.608445	2.45386						
0.542057	2.18188	0.535229	2.14855	0.695304	2.79849							0.609679	2.45259						
0.54339	2.18169	0.536611	2.14864	0.696381	2.79571							0.610914	2.45132						
0.544723	2.18151	0.537994	2.14873	0.697459	2.79295							0.612151	2.45006						
0.546057	2.18132	0.539375	2.14882	0.698538	2.7902							0.613388	2.44881						
0.54739	2.18114	0.540757	2.14891	0.699619	2.78748							0.614625	2.44758						
0.548724	2.18096	0.542139	2.149	0.700701	2.78477							0.615864	2.44635						
0.550059	2.18078	0.543521	2.14909	0.701783	2.78208							0.617104	2.44513						
0.551393	2.1806	0.544903	2.14918	0.702868	2.77941							0.618344	2.44392						
0.552728	2.18043	0.546285	2.14927	0.703953	2.77676							0.619585	2.44272						
0.554063	2.18025	0.547666	2.14936	0.70504	2.77412							0.620827	2.44153						
0.555398	2.18008	0.549048	2.14945	0.706127	2.77151							0.62207	2.44035						
0.556733	2.17991	0.550429	2.14953	0.707217	2.76891							0.623314	2.43917						
0.558069	2.17974	0.551811	2.14962	0.708307	2.76633							0.624558	2.43801						
0.559405	2.17958	0.553192	2.1497	0.709398	2.76376							0.625803	2.43685						
0.560741	2.17941	0.554574	2.14979	0.710491	2.76122							0.627049	2.43571						
0.562077	2.17925	0.555955	2.14987	0.711584	2.75869							0.628296	2.43457						
0.563413	2.17909	0.557336	2.14996	0.712679	2.75617							0.629544	2.43344						
0.56475	2.17893	0.558718	2.15004	0.713775	2.75368							0.630792	2.43232						
0.566087	2.17877	0.560099	2.15012	0.714873	2.7512							0.632041	2.43121						
0.567424	2.17861	0.56148	2.1502	0.715971	2.74873							0.633291	2.4301						
0.568761	2.17846	0.562861	2.15028	0.717071	2.74629							0.634542	2.42901						
0.570099	2.1783	0.564242	2.15036	0.718171	2.74386							0.635793	2.42792						
0.571437	2.17815	0.565623	2.15044	0.719273	2.74144							0.637045	2.42684						
0.572775	2.178	0.567004	2.15052	0.720376	2.73904							0.638298	2.42577						
0.574113	2.17785	0.568385	2.1506									0.639552	2.4247						
0.575451	2.1777	0.569766	2.15068									0.640806	2.42365						
0.57679	2.17756	0.571147	2.15076									0.642061	2.4226						
0.578129	2.17741	0.572528	2.15083									0.643317	2.42156						
0.579468	2.17727	0.573908	2.15091									0.644574	2.42053						
0.580807	2.17713	0.575289	2.15099									0.645831	2.4195						
0.582146	2.17699	0.576669	2.15106									0.647089	2.41848						
0.583486	2.17685	0.57805	2.15114									0.648348	2.41748						
0.584826	2.17671	0.579431	2.15121									0.649608	2.41647						
0.586166	2.17657	0.580811	2.15128									0.650868	2.41548						
0.587506	2.17644	0.582191	2.15136									0.652129	2.41449						
0.588846	2.1763	0.583572	2.15143									0.65339	2.41351						
0.590187	2.17617	0.584952	2.1515									0.654652	2.41254						
0.591527	2.17604	0.586332	2.15157									0.655915	2.41157						
0.592868	2.17591	0.587713	2.15164									0.657179	2.41061						
0.594209	2.17578	0.589093	2.15172									0.658443	2.40966						
0.595551	2.17566	0.590473	2.15179									0.659708	2.40871						
0.596892	2.17553	0.591853	2.15186									0.660974	2.40777						
0.598234	2.17541	0.593233	2.15192									0.66224	2.40684						
0.599576	2.17528	0.594613	2.15199									0.663507	2.40592						
0.600918	2.17516	0.595993	2.15206									0.664775	2.405						
0.60226	2.17504	0.597373	2.15213									0.666043	2.40408						
0.603602	2.17492	0.598752	2.1522									0.667312	2.40318						
0.604945	2.1748	0.600132	2.15226									0.668582	2.40228						
0.606287	2.17468	0.601512	2.15233									0.669852	2.40139						
0.60763	2.17457	0.602892	2.15239									0.671123	2.4005						
0.608973	2.17445	0.604271	2.15246									0.672395	2.39962						
0.610316	2.17434	0.605651	2.15253									0.673667	2.39875						
0.61166	2.17422	0.60703	2.15259									0.67494	2.39788						
0.613003	2.17411	0.60841	2.15265									0.676214	2.39702						
0.614347	2.174	0.609789	2.15272									0.677488	2.39616						
0.615691	2.17389	0.611169	2.15278									0.678762	2.39531						
0.617035	2.17378	0.612548	2.15284									0.680038	2.39447						
0.618379	2.17367	0.613927	2.1529									0.681314	2.39363						
0.619723	2.17357	0.615307	2.15297									0.68259	2.3928						
0.621068	2.17346	0.616686	2.15303									0.683868	2.39197						
0.622412	2.17336	0.618065	2.15309									0.685145	2.39115						
0.623757	2.17325	0.619444	2.15315									0.686424	2.39034						
0.625102	2.17315	0.620823	2.15321									0.687703	2.38953						
0.626447	2.17305	0.622202	2.15327									0.688982	2.38873						
0.627792	2.17295	0.623581	2.15333									0.690263	2.38793						
0.629138	2.17285	0.62496	2.15339									0.691544	2.38714						
0.630483	2.17275	0.626339	2.15344									0.692825	2.38635						
0.631829	2.17265	0.627718	2.1535									0.694107	2.38557						
0.633175	2.17255	0.629097	2.15356									0.695389	2.38479						
0.634521	2.17246	0.630475	2.15362									0.696673	2.38402						
0.635867	2.17236	0.631854	2.15367									0.697956	2.38326						
0.637213	2.17227	0.633233	2.15373									0.699241	2.3825						
0.638559	2.17217	0.634611	2.15379									0.700525	2.38174						
0.639906	2.17208	0.63599	2.15384									0.701811	2.38099						
0.641253	2.17199	0.637368	2.1539									0.703097	2.38025						
0.6426	2.1719	0.638747	2.15395									0.704383	2.37951						
0.643946	2.17181	0.640125	2.15401									0.70567	2.37878						
0.645294	2.17172	0.641503	2.15406									0.706958	2.37805						
0.646641	2.17163	0.642882	2.15411									0.708246	2.37732						
0.647988	2.17154	0.64426	2.15417									0.709535	2.3766						
0.649336	2.17146	0.645638	2.15422									0.710824	2.37589						
0.650683	2.17137	0.647016	2.15427									0.712114	2.37518						
0.652031	2.17129	0.648395	2.15432									0.713404	2.37447						
0.653379	2.1712	0.649773	2.15437									0.714695	2.37377						
0.654727	2.17112	0.651151	2.15443									0.715987	2.37308						
0.656075	2.17104	0.652529	2.15448									0.717279	2.37239						
0.657424	2.17096	0.653907	2.15453									0.718571	2.3717						
0.658772	2.17087	0.655285	2.15458									0.719864	2.37102						
0.66012	2.17079	0.656663	2.15463									0.721158	2.37034						
0.661469	2.17071	0.65804	2.15468																
0.662818	2.17064	0.659418	2.15473																
0.664167	2.17056	0.660796	2.15478																
0.665516	2.17048	0.662174	2.15482																
0.666865	2.1704	0.663551	2.15487																
0.668214	2.17033	0.664929	2.15492																
0.669564	2.17025	0.666306	2.15497																
0.670913	2.17018	0.667684	2.15501																
0.672263	2.1701	0.669062	2.15506																
0.673613	2.17003	0.670439	2.15511																
0.674963	2.16996	0.671816	2.15515																
0.676312	2.16989	0.673194	2.1552																
0.677663	2.16981	0.674571	2.15525																
0.679013	2.16974	0.675948	2.15529																
0.680363	2.16967	0.677325	2.15534																
0.681714	2.1696	0.678703	2.15538																
0.683064	2.16954	0.68008	2.15542																
0.684415	2.16947	0.681457	2.15547																
0.685766	2.1694	0.682834	2.15551																
0.687116	2.16933	0.684211	2.15555																
0.688467	2.16927	0.685588	2.1556																
0.689819	2.1692	0.686965	2.15564																
0.69117	2.16914	0.688342	2.15568																
0.692521	2.16907	0.689719	2.15572																
0.693872	2.16901	0.691095	2.15577																
0.695224	2.16894	0.692472	2.15581																
0.696576	2.16888	0.693849	2.15585																
0.697927	2.16882	0.695226	2.15589																
0.699279	2.16876	0.696602	2.15593																
0.700631	2.1687	0.697979	2.15597																
0.701983	2.16864	0.699355	2.15601																
0.703335	2.16858	0.700732	2.15605																
0.704688	2.16852	0.702108	2.15609																
0.70604	2.16846	0.703485	2.15613																
0.707392	2.1684	0.704861	2.15617																
0.708745	2.16834	0.706238	2.15621																
0.710097	2.16829	0.707614	2.15625																
0.71145	2.16823	0.70899	2.15628																
0.712803	2.16817	0.710366	2.15632																
0.714156	2.16812	0.711742	2.15636																
0.715509	2.16806	0.713119	2.1564																
0.716862	2.16801	0.714495	2.15643																
0.718215	2.16795	0.715871	2.15647																
0.719569	2.1679	0.717247	2.15651																
0.720922	2.16785	0.718623	2.15654																
		0.719999	2.15658																
		0.721375	2.15662																
