Sym0		Asym0		Sym1		Sym2		Sym3		Sym4		Asym1		Asym2		Asym3		Asym4	
535  Points		535  Points		428  Points		173  Points		160  Points		122  Points		489  Points		317  Points		167  Points		126  Points	
Freq (MHz)	Vph (m/ms)	Freq (MHz)	Vph (m/ms)	Freq (MHz)	Vph (m/ms)	Freq (MHz)	Vph (m/ms)	Freq (MHz)	Vph (m/ms)	Freq (MHz)	Vph (m/ms)	Freq (MHz)	Vph (m/ms)	Freq (MHz)	Vph (m/ms)	Freq (MHz)	Vph (m/ms)	Freq (MHz)	Vph (m/ms)
0.0013377	6.73356	0.000221473	0.146901	0.167023	816.411	0.279524	679.451	0.501069	2652.98	0.559019	3037.55	0.139778	373.26	0.334045	982.482	0.419265	2203.25	0.668091	4243.86
0.0055962	6.73335	0.00044498	0.207926	0.167017	199.534	0.279607	267.86	0.501056	610.058	0.559057	684.707	0.139927	138.964	0.334036	343.497	0.419308	509.642	0.668067	845.783
0.00985442	6.73313	0.000744071	0.268371	0.167005	113.648	0.279761	166.891	0.501029	344.639	0.559144	385.897	0.140212	85.5272	0.334017	208.122	0.419404	288.209	0.668011	469.658
0.0141119	6.73271	0.00111703	0.328055	0.166986	79.4433	0.279988	121.272	0.500987	240.139	0.55928	268.703	0.140632	61.9022	0.33399	149.278	0.419553	200.968	0.667924	325.057
0.0183685	6.73214	0.00156183	0.386835	0.16696	61.0592	0.280286	95.2957	0.50093	184.254	0.559463	206.15	0.141185	48.6125	0.333954	116.367	0.419755	154.315	0.667807	248.51
0.0226239	6.73142	0.00207608	0.444566	0.166929	49.5802	0.280654	78.5337	0.500859	149.459	0.559694	167.257	0.141869	40.1129	0.33391	95.3407	0.420009	125.28	0.667661	201.121
0.0268777	6.73053	0.00265717	0.50113	0.166893	41.7304	0.281093	66.8293	0.500774	125.709	0.559972	140.74	0.142682	34.2228	0.333857	80.7446	0.420316	105.474	0.667488	168.892
0.0311296	6.72949	0.00330228	0.556425	0.166852	36.0234	0.281601	58.1991	0.500676	108.464	0.560296	121.507	0.14362	29.9105	0.333798	70.0198	0.420675	91.1048	0.66729	145.55
0.0353793	6.72826	0.00400839	0.610358	0.166807	31.687	0.282178	51.5767	0.500565	95.3727	0.560666	106.922	0.14468	26.6244	0.333731	61.806	0.421085	80.2075	0.667068	127.863
0.0396262	6.72685	0.0047724	0.662858	0.16676	28.2803	0.282824	46.338	0.500443	85.0953	0.561082	95.4848	0.145859	24.0431	0.333657	55.3136	0.421545	71.6622	0.666825	113.996
0.0438701	6.72523	0.00559109	0.71386	0.16671	25.5332	0.283536	42.0929	0.500309	76.812	0.561541	86.2769	0.147153	21.9664	0.333578	50.0525	0.422056	64.7837	0.666564	102.833
0.0481104	6.7234	0.00646125	0.763322	0.166659	23.2712	0.284314	38.5855	0.500166	69.9936	0.562045	78.7062	0.148558	20.263	0.333493	45.7027	0.422617	59.1295	0.666285	93.6526
0.0523466	6.72133	0.00737965	0.811209	0.166609	21.3764	0.285157	35.6408	0.500013	64.2827	0.56259	72.3728	0.15007	18.8436	0.333404	42.0462	0.423226	54.4009	0.665992	85.969
0.056578	6.71901	0.00834313	0.857504	0.16656	19.7662	0.286064	33.1349	0.499851	59.4298	0.563178	66.9975	0.151684	17.645	0.333311	38.9295	0.423883	50.389	0.665686	79.4437
0.060804	6.71642	0.00934859	0.902199	0.166514	18.3811	0.287034	30.9779	0.499683	55.2548	0.563806	62.3789	0.153396	16.6214	0.333215	36.2411	0.424587	46.9434	0.66537	73.8332
0.0650237	6.71351	0.010393	0.945298	0.166472	17.1773	0.288065	29.1027	0.499507	51.6249	0.564474	58.3685	0.155203	15.7386	0.333116	33.8986	0.425338	43.953	0.665045	68.9576
0.0692361	6.71026	0.0114736	0.986811	0.166437	16.1216	0.289156	27.4584	0.499326	48.4399	0.56518	54.8542	0.157099	14.9707	0.333016	31.8393	0.426135	41.3339	0.664712	64.6814
0.0734404	6.70663	0.0125875	1.02676	0.16641	15.1884	0.290306	26.0058	0.499141	45.6227	0.565925	51.7498	0.159082	14.2979	0.332915	30.0147	0.426977	39.0217	0.664375	60.9006
0.077635	6.70258	0.013732	1.06517	0.166392	14.3581	0.291514	24.7138	0.498952	43.1132	0.566706	48.9881	0.161145	13.7044	0.332814	28.387	0.427862	36.9659	0.664033	57.5337
0.0818185	6.69803	0.0149048	1.10208	0.166388	13.6146	0.292778	23.5578	0.49876	40.8634	0.567523	46.5157	0.163287	13.1777	0.332715	26.926	0.428791	35.1268	0.663689	54.5165
0.0859892	6.69293	0.0161034	1.13751	0.166398	12.9455	0.294097	22.518	0.498566	38.8352	0.568375	44.2896	0.165502	12.7079	0.332617	25.6074	0.429761	33.4721	0.663343	51.7973
0.0901449	6.68719	0.0173258	1.17152	0.166426	12.3405	0.295469	21.5782	0.498372	36.9974	0.569262	42.2752	0.167787	12.2867	0.332522	24.4114	0.430773	31.9758	0.662998	49.3339
0.0942828	6.68071	0.0185697	1.20413	0.166475	11.7912	0.296894	20.725	0.498177	35.3245	0.570181	40.4439	0.170138	11.9074	0.332431	23.3219	0.431826	30.6166	0.662654	47.0921
0.0983998	6.67337	0.0198334	1.23541	0.16655	11.2907	0.298369	19.9473	0.497984	33.7952	0.571132	38.7721	0.172552	11.5644	0.332344	22.3252	0.432918	29.3767	0.662312	45.0433
0.102492	6.66502	0.0211149	1.26539	0.166654	10.8333	0.299894	19.2359	0.497792	32.3919	0.572115	37.2399	0.175025	11.2532	0.332263	21.4102	0.434049	28.2414	0.661973	43.1636
0.106554	6.65547	0.0224128	1.29411	0.166795	10.4143	0.301467	18.5829	0.497603	31.0997	0.573128	35.8308	0.177554	10.9697	0.332189	20.5672	0.435217	27.1982	0.661638	41.4331
0.110581	6.64448	0.0237254	1.32164	0.166977	10.0296	0.303086	17.9817	0.497417	29.9059	0.574171	34.5306	0.180136	10.7107	0.332122	19.7882	0.436422	26.2366	0.661308	39.8348
0.114563	6.63176	0.0250513	1.34801	0.167177	9.71985	0.304751	17.4266	0.497235	28.7999	0.575243	33.3275	0.182766	10.4732	0.332063	19.0662	0.437664	25.3474	0.660983	38.354
0.118492	6.61694	0.0263893	1.37327	0.167383	9.47307	0.30646	16.9127	0.497059	27.7723	0.576343	32.2109	0.185443	10.255	0.332014	18.3954	0.438941	24.5231	0.660665	36.9785
0.122355	6.59955	0.0277382	1.39747	0.167583	9.28029	0.308211	16.4357	0.496888	26.8152	0.57747	31.1721	0.188164	10.0538	0.331975	17.7705	0.440252	23.7569	0.660353	35.6974
0.126135	6.579	0.0290969	1.42066	0.167761	9.13475	0.310004	15.9919	0.496723	25.9216	0.578624	30.2032	0.190924	9.86783	0.331948	17.1872	0.441596	23.0431	0.660049	34.5014
0.129811	6.55454	0.0304644	1.44287	0.167904	9.0315	0.311837	15.5782	0.496566	25.0854	0.579805	29.2976	0.193723	9.69553	0.331933	16.6415	0.442974	22.3765	0.659753	33.3823
0.133359	6.52528	0.0318398	1.46415	0.168003	8.96706	0.313709	15.1917	0.496417	24.3015	0.58101	28.4493	0.196556	9.5355	0.331932	16.13	0.444383	21.7527	0.659465	32.3331
0.136745	6.49011	0.0332222	1.48455	0.168153	8.87661	0.315618	14.83	0.496276	23.565	0.58224	27.6532	0.199051	9.40508	0.331945	15.6497	0.445823	21.1679	0.659187	31.3474
0.139932	6.44785	0.0346109	1.50409	0.168328	8.78118	0.317563	14.4908	0.496144	22.8718	0.583494	26.9046	0.201196	9.29997	0.331975	15.1979	0.447294	20.6185	0.658917	30.4197
0.142881	6.39729	0.0358256	1.52047	0.168591	8.65615	0.319544	14.1721	0.496023	22.2184	0.584772	26.1995	0.202981	9.21697	0.332021	14.7723	0.448794	20.1017	0.658658	29.545
0.145553	6.33746	0.0368642	1.53396	0.168965	8.50568	0.321557	13.8723	0.495911	21.6015	0.586072	25.5342	0.2044	9.1537	0.332086	14.3708	0.450323	19.6145	0.658409	28.7191
0.14792	6.26792	0.037725	1.5448	0.169489	8.33495	0.323604	13.5898	0.495811	21.0181	0.587395	24.9056	0.205447	9.10845	0.332171	13.9915	0.451881	19.1547	0.658171	27.938
0.149971	6.18897	0.0384067	1.55318	0.170222	8.15009	0.325681	13.3232	0.495723	20.4657	0.58874	24.3107	0.206118	9.08003	0.332277	13.6328	0.453465	18.72	0.657943	27.1981
0.151716	6.10174	0.0389086	1.55923	0.171249	7.95828	0.327789	13.0712	0.495647	19.9418	0.590106	23.7469	0.207086	9.03989	0.332406	13.2932	0.455076	18.3085	0.657727	26.4965
0.153184	6.00796	0.0392301	1.56306	0.172514	7.78816	0.329925	12.8327	0.495584	19.4445	0.591493	23.2119	0.20814	8.99721	0.332559	12.9712	0.456713	17.9184	0.657523	25.8301
0.154414	5.90959	0.0396926	1.5685	0.174057	7.63968	0.332088	12.6068	0.495535	18.9718	0.5929	22.7037	0.209578	8.94066	0.332739	12.6658	0.458376	17.5482	0.657331	25.1966
0.155447	5.80854	0.0401957	1.57433	0.175909	7.51245	0.334278	12.3924	0.4955	18.522	0.594326	22.2202	0.211404	8.87152	0.332946	12.3757	0.460062	17.1964	0.657151	24.5935
0.156323	5.70642	0.0408806	1.58212	0.178088	7.40549	0.336493	12.1887	0.49548	18.0935	0.595772	21.7597	0.213621	8.79123	0.333184	12.1001	0.461772	16.8617	0.656984	24.0187
0.157076	5.60452	0.0417479	1.59175	0.180591	7.3171	0.338731	11.995	0.495475	17.6849	0.597237	21.3207	0.216234	8.70138	0.333453	11.838	0.463506	16.5429	0.65683	23.4704
0.157734	5.50379	0.0427982	1.60308	0.183392	7.24497	0.340992	11.8105	0.495487	17.2949	0.59872	20.9017	0.219245	8.60358	0.333758	11.5886	0.465262	16.239	0.656689	22.9468
0.158319	5.40491	0.0440322	1.61595	0.186457	7.18648	0.343275	11.6347	0.495516	16.9223	0.600221	20.5015	0.222267	8.51094	0.3341	11.3512	0.467039	15.949	0.656562	22.4463
0.158847	5.30834	0.0454505	1.63016	0.189743	7.1391	0.345577	11.4669	0.495562	16.5661	0.60174	20.1187	0.225297	8.42299	0.334482	11.1251	0.468837	15.6719	0.656449	21.9674
0.159333	5.21437	0.0468707	1.64381	0.19321	7.10057	0.347898	11.3067	0.495627	16.2252	0.603275	19.7524	0.228333	8.3393	0.334907	10.9098	0.470656	15.407	0.65635	21.5089
0.159787	5.12319	0.0482927	1.65693	0.196822	7.06902	0.350236	11.1534	0.49571	15.8988	0.604828	19.4014	0.231371	8.25947	0.335378	10.7046	0.472494	15.1535	0.656266	21.0695
0.160217	5.03488	0.0497163	1.66954	0.20055	7.04294	0.352591	11.0067	0.495814	15.5859	0.606396	19.065	0.234408	8.18313	0.3359	10.5091	0.474351	14.9106	0.656197	20.648
0.16063	4.94949	0.051141	1.68167	0.204371	7.02117	0.35496	10.8661	0.495938	15.2859	0.60798	18.7421	0.23744	8.10993	0.336476	10.3229	0.476226	14.6777	0.656143	20.2434
0.161031	4.86701	0.0525668	1.69334	0.208266	7.00282	0.357342	10.7313	0.496084	14.9981	0.609579	18.432	0.240464	8.03955	0.33711	10.1455	0.478119	14.4543	0.656105	19.8548
0.161425	4.78738	0.0539934	1.70457	0.21222	6.98719	0.359737	10.6018	0.496253	14.7217	0.611194	18.1341	0.243477	7.9717	0.337807	9.97655	0.480028	14.2398	0.656083	19.4813
0.161813	4.71055	0.0554207	1.71537	0.216222	6.97376	0.362142	10.4774	0.496444	14.4561	0.612822	17.8475	0.246473	7.90609	0.33847	9.83601	0.481954	14.0336	0.656077	19.122
0.16215	4.64582	0.0568485	1.72578	0.220264	6.9621	0.364556	10.3577	0.49666	14.2009	0.614465	17.5717	0.249449	7.84245	0.339077	9.72095	0.483895	13.8353	0.656087	18.7762
0.162437	4.59223	0.0582767	1.73581	0.224339	6.95192	0.366978	10.2425	0.496901	13.9554	0.616122	17.306	0.2524	7.78053	0.339612	9.62901	0.48585	13.6445	0.656115	18.4432
0.162676	4.549	0.0597051	1.74548	0.22844	6.94294	0.369405	10.1314	0.497168	13.7192	0.617791	17.05	0.255322	7.72008	0.340055	9.55833	0.48782	13.4607	0.65616	18.1223
0.162865	4.5155	0.0611337	1.7548	0.232564	6.93497	0.371838	10.0243	0.497462	13.4919	0.619474	16.8032	0.258209	7.66087	0.340393	9.50748	0.489803	13.2836	0.656223	17.8129
0.163004	4.49124	0.0625623	1.76378	0.236707	6.92785	0.374273	9.92075	0.497785	13.273	0.621169	16.565	0.261055	7.60267	0.340615	9.47543	0.491798	13.1128	0.656304	17.5144
0.163093	4.47587	0.0639908	1.77245	0.240866	6.92144	0.376396	9.83338	0.498138	13.0621	0.622875	16.335	0.263856	7.54527	0.340943	9.43001	0.493805	12.948	0.656404	17.2263
0.163222	4.45401	0.0654193	1.78082	0.245038	6.91565	0.378206	9.76085	0.498522	12.8589	0.624594	16.1128	0.266606	7.48845	0.341309	9.38153	0.495823	12.7888	0.656522	16.9481
0.163363	4.43054	0.0668475	1.7889	0.249222	6.91038	0.379702	9.70218	0.498938	12.6631	0.626323	15.898	0.269297	7.43203	0.341825	9.31705	0.497851	12.635	0.656661	16.6794
0.163556	4.39911	0.0682756	1.79671	0.253415	6.90556	0.380884	9.65659	0.499388	12.4742	0.628063	15.6903	0.271925	7.37581	0.342509	9.23787	0.499888	12.4863	0.656819	16.4196
0.163801	4.36014	0.0697033	1.80425	0.257617	6.90113	0.381753	9.6235	0.499873	12.2922	0.629814	15.4893	0.274483	7.31963	0.343384	9.14559	0.501934	12.3424	0.656998	16.1685
0.1641	4.31416	0.0711306	1.81154	0.261827	6.89704	0.382309	9.60252	0.500395	12.1166	0.631574	15.2947	0.276966	7.26333	0.344481	9.04206	0.503988	12.2031	0.657198	15.9255
0.164456	4.26176	0.0725576	1.81859	0.266042	6.89324	0.383107	9.57261	0.500955	11.9472	0.633344	15.1062	0.279367	7.20677	0.345836	8.92939	0.506048	12.0682	0.65742	15.6904
0.164871	4.20363	0.0739842	1.82541	0.270263	6.8897	0.383974	9.54043	0.501556	11.7837	0.635122	14.9235	0.281682	7.14983	0.347299	8.82308	0.508115	11.9374	0.657664	15.4628
0.165294	4.14753	0.0754104	1.83201	0.274488	6.88639	0.385152	9.49721	0.502197	11.6261	0.636909	14.7463	0.283906	7.09244	0.348873	8.72293	0.510186	11.8106	0.65793	15.2424
0.165725	4.09339	0.076836	1.8384	0.278718	6.88327	0.38664	9.44343	0.502883	11.4739	0.638704	14.5745	0.286036	7.0345	0.350563	8.62873	0.512262	11.6876	0.65822	15.0289
0.166165	4.04113	0.0782612	1.84459	0.28295	6.88033	0.388435	9.37964	0.503613	11.3271	0.640506	14.4077	0.288069	6.976	0.35237	8.54026	0.514342	11.5681	0.658534	14.8221
0.166614	3.99067	0.0796858	1.85058	0.287185	6.87754	0.390534	9.30647	0.504391	11.1855	0.642315	14.2457	0.290004	6.91692	0.354295	8.45728	0.516424	11.452	0.658872	14.6215
0.167073	3.94193	0.0811099	1.85638	0.291422	6.87488	0.392932	9.22459	0.505218	11.0489	0.644131	14.0883	0.29184	6.85727	0.356339	8.37956	0.518507	11.3392	0.659236	14.4271
0.167541	3.89485	0.0825335	1.86201	0.29566	6.87233	0.395317	9.1448	0.506096	10.9171	0.645953	13.9354	0.293578	6.7971	0.3585	8.30683	0.520591	11.2294	0.659626	14.2386
0.168018	3.84936	0.0839565	1.86747	0.2999	6.86988	0.397687	9.06697	0.507027	10.79	0.64778	13.7867	0.29522	6.73647	0.360776	8.23883	0.522674	11.1226	0.660043	14.0557
0.168506	3.8054	0.085379	1.87277	0.30414	6.86752	0.400039	8.99095	0.508013	10.6674	0.649612	13.6421	0.296769	6.67547	0.363163	8.17528	0.524756	11.0186	0.660487	13.8782
0.169004	3.76289	0.0868009	1.8779	0.308381	6.86523	0.402372	8.91664	0.509056	10.5492	0.651449	13.5013	0.298228	6.6142	0.365659	8.1159	0.526836	10.9173	0.660959	13.706
0.169512	3.72179	0.0882223	1.88289	0.312621	6.863	0.404683	8.84391	0.510158	10.4352	0.653289	13.3643	0.299602	6.55275	0.368257	8.06043	0.528912	10.8185	0.661461	13.5388
0.170029	3.68203	0.0896431	1.88773	0.316861	6.86082	0.406971	8.77264	0.511319	10.3254	0.655133	13.2308	0.300895	6.49125	0.370954	8.00858	0.530983	10.7222	0.661992	13.3766
0.170558	3.64357	0.0910634	1.89244	0.3211	6.85867	0.409233	8.70275	0.512383	10.233	0.656979	13.1008	0.302114	6.4298	0.373742	7.9601	0.533048	10.6282	0.662554	13.219
0.171096	3.60634	0.092483	1.89701	0.325337	6.85656	0.411467	8.63413	0.513327	10.1566	0.658828	12.974	0.303262	6.36852	0.376618	7.91472	0.535107	10.5364	0.663148	13.066
0.171645	3.57031	0.0939021	1.90145	0.329572	6.85445	0.413671	8.56669	0.514135	10.095	0.660679	12.8504	0.304346	6.30751	0.379574	7.87222	0.537158	10.4467	0.663774	12.9173
0.172203	3.53542	0.0953207	1.90577	0.333805	6.85235	0.415843	8.50034	0.514791	10.0472	0.66253	12.7299	0.305371	6.24686	0.382605	7.83235	0.5392	10.359	0.664434	12.773
0.172772	3.50164	0.0967388	1.90997	0.338035	6.85024	0.417982	8.43502	0.515283	10.0127	0.664382	12.6122	0.306341	6.18668	0.385706	7.7949	0.540972	10.2841	0.665128	12.6327
0.173351	3.46891	0.0981563	1.91405	0.342261	6.84812	0.420086	8.37064	0.515603	9.99085	0.666234	12.4973	0.307263	6.12703	0.388871	7.75969	0.542475	10.2214	0.665858	12.4965
0.173941	3.4372	0.0995733	1.91803	0.346483	6.84596	0.422154	8.30715	0.516069	9.95977	0.668085	12.3851	0.30814	6.06799	0.392096	7.72652	0.543713	10.1703	0.666623	12.3641
0.17454	3.40646	0.10099	1.9219	0.3507	6.84376	0.424184	8.24449	0.516583	9.92642	0.669934	12.2754	0.308976	6.00962	0.395375	7.69524	0.544689	10.1303	0.667426	12.2354
0.175149	3.37667	0.102406	1.92567	0.354911	6.84151	0.426175	8.18262	0.517296	9.8818	0.671782	12.1683	0.309777	5.95197	0.398705	7.66568	0.545405	10.1012	0.668267	12.1104
0.175768	3.34778	0.103821	1.92934	0.359116	6.83918	0.428128	8.12149	0.518221	9.82654	0.673627	12.0635	0.310545	5.89509	0.402081	7.63772	0.545862	10.0826	0.669147	11.989
0.176397	3.31977	0.105236	1.93291	0.363313	6.83676	0.430042	8.06108	0.519374	9.76145	0.675468	11.961	0.311284	5.83902	0.405499	7.61121	0.546517	10.0562	0.670066	11.8709
0.177035	3.29259	0.10665	1.9364	0.367501	6.83423	0.431917	8.00136	0.520776	9.68744	0.677306	11.8607	0.311997	5.78378	0.408956	7.58605	0.547228	10.0276	0.671027	11.7562
0.177683	3.26622	0.108064	1.93979	0.371679	6.83157	0.433753	7.94233	0.522449	9.60555	0.679139	11.7625	0.312687	5.7294	0.412449	7.56213	0.548192	9.989	0.67203	11.6448
0.178341	3.24064	0.109477	1.9431	0.375844	6.82875	0.435553	7.88398	0.524191	9.52681	0.680966	11.6664	0.313356	5.67589	0.415975	7.53935	0.549406	9.94075	0.673075	11.5364
0.179007	3.2158	0.11089	1.94633	0.379996	6.82575	0.437317	7.82632	0.526003	9.45111	0.682788	11.5722	0.314008	5.62326	0.419531	7.51763	0.550867	9.88315	0.674163	11.4312
0.179684	3.19168	0.112303	1.94948	0.384131	6.82252	0.439049	7.76937	0.527885	9.37834	0.684603	11.4799	0.314643	5.57153	0.423115	7.49688	0.552568	9.81661	0.675296	11.3289
0.180369	3.16827	0.113715	1.95256	0.388247	6.81903	0.440751	7.71316	0.529835	9.3084	0.686411	11.3894	0.315263	5.5207	0.426724	7.47704	0.554504	9.74155	0.676474	11.2295
0.181064	3.14552	0.115126	1.95556	0.39234	6.81521	0.442427	7.65775	0.531853	9.24117	0.688211	11.3007	0.315872	5.47076	0.430356	7.45804	0.556422	9.66782	0.677697	11.1329
0.181767	3.12343	0.116537	1.95849	0.396407	6.81103	0.444084	7.60319	0.533939	9.17656	0.690002	11.2137	0.316469	5.42172	0.43401	7.43981	0.558321	9.59537	0.678967	11.0391
0.18248	3.10196	0.117948	1.96135	0.400441	6.80639	0.445726	7.54956	0.53609	9.11446	0.691784	11.1282	0.317057	5.37357	0.437683	7.4223	0.560199	9.52413	0.680283	10.9479
0.183201	3.08109	0.119358	1.96414	0.404438	6.8012	0.447363	7.49697	0.538305	9.05476	0.693556	11.0444	0.317637	5.32631	0.441373	7.40546	0.562056	9.45405	0.681647	10.8594
0.183931	3.06081	0.120768	1.96687	0.408388	6.79536	0.449003	7.44555	0.540583	8.99737	0.695318	10.962	0.31821	5.27992	0.44508	7.38924	0.563891	9.38508	0.683059	10.7733
0.184669	3.04109	0.122177	1.96954	0.412283	6.78873	0.450659	7.39544	0.542923	8.94217	0.697068	10.8811	0.318777	5.23439	0.448801	7.37359	0.565704	9.31718	0.684328	10.7003
0.185416	3.02192	0.123586	1.97214	0.41611	6.78113	0.452344	7.34684	0.545321	8.88908	0.698807	10.8016	0.319339	5.18972	0.452535	7.35848	0.567494	9.2503	0.685438	10.6395
0.186171	3.00327	0.124995	1.97469	0.419856	6.77236	0.454075	7.29998	0.547777	8.838	0.700313	10.7335	0.319897	5.1459	0.456281	7.34387	0.56926	9.1844	0.686377	10.5902
0.186935	2.98513	0.126403	1.97718	0.423501	6.76217	0.455874	7.25513	0.550289	8.78884	0.701588	10.6762	0.320451	5.1029	0.460037	7.32971	0.571002	9.11945	0.687132	10.5518
0.187706	2.96748	0.127811	1.97962	0.427026	6.75029	0.457764	7.2126	0.552853	8.7415	0.702638	10.6293	0.321003	5.06072	0.463803	7.31599	0.572719	9.05541	0.687694	10.524
0.188486	2.9503	0.129218	1.982	0.430406	6.73637	0.45977	7.17274	0.555469	8.69589	0.703464	10.5926	0.321553	5.01934	0.467576	7.30265	0.574412	8.99226	0.688057	10.5063
0.189273	2.93358	0.130626	1.98434	0.433617	6.7201	0.461921	7.13588	0.558133	8.65194	0.704069	10.5657	0.322102	4.97875	0.471356	7.28968	0.576081	8.92996	0.688584	10.4811
0.190068	2.91731	0.132032	1.98662	0.436633	6.70116	0.464241	7.10233	0.560845	8.60956	0.704456	10.5486	0.322649	4.93894	0.475142	7.27705	0.577724	8.86849	0.689162	10.4539
0.190871	2.90147	0.133439	1.98885	0.439434	6.67932	0.466751	7.0723	0.563601	8.56868	0.70501	10.5242	0.323197	4.89988	0.478931	7.26472	0.579344	8.80784	0.689958	10.4175
0.191681	2.88604	0.134845	1.99104	0.442007	6.65446	0.469462	7.04586	0.5664	8.52922	0.705611	10.4978	0.323744	4.86157	0.482724	7.25267	0.580939	8.74798	0.690982	10.3721
0.192499	2.87101	0.13625	1.99318	0.444349	6.62662	0.472376	7.02293	0.569239	8.49111	0.706425	10.4621	0.324292	4.82398	0.486519	7.24088	0.582511	8.6889	0.692243	10.3182
0.193324	2.85637	0.137656	1.99528	0.446468	6.596	0.475483	7.00328	0.572117	8.45428	0.70745	10.4173	0.324841	4.78711	0.490313	7.22931	0.58406	8.63059	0.693757	10.2565
0.194156	2.84211	0.139061	1.99734	0.44838	6.56293	0.478766	6.98655	0.575032	8.41867	0.708682	10.3638	0.325391	4.75093	0.494107	7.21794	0.585588	8.57304	0.695539	10.1876
0.194996	2.82822	0.140465	1.99935	0.450107	6.52778	0.482204	6.97237	0.577981	8.38422	0.710116	10.3017	0.325943	4.71544	0.497899	7.20675	0.587094	8.51624	0.697368	10.1207
0.195842	2.81467	0.14187	2.00132	0.451673	6.49095	0.485775	6.96034	0.580963	8.35086	0.711748	10.2315	0.326496	4.68063	0.501687	7.1957	0.588582	8.4602	0.699243	10.0556
0.196696	2.80147	0.143274	2.00326	0.453101	6.45283	0.489456	6.95011	0.583976	8.31855	0.713364	10.1623	0.327052	4.64646	0.505469	7.18478	0.590051	8.40491	0.701165	9.99234
0.197556	2.78861	0.144678	2.00515	0.454412	6.41373	0.49323	6.94136	0.587019	8.28723	0.714965	10.0942	0.32761	4.61294	0.509245	7.17395	0.591504	8.35038	0.703132	9.93087
0.198423	2.77606	0.146081	2.00701	0.455624	6.37394	0.49708	6.93383	0.590089	8.25685	0.716549	10.027	0.32817	4.58004	0.513011	7.16318	0.592943	8.29662	0.705144	9.87111
0.199296	2.76382	0.147484	2.00884	0.456752	6.33369	0.500993	6.9273	0.593186	8.22737	0.718117	9.96081	0.328733	4.54776	0.516766	7.15245	0.59437	8.24363	0.7072	9.813
0.200176	2.75189	0.148887	2.01063	0.45781	6.29316	0.504959	6.9216	0.596306	8.19873	0.719669	9.89552	0.329299	4.51607	0.520508	7.14172	0.595787	8.19143	0.709299	9.7565
0.201063	2.74025	0.15029	2.01238	0.458808	6.25252	0.508967	6.91658	0.59945	8.1709	0.721204	9.83114	0.329868	4.48497	0.524233	7.13096	0.597197	8.14004	0.711439	9.70155
0.201955	2.7289	0.151692	2.0141	0.459754	6.21188	0.513012	6.91214	0.602615	8.14383			0.33044	4.45445	0.52794	7.12013	0.598604	8.08948	0.713621	9.64809
0.202854	2.71781	0.153095	2.01579	0.460656	6.17133	0.517086	6.90817	0.605799	8.11749			0.331016	4.42448	0.531626	7.10919	0.600011	8.03977	0.715843	9.59608
0.203759	2.707	0.154496	2.01745	0.46152	6.13095	0.521187	6.90461	0.609003	8.09184			0.331594	4.39507	0.535285	7.0981	0.601421	7.99095	0.718104	9.54546
0.20467	2.69645	0.155898	2.01908	0.46235	6.09081	0.525308	6.90139	0.612223	8.06684			0.332177	4.36619	0.538916	7.08681	0.60284	7.94305	0.720403	9.49618
0.205587	2.68615	0.157299	2.02067	0.463151	6.05095	0.529448	6.89846	0.615459	8.04246			0.332763	4.33783	0.542513	7.07527	0.604272	7.89612		
0.20651	2.67609	0.1587	2.02224	0.463927	6.01141	0.533604	6.89578	0.61871	8.01866			0.333353	4.30999	0.546072	7.06342	0.605722	7.85019		
0.207439	2.66627	0.160101	2.02378	0.46468	5.97222	0.537773	6.89331	0.621973	7.99542			0.333947	4.28264	0.549586	7.0512	0.607196	7.80532		
0.208373	2.65668	0.161502	2.0253	0.465413	5.93342	0.541953	6.89103	0.625248	7.97271			0.334544	4.25579	0.553051	7.03853	0.608701	7.76157		
0.209313	2.64732	0.162902	2.02678	0.466129	5.89501	0.546143	6.88891	0.628534	7.95048			0.335146	4.22942	0.556458	7.02535	0.610245	7.719		
0.210258	2.63817	0.164302	2.02824	0.466828	5.85701	0.550342	6.88694	0.631828	7.92872			0.335752	4.20351	0.559801	7.01157	0.611835	7.67769		
0.211209	2.62924	0.165702	2.02968	0.467514	5.81943	0.554549	6.88508	0.635131	7.9074			0.336361	4.17806	0.563072	6.99711	0.61348	7.63772		
0.212165	2.62051	0.167102	2.03109	0.468187	5.78229	0.558761	6.88334	0.638439	7.8865			0.336975	4.15306	0.566262	6.98188	0.615188	7.59915		
0.213126	2.61198	0.168502	2.03247	0.468849	5.74558	0.56298	6.88168	0.641752	7.86597			0.337593	4.1285	0.569363	6.96579	0.61697	7.56208		
0.214092	2.60364	0.169901	2.03384	0.469501	5.70932	0.567203	6.88011	0.645069	7.8458			0.338216	4.10436	0.572364	6.94874	0.618835	7.5266		
0.215064	2.59549	0.1713	2.03518	0.470144	5.6735	0.57143	6.87862	0.648388	7.82597			0.338842	4.08065	0.575258	6.93066	0.620792	7.49276		
0.21604	2.58753	0.172699	2.03649	0.470778	5.63813	0.57566	6.87718	0.651707	7.80643			0.339473	4.05734	0.578037	6.91147	0.622851	7.46066		
0.217022	2.57974	0.174097	2.03779	0.471406	5.60321	0.579893	6.87581	0.655024	7.78718			0.340108	4.03444	0.580693	6.89112	0.625018	7.43033		
0.218008	2.57213	0.175496	2.03906	0.472027	5.56873	0.584129	6.87448	0.658339	7.76818			0.340748	4.01192	0.585619	6.84681	0.627301	7.40182		
0.218999	2.56468	0.176894	2.04032	0.472643	5.5347	0.588367	6.87319	0.661649	7.7494			0.341392	3.98979	0.587884	6.82284	0.629704	7.37513		
0.219995	2.5574	0.178292	2.04155	0.473254	5.50111	0.592606	6.87193	0.664952	7.73082			0.34204	3.96804	0.590018	6.7977	0.632229	7.35026		
0.220995	2.55028	0.17969	2.04276	0.47386	5.46795	0.596846	6.87071	0.668247	7.71242			0.342692	3.94665	0.592024	6.77147	0.634876	7.32716		
0.222	2.54332	0.181088	2.04396	0.474462	5.43524	0.601086	6.86951	0.671531	7.69416			0.343349	3.92562	0.593906	6.74421	0.637643	7.30577		
0.22301	2.5365	0.182485	2.04513	0.475061	5.40295	0.605327	6.86833	0.674801	7.67601			0.344011	3.90495	0.595672	6.71603	0.640526	7.286		
0.224024	2.52983	0.183883	2.04629	0.475656	5.37109	0.609567	6.86717	0.678056	7.65794			0.344676	3.88462	0.597329	6.68703	0.643519	7.26777		
0.225042	2.52331	0.18528	2.04742	0.476249	5.33965	0.613807	6.86601	0.681294	7.63993			0.345346	3.86462	0.598885	6.65731	0.646616	7.25094		
0.226064	2.51693	0.186677	2.04854	0.47684	5.30863	0.618046	6.86486	0.68451	7.62194			0.346021	3.84496	0.600348	6.62698	0.649808	7.23543		
0.227091	2.51068	0.188073	2.04965	0.477429	5.27803	0.622283	6.86371	0.687702	7.60394			0.3467	3.82562	0.601727	6.59616	0.653088	7.22109		
0.228122	2.50457	0.18947	2.05073	0.478017	5.24783	0.626519	6.86256	0.690868	7.58589			0.347383	3.80659	0.603029	6.56492	0.656448	7.20784		
0.229157	2.49858	0.190866	2.0518	0.478603	5.21804	0.630752	6.86139	0.694003	7.56776			0.348071	3.78787	0.604263	6.53336	0.659879	7.19555		
0.230196	2.49272	0.192263	2.05285	0.479188	5.18864	0.634982	6.86021	0.697104	7.54951			0.348763	3.76946	0.605434	6.50157	0.663376	7.18413		
0.231239	2.48698	0.193659	2.05389	0.479773	5.15964	0.639209	6.85901	0.700168	7.53111			0.349459	3.75135	0.60655	6.46961	0.666931	7.1735		
0.232286	2.48136	0.195055	2.05491	0.480357	5.13102	0.643431	6.85777	0.703191	7.51251			0.35016	3.73352	0.607615	6.43754	0.670538	7.16357		
0.233337	2.47586	0.196451	2.05592	0.480941	5.10278	0.647649	6.85651	0.706168	7.49369			0.350865	3.71598	0.608635	6.40543	0.674192	7.15426		
0.234391	2.47047	0.197846	2.05691	0.481525	5.07492	0.651861	6.8552	0.709096	7.4746			0.351575	3.69872	0.609615	6.37332	0.677887	7.14552		
0.23545	2.46519	0.199242	2.05788	0.482109	5.04743	0.656067	6.85385	0.711972	7.45521			0.352289	3.68173	0.610558	6.34126	0.68162	7.13728		
0.236512	2.46002	0.200637	2.05885	0.482693	5.02031	0.660265	6.85243	0.714791	7.43548			0.353007	3.66501	0.611469	6.30927	0.685386	7.1295		
0.237577	2.45495	0.202032	2.0598	0.483278	4.99354	0.664455	6.85094	0.717549	7.41539			0.353729	3.64856	0.61235	6.27739	0.689181	7.12212		
0.238647	2.44999	0.203427	2.06073	0.483863	4.96713	0.668635	6.84937	0.720245	7.39492			0.354456	3.63236	0.613204	6.24565	0.693003	7.11511		
0.239719	2.44513	0.204822	2.06165	0.484449	4.94107	0.672803	6.84771					0.355187	3.61641	0.614034	6.21408	0.696848	7.10844		
0.240795	2.44036	0.206217	2.06256	0.485036	4.91535	0.676957	6.84592					0.355922	3.60071	0.614842	6.18268	0.700715	7.10206		
0.241875	2.43569	0.207611	2.06345	0.485624	4.88997	0.681096	6.84401					0.356662	3.58525	0.61563	6.15149	0.704601	7.09596		
0.242958	2.43111	0.209006	2.06434	0.486214	4.86492	0.685217	6.84193					0.357405	3.57003	0.616401	6.12051	0.708504	7.09011		
0.244044	2.42663	0.2104	2.06521	0.486805	4.8402	0.689316	6.83966					0.358153	3.55504	0.617155	6.08975	0.712422	7.08448		
0.245134	2.42223	0.211794	2.06607	0.487397	4.8158	0.693389	6.83718					0.358905	3.54028	0.617894	6.05923	0.716354	7.07905		
0.246226	2.41791	0.213188	2.06691	0.48799	4.79172	0.697433	6.83443					0.359662	3.52575	0.618619	6.02895	0.720298	7.07382		
0.247322	2.41368	0.214582	2.06775	0.488585	4.76796	0.70144	6.83136					0.360422	3.51143	0.619332	5.99893				
0.248421	2.40954	0.215976	2.06857	0.489182	4.7445	0.705404	6.82791					0.361187	3.49733	0.620034	5.96916				
0.249523	2.40547	0.217369	2.06938	0.489781	4.72134	0.709316	6.824					0.361955	3.48344	0.620726	5.93965				
0.250629	2.40148	0.218763	2.07018	0.490381	4.69849	0.713166	6.81954					0.362728	3.46975	0.621408	5.91041				
0.251737	2.39757	0.220156	2.07097	0.490983	4.67592	0.716939	6.81441					0.363505	3.45627	0.622081	5.88143				
0.252848	2.39373	0.221549	2.07175	0.491588	4.65365	0.720621	6.80848					0.364285	3.44299	0.622747	5.85273				
0.253962	2.38997	0.222942	2.07252	0.492194	4.63166							0.36507	3.42991	0.623405	5.8243				
0.255079	2.38628	0.224335	2.07328	0.492802	4.60994							0.365859	3.41701	0.624057	5.79614				
0.256198	2.38266	0.225728	2.07403	0.493413	4.58851							0.366652	3.40431	0.624703	5.76825				
0.257321	2.3791	0.22712	2.07477	0.494025	4.56734							0.367448	3.39179	0.625343	5.74064				
0.258446	2.37561	0.228513	2.0755	0.49464	4.54644							0.368249	3.37945	0.625978	5.7133				
0.259574	2.37219	0.229905	2.07622	0.495258	4.52581							0.369053	3.36729	0.626609	5.68624				
0.260704	2.36883	0.231298	2.07693	0.495877	4.50543							0.369862	3.3553	0.627236	5.65944				
0.261837	2.36553	0.23269	2.07763	0.496499	4.48531							0.370674	3.34349	0.627859	5.63292				
0.262973	2.36229	0.234082	2.07833	0.497123	4.46543							0.37149	3.33184	0.628478	5.60666				
0.264111	2.35912	0.235474	2.07901	0.49775	4.44581							0.37231	3.32036	0.629094	5.58067				
0.265252	2.356	0.236866	2.07968	0.498379	4.42642							0.373133	3.30904	0.629708	5.55495				
0.266396	2.35293	0.238257	2.08035	0.499011	4.40727							0.373961	3.29788	0.630319	5.52949				
0.267541	2.34993	0.239649	2.08101	0.499645	4.38836							0.374792	3.28688	0.630928	5.50429				
0.268689	2.34697	0.24104	2.08166	0.500282	4.36968							0.375627	3.27603	0.631535	5.47935				
0.26984	2.34407	0.242432	2.0823	0.500921	4.35123							0.376465	3.26533	0.63214	5.45467				
0.270993	2.34122	0.243823	2.08294	0.501563	4.333							0.377307	3.25478	0.632743	5.43024				
0.272148	2.33843	0.245214	2.08356	0.502208	4.31499							0.378153	3.24437	0.633345	5.40607				
0.273305	2.33568	0.246605	2.08418	0.502855	4.2972							0.379002	3.23411	0.633946	5.38214				
0.274465	2.33298	0.247996	2.08479	0.503505	4.27963							0.379855	3.22399	0.634546	5.35846				
0.275627	2.33033	0.249387	2.0854	0.504157	4.26226							0.380712	3.21401	0.635146	5.33503				
0.276791	2.32772	0.250777	2.086	0.504812	4.2451							0.381572	3.20416	0.635744	5.31184				
0.277957	2.32516	0.252168	2.08659	0.50547	4.22814							0.382436	3.19445	0.636342	5.28889				
0.279125	2.32265	0.253559	2.08717	0.506131	4.21139							0.383303	3.18487	0.63694	5.26618				
0.280296	2.32018	0.254949	2.08774	0.506794	4.19483							0.384173	3.17541	0.637538	5.2437				
0.281468	2.31775	0.256339	2.08831	0.50746	4.17847							0.385047	3.16609	0.638135	5.22145				
0.282643	2.31536	0.257729	2.08888	0.508129	4.1623							0.385925	3.15688	0.638732	5.19943				
0.283819	2.31301	0.259119	2.08943	0.5088	4.14632							0.386806	3.1478	0.63933	5.17764				
0.284998	2.31071	0.260509	2.08998	0.509474	4.13053							0.38769	3.13884	0.639928	5.15607				
0.286178	2.30844	0.261899	2.09052	0.510151	4.11492							0.388577	3.13	0.640526	5.13472				
0.28736	2.30621	0.263289	2.09106	0.510831	4.09949							0.389468	3.12128	0.641124	5.11359				
0.288545	2.30402	0.264678	2.09159	0.511514	4.08423							0.390362	3.11267	0.641723	5.09268				
0.289731	2.30187	0.266068	2.09211	0.512199	4.06916							0.39126	3.10417	0.642323	5.07198				
0.290919	2.29975	0.267457	2.09263	0.512887	4.05425							0.392161	3.09578	0.642923	5.0515				
0.292109	2.29767	0.268847	2.09314	0.513578	4.03952							0.393065	3.0875	0.643524	5.03122				
0.2933	2.29563	0.270236	2.09365	0.514271	4.02495							0.393972	3.07933	0.644126	5.01114				
0.294494	2.29361	0.271625	2.09415	0.514968	4.01055							0.394882	3.07126	0.644729	4.99127				
0.295689	2.29163	0.273014	2.09465	0.515667	3.99631							0.395796	3.0633	0.645332	4.9716				
0.296886	2.28969	0.274403	2.09514	0.516369	3.98223							0.396712	3.05544	0.645937	4.95213				
0.298085	2.28777	0.275792	2.09562	0.517074	3.96831							0.397632	3.04768	0.646543	4.93286				
0.299285	2.28589	0.27718	2.0961	0.517781	3.95455							0.398555	3.04001	0.64715	4.91378				
0.300487	2.28404	0.278569	2.09657	0.518491	3.94093							0.399481	3.03245	0.647758	4.89489				
0.301691	2.28221	0.279958	2.09704	0.519204	3.92747							0.40041	3.02498	0.648367	4.87619				
0.302896	2.28042	0.281346	2.09751	0.51992	3.91416							0.401342	3.0176	0.648977	4.85767				
0.304103	2.27866	0.282734	2.09796	0.520639	3.901							0.402277	3.01032	0.649589	4.83934				
0.305311	2.27692	0.284123	2.09842	0.52136	3.88798							0.403215	3.00312	0.650202	4.8212				
0.306521	2.27521	0.285511	2.09887	0.522084	3.8751							0.404156	2.99602	0.650817	4.80323				
0.307733	2.27353	0.286899	2.09931	0.522811	3.86237							0.4051	2.989	0.651433	4.78544				
0.308946	2.27188	0.288287	2.09975	0.523541	3.84977							0.406047	2.98207	0.65205	4.76782				
0.31016	2.27025	0.289675	2.10018	0.524273	3.83731							0.406997	2.97523	0.652669	4.75038				
0.311376	2.26865	0.291062	2.10061	0.525008	3.82498							0.40795	2.96847	0.653289	4.7331				
0.312594	2.26707	0.29245	2.10104	0.525746	3.81279							0.408905	2.96179	0.653911	4.716				
0.313813	2.26552	0.293838	2.10146	0.526487	3.80073							0.409864	2.9552	0.654535	4.69907				
0.315033	2.26399	0.295225	2.10187	0.52723	3.78879							0.410825	2.94868	0.65516	4.68229				
0.316255	2.26249	0.296612	2.10228	0.527976	3.77699							0.411789	2.94224	0.655787	4.66568				
0.317478	2.26101	0.298	2.10269	0.528725	3.76531							0.412756	2.93588	0.656416	4.64924				
0.318702	2.25956	0.299387	2.10309	0.529476	3.75375							0.413725	2.9296	0.657046	4.63295				
0.319928	2.25812	0.300774	2.10349	0.53023	3.74232							0.414697	2.92339	0.657678	4.61681				
0.321156	2.25671	0.302161	2.10389	0.530987	3.73101							0.415672	2.91726	0.658312	4.60084				
0.322384	2.25532	0.303548	2.10428	0.531747	3.71981							0.41665	2.9112	0.658947	4.58501				
0.323614	2.25395	0.304935	2.10466	0.532509	3.70874							0.417631	2.90521	0.659584	4.56934				
0.324845	2.2526	0.306322	2.10505	0.533274	3.69778							0.418614	2.8993	0.660223	4.55381				
0.326078	2.25128	0.307708	2.10542	0.534041	3.68693							0.419599	2.89345	0.660864	4.53843				
0.327311	2.24997	0.309095	2.1058	0.534812	3.6762							0.420588	2.88767	0.661507	4.5232				
0.328546	2.24868	0.310481	2.10617	0.535584	3.66557							0.421579	2.88196	0.662151	4.50811				
0.329782	2.24741	0.311868	2.10654	0.53636	3.65506							0.422572	2.87632	0.662797	4.49316				
0.33102	2.24616	0.313254	2.1069	0.537138	3.64465							0.423568	2.87074	0.663446	4.47836				
0.332258	2.24493	0.31464	2.10726	0.537919	3.63435							0.424567	2.86522	0.664096	4.46369				
0.333498	2.24372	0.316026	2.10762	0.538702	3.62416							0.425568	2.85977	0.664748	4.44916				
0.334739	2.24253	0.317412	2.10797	0.539488	3.61407							0.426572	2.85439	0.665402	4.43476				
0.335981	2.24135	0.318798	2.10832	0.540277	3.60408							0.427578	2.84906	0.666058	4.4205				
0.337224	2.2402	0.320184	2.10866	0.541068	3.5942							0.428587	2.8438	0.666715	4.40637				
0.338469	2.23905	0.32157	2.10901	0.541862	3.58441							0.429598	2.8386	0.667375	4.39237				
0.339714	2.23793	0.322956	2.10934	0.542658	3.57472							0.430611	2.83345	0.668037	4.3785				
0.340961	2.23682	0.324341	2.10968	0.543457	3.56513							0.431627	2.82837	0.6687	4.36476				
0.342208	2.23573	0.325727	2.11001	0.544258	3.55564							0.432646	2.82334	0.669366	4.35114				
0.343457	2.23466	0.327112	2.11034	0.545062	3.54624							0.433666	2.81837	0.670033	4.33764				
0.344707	2.2336	0.328498	2.11067	0.545869	3.53693							0.434689	2.81345	0.670703	4.32427				
0.345957	2.23255	0.329883	2.11099	0.546678	3.52772							0.435715	2.80859	0.671375	4.31102				
0.347209	2.23152	0.331268	2.11131	0.54749	3.5186							0.436743	2.80379	0.672048	4.2979				
0.348462	2.23051	0.332653	2.11162	0.548304	3.50956							0.437773	2.79904	0.672724	4.28488				
0.349716	2.22951	0.334038	2.11194	0.54912	3.50062							0.438805	2.79434	0.673401	4.27199				
0.350971	2.22852	0.335423	2.11225	0.549939	3.49176							0.43984	2.78969	0.674081	4.25921				
0.352227	2.22755	0.336808	2.11255	0.550761	3.48299							0.440877	2.7851	0.674762	4.24655				
0.353484	2.2266	0.338193	2.11286	0.551585	3.47431							0.441916	2.78055	0.675446	4.234				
0.354742	2.22565	0.339578	2.11316	0.552411	3.4657							0.442957	2.77606	0.676131	4.22156				
0.356	2.22472	0.340962	2.11346	0.55324	3.45719							0.444001	2.77161	0.676819	4.20923				
0.35726	2.22381	0.342347	2.11375	0.554072	3.44875							0.445047	2.76722	0.677509	4.19701				
0.358521	2.2229	0.343731	2.11405	0.554905	3.4404							0.446095	2.76287	0.6782	4.1849				
0.359782	2.22201	0.345116	2.11434	0.555742	3.43213							0.447145	2.75857	0.678894	4.1729				
0.361045	2.22113	0.3465	2.11462	0.55658	3.42393							0.448198	2.75431	0.67959	4.161				
0.362308	2.22027	0.347884	2.11491	0.557421	3.41582							0.449252	2.7501	0.680288	4.1492				
0.363573	2.21941	0.349268	2.11519	0.558265	3.40778							0.450309	2.74594	0.680987	4.13751				
0.364838	2.21857	0.350652	2.11547	0.559111	3.39981							0.451367	2.74182	0.681689	4.12592				
0.366104	2.21774	0.352036	2.11574	0.559959	3.39193							0.452428	2.73775	0.682393	4.11443				
0.367371	2.21692	0.35342	2.11602	0.560809	3.38411							0.453491	2.73372	0.683099	4.10304				
0.368639	2.21611	0.354804	2.11629	0.561662	3.37638							0.454556	2.72973	0.683807	4.09175				
0.369907	2.21532	0.356188	2.11656	0.562517	3.36871							0.455623	2.72579	0.684517	4.08055				
0.371177	2.21453	0.357571	2.11683	0.563375	3.36111							0.456692	2.72188	0.685229	4.06946				
0.372447	2.21376	0.358955	2.11709	0.564235	3.35359							0.457763	2.71802	0.685943	4.05845				
0.373718	2.21299	0.360338	2.11735	0.565097	3.34614							0.458836	2.7142	0.686659	4.04754				
0.37499	2.21224	0.361722	2.11761	0.565962	3.33875							0.459911	2.71042	0.687377	4.03673				
0.376263	2.2115	0.363105	2.11787	0.566828	3.33144							0.460988	2.70668	0.688097	4.026				
0.377536	2.21076	0.364488	2.11812	0.567697	3.32419							0.462067	2.70297	0.68882	4.01537				
0.37881	2.21004	0.365871	2.11837	0.568569	3.31701							0.463148	2.69931	0.689544	4.00483				
0.380085	2.20933	0.367254	2.11862	0.569442	3.30989							0.464231	2.69569	0.69027	3.99437				
0.381361	2.20862	0.368637	2.11887	0.570318	3.30284							0.465316	2.6921	0.690998	3.98401				
0.382638	2.20793	0.37002	2.11912	0.571196	3.29585							0.466403	2.68855	0.691729	3.97373				
0.383915	2.20724	0.371403	2.11936	0.572077	3.28893							0.467491	2.68503	0.692461	3.96353				
0.385193	2.20657	0.372786	2.1196	0.572959	3.28207							0.468582	2.68156	0.693196	3.95343				
0.386472	2.2059	0.374169	2.11984	0.573844	3.27527							0.469674	2.67811	0.693932	3.9434				
0.387751	2.20524	0.375551	2.12007	0.574731	3.26854							0.470768	2.67471	0.69467	3.93346				
0.389031	2.20459	0.376934	2.12031	0.57562	3.26186							0.471864	2.67133	0.695411	3.9236				
0.390312	2.20395	0.378316	2.12054	0.576512	3.25524							0.472962	2.668	0.696153	3.91383				
0.391594	2.20332	0.379698	2.12077	0.577405	3.24869							0.474062	2.66469	0.696898	3.90413				
0.392876	2.2027	0.381081	2.121	0.578301	3.24219							0.475163	2.66142	0.697644	3.89451				
0.394159	2.20208	0.382463	2.12123	0.579199	3.23575							0.476266	2.65819	0.698393	3.88498				
0.395443	2.20148	0.383845	2.12145	0.580099	3.22937							0.477371	2.65498	0.699143	3.87552				
0.396727	2.20088	0.385227	2.12167	0.581001	3.22304							0.478478	2.65181	0.699896	3.86613				
0.398012	2.20028	0.386609	2.12189	0.581905	3.21677							0.479587	2.64867	0.70065	3.85683				
0.399298	2.1997	0.387991	2.12211	0.582811	3.21056							0.480697	2.64556	0.701407	3.8476				
0.400584	2.19913	0.389373	2.12233	0.58372	3.2044							0.481809	2.64248	0.702165	3.83844				
0.401871	2.19856	0.390754	2.12254	0.58463	3.19829							0.482922	2.63943	0.702926	3.82936				
0.403159	2.198	0.392136	2.12275	0.585543	3.19224							0.484038	2.63642	0.703688	3.82035				
0.404447	2.19744	0.393518	2.12296	0.586458	3.18624							0.485155	2.63343	0.704453	3.81141				
0.405736	2.19689	0.394899	2.12317	0.587374	3.18029							0.486274	2.63047	0.705219	3.80255				
0.407025	2.19635	0.396281	2.12338	0.588293	3.1744							0.487394	2.62754	0.705987	3.79375				
0.408315	2.19582	0.397662	2.12358	0.589214	3.16855							0.488516	2.62464	0.706758	3.78503				
0.409606	2.1953	0.399043	2.12379	0.590137	3.16276							0.48964	2.62177	0.70753	3.77637				
0.410897	2.19478	0.400424	2.12399	0.591062	3.15702							0.490765	2.61893	0.708304	3.76779				
0.412189	2.19426	0.401806	2.12419	0.591989	3.15132							0.491892	2.61611	0.70908	3.75927				
0.413481	2.19376	0.403187	2.12439	0.592918	3.14568							0.49302	2.61332	0.709859	3.75082				
0.414774	2.19326	0.404568	2.12458	0.593849	3.14008							0.494151	2.61056	0.710639	3.74243				
0.416068	2.19277	0.405949	2.12478	0.594782	3.13453							0.495282	2.60783	0.711421	3.73411				
0.417362	2.19228	0.407329	2.12497	0.595717	3.12903							0.496416	2.60512	0.712205	3.72586				
0.418656	2.1918	0.40871	2.12516	0.596654	3.12357							0.497551	2.60244	0.712991	3.71767				
0.419952	2.19132	0.410091	2.12535	0.597592	3.11816							0.498687	2.59978	0.713779	3.70954				
0.421247	2.19085	0.411471	2.12554	0.598533	3.1128							0.499825	2.59715	0.714568	3.70148				
0.422544	2.19039	0.412852	2.12573	0.599476	3.10748							0.500964	2.59455	0.71536	3.69348				
0.423841	2.18993	0.414232	2.12591	0.600421	3.10221							0.502105	2.59196	0.716154	3.68555				
0.425138	2.18948	0.415613	2.1261	0.601367	3.09698							0.503248	2.58941	0.716949	3.67767				
0.426436	2.18904	0.416993	2.12628	0.602316	3.09179							0.504392	2.58688	0.717746	3.66985				
0.427734	2.1886	0.418373	2.12646	0.603266	3.08665							0.505537	2.58437	0.718546	3.6621				
0.429033	2.18816	0.419753	2.12664	0.604219	3.08155							0.506684	2.58188	0.719347	3.6544				
0.430333	2.18773	0.421134	2.12681	0.605173	3.0765							0.507833	2.57942	0.72015	3.64677				
0.431633	2.18731	0.422514	2.12699	0.606129	3.07148							0.508983	2.57699						
0.432933	2.18689	0.423893	2.12716	0.607087	3.06651							0.510134	2.57457						
0.434234	2.18648	0.425273	2.12734	0.608047	3.06158							0.511287	2.57218						
0.435536	2.18607	0.426653	2.12751	0.609009	3.05668							0.512441	2.56981						
0.436838	2.18566	0.428033	2.12768	0.609972	3.05183							0.513597	2.56746						
0.43814	2.18527	0.429412	2.12784	0.610938	3.04702							0.514754	2.56513						
0.439443	2.18487	0.430792	2.12801	0.611905	3.04225							0.515912	2.56283						
0.440746	2.18448	0.432171	2.12818	0.612874	3.03751							0.517072	2.56055						
0.44205	2.1841	0.433551	2.12834	0.613845	3.03282							0.518233	2.55829						
0.443354	2.18372	0.43493	2.1285	0.614817	3.02816							0.519396	2.55604						
0.444659	2.18334	0.436309	2.12867	0.615792	3.02354							0.52056	2.55382						
0.445964	2.18297	0.437689	2.12883	0.616768	3.01896							0.521725	2.55162						
0.44727	2.18261	0.439068	2.12898	0.617746	3.01442							0.522892	2.54944						
0.448576	2.18225	0.440447	2.12914	0.618726	3.00991							0.52406	2.54728						
0.449883	2.18189	0.441826	2.1293	0.619707	3.00544							0.525229	2.54514						
0.45119	2.18154	0.443205	2.12945	0.62069	3.001							0.526399	2.54302						
0.452497	2.18119	0.444584	2.12961	0.621675	2.9966							0.527571	2.54092						
0.453805	2.18084	0.445962	2.12976	0.622662	2.99223							0.528745	2.53884						
0.455113	2.1805	0.447341	2.12991	0.62365	2.9879							0.529919	2.53677						
0.456422	2.18017	0.44872	2.13006	0.624641	2.98361							0.531095	2.53473						
0.457731	2.17984	0.450098	2.13021	0.625632	2.97934							0.532272	2.5327						
0.459041	2.17951	0.451477	2.13035	0.626626	2.97511							0.53345	2.53069						
0.46035	2.17918	0.452855	2.1305	0.627621	2.97092							0.53463	2.5287						
0.461661	2.17886	0.454233	2.13065	0.628618	2.96676							0.535811	2.52673						
0.462972	2.17855	0.455612	2.13079	0.629617	2.96263							0.536993	2.52477						
0.464283	2.17823	0.45699	2.13093	0.630617	2.95853							0.538176	2.52283						
0.465594	2.17792	0.458368	2.13107	0.631619	2.95446							0.539361	2.52091						
0.466906	2.17762	0.459746	2.13121	0.632623	2.95043							0.540546	2.51901						
0.468218	2.17732	0.461124	2.13135	0.633628	2.94642							0.541733	2.51712						
0.469531	2.17702	0.462502	2.13149	0.634635	2.94245							0.542921	2.51525						
0.470844	2.17672	0.46388	2.13163	0.635643	2.93851							0.544111	2.51339						
0.472158	2.17643	0.465257	2.13176	0.636653	2.9346							0.545301	2.51155						
0.473471	2.17614	0.466635	2.1319	0.637665	2.93072							0.546493	2.50973						
0.474785	2.17586	0.468013	2.13203	0.638678	2.92687							0.547686	2.50793						
0.4761	2.17558	0.46939	2.13216	0.639693	2.92305							0.54888	2.50614						
0.477415	2.1753	0.470768	2.13229	0.64071	2.91926							0.550075	2.50436						
0.47873	2.17502	0.472145	2.13242	0.641728	2.9155							0.551271	2.5026						
0.480046	2.17475	0.473522	2.13255	0.642748	2.91176							0.552469	2.50086						
0.481362	2.17448	0.4749	2.13268	0.643769	2.90806							0.553667	2.49913						
0.482678	2.17422	0.476277	2.13281	0.644792	2.90438							0.554867	2.49741						
0.483995	2.17395	0.477654	2.13293	0.645816	2.90073							0.556068	2.49571						
0.485312	2.17369	0.479031	2.13306	0.646842	2.89711							0.55727	2.49403						
0.486629	2.17344	0.480408	2.13318	0.647869	2.89351							0.558473	2.49236						
0.487947	2.17318	0.481785	2.13331	0.648898	2.88994							0.559677	2.4907						
0.489265	2.17293	0.483162	2.13343	0.649929	2.8864							0.560882	2.48906						
0.490583	2.17269	0.484539	2.13355	0.65096	2.88289							0.562088	2.48743						
0.491901	2.17244	0.485915	2.13367	0.651994	2.8794							0.563296	2.48582						
0.49322	2.1722	0.487292	2.13379	0.653029	2.87594							0.564504	2.48422						
0.49454	2.17196	0.488669	2.13391	0.654065	2.8725							0.565714	2.48263						
0.495859	2.17172	0.490045	2.13402	0.655103	2.86909							0.566924	2.48106						
0.497179	2.17149	0.491422	2.13414	0.656143	2.86571							0.568136	2.4795						
0.498499	2.17126	0.492798	2.13426	0.657184	2.86235							0.569348	2.47795						
0.49982	2.17103	0.494174	2.13437	0.658226	2.85901							0.570562	2.47641						
0.501141	2.1708	0.49555	2.13448	0.65927	2.8557							0.571777	2.47489						
0.502462	2.17058	0.496927	2.1346	0.660315	2.85241							0.572992	2.47338						
0.503783	2.17036	0.498303	2.13471	0.661362	2.84915							0.574209	2.47189						
0.505105	2.17014	0.499679	2.13482	0.66241	2.84591							0.575427	2.4704						
0.506427	2.16992	0.501055	2.13493	0.663459	2.84269							0.576646	2.46893						
0.507749	2.16971	0.502431	2.13504	0.66451	2.8395							0.577865	2.46747						
0.509072	2.1695	0.503806	2.13515	0.665563	2.83633							0.579086	2.46602						
0.510395	2.16929	0.505182	2.13525	0.666616	2.83319							0.580308	2.46459						
0.511718	2.16908	0.506558	2.13536	0.667672	2.83007							0.58153	2.46317						
0.513042	2.16888	0.507934	2.13546	0.668728	2.82697							0.582754	2.46175						
0.514365	2.16867	0.509309	2.13557	0.669786	2.82389							0.583979	2.46035						
0.515689	2.16847	0.510685	2.13567	0.670845	2.82083							0.585204	2.45896						
0.517014	2.16828	0.51206	2.13578	0.671906	2.8178							0.586431	2.45759						
0.518338	2.16808	0.513435	2.13588	0.672968	2.81479							0.587658	2.45622						
0.519663	2.16789	0.514811	2.13598	0.674032	2.8118							0.588886	2.45487						
0.520988	2.16769	0.516186	2.13608	0.675096	2.80883							0.590116	2.45352						
0.522314	2.16751	0.517561	2.13618	0.676163	2.80588							0.591346	2.45219						
0.523639	2.16732	0.518936	2.13628	0.67723	2.80296							0.592577	2.45087						
0.524965	2.16713	0.520311	2.13638	0.678299	2.80005							0.593809	2.44955						
0.526291	2.16695	0.521686	2.13648	0.679369	2.79716							0.595042	2.44825						
0.527618	2.16677	0.523061	2.13657	0.68044	2.7943							0.596276	2.44696						
0.528944	2.16659	0.524436	2.13667	0.681513	2.79145							0.597511	2.44568						
0.530271	2.16641	0.525811	2.13676	0.682587	2.78863							0.598747	2.44441						
0.531598	2.16624	0.527185	2.13686	0.683663	2.78583							0.599983	2.44315						
0.532926	2.16606	0.52856	2.13695	0.684739	2.78304							0.601221	2.4419						
0.534253	2.16589	0.529935	2.13704	0.685817	2.78027							0.602459	2.44066						
0.535581	2.16572	0.531309	2.13714	0.686896	2.77753							0.603698	2.43943						
0.536909	2.16556	0.532684	2.13723	0.687977	2.7748							0.604938	2.43821						
0.538238	2.16539	0.534058	2.13732	0.689059	2.77209							0.606179	2.437						
0.539566	2.16523	0.535432	2.13741	0.690142	2.7694							0.607421	2.4358						
0.540895	2.16506	0.536807	2.1375	0.691226	2.76673							0.608664	2.43461						
0.542224	2.1649	0.538181	2.13759	0.692312	2.76408							0.609907	2.43343						
0.543554	2.16474	0.539555	2.13767	0.693399	2.76145							0.611151	2.43225						
0.544883	2.16459	0.540929	2.13776	0.694487	2.75883							0.612397	2.43109						
0.546213	2.16443	0.542303	2.13785	0.695576	2.75623							0.613643	2.42994						
0.547543	2.16428	0.543677	2.13793	0.696666	2.75365							0.614889	2.42879						
0.548873	2.16412	0.545051	2.13802	0.697758	2.75109							0.616137	2.42765						
0.550204	2.16397	0.546425	2.1381	0.698851	2.74855							0.617385	2.42653						
0.551534	2.16383	0.547798	2.13819	0.699945	2.74602							0.618635	2.42541						
0.552865	2.16368	0.549172	2.13827	0.701041	2.74351							0.619885	2.4243						
0.554196	2.16353	0.550546	2.13835	0.702137	2.74102							0.621136	2.42319						
0.555527	2.16339	0.551919	2.13844	0.703235	2.73854							0.622387	2.4221						
0.556859	2.16325	0.553293	2.13852	0.704334	2.73608							0.62364	2.42102						
0.558191	2.1631	0.554666	2.1386	0.705434	2.73364							0.624893	2.41994						
0.559523	2.16296	0.55604	2.13868	0.706535	2.73121							0.626147	2.41887						
0.560855	2.16283	0.557413	2.13876	0.707638	2.7288							0.627402	2.41781						
0.562187	2.16269	0.558786	2.13884	0.708741	2.72641							0.628657	2.41676						
0.56352	2.16255	0.560159	2.13891	0.709846	2.72403							0.629914	2.41572						
0.564852	2.16242	0.561532	2.13899	0.710952	2.72167							0.631171	2.41468						
0.566185	2.16229	0.562905	2.13907	0.712059	2.71933							0.632429	2.41365						
0.567518	2.16216	0.564279	2.13915	0.713168	2.717							0.633687	2.41263						
0.568852	2.16203	0.565651	2.13922	0.714277	2.71468							0.634947	2.41162						
0.570185	2.1619	0.567024	2.1393	0.715387	2.71238							0.636207	2.41062						
0.571519	2.16177	0.568397	2.13937	0.716499	2.7101							0.637467	2.40962						
0.572853	2.16165	0.56977	2.13944	0.717612	2.70783							0.638729	2.40863						
0.574187	2.16152	0.571143	2.13952	0.718726	2.70558							0.639991	2.40765						
0.575521	2.1614	0.572515	2.13959	0.719841	2.70334							0.641254	2.40667						
0.576856	2.16128	0.573888	2.13966	0.720957	2.70111							0.642518	2.40571						
0.57819	2.16116	0.57526	2.13973									0.643783	2.40474						
0.579525	2.16104	0.576633	2.13981									0.645048	2.40379						
0.58086	2.16092	0.578005	2.13988									0.646314	2.40285						
0.582195	2.1608	0.579378	2.13995									0.64758	2.40191						
0.583531	2.16069	0.58075	2.14002									0.648848	2.40098						
0.584866	2.16057	0.582122	2.14008									0.650116	2.40005						
0.586202	2.16046	0.583494	2.14015									0.651384	2.39913						
0.587538	2.16035	0.584866	2.14022									0.652654	2.39822						
0.588874	2.16024	0.586238	2.14029									0.653924	2.39732						
0.59021	2.16013	0.58761	2.14036									0.655194	2.39642						
0.591547	2.16002	0.588982	2.14042									0.656466	2.39553						
0.592883	2.15991	0.590354	2.14049									0.657738	2.39464						
0.59422	2.1598	0.591726	2.14055									0.659011	2.39377						
0.595557	2.1597	0.593098	2.14062									0.660284	2.39289						
0.596894	2.15959	0.594469	2.14068									0.661558	2.39203						
0.598231	2.15949	0.595841	2.14075									0.662833	2.39117						
0.599569	2.15939	0.597213	2.14081									0.664108	2.39032						
0.600907	2.15929	0.598584	2.14087									0.665384	2.38947						
0.602244	2.15919	0.599956	2.14093									0.666661	2.38863						
0.603582	2.15909	0.601327	2.141									0.667939	2.3878						
0.60492	2.15899	0.602698	2.14106									0.669217	2.38697						
0.606258	2.15889	0.60407	2.14112									0.670495	2.38615						
0.607597	2.1588	0.605441	2.14118									0.671774	2.38533						
0.608935	2.1587	0.606812	2.14124									0.673054	2.38452						
0.610274	2.15861	0.608183	2.1413									0.674335	2.38372						
0.611613	2.15851	0.609554	2.14136									0.675616	2.38292						
0.612952	2.15842	0.610925	2.14141									0.676898	2.38212						
0.614291	2.15833	0.612296	2.14147									0.67818	2.38134						
0.61563	2.15824	0.613667	2.14153									0.679463	2.38055						
0.61697	2.15815	0.615038	2.14159									0.680747	2.37978						
0.618309	2.15806	0.616409	2.14164									0.682031	2.37901						
0.619649	2.15797	0.617779	2.1417									0.683316	2.37824						
0.620989	2.15789	0.61915	2.14176									0.684601	2.37748						
0.622329	2.1578	0.620521	2.14181									0.685887	2.37673						
0.623669	2.15772	0.621891	2.14187									0.687174	2.37598						
0.625009	2.15763	0.623262	2.14192									0.688461	2.37524						
0.62635	2.15755	0.624632	2.14198									0.689748	2.3745						
0.62769	2.15747	0.626002	2.14203									0.691037	2.37376						
0.629031	2.15739	0.627373	2.14208									0.692326	2.37304						
0.630372	2.1573	0.628743	2.14214									0.693615	2.37231						
0.631713	2.15722	0.630113	2.14219									0.694905	2.3716						
0.633054	2.15714	0.631484	2.14224									0.696196	2.37088						
0.634395	2.15707	0.632854	2.14229									0.697487	2.37018						
0.635736	2.15699	0.634224	2.14234									0.698779	2.36947						
0.637078	2.15691	0.635594	2.14239									0.700071	2.36877						
0.638419	2.15684	0.636964	2.14244									0.701364	2.36808						
0.639761	2.15676	0.638334	2.14249									0.702657	2.36739						
0.641103	2.15669	0.639703	2.14254									0.703951	2.36671						
0.642445	2.15661	0.641073	2.14259									0.705246	2.36603						
0.643787	2.15654	0.642443	2.14264									0.706541	2.36536						
0.645129	2.15647	0.643813	2.14269									0.707836	2.36469						
0.646472	2.15639	0.645182	2.14274									0.709132	2.36402						
0.647814	2.15632	0.646552	2.14279									0.710429	2.36336						
0.649157	2.15625	0.647922	2.14283									0.711726	2.36271						
0.650499	2.15618	0.649291	2.14288									0.713024	2.36205						
0.651842	2.15611	0.65066	2.14293									0.714322	2.36141						
0.653185	2.15605	0.65203	2.14297									0.715621	2.36077						
0.654528	2.15598	0.653399	2.14302									0.71692	2.36013						
0.655871	2.15591	0.654768	2.14306									0.71822	2.35949						
0.657215	2.15584	0.656138	2.14311									0.71952	2.35886						
0.658558	2.15578	0.657507	2.14316									0.720821	2.35824						
0.659902	2.15571	0.658876	2.1432																
0.661245	2.15565	0.660245	2.14324																
0.662589	2.15559	0.661614	2.14329																
0.663933	2.15552	0.662983	2.14333																
0.665277	2.15546	0.664352	2.14337																
0.666621	2.1554	0.665721	2.14342																
0.667965	2.15534	0.66709	2.14346																
0.66931	2.15528	0.668459	2.1435																
0.670654	2.15522	0.669827	2.14354																
0.671998	2.15516	0.671196	2.14358																
0.673343	2.1551	0.672565	2.14363																
0.674688	2.15504	0.673933	2.14367																
0.676033	2.15498	0.675302	2.14371																
0.677378	2.15492	0.67667	2.14375																
0.678723	2.15487	0.678039	2.14379																
0.680068	2.15481	0.679407	2.14383																
0.681413	2.15476	0.680775	2.14387																
0.682758	2.1547	0.682144	2.14391																
0.684104	2.15465	0.683512	2.14394																
0.685449	2.15459	0.68488	2.14398																
0.686795	2.15454	0.686248	2.14402																
0.688141	2.15449	0.687616	2.14406																
0.689487	2.15443	0.688985	2.1441																
0.690832	2.15438	0.690353	2.14413																
0.692178	2.15433	0.691721	2.14417																
0.693525	2.15428	0.693088	2.14421																
0.694871	2.15423	0.694456	2.14424																
0.696217	2.15418	0.695824	2.14428																
0.697563	2.15413	0.697192	2.14431																
0.69891	2.15408	0.69856	2.14435																
0.700256	2.15403	0.699927	2.14439																
0.701603	2.15398	0.701295	2.14442																
0.70295	2.15394	0.702663	2.14445																
0.704297	2.15389	0.70403	2.14449																
0.705644	2.15384	0.705398	2.14452																
0.706991	2.1538	0.706765	2.14456																
0.708338	2.15375	0.708133	2.14459																
0.709685	2.1537	0.7095	2.14462																
0.711032	2.15366	0.710867	2.14466																
0.71238	2.15361	0.712235	2.14469																
0.713727	2.15357	0.713602	2.14472																
0.715075	2.15353	0.714969	2.14475																
0.716422	2.15348	0.716336	2.14479																
0.71777	2.15344	0.717703	2.14482																
0.719118	2.1534	0.71907	2.14485																
0.720465	2.15336	0.720437	2.14488																
