Sym0		Asym0		Sym1		Sym2		Sym3		Sym4		Asym1		Asym2		Asym3		Asym4	
421  Points		526  Points		421  Points		403  Points		350  Points		250  Points		453  Points		398  Points		342  Points		206  Points	
Freq (MHz)	Vph (m/ms)	Freq (MHz)	Vph (m/ms)	Freq (MHz)	Vph (m/ms)	Freq (MHz)	Vph (m/ms)	Freq (MHz)	Vph (m/ms)	Freq (MHz)	Vph (m/ms)	Freq (MHz)	Vph (m/ms)	Freq (MHz)	Vph (m/ms)	Freq (MHz)	Vph (m/ms)	Freq (MHz)	Vph (m/ms)
0.27951	526.117	0.000241337	0.0959524	0.279514	304.759	0.45001	10325.5	0.559017	6439.38	0.838526	2093.17	0.139755	922.026	0.419268	462.924	0.698771	3426.6	0.900021	2194.86
0.279522	191.065	0.000452568	0.131298	0.27953	151.191	0.450016	461.424	0.559024	548.866	0.838532	629.388	0.1398	129.054	0.419286	228.196	0.698776	615.325	0.900026	670.783
0.279545	116.737	0.000728833	0.166455	0.279558	100.54	0.450033	235.993	0.559042	286.658	0.838543	370.382	0.139911	69.4362	0.419315	151.427	0.698786	338.016	0.900036	395.89
0.279579	84.0496	0.00106938	0.20138	0.279596	75.3172	0.45006	158.546	0.559071	193.994	0.83856	262.404	0.14009	47.5419	0.419356	113.316	0.698803	233.011	0.900051	280.815
0.279624	65.6694	0.00147326	0.236026	0.279646	60.2173	0.450098	119.378	0.559112	146.61	0.838583	203.176	0.140334	36.184	0.419409	90.5366	0.698826	177.786	0.900072	217.575
0.27968	53.8908	0.00193939	0.270349	0.279706	50.1657	0.450147	95.7341	0.559165	117.836	0.838612	165.764	0.140645	29.2398	0.419473	75.3883	0.698855	143.726	0.900098	177.585
0.279747	45.6995	0.00246654	0.304311	0.279777	42.9942	0.450207	79.9125	0.559228	98.508	0.838647	139.99	0.14102	24.5605	0.419549	64.5872	0.69889	120.621	0.900129	150.016
0.279824	39.6738	0.00305339	0.337875	0.27986	37.6205	0.450278	68.583	0.559303	84.6317	0.838688	121.155	0.141459	21.1973	0.419638	56.4974	0.698931	103.918	0.900166	129.858
0.279913	35.0557	0.00369846	0.371006	0.279954	33.4444	0.450359	60.0708	0.55939	74.186	0.838735	106.789	0.14196	18.6664	0.419737	50.2123	0.698979	91.2804	0.900207	114.477
0.280013	31.4039	0.00440021	0.403673	0.280058	30.1059	0.450451	53.4417	0.559488	66.0391	0.838788	95.4702	0.142523	16.6951	0.419849	45.189	0.699032	81.3852	0.900254	102.356
0.280124	28.4442	0.00515706	0.435852	0.280174	27.3764	0.450554	48.1334	0.559597	59.5077	0.838846	86.3228	0.143146	15.118	0.419972	41.0826	0.699092	73.4273	0.900306	92.5574
0.280246	25.9971	0.00596731	0.467517	0.2803	25.1034	0.450668	43.7872	0.559717	54.155	0.838911	78.7766	0.143827	13.8292	0.420108	37.6632	0.699158	66.8886	0.900364	84.4722
0.280379	23.9403	0.00682923	0.498647	0.280438	23.1814	0.450792	40.1635	0.559849	49.6886	0.838981	72.445	0.144564	12.7573	0.420255	34.7719	0.69923	61.4207	0.900426	77.6873
0.280523	22.1875	0.00774113	0.529228	0.280586	21.5352	0.450928	37.0962	0.559992	45.9053	0.839058	67.0568	0.145358	11.8528	0.420413	32.2954	0.699308	56.7806	0.900494	71.9124
0.280678	20.6761	0.00870114	0.559238	0.280745	20.1094	0.451073	34.4665	0.560146	42.6598	0.83914	62.4159	0.146204	11.08	0.420583	30.1506	0.699392	52.7936	0.900568	66.9378
0.280844	19.3596	0.00970753	0.58867	0.280916	18.8628	0.45123	32.187	0.560312	39.8452	0.839228	58.3769	0.146984	10.4935	0.420765	28.2751	0.699482	49.3311	0.900646	62.608
0.281021	18.2027	0.0107585	0.617514	0.281097	17.7636	0.451397	30.1924	0.560489	37.3811	0.839322	54.83	0.147679	10.0467	0.420959	26.6214	0.699579	46.2959	0.90073	58.8052
0.281208	17.1782	0.0118524	0.645768	0.281289	16.7874	0.451575	28.4324	0.560677	35.206	0.839421	51.6904	0.148275	9.70914	0.421165	25.1524	0.699681	43.6136	0.900819	55.4388
0.281407	16.2646	0.0129874	0.673421	0.281492	15.9146	0.451764	26.8682	0.560877	33.272	0.839527	48.8918	0.148758	9.46045	0.421381	23.8389	0.69979	41.2261	0.900913	52.4379
0.281616	15.445	0.0141618	0.700477	0.281706	15.1297	0.451963	25.4688	0.561088	31.5412	0.839639	46.3817	0.14912	9.28698	0.42161	22.6576	0.699905	39.0875	0.901012	49.746
0.281837	14.7057	0.015374	0.726936	0.281931	14.4202	0.452173	24.2095	0.561309	29.9833	0.839756	44.1176	0.149356	9.17988	0.42185	21.5895	0.700026	37.1607	0.901117	47.3177
0.282068	14.0354	0.0166224	0.7528	0.282167	13.7758	0.452394	23.0705	0.561543	28.5737	0.83988	42.0651	0.149698	9.03099	0.422102	20.6192	0.700153	35.4158	0.901227	45.1162
0.28231	13.4251	0.0179053	0.778068	0.282414	13.188	0.452625	22.0353	0.561787	27.2923	0.840009	40.1959	0.150075	8.87559	0.422366	19.734	0.700286	33.8283	0.901342	43.1112
0.282563	12.867	0.0192212	0.802752	0.282671	12.6497	0.452867	21.0905	0.562043	26.1223	0.840144	38.4865	0.150598	8.67434	0.422641	18.9231	0.700426	32.3778	0.901462	41.2775
0.282827	12.3549	0.0205687	0.826855	0.282939	12.1549	0.453119	20.2247	0.562309	25.05	0.840285	36.9173	0.151274	8.43518	0.422927	18.1776	0.700571	31.0473	0.901588	39.5941
0.283102	11.8832	0.0219464	0.850387	0.283218	11.6986	0.453382	19.4285	0.562587	24.0636	0.840432	35.4718	0.152112	8.16676	0.423225	17.49	0.700723	29.8227	0.901718	38.0433
0.283387	11.4475	0.0233528	0.873353	0.283508	11.2766	0.453656	18.6939	0.562876	23.1532	0.840584	34.1359	0.153125	7.87775	0.423535	16.8539	0.70088	28.6917	0.901854	36.61
0.283683	11.0438	0.0247867	0.895765	0.283809	10.8852	0.45394	18.014	0.563176	22.3106	0.840743	32.8976	0.154325	7.57632	0.423856	16.2637	0.701044	27.644	0.901996	35.2813
0.28399	10.6688	0.0262468	0.917634	0.28412	10.5212	0.454235	17.383	0.563487	21.5283	0.840907	31.7467	0.155563	7.30306	0.424189	15.7147	0.701214	26.6709	0.902142	34.0463
0.284308	10.3195	0.0277318	0.938969	0.2844	10.2242	0.45454	16.7958	0.563809	20.8002	0.841078	30.6741	0.156838	7.05435	0.424532	15.2027	0.70139	25.7645	0.902294	32.8954
0.284636	9.9935	0.0292406	0.959779	0.284646	9.98454	0.454856	16.2481	0.564142	20.1209	0.841254	29.6723	0.158148	6.82717	0.424888	14.7241	0.701572	24.9184	0.902451	31.8202
0.284975	9.68848	0.0307723	0.98008	0.284853	9.79516	0.455182	15.736	0.564486	19.4856	0.841436	28.7345	0.159491	6.61896	0.425254	14.2759	0.70176	24.1267	0.902613	30.8137
0.285325	9.40255	0.0323255	0.99988	0.28502	9.65072	0.455518	15.2563	0.564841	18.8903	0.841623	27.8546	0.160867	6.42753	0.425632	13.8553	0.701954	23.3843	0.90278	29.8694
0.285685	9.13398	0.0338995	1.01919	0.285144	9.54736	0.455865	14.8059	0.565207	18.3314	0.841817	27.0276	0.162274	6.25103	0.426022	13.4597	0.702154	22.6868	0.902953	28.9817
0.286057	8.88129	0.0354931	1.03803	0.285224	9.48243	0.456223	14.3823	0.565584	17.8056	0.842017	26.2488	0.16371	6.08786	0.426422	13.0871	0.702361	22.0303	0.90313	28.1457
0.286438	8.64312	0.0371055	1.0564	0.28534	9.39072	0.456591	13.9832	0.565972	17.31	0.842222	25.5142	0.165174	5.93662	0.426834	12.7356	0.702573	21.4113	0.903314	27.3571
0.286831	8.41829	0.0387358	1.07432	0.285468	9.29315	0.456969	13.6065	0.56637	16.8423	0.842433	24.8201	0.166665	5.79612	0.427257	12.4034	0.702792	20.8266	0.903502	26.6119
0.287233	8.20573	0.0403833	1.0918	0.285644	9.16387	0.457357	13.2505	0.56678	16.4001	0.84265	24.1632	0.168182	5.6653	0.427692	12.0891	0.703016	20.2735	0.903695	25.9066
0.287647	8.00449	0.0420471	1.10885	0.28587	9.00577	0.457756	12.9134	0.5672	15.9814	0.842873	23.5406	0.169723	5.54324	0.428137	11.7911	0.703247	19.7495	0.903894	25.2382
0.288071	7.8137	0.0437264	1.12548	0.286148	8.82219	0.458165	12.594	0.567631	15.5844	0.843101	22.9498	0.171287	5.42913	0.428594	11.5084	0.703484	19.2524	0.904098	24.6039
0.288505	7.6326	0.0454206	1.14171	0.286483	8.6168	0.458584	12.2907	0.568072	15.2076	0.843336	22.3884	0.172874	5.32226	0.429062	11.2398	0.703726	18.7802	0.904307	24.001
0.28895	7.46048	0.047129	1.15754	0.286876	8.39342	0.459014	12.0025	0.568525	14.8493	0.843576	21.8543	0.174482	5.22198	0.429541	10.9842	0.703975	18.3311	0.904521	23.4274
0.289405	7.29671	0.0488509	1.17299	0.28728	8.1822	0.459453	11.7283	0.568988	14.5083	0.843822	21.3454	0.176111	5.12774	0.43003	10.7409	0.70423	17.9033	0.90474	22.8809
0.289871	7.14071	0.0505857	1.18807	0.287695	7.98219	0.459903	11.4671	0.569461	14.1834	0.844074	20.8601	0.177759	5.03903	0.430531	10.5088	0.704491	17.4956	0.904965	22.3597
0.290347	6.99197	0.0523329	1.20279	0.28812	7.79255	0.460363	11.2179	0.569945	13.8736	0.844332	20.3969	0.179426	4.9554	0.430977	10.3153	0.704758	17.1064	0.905195	21.8622
0.290834	6.84999	0.0540919	1.21715	0.288555	7.6125	0.460833	10.9801	0.57044	13.5777	0.844595	19.9541	0.18111	4.87644	0.431363	10.1563	0.705031	16.7346	0.90543	21.3866
0.291331	6.71435	0.0558622	1.23117	0.289002	7.44137	0.461313	10.7528	0.570945	13.2949	0.844864	19.5306	0.182812	4.8018	0.431687	10.0287	0.70531	16.379	0.90567	20.9316
0.291838	6.58465	0.0576432	1.24486	0.289458	7.27851	0.461804	10.5355	0.571461	13.0243	0.845139	19.125	0.18453	4.73113	0.431946	9.93037	0.705595	16.0386	0.905915	20.4959
0.292356	6.46052	0.0594346	1.25823	0.289925	7.12337	0.462239	10.3536	0.571987	12.7652	0.84542	18.7363	0.186263	4.66416	0.432138	9.85936	0.705886	15.7124	0.906165	20.0784
0.292883	6.34162	0.0612358	1.27129	0.290402	6.97542	0.462616	10.2039	0.572524	12.517	0.845707	18.3635	0.188011	4.6006	0.432262	9.8145	0.706183	15.3997	0.906421	19.6778
0.293421	6.22763	0.0630465	1.28405	0.29089	6.83419	0.462932	10.0836	0.573071	12.2788	0.845999	18.0056	0.189774	4.54022	0.43244	9.75078	0.706486	15.0995	0.906682	19.2932
0.29397	6.11828	0.0648662	1.2965	0.291388	6.69925	0.463185	9.99058	0.573628	12.0502	0.846297	17.6617	0.19155	4.48279	0.432636	9.68255	0.706795	14.8112	0.906948	18.9237
0.294528	6.0133	0.0666945	1.30868	0.291897	6.5702	0.463372	9.9234	0.574195	11.8306	0.846601	17.3311	0.193339	4.42811	0.432904	9.59141	0.70711	14.534	0.907219	18.5684
0.295097	5.91244	0.0685312	1.32057	0.292415	6.44668	0.463492	9.88091	0.574773	11.6194	0.84691	17.0129	0.195141	4.376	0.433247	9.47881	0.707431	14.2674	0.907496	18.2265
0.295675	5.81548	0.0703757	1.3322	0.292944	6.32836	0.463666	9.82053	0.575361	11.4163	0.847226	16.7066	0.196954	4.32628	0.433668	9.34648	0.707757	14.0107	0.907777	17.8972
0.296264	5.7222	0.0722278	1.34356	0.293483	6.21492	0.463857	9.75581	0.575959	11.2207	0.847547	16.4114	0.198779	4.2788	0.434168	9.19634	0.70809	13.7635	0.908064	17.58
0.296863	5.63242	0.0740872	1.35467	0.294033	6.10608	0.464118	9.66927	0.576567	11.0323	0.847873	16.1268	0.200616	4.23342	0.434752	9.03051	0.708429	13.5251	0.908355	17.274
0.297472	5.54593	0.0759535	1.36554	0.294592	6.00158	0.464451	9.5622	0.577186	10.8507	0.848206	15.8522	0.202462	4.19001	0.435347	8.87119	0.708774	13.2952	0.908652	16.9789
0.298091	5.46259	0.0778266	1.37616	0.295162	5.90118	0.464859	9.43614	0.577814	10.6755	0.848544	15.5871	0.204319	4.14845	0.435953	8.71801	0.709125	13.0733	0.908954	16.6939
0.29872	5.38222	0.0797061	1.38655	0.295742	5.80465	0.465345	9.29285	0.57837	10.5279	0.848888	15.331	0.206186	4.10863	0.436569	8.57065	0.709482	12.859	0.909262	16.4186
0.299359	5.30469	0.0815917	1.39671	0.296332	5.71178	0.465911	9.13421	0.57885	10.4055	0.849238	15.0835	0.208062	4.07044	0.437196	8.42879	0.709844	12.6519	0.909574	16.1525
0.300008	5.22984	0.0834832	1.40666	0.296932	5.62238	0.466488	8.98145	0.579251	10.3067	0.849593	14.8442	0.209946	4.03379	0.437834	8.29213	0.710213	12.4517	0.909891	15.8951
0.300667	5.15756	0.0853803	1.41639	0.297542	5.53626	0.467074	8.83426	0.57957	10.23	0.849954	14.6126	0.21184	3.99859	0.438481	8.1604	0.710588	12.2581	0.910214	15.6461
0.301336	5.08773	0.087283	1.42591	0.298163	5.45327	0.467669	8.69235	0.579807	10.1744	0.850321	14.3885	0.213742	3.96476	0.43914	8.03336	0.710968	12.0706	0.910542	15.405
0.302015	5.02021	0.0891908	1.43524	0.298793	5.37323	0.468275	8.55545	0.579959	10.1392	0.850693	14.1713	0.215652	3.93223	0.439808	7.91076	0.711354	11.8891	0.910874	15.1715
0.302703	4.95492	0.0911036	1.44436	0.299433	5.29601	0.46889	8.4233	0.580178	10.089	0.851071	13.961	0.217569	3.90092	0.440487	7.79239	0.711747	11.7133	0.911212	14.9452
0.303402	4.89175	0.0930212	1.4533	0.300083	5.22146	0.469514	8.29568	0.580418	10.0351	0.851455	13.757	0.219494	3.87077	0.441177	7.67804	0.712145	11.5428	0.911555	14.7258
0.30411	4.83061	0.0949435	1.46205	0.300743	5.14947	0.470148	8.17235	0.580746	9.96285	0.851844	13.5592	0.221426	3.84171	0.441876	7.5675	0.712549	11.3776	0.911903	14.513
0.304735	4.77891	0.0968702	1.47062	0.301413	5.0799	0.470792	8.05311	0.581164	9.87308	0.852239	13.3672	0.223364	3.8137	0.442586	7.46062	0.712959	11.2172	0.912257	14.3065
0.305274	4.73595	0.0988012	1.47901	0.302093	5.01265	0.471445	7.93778	0.581674	9.76692	0.85264	13.1809	0.225309	3.78668	0.443306	7.35721	0.713375	11.0616	0.912615	14.106
0.305724	4.70119	0.100736	1.48724	0.302783	4.9476	0.472108	7.82617	0.58228	9.64559	0.853046	12.9999	0.227261	3.76059	0.444036	7.25711	0.713796	10.9106	0.912978	13.9113
0.306082	4.67417	0.102675	1.4953	0.303482	4.88467	0.472779	7.7181	0.582984	9.51048	0.853458	12.8241	0.229219	3.7354	0.444776	7.16018	0.714169	10.7824	0.913347	13.7221
0.306347	4.65456	0.104618	1.50319	0.304192	4.82375	0.473461	7.61342	0.583698	9.37956	0.853876	12.6533	0.231182	3.71105	0.445527	7.06627	0.71449	10.6757	0.91372	13.5382
0.306517	4.64212	0.106565	1.51093	0.304911	4.76476	0.474151	7.51198	0.584422	9.25266	0.854299	12.4871	0.233151	3.68751	0.446287	6.97525	0.714757	10.5892	0.914099	13.3594
0.306762	4.6244	0.108514	1.51852	0.30564	4.70761	0.474851	7.41364	0.585155	9.1296	0.854728	12.3255	0.235126	3.66474	0.447057	6.887	0.714971	10.5218	0.914483	13.1854
0.30703	4.60534	0.110468	1.52596	0.306378	4.65222	0.47556	7.31826	0.585897	9.01021	0.855162	12.1683	0.237106	3.6427	0.447837	6.8014	0.715128	10.4728	0.914871	13.0162
0.307396	4.57975	0.112424	1.53326	0.307127	4.59853	0.476279	7.22571	0.58665	8.89434	0.855602	12.0153	0.239091	3.62136	0.448627	6.71833	0.71523	10.4417	0.915265	12.8514
0.307863	4.54792	0.114384	1.54041	0.307885	4.54646	0.477006	7.13588	0.587411	8.78183	0.856047	11.8663	0.241081	3.60069	0.449427	6.6377	0.715376	10.3974	0.915664	12.691
0.308432	4.51021	0.116094	1.54653	0.308653	4.49594	0.477742	7.04866	0.588182	8.67256	0.856499	11.7212	0.243076	3.58065	0.450236	6.5594	0.715535	10.3497	0.916068	12.5347
0.309107	4.46704	0.117554	1.55167	0.30943	4.44692	0.478488	6.96393	0.588962	8.56638	0.856955	11.5798	0.245075	3.56123	0.451056	6.48333	0.715754	10.2855	0.916477	12.3825
0.30989	4.41886	0.118762	1.55586	0.310217	4.39932	0.479243	6.8816	0.589752	8.46318	0.857417	11.442	0.247078	3.54238	0.451885	6.40941	0.716032	10.2056	0.916891	12.2341
0.310683	4.37208	0.119718	1.55914	0.311014	4.3531	0.480006	6.80157	0.59055	8.36282	0.857885	11.3076	0.249086	3.5241	0.452723	6.33755	0.716371	10.1107	0.91731	12.0894
0.311485	4.32665	0.120422	1.56154	0.31182	4.30821	0.480779	6.72375	0.591358	8.26522	0.858359	11.1766	0.251098	3.50634	0.453571	6.26768	0.716773	10.0017	0.917734	11.9483
0.312297	4.2825	0.120872	1.56306	0.312636	4.26459	0.48156	6.64806	0.592175	8.17024	0.858776	11.0651	0.253114	3.4891	0.454429	6.19971	0.717239	9.87979	0.918163	11.8106
0.313119	4.2396	0.12152	1.56524	0.313462	4.22219	0.482351	6.57441	0.593001	8.0778	0.859134	10.9718	0.255134	3.47235	0.455296	6.13358	0.717712	9.76103	0.918597	11.6762
0.31395	4.1979	0.122224	1.56759	0.314297	4.18097	0.48315	6.50272	0.593836	7.9878	0.859433	10.896	0.257157	3.45606	0.456173	6.06921	0.71819	9.64531	0.919036	11.5451
0.314791	4.15735	0.123182	1.57077	0.315142	4.14089	0.483958	6.43293	0.594681	7.90015	0.859671	10.8369	0.259184	3.44023	0.457059	6.00654	0.718674	9.53253	0.91948	11.417
0.315641	4.11791	0.124395	1.57474	0.315996	4.10189	0.484775	6.36496	0.595534	7.81476	0.859847	10.7938	0.261215	3.42483	0.457954	5.94551	0.719164	9.42259	0.919929	11.292
0.316501	4.07955	0.125863	1.57948	0.31686	4.06396	0.4856	6.29874	0.596396	7.73154	0.85996	10.7664	0.263249	3.40984	0.458859	5.88606	0.719659	9.31537	0.920324	11.1854
0.317371	4.04221	0.127587	1.58497	0.317734	4.02704	0.486434	6.23422	0.597266	7.65043	0.860122	10.7274	0.265286	3.39525	0.459773	5.82813	0.720161	9.21077	0.920664	11.0961
0.31825	4.00587	0.129567	1.59115	0.318617	3.9911	0.487277	6.17133	0.598146	7.57134	0.8603	10.6852	0.267326	3.38105	0.460696	5.77167	0.720668	9.10872	0.920948	11.0235
0.319138	3.97049	0.131549	1.59722	0.319509	3.95611	0.488128	6.11001	0.599034	7.4942	0.860543	10.6285	0.26937	3.36721	0.461628	5.71662	0.721181	9.00911	0.921173	10.9668
0.320037	3.93604	0.133534	1.60318	0.320411	3.92204	0.488987	6.05021	0.599931	7.41895	0.860851	10.5577	0.271416	3.35373	0.46257	5.66294	0.721699	8.91186	0.921339	10.9255
0.320944	3.90249	0.135521	1.60904	0.321323	3.88885	0.489856	5.99188	0.600837	7.34552	0.861227	10.4734	0.273465	3.34059	0.46352	5.61058	0.722224	8.8169	0.921446	10.8993
0.321862	3.8698	0.13751	1.61479	0.322244	3.85651	0.490732	5.93497	0.601751	7.27384	0.861672	10.3763	0.275517	3.32778	0.464479	5.55949	0.722753	8.72414	0.9216	10.8617
0.322788	3.83795	0.1395	1.62043	0.323175	3.825	0.491617	5.87942	0.602674	7.20387	0.862188	10.2674	0.277571	3.31529	0.465448	5.50964	0.723289	8.63351	0.921768	10.8213
0.323725	3.80692	0.141493	1.62598	0.324115	3.79429	0.49251	5.82519	0.603606	7.13553	0.862709	10.1608	0.279628	3.3031	0.466425	5.46099	0.723831	8.54494	0.921998	10.7668
0.324671	3.77666	0.143487	1.63143	0.325066	3.76435	0.493412	5.77225	0.604545	7.06878	0.863236	10.0567	0.281688	3.29121	0.467411	5.41348	0.724378	8.45837	0.92229	10.6987
0.325627	3.74717	0.145483	1.63679	0.326025	3.73517	0.494322	5.72054	0.605494	7.00357	0.863768	9.95483	0.28375	3.2796	0.468406	5.36709	0.72493	8.37372	0.922645	10.6176
0.326592	3.71841	0.147481	1.64205	0.326994	3.70671	0.49524	5.67003	0.60645	6.93985	0.864305	9.8552	0.285814	3.26826	0.46941	5.32178	0.725489	8.29095	0.923066	10.5241
0.327567	3.69036	0.149481	1.64723	0.327973	3.67895	0.496166	5.62068	0.607415	6.87756	0.864848	9.75773	0.287881	3.25719	0.470422	5.27751	0.726053	8.20998	0.923553	10.419
0.328551	3.663	0.151481	1.65231	0.328962	3.65187	0.4971	5.57245	0.608388	6.81667	0.865397	9.66235	0.28995	3.24638	0.471444	5.23426	0.726623	8.13076	0.924046	10.3161
0.329546	3.63632	0.153484	1.65731	0.32996	3.62545	0.498043	5.52531	0.609369	6.75712	0.865951	9.56899	0.29202	3.23581	0.472473	5.19198	0.727198	8.05324	0.924543	10.2154
0.330549	3.61028	0.155488	1.66223	0.330968	3.59968	0.498993	5.47921	0.610359	6.69889	0.86651	9.47759	0.294093	3.22548	0.473512	5.15066	0.727779	7.97736	0.925045	10.1168
0.331563	3.58487	0.157493	1.66706	0.331986	3.57453	0.499951	5.43414	0.611356	6.64192	0.867074	9.3881	0.296168	3.21538	0.474559	5.11026	0.728366	7.90308	0.925552	10.0202
0.332587	3.56008	0.1595	1.67181	0.333014	3.54998	0.500918	5.39006	0.612361	6.58617	0.867644	9.30045	0.298245	3.2055	0.475614	5.07075	0.728958	7.83035	0.926064	9.92565
0.33362	3.53587	0.161508	1.67649	0.334051	3.52602	0.501892	5.34694	0.613375	6.53162	0.86822	9.21459	0.300324	3.19584	0.476678	5.0321	0.729556	7.75912	0.926581	9.833
0.334663	3.51225	0.163517	1.68108	0.335098	3.50263	0.502874	5.30474	0.614396	6.47823	0.8688	9.13047	0.302404	3.18639	0.47775	4.9943	0.730159	7.68934	0.927103	9.74221
0.335717	3.48918	0.165527	1.68561	0.336156	3.47979	0.503863	5.26345	0.615426	6.42595	0.869386	9.04803	0.304486	3.17714	0.478831	4.95731	0.730768	7.62098	0.927629	9.65324
0.33678	3.46667	0.167539	1.69006	0.337223	3.45749	0.504861	5.22304	0.616463	6.37477	0.869978	8.96724	0.30657	3.16808	0.47992	4.92112	0.731383	7.55399	0.928161	9.56602
0.337853	3.44468	0.169551	1.69443	0.3383	3.43572	0.505866	5.18348	0.617508	6.32464	0.870575	8.88803	0.308655	3.15921	0.481017	4.88569	0.732003	7.48834	0.928697	9.48051
0.338936	3.4232	0.171565	1.69874	0.339388	3.41446	0.506879	5.14474	0.61856	6.27554	0.871177	8.81038	0.310742	3.15053	0.482122	4.85101	0.732628	7.42398	0.929238	9.39667
0.34003	3.40223	0.17358	1.70298	0.340486	3.39369	0.507899	5.1068	0.619621	6.22743	0.871784	8.73422	0.312831	3.14202	0.483236	4.81706	0.73326	7.36088	0.929785	9.31443
0.341134	3.38175	0.175595	1.70715	0.341594	3.37341	0.508927	5.06965	0.620689	6.18029	0.872397	8.65953	0.314921	3.13369	0.484357	4.78381	0.733896	7.299	0.930336	9.23377
0.342248	3.36175	0.177612	1.71126	0.342712	3.3536	0.509963	5.03325	0.621765	6.1341	0.873015	8.58626	0.317012	3.12552	0.485487	4.75125	0.734539	7.23832	0.930891	9.15463
0.343372	3.34221	0.179629	1.7153	0.343841	3.33425	0.511006	4.99759	0.622848	6.08881	0.873638	8.51436	0.319105	3.11752	0.486625	4.71935	0.735186	7.17879	0.931452	9.07698
0.344507	3.32312	0.181648	1.71928	0.344981	3.31534	0.512056	4.96264	0.623938	6.04442	0.874267	8.44382	0.321199	3.10967	0.48777	4.6881	0.73584	7.12039	0.932018	9.00077
0.345653	3.30447	0.183667	1.72319	0.346131	3.29688	0.513114	4.92839	0.625036	6.0009	0.8749	8.37458	0.323294	3.10197	0.488924	4.65748	0.736498	7.06309	0.932588	8.92596
0.34681	3.28626	0.185687	1.72705	0.347292	3.27884	0.514179	4.89482	0.626142	5.95821	0.875539	8.30662	0.32539	3.09443	0.490085	4.62747	0.737163	7.00685	0.933163	8.85253
0.347977	3.26846	0.187708	1.73085	0.348464	3.26121	0.515252	4.86191	0.627255	5.91635	0.876184	8.2399	0.327488	3.08702	0.491255	4.59807	0.737832	6.95166	0.933743	8.78042
0.349155	3.25108	0.18973	1.73459	0.349647	3.244	0.516331	4.82963	0.628375	5.87528	0.876833	8.17438	0.329587	3.07976	0.492432	4.56924	0.738508	6.89747	0.934328	8.70962
0.350345	3.2341	0.191752	1.73827	0.350841	3.22718	0.517418	4.79799	0.629502	5.83499	0.877488	8.11004	0.331686	3.07263	0.493617	4.54097	0.739188	6.84427	0.934918	8.64007
0.351546	3.21751	0.193776	1.7419	0.352046	3.21075	0.518512	4.76695	0.630637	5.79546	0.878148	8.04685	0.333787	3.06563	0.494809	4.51326	0.739874	6.79203	0.935512	8.57176
0.352758	3.20131	0.195799	1.74547	0.353263	3.19471	0.519613	4.7365	0.631778	5.75666	0.878813	7.98478	0.335889	3.05876	0.496009	4.48609	0.740566	6.74072	0.936111	8.50465
0.353981	3.18548	0.197824	1.74899	0.354492	3.17903	0.520721	4.70663	0.632927	5.71858	0.879484	7.92379	0.337992	3.05202	0.497217	4.45943	0.741262	6.69033	0.936715	8.43871
0.355217	3.17002	0.199849	1.75246	0.355732	3.16372	0.521837	4.67732	0.634083	5.6812	0.880159	7.86387	0.340096	3.04539	0.498433	4.43329	0.741965	6.64082	0.937324	8.3739
0.356464	3.15492	0.201874	1.75588	0.356984	3.14877	0.522959	4.64856	0.635246	5.6445	0.88084	7.80498	0.3422	3.03889	0.499655	4.40764	0.742672	6.59219	0.937938	8.31021
0.357724	3.14017	0.203901	1.75924	0.358249	3.13417	0.524088	4.62033	0.636416	5.60847	0.881526	7.7471	0.344306	3.03249	0.500886	4.38247	0.743386	6.54439	0.938556	8.24761
0.358996	3.12577	0.205927	1.76256	0.359526	3.11991	0.525224	4.59262	0.637592	5.57308	0.882217	7.6902	0.346412	3.02621	0.502124	4.35778	0.744104	6.49742	0.939179	8.18606
0.36028	3.11171	0.207955	1.76583	0.360816	3.10599	0.526366	4.56542	0.638776	5.53832	0.882913	7.63427	0.348519	3.02004	0.503369	4.33355	0.744828	6.45126	0.939806	8.12554
0.361577	3.09799	0.209982	1.76905	0.362118	3.0924	0.527516	4.53871	0.639966	5.50418	0.883614	7.57927	0.350627	3.01397	0.504622	4.30976	0.745557	6.40588	0.940439	8.06604
0.362887	3.08459	0.212011	1.77223	0.363434	3.07913	0.528672	4.51248	0.641163	5.47064	0.884321	7.5252	0.352735	3.008	0.505882	4.28641	0.746291	6.36127	0.941076	8.00751
0.364211	3.07151	0.214039	1.77536	0.364763	3.06619	0.529835	4.48673	0.642367	5.43768	0.885032	7.47201	0.354845	3.00214	0.507149	4.26349	0.747031	6.3174	0.941718	7.94995
0.365548	3.05875	0.216068	1.77845	0.366105	3.05356	0.531005	4.46144	0.643578	5.4053	0.885749	7.4197	0.356954	2.99637	0.508423	4.24099	0.747776	6.27427	0.942364	7.89332
0.366898	3.04631	0.218098	1.78149	0.367462	3.04124	0.532181	4.43659	0.644795	5.37347	0.886471	7.36824	0.359065	2.99069	0.509705	4.21889	0.748526	6.23185	0.943016	7.83762
0.368263	3.03417	0.220128	1.78449	0.368832	3.02922	0.533364	4.41218	0.646018	5.34219	0.887197	7.31761	0.361176	2.98511	0.510994	4.19719	0.749282	6.19012	0.943672	7.7828
0.369642	3.02233	0.222158	1.78745	0.370217	3.01751	0.534553	4.38819	0.647249	5.31144	0.887929	7.26779	0.363287	2.97962	0.512289	4.17588	0.750043	6.14908	0.944332	7.72886
0.371035	3.01078	0.224189	1.79037	0.371617	3.00609	0.535749	4.36463	0.648485	5.28121	0.888666	7.21878	0.365399	2.97421	0.513592	4.15494	0.750809	6.1087	0.944997	7.67577
0.372444	2.99954	0.22622	1.79325	0.373032	2.99496	0.536951	4.34147	0.649728	5.25149	0.889408	7.17053	0.367512	2.96889	0.514902	4.13438	0.751581	6.06897	0.945667	7.62352
0.373868	2.98858	0.228251	1.79608	0.374462	2.98412	0.538159	4.31871	0.650978	5.22226	0.890155	7.12305	0.369625	2.96366	0.516219	4.11418	0.752358	6.02988	0.946342	7.57209
0.375307	2.9779	0.230283	1.79888	0.375908	2.97356	0.539374	4.29633	0.652234	5.19352	0.890907	7.07631	0.371738	2.9585	0.517543	4.09432	0.75314	5.99141	0.947021	7.52145
0.376762	2.96751	0.232315	1.80164	0.377369	2.96329	0.540596	4.27434	0.653496	5.16525	0.891664	7.0303	0.373852	2.95342	0.518874	4.07482	0.753927	5.95354	0.947705	7.47159
0.378233	2.9574	0.234347	1.80437	0.378847	2.95329	0.541823	4.25272	0.654764	5.13744	0.892426	6.98499	0.375966	2.94842	0.520212	4.05565	0.754719	5.91627	0.948394	7.4225
0.379721	2.94756	0.23638	1.80705	0.380342	2.94356	0.543057	4.23146	0.656039	5.11008	0.893193	6.94039	0.378081	2.9435	0.521556	4.03681	0.755517	5.87958	0.949087	7.37415
0.381225	2.93799	0.238413	1.8097	0.381853	2.9341	0.544297	4.21055	0.65732	5.08317	0.893965	6.89646	0.380196	2.93865	0.522907	4.01829	0.756319	5.84346	0.949784	7.32654
0.382747	2.92868	0.240446	1.81232	0.383382	2.92491	0.545543	4.18999	0.658606	5.05669	0.894742	6.85319	0.382311	2.93387	0.524265	4.00009	0.757127	5.8079	0.950487	7.27964
0.384286	2.91965	0.242479	1.8149	0.384929	2.91598	0.546795	4.16977	0.659899	5.03063	0.895524	6.81058	0.384426	2.92916	0.52563	3.98219	0.757941	5.77288	0.951193	7.23344
0.385843	2.91087	0.244512	1.81744	0.386493	2.90731	0.548053	4.14988	0.661198	5.00498	0.89631	6.7686	0.386541	2.92452	0.527001	3.9646	0.758759	5.73839	0.951905	7.18792
0.387418	2.90235	0.246546	1.81996	0.388076	2.8989	0.549317	4.13031	0.662503	4.97974	0.897102	6.72725	0.388657	2.91994	0.528379	3.9473	0.759582	5.70442	0.952621	7.14307
0.389012	2.89409	0.24858	1.82244	0.389677	2.89074	0.550587	4.11106	0.663814	4.95489	0.897899	6.68651	0.390773	2.91543	0.529764	3.93028	0.760411	5.67096	0.953342	7.09888
0.390624	2.88608	0.250614	1.82488	0.391297	2.88283	0.551863	4.09212	0.665131	4.93043	0.8987	6.64636	0.392889	2.91098	0.531155	3.91355	0.761244	5.638	0.954067	7.05533
0.392255	2.87832	0.252648	1.8273	0.392936	2.87517	0.553145	4.07349	0.666453	4.90635	0.899507	6.6068	0.395005	2.9066	0.532553	3.8971	0.762083	5.60554	0.954796	7.01241
0.393905	2.8708	0.254682	1.82968	0.394594	2.86776	0.554433	4.05515	0.667782	4.88264	0.900318	6.56782	0.397122	2.90227	0.533957	3.88091	0.762927	5.57355	0.955531	6.97011
0.395575	2.86352	0.256717	1.83203	0.396272	2.86058	0.555726	4.0371	0.669116	4.85929	0.901134	6.52939	0.399238	2.89801	0.535367	3.86499	0.763776	5.54203	0.956269	6.92841
0.397264	2.85648	0.258751	1.83436	0.397969	2.85364	0.557025	4.01933	0.670456	4.8363	0.901955	6.49152	0.401355	2.8938	0.536784	3.84933	0.76463	5.51097	0.957012	6.88731
0.398973	2.84968	0.260786	1.83665	0.399686	2.84693	0.55833	4.00184	0.671801	4.81366	0.902781	6.45418	0.403471	2.88965	0.538208	3.83392	0.765489	5.48036	0.95776	6.84678
0.400701	2.84311	0.262821	1.83891	0.401423	2.84045	0.559641	3.98463	0.673153	4.79135	0.903612	6.41738	0.405588	2.88555	0.539638	3.81876	0.766353	5.45019	0.958512	6.80682
0.40245	2.83676	0.264855	1.84115	0.40318	2.8342	0.560957	3.96768	0.674509	4.76938	0.904447	6.38109	0.407704	2.88151	0.541074	3.80385	0.767222	5.42045	0.959269	6.76742
0.404219	2.83064	0.26689	1.84336	0.404957	2.82817	0.562279	3.95099	0.675872	4.74774	0.905288	6.34531	0.40982	2.87752	0.542516	3.78917	0.768096	5.39114	0.96003	6.72856
0.406007	2.82474	0.268925	1.84554	0.406754	2.82235	0.563606	3.93456	0.67724	4.72641	0.906133	6.31002	0.411937	2.87358	0.543964	3.77472	0.768975	5.36225	0.960796	6.69024
0.407816	2.81905	0.270961	1.84769	0.408571	2.81675	0.564939	3.91838	0.678613	4.7054	0.906983	6.27523	0.414053	2.86969	0.545419	3.7605	0.76986	5.33376	0.961566	6.65244
0.409644	2.81356	0.272996	1.84981	0.410407	2.81135	0.566278	3.90244	0.679992	4.6847	0.907837	6.24091	0.416169	2.86585	0.54688	3.74651	0.770749	5.30567	0.962341	6.61516
0.411493	2.80829	0.275031	1.85191	0.412264	2.80616	0.567622	3.88675	0.681376	4.66429	0.908697	6.20706	0.418285	2.86206	0.548347	3.73273	0.771643	5.27798	0.96312	6.57839
0.41336	2.80321	0.277066	1.85399	0.41414	2.80117	0.568971	3.87129	0.682765	4.64418	0.909561	6.17368	0.420401	2.85832	0.54982	3.71917	0.772542	5.25066	0.963903	6.54211
0.415248	2.79833	0.279101	1.85603	0.416035	2.79636	0.570325	3.85606	0.68416	4.62436	0.91043	6.14074	0.422517	2.85462	0.551299	3.70582	0.773446	5.22373	0.964691	6.50631
0.417154	2.79364	0.281137	1.85806	0.417949	2.79175	0.571685	3.84106	0.68556	4.60483	0.911304	6.10825	0.424632	2.85097	0.552785	3.69268	0.774355	5.19717	0.965483	6.47099
0.419079	2.78913	0.283172	1.86005	0.419882	2.78731	0.57305	3.82628	0.686965	4.58557	0.912182	6.07619	0.426748	2.84736	0.554276	3.67974	0.775269	5.17096	0.96628	6.43614
0.421023	2.7848	0.285207	1.86203	0.421834	2.78305	0.574421	3.81172	0.688376	4.56659	0.913065	6.04456	0.428863	2.84379	0.555773	3.667	0.776188	5.14512	0.967081	6.40175
0.422985	2.78064	0.287243	1.86398	0.423803	2.77897	0.575796	3.79737	0.689791	4.54787	0.913953	6.01335	0.430977	2.84027	0.557276	3.65445	0.777111	5.11962	0.967886	6.3678
0.424965	2.77665	0.289278	1.8659	0.42579	2.77504	0.577177	3.78323	0.691212	4.52941	0.914846	5.98255	0.433092	2.83678	0.558785	3.64209	0.77804	5.09447	0.968696	6.3343
0.426963	2.77282	0.291313	1.86781	0.427795	2.77128	0.578563	3.76929	0.692638	4.51121	0.915743	5.95215	0.435206	2.83334	0.5603	3.62992	0.778973	5.06966	0.96951	6.30124
0.428977	2.76915	0.293348	1.86969	0.429816	2.76767	0.579954	3.75556	0.694068	4.49326	0.916644	5.92215	0.43732	2.82994	0.561821	3.61794	0.779912	5.04517	0.970328	6.2686
0.431008	2.76562	0.295384	1.87155	0.431854	2.76421	0.58135	3.74202	0.695504	4.47556	0.917551	5.89253	0.439434	2.82657	0.563347	3.60613	0.780855	5.02101	0.971151	6.23638
0.433055	2.76224	0.297419	1.87338	0.433908	2.76089	0.582751	3.72868	0.696945	4.45811	0.918462	5.8633	0.441547	2.82325	0.56488	3.5945	0.781803	4.99717	0.971978	6.20457
0.435118	2.75901	0.299454	1.8752	0.435977	2.7577	0.584157	3.71553	0.69839	4.44089	0.919378	5.83445	0.44366	2.81996	0.566418	3.58305	0.782756	4.97364	0.97281	6.17316
0.437196	2.7559	0.301489	1.87699	0.438061	2.75465	0.585568	3.70256	0.699841	4.4239	0.920298	5.80596	0.445772	2.8167	0.567962	3.57176	0.783713	4.95042	0.973645	6.14215
0.439288	2.75292	0.303524	1.87876	0.440159	2.75173	0.586984	3.68977	0.701296	4.40714	0.921223	5.77783	0.447884	2.81348	0.569511	3.56064	0.784676	4.9275	0.974485	6.11153
0.441395	2.75007	0.305559	1.88051	0.442272	2.74892	0.588404	3.67717	0.702756	4.39061	0.922152	5.75006	0.449996	2.8103	0.571066	3.54969	0.785643	4.90488	0.97533	6.08129
0.443515	2.74733	0.307594	1.88224	0.444397	2.74623	0.58983	3.66474	0.704221	4.3743	0.923087	5.72264	0.452107	2.80715	0.572627	3.5389	0.786615	4.88254	0.976178	6.05143
0.445649	2.74471	0.309629	1.88395	0.446536	2.74365	0.59126	3.65248	0.705691	4.35821	0.924025	5.69556	0.454217	2.80404	0.574193	3.52826	0.787592	4.8605	0.977031	6.02193
0.447795	2.74219	0.311664	1.88565	0.448688	2.74118	0.592695	3.6404	0.707165	4.34233	0.924968	5.66882	0.456328	2.80095	0.575765	3.51778	0.788573	4.83873	0.977888	5.9928
0.449953	2.73977	0.313699	1.88732	0.450851	2.7388	0.594135	3.62848	0.708644	4.32666	0.925916	5.64241	0.458437	2.7979	0.577342	3.50745	0.78956	4.81725	0.97875	5.96403
0.452123	2.73746	0.315733	1.88897	0.453026	2.73653	0.59558	3.61672	0.710128	4.31119	0.926868	5.61633	0.460546	2.79488	0.578925	3.49727	0.790551	4.79603	0.979615	5.9356
0.454305	2.73523	0.317768	1.8906	0.455211	2.73434	0.597029	3.60512	0.711616	4.29592	0.927825	5.59056	0.462655	2.79189	0.580514	3.48724	0.791547	4.77508	0.980485	5.90752
0.456497	2.7331	0.319802	1.89222	0.457408	2.73224	0.598483	3.59368	0.713108	4.28086	0.928787	5.56511	0.464763	2.78893	0.582108	3.47735	0.792547	4.75439	0.981359	5.87978
0.458699	2.73105	0.321837	1.89382	0.459614	2.73023	0.599941	3.5824	0.714606	4.26599	0.929752	5.53997	0.46687	2.786	0.583707	3.46761	0.793552	4.73396	0.982237	5.85238
0.460911	2.72909	0.323871	1.8954	0.46183	2.72829	0.601404	3.57127	0.716107	4.2513	0.930723	5.51514	0.468977	2.7831	0.585312	3.458	0.794562	4.71379	0.98312	5.8253
0.463133	2.7272	0.325905	1.89696	0.464056	2.72643	0.602872	3.56028	0.717613	4.23681	0.931697	5.4906	0.471084	2.78023	0.586922	3.44853	0.795576	4.69386	0.984006	5.79854
0.465364	2.72538	0.327939	1.8985	0.46629	2.72465	0.604344	3.54945	0.719124	4.2225	0.932676	5.46636	0.473189	2.77738	0.588537	3.4392	0.796596	4.67418	0.984897	5.7721
0.467603	2.72363	0.329973	1.90003	0.468533	2.72293	0.60582	3.53875	0.720639	4.20837	0.93366	5.4424	0.475294	2.77457	0.590158	3.42999	0.797619	4.65474	0.985792	5.74597
0.469851	2.72195	0.332007	1.90154	0.470784	2.72128	0.607301	3.5282	0.722158	4.19442	0.934648	5.41873	0.477399	2.77178	0.591784	3.42092	0.798648	4.63554	0.986691	5.72014
0.472106	2.72034	0.33404	1.90303	0.473043	2.71969	0.608787	3.51779	0.723681	4.18065	0.935641	5.39534	0.479502	2.76901	0.593415	3.41197	0.799681	4.61657	0.987594	5.69462
0.47437	2.71878	0.336074	1.9045	0.475309	2.71815	0.610276	3.50752	0.725209	4.16705	0.936638	5.37223	0.481605	2.76627	0.595051	3.40315	0.800719	4.59783	0.988501	5.66939
0.47664	2.71728	0.338107	1.90596	0.477582	2.71668	0.61177	3.49737	0.726741	4.15361	0.937639	5.34939	0.483708	2.76356	0.596693	3.39445	0.801761	4.57932	0.989413	5.64446
0.478917	2.71584	0.34014	1.90741	0.479862	2.71526	0.613269	3.48736	0.728277	4.14035	0.938645	5.32681	0.485809	2.76087	0.59834	3.38587	0.802808	4.56102	0.990328	5.61981
0.481201	2.71445	0.342174	1.90884	0.482149	2.71389	0.614771	3.47749	0.729817	4.12724	0.939655	5.30449	0.48791	2.7582	0.599992	3.37741	0.803859	4.54295	0.991248	5.59545
0.483491	2.71311	0.344206	1.91025	0.484442	2.71257	0.616278	3.46773	0.731362	4.1143	0.940669	5.28244	0.49001	2.75556	0.601649	3.36907	0.804915	4.52509	0.992172	5.57136
0.485787	2.71182	0.346239	1.91165	0.48674	2.7113	0.617789	3.45811	0.73291	4.10151	0.941688	5.26063	0.492109	2.75294	0.603311	3.36085	0.805976	4.50745	0.993099	5.54755
0.488089	2.71057	0.348272	1.91303	0.489044	2.71007	0.619304	3.4486	0.734463	4.08888	0.942711	5.23908	0.494208	2.75035	0.604978	3.35273	0.807041	4.49001	0.994031	5.524
0.490397	2.70937	0.350304	1.91439	0.491354	2.70888	0.620824	3.43922	0.73602	4.0764	0.943738	5.21777	0.496306	2.74778	0.60665	3.34473	0.80811	4.47277	0.994967	5.50072
0.492709	2.7082	0.352337	1.91575	0.493669	2.70773	0.622347	3.42996	0.73758	4.06408	0.94477	5.19671	0.498403	2.74523	0.608328	3.33684	0.809184	4.45574	0.995907	5.4777
0.495027	2.70708	0.354369	1.91708	0.495988	2.70662	0.623875	3.42081	0.739145	4.0519	0.945806	5.17588	0.500499	2.7427	0.61001	3.32905	0.810263	4.43891	0.996851	5.45494
0.497349	2.70599	0.356401	1.91841	0.498312	2.70555	0.625406	3.41178	0.740713	4.03986	0.946847	5.15529	0.502594	2.74019	0.611697	3.32137	0.811346	4.42227	0.997799	5.43243
0.499676	2.70494	0.358433	1.91972	0.500641	2.70451	0.626942	3.40286	0.742286	4.02797	0.947891	5.13493	0.504689	2.7377	0.613389	3.31379	0.812434	4.40582	0.998751	5.41017
0.502007	2.70392	0.360464	1.92101	0.502974	2.70351	0.628482	3.39405	0.743862	4.01622	0.94894	5.1148	0.506782	2.73523	0.615086	3.30632	0.813526	4.38957	0.999707	5.38816
0.504343	2.70294	0.362496	1.92229	0.505311	2.70254	0.630025	3.38536	0.745442	4.0046	0.949993	5.09489	0.508875	2.73279	0.616788	3.29895	0.814622	4.3735	1.00067	5.36638
0.506682	2.70198	0.364527	1.92356	0.507652	2.70159	0.631573	3.37677	0.747026	3.99313	0.951051	5.0752	0.510967	2.73036	0.618495	3.29167	0.815723	4.35761		
0.509025	2.70106	0.366558	1.92482	0.509997	2.70068	0.633125	3.36828	0.748614	3.98178	0.952112	5.05573	0.513058	2.72795	0.620206	3.28449	0.816829	4.3419		
0.511372	2.70016	0.368589	1.92606	0.512345	2.6998	0.63468	3.35991	0.750206	3.97057	0.953178	5.03647	0.515148	2.72556	0.621923	3.27741	0.817938	4.32638		
0.513722	2.69929	0.37062	1.92729	0.514697	2.69894	0.636239	3.35163	0.751801	3.95949	0.954248	5.01742	0.517237	2.72319	0.623644	3.27043	0.819053	4.31103		
0.516076	2.69845	0.372651	1.9285	0.517052	2.6981	0.637802	3.34345	0.7534	3.94854	0.955322	4.99858	0.519326	2.72084	0.62537	3.26353	0.820171	4.29585		
0.518433	2.69763	0.374681	1.92971	0.51941	2.6973	0.639369	3.33538	0.755002	3.93771	0.956401	4.97995	0.521413	2.71851	0.6271	3.25673	0.821294	4.28084		
0.520792	2.69683	0.376711	1.9309	0.521771	2.69651	0.64094	3.3274	0.756609	3.927	0.957483	4.96152	0.523499	2.71619	0.628836	3.25001	0.822421	4.266		
0.523155	2.69606	0.378741	1.93208	0.524134	2.69575	0.642515	3.31952	0.758218	3.91642	0.95857	4.94328	0.525585	2.71389	0.630576	3.24339	0.823553	4.25132		
0.52552	2.69531	0.380771	1.93324	0.526501	2.695	0.644093	3.31173	0.759832	3.90596	0.959661	4.92525	0.527669	2.71161	0.632321	3.23685	0.824689	4.23681		
0.527888	2.69458	0.382801	1.9344	0.52887	2.69428	0.645675	3.30404	0.761449	3.89561	0.960756	4.9074	0.529753	2.70934	0.63407	3.2304	0.82583	4.22246		
0.530259	2.69387	0.38483	1.93554	0.531241	2.69358	0.64726	3.29643	0.763069	3.88538	0.961855	4.88974	0.531835	2.70709	0.635824	3.22403	0.826974	4.20826		
0.532632	2.69317	0.386859	1.93667	0.533615	2.69289	0.64885	3.28892	0.764693	3.87527	0.962959	4.87228	0.533916	2.70486	0.637582	3.21775	0.828123	4.19422		
0.535007	2.6925	0.388888	1.93779	0.535992	2.69223	0.650443	3.2815	0.766321	3.86526	0.964066	4.85499	0.535997	2.70264	0.639345	3.21154	0.829277	4.18034		
0.537385	2.69184	0.390917	1.9389	0.53837	2.69158	0.652039	3.27416	0.767951	3.85537	0.965178	4.83789	0.538076	2.70044	0.641113	3.20542	0.830434	4.16661		
0.539764	2.6912	0.392946	1.93999	0.54075	2.69094	0.653639	3.26692	0.769586	3.84559	0.966293	4.82097	0.540155	2.69826	0.642885	3.19938	0.831596	4.15302		
0.542146	2.69058	0.394974	1.94108	0.543133	2.69032	0.655243	3.25975	0.771223	3.83591	0.967413	4.80422	0.542232	2.69609	0.644661	3.19341	0.832762	4.13958		
0.544529	2.68997	0.397002	1.94215	0.545517	2.68972	0.65685	3.25267	0.772864	3.82634	0.968537	4.78765	0.544308	2.69393	0.646442	3.18752	0.833933	4.12629		
0.546915	2.68937	0.39903	1.94322	0.547903	2.68913	0.658461	3.24567	0.774509	3.81688	0.969664	4.77125	0.546384	2.69179	0.648227	3.18171	0.835107	4.11314		
0.549302	2.68879	0.401058	1.94427	0.550291	2.68856	0.660075	3.23876	0.776156	3.80751	0.970796	4.75502	0.548458	2.68966	0.650017	3.17597	0.836286	4.10013		
0.55169	2.68823	0.403086	1.94531	0.55268	2.688	0.661693	3.23192	0.777807	3.79825	0.971932	4.73896	0.550531	2.68755	0.651811	3.1703	0.837469	4.08726		
0.554081	2.68767	0.405113	1.94635	0.555071	2.68745	0.663314	3.22516	0.779461	3.78909	0.973072	4.72306	0.552603	2.68545	0.65361	3.16471	0.838657	4.07453		
0.556473	2.68713	0.40714	1.94737	0.557464	2.68691	0.664939	3.21848	0.781118	3.78003	0.974216	4.70733	0.554674	2.68337	0.655413	3.15919	0.839848	4.06193		
0.558866	2.6866	0.409167	1.94838	0.559858	2.68638	0.666567	3.21188	0.782779	3.77106	0.975364	4.69175	0.556744	2.68129	0.65722	3.15373	0.841044	4.04947		
0.561261	2.68608	0.411194	1.94938	0.562253	2.68587	0.668199	3.20535	0.784442	3.76219	0.976516	4.67633	0.558813	2.67924	0.659031	3.14835	0.842244	4.03714		
0.563657	2.68558	0.41322	1.95037	0.56465	2.68537	0.669833	3.19889	0.786109	3.75341	0.977671	4.66107	0.560881	2.67719	0.660847	3.14303	0.843448	4.02493		
0.566054	2.68508	0.415246	1.95136	0.567048	2.68488	0.671471	3.19251	0.787779	3.74472	0.978831	4.64596	0.562947	2.67516	0.662666	3.13778	0.844656	4.01286		
0.568453	2.68459	0.417272	1.95233	0.569447	2.68439	0.673113	3.1862	0.789452	3.73613	0.979995	4.63101	0.565013	2.67314	0.66449	3.1326	0.845868	4.00091		
0.570853	2.68411	0.419298	1.95329	0.571847	2.68392	0.674758	3.17996	0.791128	3.72763	0.981162	4.6162	0.567077	2.67113	0.666319	3.12748	0.847085	3.98908		
0.573253	2.68365	0.421324	1.95425	0.574248	2.68346	0.676406	3.17379	0.792807	3.71921	0.982334	4.60154	0.56914	2.66914	0.668151	3.12243	0.848305	3.97738		
0.575655	2.68319	0.423349	1.95519	0.57665	2.683	0.678057	3.16769	0.794489	3.71088	0.983509	4.58703	0.571202	2.66715	0.669987	3.11744	0.84953	3.9658		
0.578058	2.68274	0.425374	1.95613	0.579054	2.68255	0.679712	3.16166	0.796174	3.70264	0.984689	4.57266	0.573263	2.66518	0.671828	3.11251	0.850759	3.95433		
0.580462	2.6823	0.427399	1.95705	0.581458	2.68211	0.681369	3.1557	0.797862	3.69448	0.985872	4.55843	0.575323	2.66322	0.673672	3.10764	0.851992	3.94299		
0.582867	2.68186	0.429423	1.95797	0.583863	2.68168	0.68303	3.1498	0.799553	3.68641	0.987059	4.54435	0.577382	2.66127	0.675521	3.10283	0.853229	3.93176		
0.585272	2.68143	0.431448	1.95888	0.586269	2.68126	0.684695	3.14396	0.801247	3.67842	0.98825	4.5304	0.57944	2.65934	0.677374	3.09808	0.85447	3.92065		
0.587679	2.68102	0.433472	1.95978	0.588676	2.68084	0.686362	3.13819	0.802944	3.67051	0.989445	4.51658	0.581496	2.65741	0.67923	3.09339	0.855715	3.90965		
0.590086	2.6806	0.435496	1.96067	0.591083	2.68043	0.688033	3.13249	0.804643	3.66268	0.990644	4.5029	0.583551	2.6555	0.681091	3.08876	0.856964	3.89876		
0.592494	2.6802	0.437519	1.96155	0.593491	2.68003	0.689706	3.12684	0.806346	3.65492	0.991847	4.48936	0.585606	2.6536	0.682955	3.08418	0.858217	3.88798		
0.594902	2.6798	0.439543	1.96243	0.5959	2.67964	0.691383	3.12126	0.808051	3.64725	0.993053	4.47594	0.587659	2.6517	0.684824	3.07966	0.859474	3.87731		
0.597312	2.67941	0.441566	1.96329	0.59831	2.67925	0.693063	3.11574	0.809759	3.63965	0.994263	4.46266	0.589711	2.64982	0.686696	3.0752	0.860736	3.86674		
0.599722	2.67902	0.443589	1.96415	0.60072	2.67886	0.694746	3.11028	0.81147	3.63213	0.995477	4.4495	0.591761	2.64795	0.688572	3.07079	0.862001	3.85629		
0.602132	2.67864	0.445612	1.965	0.603131	2.67848	0.696432	3.10488	0.813184	3.62469	0.996695	4.43647	0.593811	2.64609	0.690452	3.06643	0.86327	3.84594		
0.604543	2.67826	0.447634	1.96584	0.605542	2.67811	0.698121	3.09953	0.8149	3.61732	0.997917	4.42356	0.595859	2.64424	0.692336	3.06213	0.864543	3.83569		
0.606954	2.67789	0.449656	1.96668	0.607953	2.67774	0.699813	3.09425	0.816619	3.61002	0.999142	4.41078	0.597906	2.6424	0.694223	3.05787	0.86582	3.82554		
0.609366	2.67753	0.451678	1.9675	0.610365	2.67738	0.701508	3.08902	0.81834	3.60279	1.00037	4.39811	0.599953	2.64057	0.696114	3.05367	0.867101	3.81549		
0.611779	2.67717	0.4537	1.96832	0.612778	2.67702	0.703207	3.08384	0.820065	3.59563			0.601998	2.63875	0.698009	3.04952	0.868386	3.80555		
0.614191	2.67681	0.455721	1.96913	0.615191	2.67667	0.704908	3.07872	0.821792	3.58854			0.604041	2.63694	0.699908	3.04542	0.869675	3.7957		
0.616604	2.67646	0.457743	1.96994	0.617604	2.67632	0.706612	3.07366	0.823521	3.58152			0.606084	2.63514	0.70181	3.04137	0.870968	3.78594		
0.619018	2.67612	0.459764	1.97073	0.620018	2.67597	0.708319	3.06865	0.825253	3.57457			0.608125	2.63335	0.703716	3.03736	0.872265	3.77629		
0.621432	2.67577	0.461784	1.97152	0.622431	2.67563	0.710029	3.06369	0.826988	3.56769			0.610166	2.63157	0.705625	3.03341	0.873566	3.76673		
0.623846	2.67543	0.463805	1.9723	0.624846	2.67529	0.711742	3.05879	0.828725	3.56087			0.612205	2.62979	0.707538	3.0295	0.87487	3.75726		
0.62626	2.6751	0.465825	1.97307	0.62726	2.67496	0.713458	3.05393	0.830465	3.55412			0.614243	2.62803	0.709455	3.02563	0.876179	3.74788		
0.628674	2.67477	0.467845	1.97384	0.629674	2.67463	0.715177	3.04913	0.832207	3.54743			0.61628	2.62628	0.711375	3.02181	0.877491	3.73859		
0.631089	2.67444	0.469865	1.9746	0.632089	2.6743	0.716899	3.04438	0.833952	3.5408			0.618316	2.62453	0.713299	3.01804	0.878808	3.7294		
0.633504	2.67411	0.471884	1.97535	0.634504	2.67398	0.718624	3.03968	0.835699	3.53424			0.62035	2.62279	0.715226	3.01431	0.880128	3.72029		
0.635919	2.67379	0.473904	1.9761	0.636919	2.67366	0.720352	3.03502	0.837449	3.52774			0.622384	2.62107	0.717157	3.01063	0.881452	3.71127		
0.638334	2.67347	0.475922	1.97684	0.639334	2.67334	0.722082	3.03042	0.839201	3.5213			0.624416	2.61935	0.719091	3.00698	0.88278	3.70234		
0.640749	2.67316	0.477941	1.97757	0.641749	2.67303	0.723816	3.02586	0.840955	3.51492			0.626447	2.61764	0.721028	3.00338	0.884111	3.69349		
0.643164	2.67284	0.47996	1.97829	0.644164	2.67272	0.725552	3.02135	0.842712	3.5086			0.628477	2.61594	0.722968	2.99983	0.885447	3.68473		
0.645579	2.67253	0.481978	1.97901	0.64658	2.67241	0.727291	3.01689	0.844471	3.50234			0.630506	2.61424	0.724913	2.99631	0.886786	3.67605		
0.647994	2.67223	0.483996	1.97972	0.648995	2.6721	0.729033	3.01247	0.846232	3.49613			0.632534	2.61256	0.72686	2.99283	0.888129	3.66745		
0.65041	2.67192	0.486014	1.98043	0.65141	2.67179	0.730778	3.0081	0.847996	3.48999			0.63456	2.61088	0.72881	2.9894	0.889476	3.65894		
0.652825	2.67161	0.488031	1.98113	0.653825	2.67149	0.732526	3.00378	0.849762	3.4839			0.636586	2.60921	0.730764	2.986	0.890827	3.6505		
0.65524	2.67131	0.490048	1.98182	0.65624	2.67119	0.734276	2.9995	0.85153	3.47786			0.63861	2.60755	0.732721	2.98264	0.892181	3.64215		
0.657655	2.67101	0.492065	1.98251	0.658655	2.67089	0.736029	2.99526	0.853301	3.47188			0.640634	2.6059	0.734681	2.97932	0.893539	3.63387		
0.660069	2.67071	0.494082	1.98319	0.661069	2.67059	0.737785	2.99106	0.855074	3.46596			0.642656	2.60426	0.736645	2.97604	0.894901	3.62567		
0.662484	2.67042	0.496098	1.98387	0.663484	2.67029	0.739544	2.98691	0.856849	3.46008			0.644677	2.60262	0.738611	2.97279	0.896267	3.61755		
0.664898	2.67012	0.498115	1.98453	0.665898	2.67	0.741306	2.9828	0.858626	3.45426			0.646697	2.60099	0.740581	2.96958	0.897636	3.6095		
0.667313	2.66983	0.500131	1.9852	0.668312	2.66971	0.743071	2.97874	0.860405	3.4485			0.648716	2.59937	0.742553	2.96641	0.899009	3.60153		
0.669727	2.66953	0.502146	1.98585	0.670726	2.66941	0.744838	2.97471	0.862187	3.44278			0.650734	2.59776	0.744529	2.96327	0.900386	3.59363		
0.67214	2.66924	0.504162	1.9865	0.67314	2.66912	0.746608	2.97073	0.863971	3.43712			0.652751	2.59616	0.746508	2.96017	0.901767	3.58581		
0.674554	2.66895	0.506177	1.98715	0.675553	2.66883	0.748381	2.96678	0.865756	3.4315			0.654766	2.59456	0.748489	2.9571	0.903151	3.57806		
0.676967	2.66866	0.508192	1.98779	0.677966	2.66854	0.750156	2.96288	0.867544	3.42594			0.656781	2.59297	0.750474	2.95407	0.904539	3.57038		
0.67938	2.66837	0.510206	1.98842	0.680379	2.66825	0.751935	2.95901	0.869334	3.42042			0.658795	2.59139	0.752461	2.95107	0.905931	3.56277		
0.681792	2.66808	0.512221	1.98905	0.682791	2.66796	0.753716	2.95519	0.871126	3.41495			0.660807	2.58981	0.754451	2.94811	0.907326	3.55523		
0.684204	2.6678	0.514235	1.98967	0.685203	2.66768	0.7555	2.9514	0.87292	3.40953			0.662819	2.58824	0.756445	2.94517	0.908725	3.54776		
0.686616	2.66751	0.516249	1.99029	0.687614	2.66739	0.757287	2.94765	0.874716	3.40416			0.664829	2.58668	0.758441	2.94227	0.910128	3.54036		
0.689027	2.66722	0.518262	1.9909	0.690025	2.6671	0.759076	2.94394	0.876514	3.39883			0.666839	2.58513	0.76044	2.9394	0.911534	3.53302		
0.691437	2.66693	0.520276	1.99151	0.692436	2.66682	0.760869	2.94027	0.878315	3.39355			0.668847	2.58359	0.762441	2.93656	0.912944	3.52576		
0.693848	2.66665	0.522289	1.99211	0.694846	2.66653	0.762664	2.93663	0.880117	3.38832			0.670855	2.58205	0.764445	2.93375	0.914357	3.51855		
0.696257	2.66636	0.524302	1.99271	0.697255	2.66624	0.764462	2.93303	0.881921	3.38313			0.672861	2.58052	0.766452	2.93098	0.915775	3.51142		
0.698666	2.66607	0.526314	1.9933	0.699664	2.66596	0.766262	2.92947	0.883727	3.37798			0.674867	2.57899	0.768462	2.92823	0.917195	3.50435		
0.701075	2.66579	0.528327	1.99388	0.702072	2.66567	0.768066	2.92594	0.885534	3.37288			0.676871	2.57748	0.770475	2.92551	0.91862	3.49734		
0.703483	2.6655	0.530339	1.99446	0.70448	2.66538	0.769872	2.92245	0.887344	3.36782			0.678875	2.57597	0.77249	2.92282	0.920048	3.4904		
0.70589	2.66521	0.532351	1.99504	0.706887	2.66509	0.771681	2.91899	0.889156	3.36281			0.680877	2.57446	0.774507	2.92016	0.921479	3.48351		
0.708297	2.66493	0.534362	1.99561	0.709293	2.66481	0.773493	2.91557	0.890969	3.35783			0.682879	2.57297	0.776527	2.91753	0.922915	3.47669		
0.710703	2.66464	0.536373	1.99618	0.711699	2.66452	0.775308	2.91218	0.892785	3.3529			0.684879	2.57148	0.77855	2.91492	0.924353	3.46994		
0.713108	2.66435	0.538384	1.99674	0.714104	2.66423	0.777125	2.90883	0.894602	3.34801			0.686879	2.57	0.780575	2.91235	0.925796	3.46324		
0.715512	2.66406	0.540395	1.99729	0.716508	2.66394	0.778945	2.90551	0.896421	3.34316			0.688878	2.56852	0.782603	2.9098	0.927241	3.4566		
0.717916	2.66377	0.542406	1.99784	0.718911	2.66365	0.780769	2.90223	0.898241	3.33835			0.690875	2.56705	0.784633	2.90727	0.928691	3.45002		
0.720319	2.66347	0.544416	1.99839	0.721314	2.66335	0.782595	2.89897	0.900064	3.33358			0.692872	2.56559	0.786665	2.90478	0.930144	3.4435		
0.722721	2.66318	0.546426	1.99893	0.723715	2.66306	0.784423	2.89576	0.901888	3.32885			0.694868	2.56413	0.7887	2.90231	0.9316	3.43703		
0.725122	2.66289	0.548436	1.99947	0.726116	2.66276	0.786255	2.89257	0.903714	3.32416			0.696863	2.56269	0.790737	2.89986	0.93306	3.43063		
0.727522	2.66259	0.550445	2	0.728516	2.66247	0.78809	2.88941	0.905542	3.31951			0.698858	2.56124	0.792777	2.89744	0.934524	3.42428		
0.729921	2.66229	0.552454	2.00053	0.730915	2.66217	0.789927	2.88629	0.907372	3.3149			0.700851	2.55981	0.794818	2.89504	0.935991	3.41799		
0.73232	2.662	0.554463	2.00105	0.733313	2.66187	0.791767	2.8832	0.909203	3.31032			0.702843	2.55838	0.796863	2.89267	0.937461	3.41175		
0.734717	2.66169	0.556472	2.00157	0.73571	2.66157	0.793611	2.88014	0.911036	3.30578			0.704835	2.55696	0.798909	2.89033	0.938935	3.40557		
0.737113	2.66139	0.558481	2.00209	0.738105	2.66127	0.795457	2.87711	0.91287	3.30127			0.706826	2.55554	0.800957	2.888	0.940413	3.39944		
0.739508	2.66109	0.560489	2.0026	0.7405	2.66096	0.797306	2.87412	0.914707	3.29681			0.708816	2.55413	0.803008	2.8857	0.941894	3.39336		
0.741902	2.66078	0.562497	2.0031	0.742894	2.66066	0.799158	2.87115	0.916545	3.29237			0.710805	2.55273	0.805061	2.88342	0.943379	3.38734		
0.744295	2.66048	0.564504	2.00361	0.745286	2.66035	0.801013	2.86821	0.918384	3.28798			0.712793	2.55133	0.807116	2.88117	0.944867	3.38137		
0.746687	2.66016	0.566512	2.0041	0.747677	2.66004	0.802871	2.86531	0.920225	3.28362			0.71478	2.54994	0.809172	2.87894	0.946358	3.37545		
0.749077	2.65985	0.568519	2.0046	0.750067	2.65972	0.804733	2.86243	0.922068	3.27929			0.716767	2.54856	0.811232	2.87673	0.947853	3.36959		
0.751467	2.65954	0.570526	2.00509	0.752456	2.65941	0.806597	2.85959	0.923912	3.275			0.718753	2.54718	0.813293	2.87454	0.949351	3.36377		
0.753854	2.65922	0.572533	2.00557	0.754843	2.65909	0.808464	2.85677	0.925758	3.27074			0.720738	2.54581	0.815356	2.87237	0.950853	3.35801		
0.756241	2.6589	0.574539	2.00605	0.757229	2.65877	0.810334	2.85398	0.927605	3.26651			0.722722	2.54445	0.817421	2.87023	0.952358	3.3523		
0.758626	2.65858	0.576545	2.00653	0.759613	2.65844	0.812208	2.85123	0.929454	3.26232			0.724706	2.54309	0.819487	2.8681	0.953867	3.34663		
0.76101	2.65825	0.578551	2.007	0.761996	2.65811	0.814084	2.8485	0.931304	3.25816			0.726688	2.54174	0.821556	2.866	0.955379	3.34101		
0.763392	2.65792	0.580557	2.00747	0.764378	2.65778	0.815964	2.8458	0.933156	3.25403			0.72867	2.54039	0.823627	2.86391	0.956895	3.33545		
0.765772	2.65759	0.582562	2.00794	0.766758	2.65745	0.817847	2.84312	0.93501	3.24993			0.730652	2.53905	0.8257	2.86185	0.958414	3.32993		
0.768151	2.65725	0.584567	2.0084	0.769136	2.65711	0.819733	2.84048	0.936864	3.24587			0.732632	2.53772	0.827774	2.8598	0.959936	3.32446		
0.770529	2.65691	0.586572	2.00886	0.771513	2.65677	0.821623	2.83787	0.938721	3.24184			0.734612	2.53639	0.82985	2.85777	0.961462	3.31903		
0.772905	2.65657	0.588576	2.00931	0.773888	2.65643	0.823515	2.83528	0.940578	3.23783			0.736591	2.53507	0.831928	2.85577	0.962991	3.31365		
0.775279	2.65623	0.590581	2.00976	0.776262	2.65608	0.825411	2.83272	0.942438	3.23386			0.73857	2.53375	0.834007	2.85378	0.964523	3.30832		
0.777651	2.65588	0.592585	2.01021	0.778633	2.65573	0.82731	2.83019	0.944298	3.22992			0.740547	2.53244	0.836089	2.85181	0.966059	3.30303		
0.780022	2.65552	0.594589	2.01065	0.781003	2.65537	0.829213	2.82769	0.94616	3.22601			0.742524	2.53114	0.838172	2.84986	0.967599	3.29779		
0.78239	2.65516	0.596592	2.01109	0.783371	2.65501	0.831119	2.82521	0.948023	3.22213			0.744501	2.52984	0.840256	2.84792	0.969141	3.29259		
0.784757	2.6548	0.598595	2.01152	0.785736	2.65465	0.833029	2.82276	0.949888	3.21827			0.746477	2.52855	0.842343	2.84601	0.970687	3.28744		
0.787122	2.65443	0.600598	2.01196	0.7881	2.65428	0.834942	2.82034	0.951754	3.21445			0.748452	2.52726	0.84443	2.84411	0.972237	3.28233		
0.789484	2.65406	0.602601	2.01238	0.790462	2.65391	0.836858	2.81794	0.953622	3.21065			0.750426	2.52598	0.84652	2.84223	0.97379	3.27726		
0.791845	2.65369	0.604604	2.01281	0.792822	2.65353	0.838778	2.81558	0.955491	3.20689			0.7524	2.52471	0.848611	2.84036	0.975346	3.27224		
0.794203	2.65331	0.606606	2.01323	0.79518	2.65315	0.840702	2.81324	0.957361	3.20315			0.754374	2.52344	0.850703	2.83851	0.976905	3.26726		
0.79656	2.65292	0.608608	2.01365	0.797535	2.65276	0.842629	2.81092	0.959232	3.19943			0.756346	2.52218	0.852797	2.83668	0.978468	3.26232		
0.798914	2.65253	0.61061	2.01406	0.799888	2.65237	0.844561	2.80863	0.961105	3.19575			0.758318	2.52092	0.854892	2.83486	0.980034	3.25742		
0.801265	2.65213	0.612611	2.01447	0.802239	2.65197	0.846495	2.80637	0.962979	3.19209			0.76029	2.51967	0.856989	2.83306	0.981604	3.25257		
0.803615	2.65173	0.614613	2.01488	0.804587	2.65157	0.848434	2.80414	0.964854	3.18846			0.762261	2.51843	0.859087	2.83128	0.983176	3.24775		
0.805962	2.65133	0.616614	2.01529	0.806933	2.65116	0.850376	2.80193	0.96673	3.18485			0.764231	2.51719	0.861186	2.82951	0.984753	3.24298		
0.808306	2.65091	0.618614	2.01569	0.809276	2.65074	0.852322	2.79975	0.968608	3.18128			0.766201	2.51596	0.863287	2.82776	0.986332	3.23824		
0.810648	2.65049	0.620615	2.01609	0.811617	2.65032	0.854273	2.79759	0.970487	3.17772			0.76817	2.51473	0.865389	2.82602	0.987915	3.23355		
0.812987	2.65007	0.622615	2.01648	0.813955	2.64989	0.856227	2.79546	0.972367	3.1742			0.770139	2.51351	0.867492	2.82429	0.989501	3.22889		
0.815324	2.64964	0.624615	2.01687	0.81629	2.64946	0.858185	2.79336	0.974249	3.17069			0.772107	2.51229	0.869597	2.82258	0.99109	3.22428		
0.817657	2.6492	0.626615	2.01726	0.818623	2.64902	0.860147	2.79128	0.976131	3.16722			0.774075	2.51108	0.871703	2.82089	0.992683	3.2197		
0.819988	2.64876	0.628614	2.01764	0.820953	2.64857	0.862113	2.78923	0.978015	3.16376			0.776042	2.50988	0.87381	2.81921	0.994279	3.21516		
0.822316	2.64831	0.630613	2.01803	0.82328	2.64812	0.864084	2.7872	0.9799	3.16034			0.778009	2.50868	0.875918	2.81754	0.995878	3.21066		
0.824641	2.64785	0.632612	2.01841	0.825604	2.64766	0.866059	2.7852	0.981786	3.15693			0.779975	2.50749	0.878027	2.81588	0.997481	3.20619		
0.826964	2.64739	0.634611	2.01878	0.827924	2.64719	0.868038	2.78323	0.983673	3.15355			0.78194	2.5063	0.880138	2.81424	0.999087	3.20177		
0.829283	2.64692	0.63661	2.01915	0.830242	2.64672	0.870021	2.78128	0.985561	3.1502			0.783906	2.50512	0.882249	2.81262	1.0007	3.19738		
0.831598	2.64644	0.638608	2.01952	0.832557	2.64624	0.872009	2.77935	0.987451	3.14687			0.78587	2.50394	0.884362	2.811				
0.833911	2.64595	0.640606	2.01989	0.834868	2.64575	0.874001	2.77745	0.989341	3.14356			0.787835	2.50277	0.886475	2.8094				
0.83622	2.64546	0.642603	2.02026	0.837176	2.64525	0.875998	2.77558	0.991233	3.14027			0.789799	2.50161	0.88859	2.80781				
0.838526	2.64496	0.644601	2.02062	0.839481	2.64475	0.877999	2.77373	0.993125	3.13701			0.791762	2.50045	0.890705	2.80623				
0.840829	2.64445	0.646598	2.02097	0.841782	2.64424	0.880005	2.77191	0.995019	3.13377			0.793725	2.49929	0.892821	2.80467				
0.843128	2.64393	0.648595	2.02133	0.844079	2.64372	0.882015	2.77012	0.996914	3.13055			0.795688	2.49814	0.894939	2.80311				
0.845424	2.64341	0.650592	2.02168	0.846374	2.64319	0.884031	2.76834	0.99881	3.12735			0.79765	2.497	0.897057	2.80157				
0.847716	2.64288	0.652588	2.02203	0.848664	2.64265	0.886051	2.7666	1.00071	3.12418			0.799612	2.49586	0.899176	2.80004				
0.850004	2.64234	0.654584	2.02238	0.850951	2.64211	0.888076	2.76488					0.801573	2.49473	0.901296	2.79853				
0.852289	2.64179	0.65658	2.02272	0.853234	2.64156	0.890105	2.76318					0.803534	2.4936	0.903417	2.79702				
0.854569	2.64123	0.658576	2.02307	0.855513	2.64099	0.89214	2.76151					0.805495	2.49248	0.905538	2.79552				
0.856846	2.64066	0.660572	2.0234	0.857788	2.64042	0.894179	2.75986					0.807455	2.49136	0.907661	2.79404				
0.859119	2.64009	0.662567	2.02374	0.860059	2.63984	0.896224	2.75824					0.809415	2.49025	0.909784	2.79257				
0.861388	2.6395	0.664562	2.02407	0.862326	2.63926	0.898274	2.75665					0.811375	2.48914	0.911907	2.7911				
0.863653	2.63891	0.666557	2.0244	0.86459	2.63866	0.900328	2.75508					0.813334	2.48804	0.914032	2.78965				
0.865914	2.6383	0.668551	2.02473	0.866849	2.63805	0.902388	2.75353					0.815293	2.48695	0.916157	2.78821				
0.86817	2.63769	0.670545	2.02506	0.869104	2.63744	0.904454	2.75201					0.817251	2.48586	0.918283	2.78677				
0.870423	2.63707	0.672539	2.02538	0.871354	2.63681	0.906524	2.75051					0.81921	2.48477	0.920409	2.78535				
0.872671	2.63644	0.674533	2.0257	0.873601	2.63618	0.9086	2.74904					0.821168	2.48369	0.922536	2.78394				
0.874915	2.6358	0.676526	2.02602	0.875843	2.63553	0.910681	2.74759					0.823125	2.48262	0.924663	2.78254				
0.877154	2.63515	0.67852	2.02633	0.878081	2.63488	0.912767	2.74616					0.825083	2.48155	0.926791	2.78114				
0.87939	2.63449	0.680513	2.02665	0.880314	2.63422	0.914859	2.74476					0.82704	2.48048	0.92892	2.77976				
0.881621	2.63382	0.682505	2.02696	0.882543	2.63354	0.916956	2.74338					0.828996	2.47942	0.931049	2.77838				
0.883847	2.63315	0.684498	2.02727	0.884768	2.63286	0.919058	2.74203					0.830953	2.47837	0.933178	2.77702				
0.886069	2.63246	0.68649	2.02757	0.886988	2.63217	0.921166	2.7407					0.832909	2.47732	0.935308	2.77566				
0.888286	2.63176	0.688482	2.02787	0.889203	2.63147	0.92328	2.7394					0.834865	2.47627	0.937438	2.77431				
0.890499	2.63106	0.690474	2.02818	0.891415	2.63076	0.925399	2.73811					0.836821	2.47524	0.939569	2.77297				
0.892708	2.63034	0.692466	2.02847	0.893621	2.63004	0.927523	2.73686					0.838777	2.4742	0.9417	2.77164				
0.894912	2.62961	0.694457	2.02877	0.895823	2.62931	0.929653	2.73562					0.840732	2.47317	0.943831	2.77031				
0.897111	2.62888	0.696448	2.02906	0.898021	2.62857	0.931789	2.73441					0.842687	2.47215	0.945963	2.769				
0.899306	2.62814	0.698439	2.02936	0.900213	2.62783	0.933929	2.73322					0.844642	2.47113	0.948095	2.76769				
0.901496	2.62738	0.700429	2.02965	0.902402	2.62707	0.936076	2.73205					0.846596	2.47011	0.950227	2.76639				
0.903682	2.62662	0.70242	2.02993	0.904586	2.6263	0.938228	2.7309					0.848551	2.4691	0.95236	2.7651				
0.905863	2.62585	0.70441	2.03022	0.906765	2.62553	0.940385	2.72978					0.850505	2.4681	0.954492	2.76381				
0.908039	2.62507	0.7064	2.0305	0.90894	2.62474	0.942548	2.72868					0.852459	2.4671	0.956625	2.76254				
0.910211	2.62428	0.708389	2.03078	0.91111	2.62395	0.944716	2.7276					0.854413	2.4661	0.958758	2.76127				
0.912379	2.62348	0.710379	2.03106	0.913275	2.62315	0.946889	2.72654					0.856367	2.46511	0.960891	2.76				
0.914542	2.62268	0.712368	2.03133	0.915437	2.62234	0.949068	2.7255					0.85832	2.46413	0.963025	2.75875				
0.916701	2.62186	0.714357	2.03161	0.917594	2.62152	0.951252	2.72448					0.860273	2.46315	0.965158	2.7575				
0.918855	2.62104	0.716345	2.03188	0.919746	2.62069	0.953442	2.72349					0.862226	2.46217	0.967291	2.75626				
0.921005	2.62021	0.718334	2.03215	0.921894	2.61986	0.955636	2.72251					0.864179	2.4612	0.969425	2.75502				
0.92315	2.61937	0.720322	2.03242	0.924038	2.61902	0.957836	2.72155					0.866132	2.46023	0.971558	2.7538				
0.925291	2.61852	0.72231	2.03268	0.926177	2.61817	0.960041	2.72062					0.868085	2.45927	0.973692	2.75258				
0.927428	2.61767	0.724298	2.03295	0.928312	2.61731	0.962252	2.7197					0.870038	2.45832	0.975826	2.75136				
0.929561	2.6168	0.726285	2.03321	0.930443	2.61645	0.964467	2.7188					0.87199	2.45736	0.977959	2.75015				
0.93169	2.61594	0.728272	2.03347	0.93257	2.61557	0.966687	2.71792					0.873942	2.45642	0.980093	2.74895				
0.933814	2.61506	0.730259	2.03372	0.934693	2.61469	0.968912	2.71706					0.875894	2.45547	0.982226	2.74775				
0.935934	2.61418	0.732246	2.03398	0.936811	2.61381	0.971142	2.71622					0.877847	2.45453	0.984359	2.74656				
0.938051	2.61329	0.734233	2.03423	0.938926	2.61292	0.973377	2.71539					0.879798	2.4536	0.986492	2.74538				
0.940163	2.61239	0.736219	2.03449	0.941037	2.61202	0.975616	2.71458					0.88175	2.45267	0.988625	2.7442				
0.942272	2.61149	0.738205	2.03474	0.943144	2.61111	0.97786	2.71379					0.883702	2.45174	0.990758	2.74302				
0.944376	2.61058	0.740191	2.03498	0.945247	2.6102	0.980109	2.71302					0.885654	2.45082	0.992891	2.74185				
0.946477	2.60967	0.742177	2.03523	0.947346	2.60929	0.982362	2.71226					0.887605	2.44991	0.995024	2.74069				
0.948575	2.60875	0.744162	2.03547	0.949442	2.60837	0.98462	2.71152					0.889557	2.449	0.997156	2.73954				
0.950668	2.60782	0.746147	2.03571	0.951534	2.60744	0.986882	2.71079					0.891508	2.44809	0.999288	2.73838				
0.952758	2.6069	0.748132	2.03595	0.953623	2.60651	0.989149	2.71008					0.89346	2.44719	1.00142	2.73724				
0.954845	2.60596	0.750117	2.03619	0.955708	2.60557	0.991419	2.70939					0.895411	2.44629						
0.956928	2.60502	0.752101	2.03643	0.95779	2.60463	0.993694	2.70871					0.897362	2.4454						
0.959008	2.60408	0.754086	2.03666	0.959869	2.60369	0.995972	2.70804					0.899313	2.44451						
0.961085	2.60313	0.75607	2.0369	0.961944	2.60274	0.998255	2.70739					0.901264	2.44362						
0.963158	2.60218	0.758053	2.03713	0.964016	2.60179	1.00054	2.70675					0.903215	2.44274						
0.965229	2.60123	0.760037	2.03736	0.966085	2.60083							0.905166	2.44186						
0.967296	2.60027	0.76202	2.03759	0.968151	2.59987							0.907117	2.44099						
0.96936	2.59931	0.764003	2.03781	0.970214	2.59891							0.909068	2.44012						
0.971422	2.59835	0.765986	2.03804	0.972275	2.59795							0.911019	2.43926						
0.97348	2.59738	0.767969	2.03826	0.974332	2.59698							0.91297	2.4384						
0.975536	2.59641	0.769951	2.03848	0.976387	2.59601							0.914921	2.43755						
0.977589	2.59544	0.771933	2.0387	0.978439	2.59504							0.916872	2.43669						
0.97964	2.59447	0.773915	2.03892	0.980488	2.59406							0.918822	2.43585						
0.981688	2.59349	0.775897	2.03913	0.982535	2.59309							0.920773	2.435						
0.983733	2.59251	0.777879	2.03935	0.98458	2.59211							0.922724	2.43417						
0.985776	2.59153	0.77986	2.03956	0.986622	2.59113							0.924675	2.43333						
0.987817	2.59055	0.781841	2.03977	0.988662	2.59015							0.926626	2.4325						
0.989855	2.58957	0.783822	2.03998	0.990699	2.58917							0.928576	2.43167						
0.991892	2.58859	0.785803	2.04019	0.992735	2.58818							0.930527	2.43085						
0.993926	2.58761	0.787783	2.04039	0.994768	2.5872							0.932478	2.43003						
0.995958	2.58662	0.789763	2.0406	0.996799	2.58622							0.934429	2.42922						
0.997988	2.58564	0.791743	2.0408	0.998828	2.58523							0.93638	2.42841						
1.00002	2.58465	0.793723	2.041	1.00086	2.58425							0.938331	2.4276						
		0.795702	2.0412									0.940282	2.4268						
		0.797682	2.0414									0.942233	2.426						
		0.799661	2.0416									0.944184	2.42521						
		0.80164	2.04179									0.946135	2.42442						
		0.803618	2.04199									0.948086	2.42363						
		0.805597	2.04218									0.950037	2.42285						
		0.807575	2.04237									0.951988	2.42207						
		0.809553	2.04256									0.953939	2.42129						
		0.811531	2.04275									0.955891	2.42052						
		0.813508	2.04293									0.957842	2.41976						
		0.815486	2.04312									0.959793	2.41899						
		0.817463	2.0433									0.961745	2.41823						
		0.81944	2.04349									0.963696	2.41748						
		0.821417	2.04367									0.965648	2.41672						
		0.823393	2.04385									0.9676	2.41597						
		0.825369	2.04402									0.969551	2.41523						
		0.827346	2.0442									0.971503	2.41449						
		0.829321	2.04438									0.973455	2.41375						
		0.831297	2.04455									0.975407	2.41301						
		0.833273	2.04473									0.977359	2.41228						
		0.835248	2.0449									0.979311	2.41156						
		0.837223	2.04507									0.981264	2.41083						
		0.839198	2.04524									0.983216	2.41011						
		0.841172	2.04541									0.985169	2.4094						
		0.843147	2.04557									0.987121	2.40868						
		0.845121	2.04574									0.989074	2.40797						
		0.847095	2.0459									0.991027	2.40727						
		0.849069	2.04606									0.99298	2.40656						
		0.851042	2.04623									0.994933	2.40587						
		0.853016	2.04639									0.996886	2.40517						
		0.854989	2.04655									0.998839	2.40448						
		0.856962	2.0467									1.00079	2.40379						
		0.858935	2.04686																
		0.860907	2.04702																
		0.86288	2.04717																
		0.864852	2.04733																
		0.866824	2.04748																
		0.868796	2.04763																
		0.870767	2.04778																
		0.872739	2.04793																
		0.87471	2.04808																
		0.876681	2.04822																
		0.878652	2.04837																
		0.880622	2.04851																
		0.882593	2.04866																
		0.884563	2.0488																
		0.886533	2.04894																
		0.888503	2.04908																
		0.890472	2.04922																
		0.892442	2.04936																
		0.894411	2.04949																
		0.89638	2.04963																
		0.898349	2.04977																
		0.900317	2.0499																
		0.902286	2.05003																
		0.904254	2.05017																
		0.906222	2.0503																
		0.90819	2.05043																
		0.910158	2.05056																
		0.912125	2.05068																
		0.914093	2.05081																
		0.91606	2.05094																
		0.918027	2.05106																
		0.919993	2.05119																
		0.92196	2.05131																
		0.923926	2.05143																
		0.925893	2.05155																
		0.927859	2.05168																
		0.929824	2.0518																
		0.93179	2.05191																
		0.933756	2.05203																
		0.935721	2.05215																
		0.937686	2.05227																
		0.939651	2.05238																
		0.941616	2.0525																
		0.94358	2.05261																
		0.945545	2.05272																
		0.947509	2.05283																
		0.949473	2.05295																
		0.951437	2.05306																
		0.9534	2.05317																
		0.955364	2.05327																
		0.957327	2.05338																
		0.95929	2.05349																
		0.961253	2.0536																
		0.963216	2.0537																
		0.965179	2.05381																
		0.967141	2.05391																
		0.969104	2.05401																
		0.971066	2.05412																
		0.973028	2.05422																
		0.97499	2.05432																
		0.976951	2.05442																
		0.978913	2.05452																
		0.980874	2.05462																
		0.982835	2.05471																
		0.984796	2.05481																
		0.986757	2.05491																
		0.988717	2.055																
		0.990678	2.0551																
		0.992638	2.05519																
		0.994598	2.05529																
		0.996558	2.05538																
		0.998518	2.05547																
		1.00048	2.05556																
