Sym0		Asym0		Sym1		Sym2		Sym3		Sym4		Asym1		Asym2		Asym3		Asym4	
422  Points		528  Points		422  Points		404  Points		351  Points		251  Points		454  Points		399  Points		343  Points		206  Points	
Freq (MHz)	Vph (m/ms)	Freq (MHz)	Vph (m/ms)	Freq (MHz)	Vph (m/ms)	Freq (MHz)	Vph (m/ms)	Freq (MHz)	Vph (m/ms)	Freq (MHz)	Vph (m/ms)	Freq (MHz)	Vph (m/ms)	Freq (MHz)	Vph (m/ms)	Freq (MHz)	Vph (m/ms)	Freq (MHz)	Vph (m/ms)
0.27951	567.064	3.0972e-005	0.0343675	0.279514	305.494	0.449978	10707.5	0.559017	6725.49	0.838526	2112.75	0.139755	932.772	0.419268	464.519	0.698771	3487.2	0.899957	2206.79
0.279521	196.21	0.00012802	0.0698458	0.27953	151.371	0.449984	462.129	0.559024	550.863	0.838531	631.147	0.139799	129.262	0.419286	228.583	0.698776	617.251	0.899962	671.86
0.279544	118.637	0.000290834	0.1052	0.279557	100.62	0.450001	236.17	0.559042	287.202	0.838543	370.991	0.139911	69.496	0.419314	151.597	0.698786	338.597	0.899972	396.254
0.279577	85.0296	0.000519126	0.140445	0.279595	75.3618	0.450028	158.622	0.559071	194.243	0.83856	262.709	0.140088	47.5697	0.419355	113.411	0.698803	233.287	0.899988	280.992
0.279621	66.2658	0.000812044	0.175464	0.279644	60.2456	0.450066	119.419	0.559112	146.752	0.838583	203.358	0.140332	36.1998	0.419408	90.5972	0.698826	177.947	0.900008	217.678
0.279676	54.2914	0.00116891	0.210248	0.279704	50.1853	0.450115	95.7591	0.559164	117.927	0.838612	165.886	0.140642	29.2498	0.419472	75.4302	0.698854	143.831	0.900034	177.652
0.279742	45.9869	0.0015887	0.244741	0.279775	43.0084	0.450175	79.9289	0.559227	98.572	0.838647	140.077	0.141016	24.5672	0.419548	64.6178	0.698889	120.695	0.900065	150.061
0.279819	39.8899	0.00207035	0.278907	0.279857	37.6313	0.450246	68.5944	0.559302	84.6788	0.838687	121.219	0.141453	21.202	0.419636	56.5208	0.69893	103.973	0.900102	129.891
0.279907	35.224	0.0026125	0.312697	0.27995	33.4528	0.450327	60.079	0.559388	74.2221	0.838734	106.839	0.141953	18.6698	0.419735	50.2307	0.698977	91.3225	0.900143	114.502
0.280006	31.5387	0.00321386	0.34608	0.280054	30.1126	0.450419	53.4478	0.559485	66.0676	0.838786	95.5104	0.142515	16.6975	0.419846	45.2038	0.699031	81.4186	0.90019	102.375
0.280115	28.5545	0.00387302	0.379033	0.280169	27.3818	0.450522	48.138	0.559594	59.5308	0.838845	86.3556	0.143136	15.1198	0.419969	41.0947	0.69909	73.4544	0.900242	92.5722
0.280236	26.089	0.00458827	0.41151	0.280294	25.1079	0.450635	43.7907	0.559714	54.1741	0.838909	78.8038	0.143815	13.8304	0.420103	37.6733	0.699155	66.9111	0.9003	84.484
0.280367	24.018	0.00535813	0.443497	0.280431	23.1851	0.45076	40.1662	0.559845	49.7046	0.838979	72.468	0.144551	12.758	0.42025	34.7804	0.699227	61.4396	0.900362	77.6968
0.28051	22.254	0.00618082	0.474965	0.280578	21.5382	0.450895	37.0983	0.559988	45.9189	0.839055	67.0765	0.145342	11.8532	0.420407	32.3027	0.699305	56.7967	0.90043	71.9202
0.280663	20.7336	0.0070546	0.50589	0.280736	20.1119	0.451041	34.4681	0.560142	42.6714	0.839137	62.4329	0.146186	11.0801	0.420577	30.1568	0.699388	52.8075	0.900503	66.9443
0.280827	19.4098	0.00797787	0.536269	0.280905	18.8649	0.451197	32.1882	0.560307	39.8552	0.839224	58.3917	0.146964	10.4934	0.420758	28.2805	0.699478	49.3431	0.900582	62.6133
0.281003	18.2469	0.00894866	0.566073	0.281085	17.7654	0.451364	30.1933	0.560483	37.3899	0.839318	54.843	0.147658	10.0464	0.420951	26.6261	0.699574	46.3064	0.900665	58.8096
0.281188	17.2173	0.00996537	0.595302	0.281276	16.7888	0.451542	28.4331	0.56067	35.2137	0.839417	51.7019	0.148251	9.70873	0.421155	25.1565	0.699676	43.6229	0.900754	55.4425
0.281385	16.2995	0.0110261	0.623943	0.281478	15.9158	0.451731	26.8687	0.560869	33.2788	0.839522	48.9021	0.148734	9.45995	0.421371	23.8425	0.699784	41.2344	0.900848	52.441
0.281593	15.4763	0.0121293	0.651995	0.28169	15.1307	0.45193	25.4691	0.561079	31.5473	0.839633	46.3909	0.149095	9.28642	0.421599	22.6608	0.699899	39.0948	0.900948	49.7486
0.281811	14.7338	0.0132731	0.679448	0.281914	14.421	0.452139	24.2098	0.5613	29.9888	0.83975	44.1259	0.14933	9.17927	0.421838	21.5923	0.700019	37.1673	0.901052	47.3199
0.282041	14.0609	0.0144557	0.706302	0.282148	13.7764	0.45236	23.0706	0.561532	28.5786	0.839873	42.0726	0.149671	9.03032	0.422089	20.6217	0.700145	35.4217	0.901162	45.1181
0.282281	13.4482	0.0156758	0.732564	0.282393	13.1884	0.452591	22.0353	0.561776	27.2966	0.840002	40.2027	0.150048	8.87487	0.422351	19.7361	0.700278	33.8337	0.901277	43.1128
0.282531	12.8881	0.0169315	0.758232	0.282649	12.6499	0.452833	21.0904	0.56203	26.1262	0.840136	38.4927	0.150569	8.67354	0.422625	18.925	0.700417	32.3827	0.901397	41.2788
0.282793	12.3741	0.0182213	0.783312	0.282915	12.155	0.453085	20.2246	0.562296	25.0535	0.840276	36.9229	0.151243	8.4343	0.42291	18.1793	0.700561	31.0518	0.901523	39.5952
0.283065	11.9009	0.0195438	0.807808	0.283192	11.6986	0.453348	19.4283	0.562573	24.0668	0.840422	35.4769	0.152079	8.16578	0.423207	17.4915	0.700712	29.8267	0.901653	38.0441
0.283348	11.4637	0.0208974	0.831727	0.28348	11.2765	0.453621	18.6936	0.562861	23.1561	0.840574	34.1406	0.15309	7.87665	0.423515	16.8552	0.700869	28.6954	0.901789	36.6107
0.283642	11.0587	0.0222808	0.85508	0.283779	10.885	0.453905	18.0137	0.563159	22.3132	0.840732	32.902	0.154287	7.5751	0.423834	16.2648	0.701032	27.6474	0.90193	35.2819
0.283947	10.6826	0.0236926	0.877871	0.284088	10.5208	0.454199	17.3826	0.563469	21.5306	0.840896	31.7507	0.155522	7.30174	0.424165	15.7156	0.701201	26.674	0.902077	34.0467
0.284262	10.3323	0.0251314	0.900111	0.284366	10.2237	0.454504	16.7954	0.56379	20.8023	0.841065	30.6779	0.156794	7.05293	0.424508	15.2035	0.701376	25.7674	0.902228	32.8957
0.284588	10.0053	0.0265962	0.921815	0.28461	9.98405	0.45482	16.2477	0.564122	20.1228	0.841241	29.6758	0.158101	6.82566	0.424861	14.7248	0.701557	24.921	0.902385	31.8204
0.284924	9.69939	0.0280856	0.942986	0.284816	9.79463	0.455145	15.7356	0.564465	19.4874	0.841422	28.7376	0.159441	6.61737	0.425226	14.2765	0.701744	24.1291	0.902547	30.8138
0.285271	9.41266	0.0295986	0.963638	0.284981	9.65014	0.455482	15.2558	0.564819	18.8919	0.841609	27.8576	0.160814	6.42586	0.425603	13.8557	0.701937	23.3865	0.902714	29.8694
0.285629	9.14338	0.031134	0.983786	0.285105	9.54675	0.455828	14.8054	0.565183	18.3328	0.841802	27.0304	0.162218	6.24929	0.42599	13.46	0.702136	22.6888	0.902887	28.9816
0.285997	8.89002	0.0326908	1.00344	0.285184	9.4818	0.456185	14.3818	0.565559	17.8068	0.842	26.2514	0.16365	6.08604	0.426389	13.0874	0.702342	22.0322	0.903065	28.1456
0.286376	8.65125	0.0342679	1.0226	0.2853	9.39007	0.456553	13.9827	0.565945	17.3112	0.842204	25.5165	0.165111	5.93474	0.426799	12.7357	0.702553	21.413	0.903247	27.3569
0.286765	8.42585	0.0358646	1.0413	0.285427	9.29247	0.45693	13.606	0.566342	16.8433	0.842415	24.8222	0.166599	5.79417	0.42722	12.4035	0.70277	20.8281	0.903435	26.6117
0.287165	8.21277	0.0374798	1.05953	0.285601	9.16316	0.457318	13.2499	0.56675	16.401	0.842631	24.1652	0.168112	5.66329	0.427653	12.089	0.702994	20.2749	0.903629	25.9064
0.287575	8.01105	0.0391128	1.07732	0.285826	9.00501	0.457717	12.9129	0.567168	15.9822	0.842852	23.5425	0.16965	5.54118	0.428096	11.791	0.703223	19.7508	0.903827	25.238
0.287996	7.81981	0.0407627	1.09467	0.286102	8.82137	0.458125	12.5934	0.567598	15.5851	0.84308	22.9516	0.171211	5.42702	0.428551	11.5082	0.703459	19.2536	0.904031	24.6036
0.288427	7.63829	0.0424286	1.1116	0.286434	8.61592	0.458544	12.2902	0.568038	15.2081	0.843313	22.39	0.172795	5.32009	0.429017	11.2395	0.7037	18.7813	0.90424	24.0007
0.288869	7.46577	0.04411	1.12811	0.286825	8.39248	0.458973	12.002	0.568489	14.8498	0.843552	21.8557	0.1744	5.21977	0.429493	10.9839	0.703948	18.332	0.904454	23.427
0.289321	7.30164	0.045806	1.14422	0.287227	8.1812	0.459412	11.7277	0.56895	14.5087	0.843797	21.3468	0.176025	5.12548	0.429981	10.7405	0.704201	17.9042	0.904673	22.8805
0.289783	7.1453	0.047516	1.15994	0.287639	7.98113	0.459862	11.4665	0.569422	14.1838	0.844048	20.8614	0.177669	5.03673	0.43048	10.5084	0.704461	17.4964	0.904897	22.3593
0.290256	6.99623	0.0492395	1.17529	0.288061	7.79143	0.460321	11.2173	0.569904	13.8738	0.844305	20.398	0.179332	4.95306	0.430923	10.3147	0.704726	17.1071	0.905127	21.8617
0.290739	6.85395	0.0509758	1.19026	0.288494	7.61133	0.460791	10.9795	0.570397	13.5778	0.844567	19.9552	0.181013	4.87406	0.431308	10.1557	0.704998	16.7352	0.905362	21.3861
0.291232	6.71803	0.0527242	1.20487	0.288937	7.44013	0.46127	10.7522	0.570901	13.295	0.844835	19.5316	0.182711	4.79938	0.43163	10.0282	0.705275	16.3795	0.905602	20.9311
0.291736	6.58806	0.0544843	1.21914	0.289391	7.27723	0.46176	10.5348	0.571415	13.0244	0.845109	19.1259	0.184426	4.72868	0.431888	9.92975	0.705559	16.0391	0.905847	20.4954
0.29225	6.46367	0.0562556	1.23307	0.289855	7.12203	0.462195	10.353	0.571939	12.7652	0.845388	18.7372	0.186155	4.66167	0.432079	9.85873	0.705848	15.7128	0.906097	20.0779
0.292774	6.34453	0.0580376	1.24667	0.290329	6.97403	0.462571	10.2032	0.572473	12.5169	0.845673	18.3643	0.1879	4.59808	0.432203	9.81385	0.706144	15.4	0.906353	19.6773
0.293309	6.23031	0.0598297	1.25995	0.290814	6.83276	0.462887	10.0829	0.573018	12.2787	0.845964	18.0063	0.189659	4.53766	0.432381	9.75012	0.706445	15.0998	0.906613	19.2927
0.293853	6.12075	0.0616316	1.27292	0.291309	6.69777	0.463139	9.98993	0.573574	12.05	0.846261	17.6623	0.191431	4.4802	0.432575	9.68186	0.706753	14.8114	0.906879	18.9232
0.294408	6.01556	0.063443	1.28559	0.291814	6.56867	0.463326	9.92274	0.574139	11.8303	0.846563	17.3316	0.193217	4.42549	0.432842	9.5907	0.707066	14.5342	0.90715	18.5678
0.294973	5.91451	0.0652632	1.29797	0.29233	6.44511	0.463446	9.88026	0.574715	11.6191	0.846872	17.0134	0.195015	4.37334	0.433184	9.47807	0.707385	14.2675	0.907426	18.2259
0.295548	5.81736	0.0670919	1.31006	0.292855	6.32674	0.46362	9.81988	0.575301	11.4159	0.847185	16.707	0.196825	4.32359	0.433602	9.3457	0.707711	14.0108	0.907707	17.8967
0.296133	5.7239	0.0689289	1.32188	0.293391	6.21326	0.46381	9.75515	0.575897	11.2203	0.847505	16.4118	0.198646	4.27609	0.434101	9.19552	0.708042	13.7635	0.907994	17.5794
0.296728	5.63394	0.0707737	1.33344	0.293937	6.10438	0.464071	9.6686	0.576503	11.0319	0.84783	16.1271	0.200478	4.23068	0.434682	9.02964	0.708379	13.5251	0.908285	17.2734
0.297333	5.5473	0.072626	1.34473	0.294494	5.99984	0.464404	9.56153	0.577119	10.8502	0.848161	15.8524	0.202321	4.18725	0.435275	8.87027	0.708722	13.2951	0.908582	16.9783
0.297948	5.4638	0.0744856	1.35577	0.29506	5.89939	0.464811	9.43547	0.577746	10.675	0.848498	15.5873	0.204174	4.14566	0.435878	8.71705	0.709071	13.0732	0.908883	16.6933
0.298573	5.38329	0.076352	1.36657	0.295636	5.80283	0.465296	9.29216	0.5783	10.5273	0.84884	15.3312	0.206037	4.10581	0.436492	8.56965	0.709426	12.8588	0.90919	16.418
0.299208	5.30561	0.0782252	1.37713	0.296223	5.70992	0.465862	9.13352	0.578778	10.4049	0.849188	15.0837	0.207909	4.0676	0.437116	8.42774	0.709787	12.6517	0.909502	16.1518
0.299853	5.23063	0.0801046	1.38746	0.296819	5.62048	0.466437	8.98076	0.579177	10.3061	0.849542	14.8443	0.209791	4.03093	0.43775	8.29104	0.710154	12.4515	0.909819	15.8945
0.300507	5.15822	0.0819901	1.39757	0.297426	5.53433	0.467023	8.83356	0.579496	10.2293	0.849902	14.6127	0.21168	3.9957	0.438396	8.15928	0.710526	12.2578	0.910142	15.6455
0.301172	5.08826	0.0838815	1.40746	0.298043	5.45129	0.467617	8.69164	0.579731	10.1737	0.850267	14.3885	0.213578	3.96185	0.439051	8.0322	0.710905	12.0703	0.910469	15.4044
0.301847	5.02062	0.0857785	1.41713	0.298669	5.37122	0.468222	8.55473	0.579883	10.1385	0.850637	14.1713	0.215484	3.9293	0.439717	7.90956	0.711289	11.8887	0.910802	15.1708
0.302531	4.95522	0.0876809	1.4266	0.299306	5.29397	0.468836	8.42257	0.580102	10.0883	0.851014	13.9609	0.217398	3.89797	0.440393	7.79115	0.71168	11.7129	0.911139	14.9445
0.303225	4.89193	0.0895884	1.43587	0.299952	5.21939	0.469459	8.29493	0.58034	10.0344	0.851396	13.7569	0.219318	3.8678	0.441079	7.67676	0.712076	11.5424	0.911482	14.7251
0.303929	4.83068	0.091501	1.44495	0.300609	5.14736	0.470092	8.1716	0.580667	9.96214	0.851783	13.559	0.221246	3.83872	0.441776	7.56619	0.712478	11.3771	0.91183	14.5123
0.304551	4.77889	0.0934183	1.45384	0.301275	5.07776	0.470735	8.05236	0.581084	9.87235	0.852177	13.367	0.223181	3.81069	0.442483	7.45927	0.712886	11.2167	0.912182	14.3058
0.305086	4.73586	0.0953402	1.46254	0.301951	5.01047	0.471387	7.93701	0.581593	9.76616	0.852575	13.1807	0.225122	3.78365	0.4432	7.35582	0.7133	11.0611	0.91254	14.1053
0.305533	4.70103	0.0972665	1.47106	0.302637	4.9454	0.472048	7.82539	0.582197	9.6448	0.85298	12.9997	0.22707	3.75754	0.443927	7.25569	0.713719	10.91	0.912903	13.9106
0.305889	4.67397	0.0991971	1.47942	0.303332	4.88243	0.472719	7.71731	0.582899	9.50965	0.85339	12.8238	0.229024	3.73233	0.444664	7.15873	0.71409	10.7818	0.913271	13.7214
0.306153	4.65432	0.101132	1.4876	0.304038	4.82148	0.473399	7.61262	0.58361	9.3787	0.853806	12.6529	0.230983	3.70796	0.445411	7.06479	0.714409	10.6751	0.913644	13.5375
0.306322	4.64187	0.10307	1.49562	0.304753	4.76246	0.474089	7.51117	0.584331	9.25177	0.854227	12.4868	0.232949	3.6844	0.446168	6.97374	0.714675	10.5885	0.914023	13.3587
0.306566	4.62411	0.105013	1.50348	0.305478	4.70528	0.474787	7.41282	0.585062	9.12867	0.854654	12.3251	0.234919	3.66161	0.446935	6.88546	0.714888	10.5211	0.914406	13.1848
0.306832	4.60502	0.106959	1.51118	0.306213	4.64987	0.475495	7.31743	0.585802	9.00925	0.855086	12.1679	0.236895	3.63956	0.447712	6.79982	0.715044	10.4721	0.914794	13.0155
0.307196	4.57938	0.108908	1.51873	0.306957	4.59615	0.476212	7.22487	0.586552	8.89335	0.855524	12.0148	0.238876	3.6182	0.448499	6.71673	0.715145	10.441	0.915188	12.8508
0.30766	4.5475	0.110861	1.52613	0.307711	4.54405	0.476938	7.13503	0.587311	8.78082	0.855968	11.8658	0.240862	3.59751	0.449295	6.63606	0.715291	10.3967	0.915586	12.6903
0.308226	4.50973	0.112817	1.53339	0.308475	4.4935	0.477673	7.0478	0.588079	8.67151	0.856417	11.7206	0.242853	3.57746	0.450102	6.55773	0.71545	10.349	0.915989	12.5341
0.308897	4.46649	0.114776	1.54051	0.309249	4.44445	0.478417	6.96306	0.588857	8.56531	0.856872	11.5792	0.244848	3.55802	0.450918	6.48163	0.715667	10.2848	0.916398	12.3818
0.309676	4.41823	0.116486	1.54661	0.310032	4.39683	0.479171	6.88072	0.589644	8.46207	0.857332	11.4414	0.246847	3.53916	0.451743	6.40768	0.715943	10.2048	0.916811	12.2334
0.310464	4.37137	0.117945	1.55172	0.310824	4.35058	0.479933	6.80068	0.59044	8.3617	0.857798	11.307	0.248851	3.52086	0.452578	6.3358	0.716281	10.1099	0.91723	12.0887
0.311262	4.32585	0.119153	1.5559	0.311627	4.30566	0.480704	6.72285	0.591245	8.26406	0.858269	11.176	0.250859	3.50309	0.453423	6.2659	0.716681	10.0009	0.917653	11.9476
0.31207	4.28163	0.120109	1.55916	0.312438	4.26202	0.481484	6.64714	0.592059	8.16906	0.858684	11.0644	0.252871	3.48583	0.454277	6.19791	0.717145	9.87897	0.918082	11.8099
0.312887	4.23866	0.120812	1.56155	0.31326	4.21959	0.482272	6.57348	0.592883	8.0766	0.859041	10.9712	0.254886	3.46906	0.455141	6.13175	0.717615	9.76018	0.918515	11.6755
0.313713	4.19689	0.121262	1.56306	0.314091	4.17835	0.48307	6.50178	0.593715	7.98657	0.859339	10.8953	0.256906	3.45276	0.456014	6.06735	0.718091	9.64444	0.918954	11.5444
0.31455	4.15627	0.121909	1.56523	0.314932	4.13824	0.483876	6.43198	0.594557	7.89889	0.859576	10.8362	0.258929	3.43691	0.456897	6.00466	0.718573	9.53164	0.919397	11.4163
0.315395	4.11677	0.122613	1.56757	0.315782	4.09923	0.484691	6.36399	0.595407	7.81348	0.859751	10.7931	0.260955	3.42149	0.457788	5.9436	0.71906	9.42167	0.919846	11.2913
0.316251	4.07833	0.123571	1.57073	0.316641	4.06127	0.485515	6.29777	0.596267	7.73024	0.859863	10.7657	0.262985	3.40649	0.458689	5.88412	0.719553	9.31442	0.920241	11.1846
0.317116	4.04094	0.124784	1.57469	0.317511	4.02433	0.486347	6.23323	0.597135	7.6491	0.860025	10.7266	0.265018	3.39189	0.4596	5.82617	0.720052	9.2098	0.92058	11.0954
0.31799	4.00454	0.126251	1.57941	0.318389	3.98836	0.487188	6.17032	0.598012	7.56999	0.860202	10.6845	0.267054	3.37767	0.460519	5.76968	0.720557	9.10772	0.920863	11.0228
0.318874	3.9691	0.127974	1.58487	0.319278	3.95335	0.488037	6.10899	0.598897	7.49283	0.860443	10.6278	0.269093	3.36382	0.461448	5.71461	0.721067	9.00809	0.921088	10.9661
0.319767	3.93459	0.129954	1.59103	0.320175	3.91925	0.488895	6.04918	0.599791	7.41755	0.860751	10.5569	0.271135	3.35033	0.462386	5.6609	0.721583	8.91082	0.921254	10.9248
0.320671	3.90098	0.131936	1.59707	0.321083	3.88604	0.489761	5.99084	0.600694	7.3441	0.861125	10.4726	0.27318	3.33718	0.463332	5.60852	0.722105	8.81583	0.921361	10.8985
0.321583	3.86824	0.13392	1.60301	0.322	3.85368	0.490636	5.93391	0.601606	7.27241	0.861568	10.3756	0.275227	3.32435	0.464288	5.55741	0.722632	8.72305	0.921515	10.861
0.322505	3.83634	0.135906	1.60884	0.322926	3.82215	0.491519	5.87835	0.602526	7.20241	0.862081	10.2665	0.277277	3.31185	0.465253	5.50754	0.723166	8.6324	0.921683	10.8206
0.323437	3.80525	0.137894	1.61457	0.323862	3.79142	0.49241	5.82411	0.603454	7.13405	0.8626	10.16	0.27933	3.29965	0.466226	5.45885	0.723704	8.54381	0.921912	10.7661
0.324378	3.77494	0.139884	1.62019	0.324808	3.76146	0.493309	5.77115	0.604391	7.06729	0.863125	10.0558	0.281385	3.28774	0.467209	5.41133	0.724249	8.45721	0.922203	10.698
0.325329	3.7454	0.141876	1.62572	0.325763	3.73226	0.494217	5.71943	0.605337	7.00206	0.863654	9.95395	0.283443	3.27612	0.4682	5.36491	0.724799	8.37255	0.922558	10.6168
0.326289	3.71659	0.143869	1.63115	0.326728	3.70378	0.495133	5.66891	0.60629	6.93831	0.86419	9.8543	0.285503	3.26477	0.4692	5.31958	0.725355	8.28975	0.922978	10.5234
0.32726	3.68849	0.145865	1.63649	0.327702	3.676	0.496057	5.61954	0.607252	6.87601	0.86473	9.75681	0.287565	3.25369	0.470208	5.27529	0.725916	8.20876	0.923465	10.4182
0.328239	3.66109	0.147862	1.64173	0.328686	3.6489	0.496988	5.57129	0.608222	6.8151	0.865276	9.6614	0.28963	3.24286	0.471226	5.23202	0.726483	8.12952	0.923957	10.3154
0.329229	3.63436	0.14986	1.64689	0.32968	3.62246	0.497928	5.52413	0.609201	6.75553	0.865828	9.56802	0.291696	3.23228	0.472252	5.18972	0.727056	8.05198	0.924453	10.2146
0.330228	3.60828	0.151861	1.65196	0.330683	3.59667	0.498876	5.47803	0.610187	6.69728	0.866384	9.47661	0.293765	3.22194	0.473286	5.14838	0.727634	7.97608	0.924955	10.116
0.331236	3.58283	0.153862	1.65694	0.331697	3.5715	0.499832	5.43294	0.611182	6.64029	0.866947	9.38709	0.295835	3.21182	0.474329	5.10795	0.728218	7.90178	0.925461	10.0195
0.332255	3.55799	0.155865	1.66183	0.33272	3.54693	0.500796	5.38884	0.612184	6.58453	0.867514	9.29942	0.297907	3.20194	0.475381	5.06842	0.728807	7.82903	0.925972	9.92491
0.333283	3.53374	0.15787	1.66665	0.333752	3.52295	0.501768	5.34571	0.613195	6.52996	0.868087	9.21354	0.299982	3.19226	0.47644	5.02976	0.729402	7.75778	0.926488	9.83225
0.334322	3.51008	0.159876	1.67139	0.334795	3.49954	0.502747	5.3035	0.614213	6.47655	0.868665	9.1294	0.302058	3.1828	0.477509	4.99194	0.730003	7.68798	0.927009	9.74146
0.33537	3.48697	0.161883	1.67605	0.335848	3.47668	0.503734	5.26219	0.615239	6.42426	0.869249	9.04695	0.304135	3.17353	0.478585	4.95493	0.730609	7.6196	0.927535	9.65248
0.336428	3.46441	0.163891	1.68063	0.33691	3.45437	0.504729	5.22176	0.616274	6.37305	0.869838	8.96614	0.306215	3.16447	0.47967	4.91872	0.731221	7.55259	0.928066	9.56526
0.337496	3.44238	0.165901	1.68514	0.337983	3.43258	0.505732	5.18218	0.617315	6.32291	0.870432	8.88691	0.308296	3.15559	0.480763	4.88327	0.731838	7.48692	0.928601	9.47975
0.338574	3.42087	0.167912	1.68957	0.339066	3.41129	0.506742	5.14343	0.618365	6.27379	0.871031	8.80924	0.310378	3.14689	0.481865	4.84857	0.732461	7.42254	0.929142	9.3959
0.339662	3.39986	0.169924	1.69393	0.340159	3.39051	0.50776	5.10548	0.619422	6.22567	0.871636	8.73306	0.312462	3.13838	0.482974	4.8146	0.733089	7.35943	0.929687	9.31366
0.340761	3.37934	0.171937	1.69823	0.341262	3.37021	0.508785	5.06831	0.620487	6.17851	0.872246	8.65835	0.314547	3.13003	0.484092	4.78133	0.733723	7.29753	0.930237	9.233
0.34187	3.3593	0.173951	1.70245	0.342376	3.35038	0.509817	5.03189	0.62156	6.1323	0.872862	8.58506	0.316634	3.12185	0.485217	4.74875	0.734362	7.23683	0.930792	9.15386
0.342989	3.33972	0.175966	1.70661	0.3435	3.331	0.510858	4.99621	0.62264	6.087	0.873482	8.51315	0.318722	3.11384	0.486351	4.71684	0.735007	7.17729	0.931352	9.0762
0.344119	3.3206	0.177981	1.7107	0.344634	3.31208	0.511905	4.96125	0.623728	6.0426	0.874108	8.44259	0.320812	3.10598	0.487492	4.68557	0.735657	7.11887	0.931916	8.99998
0.345259	3.30192	0.179998	1.71473	0.345779	3.2936	0.51296	4.92698	0.624823	5.99906	0.874739	8.37334	0.322902	3.09827	0.488642	4.65493	0.736313	7.06155	0.932486	8.92518
0.34641	3.28367	0.182016	1.7187	0.346935	3.27554	0.514022	4.89339	0.625925	5.95636	0.875375	8.30536	0.324994	3.09071	0.489799	4.62491	0.736974	7.00529	0.93306	8.85174
0.347572	3.26584	0.184035	1.72261	0.348102	3.2579	0.515091	4.86046	0.627035	5.91448	0.876017	8.23862	0.327087	3.0833	0.490964	4.59548	0.73764	6.95008	0.933639	8.77963
0.348745	3.24842	0.186054	1.72645	0.349279	3.24066	0.516168	4.82818	0.628152	5.8734	0.876664	8.17308	0.329182	3.07602	0.492137	4.56664	0.738312	6.89588	0.934223	8.70882
0.349928	3.2314	0.188074	1.73024	0.350468	3.22382	0.517252	4.79651	0.629276	5.8331	0.877316	8.10873	0.331277	3.06889	0.493318	4.53836	0.73899	6.84266	0.934811	8.63927
0.351123	3.21478	0.190095	1.73397	0.351668	3.20737	0.518342	4.76545	0.630407	5.79355	0.877973	8.04552	0.333373	3.06188	0.494506	4.51063	0.739673	6.7904	0.935405	8.57095
0.35233	3.19854	0.192117	1.73764	0.35288	3.19131	0.51944	4.73499	0.631546	5.75474	0.878635	7.98343	0.33547	3.055	0.495702	4.48343	0.740361	6.73908	0.936003	8.50384
0.353548	3.18267	0.194139	1.74126	0.354103	3.17561	0.520545	4.7051	0.632691	5.71664	0.879303	7.92243	0.337568	3.04824	0.496906	4.45676	0.741055	6.68867	0.936606	8.43789
0.354777	3.16718	0.196162	1.74483	0.355338	3.16028	0.521657	4.67577	0.633844	5.67925	0.879976	7.86249	0.339668	3.04161	0.498117	4.4306	0.741754	6.63915	0.937213	8.37308
0.356019	3.15204	0.198186	1.74834	0.356585	3.1453	0.522776	4.64699	0.635004	5.64254	0.880654	7.80358	0.341768	3.03509	0.499336	4.40494	0.742458	6.59049	0.937826	8.30939
0.357272	3.13726	0.20021	1.7518	0.357844	3.13068	0.523901	4.61875	0.63617	5.60649	0.881337	7.74569	0.343868	3.02869	0.500562	4.37976	0.743168	6.54268	0.938443	8.24678
0.358538	3.12283	0.202235	1.75521	0.359115	3.1164	0.525034	4.59102	0.637344	5.57108	0.882025	7.68878	0.34597	3.0224	0.501796	4.35505	0.743883	6.4957	0.939065	8.18523
0.359816	3.10873	0.204261	1.75857	0.360399	3.10246	0.526173	4.5638	0.638524	5.53631	0.882718	7.63283	0.348072	3.01621	0.503037	4.3308	0.744604	6.44952	0.939691	8.12471
0.361106	3.09497	0.206287	1.76188	0.361695	3.08884	0.527319	4.53708	0.639711	5.50216	0.883416	7.57782	0.350176	3.01013	0.504285	4.307	0.74533	6.40413	0.940323	8.0652
0.36241	3.08153	0.208313	1.76514	0.363005	3.07556	0.528472	4.51083	0.640905	5.4686	0.88412	7.52372	0.352279	3.00416	0.505541	4.28364	0.746061	6.3595	0.940959	8.00667
0.363727	3.06842	0.21034	1.76835	0.364328	3.06259	0.529631	4.48506	0.642106	5.43564	0.884828	7.47052	0.354384	2.99828	0.506804	4.2607	0.746797	6.31562	0.941599	7.9491
0.365057	3.05563	0.212368	1.77152	0.365664	3.04993	0.530797	4.45975	0.643313	5.40324	0.885542	7.41819	0.356489	2.9925	0.508074	4.23819	0.747539	6.27247	0.942244	7.89247
0.366401	3.04314	0.214396	1.77465	0.367014	3.03759	0.53197	4.43488	0.644527	5.3714	0.886261	7.36672	0.358595	2.98682	0.509351	4.21607	0.748286	6.23003	0.942894	7.83675
0.367758	3.03096	0.216424	1.77773	0.368378	3.02555	0.533149	4.41046	0.645747	5.34011	0.886984	7.31608	0.360701	2.98123	0.510636	4.19436	0.749038	6.18829	0.943549	7.78193
0.36913	3.01909	0.218453	1.78077	0.369756	3.0138	0.534334	4.38646	0.646974	5.30935	0.887713	7.26625	0.362808	2.97573	0.511927	4.17303	0.749796	6.14723	0.944208	7.72799
0.370516	3.00751	0.220482	1.78376	0.371149	3.00236	0.535526	4.36287	0.648207	5.27911	0.888447	7.21721	0.364915	2.97031	0.513226	4.15208	0.750559	6.10684	0.944872	7.6749
0.371917	2.99622	0.222512	1.78671	0.372557	2.9912	0.536725	4.33969	0.649447	5.24937	0.889186	7.16896	0.367023	2.96498	0.514531	4.1315	0.751327	6.0671	0.945541	7.62264
0.373333	2.98522	0.224542	1.78962	0.37398	2.98033	0.537929	4.31692	0.650694	5.22013	0.88993	7.12146	0.369131	2.95974	0.515844	4.11129	0.7521	6.02799	0.946214	7.5712
0.374765	2.97451	0.226572	1.7925	0.375418	2.96975	0.53914	4.29452	0.651946	5.19138	0.890679	7.07471	0.37124	2.95457	0.517164	4.09142	0.752879	5.9895	0.946892	7.52056
0.376212	2.96407	0.228603	1.79533	0.376873	2.95944	0.540358	4.27251	0.653205	5.1631	0.891433	7.02868	0.373349	2.94949	0.51849	4.0719	0.753663	5.95162	0.947574	7.4707
0.377675	2.95392	0.230634	1.79812	0.378343	2.94941	0.541581	4.25087	0.65447	5.13528	0.892191	6.98336	0.375458	2.94448	0.519823	4.05272	0.754451	5.91434	0.948262	7.4216
0.379154	2.94404	0.232665	1.80088	0.37983	2.93965	0.542811	4.22959	0.655741	5.10791	0.892955	6.93874	0.377568	2.93955	0.521163	4.03387	0.755246	5.87764	0.948953	7.37325
0.38065	2.93442	0.234697	1.8036	0.381334	2.93016	0.544047	4.20867	0.657019	5.08099	0.893724	6.8948	0.379678	2.93469	0.52251	4.01534	0.756045	5.8415	0.949649	7.32563
0.382164	2.92508	0.236729	1.80628	0.382855	2.92093	0.545288	4.18809	0.658302	5.0545	0.894498	6.85152	0.381788	2.9299	0.523864	3.99712	0.756849	5.80592	0.95035	7.27872
0.383694	2.916	0.238761	1.80892	0.384393	2.91197	0.546536	4.16785	0.659592	5.02843	0.895276	6.80889	0.383899	2.92518	0.525224	3.97921	0.757659	5.77089	0.951056	7.23251
0.385242	2.90718	0.240793	1.81153	0.385949	2.90327	0.54779	4.14794	0.660887	5.00277	0.89606	6.7669	0.386009	2.92053	0.526591	3.9616	0.758474	5.73638	0.951766	7.18699
0.386808	2.89862	0.242826	1.81411	0.387523	2.89482	0.54905	4.12836	0.662189	4.97752	0.896848	6.72553	0.38812	2.91595	0.527965	3.94429	0.759293	5.7024	0.95248	7.14214
0.388392	2.89031	0.244859	1.81665	0.389116	2.88663	0.550316	4.10909	0.663496	4.95266	0.897642	6.68478	0.390231	2.91143	0.529345	3.92727	0.760118	5.66893	0.953199	7.09794
0.389995	2.88225	0.246892	1.81916	0.390727	2.87868	0.551588	4.09013	0.66481	4.92819	0.89844	6.64462	0.392343	2.90697	0.530732	3.91053	0.760948	5.63596	0.953923	7.05438
0.391616	2.87444	0.248925	1.82163	0.392357	2.87098	0.552865	4.07147	0.666129	4.9041	0.899243	6.60505	0.394454	2.90258	0.532125	3.89406	0.761784	5.60348	0.954651	7.01146
0.393257	2.86688	0.250958	1.82408	0.394006	2.86353	0.554149	4.05312	0.667454	4.88038	0.900051	6.56605	0.396566	2.89825	0.533525	3.87786	0.762624	5.57148	0.955383	6.96915
0.394916	2.85955	0.252992	1.82649	0.395675	2.85631	0.555438	4.03505	0.668785	4.85702	0.900864	6.52761	0.398677	2.89397	0.534931	3.86193	0.763469	5.53994	0.95612	6.92745
0.396596	2.85247	0.255025	1.82887	0.397363	2.84934	0.556733	4.01726	0.670121	4.83402	0.901682	6.48972	0.400789	2.88976	0.536344	3.84626	0.764319	5.50887	0.956862	6.88633
0.398294	2.84562	0.257059	1.83122	0.39907	2.84259	0.558033	3.99976	0.671463	4.81136	0.902504	6.45238	0.4029	2.8856	0.537763	3.83084	0.765175	5.47825	0.957608	6.8458
0.400013	2.839	0.259093	1.83354	0.400798	2.83607	0.559339	3.98252	0.672811	4.78905	0.903332	6.41556	0.405012	2.88149	0.539188	3.81567	0.766035	5.44807	0.958358	6.80583
0.401751	2.8326	0.261127	1.83583	0.402545	2.82978	0.560651	3.96556	0.674164	4.76707	0.904164	6.37926	0.407124	2.87744	0.54062	3.80074	0.766901	5.41832	0.959114	6.76643
0.403509	2.82643	0.263161	1.83809	0.404312	2.82371	0.561968	3.94885	0.675523	4.74541	0.905001	6.34346	0.409235	2.87345	0.542058	3.78605	0.767771	5.38899	0.959873	6.72756
0.405287	2.82048	0.265195	1.84032	0.4061	2.81786	0.563291	3.9324	0.676888	4.72408	0.905843	6.30817	0.411347	2.8695	0.543502	3.77159	0.768647	5.36009	0.960637	6.68924
0.407085	2.81474	0.26723	1.84253	0.407907	2.81221	0.56462	3.9162	0.678258	4.70306	0.906689	6.27336	0.413458	2.8656	0.544952	3.75736	0.769527	5.33159	0.961405	6.65143
0.408903	2.80922	0.269264	1.8447	0.409733	2.80678	0.565953	3.90025	0.679633	4.68234	0.90754	6.23903	0.415569	2.86176	0.546409	3.74336	0.770412	5.30349	0.962178	6.61415
0.410741	2.80389	0.271299	1.84685	0.41158	2.80155	0.567292	3.88454	0.681014	4.66193	0.908396	6.20517	0.417681	2.85796	0.547871	3.72957	0.771303	5.27578	0.962955	6.57736
0.412598	2.79877	0.273333	1.84898	0.413446	2.79651	0.568637	3.86906	0.6824	4.64181	0.909257	6.17177	0.419792	2.85421	0.54934	3.716	0.772198	5.24845	0.963737	6.54108
0.414475	2.79384	0.275368	1.85107	0.415331	2.79167	0.569987	3.85381	0.683791	4.62199	0.910123	6.13882	0.421902	2.8505	0.550815	3.70264	0.773098	5.22151	0.964523	6.50527
0.416371	2.78911	0.277402	1.85314	0.417236	2.78702	0.571342	3.83879	0.685187	4.60244	0.910993	6.10632	0.424013	2.84684	0.552296	3.68949	0.774004	5.19493	0.965313	6.46995
0.418285	2.78455	0.279437	1.85519	0.419159	2.78255	0.572702	3.824	0.686589	4.58317	0.911868	6.07425	0.426123	2.84323	0.553783	3.67654	0.774914	5.16872	0.966108	6.43509
0.420219	2.78018	0.281472	1.85721	0.4211	2.77826	0.574068	3.80942	0.687996	4.56418	0.912747	6.04261	0.428234	2.83965	0.555275	3.66379	0.775829	5.14286	0.966907	6.40069
0.42217	2.77598	0.283507	1.85921	0.42306	2.77413	0.575439	3.79505	0.689408	4.54545	0.913632	6.01138	0.430344	2.83612	0.556774	3.65123	0.776749	5.11735	0.96771	6.36674
0.42414	2.77195	0.285541	1.86118	0.425038	2.77018	0.576814	3.78089	0.690825	4.52699	0.914521	5.98057	0.432453	2.83263	0.558279	3.63887	0.777673	5.09219	0.968518	6.33323
0.426127	2.76808	0.287576	1.86313	0.427033	2.76638	0.578195	3.76694	0.692248	4.50878	0.915414	5.95016	0.434563	2.82918	0.559789	3.62669	0.778603	5.06736	0.96933	6.30016
0.428131	2.76437	0.289611	1.86505	0.429045	2.76274	0.579581	3.75319	0.693675	4.49082	0.916313	5.92014	0.436672	2.82577	0.561306	3.61469	0.779537	5.04286	0.970146	6.26751
0.430152	2.76081	0.291645	1.86695	0.431073	2.75925	0.580973	3.73963	0.695107	4.47311	0.917216	5.89052	0.43878	2.8224	0.562828	3.60288	0.780477	5.01869	0.970967	6.23528
0.432189	2.7574	0.29368	1.86883	0.433117	2.7559	0.582369	3.72627	0.696544	4.45565	0.918123	5.86128	0.440889	2.81907	0.564356	3.59124	0.781421	4.99484	0.971792	6.20347
0.434242	2.75412	0.295715	1.87069	0.435177	2.75268	0.58377	3.7131	0.697986	4.43842	0.919035	5.83241	0.442996	2.81577	0.565889	3.57977	0.78237	4.9713	0.972621	6.17205
0.43631	2.75098	0.297749	1.87252	0.437252	2.7496	0.585175	3.70011	0.699433	4.42143	0.919952	5.80391	0.445104	2.81251	0.567428	3.56848	0.783324	4.94807	0.973455	6.14104
0.438393	2.74797	0.299784	1.87433	0.439341	2.74665	0.586586	3.68731	0.700885	4.40466	0.920873	5.77577	0.447211	2.80929	0.568973	3.55735	0.784282	4.92514	0.974293	6.11041
0.44049	2.74509	0.301818	1.87613	0.441445	2.74382	0.588002	3.67469	0.702342	4.38812	0.921799	5.74799	0.449318	2.8061	0.570524	3.54639	0.785245	4.9025	0.975135	6.08016
0.442601	2.74232	0.303853	1.8779	0.443562	2.74111	0.589422	3.66224	0.703803	4.3718	0.92273	5.72056	0.451424	2.80294	0.572081	3.53559	0.786214	4.88016	0.975982	6.05029
0.444726	2.73967	0.305887	1.87965	0.445692	2.7385	0.590848	3.64997	0.705269	4.3557	0.923665	5.69347	0.45353	2.79982	0.573642	3.52494	0.787186	4.8581	0.976832	6.02079
0.446863	2.73712	0.307922	1.88138	0.447835	2.73601	0.592278	3.63786	0.70674	4.33981	0.924604	5.66672	0.455635	2.79673	0.57521	3.51446	0.788164	4.83633	0.977687	5.99165
0.449012	2.73468	0.309956	1.88309	0.44999	2.73361	0.593712	3.62593	0.708215	4.32413	0.925548	5.6403	0.45774	2.79368	0.576783	3.50412	0.789146	4.81483	0.978546	5.96287
0.451173	2.73234	0.31199	1.88478	0.452156	2.73131	0.595151	3.61415	0.709695	4.30866	0.926497	5.6142	0.459844	2.79065	0.578361	3.49393	0.790133	4.7936	0.97941	5.93444
0.453346	2.73009	0.314024	1.88645	0.454334	2.72911	0.596595	3.60254	0.711179	4.29339	0.92745	5.58843	0.461948	2.78766	0.579945	3.48389	0.791125	4.77264	0.980277	5.90635
0.45553	2.72794	0.316058	1.8881	0.456522	2.72699	0.598044	3.59108	0.712668	4.27831	0.928408	5.56296	0.464051	2.78469	0.581535	3.474	0.792122	4.75194	0.981149	5.8786
0.457724	2.72587	0.318092	1.88973	0.458721	2.72496	0.599497	3.57978	0.714162	4.26343	0.92937	5.53781	0.466154	2.78176	0.58313	3.46424	0.793123	4.7315	0.982025	5.85119
0.459928	2.72388	0.320126	1.89135	0.460929	2.72301	0.600955	3.56863	0.71566	4.24874	0.930336	5.51297	0.468256	2.77885	0.58473	3.45463	0.794129	4.71132	0.982905	5.8241
0.462141	2.72197	0.32216	1.89294	0.463147	2.72113	0.602417	3.55763	0.717162	4.23424	0.931307	5.48842	0.470358	2.77597	0.586335	3.44515	0.795139	4.69138	0.983789	5.79733
0.464364	2.72014	0.324194	1.89452	0.465374	2.71933	0.603884	3.54678	0.718669	4.21992	0.932283	5.46417	0.472458	2.77312	0.587946	3.43581	0.796154	4.67169	0.984677	5.77088
0.466596	2.71837	0.326227	1.89608	0.467609	2.7176	0.605355	3.53607	0.72018	4.20579	0.933262	5.4402	0.474559	2.7703	0.589562	3.42659	0.797174	4.65224	0.98557	5.74475
0.468836	2.71668	0.328261	1.89762	0.469853	2.71593	0.60683	3.5255	0.721696	4.19183	0.934247	5.41652	0.476658	2.7675	0.591184	3.41751	0.798198	4.63303	0.986466	5.71891
0.471084	2.71504	0.330294	1.89915	0.472105	2.71433	0.60831	3.51507	0.723216	4.17805	0.935236	5.39312	0.478757	2.76474	0.592811	3.40856	0.799227	4.61405	0.987367	5.69338
0.473339	2.71347	0.332327	1.90066	0.474364	2.71278	0.609795	3.50478	0.72474	4.16444	0.936229	5.37	0.480855	2.76199	0.594443	3.39973	0.800261	4.5953	0.988272	5.66815
0.475602	2.71196	0.33436	1.90215	0.47663	2.7113	0.611283	3.49462	0.726268	4.151	0.937226	5.34714	0.482953	2.75927	0.59608	3.39102	0.801299	4.57677	0.989181	5.64321
0.477872	2.71051	0.336393	1.90362	0.478903	2.70986	0.612776	3.48459	0.727801	4.13772	0.938228	5.32456	0.48505	2.75658	0.597722	3.38244	0.802342	4.55847	0.990094	5.61855
0.480149	2.7091	0.338426	1.90508	0.481182	2.70848	0.614273	3.4747	0.729337	4.12461	0.939234	5.30223	0.487146	2.75391	0.59937	3.37397	0.803389	4.54039	0.991011	5.59418
0.482432	2.70775	0.340459	1.90653	0.483468	2.70715	0.615774	3.46493	0.730878	4.11166	0.940245	5.28016	0.489241	2.75126	0.601022	3.36562	0.804441	4.52252	0.991932	5.57008
0.484721	2.70644	0.342491	1.90795	0.48576	2.70587	0.61728	3.45529	0.732423	4.09887	0.94126	5.25835	0.491336	2.74864	0.60268	3.35739	0.805498	4.50486	0.992857	5.54626
0.487016	2.70519	0.344524	1.90937	0.488058	2.70463	0.61879	3.44577	0.733972	4.08623	0.942279	5.23679	0.493429	2.74604	0.604343	3.34927	0.806559	4.48741	0.993786	5.52271
0.489317	2.70397	0.346556	1.91076	0.490361	2.70343	0.620303	3.43637	0.735525	4.07375	0.943303	5.21547	0.495522	2.74347	0.60601	3.34126	0.807624	4.47017	0.99472	5.49942
0.491622	2.7028	0.348588	1.91214	0.492669	2.70228	0.621821	3.42709	0.737082	4.06141	0.944331	5.1944	0.497615	2.74091	0.607683	3.33336	0.808694	4.45313	0.995657	5.47639
0.493933	2.70166	0.35062	1.91351	0.494982	2.70116	0.623343	3.41793	0.738642	4.04922	0.945363	5.17356	0.499706	2.73838	0.609361	3.32557	0.809769	4.43628	0.996598	5.45362
0.496249	2.70057	0.352652	1.91486	0.4973	2.70008	0.624869	3.40888	0.740207	4.03718	0.946399	5.15296	0.501797	2.73587	0.611044	3.31788	0.810848	4.41964	0.997543	5.43111
0.498569	2.69951	0.354683	1.9162	0.499622	2.69904	0.626399	3.39994	0.741776	4.02528	0.94744	5.13259	0.503886	2.73337	0.612731	3.31029	0.811931	4.40318	0.998493	5.40884
0.500894	2.69848	0.356715	1.91752	0.501949	2.69803	0.627933	3.39112	0.743349	4.01352	0.948485	5.11245	0.505975	2.7309	0.614424	3.30281	0.813019	4.38691	0.999446	5.38681
0.503223	2.69749	0.358746	1.91883	0.50428	2.69705	0.629471	3.38241	0.744925	4.0019	0.949534	5.09253	0.508064	2.72845	0.616121	3.29543	0.814111	4.37084	1.0004	5.36503
0.505556	2.69653	0.360777	1.92013	0.506614	2.6961	0.631013	3.3738	0.746505	3.99042	0.950588	5.07283	0.510151	2.72602	0.617823	3.28815	0.815208	4.35494		
0.507893	2.6956	0.362808	1.92141	0.508953	2.69519	0.632559	3.36531	0.748089	3.97907	0.951645	5.05335	0.512237	2.72361	0.619531	3.28097	0.816309	4.33923		
0.510234	2.69469	0.364839	1.92268	0.511295	2.69429	0.634109	3.35691	0.749677	3.96785	0.952707	5.03408	0.514323	2.72122	0.621242	3.27388	0.817415	4.32369		
0.512578	2.69382	0.36687	1.92393	0.513641	2.69343	0.635663	3.34862	0.751268	3.95676	0.953773	5.01503	0.516407	2.71885	0.622959	3.26689	0.818525	4.30833		
0.514925	2.69297	0.3689	1.92517	0.51599	2.69259	0.63722	3.34043	0.752863	3.9458	0.954844	4.99618	0.518491	2.71649	0.62468	3.25999	0.819639	4.29314		
0.517276	2.69215	0.37093	1.9264	0.518342	2.69178	0.638781	3.33234	0.754462	3.93497	0.955918	4.97753	0.520573	2.71415	0.626407	3.25318	0.820758	4.27812		
0.519629	2.69134	0.37296	1.92762	0.520697	2.69099	0.640346	3.32434	0.756065	3.92426	0.956997	4.95909	0.522655	2.71184	0.628137	3.24646	0.821881	4.26327		
0.521986	2.69057	0.37499	1.92882	0.523054	2.69022	0.641915	3.31645	0.757671	3.91367	0.95808	4.94085	0.524736	2.70953	0.629873	3.23983	0.823009	4.24859		
0.524345	2.68981	0.37702	1.93001	0.525415	2.68948	0.643487	3.30864	0.75928	3.9032	0.959167	4.9228	0.526816	2.70725	0.631613	3.23328	0.82414	4.23407		
0.526708	2.68908	0.379049	1.93119	0.527778	2.68875	0.645064	3.30093	0.760893	3.89284	0.960258	4.90495	0.528895	2.70498	0.633358	3.22682	0.825277	4.21971		
0.529072	2.68836	0.381079	1.93236	0.530144	2.68804	0.646643	3.29332	0.76251	3.88261	0.961353	4.88728	0.530973	2.70273	0.635107	3.22045	0.826417	4.2055		
0.531439	2.68766	0.383108	1.93351	0.532512	2.68736	0.648227	3.28579	0.76413	3.87248	0.962452	4.8698	0.53305	2.70049	0.636861	3.21416	0.827562	4.19146		
0.533809	2.68699	0.385137	1.93465	0.534883	2.68669	0.649814	3.27835	0.765754	3.86247	0.963556	4.85251	0.535126	2.69828	0.63862	3.20795	0.828711	4.17756		
0.53618	2.68633	0.387165	1.93578	0.537255	2.68603	0.651405	3.271	0.767381	3.85258	0.964663	4.8354	0.537201	2.69607	0.640383	3.20182	0.829864	4.16382		
0.538554	2.68568	0.389194	1.9369	0.53963	2.6854	0.652999	3.26374	0.769011	3.84279	0.965775	4.81847	0.539275	2.69388	0.64215	3.19577	0.831022	4.15023		
0.54093	2.68506	0.391222	1.93801	0.542007	2.68478	0.654597	3.25656	0.770645	3.8331	0.96689	4.80172	0.541347	2.69171	0.643922	3.1898	0.832184	4.13678		
0.543308	2.68444	0.39325	1.93911	0.544386	2.68417	0.656198	3.24947	0.772282	3.82353	0.96801	4.78514	0.543419	2.68955	0.645698	3.1839	0.83335	4.12348		
0.545688	2.68385	0.395278	1.94019	0.546766	2.68358	0.657803	3.24245	0.773922	3.81406	0.969134	4.76873	0.54549	2.68741	0.647479	3.17808	0.83452	4.11032		
0.548069	2.68326	0.397305	1.94127	0.549148	2.68301	0.659411	3.23552	0.775566	3.80469	0.970262	4.75249	0.54756	2.68528	0.649264	3.17234	0.835695	4.0973		
0.550452	2.6827	0.399333	1.94233	0.551532	2.68244	0.661023	3.22867	0.777213	3.79542	0.971393	4.73642	0.549629	2.68317	0.651054	3.16667	0.836874	4.08443		
0.552837	2.68214	0.40136	1.94338	0.553918	2.68189	0.662639	3.2219	0.778863	3.78625	0.972529	4.72051	0.551697	2.68107	0.652848	3.16107	0.838057	4.07169		
0.555223	2.6816	0.403387	1.94443	0.556305	2.68135	0.664257	3.2152	0.780516	3.77718	0.973669	4.70477	0.553763	2.67898	0.654646	3.15554	0.839244	4.05908		
0.557611	2.68106	0.405414	1.94546	0.558694	2.68083	0.665879	3.20859	0.782173	3.76821	0.974813	4.68918	0.555829	2.67691	0.656448	3.15008	0.840435	4.04661		
0.560001	2.68054	0.40744	1.94648	0.561083	2.68031	0.667505	3.20204	0.783832	3.75933	0.97596	4.67376	0.557893	2.67485	0.658255	3.14469	0.841631	4.03427		
0.562391	2.68003	0.409467	1.94749	0.563475	2.67981	0.669134	3.19557	0.785495	3.75054	0.977112	4.65849	0.559957	2.6728	0.660066	3.13937	0.842831	4.02205		
0.564783	2.67954	0.411493	1.9485	0.565867	2.67931	0.670766	3.18918	0.787161	3.74185	0.978268	4.64337	0.562019	2.67077	0.661881	3.13411	0.844034	4.00997		
0.567176	2.67905	0.413519	1.94949	0.568261	2.67883	0.672401	3.18286	0.78883	3.73325	0.979427	4.62841	0.56408	2.66875	0.663701	3.12892	0.845242	3.99801		
0.569571	2.67857	0.415544	1.95047	0.570656	2.67836	0.67404	3.1766	0.790502	3.72474	0.980591	4.61359	0.566141	2.66674	0.665524	3.1238	0.846455	3.98618		
0.571966	2.6781	0.41757	1.95144	0.573052	2.67789	0.675682	3.17042	0.792177	3.71632	0.981758	4.59893	0.5682	2.66475	0.667352	3.11874	0.847671	3.97447		
0.574363	2.67764	0.419595	1.95241	0.575449	2.67744	0.677327	3.16431	0.793855	3.70798	0.98293	4.58441	0.570258	2.66276	0.669183	3.11374	0.848891	3.96288		
0.57676	2.67719	0.42162	1.95336	0.577847	2.67699	0.678976	3.15826	0.795536	3.69974	0.984105	4.57003	0.572314	2.66079	0.671019	3.10881	0.850116	3.95141		
0.579159	2.67675	0.423645	1.95431	0.580246	2.67655	0.680628	3.15228	0.79722	3.69157	0.985284	4.55579	0.57437	2.65883	0.672859	3.10393	0.851344	3.94006		
0.581558	2.67631	0.425669	1.95524	0.582646	2.67612	0.682283	3.14637	0.798907	3.68349	0.986467	4.5417	0.576425	2.65688	0.674703	3.09912	0.852577	3.92882		
0.583959	2.67589	0.427693	1.95617	0.585046	2.6757	0.683941	3.14053	0.800597	3.67549	0.987654	4.52774	0.578478	2.65495	0.676551	3.09436	0.853813	3.9177		
0.58636	2.67547	0.429717	1.95709	0.587448	2.67528	0.685602	3.13474	0.80229	3.66758	0.988845	4.51392	0.580531	2.65302	0.678403	3.08967	0.855054	3.90669		
0.588762	2.67505	0.431741	1.958	0.58985	2.67487	0.687267	3.12902	0.803985	3.65974	0.99004	4.50023	0.582582	2.65111	0.680259	3.08503	0.856299	3.89579		
0.591165	2.67465	0.433765	1.95889	0.592253	2.67447	0.688934	3.12337	0.805683	3.65198	0.991238	4.48668	0.584632	2.64921	0.682118	3.08045	0.857548	3.88501		
0.593568	2.67425	0.435788	1.95979	0.594657	2.67407	0.690605	3.11777	0.807385	3.6443	0.99244	4.47326	0.586681	2.64731	0.683982	3.07592	0.8588	3.87433		
0.595972	2.67386	0.437811	1.96067	0.597061	2.67368	0.692279	3.11224	0.809089	3.6367	0.993646	4.45996	0.588729	2.64543	0.68585	3.07145	0.860057	3.86376		
0.598377	2.67347	0.439834	1.96154	0.599466	2.6733	0.693956	3.10676	0.810795	3.62917	0.994856	4.4468	0.590776	2.64356	0.687721	3.06704	0.861318	3.85329		
0.600782	2.67309	0.441857	1.96241	0.601872	2.67292	0.695636	3.10135	0.812505	3.62172	0.99607	4.43376	0.592822	2.6417	0.689596	3.06267	0.862583	3.84294		
0.603188	2.67271	0.443879	1.96327	0.604278	2.67255	0.697319	3.09599	0.814217	3.61434	0.997287	4.42084	0.594866	2.63985	0.691475	3.05836	0.863852	3.83268		
0.605594	2.67234	0.445901	1.96412	0.606684	2.67218	0.699005	3.09069	0.815932	3.60704	0.998508	4.40805	0.596909	2.63801	0.693358	3.0541	0.865124	3.82252		
0.608001	2.67198	0.447923	1.96496	0.609091	2.67182	0.700694	3.08545	0.817649	3.5998	0.999733	4.39538	0.598952	2.63619	0.695244	3.0499	0.866401	3.81247		
0.610408	2.67162	0.449945	1.96579	0.611499	2.67146	0.702386	3.08027	0.819369	3.59264	1.00096	4.38283	0.600993	2.63437	0.697134	3.04574	0.867682	3.80252		
0.612816	2.67126	0.451966	1.96662	0.613907	2.67111	0.704081	3.07513	0.821092	3.58555			0.603033	2.63256	0.699028	3.04163	0.868966	3.79266		
0.615224	2.67091	0.453987	1.96744	0.616315	2.67076	0.705779	3.07006	0.822817	3.57852			0.605072	2.63076	0.700926	3.03757	0.870255	3.7829		
0.617632	2.67057	0.456008	1.96825	0.618723	2.67041	0.70748	3.06504	0.824545	3.57156			0.607109	2.62897	0.702827	3.03357	0.871547	3.77324		
0.620041	2.67023	0.458029	1.96905	0.621132	2.67007	0.709184	3.06007	0.826276	3.56467			0.609146	2.62719	0.704731	3.0296	0.872843	3.76367		
0.62245	2.66989	0.460049	1.96985	0.623541	2.66974	0.710891	3.05515	0.828009	3.55785			0.611181	2.62542	0.70664	3.02569	0.874144	3.75419		
0.624859	2.66955	0.462069	1.97064	0.625951	2.6694	0.712601	3.05028	0.829744	3.55109			0.613216	2.62365	0.708552	3.02182	0.875448	3.74481		
0.627269	2.66922	0.464089	1.97142	0.62836	2.66907	0.714314	3.04547	0.831482	3.5444			0.615249	2.6219	0.710467	3.01799	0.876755	3.73552		
0.629679	2.6689	0.466109	1.97219	0.63077	2.66875	0.71603	3.04071	0.833223	3.53776			0.617281	2.62016	0.712386	3.01422	0.878067	3.72631		
0.632088	2.66857	0.468128	1.97296	0.63318	2.66843	0.717748	3.03599	0.834966	3.5312			0.619312	2.61842	0.714308	3.01048	0.879383	3.7172		
0.634498	2.66825	0.470147	1.97372	0.63559	2.66811	0.71947	3.03133	0.836711	3.52469			0.621342	2.6167	0.716234	3.00679	0.880703	3.70817		
0.636909	2.66793	0.472166	1.97447	0.638	2.66779	0.721194	3.02671	0.838459	3.51824			0.623371	2.61498	0.718163	3.00314	0.882026	3.69923		
0.639319	2.66762	0.474185	1.97522	0.640411	2.66748	0.722921	3.02214	0.840209	3.51186			0.625398	2.61328	0.720095	2.99954	0.883353	3.69038		
0.641729	2.66731	0.476203	1.97595	0.642821	2.66717	0.724651	3.01762	0.841961	3.50553			0.627425	2.61158	0.722031	2.99597	0.884684	3.68161		
0.64414	2.667	0.478221	1.97669	0.645231	2.66686	0.726384	3.01315	0.843716	3.49926			0.62945	2.60989	0.72397	2.99245	0.886019	3.67292		
0.64655	2.66669	0.480239	1.97741	0.647642	2.66655	0.72812	3.00872	0.845473	3.49305			0.631475	2.6082	0.725912	2.98897	0.887357	3.66432		
0.64896	2.66638	0.482257	1.97813	0.650052	2.66625	0.729859	3.00434	0.847233	3.4869			0.633498	2.60653	0.727858	2.98553	0.8887	3.6558		
0.651371	2.66608	0.484274	1.97884	0.652462	2.66595	0.7316	3	0.848995	3.4808			0.63552	2.60486	0.729807	2.98212	0.890046	3.64736		
0.653781	2.66578	0.486291	1.97955	0.654873	2.66565	0.733344	2.99571	0.850759	3.47476			0.637541	2.60321	0.731759	2.97876	0.891396	3.63899		
0.656191	2.66548	0.488308	1.98025	0.657283	2.66535	0.735091	2.99146	0.852525	3.46878			0.639561	2.60156	0.733714	2.97543	0.892749	3.63071		
0.658601	2.66519	0.490325	1.98094	0.659693	2.66505	0.736841	2.98725	0.854293	3.46284			0.64158	2.59992	0.735672	2.97215	0.894107	3.62251		
0.661011	2.66489	0.492341	1.98163	0.662102	2.66476	0.738594	2.98309	0.856064	3.45697			0.643598	2.59828	0.737634	2.9689	0.895468	3.61438		
0.663421	2.6646	0.494357	1.98231	0.664512	2.66446	0.740349	2.97897	0.857837	3.45114			0.645615	2.59666	0.739598	2.96568	0.896833	3.60632		
0.66583	2.6643	0.496373	1.98299	0.666921	2.66417	0.742107	2.97489	0.859612	3.44537			0.647631	2.59504	0.741566	2.9625	0.898202	3.59835		
0.668239	2.66401	0.498388	1.98365	0.669331	2.66388	0.743868	2.97086	0.861389	3.43965			0.649645	2.59343	0.743537	2.95936	0.899574	3.59044		
0.670648	2.66372	0.500404	1.98432	0.67174	2.66359	0.745632	2.96686	0.863168	3.43397			0.651659	2.59183	0.74551	2.95625	0.90095	3.58261		
0.673057	2.66343	0.502419	1.98497	0.674148	2.6633	0.747399	2.96291	0.86495	3.42835			0.653672	2.59024	0.747487	2.95318	0.90233	3.57485		
0.675466	2.66315	0.504434	1.98562	0.676557	2.66302	0.749168	2.95899	0.866733	3.42278			0.655683	2.58865	0.749466	2.95014	0.903713	3.56717		
0.677874	2.66286	0.506448	1.98627	0.678965	2.66273	0.75094	2.95512	0.868519	3.41726			0.657694	2.58707	0.751449	2.94714	0.9051	3.55955		
0.680282	2.66257	0.508462	1.98691	0.681372	2.66244	0.752715	2.95128	0.870306	3.41179			0.659703	2.5855	0.753434	2.94417	0.906491	3.55201		
0.682689	2.66229	0.510476	1.98754	0.68378	2.66216	0.754493	2.94748	0.872096	3.40636			0.661712	2.58394	0.755422	2.94123	0.907885	3.54453		
0.685096	2.662	0.51249	1.98817	0.686187	2.66187	0.756273	2.94372	0.873887	3.40098			0.663719	2.58238	0.757413	2.93832	0.909283	3.53712		
0.687503	2.66172	0.514504	1.98879	0.688593	2.66159	0.758056	2.94	0.875681	3.39565			0.665726	2.58083	0.759407	2.93544	0.910685	3.52978		
0.689909	2.66143	0.516517	1.98941	0.690999	2.66131	0.759842	2.93632	0.877477	3.39036			0.667731	2.57929	0.761403	2.9326	0.912091	3.52251		
0.692315	2.66115	0.51853	1.99002	0.693405	2.66102	0.761631	2.93267	0.879274	3.38512			0.669736	2.57776	0.763403	2.92979	0.913499	3.5153		
0.69472	2.66087	0.520542	1.99063	0.69581	2.66074	0.763423	2.92906	0.881074	3.37993			0.67174	2.57623	0.765404	2.927	0.914912	3.50816		
0.697125	2.66058	0.522555	1.99123	0.698214	2.66045	0.765217	2.92549	0.882875	3.37478			0.673742	2.57471	0.767409	2.92425	0.916328	3.50108		
0.699529	2.6603	0.524567	1.99183	0.700618	2.66017	0.767014	2.92195	0.884678	3.36967			0.675744	2.5732	0.769416	2.92153	0.917748	3.49407		
0.701933	2.66001	0.526579	1.99242	0.703021	2.65988	0.768814	2.91845	0.886484	3.36461			0.677745	2.5717	0.771426	2.91883	0.919172	3.48712		
0.704336	2.65973	0.528591	1.993	0.705424	2.6596	0.770616	2.91498	0.888291	3.35958			0.679744	2.5702	0.773439	2.91617	0.920599	3.48023		
0.706738	2.65944	0.530602	1.99358	0.707826	2.65931	0.772422	2.91155	0.8901	3.3546			0.681743	2.56871	0.775454	2.91353	0.922029	3.4734		
0.709139	2.65916	0.532613	1.99416	0.710227	2.65903	0.77423	2.90815	0.89191	3.34967			0.683741	2.56722	0.777471	2.91092	0.923463	3.46664		
0.71154	2.65887	0.534624	1.99473	0.712628	2.65874	0.776041	2.90479	0.893723	3.34477			0.685738	2.56574	0.779491	2.90834	0.924901	3.45994		
0.713941	2.65859	0.536635	1.9953	0.715028	2.65846	0.777855	2.90146	0.895537	3.33992			0.687734	2.56427	0.781514	2.90578	0.926342	3.45329		
0.71634	2.6583	0.538645	1.99586	0.717427	2.65817	0.779671	2.89817	0.897354	3.3351			0.689729	2.56281	0.783538	2.90325	0.927787	3.44671		
0.718739	2.65801	0.540655	1.99641	0.719825	2.65788	0.781491	2.8949	0.899172	3.33032			0.691724	2.56135	0.785566	2.90075	0.929235	3.44018		
0.721137	2.65772	0.542665	1.99696	0.722223	2.65759	0.783313	2.89167	0.900991	3.32559			0.693717	2.5599	0.787595	2.89827	0.930687	3.43371		
0.723534	2.65743	0.544675	1.99751	0.724619	2.6573	0.785138	2.88848	0.902813	3.32089			0.69571	2.55846	0.789627	2.89582	0.932143	3.4273		
0.72593	2.65714	0.546684	1.99805	0.727015	2.657	0.786966	2.88531	0.904636	3.31623			0.697701	2.55702	0.791662	2.8934	0.933601	3.42094		
0.728325	2.65684	0.548693	1.99859	0.72941	2.65671	0.788797	2.88218	0.906461	3.31161			0.699692	2.55559	0.793698	2.891	0.935064	3.41465		
0.730719	2.65655	0.550702	1.99912	0.731804	2.65641	0.790631	2.87908	0.908287	3.30703			0.701682	2.55417	0.795737	2.88862	0.93653	3.4084		
0.733113	2.65625	0.55271	1.99965	0.734196	2.65612	0.792468	2.87601	0.910116	3.30248			0.703672	2.55275	0.797778	2.88627	0.937999	3.40221		
0.735505	2.65595	0.554718	2.00017	0.736588	2.65582	0.794307	2.87297	0.911946	3.29797			0.70566	2.55134	0.799821	2.88394	0.939472	3.39608		
0.737896	2.65565	0.556726	2.00069	0.738979	2.65552	0.79615	2.86996	0.913777	3.2935			0.707647	2.54994	0.801867	2.88163	0.940948	3.39		
0.740286	2.65535	0.558734	2.00121	0.741369	2.65522	0.797995	2.86699	0.91561	3.28906			0.709634	2.54854	0.803914	2.87935	0.942428	3.38397		
0.742675	2.65505	0.560742	2.00172	0.743757	2.65491	0.799844	2.86404	0.917445	3.28466			0.71162	2.54715	0.805964	2.87709	0.943912	3.378		
0.745063	2.65474	0.562749	2.00222	0.746145	2.6546	0.801695	2.86112	0.919281	3.28029			0.713605	2.54577	0.808016	2.87485	0.945398	3.37207		
0.74745	2.65444	0.564756	2.00273	0.748531	2.6543	0.803549	2.85824	0.921119	3.27596			0.71559	2.54439	0.810069	2.87264	0.946889	3.3662		
0.749835	2.65413	0.566763	2.00322	0.750916	2.65398	0.805407	2.85538	0.922959	3.27166			0.717573	2.54302	0.812125	2.87044	0.948382	3.36038		
0.75222	2.65381	0.568769	2.00372	0.753299	2.65367	0.807267	2.85256	0.9248	3.2674			0.719556	2.54165	0.814183	2.86827	0.949879	3.35461		
0.754602	2.6535	0.570775	2.00421	0.755681	2.65335	0.809131	2.84976	0.926643	3.26316			0.721538	2.54029	0.816243	2.86612	0.95138	3.34889		
0.756984	2.65318	0.572781	2.00469	0.758062	2.65303	0.810997	2.84699	0.928487	3.25897			0.72352	2.53894	0.818304	2.86399	0.952884	3.34322		
0.759364	2.65286	0.574787	2.00517	0.760442	2.65271	0.812867	2.84425	0.930332	3.2548			0.7255	2.5376	0.820368	2.86188	0.954391	3.3376		
0.761743	2.65253	0.576792	2.00565	0.76282	2.65239	0.81474	2.84154	0.932179	3.25067			0.72748	2.53626	0.822433	2.85979	0.955902	3.33203		
0.76412	2.65221	0.578797	2.00612	0.765196	2.65206	0.816616	2.83886	0.934028	3.24656			0.72946	2.53492	0.8245	2.85772	0.957417	3.3265		
0.766495	2.65188	0.580802	2.00659	0.767571	2.65173	0.818495	2.83621	0.935878	3.24249			0.731438	2.53359	0.826569	2.85567	0.958934	3.32103		
0.76887	2.65154	0.582807	2.00706	0.769945	2.65139	0.820377	2.83358	0.937729	3.23846			0.733416	2.53227	0.82864	2.85364	0.960455	3.3156		
0.771242	2.65121	0.584811	2.00752	0.772316	2.65105	0.822263	2.83098	0.939582	3.23445			0.735393	2.53096	0.830713	2.85163	0.96198	3.31021		
0.773613	2.65087	0.586815	2.00797	0.774686	2.65071	0.824152	2.82841	0.941437	3.23047			0.73737	2.52965	0.832787	2.84963	0.963507	3.30487		
0.775982	2.65052	0.588819	2.00843	0.777055	2.65037	0.826044	2.82587	0.943292	3.22652			0.739346	2.52835	0.834863	2.84766	0.965039	3.29958		
0.778349	2.65017	0.590822	2.00888	0.779421	2.65002	0.82794	2.82336	0.94515	3.2226			0.741321	2.52705	0.836941	2.8457	0.966573	3.29433		
0.780715	2.64982	0.592826	2.00932	0.781786	2.64966	0.829838	2.82087	0.947008	3.21872			0.743295	2.52576	0.83902	2.84376	0.968111	3.28913		
0.783078	2.64947	0.594829	2.00977	0.784148	2.6493	0.831741	2.81841	0.948868	3.21486			0.745269	2.52447	0.841101	2.84184	0.969652	3.28397		
0.78544	2.64911	0.596832	2.01021	0.786509	2.64894	0.833647	2.81598	0.950729	3.21103			0.747243	2.5232	0.843183	2.83994	0.971197	3.27886		
0.7878	2.64874	0.598834	2.01064	0.788868	2.64858	0.835556	2.81357	0.952592	3.20723			0.749215	2.52192	0.845268	2.83805	0.972745	3.27379		
0.790158	2.64837	0.600836	2.01107	0.791225	2.6482	0.837469	2.81119	0.954456	3.20345			0.751188	2.52066	0.847353	2.83618	0.974296	3.26876		
0.792513	2.648	0.602838	2.0115	0.79358	2.64783	0.839385	2.80884	0.956321	3.19971			0.753159	2.5194	0.84944	2.83433	0.975851	3.26377		
0.794867	2.64762	0.60484	2.01193	0.795932	2.64745	0.841305	2.80652	0.958187	3.19599			0.75513	2.51814	0.851529	2.83249	0.977409	3.25883		
0.797218	2.64724	0.606842	2.01235	0.798282	2.64706	0.843228	2.80422	0.960055	3.1923			0.7571	2.51689	0.853619	2.83067	0.978971	3.25393		
0.799567	2.64685	0.608843	2.01276	0.80063	2.64667	0.845156	2.80195	0.961924	3.18863			0.75907	2.51565	0.85571	2.82887	0.980535	3.24906		
0.801914	2.64646	0.610844	2.01318	0.802976	2.64628	0.847087	2.7997	0.963794	3.185			0.76104	2.51441	0.857803	2.82708	0.982103	3.24424		
0.804258	2.64606	0.612844	2.01359	0.805319	2.64587	0.849022	2.79748	0.965666	3.18139			0.763008	2.51318	0.859897	2.8253	0.983675	3.23946		
0.8066	2.64565	0.614845	2.014	0.80766	2.64547	0.85096	2.79529	0.967539	3.1778			0.764977	2.51195	0.861992	2.82354	0.985249	3.23473		
0.80894	2.64524	0.616845	2.0144	0.809999	2.64505	0.852903	2.79312	0.969413	3.17424			0.766944	2.51073	0.864089	2.8218	0.986827	3.23003		
0.811277	2.64483	0.618845	2.0148	0.812334	2.64464	0.854849	2.79098	0.971288	3.17071			0.768912	2.50952	0.866187	2.82007	0.988409	3.22537		
0.813611	2.6444	0.620845	2.0152	0.814667	2.64421	0.856799	2.78886	0.973164	3.1672			0.770878	2.50831	0.868286	2.81836	0.989993	3.22074		
0.815942	2.64398	0.622844	2.01559	0.816998	2.64378	0.858754	2.78677	0.975042	3.16372			0.772844	2.50711	0.870387	2.81666	0.991581	3.21616		
0.818271	2.64354	0.624843	2.01598	0.819325	2.64334	0.860712	2.78471	0.976921	3.16026			0.77481	2.50591	0.872488	2.81497	0.993172	3.21162		
0.820597	2.6431	0.626842	2.01637	0.82165	2.6429	0.862675	2.78267	0.9788	3.15683			0.776775	2.50472	0.874591	2.8133	0.994767	3.20711		
0.82292	2.64265	0.628841	2.01676	0.823972	2.64245	0.864642	2.78066	0.980681	3.15342			0.77874	2.50353	0.876695	2.81164	0.996364	3.20264		
0.825241	2.6422	0.630839	2.01714	0.826291	2.64199	0.866613	2.77867	0.982564	3.15004			0.780705	2.50235	0.8788	2.80999	0.997965	3.19821		
0.827558	2.64174	0.632837	2.01752	0.828607	2.64152	0.868588	2.77671	0.984447	3.14667			0.782668	2.50118	0.880906	2.80836	0.999569	3.19381		
0.829872	2.64127	0.634835	2.01789	0.830919	2.64105	0.870568	2.77477	0.986331	3.14334			0.784632	2.50001	0.883013	2.80674	1.00118	3.18946		
0.832183	2.64079	0.636833	2.01827	0.833229	2.64057	0.872551	2.77286	0.988217	3.14002			0.786595	2.49885	0.885122	2.80514				
0.834491	2.64031	0.63883	2.01864	0.835535	2.64009	0.87454	2.77098	0.990103	3.13673			0.788558	2.49769	0.887231	2.80354				
0.836795	2.63982	0.640827	2.019	0.837838	2.63959	0.876533	2.76912	0.991991	3.13346			0.79052	2.49654	0.889341	2.80196				
0.839097	2.63932	0.642824	2.01937	0.840138	2.63909	0.87853	2.76728	0.99388	3.13021			0.792481	2.49539	0.891452	2.80039				
0.841394	2.63881	0.644821	2.01973	0.842434	2.63858	0.880532	2.76547	0.995769	3.12699			0.794443	2.49425	0.893564	2.79884				
0.843689	2.6383	0.646817	2.02008	0.844727	2.63807	0.882539	2.76369	0.99766	3.12379			0.796404	2.49311	0.895677	2.79729				
0.845979	2.63778	0.648813	2.02044	0.847016	2.63754	0.884551	2.76193	0.999552	3.12061			0.798365	2.49198	0.897791	2.79576				
0.848266	2.63725	0.650809	2.02079	0.849301	2.63701	0.886567	2.76019	1.00144	3.11745			0.800325	2.49086	0.899905	2.79424				
0.85055	2.63671	0.652805	2.02114	0.851583	2.63646	0.888588	2.75848					0.802285	2.48974	0.902021	2.79272				
0.85283	2.63616	0.6548	2.02149	0.853861	2.63591	0.890614	2.7568					0.804244	2.48862	0.904137	2.79123				
0.855105	2.63561	0.656795	2.02183	0.856135	2.63535	0.892645	2.75514					0.806204	2.48751	0.906254	2.78974				
0.857378	2.63504	0.65879	2.02217	0.858405	2.63479	0.89468	2.75351					0.808162	2.48641	0.908372	2.78826				
0.859646	2.63447	0.660784	2.02251	0.860672	2.63421	0.896721	2.7519					0.810121	2.48531	0.91049	2.78679				
0.86191	2.63389	0.662779	2.02285	0.862934	2.63362	0.898767	2.75031					0.812079	2.48422	0.912609	2.78533				
0.86417	2.6333	0.664773	2.02318	0.865193	2.63303	0.900818	2.74875					0.814037	2.48313	0.914729	2.78389				
0.866426	2.6327	0.666767	2.02351	0.867447	2.63243	0.902874	2.74721					0.815995	2.48205	0.91685	2.78245				
0.868678	2.63209	0.66876	2.02384	0.869697	2.63181	0.904936	2.7457					0.817952	2.48097	0.918971	2.78103				
0.870926	2.63147	0.670754	2.02416	0.871943	2.63119	0.907002	2.74422					0.819909	2.4799	0.921092	2.77961				
0.873169	2.63085	0.672747	2.02448	0.874184	2.63056	0.909074	2.74275					0.821866	2.47883	0.923215	2.7782				
0.875409	2.63021	0.67474	2.0248	0.876422	2.62992	0.911151	2.74131					0.823822	2.47777	0.925337	2.7768				
0.877644	2.62956	0.676732	2.02512	0.878654	2.62927	0.913234	2.7399					0.825779	2.47671	0.927461	2.77542				
0.879874	2.62891	0.678724	2.02544	0.880883	2.62861	0.915322	2.73851					0.827735	2.47566	0.929584	2.77404				
0.8821	2.62824	0.680717	2.02575	0.883107	2.62794	0.917415	2.73714					0.82969	2.47462	0.931709	2.77267				
0.884322	2.62757	0.682708	2.02606	0.885327	2.62726	0.919514	2.7358					0.831646	2.47357	0.933833	2.77131				
0.886539	2.62688	0.6847	2.02637	0.887542	2.62657	0.921618	2.73448					0.833601	2.47254	0.935958	2.76995				
0.888752	2.62619	0.686691	2.02667	0.889753	2.62587	0.923727	2.73318					0.835556	2.47151	0.938084	2.76861				
0.890961	2.62549	0.688682	2.02698	0.89196	2.62517	0.925843	2.73191					0.837511	2.47048	0.940209	2.76727				
0.893165	2.62478	0.690673	2.02728	0.894161	2.62445	0.927963	2.73066					0.839465	2.46946	0.942336	2.76595				
0.895364	2.62406	0.692664	2.02757	0.896359	2.62373	0.930089	2.72943					0.84142	2.46844	0.944462	2.76463				
0.897559	2.62333	0.694654	2.02787	0.898551	2.62299	0.932221	2.72823					0.843374	2.46743	0.946589	2.76332				
0.899749	2.62259	0.696644	2.02816	0.90074	2.62225	0.934358	2.72705					0.845328	2.46643	0.948716	2.76202				
0.901935	2.62184	0.698634	2.02845	0.902923	2.62149	0.9365	2.72589					0.847282	2.46542	0.950843	2.76072				
0.904116	2.62108	0.700624	2.02874	0.905103	2.62073	0.938648	2.72475					0.849235	2.46443	0.952971	2.75943				
0.906293	2.62031	0.702613	2.02903	0.907277	2.61996	0.940801	2.72363					0.851189	2.46344	0.955098	2.75815				
0.908465	2.61953	0.704602	2.02931	0.909447	2.61918	0.94296	2.72254					0.853142	2.46245	0.957226	2.75688				
0.910633	2.61875	0.706591	2.0296	0.911613	2.61839	0.945124	2.72147					0.855095	2.46147	0.959354	2.75561				
0.912796	2.61796	0.70858	2.02988	0.913774	2.61759	0.947294	2.72042					0.857048	2.46049	0.961483	2.75436				
0.914955	2.61715	0.710568	2.03015	0.915931	2.61679	0.949468	2.71939					0.859001	2.45952	0.963611	2.75311				
0.917109	2.61634	0.712557	2.03043	0.918083	2.61597	0.951649	2.71838					0.860954	2.45855	0.965739	2.75186				
0.919259	2.61553	0.714544	2.0307	0.920231	2.61515	0.953834	2.71739					0.862906	2.45759	0.967868	2.75062				
0.921404	2.6147	0.716532	2.03097	0.922375	2.61432	0.956025	2.71642					0.864858	2.45663	0.969996	2.74939				
0.923546	2.61386	0.71852	2.03124	0.924514	2.61348	0.958221	2.71547					0.866811	2.45567	0.972125	2.74817				
0.925683	2.61302	0.720507	2.03151	0.926649	2.61264	0.960422	2.71454					0.868763	2.45473	0.974253	2.74695				
0.927815	2.61217	0.722494	2.03177	0.92878	2.61178	0.962628	2.71363					0.870715	2.45378	0.976382	2.74574				
0.929944	2.61131	0.724481	2.03204	0.930907	2.61092	0.964839	2.71274					0.872667	2.45284	0.97851	2.74453				
0.932068	2.61045	0.726467	2.0323	0.933029	2.61006	0.967055	2.71186					0.874619	2.45191	0.980638	2.74333				
0.934188	2.60958	0.728453	2.03256	0.935148	2.60918	0.969276	2.71101					0.87657	2.45098	0.982767	2.74214				
0.936305	2.6087	0.730439	2.03281	0.937262	2.6083	0.971502	2.71017					0.878522	2.45005	0.984895	2.74095				
0.938417	2.60782	0.732425	2.03307	0.939372	2.60741	0.973732	2.70935					0.880473	2.44913	0.987023	2.73977				
0.940525	2.60693	0.734411	2.03332	0.941479	2.60652	0.975967	2.70855					0.882425	2.44821	0.989151	2.7386				
0.94263	2.60603	0.736396	2.03357	0.943582	2.60562	0.978207	2.70776					0.884376	2.4473	0.991279	2.73743				
0.94473	2.60513	0.738381	2.03382	0.945681	2.60472	0.980452	2.707					0.886328	2.44639	0.993406	2.73626				
0.946827	2.60422	0.740366	2.03407	0.947776	2.60381	0.982701	2.70624					0.888279	2.44549	0.995533	2.7351				
0.948921	2.60331	0.74235	2.03431	0.949868	2.60289	0.984954	2.70551					0.89023	2.44459	0.997661	2.73395				
0.95101	2.60239	0.744335	2.03456	0.951956	2.60197	0.987212	2.70479					0.892181	2.4437	0.999787	2.7328				
0.953097	2.60146	0.746319	2.0348	0.954041	2.60104	0.989474	2.70408					0.894132	2.44281	1.00191	2.73165				
0.955179	2.60053	0.748303	2.03504	0.956122	2.60011	0.991741	2.70339					0.896083	2.44192						
0.957259	2.5996	0.750287	2.03528	0.9582	2.59918	0.994011	2.70272					0.898034	2.44104						
0.959335	2.59866	0.75227	2.03551	0.960274	2.59824	0.996285	2.70206					0.899985	2.44016						
0.961408	2.59772	0.754253	2.03575	0.962346	2.5973	0.998564	2.70141					0.901936	2.43929						
0.963477	2.59678	0.756236	2.03598	0.964414	2.59635	1.00085	2.70078					0.903887	2.43842						
0.965544	2.59583	0.758219	2.03621	0.966479	2.5954							0.905838	2.43756						
0.967607	2.59488	0.760201	2.03644	0.968541	2.59445							0.907789	2.4367						
0.969668	2.59392	0.762184	2.03666	0.970601	2.59349							0.90974	2.43585						
0.971726	2.59296	0.764166	2.03689	0.972657	2.59253							0.91169	2.43499						
0.973781	2.592	0.766148	2.03711	0.974711	2.59157							0.913641	2.43415						
0.975833	2.59104	0.768129	2.03733	0.976762	2.5906							0.915592	2.4333						
0.977882	2.59007	0.770111	2.03755	0.97881	2.58964							0.917543	2.43247						
0.979929	2.58911	0.772092	2.03777	0.980856	2.58867							0.919494	2.43163						
0.981974	2.58814	0.774072	2.03799	0.982899	2.5877							0.921444	2.4308						
0.984016	2.58717	0.776053	2.03821	0.98494	2.58673							0.923395	2.42998						
0.986055	2.58619	0.778034	2.03842	0.986978	2.58575							0.925346	2.42915						
0.988092	2.58522	0.780014	2.03863	0.989015	2.58478							0.927297	2.42834						
0.990127	2.58424	0.781994	2.03884	0.991049	2.5838							0.929248	2.42752						
0.99216	2.58327	0.783974	2.03905	0.99308	2.58283							0.931199	2.42671						
0.994191	2.58229	0.785953	2.03926	0.99511	2.58185							0.93315	2.42591						
0.99622	2.58131	0.787933	2.03946	0.997138	2.58087							0.935101	2.4251						
0.998246	2.58034	0.789912	2.03967	0.999164	2.57989							0.937052	2.42431						
1.00027	2.57936	0.79189	2.03987	1.00119	2.57891							0.939003	2.42351						
		0.793869	2.04007									0.940954	2.42272						
		0.795848	2.04027									0.942905	2.42194						
		0.797826	2.04047									0.944857	2.42115						
		0.799804	2.04066									0.946808	2.42038						
		0.801782	2.04086									0.948759	2.4196						
		0.803759	2.04105									0.950711	2.41883						
		0.805737	2.04124									0.952662	2.41806						
		0.807714	2.04143									0.954614	2.4173						
		0.80969	2.04162									0.956566	2.41654						
		0.811667	2.04181									0.958517	2.41579						
		0.813644	2.04199									0.960469	2.41503						
		0.81562	2.04218									0.962421	2.41429						
		0.817596	2.04236									0.964373	2.41354						
		0.819572	2.04254									0.966325	2.4128						
		0.821547	2.04272									0.968277	2.41206						
		0.823523	2.0429									0.970229	2.41133						
		0.825498	2.04308									0.972182	2.4106						
		0.827473	2.04326									0.974134	2.40988						
		0.829447	2.04343									0.976087	2.40915						
		0.831422	2.04361									0.978039	2.40843						
		0.833396	2.04378									0.979992	2.40772						
		0.83537	2.04395									0.981945	2.40701						
		0.837344	2.04412									0.983898	2.4063						
		0.839318	2.04429									0.985851	2.40559						
		0.841292	2.04445									0.987804	2.40489						
		0.843265	2.04462									0.989758	2.40419						
		0.845238	2.04479									0.991711	2.4035						
		0.847211	2.04495									0.993665	2.40281						
		0.849183	2.04511									0.995618	2.40212						
		0.851156	2.04527									0.997572	2.40144						
		0.853128	2.04543									0.999526	2.40076						
		0.8551	2.04559									1.00148	2.40008						
		0.857072	2.04575																
		0.859043	2.0459																
		0.861015	2.04606																
		0.862986	2.04621																
		0.864957	2.04637																
		0.866928	2.04652																
		0.868898	2.04667																
		0.870869	2.04682																
		0.872839	2.04697																
		0.874809	2.04711																
		0.876779	2.04726																
		0.878748	2.0474																
		0.880718	2.04755																
		0.882687	2.04769																
		0.884656	2.04783																
		0.886625	2.04797																
		0.888593	2.04811																
		0.890562	2.04825																
		0.89253	2.04839																
		0.894498	2.04852																
		0.896466	2.04866																
		0.898433	2.04879																
		0.900401	2.04893																
		0.902368	2.04906																
		0.904335	2.04919																
		0.906302	2.04932																
		0.908268	2.04945																
		0.910235	2.04958																
		0.912201	2.04971																
		0.914167	2.04983																
		0.916133	2.04996																
		0.918099	2.05008																
		0.920064	2.05021																
		0.92203	2.05033																
		0.923995	2.05045																
		0.92596	2.05057																
		0.927925	2.05069																
		0.929889	2.05081																
		0.931853	2.05093																
		0.933818	2.05104																
		0.935782	2.05116																
		0.937746	2.05128																
		0.939709	2.05139																
		0.941673	2.0515																
		0.943636	2.05162																
		0.945599	2.05173																
		0.947562	2.05184																
		0.949525	2.05195																
		0.951487	2.05206																
		0.95345	2.05217																
		0.955412	2.05228																
		0.957374	2.05238																
		0.959336	2.05249																
		0.961298	2.0526																
		0.963259	2.0527																
		0.965221	2.05281																
		0.967182	2.05291																
		0.969143	2.05301																
		0.971104	2.05311																
		0.973064	2.05321																
		0.975025	2.05331																
		0.976985	2.05341																
		0.978945	2.05351																
		0.980905	2.05361																
		0.982865	2.05371																
		0.984825	2.0538																
		0.986784	2.0539																
		0.988743	2.05399																
		0.990703	2.05409																
		0.992662	2.05418																
		0.99462	2.05427																
		0.996579	2.05437																
		0.998538	2.05446																
		1.0005	2.05455																
