Sym0		Asym0		Sym1		Sym2		Sym3		Sym4		Asym1		Asym2		Asym3		Asym4	
422  Points		528  Points		422  Points		404  Points		351  Points		251  Points		454  Points		398  Points		343  Points		206  Points	
Freq (MHz)	Vph (m/ms)	Freq (MHz)	Vph (m/ms)	Freq (MHz)	Vph (m/ms)	Freq (MHz)	Vph (m/ms)	Freq (MHz)	Vph (m/ms)	Freq (MHz)	Vph (m/ms)	Freq (MHz)	Vph (m/ms)	Freq (MHz)	Vph (m/ms)	Freq (MHz)	Vph (m/ms)	Freq (MHz)	Vph (m/ms)
0.27951	553.764	2.58755e-005	0.0314046	0.279514	305.266	0.449988	10586.1	0.559017	6634.01	0.838526	2106.58	0.139755	929.415	0.419268	464.024	0.698771	3468.12	0.899977	2203.11
0.279522	194.593	0.000117494	0.0669241	0.27953	151.315	0.449994	461.91	0.559024	550.242	0.838531	630.595	0.139799	129.197	0.419286	228.463	0.698776	616.651	0.899982	671.528
0.279544	118.044	0.000275017	0.102339	0.279557	100.595	0.450011	236.115	0.559042	287.033	0.838543	370.8	0.139911	69.4775	0.419315	151.545	0.698786	338.416	0.899992	396.142
0.279577	84.7248	0.000498022	0.137612	0.279596	75.348	0.450038	158.599	0.559071	194.166	0.83856	262.613	0.140089	47.561	0.419355	113.381	0.698803	233.201	0.900007	280.937
0.279622	66.0806	0.000785797	0.172675	0.279645	60.2369	0.450076	119.406	0.559112	146.708	0.838583	203.301	0.140333	36.1949	0.419408	90.5784	0.698826	177.897	0.900028	217.646
0.279677	54.1672	0.0011376	0.2075	0.279705	50.1793	0.450125	95.7513	0.559164	117.899	0.838612	165.847	0.140643	29.2467	0.419472	75.4172	0.698855	143.798	0.900054	177.631
0.279743	45.8978	0.0015525	0.242045	0.279776	43.004	0.450185	79.9238	0.559228	98.5521	0.838647	140.049	0.141017	24.5651	0.419548	64.6083	0.69889	120.672	0.900085	150.047
0.279821	39.823	0.00202932	0.276255	0.279858	37.628	0.450256	68.5908	0.559302	84.6642	0.838688	121.199	0.141455	21.2006	0.419636	56.5135	0.698931	103.956	0.900121	129.881
0.279909	35.1719	0.0025669	0.310106	0.279951	33.4502	0.450337	60.0764	0.559389	74.2109	0.838734	106.823	0.141956	18.6687	0.419736	50.225	0.698978	91.3094	0.900163	114.494
0.280008	31.497	0.00316379	0.343547	0.280055	30.1106	0.450429	53.4459	0.559486	66.0588	0.838787	95.4978	0.142517	16.6967	0.419847	45.1992	0.699031	81.4082	0.90021	102.369
0.280118	28.5203	0.00381855	0.37655	0.28017	27.3802	0.450532	48.1365	0.559595	59.5237	0.838845	86.3454	0.143139	15.1192	0.41997	41.0909	0.699091	73.446	0.900262	92.5676
0.280239	26.0605	0.00452971	0.409092	0.280296	25.1065	0.450645	43.7896	0.559715	54.1682	0.83891	78.7953	0.143818	13.83	0.420105	37.6701	0.699156	66.9041	0.900319	84.4803
0.280371	23.9939	0.0052955	0.441134	0.280433	23.184	0.45077	40.1654	0.559846	49.6996	0.83898	72.4608	0.144555	12.7578	0.420251	34.7778	0.699228	61.4337	0.900382	77.6939
0.280514	22.2334	0.00611433	0.472661	0.28058	21.5373	0.450905	37.0976	0.559989	45.9147	0.839056	67.0703	0.145347	11.853	0.420409	32.3004	0.699306	56.7917	0.90045	71.9178
0.280668	20.7158	0.00698453	0.503656	0.280739	20.1112	0.451051	34.4676	0.560143	42.6678	0.839138	62.4276	0.146192	11.0801	0.420579	30.1549	0.69939	52.8032	0.900523	66.9423
0.280832	19.3943	0.00790421	0.534092	0.280909	18.8642	0.451207	32.1878	0.560308	39.8521	0.839225	58.3871	0.14697	10.4934	0.42076	28.2789	0.69948	49.3394	0.900601	62.6116
0.281008	18.2332	0.0088717	0.563961	0.281089	17.7649	0.451374	30.193	0.560485	37.3871	0.839319	54.8389	0.147664	10.0465	0.420953	26.6246	0.699576	46.3031	0.900685	58.8083
0.281195	17.2052	0.00988526	0.593255	0.28128	16.7884	0.451552	28.4329	0.560673	35.2113	0.839418	51.6983	0.148259	9.70885	0.421158	25.1552	0.699678	43.62	0.900774	55.4414
0.281392	16.2887	0.010943	0.62196	0.281482	15.9154	0.451741	26.8685	0.560871	33.2767	0.839524	48.8989	0.148741	9.4601	0.421374	23.8414	0.699786	41.2318	0.900868	52.44
0.2816	15.4666	0.0120433	0.65007	0.281695	15.1304	0.45194	25.469	0.561082	31.5454	0.839635	46.388	0.149103	9.28659	0.421602	22.6598	0.699901	39.0925	0.900967	49.7478
0.281819	14.7251	0.0131844	0.677587	0.281919	14.4208	0.45215	24.2097	0.561303	29.9871	0.839752	44.1233	0.149338	9.17945	0.421842	21.5914	0.700021	37.1652	0.901072	47.3192
0.282049	14.053	0.0143646	0.704506	0.282154	13.7762	0.45237	23.0706	0.561536	28.5771	0.839875	42.0702	0.149679	9.03053	0.422093	20.6209	0.700148	35.4199	0.901182	45.1175
0.28229	13.4411	0.0155821	0.730827	0.282399	13.1883	0.452601	22.0353	0.561779	27.2953	0.840004	40.2005	0.150056	8.87509	0.422356	19.7355	0.700281	33.832	0.901297	43.1123
0.282541	12.8816	0.0168356	0.756556	0.282655	12.6498	0.452843	21.0904	0.562034	26.125	0.840138	38.4907	0.150578	8.67378	0.42263	18.9244	0.700419	32.3811	0.901417	41.2784
0.282803	12.3682	0.0181233	0.781694	0.282923	12.155	0.453095	20.2246	0.5623	25.0524	0.840279	36.9212	0.151252	8.43457	0.422915	18.1788	0.700564	31.0504	0.901543	39.5949
0.283076	11.8954	0.0194437	0.806247	0.2832	11.6986	0.453358	19.4284	0.562577	24.0658	0.840425	35.4753	0.15209	8.16608	0.423212	17.4911	0.700715	29.8255	0.901673	38.0439
0.28336	11.4587	0.0207954	0.830223	0.283489	11.2765	0.453632	18.6937	0.562865	23.1552	0.840578	34.1391	0.153101	7.87699	0.423521	16.8548	0.700872	28.6942	0.901809	36.6104
0.283655	11.0541	0.022177	0.85363	0.283788	10.885	0.453916	18.0138	0.563165	22.3124	0.840736	32.9006	0.154298	7.57548	0.423841	16.2645	0.701035	27.6464	0.90195	35.2817
0.28396	10.6783	0.0235872	0.876475	0.284098	10.5209	0.45421	17.3827	0.563475	21.5299	0.840899	31.7494	0.155535	7.30214	0.424172	15.7153	0.701205	26.673	0.902097	34.0466
0.284276	10.3283	0.0250246	0.898771	0.284377	10.2239	0.454515	16.7955	0.563796	20.8017	0.841069	30.6767	0.156807	7.05337	0.424515	15.2032	0.70138	25.7665	0.902248	32.8956
0.284602	10.0016	0.0264878	0.920522	0.284621	9.9842	0.454831	16.2478	0.564128	20.1222	0.841245	29.6747	0.158115	6.82613	0.424869	14.7246	0.701561	24.9202	0.902405	31.8204
0.28494	9.69602	0.027976	0.941746	0.284827	9.79479	0.455157	15.7357	0.564471	19.4868	0.841426	28.7366	0.159457	6.61786	0.425235	14.2763	0.701749	24.1283	0.902567	30.8138
0.285288	9.40954	0.0294876	0.962446	0.284993	9.65032	0.455493	15.2559	0.564825	18.8914	0.841613	27.8567	0.16083	6.42637	0.425612	13.8556	0.701942	23.3858	0.902735	29.8694
0.285646	9.14048	0.0310218	0.98264	0.285117	9.54694	0.45584	14.8055	0.565191	18.3324	0.841806	27.0295	0.162235	6.24983	0.426	13.4599	0.702142	22.6882	0.902907	28.9817
0.286015	8.88733	0.0325775	1.00234	0.285197	9.482	0.456197	14.3819	0.565566	17.8064	0.842005	26.2506	0.163669	6.0866	0.426399	13.0873	0.702347	22.0316	0.903085	28.1456
0.286395	8.64874	0.0341538	1.02155	0.285312	9.39027	0.456564	13.9828	0.565953	17.3108	0.84221	25.5158	0.165131	5.93532	0.42681	12.7357	0.702559	21.4124	0.903268	27.357
0.286785	8.42352	0.0357495	1.04029	0.285439	9.29268	0.456942	13.6061	0.566351	16.843	0.84242	24.8215	0.166619	5.79477	0.427232	12.4035	0.702777	20.8276	0.903456	26.6117
0.287186	8.2106	0.0373638	1.05857	0.285614	9.16338	0.45733	13.2501	0.566759	16.4007	0.842637	24.1646	0.168134	5.66391	0.427665	12.089	0.703001	20.2745	0.903649	25.9065
0.287597	8.00902	0.0389959	1.07639	0.285839	9.00524	0.457729	12.9131	0.567178	15.9819	0.842859	23.5419	0.169673	5.54181	0.428109	11.7911	0.70323	19.7504	0.903848	25.238
0.288019	7.81792	0.0406451	1.09378	0.286117	8.82162	0.458137	12.5936	0.567608	15.5849	0.843087	22.951	0.171235	5.42767	0.428564	11.5083	0.703466	19.2532	0.904051	24.6036
0.288451	7.63653	0.0423104	1.11075	0.286449	8.61619	0.458556	12.2903	0.568048	15.208	0.84332	22.3895	0.172819	5.32076	0.429031	11.2396	0.703708	18.7809	0.90426	24.0008
0.288894	7.46414	0.0439911	1.1273	0.286841	8.39277	0.458986	12.0021	0.5685	14.8496	0.84356	21.8553	0.174425	5.22045	0.429508	10.984	0.703956	18.3317	0.904474	23.4271
0.289347	7.30011	0.0456866	1.14345	0.287243	8.18151	0.459425	11.7279	0.568962	14.5086	0.843805	21.3464	0.176051	5.12618	0.429996	10.7406	0.70421	17.9039	0.904694	22.8806
0.28981	7.14388	0.0473961	1.1592	0.287656	7.98146	0.459874	11.4666	0.569434	14.1837	0.844056	20.861	0.177697	5.03744	0.430496	10.5085	0.70447	17.4961	0.904918	22.3595
0.290284	6.99491	0.0491191	1.17458	0.288079	7.79177	0.460334	11.2175	0.569917	13.8737	0.844313	20.3977	0.179361	4.95378	0.43094	10.3149	0.704736	17.1069	0.905148	21.8618
0.290768	6.85273	0.0508549	1.18958	0.288513	7.61169	0.460804	10.9797	0.57041	13.5778	0.844576	19.9548	0.181043	4.87479	0.431325	10.1559	0.705008	16.735	0.905383	21.3863
0.291263	6.71689	0.0526029	1.20423	0.288957	7.44051	0.461283	10.7524	0.570914	13.2949	0.844844	19.5312	0.182742	4.80012	0.431648	10.0283	0.705286	16.3793	0.905623	20.9313
0.291768	6.58701	0.0543627	1.21852	0.289412	7.27762	0.461773	10.535	0.571429	13.0243	0.845118	19.1256	0.184458	4.72944	0.431906	9.92994	0.70557	16.0389	0.905868	20.4956
0.292283	6.4627	0.0561337	1.23248	0.289876	7.12245	0.462208	10.3532	0.571954	12.7652	0.845398	18.7369	0.186189	4.66244	0.432097	9.85892	0.70586	15.7127	0.906118	20.078
0.292808	6.34363	0.0579154	1.24611	0.290352	6.97446	0.462585	10.2034	0.572489	12.5169	0.845684	18.364	0.187934	4.59886	0.432221	9.81405	0.706156	15.3999	0.906374	19.6774
0.293343	6.22949	0.0597073	1.25942	0.290837	6.8332	0.462901	10.0831	0.573035	12.2787	0.845975	18.0061	0.189694	4.53845	0.432399	9.75032	0.706458	15.0997	0.906634	19.2929
0.293889	6.11999	0.061509	1.27241	0.291333	6.69823	0.463153	9.99013	0.57359	12.05	0.846272	17.6621	0.191468	4.481	0.432594	9.68207	0.706765	14.8113	0.9069	18.9233
0.294445	6.01486	0.0633201	1.28511	0.29184	6.56915	0.46334	9.92294	0.574157	11.8304	0.846575	17.3314	0.193254	4.4263	0.432862	9.59092	0.707079	14.5341	0.907171	18.568
0.295011	5.91387	0.0651402	1.29752	0.292356	6.4456	0.46346	9.88046	0.574733	11.6192	0.846884	17.0132	0.195054	4.37416	0.433204	9.4783	0.707399	14.2675	0.907447	18.2261
0.295587	5.81678	0.0669688	1.30964	0.292883	6.32724	0.463634	9.82008	0.57532	11.416	0.847198	16.7069	0.196865	4.32442	0.433622	9.34594	0.707725	14.0107	0.907729	17.8968
0.296173	5.72338	0.0688057	1.32148	0.29342	6.21377	0.463824	9.75535	0.575916	11.2204	0.847518	16.4116	0.198687	4.27693	0.434121	9.19578	0.708057	13.7635	0.908015	17.5796
0.296769	5.63347	0.0706504	1.33305	0.293967	6.1049	0.464085	9.66881	0.576523	11.032	0.847844	16.127	0.200521	4.23153	0.434704	9.02991	0.708394	13.5251	0.908307	17.2736
0.297376	5.54688	0.0725026	1.34437	0.294524	6.00038	0.464418	9.56173	0.57714	10.8504	0.848175	15.8524	0.202365	4.1881	0.435297	8.87055	0.708738	13.2951	0.908603	16.9784
0.297992	5.46343	0.0743621	1.35543	0.295091	5.89995	0.464826	9.43567	0.577767	10.6752	0.848512	15.5872	0.204219	4.14652	0.435901	8.71735	0.709088	13.0732	0.908905	16.6935
0.298618	5.38296	0.0762286	1.36625	0.295669	5.80339	0.465311	9.29237	0.578321	10.5275	0.848855	15.3311	0.206083	4.10668	0.436516	8.56996	0.709443	12.8589	0.909212	16.4181
0.299255	5.30532	0.0781017	1.37683	0.296257	5.71049	0.465877	9.13373	0.5788	10.4051	0.849204	15.0836	0.207956	4.06848	0.437141	8.42806	0.709805	12.6518	0.909524	16.152
0.299901	5.23039	0.0799811	1.38718	0.296854	5.62106	0.466453	8.98097	0.5792	10.3062	0.849558	14.8442	0.209839	4.03181	0.437776	8.29138	0.710172	12.4515	0.909842	15.8947
0.300557	5.15802	0.0818667	1.3973	0.297462	5.53492	0.467038	8.83377	0.579519	10.2295	0.849918	14.6127	0.211729	3.99659	0.438422	8.15962	0.710545	12.2578	0.910164	15.6457
0.301223	5.08809	0.0837581	1.40721	0.29808	5.4519	0.467633	8.69186	0.579755	10.174	0.850283	14.3885	0.213629	3.96275	0.439078	8.03255	0.710924	12.0704	0.910491	15.4046
0.301899	5.0205	0.0856552	1.4169	0.298707	5.37184	0.468238	8.55495	0.579906	10.1387	0.850655	14.1713	0.215536	3.9302	0.439745	7.90993	0.711309	11.8888	0.910824	15.171
0.302584	4.95512	0.0875576	1.42639	0.299345	5.2946	0.468852	8.42279	0.580125	10.0886	0.851031	13.9609	0.21745	3.89888	0.440422	7.79153	0.7117	11.713	0.911162	14.9447
0.30328	4.89188	0.0894653	1.43568	0.299993	5.22003	0.469476	8.29516	0.580364	10.0346	0.851414	13.7569	0.219373	3.86871	0.441109	7.67715	0.712097	11.5425	0.911504	14.7253
0.303985	4.83066	0.0913779	1.44477	0.30065	5.14801	0.47011	8.17183	0.580691	9.96235	0.851802	13.5591	0.221302	3.83965	0.441807	7.5666	0.7125	11.3772	0.911852	14.5125
0.304608	4.77889	0.0932953	1.45367	0.301317	5.07842	0.470753	8.05259	0.581109	9.87257	0.852196	13.3671	0.223238	3.81162	0.442515	7.45969	0.712908	11.2169	0.912205	14.306
0.305144	4.73589	0.0952173	1.46239	0.301995	5.01115	0.471405	7.93725	0.581618	9.76639	0.852595	13.1807	0.22518	3.78458	0.443233	7.35625	0.713323	11.0613	0.912563	14.1055
0.305592	4.70108	0.0971438	1.47093	0.302682	4.94608	0.472067	7.82563	0.582222	9.64504	0.853	12.9997	0.227129	3.75848	0.443961	7.25613	0.713743	10.9101	0.912926	13.9108
0.305949	4.67403	0.0990744	1.47929	0.303379	4.88312	0.472738	7.71755	0.582925	9.5099	0.853411	12.8239	0.229084	3.73327	0.444699	7.15917	0.714114	10.782	0.913294	13.7216
0.306212	4.6544	0.101009	1.48749	0.304085	4.82218	0.473418	7.61287	0.583637	9.37897	0.853827	12.653	0.231045	3.70892	0.445447	7.06524	0.714434	10.6753	0.913668	13.5377
0.306382	4.64195	0.102948	1.49552	0.304802	4.76317	0.474108	7.51142	0.584359	9.25204	0.854249	12.4869	0.233011	3.68536	0.446205	6.97421	0.714701	10.5887	0.914046	13.3589
0.306626	4.6242	0.10489	1.50339	0.305528	4.706	0.474807	7.41307	0.585091	9.12896	0.854677	12.3253	0.234983	3.66258	0.446973	6.88593	0.714913	10.5213	0.914429	13.185
0.306893	4.60512	0.106837	1.5111	0.306264	4.6506	0.475515	7.31768	0.585832	9.00955	0.85511	12.168	0.23696	3.64053	0.447751	6.80031	0.71507	10.4723	0.914818	13.0157
0.307258	4.5795	0.108786	1.51866	0.30701	4.59688	0.476232	7.22513	0.586582	8.89365	0.855548	12.015	0.238942	3.61918	0.448538	6.71722	0.715171	10.4413	0.915211	12.851
0.307723	4.54763	0.110739	1.52608	0.307765	4.54479	0.476959	7.13529	0.587342	8.78113	0.855992	11.8659	0.24093	3.59849	0.449336	6.63657	0.715317	10.3969	0.91561	12.6905
0.30829	4.50988	0.112695	1.53335	0.30853	4.49425	0.477695	7.04806	0.588111	8.67183	0.856442	11.7208	0.242921	3.57845	0.450143	6.55824	0.715476	10.3492	0.916013	12.5343
0.308962	4.46666	0.114655	1.54048	0.309305	4.44521	0.478439	6.96333	0.588889	8.56564	0.856897	11.5794	0.244918	3.55901	0.45096	6.48216	0.715694	10.285	0.916422	12.382
0.309742	4.41842	0.116365	1.54658	0.310089	4.3976	0.479193	6.88099	0.589677	8.46241	0.857358	11.4416	0.246919	3.54015	0.451787	6.40822	0.715971	10.205	0.916836	12.2336
0.310532	4.37159	0.117824	1.5517	0.310883	4.35136	0.479955	6.80095	0.590474	8.36204	0.857825	11.3072	0.248924	3.52185	0.452623	6.33634	0.716309	10.1101	0.917254	12.0889
0.311331	4.3261	0.119032	1.55589	0.311686	4.30645	0.480727	6.72312	0.59128	8.26442	0.858297	11.1762	0.250933	3.50409	0.453469	6.26645	0.716709	10.0012	0.917678	11.9478
0.31214	4.2819	0.119988	1.55916	0.3125	4.26281	0.481507	6.64742	0.592095	8.16943	0.858712	11.0646	0.252946	3.48684	0.454324	6.19846	0.717174	9.87922	0.918107	11.8101
0.312958	4.23895	0.120691	1.56154	0.313322	4.22039	0.482297	6.57376	0.592919	8.07697	0.85907	10.9714	0.254963	3.47007	0.455189	6.13231	0.717645	9.76044	0.91854	11.6757
0.313786	4.1972	0.121141	1.56306	0.314155	4.17916	0.483095	6.50207	0.593753	7.98695	0.859368	10.8955	0.256983	3.45378	0.456063	6.06793	0.718122	9.64471	0.918979	11.5446
0.314624	4.15661	0.121789	1.56523	0.314996	4.13906	0.483901	6.43227	0.594595	7.89928	0.859605	10.8364	0.259008	3.43793	0.456947	6.00524	0.718604	9.53191	0.919423	11.4165
0.315471	4.11712	0.122493	1.56758	0.315848	4.10005	0.484717	6.36429	0.595446	7.81387	0.85978	10.7933	0.261035	3.42252	0.45784	5.94419	0.719092	9.42195	0.919871	11.2915
0.316328	4.07871	0.123451	1.57074	0.316709	4.0621	0.485541	6.29807	0.596306	7.73064	0.859893	10.7659	0.263066	3.40753	0.458742	5.88472	0.719586	9.31471	0.920266	11.1849
0.317194	4.04133	0.124663	1.57471	0.317579	4.02516	0.486374	6.23353	0.597175	7.64951	0.860055	10.7269	0.265101	3.39293	0.459653	5.82677	0.720086	9.2101	0.920606	11.0957
0.31807	4.00495	0.126131	1.57943	0.318459	3.98921	0.487215	6.17063	0.598053	7.5704	0.860232	10.6847	0.267138	3.37872	0.460574	5.77029	0.720591	9.10803	0.920889	11.023
0.318956	3.96953	0.127854	1.5849	0.319349	3.9542	0.488065	6.10931	0.59894	7.49325	0.860474	10.628	0.269178	3.36487	0.461504	5.71523	0.721102	9.0084	0.921114	10.9663
0.31985	3.93504	0.129834	1.59107	0.320248	3.92011	0.488923	6.0495	0.599835	7.41798	0.860782	10.5572	0.271222	3.35138	0.462442	5.66153	0.721619	8.91114	0.92128	10.925
0.320755	3.90145	0.131816	1.59712	0.321157	3.88691	0.48979	5.99116	0.600738	7.34454	0.861157	10.4729	0.273268	3.33823	0.46339	5.60915	0.722142	8.81616	0.921387	10.8988
0.321669	3.86872	0.1338	1.60306	0.322075	3.85456	0.490665	5.93423	0.601651	7.27285	0.8616	10.3758	0.275317	3.32541	0.464347	5.55805	0.72267	8.72338	0.921541	10.8612
0.322593	3.83684	0.135787	1.6089	0.323003	3.82303	0.491549	5.87868	0.602572	7.20286	0.862114	10.2668	0.277368	3.31291	0.465313	5.50819	0.723204	8.63274	0.921709	10.8208
0.323526	3.80576	0.137775	1.61464	0.32394	3.79231	0.492441	5.82444	0.603501	7.13451	0.862634	10.1603	0.279422	3.30071	0.466288	5.45951	0.723743	8.54416	0.921938	10.7663
0.324468	3.77547	0.139765	1.62027	0.324887	3.76236	0.493341	5.77149	0.604439	7.06775	0.863159	10.0561	0.281479	3.28881	0.467271	5.41199	0.724289	8.45757	0.92223	10.6982
0.325421	3.74594	0.141757	1.6258	0.325844	3.73316	0.494249	5.71977	0.605385	7.00253	0.863689	9.95422	0.283538	3.27719	0.468264	5.36558	0.724839	8.37291	0.922585	10.6171
0.326383	3.71715	0.143751	1.63124	0.32681	3.70468	0.495166	5.66925	0.60634	6.93879	0.864225	9.85458	0.285599	3.26585	0.469265	5.32026	0.725396	8.29012	0.923005	10.5236
0.327354	3.68907	0.145747	1.63658	0.327786	3.67691	0.49609	5.61989	0.607302	6.87649	0.864767	9.75709	0.287663	3.25477	0.470274	5.27598	0.725958	8.20913	0.923492	10.4185
0.328336	3.66168	0.147744	1.64183	0.328771	3.64982	0.497023	5.57165	0.608273	6.81558	0.865313	9.66169	0.289728	3.24395	0.471293	5.23271	0.726526	8.1299	0.923984	10.3156
0.329326	3.63496	0.149743	1.64699	0.329766	3.62339	0.497964	5.52449	0.609253	6.75602	0.865866	9.56832	0.291796	3.23337	0.47232	5.19042	0.7271	8.05237	0.924481	10.2149
0.330327	3.60889	0.151743	1.65207	0.330771	3.5976	0.498912	5.47839	0.61024	6.69777	0.866423	9.47691	0.293866	3.22303	0.473356	5.14908	0.727679	7.97648	0.924982	10.1163
0.331337	3.58346	0.153745	1.65705	0.331786	3.57243	0.499869	5.43331	0.611235	6.64079	0.866986	9.3874	0.295938	3.21292	0.4744	5.10866	0.728263	7.90218	0.925489	10.0197
0.332357	3.55863	0.155748	1.66196	0.33281	3.54787	0.500834	5.38922	0.612239	6.58504	0.867554	9.29974	0.298012	3.20304	0.475453	5.06914	0.728854	7.82943	0.926	9.92514
0.333387	3.5344	0.157753	1.66678	0.333845	3.5239	0.501806	5.34609	0.61325	6.53047	0.868128	9.21387	0.300087	3.19337	0.476514	5.03048	0.72945	7.75819	0.926517	9.83248
0.334427	3.51075	0.159759	1.67152	0.334889	3.50049	0.502786	5.30388	0.61427	6.47707	0.868707	9.12973	0.302164	3.1839	0.477583	4.99267	0.730051	7.6884	0.927038	9.74169
0.335477	3.48765	0.161767	1.67618	0.335943	3.47764	0.503774	5.26258	0.615297	6.42478	0.869291	9.04728	0.304244	3.17464	0.478661	4.95567	0.730658	7.62003	0.927564	9.65271
0.336536	3.46511	0.163775	1.68077	0.337007	3.45533	0.50477	5.22216	0.616332	6.37358	0.869881	8.96647	0.306324	3.16558	0.479747	4.91946	0.731271	7.55302	0.928095	9.5655
0.337606	3.44309	0.165785	1.68528	0.338081	3.43355	0.505773	5.18258	0.617375	6.32344	0.870476	8.88726	0.308407	3.15671	0.480842	4.88402	0.731889	7.48736	0.928631	9.47999
0.338686	3.42159	0.167796	1.68972	0.339165	3.41227	0.506784	5.14383	0.618425	6.27433	0.871076	8.80959	0.31049	3.14802	0.481944	4.84933	0.732512	7.42298	0.929171	9.39614
0.339776	3.40059	0.169808	1.69409	0.34026	3.39149	0.507803	5.10589	0.619484	6.22621	0.871682	8.73342	0.312576	3.1395	0.483055	4.81536	0.733142	7.35987	0.929717	9.3139
0.340876	3.38009	0.171821	1.69839	0.341364	3.37119	0.508829	5.06872	0.62055	6.17906	0.872293	8.65871	0.314663	3.13116	0.484174	4.7821	0.733776	7.29799	0.930267	9.23323
0.341986	3.36006	0.173836	1.70262	0.34248	3.35137	0.509862	5.03231	0.621623	6.13285	0.872909	8.58543	0.316751	3.12299	0.4853	4.74952	0.734416	7.23729	0.930823	9.15409
0.343107	3.34049	0.175851	1.70678	0.343605	3.33201	0.510903	4.99664	0.622704	6.08756	0.87353	8.51353	0.31884	3.11497	0.486435	4.71761	0.735062	7.17775	0.931383	9.07644
0.344239	3.32138	0.177867	1.71088	0.344741	3.31309	0.511952	4.96168	0.623793	6.04316	0.874157	8.44297	0.320931	3.10712	0.487578	4.68635	0.735713	7.11934	0.931948	9.00023
0.345381	3.30271	0.179884	1.71491	0.345888	3.29461	0.513007	4.92742	0.624889	5.99963	0.874789	8.37372	0.323023	3.09941	0.488729	4.65572	0.73637	7.06202	0.932517	8.92542
0.346533	3.28447	0.181902	1.71888	0.347045	3.27656	0.51407	4.89383	0.625992	5.95693	0.875426	8.30574	0.325117	3.09186	0.489887	4.6257	0.737032	7.00577	0.933092	8.85198
0.347697	3.26665	0.183921	1.72279	0.348214	3.25892	0.515141	4.86091	0.627103	5.91506	0.876069	8.23901	0.327211	3.08445	0.491054	4.59628	0.7377	6.95057	0.933671	8.77987
0.348871	3.24924	0.18594	1.72664	0.349393	3.24169	0.516218	4.82862	0.62822	5.87398	0.876716	8.17348	0.329306	3.07718	0.492228	4.56744	0.738373	6.89637	0.934255	8.70906
0.350057	3.23223	0.187961	1.73043	0.350583	3.22486	0.517303	4.79697	0.629346	5.83368	0.877369	8.10913	0.331403	3.07004	0.49341	4.53916	0.739051	6.84315	0.934844	8.63952
0.351254	3.21562	0.189982	1.73416	0.351785	3.20842	0.518395	4.76591	0.630478	5.79414	0.878027	8.04593	0.333501	3.06304	0.4946	4.51144	0.739735	6.7909	0.935438	8.5712
0.352462	3.19939	0.192004	1.73784	0.352998	3.19236	0.519494	4.73545	0.631618	5.75533	0.87869	7.98384	0.3356	3.05616	0.495797	4.48425	0.740424	6.73959	0.936036	8.50409
0.353681	3.18354	0.194027	1.74146	0.354223	3.17667	0.520599	4.70557	0.632764	5.71724	0.879359	7.92285	0.337699	3.04941	0.497002	4.45759	0.741119	6.68918	0.936639	8.43814
0.354913	3.16805	0.19605	1.74503	0.35546	3.16134	0.521712	4.67625	0.633918	5.67985	0.880032	7.86291	0.3398	3.04278	0.498215	4.43143	0.741819	6.63966	0.937247	8.37334
0.356156	3.15293	0.198074	1.74854	0.356708	3.14637	0.522832	4.64747	0.635078	5.64314	0.880711	7.80401	0.341901	3.03626	0.499435	4.40577	0.742524	6.59102	0.93786	8.30964
0.357411	3.13816	0.200098	1.752	0.357969	3.13176	0.523959	4.61923	0.636246	5.6071	0.881395	7.74612	0.344003	3.02986	0.500662	4.3806	0.743235	6.54321	0.938478	8.24703
0.358679	3.12374	0.202123	1.75541	0.359242	3.11748	0.525092	4.59151	0.63742	5.5717	0.882084	7.68922	0.346106	3.02357	0.501897	4.35589	0.743951	6.49623	0.9391	8.18548
0.359959	3.10965	0.204149	1.75878	0.360527	3.10355	0.526233	4.5643	0.638602	5.53693	0.882778	7.63327	0.34821	3.01739	0.503139	4.33165	0.744673	6.45006	0.939727	8.12496
0.361252	3.0959	0.206175	1.76209	0.361826	3.08994	0.52738	4.53758	0.63979	5.50278	0.883478	7.57827	0.350315	3.01132	0.504389	4.30785	0.7454	6.40467	0.940358	8.06545
0.362557	3.08248	0.208202	1.76535	0.363137	3.07666	0.528534	4.51134	0.640985	5.46923	0.884182	7.52418	0.35242	3.00535	0.505646	4.2845	0.746132	6.36004	0.940995	8.00693
0.363876	3.06938	0.210229	1.76857	0.364462	3.0637	0.529694	4.48558	0.642186	5.43627	0.884891	7.47098	0.354526	2.99947	0.50691	4.26156	0.746869	6.31617	0.941636	7.94936
0.365208	3.05659	0.212257	1.77174	0.3658	3.05105	0.530861	4.46027	0.643395	5.40387	0.885606	7.41866	0.356633	2.9937	0.508182	4.23905	0.747612	6.27302	0.942281	7.89273
0.366554	3.04412	0.214285	1.77487	0.367152	3.03871	0.532035	4.43541	0.644609	5.37204	0.886326	7.36719	0.35874	2.98802	0.50946	4.21694	0.74836	6.23059	0.942932	7.83702
0.367914	3.03195	0.216314	1.77795	0.368518	3.02668	0.533215	4.41099	0.645831	5.34075	0.88705	7.31655	0.360847	2.98243	0.510746	4.19523	0.749114	6.18886	0.943587	7.7822
0.369288	3.02009	0.218343	1.78099	0.369898	3.01495	0.534402	4.38699	0.647059	5.30999	0.88778	7.26672	0.362956	2.97693	0.512039	4.17391	0.749872	6.1478	0.944246	7.72826
0.370676	3.00852	0.220373	1.78399	0.371293	3.00351	0.535595	4.36341	0.648293	5.27976	0.888515	7.2177	0.365065	2.97152	0.513339	4.15297	0.750636	6.10741	0.944911	7.67517
0.37208	2.99724	0.222402	1.78694	0.372703	2.99236	0.536794	4.34024	0.649534	5.25002	0.889255	7.16944	0.367174	2.96619	0.514646	4.13239	0.751405	6.06768	0.94558	7.62291
0.373498	2.98626	0.224433	1.78985	0.374128	2.9815	0.538	4.31747	0.650781	5.22079	0.889999	7.12195	0.369283	2.96095	0.51596	4.11218	0.75218	6.02857	0.946254	7.57147
0.374932	2.97555	0.226463	1.79273	0.375569	2.97092	0.539212	4.29508	0.652035	5.19204	0.890749	7.0752	0.371394	2.95579	0.517281	4.09232	0.752959	5.99009	0.946932	7.52083
0.376381	2.96513	0.228494	1.79556	0.377026	2.96063	0.540431	4.27308	0.653295	5.16376	0.891504	7.02918	0.373504	2.9507	0.518609	4.0728	0.753744	5.95222	0.947615	7.47097
0.377847	2.95499	0.230525	1.79836	0.378499	2.9506	0.541656	4.25144	0.654561	5.13595	0.892264	6.98386	0.375615	2.9457	0.519943	4.05362	0.754534	5.91494	0.948302	7.42188
0.379329	2.94512	0.232557	1.80111	0.379988	2.94085	0.542887	4.23017	0.655833	5.10858	0.893029	6.93925	0.377726	2.94077	0.521285	4.03477	0.755329	5.87824	0.948994	7.37353
0.380828	2.93552	0.234589	1.80383	0.381494	2.93137	0.544124	4.20925	0.657111	5.08166	0.893798	6.89531	0.379838	2.93591	0.522633	4.01625	0.75613	5.84211	0.949691	7.32591
0.382344	2.92619	0.236621	1.80652	0.383017	2.92216	0.545367	4.18868	0.658396	5.05517	0.894573	6.85203	0.381949	2.93112	0.523988	3.99804	0.756935	5.80653	0.950392	7.279
0.383877	2.91712	0.238653	1.80916	0.384558	2.91321	0.546616	4.16844	0.659687	5.02911	0.895353	6.80941	0.384061	2.92641	0.52535	3.98013	0.757746	5.7715	0.951098	7.2328
0.385427	2.90832	0.240686	1.81178	0.386117	2.90452	0.547871	4.14854	0.660983	5.00345	0.896137	6.76743	0.386174	2.92176	0.526718	3.96253	0.758562	5.737	0.951808	7.18727
0.386996	2.89977	0.242718	1.81435	0.387694	2.89608	0.549132	4.12896	0.662286	4.9782	0.896927	6.72606	0.388286	2.91718	0.528093	3.94522	0.759383	5.70302	0.952523	7.14242
0.388583	2.89147	0.244751	1.8169	0.389289	2.8879	0.5504	4.1097	0.663594	4.95335	0.897721	6.68531	0.390399	2.91266	0.529475	3.9282	0.760209	5.66956	0.953243	7.09823
0.390189	2.88343	0.246785	1.81941	0.390903	2.87996	0.551673	4.09074	0.664909	4.92888	0.89852	6.64516	0.392511	2.90821	0.530863	3.91146	0.76104	5.63659	0.953967	7.05468
0.391813	2.87564	0.248818	1.82188	0.392536	2.87228	0.552952	4.07209	0.666229	4.90479	0.899325	6.60559	0.394624	2.90382	0.532257	3.895	0.761876	5.60411	0.954696	7.01175
0.393457	2.86809	0.250851	1.82433	0.394188	2.86483	0.554236	4.05374	0.667555	4.88108	0.900134	6.56659	0.396737	2.89949	0.533658	3.8788	0.762717	5.57211	0.955429	6.96945
0.395119	2.86078	0.252885	1.82674	0.395859	2.85763	0.555527	4.03568	0.668887	4.85772	0.900947	6.52816	0.39885	2.89522	0.535066	3.86288	0.763564	5.54059	0.956166	6.92774
0.396802	2.85371	0.254919	1.82912	0.39755	2.85066	0.556823	4.0179	0.670224	4.83472	0.901766	6.49028	0.400963	2.89101	0.53648	3.84721	0.764415	5.50952	0.956908	6.88663
0.398504	2.84687	0.256953	1.83147	0.39926	2.84393	0.558125	4.0004	0.671568	4.81207	0.90259	6.45293	0.403077	2.88685	0.5379	3.83179	0.765272	5.4789	0.957655	6.8461
0.400225	2.84027	0.258987	1.83379	0.400991	2.83742	0.559432	3.98317	0.672917	4.78976	0.903418	6.41612	0.40519	2.88275	0.539327	3.81662	0.766133	5.44872	0.958406	6.80614
0.401967	2.83389	0.261021	1.83608	0.402741	2.83115	0.560746	3.96621	0.674271	4.76778	0.904251	6.37982	0.407303	2.8787	0.54076	3.8017	0.767	5.41898	0.959161	6.76673
0.403728	2.82773	0.263056	1.83834	0.404511	2.82509	0.562064	3.94951	0.675631	4.74613	0.905089	6.34403	0.409416	2.8747	0.542199	3.78701	0.767871	5.38966	0.959921	6.72787
0.405509	2.82179	0.26509	1.84058	0.406301	2.81924	0.563389	3.93307	0.676996	4.7248	0.905932	6.30874	0.411529	2.87076	0.543645	3.77256	0.768748	5.36075	0.960686	6.68955
0.407311	2.81607	0.267125	1.84278	0.408111	2.81361	0.564718	3.91687	0.678367	4.70378	0.90678	6.27393	0.413642	2.86687	0.545096	3.75833	0.76963	5.33226	0.961455	6.65175
0.409132	2.81056	0.269159	1.84496	0.409941	2.80819	0.566053	3.90093	0.679744	4.68307	0.907632	6.23961	0.415755	2.86302	0.546554	3.74433	0.770516	5.30416	0.962228	6.61446
0.410973	2.80525	0.271194	1.84711	0.411791	2.80297	0.567394	3.88522	0.681125	4.66266	0.908489	6.20575	0.417867	2.85923	0.548018	3.73055	0.771408	5.27646	0.963006	6.57768
0.412833	2.80014	0.273229	1.84924	0.41366	2.79795	0.56874	3.86975	0.682512	4.64254	0.909351	6.17236	0.41998	2.85548	0.549488	3.71698	0.772304	5.24914	0.963788	6.54139
0.414713	2.79523	0.275263	1.85133	0.415548	2.79312	0.570091	3.85451	0.683905	4.62272	0.910218	6.13941	0.422092	2.85177	0.550965	3.70363	0.773206	5.22219	0.964574	6.50559
0.416612	2.7905	0.277298	1.8534	0.417456	2.78848	0.571448	3.83949	0.685302	4.60318	0.911089	6.10691	0.424204	2.84812	0.552447	3.69048	0.774112	5.19562	0.965365	6.47027
0.41853	2.78596	0.279333	1.85545	0.419382	2.78402	0.57281	3.8247	0.686705	4.58391	0.911965	6.07485	0.426316	2.8445	0.553935	3.67753	0.775023	5.16941	0.966161	6.43541
0.420467	2.7816	0.281368	1.85747	0.421327	2.77974	0.574177	3.81013	0.688113	4.56492	0.912846	6.04321	0.428428	2.84093	0.555429	3.66478	0.775939	5.14356	0.96696	6.40102
0.422422	2.77742	0.283403	1.85947	0.42329	2.77563	0.575549	3.79576	0.689526	4.5462	0.913731	6.01199	0.430539	2.8374	0.556929	3.65223	0.77686	5.11805	0.967764	6.36707
0.424394	2.7734	0.285438	1.86144	0.42527	2.77168	0.576926	3.78161	0.690945	4.52773	0.914621	5.98118	0.43265	2.83391	0.558435	3.63986	0.777786	5.09289	0.968573	6.33356
0.426385	2.76954	0.287473	1.86339	0.427268	2.76789	0.578309	3.76766	0.692368	4.50953	0.915516	5.95077	0.434761	2.83047	0.559947	3.62769	0.778717	5.06807	0.969385	6.30049
0.428392	2.76584	0.289508	1.86531	0.429283	2.76426	0.579696	3.75392	0.693796	4.49158	0.916415	5.92076	0.436872	2.82706	0.561465	3.61569	0.779653	5.04358	0.970202	6.26785
0.430416	2.76229	0.291543	1.86722	0.431314	2.76078	0.581089	3.74037	0.69523	4.47387	0.917319	5.89114	0.438982	2.82369	0.562988	3.60388	0.780593	5.01941	0.971024	6.23562
0.432456	2.75889	0.293577	1.8691	0.433361	2.75744	0.582486	3.72701	0.696668	4.45641	0.918228	5.8619	0.441092	2.82036	0.564517	3.59225	0.781539	4.99556	0.97185	6.20381
0.434512	2.75563	0.295612	1.87095	0.435424	2.75423	0.583889	3.71385	0.698111	4.43918	0.919141	5.83304	0.443201	2.81706	0.566052	3.58079	0.782489	4.97202	0.972679	6.17239
0.436583	2.7525	0.297647	1.87279	0.437502	2.75116	0.585297	3.70087	0.699559	4.42219	0.920059	5.80454	0.44531	2.81381	0.567593	3.56949	0.783444	4.94879	0.973514	6.14138
0.438669	2.7495	0.299682	1.8746	0.439594	2.74822	0.586709	3.68807	0.701012	4.40543	0.920981	5.77641	0.447419	2.81058	0.569139	3.55837	0.784404	4.92586	0.974352	6.11075
0.440769	2.74662	0.301716	1.87639	0.4417	2.74539	0.588126	3.67545	0.70247	4.38889	0.921908	5.74863	0.449527	2.8074	0.570692	3.54741	0.785368	4.90323	0.975195	6.08051
0.442883	2.74387	0.303751	1.87816	0.44382	2.74269	0.589548	3.66301	0.703932	4.37257	0.92284	5.7212	0.451635	2.80424	0.572249	3.53661	0.786338	4.88089	0.976042	6.05064
0.445011	2.74122	0.305786	1.87991	0.445953	2.74009	0.590975	3.65074	0.705399	4.35647	0.923776	5.69411	0.453742	2.80112	0.573812	3.52597	0.787312	4.85884	0.976894	6.02114
0.44715	2.73869	0.30782	1.88165	0.448098	2.7376	0.592406	3.63864	0.706871	4.34059	0.924717	5.66737	0.455849	2.79804	0.575381	3.51548	0.78829	4.83707	0.977749	5.992
0.449303	2.73625	0.309855	1.88336	0.450256	2.73521	0.593843	3.62671	0.708347	4.32491	0.925662	5.64095	0.457955	2.79498	0.576956	3.50515	0.789274	4.81557	0.978609	5.96323
0.451467	2.73392	0.311889	1.88505	0.452425	2.73292	0.595284	3.61494	0.709828	4.30944	0.926612	5.61486	0.460061	2.79196	0.578535	3.49496	0.790262	4.79435	0.979473	5.9348
0.453642	2.73168	0.313923	1.88672	0.454605	2.73072	0.596729	3.60333	0.711314	4.29417	0.927566	5.58908	0.462166	2.78896	0.580121	3.48493	0.791255	4.77339	0.980341	5.90671
0.455828	2.72953	0.315958	1.88837	0.456796	2.72861	0.598179	3.59188	0.712804	4.2791	0.928525	5.56363	0.464271	2.786	0.581712	3.47503	0.792253	4.7527	0.981213	5.87897
0.458025	2.72747	0.317992	1.89	0.458997	2.72659	0.599634	3.58059	0.714299	4.26422	0.929488	5.53848	0.466375	2.78307	0.583308	3.46528	0.793255	4.73226	0.98209	5.85155
0.460231	2.72549	0.320026	1.89162	0.461208	2.72464	0.601094	3.56944	0.715798	4.24953	0.930455	5.51364	0.468479	2.78016	0.584909	3.45567	0.794262	4.71208	0.982971	5.82447
0.462447	2.72358	0.32206	1.89321	0.463428	2.72277	0.602557	3.55845	0.717302	4.23503	0.931428	5.48909	0.470582	2.77729	0.586516	3.44619	0.795274	4.69215	0.983856	5.7977
0.464673	2.72175	0.324094	1.89479	0.465657	2.72097	0.604026	3.5476	0.718809	4.22072	0.932404	5.46484	0.472684	2.77444	0.588129	3.43685	0.79629	4.67246	0.984745	5.77126
0.466907	2.72	0.326127	1.89635	0.467895	2.71924	0.605498	3.5369	0.720322	4.20659	0.933385	5.44088	0.474786	2.77162	0.589746	3.42764	0.797312	4.65301	0.985638	5.74512
0.469149	2.71831	0.328161	1.89789	0.47014	2.71758	0.606976	3.52633	0.721838	4.19263	0.934371	5.4172	0.476887	2.76882	0.591369	3.41856	0.798337	4.6338	0.986535	5.71929
0.471399	2.71668	0.330195	1.89942	0.472394	2.71598	0.608457	3.51591	0.723359	4.17885	0.935361	5.39381	0.478987	2.76606	0.592997	3.40961	0.799367	4.61483	0.987437	5.69376
0.473657	2.71511	0.332228	1.90093	0.474655	2.71444	0.609943	3.50562	0.724885	4.16524	0.936355	5.37069	0.481087	2.76331	0.594631	3.40078	0.800402	4.59608	0.988343	5.66853
0.475923	2.71361	0.334261	1.90242	0.476924	2.71296	0.611433	3.49547	0.726414	4.15181	0.937354	5.34783	0.483186	2.7606	0.596269	3.39208	0.801442	4.57756	0.989252	5.64359
0.478195	2.71215	0.336294	1.9039	0.479199	2.71153	0.612928	3.48545	0.727948	4.13853	0.938357	5.32525	0.485284	2.7579	0.597913	3.3835	0.802486	4.55926	0.990166	5.61894
0.480474	2.71075	0.338327	1.90536	0.481481	2.71015	0.614427	3.47556	0.729485	4.12542	0.939364	5.30293	0.487382	2.75524	0.599562	3.37503	0.803534	4.54118	0.991084	5.59457
0.482759	2.7094	0.34036	1.9068	0.483769	2.70883	0.61593	3.46579	0.731027	4.11247	0.940376	5.28087	0.489478	2.75259	0.601216	3.36669	0.804588	4.52331	0.992006	5.57048
0.48505	2.7081	0.342393	1.90823	0.486063	2.70754	0.617437	3.45616	0.732573	4.09968	0.941392	5.25906	0.491575	2.74997	0.602875	3.35846	0.805645	4.50566	0.992932	5.54666
0.487347	2.70685	0.344426	1.90964	0.488362	2.70631	0.618948	3.44664	0.734123	4.08705	0.942412	5.2375	0.49367	2.74737	0.604539	3.35034	0.806707	4.48821	0.993862	5.52311
0.48965	2.70564	0.346458	1.91104	0.490667	2.70512	0.620464	3.43725	0.735677	4.07457	0.943437	5.21618	0.495764	2.7448	0.606208	3.34233	0.807774	4.47097	0.994796	5.49982
0.491958	2.70447	0.34849	1.91242	0.492977	2.70396	0.621984	3.42797	0.737235	4.06223	0.944466	5.19511	0.497858	2.74224	0.607882	3.33443	0.808846	4.45393	0.995734	5.4768
0.494271	2.70334	0.350522	1.91378	0.495293	2.70285	0.623507	3.41882	0.738797	4.05005	0.9455	5.17428	0.499951	2.73971	0.609561	3.32664	0.809921	4.43709	0.996676	5.45403
0.496589	2.70224	0.352554	1.91514	0.497612	2.70177	0.625035	3.40977	0.740363	4.03801	0.946537	5.15368	0.502043	2.7372	0.611245	3.31896	0.811002	4.42045	0.997622	5.43152
0.498911	2.70118	0.354586	1.91647	0.499937	2.70073	0.626567	3.40084	0.741933	4.02611	0.947579	5.13331	0.504134	2.73471	0.612934	3.31137	0.812086	4.404	0.998572	5.40925
0.501238	2.70016	0.356618	1.9178	0.502265	2.69972	0.628103	3.39203	0.743507	4.01436	0.948625	5.11317	0.506225	2.73224	0.614628	3.3039	0.813175	4.38773	0.999526	5.38723
0.503569	2.69917	0.358649	1.91911	0.504598	2.69874	0.629642	3.38332	0.745085	4.00274	0.949676	5.09326	0.508314	2.72979	0.616327	3.29652	0.814269	4.37166	1.00048	5.36545
0.505904	2.69821	0.36068	1.9204	0.506935	2.6978	0.631186	3.37472	0.746666	3.99126	0.950731	5.07356	0.510403	2.72736	0.618031	3.28924	0.815367	4.35576		
0.508243	2.69728	0.362712	1.92168	0.509275	2.69688	0.632734	3.36622	0.748251	3.97991	0.951789	5.05408	0.512491	2.72495	0.619739	3.28206	0.81647	4.34005		
0.510585	2.69638	0.364742	1.92295	0.511619	2.69599	0.634285	3.35783	0.74984	3.96869	0.952853	5.03482	0.514577	2.72256	0.621452	3.27497	0.817576	4.32452		
0.512931	2.69551	0.366773	1.92421	0.513967	2.69513	0.635841	3.34955	0.751433	3.95761	0.95392	5.01577	0.516663	2.72019	0.62317	3.26798	0.818688	4.30916		
0.51528	2.69466	0.368804	1.92545	0.516318	2.6943	0.6374	3.34136	0.753029	3.94665	0.954991	4.99692	0.518749	2.71783	0.624893	3.26108	0.819803	4.29398		
0.517633	2.69384	0.370834	1.92668	0.518671	2.69348	0.638963	3.33327	0.754629	3.93581	0.956067	4.97828	0.520833	2.7155	0.626621	3.25427	0.820923	4.27896		
0.519989	2.69304	0.372864	1.92789	0.521028	2.69269	0.640529	3.32529	0.756232	3.9251	0.957147	4.95984	0.522916	2.71318	0.628353	3.24756	0.822048	4.26411		
0.522347	2.69226	0.374894	1.92909	0.523388	2.69193	0.6421	3.31739	0.75784	3.91452	0.958231	4.9416	0.524998	2.71088	0.63009	3.24093	0.823177	4.24943		
0.524708	2.69151	0.376924	1.93029	0.52575	2.69118	0.643674	3.3096	0.75945	3.90405	0.959319	4.92356	0.527079	2.70859	0.631831	3.23438	0.82431	4.23491		
0.527072	2.69077	0.378954	1.93146	0.528115	2.69046	0.645252	3.30189	0.761065	3.8937	0.960412	4.9057	0.52916	2.70633	0.633578	3.22793	0.825447	4.22055		
0.529439	2.69006	0.380983	1.93263	0.530483	2.68975	0.646834	3.29428	0.762683	3.88346	0.961508	4.88804	0.531239	2.70408	0.635328	3.22156	0.826589	4.20635		
0.531808	2.68937	0.383013	1.93378	0.532853	2.68907	0.648419	3.28676	0.764304	3.87334	0.962609	4.87057	0.533317	2.70184	0.637084	3.21527	0.827735	4.19231		
0.534179	2.68869	0.385042	1.93493	0.535225	2.6884	0.650008	3.27932	0.765929	3.86334	0.963713	4.85328	0.535395	2.69962	0.638844	3.20906	0.828886	4.17842		
0.536552	2.68803	0.38707	1.93606	0.5376	2.68774	0.6516	3.27198	0.767557	3.85344	0.964822	4.83617	0.537471	2.69742	0.640608	3.20293	0.83004	4.16468		
0.538928	2.68739	0.389099	1.93718	0.539976	2.68711	0.653197	3.26472	0.769188	3.84365	0.965935	4.81924	0.539546	2.69523	0.642377	3.19688	0.831199	4.15109		
0.541305	2.68676	0.391128	1.93828	0.542355	2.68649	0.654796	3.25755	0.770823	3.83397	0.967052	4.80249	0.541621	2.69306	0.64415	3.19091	0.832362	4.13765		
0.543685	2.68615	0.393156	1.93938	0.544735	2.68589	0.656399	3.25045	0.772461	3.8244	0.968173	4.78591	0.543694	2.69091	0.645928	3.18502	0.83353	4.12435		
0.546066	2.68555	0.395184	1.94047	0.547117	2.6853	0.658006	3.24345	0.774103	3.81493	0.969298	4.76951	0.545766	2.68876	0.64771	3.1792	0.834701	4.11119		
0.54845	2.68497	0.397212	1.94154	0.549501	2.68472	0.659616	3.23652	0.775748	3.80556	0.970427	4.75327	0.547837	2.68664	0.649497	3.17346	0.835877	4.09818		
0.550835	2.6844	0.399239	1.94261	0.551887	2.68416	0.66123	3.22967	0.777396	3.79629	0.97156	4.7372	0.549907	2.68452	0.651288	3.16779	0.837058	4.0853		
0.553221	2.68385	0.401267	1.94366	0.554274	2.68361	0.662847	3.2229	0.779047	3.78713	0.972697	4.7213	0.551976	2.68242	0.653083	3.16219	0.838242	4.07256		
0.555609	2.68331	0.403294	1.9447	0.556663	2.68307	0.664468	3.21621	0.780702	3.77806	0.973838	4.70556	0.554044	2.68034	0.654883	3.15666	0.83943	4.05996		
0.557999	2.68277	0.405321	1.94573	0.559053	2.68254	0.666092	3.2096	0.78236	3.76909	0.974983	4.68998	0.556111	2.67826	0.656686	3.15121	0.840623	4.04749		
0.56039	2.68225	0.407347	1.94676	0.561445	2.68203	0.667719	3.20306	0.784021	3.76021	0.976132	4.67455	0.558177	2.6762	0.658495	3.14582	0.84182	4.03515		
0.562782	2.68175	0.409374	1.94777	0.563838	2.68152	0.66935	3.1966	0.785685	3.75143	0.977285	4.65929	0.560242	2.67416	0.660307	3.1405	0.843021	4.02294		
0.565176	2.68125	0.4114	1.94877	0.566232	2.68103	0.670984	3.19021	0.787352	3.74274	0.978442	4.64417	0.562306	2.67212	0.662124	3.13525	0.844226	4.01086		
0.567571	2.68076	0.413426	1.94976	0.568627	2.68055	0.672621	3.18389	0.789022	3.73414	0.979603	4.62921	0.564368	2.6701	0.663944	3.13006	0.845436	3.99891		
0.569967	2.68028	0.415452	1.95075	0.571024	2.68007	0.674262	3.17764	0.790695	3.72563	0.980767	4.6144	0.56643	2.6681	0.665769	3.12494	0.846649	3.98708		
0.572364	2.67981	0.417478	1.95172	0.573421	2.67961	0.675905	3.17146	0.792372	3.71721	0.981936	4.59973	0.56849	2.6661	0.667598	3.11988	0.847867	3.97537		
0.574762	2.67935	0.419503	1.95268	0.57582	2.67915	0.677553	3.16535	0.794051	3.70888	0.983109	4.58522	0.570549	2.66412	0.669432	3.11488	0.849088	3.96378		
0.577161	2.6789	0.421528	1.95364	0.57822	2.67871	0.679203	3.15931	0.795733	3.70063	0.984285	4.57084	0.572607	2.66215	0.671269	3.10995	0.850314	3.95231		
0.579561	2.67846	0.423553	1.95458	0.58062	2.67827	0.680857	3.15334	0.797418	3.69247	0.985466	4.55661	0.574665	2.66019	0.67311	3.10508	0.851544	3.94096		
0.581962	2.67803	0.425578	1.95552	0.583022	2.67784	0.682514	3.14743	0.799106	3.68439	0.98665	4.54251	0.57672	2.65824	0.674956	3.10027	0.852778	3.92973		
0.584364	2.6776	0.427602	1.95644	0.585424	2.67741	0.684174	3.14159	0.800798	3.6764	0.987838	4.52856	0.578775	2.6563	0.676805	3.09551	0.854016	3.91861		
0.586767	2.67718	0.429626	1.95736	0.587827	2.677	0.685837	3.13581	0.802491	3.66848	0.98903	4.51474	0.580829	2.65438	0.678658	3.09082	0.855258	3.9076		
0.589171	2.67677	0.43165	1.95827	0.590231	2.67659	0.687503	3.13009	0.804188	3.66065	0.990226	4.50106	0.582881	2.65246	0.680516	3.08618	0.856504	3.89671		
0.591575	2.67636	0.433674	1.95917	0.592636	2.67619	0.689173	3.12444	0.805888	3.65289	0.991426	4.48751	0.584933	2.65056	0.682377	3.0816	0.857754	3.88592		
0.59398	2.67596	0.435698	1.96006	0.595041	2.67579	0.690845	3.11885	0.80759	3.64521	0.992629	4.47409	0.586983	2.64867	0.684242	3.07708	0.859008	3.87525		
0.596386	2.67557	0.437721	1.96094	0.597447	2.6754	0.692521	3.11332	0.809296	3.63761	0.993837	4.46079	0.589032	2.64679	0.686111	3.07261	0.860267	3.86468		
0.598792	2.67518	0.439744	1.96182	0.599853	2.67502	0.6942	3.10785	0.811003	3.63009	0.995048	4.44763	0.59108	2.64492	0.687984	3.06819	0.861529	3.85422		
0.601199	2.6748	0.441767	1.96268	0.60226	2.67464	0.695881	3.10244	0.812714	3.62264	0.996263	4.43459	0.593127	2.64306	0.68986	3.06383	0.862795	3.84386		
0.603606	2.67443	0.443789	1.96354	0.604668	2.67426	0.697566	3.09709	0.814428	3.61526	0.997482	4.42168	0.595173	2.64121	0.691741	3.05952	0.864065	3.83361		
0.606014	2.67406	0.445811	1.96439	0.607076	2.6739	0.699254	3.09179	0.816144	3.60796	0.998704	4.40889	0.597217	2.63937	0.693625	3.05527	0.865339	3.82346		
0.608423	2.67369	0.447833	1.96523	0.609485	2.67353	0.700945	3.08655	0.817862	3.60072	0.99993	4.39622	0.599261	2.63754	0.695513	3.05106	0.866617	3.8134		
0.610831	2.67333	0.449855	1.96607	0.611894	2.67318	0.702639	3.08137	0.819584	3.59356	1.00116	4.38367	0.601303	2.63572	0.697404	3.04691	0.867899	3.80345		
0.613241	2.67298	0.451877	1.96689	0.614303	2.67282	0.704336	3.07624	0.821308	3.58647			0.603344	2.63391	0.6993	3.0428	0.869185	3.7936		
0.61565	2.67263	0.453898	1.96771	0.616713	2.67247	0.706036	3.07117	0.823035	3.57945			0.605384	2.63211	0.701199	3.03875	0.870475	3.78384		
0.61806	2.67228	0.455919	1.96852	0.619123	2.67213	0.707739	3.06615	0.824764	3.57249			0.607423	2.63032	0.703101	3.03474	0.871769	3.77418		
0.62047	2.67194	0.45794	1.96933	0.621534	2.67179	0.709445	3.06119	0.826496	3.5656			0.609461	2.62854	0.705007	3.03078	0.873066	3.76461		
0.622881	2.6716	0.459961	1.97012	0.623944	2.67145	0.711154	3.05627	0.82823	3.55878			0.611498	2.62677	0.706917	3.02686	0.874368	3.75514		
0.625292	2.67127	0.461981	1.97091	0.626355	2.67112	0.712866	3.05141	0.829967	3.55202			0.613533	2.62501	0.70883	3.023	0.875673	3.74576		
0.627703	2.67094	0.464001	1.97169	0.628766	2.67079	0.71458	3.0466	0.831706	3.54533			0.615567	2.62325	0.710747	3.01917	0.876983	3.73647		
0.630114	2.67061	0.466021	1.97246	0.631178	2.67046	0.716298	3.04184	0.833448	3.5387			0.617601	2.62151	0.712668	3.0154	0.878296	3.72727		
0.632526	2.67028	0.46804	1.97323	0.633589	2.67014	0.718018	3.03713	0.835192	3.53214			0.619633	2.61977	0.714591	3.01166	0.879613	3.71815		
0.634937	2.66996	0.47006	1.97399	0.636001	2.66982	0.719742	3.03247	0.836939	3.52563			0.621664	2.61805	0.716518	3.00797	0.880934	3.70913		
0.637349	2.66964	0.472079	1.97474	0.638412	2.66951	0.721468	3.02786	0.838688	3.51919			0.623694	2.61633	0.718449	3.00433	0.882259	3.70019		
0.63976	2.66933	0.474098	1.97549	0.640824	2.66919	0.723197	3.02329	0.840439	3.5128			0.625722	2.61462	0.720383	3.00072	0.883587	3.69134		
0.642172	2.66902	0.476116	1.97623	0.643236	2.66888	0.724929	3.01877	0.842193	3.50648			0.62775	2.61292	0.72232	2.99716	0.884919	3.68257		
0.644584	2.66871	0.478135	1.97696	0.645648	2.66857	0.726664	3.0143	0.843949	3.50021			0.629776	2.61123	0.724261	2.99364	0.886256	3.67389		
0.646996	2.6684	0.480153	1.97769	0.64806	2.66826	0.728402	3.00988	0.845708	3.494			0.631802	2.60955	0.726205	2.99016	0.887596	3.66529		
0.649408	2.66809	0.48217	1.9784	0.650471	2.66796	0.730142	3.0055	0.847468	3.48785			0.633826	2.60787	0.728152	2.98672	0.888939	3.65677		
0.65182	2.66779	0.484188	1.97912	0.652883	2.66766	0.731886	3.00117	0.849231	3.48176			0.635849	2.60621	0.730102	2.98332	0.890287	3.64833		
0.654231	2.66749	0.486205	1.97982	0.655295	2.66736	0.733632	2.99688	0.850997	3.47572			0.637872	2.60455	0.732056	2.97996	0.891638	3.63997		
0.656643	2.66719	0.488222	1.98052	0.657706	2.66706	0.735381	2.99263	0.852764	3.46973			0.639893	2.6029	0.734013	2.97663	0.892993	3.63169		
0.659054	2.66689	0.490239	1.98122	0.660118	2.66676	0.737133	2.98843	0.854534	3.4638			0.641913	2.60126	0.735972	2.97335	0.894352	3.62348		
0.661466	2.6666	0.492256	1.9819	0.662529	2.66647	0.738887	2.98427	0.856306	3.45793			0.643931	2.59962	0.737935	2.9701	0.895715	3.61536		
0.663877	2.6663	0.494272	1.98258	0.66494	2.66617	0.740644	2.98015	0.85808	3.4521			0.645949	2.598	0.739902	2.96689	0.897081	3.6073		
0.666288	2.66601	0.496288	1.98326	0.667351	2.66588	0.742405	2.97608	0.859857	3.44633			0.647966	2.59638	0.741871	2.96371	0.898451	3.59933		
0.668699	2.66572	0.498304	1.98393	0.669762	2.66559	0.744168	2.97205	0.861635	3.44061			0.649982	2.59477	0.743843	2.96057	0.899825	3.59143		
0.671109	2.66543	0.500319	1.98459	0.672172	2.6653	0.745933	2.96805	0.863416	3.43494			0.651996	2.59317	0.745818	2.95746	0.901202	3.5836		
0.673519	2.66514	0.502334	1.98525	0.674582	2.66501	0.747702	2.9641	0.865199	3.42933			0.65401	2.59157	0.747796	2.95439	0.902583	3.57584		
0.675929	2.66485	0.504349	1.9859	0.676992	2.66472	0.749473	2.96019	0.866983	3.42376			0.656022	2.58999	0.749777	2.95135	0.903968	3.56816		
0.678339	2.66456	0.506364	1.98654	0.679402	2.66444	0.751247	2.95632	0.86877	3.41824			0.658034	2.58841	0.751761	2.94835	0.905357	3.56055		
0.680748	2.66428	0.508379	1.98718	0.681811	2.66415	0.753024	2.95249	0.870559	3.41276			0.660044	2.58683	0.753748	2.94538	0.906749	3.553		
0.683157	2.66399	0.510393	1.98782	0.684219	2.66386	0.754804	2.94869	0.87235	3.40734			0.662054	2.58527	0.755738	2.94244	0.908145	3.54553		
0.685566	2.6637	0.512407	1.98844	0.686628	2.66358	0.756586	2.94494	0.874143	3.40196			0.664062	2.58371	0.75773	2.93954	0.909544	3.53812		
0.687974	2.66342	0.51442	1.98907	0.689035	2.66329	0.758371	2.94122	0.875938	3.39663			0.66607	2.58216	0.759726	2.93666	0.910947	3.53078		
0.690381	2.66313	0.516434	1.98968	0.691443	2.66301	0.760159	2.93754	0.877735	3.39135			0.668076	2.58062	0.761724	2.93382	0.912354	3.52351		
0.692788	2.66285	0.518447	1.9903	0.69385	2.66272	0.76195	2.93389	0.879534	3.38611			0.670082	2.57908	0.763724	2.93101	0.913764	3.51631		
0.695195	2.66256	0.52046	1.9909	0.696256	2.66244	0.763743	2.93029	0.881335	3.38092			0.672086	2.57756	0.765728	2.92823	0.915178	3.50917		
0.697601	2.66228	0.522473	1.9915	0.698662	2.66215	0.76554	2.92672	0.883138	3.37577			0.67409	2.57604	0.767734	2.92548	0.916596	3.50209		
0.700006	2.66199	0.524485	1.9921	0.701067	2.66187	0.767339	2.92318	0.884943	3.37066			0.676092	2.57452	0.769743	2.92276	0.918017	3.49508		
0.702411	2.66171	0.526497	1.99269	0.703472	2.66158	0.76914	2.91968	0.886749	3.3656			0.678094	2.57301	0.771754	2.92006	0.919442	3.48813		
0.704816	2.66142	0.528509	1.99328	0.705876	2.6613	0.770945	2.91622	0.888558	3.36058			0.680094	2.57152	0.773768	2.9174	0.92087	3.48124		
0.707219	2.66114	0.530521	1.99386	0.708279	2.66101	0.772752	2.91279	0.890368	3.3556			0.682094	2.57002	0.775785	2.91476	0.922302	3.47442		
0.709622	2.66085	0.532532	1.99443	0.710682	2.66072	0.774563	2.9094	0.89218	3.35067			0.684093	2.56854	0.777804	2.91216	0.923738	3.46766		
0.712025	2.66056	0.534543	1.995	0.713084	2.66044	0.776376	2.90604	0.893994	3.34577			0.686091	2.56706	0.779826	2.90957	0.925177	3.46096		
0.714426	2.66028	0.536554	1.99557	0.715485	2.66015	0.778191	2.90271	0.89581	3.34092			0.688088	2.56559	0.78185	2.90702	0.92662	3.45431		
0.716827	2.65999	0.538564	1.99613	0.717885	2.65986	0.78001	2.89942	0.897628	3.3361			0.690084	2.56412	0.783876	2.90449	0.928066	3.44773		
0.719227	2.6597	0.540575	1.99669	0.720285	2.65957	0.781832	2.89616	0.899447	3.33133			0.692079	2.56266	0.785905	2.90199	0.929516	3.4412		
0.721626	2.65941	0.542585	1.99724	0.722684	2.65928	0.783656	2.89293	0.901268	3.3266			0.694073	2.56121	0.787936	2.89952	0.930969	3.43474		
0.724024	2.65911	0.544595	1.99778	0.725082	2.65899	0.785483	2.88974	0.903091	3.3219			0.696066	2.55977	0.78997	2.89707	0.932426	3.42833		
0.726422	2.65882	0.546604	1.99833	0.727479	2.65869	0.787313	2.88658	0.904916	3.31724			0.698059	2.55833	0.792006	2.89464	0.933886	3.42197		
0.728818	2.65853	0.548613	1.99886	0.729875	2.6584	0.789146	2.88345	0.906742	3.31262			0.70005	2.5569	0.794044	2.89225	0.93535	3.41568		
0.731214	2.65823	0.550622	1.9994	0.73227	2.6581	0.790982	2.88035	0.90857	3.30804			0.702041	2.55547	0.796084	2.88987	0.936817	3.40944		
0.733608	2.65793	0.552631	1.99992	0.734664	2.6578	0.79282	2.87728	0.9104	3.3035			0.704031	2.55405	0.798127	2.88752	0.938288	3.40325		
0.736002	2.65763	0.55464	2.00045	0.737057	2.6575	0.794662	2.87425	0.912231	3.29899			0.70602	2.55264	0.800172	2.88519	0.939763	3.39712		
0.738394	2.65733	0.556648	2.00097	0.739449	2.6572	0.796507	2.87125	0.914064	3.29452			0.708008	2.55123	0.802219	2.88289	0.94124	3.39104		
0.740786	2.65703	0.558656	2.00148	0.74184	2.6569	0.798354	2.86827	0.915899	3.29008			0.709996	2.54984	0.804268	2.88061	0.942722	3.38501		
0.743176	2.65673	0.560663	2.00199	0.744229	2.65659	0.800205	2.86533	0.917735	3.28568			0.711983	2.54844	0.806319	2.87835	0.944206	3.37904		
0.745565	2.65642	0.562671	2.0025	0.746618	2.65628	0.802058	2.86242	0.919573	3.28132			0.713968	2.54706	0.808373	2.87611	0.945695	3.37312		
0.747953	2.65611	0.564678	2.003	0.749005	2.65597	0.803915	2.85953	0.921412	3.27699			0.715953	2.54568	0.810428	2.8739	0.947186	3.36725		
0.750339	2.6558	0.566685	2.0035	0.751391	2.65566	0.805774	2.85668	0.923253	3.27269			0.717938	2.5443	0.812485	2.87171	0.948682	3.36143		
0.752725	2.65548	0.568692	2.00399	0.753776	2.65534	0.807637	2.85386	0.925095	3.26843			0.719921	2.54294	0.814545	2.86954	0.95018	3.35566		
0.755109	2.65517	0.570698	2.00448	0.756159	2.65503	0.809502	2.85106	0.92694	3.2642			0.721904	2.54158	0.816606	2.86739	0.951682	3.34994		
0.757491	2.65485	0.572704	2.00496	0.758541	2.6547	0.811371	2.8483	0.928785	3.26			0.723886	2.54022	0.818669	2.86526	0.953188	3.34428		
0.759872	2.65452	0.57471	2.00544	0.760922	2.65438	0.813243	2.84556	0.930632	3.25584			0.725867	2.53888	0.820735	2.86315	0.954696	3.33866		
0.762252	2.6542	0.576716	2.00592	0.763301	2.65405	0.815118	2.84285	0.932481	3.2517			0.727848	2.53753	0.822802	2.86106	0.956209	3.33308		
0.76463	2.65387	0.578721	2.00639	0.765679	2.65372	0.816996	2.84018	0.934331	3.2476			0.729828	2.5362	0.82487	2.85899	0.957724	3.32756		
0.767007	2.65354	0.580726	2.00686	0.768055	2.65339	0.818877	2.83753	0.936182	3.24354			0.731807	2.53487	0.826941	2.85694	0.959243	3.32208		
0.769382	2.6532	0.582731	2.00733	0.770429	2.65305	0.820762	2.8349	0.938035	3.2395			0.733786	2.53355	0.829014	2.85491	0.960766	3.31666		
0.771756	2.65286	0.584735	2.00779	0.772802	2.65271	0.822649	2.83231	0.93989	3.23549			0.735763	2.53223	0.831088	2.8529	0.962292	3.31127		
0.774127	2.65252	0.58674	2.00825	0.775173	2.65237	0.82454	2.82974	0.941746	3.23152			0.737741	2.53092	0.833164	2.85091	0.963821	3.30594		
0.776498	2.65218	0.588744	2.0087	0.777542	2.65202	0.826435	2.8272	0.943603	3.22757			0.739717	2.52961	0.835241	2.84894	0.965354	3.30065		
0.778866	2.65183	0.590748	2.00915	0.77991	2.65167	0.828333	2.82469	0.945461	3.22365			0.741693	2.52831	0.837321	2.84698	0.96689	3.2954		
0.781232	2.65147	0.592751	2.0096	0.782275	2.65132	0.830234	2.82221	0.947321	3.21977			0.743668	2.52702	0.839402	2.84505	0.968429	3.2902		
0.783597	2.65112	0.594754	2.01004	0.784639	2.65096	0.832138	2.81975	0.949183	3.21591			0.745642	2.52573	0.841484	2.84313	0.969972	3.28504		
0.78596	2.65075	0.596757	2.01048	0.787001	2.65059	0.834046	2.81732	0.951046	3.21208			0.747616	2.52445	0.843568	2.84122	0.971518	3.27993		
0.78832	2.65039	0.59876	2.01091	0.789361	2.65022	0.835958	2.81492	0.95291	3.20828			0.74959	2.52318	0.845654	2.83934	0.973068	3.27486		
0.790679	2.65002	0.600763	2.01135	0.791718	2.64985	0.837873	2.81255	0.954775	3.20451			0.751562	2.52191	0.847741	2.83747	0.97462	3.26983		
0.793035	2.64964	0.602765	2.01177	0.794074	2.64947	0.839791	2.8102	0.956642	3.20077			0.753534	2.52065	0.84983	2.83562	0.976177	3.26485		
0.79539	2.64926	0.604767	2.0122	0.796427	2.64909	0.841714	2.80788	0.95851	3.19705			0.755506	2.51939	0.85192	2.83378	0.977736	3.25991		
0.797742	2.64887	0.606769	2.01262	0.798778	2.6487	0.84364	2.80558	0.960379	3.19336			0.757477	2.51814	0.854012	2.83196	0.979299	3.255		
0.800092	2.64848	0.60877	2.01304	0.801127	2.64831	0.845569	2.80331	0.96225	3.1897			0.759447	2.51689	0.856105	2.83016	0.980865	3.25015		
0.802439	2.64809	0.610771	2.01345	0.803474	2.64791	0.847502	2.80107	0.964121	3.18607			0.761417	2.51565	0.858199	2.82837	0.982435	3.24533		
0.804785	2.64768	0.612772	2.01386	0.805818	2.64751	0.84944	2.79885	0.965994	3.18246			0.763386	2.51442	0.860295	2.8266	0.984007	3.24055		
0.807127	2.64728	0.614773	2.01427	0.80816	2.6471	0.851381	2.79666	0.967869	3.17887			0.765355	2.51319	0.862392	2.82484	0.985583	3.23581		
0.809467	2.64686	0.616773	2.01467	0.810499	2.64668	0.853325	2.7945	0.969744	3.17532			0.767323	2.51197	0.86449	2.8231	0.987163	3.23111		
0.811805	2.64645	0.618773	2.01508	0.812835	2.64626	0.855274	2.79236	0.971621	3.17179			0.769291	2.51075	0.86659	2.82137	0.988746	3.22645		
0.81414	2.64602	0.620773	2.01547	0.815169	2.64583	0.857227	2.79025	0.973499	3.16828			0.771258	2.50954	0.868691	2.81966	0.990332	3.22183		
0.816472	2.64559	0.622773	2.01587	0.8175	2.6454	0.859184	2.78816	0.975378	3.1648			0.773225	2.50834	0.870793	2.81796	0.991921	3.21725		
0.818802	2.64515	0.624773	2.01626	0.819828	2.64496	0.861145	2.7861	0.977258	3.16134			0.775191	2.50714	0.872896	2.81628	0.993514	3.21271		
0.821128	2.64471	0.626772	2.01665	0.822154	2.64451	0.86311	2.78407	0.97914	3.15791			0.777157	2.50594	0.875001	2.81461	0.99511	3.20821		
0.823452	2.64426	0.628771	2.01703	0.824476	2.64406	0.865079	2.78206	0.981022	3.1545			0.779122	2.50476	0.877106	2.81295	0.996709	3.20374		
0.825773	2.6438	0.630769	2.01741	0.826796	2.6436	0.867052	2.78008	0.982906	3.15112			0.781087	2.50357	0.879213	2.81131	0.998311	3.19931		
0.828091	2.64334	0.632768	2.01779	0.829112	2.64313	0.86903	2.77812	0.984791	3.14776			0.783051	2.5024	0.881321	2.80967	0.999917	3.19491		
0.830405	2.64287	0.634766	2.01817	0.831425	2.64266	0.871012	2.77619	0.986677	3.14443			0.785015	2.50123	0.883429	2.80806	1.00153	3.19056		
0.832717	2.64239	0.636764	2.01854	0.833735	2.64217	0.872999	2.77428	0.988564	3.14111			0.786978	2.50006	0.885539	2.80645				
0.835025	2.6419	0.638761	2.01891	0.836042	2.64168	0.87499	2.7724	0.990452	3.13782			0.788941	2.4989	0.88765	2.80486				
0.83733	2.64141	0.640759	2.01928	0.838346	2.64119	0.876985	2.77054	0.992341	3.13456			0.790904	2.49774	0.889762	2.80328				
0.839632	2.64091	0.642756	2.01964	0.840646	2.64068	0.878985	2.76871	0.994231	3.13131			0.792866	2.4966	0.891875	2.80171				
0.84193	2.6404	0.644753	2.02	0.842942	2.64017	0.88099	2.76691	0.996123	3.12809			0.794828	2.49545	0.893988	2.80016				
0.844225	2.63988	0.646749	2.02036	0.845236	2.63965	0.882999	2.76512	0.998015	3.12489			0.796789	2.49431	0.896103	2.79861				
0.846516	2.63936	0.648746	2.02072	0.847525	2.63912	0.885013	2.76337	0.999908	3.12171			0.79875	2.49318	0.898218	2.79708				
0.848803	2.63882	0.650742	2.02107	0.849811	2.63858	0.887032	2.76164	1.0018	3.11855			0.800711	2.49205	0.900335	2.79556				
0.851087	2.63828	0.652738	2.02142	0.852093	2.63804	0.889056	2.75993					0.802671	2.49093	0.902452	2.79405				
0.853367	2.63773	0.654733	2.02176	0.854372	2.63748	0.891085	2.75825					0.804631	2.48981	0.90457	2.79255				
0.855643	2.63717	0.656729	2.02211	0.856646	2.63692	0.893118	2.7566					0.80659	2.4887	0.906688	2.79106				
0.857916	2.6366	0.658724	2.02245	0.858917	2.63635	0.895157	2.75497					0.80855	2.4876	0.908808	2.78959				
0.860184	2.63603	0.660719	2.02279	0.861183	2.63577	0.8972	2.75336					0.810509	2.4865	0.910928	2.78812				
0.862449	2.63544	0.662713	2.02312	0.863446	2.63518	0.899249	2.75178					0.812467	2.4854	0.913048	2.78667				
0.864709	2.63485	0.664707	2.02346	0.865704	2.63458	0.901303	2.75022					0.814425	2.48431	0.91517	2.78522				
0.866965	2.63424	0.666702	2.02379	0.867959	2.63397	0.903362	2.74869					0.816383	2.48323	0.917292	2.78379				
0.869217	2.63363	0.668695	2.02411	0.870209	2.63336	0.905426	2.74719					0.818341	2.48215	0.919415	2.78236				
0.871465	2.63301	0.670689	2.02444	0.872455	2.63273	0.907495	2.7457					0.820298	2.48107	0.921538	2.78095				
0.873709	2.63238	0.672682	2.02476	0.874697	2.6321	0.90957	2.74424					0.822255	2.48	0.923662	2.77954				
0.875948	2.63174	0.674676	2.02508	0.876934	2.63145	0.91165	2.74281					0.824212	2.47894	0.925786	2.77814				
0.878183	2.63109	0.676668	2.0254	0.879168	2.6308	0.913735	2.7414					0.826169	2.47788	0.927911	2.77676				
0.880414	2.63043	0.678661	2.02572	0.881396	2.63013	0.915826	2.74001					0.828125	2.47682	0.930036	2.77538				
0.88264	2.62976	0.680653	2.02603	0.883621	2.62946	0.917922	2.73865					0.830081	2.47578	0.932162	2.77401				
0.884862	2.62908	0.682646	2.02634	0.88584	2.62878	0.920024	2.73731					0.832037	2.47473	0.934288	2.77265				
0.887079	2.62839	0.684637	2.02665	0.888056	2.62809	0.922131	2.736					0.833992	2.47369	0.936415	2.7713				
0.889292	2.6277	0.686629	2.02695	0.890267	2.62738	0.924243	2.7347					0.835947	2.47266	0.938542	2.76996				
0.891501	2.62699	0.68862	2.02725	0.892473	2.62667	0.926361	2.73344					0.837902	2.47163	0.94067	2.76862				
0.893705	2.62627	0.690612	2.02755	0.894675	2.62595	0.928485	2.73219					0.839857	2.47061	0.942797	2.7673				
0.895904	2.62555	0.692603	2.02785	0.896872	2.62522	0.930613	2.73097					0.841812	2.46959	0.944925	2.76598				
0.898099	2.62481	0.694593	2.02815	0.899065	2.62449	0.932748	2.72977					0.843766	2.46857	0.947054	2.76467				
0.900289	2.62407	0.696584	2.02844	0.901254	2.62374	0.934888	2.72859					0.84572	2.46757	0.949182	2.76337				
0.902475	2.62332	0.698574	2.02873	0.903437	2.62298	0.937033	2.72743					0.847674	2.46656	0.951311	2.76207				
0.904656	2.62255	0.700564	2.02902	0.905616	2.62221	0.939184	2.7263					0.849628	2.46556	0.95344	2.76078				
0.906833	2.62178	0.702553	2.02931	0.907791	2.62144	0.94134	2.72519					0.851582	2.46457	0.95557	2.75951				
0.909005	2.621	0.704543	2.02959	0.909961	2.62066	0.943502	2.7241					0.853535	2.46358	0.957699	2.75823				
0.911172	2.62021	0.706532	2.02988	0.912127	2.61986	0.945669	2.72303					0.855488	2.46259	0.959829	2.75697				
0.913336	2.61942	0.708521	2.03016	0.914288	2.61906	0.947841	2.72198					0.857441	2.46161	0.961958	2.75571				
0.915494	2.61861	0.71051	2.03043	0.916445	2.61825	0.950019	2.72096					0.859394	2.46064	0.964088	2.75446				
0.917649	2.6178	0.712498	2.03071	0.918597	2.61743	0.952202	2.71995					0.861347	2.45967	0.966218	2.75322				
0.919799	2.61697	0.714486	2.03098	0.920745	2.61661	0.95439	2.71897					0.8633	2.4587	0.968348	2.75198				
0.921944	2.61614	0.716474	2.03125	0.922889	2.61577	0.956584	2.718					0.865252	2.45774	0.970478	2.75075				
0.924085	2.6153	0.718462	2.03152	0.925028	2.61493	0.958782	2.71706					0.867205	2.45679	0.972608	2.74953				
0.926222	2.61446	0.72045	2.03179	0.927163	2.61408	0.960986	2.71613					0.869157	2.45584	0.974738	2.74831				
0.928355	2.6136	0.722437	2.03206	0.929294	2.61323	0.963195	2.71522					0.871109	2.45489	0.976869	2.7471				
0.930483	2.61274	0.724424	2.03232	0.931421	2.61236	0.965409	2.71434					0.873061	2.45395	0.978999	2.7459				
0.932608	2.61188	0.726411	2.03258	0.933543	2.61149	0.967628	2.71347					0.875013	2.45301	0.981129	2.7447				
0.934728	2.611	0.728397	2.03284	0.935662	2.61061	0.969852	2.71262					0.876965	2.45208	0.983258	2.74351				
0.936844	2.61012	0.730384	2.0331	0.937776	2.60973	0.97208	2.71178					0.878917	2.45115	0.985388	2.74232				
0.938957	2.60923	0.73237	2.03335	0.939887	2.60884	0.974314	2.71097					0.880868	2.45022	0.987518	2.74114				
0.941065	2.60834	0.734356	2.0336	0.941994	2.60794	0.976552	2.71017					0.88282	2.44931	0.989647	2.73996				
0.94317	2.60744	0.736341	2.03386	0.944097	2.60704	0.978794	2.70939					0.884771	2.44839	0.991776	2.73879				
0.94527	2.60653	0.738327	2.0341	0.946196	2.60613	0.981042	2.70862					0.886723	2.44748	0.993905	2.73763				
0.947367	2.60562	0.740312	2.03435	0.948291	2.60522	0.983293	2.70787					0.888674	2.44658	0.996034	2.73647				
0.949461	2.6047	0.742297	2.0346	0.950383	2.6043	0.985549	2.70714					0.890625	2.44567	0.998163	2.73532				
0.951551	2.60378	0.744281	2.03484	0.952471	2.60337	0.98781	2.70642					0.892577	2.44478	1.00029	2.73417				
0.953637	2.60285	0.746266	2.03508	0.954556	2.60244	0.990075	2.70572					0.894528	2.44388						
0.95572	2.60192	0.74825	2.03532	0.956637	2.60151	0.992343	2.70503					0.896479	2.443						
0.957799	2.60099	0.750234	2.03556	0.958715	2.60057	0.994616	2.70436					0.89843	2.44211						
0.959876	2.60005	0.752218	2.0358	0.96079	2.59963	0.996893	2.7037					0.900381	2.44123						
0.961949	2.5991	0.754201	2.03603	0.962862	2.59868	0.999174	2.70306					0.902332	2.44036						
0.964019	2.59815	0.756185	2.03626	0.96493	2.59773	1.00146	2.70243					0.904283	2.43949						
0.966085	2.5972	0.758168	2.03649	0.966996	2.59678							0.906234	2.43862						
0.968149	2.59625	0.76015	2.03672	0.969058	2.59583							0.908185	2.43776						
0.97021	2.59529	0.762133	2.03695	0.971118	2.59487							0.910135	2.4369						
0.972268	2.59433	0.764116	2.03718	0.973175	2.5939							0.912086	2.43605						
0.974323	2.59337	0.766098	2.0374	0.975229	2.59294							0.914037	2.4352						
0.976376	2.5924	0.76808	2.03762	0.97728	2.59197							0.915988	2.43435						
0.978425	2.59143	0.770061	2.03784	0.979329	2.591							0.917939	2.43351						
0.980473	2.59046	0.772043	2.03806	0.981375	2.59003							0.919889	2.43268						
0.982517	2.58949	0.774024	2.03828	0.983418	2.58906							0.92184	2.43184						
0.98456	2.58852	0.776005	2.03849	0.98546	2.58809							0.923791	2.43101						
0.9866	2.58754	0.777986	2.03871	0.987499	2.58711							0.925742	2.43019						
0.988637	2.58656	0.779966	2.03892	0.989535	2.58613							0.927693	2.42937						
0.990673	2.58559	0.781947	2.03913	0.99157	2.58516							0.929644	2.42855						
0.992706	2.58461	0.783927	2.03934	0.993602	2.58418							0.931595	2.42774						
0.994737	2.58363	0.785907	2.03954	0.995632	2.5832							0.933546	2.42693						
0.996766	2.58265	0.787886	2.03975	0.99766	2.58222							0.935497	2.42613						
0.998793	2.58167	0.789866	2.03995	0.999686	2.58124							0.937448	2.42533						
1.00082	2.58069	0.791845	2.04016	1.00171	2.58026							0.939399	2.42453						
		0.793824	2.04036									0.94135	2.42374						
		0.795803	2.04056									0.943301	2.42295						
		0.797781	2.04075									0.945252	2.42216						
		0.79976	2.04095									0.947203	2.42138						
		0.801738	2.04115									0.949155	2.42061						
		0.803716	2.04134									0.951106	2.41983						
		0.805693	2.04153									0.953057	2.41906						
		0.807671	2.04172									0.955009	2.4183						
		0.809648	2.04191									0.95696	2.41754						
		0.811625	2.0421									0.958912	2.41678						
		0.813602	2.04229									0.960864	2.41602						
		0.815578	2.04247									0.962816	2.41527						
		0.817555	2.04265									0.964767	2.41453						
		0.819531	2.04284									0.966719	2.41378						
		0.821507	2.04302									0.968671	2.41304						
		0.823483	2.0432									0.970624	2.41231						
		0.825458	2.04337									0.972576	2.41158						
		0.827434	2.04355									0.974528	2.41085						
		0.829409	2.04373									0.97648	2.41012						
		0.831383	2.0439									0.978433	2.4094						
		0.833358	2.04407									0.980386	2.40868						
		0.835333	2.04424									0.982338	2.40797						
		0.837307	2.04441									0.984291	2.40726						
		0.839281	2.04458									0.986244	2.40655						
		0.841255	2.04475									0.988197	2.40585						
		0.843228	2.04492									0.99015	2.40515						
		0.845202	2.04508									0.992104	2.40445						
		0.847175	2.04524									0.994057	2.40375						
		0.849148	2.04541									0.996011	2.40306						
		0.851121	2.04557									0.997964	2.40238						
		0.853093	2.04573									0.999918	2.40169						
		0.855066	2.04589									1.00187	2.40101						
		0.857038	2.04604																
		0.85901	2.0462																
		0.860982	2.04636																
		0.862953	2.04651																
		0.864925	2.04666																
		0.866896	2.04682																
		0.868867	2.04697																
		0.870837	2.04712																
		0.872808	2.04726																
		0.874778	2.04741																
		0.876748	2.04756																
		0.878718	2.0477																
		0.880688	2.04785																
		0.882658	2.04799																
		0.884627	2.04813																
		0.886596	2.04827																
		0.888565	2.04841																
		0.890534	2.04855																
		0.892503	2.04869																
		0.894471	2.04882																
		0.896439	2.04896																
		0.898407	2.04909																
		0.900375	2.04923																
		0.902343	2.04936																
		0.90431	2.04949																
		0.906277	2.04962																
		0.908244	2.04975																
		0.910211	2.04988																
		0.912178	2.05001																
		0.914144	2.05014																
		0.916111	2.05026																
		0.918077	2.05039																
		0.920042	2.05051																
		0.922008	2.05063																
		0.923974	2.05075																
		0.925939	2.05088																
		0.927904	2.051																
		0.929869	2.05111																
		0.931834	2.05123																
		0.933799	2.05135																
		0.935763	2.05147																
		0.937727	2.05158																
		0.939691	2.0517																
		0.941655	2.05181																
		0.943619	2.05193																
		0.945582	2.05204																
		0.947546	2.05215																
		0.949509	2.05226																
		0.951472	2.05237																
		0.953435	2.05248																
		0.955397	2.05259																
		0.95736	2.05269																
		0.959322	2.0528																
		0.961284	2.05291																
		0.963246	2.05301																
		0.965208	2.05312																
		0.967169	2.05322																
		0.969131	2.05332																
		0.971092	2.05342																
		0.973053	2.05352																
		0.975014	2.05362																
		0.976975	2.05372																
		0.978935	2.05382																
		0.980896	2.05392																
		0.982856	2.05402																
		0.984816	2.05412																
		0.986776	2.05421																
		0.988736	2.05431																
		0.990695	2.0544																
		0.992654	2.05449																
		0.994614	2.05459																
		0.996573	2.05468																
		0.998532	2.05477																
		1.00049	2.05486																
