Sym0		Asym0		Sym1		Sym2		Sym3		Sym4		Asym1		Asym2		Asym3		Asym4	
425  Points		527  Points		424  Points		406  Points		352  Points		252  Points		455  Points		401  Points		345  Points		207  Points	
Freq (MHz)	Vph (m/ms)	Freq (MHz)	Vph (m/ms)	Freq (MHz)	Vph (m/ms)	Freq (MHz)	Vph (m/ms)	Freq (MHz)	Vph (m/ms)	Freq (MHz)	Vph (m/ms)	Freq (MHz)	Vph (m/ms)	Freq (MHz)	Vph (m/ms)	Freq (MHz)	Vph (m/ms)	Freq (MHz)	Vph (m/ms)
0.279509	714.297	0.000237319	0.0947932	0.279514	307.54	0.449899	11870.2	0.559017	7677.38	0.838526	2170.61	0.139755	963.561	0.419268	469.012	0.698771	3671.29	0.899798	2239.08
0.279519	211.277	0.000446099	0.12986	0.279529	151.872	0.449905	464.012	0.559024	556.515	0.838531	636.213	0.139799	129.836	0.419285	229.665	0.698776	622.778	0.899803	674.74
0.27954	123.981	0.000719473	0.164755	0.279556	100.841	0.449921	236.64	0.559041	288.731	0.838542	372.735	0.139909	69.6608	0.419314	152.072	0.698786	340.253	0.899813	397.225
0.279571	87.7392	0.00105666	0.199422	0.279593	75.4851	0.449949	158.825	0.55907	194.941	0.838559	263.582	0.140085	47.646	0.419354	113.676	0.698802	234.072	0.899828	281.465
0.279614	67.8989	0.0014568	0.233823	0.279642	60.3241	0.449987	119.528	0.55911	147.15	0.838582	203.881	0.140327	36.2432	0.419405	90.7663	0.698825	178.403	0.899849	217.953
0.279666	55.3819	0.00191867	0.267895	0.2797	50.2395	0.450035	95.8261	0.559162	118.184	0.838611	166.233	0.140634	29.2773	0.419469	75.5471	0.698853	144.129	0.899875	177.829
0.27973	46.766	0.00244123	0.301621	0.27977	43.0479	0.450095	79.9732	0.559224	98.7509	0.838645	140.324	0.141005	24.5859	0.419544	64.7034	0.698887	120.904	0.899906	150.184
0.279804	40.4741	0.00302309	0.334953	0.27985	37.6612	0.450166	68.6252	0.559298	84.8106	0.838685	121.405	0.141439	21.2151	0.41963	56.5859	0.698928	104.128	0.899942	129.979
0.279889	35.678	0.00366281	0.367858	0.279941	33.4761	0.450247	60.1013	0.559383	74.3231	0.838731	106.983	0.141936	18.6792	0.419728	50.2819	0.698974	91.4421	0.899984	114.569
0.279985	31.9015	0.00435886	0.400307	0.280043	30.1312	0.450338	53.4643	0.55948	66.1475	0.838783	95.6252	0.142493	16.7043	0.419838	45.2451	0.699027	81.5135	0.900031	102.426
0.280092	28.8509	0.00510972	0.432277	0.280156	27.3969	0.450441	48.1505	0.559587	59.5954	0.83884	86.4493	0.143109	15.1246	0.419959	41.1286	0.699085	73.5315	0.900083	92.6124
0.280209	26.3355	0.00591371	0.463741	0.280279	25.1202	0.450554	43.8004	0.559706	54.2274	0.838904	78.8817	0.143784	13.8338	0.420092	37.7015	0.699149	66.9749	0.90014	84.5162
0.280337	24.2262	0.00676909	0.494676	0.280413	23.1953	0.450678	40.1737	0.559836	49.7492	0.838973	72.5338	0.144514	12.7602	0.420236	34.8043	0.69922	61.4933	0.900202	77.7229
0.280476	22.432	0.00767413	0.525065	0.280557	21.5467	0.450813	37.1041	0.559977	45.9568	0.839048	67.1327	0.1453	11.8544	0.420392	32.323	0.699297	56.8424	0.90027	71.9416
0.280625	20.8875	0.00862721	0.554902	0.280712	20.119	0.450958	34.4726	0.560129	42.704	0.839128	62.4814	0.146139	11.0805	0.42056	30.1743	0.699379	52.8469	0.900343	66.962
0.280785	19.5441	0.0096264	0.584163	0.280878	18.8708	0.451115	32.1918	0.560292	39.8834	0.839215	58.4341	0.146911	10.4932	0.420738	28.2957	0.699468	49.3774	0.900421	62.6281
0.280956	18.365	0.01067	0.612846	0.281055	17.7703	0.451281	30.1961	0.560467	37.4145	0.839307	54.8802	0.1476	10.0457	0.420929	26.6393	0.699562	46.3364	0.900505	58.822
0.281137	17.3219	0.0117565	0.640947	0.281242	16.7929	0.451459	28.4353	0.560652	35.2354	0.839405	51.7349	0.14819	9.70774	0.421131	25.168	0.699663	43.6494	0.900593	55.453
0.281329	16.3927	0.0128839	0.668456	0.28144	15.9191	0.451647	26.8703	0.560849	33.298	0.839509	48.9315	0.148669	9.45872	0.421344	23.8527	0.699769	41.2579	0.900687	52.4498
0.281532	15.5598	0.0140506	0.695374	0.281649	15.1334	0.451846	25.4703	0.561057	31.5643	0.839619	46.4172	0.149028	9.28501	0.421569	22.6697	0.699882	39.1159	0.900786	49.756
0.281745	14.809	0.0152549	0.721702	0.281868	14.4231	0.452055	24.2106	0.561276	30.004	0.839734	44.1496	0.149261	9.17775	0.421805	21.6002	0.700001	37.1861	0.900891	47.3262
0.281969	14.1289	0.0164953	0.747439	0.282098	13.778	0.452275	23.0711	0.561505	28.5922	0.839855	42.094	0.1496	9.02865	0.422053	20.6287	0.700125	35.4387	0.901	45.1234
0.282203	13.5099	0.0177703	0.772595	0.282338	13.1896	0.452505	22.0356	0.561746	27.3089	0.839982	40.2221	0.149974	8.87305	0.422312	19.7423	0.700256	33.849	0.901115	43.1173
0.282449	12.9443	0.0190783	0.797168	0.282589	12.6507	0.452747	21.0905	0.561998	26.1373	0.840115	38.5104	0.150492	8.67151	0.422582	18.9304	0.700393	32.3966	0.901235	41.2827
0.282704	12.4255	0.0204177	0.821168	0.282851	12.1554	0.452998	20.2244	0.562261	25.0635	0.840254	36.9391	0.151162	8.43203	0.422864	18.1841	0.700535	31.0645	0.90136	39.5984
0.282971	11.9479	0.0217873	0.844603	0.283123	11.6987	0.45326	19.428	0.562535	24.0758	0.840398	35.4918	0.151993	8.16323	0.423157	17.4957	0.700684	29.8383	0.901491	38.0468
0.283247	11.5069	0.0231857	0.867481	0.283406	11.2763	0.453533	18.6932	0.56282	23.1643	0.840548	34.1542	0.152997	7.87381	0.423461	16.8589	0.700838	28.7059	0.901627	36.6129
0.283535	11.0985	0.0246115	0.889808	0.283699	10.8844	0.453816	18.0131	0.563116	22.3206	0.840704	32.9145	0.154186	7.57196	0.423777	16.268	0.700999	27.6571	0.901767	35.2837
0.283833	10.7193	0.0260635	0.911598	0.284003	10.52	0.45411	17.382	0.563423	21.5373	0.840866	31.7622	0.155414	7.2983	0.424104	15.7184	0.701166	26.6828	0.901913	34.0482
0.284141	10.3662	0.0275405	0.932858	0.284276	10.2227	0.454414	16.7947	0.563741	20.8084	0.841033	30.6885	0.156678	7.04923	0.424442	15.2058	0.701338	25.7755	0.902065	32.8968
0.28446	10.0366	0.0290413	0.953599	0.284515	9.98286	0.454729	16.2468	0.564069	20.1283	0.841206	29.6856	0.157977	6.82172	0.424792	14.7268	0.701517	24.9285	0.902221	31.8213
0.284789	9.72845	0.0305649	0.973835	0.284717	9.7933	0.455054	15.7347	0.564409	19.4924	0.841385	28.7468	0.159309	6.61319	0.425152	14.2781	0.701701	24.1359	0.902383	30.8145
0.285129	9.43963	0.0321102	0.993576	0.28488	9.6487	0.455389	15.2548	0.564759	18.8964	0.84157	27.866	0.160674	6.42147	0.425524	13.857	0.701892	23.3928	0.90255	29.8698
0.285479	9.16842	0.0336762	1.01283	0.285001	9.54523	0.455735	14.8044	0.56512	18.3369	0.84176	27.0382	0.162069	6.2447	0.425907	13.4611	0.702088	22.6947	0.902722	28.9819
0.28584	8.9133	0.0352619	1.03162	0.285079	9.48023	0.456091	14.3807	0.565492	17.8105	0.841956	26.2587	0.163493	6.08127	0.426301	13.0881	0.702291	22.0375	0.902899	28.1457
0.286211	8.6729	0.0368665	1.04994	0.285193	9.38843	0.456457	13.9815	0.565874	17.3145	0.842158	25.5233	0.164945	5.92979	0.426706	12.7363	0.702499	21.4179	0.903082	27.3568
0.286593	8.44601	0.038489	1.06782	0.285317	9.29076	0.456834	13.6048	0.566267	16.8463	0.842366	24.8285	0.166424	5.78906	0.427123	12.4038	0.702714	20.8327	0.903269	26.6115
0.286984	8.23154	0.0401287	1.08526	0.285489	9.16135	0.457221	13.2487	0.566671	16.4036	0.842579	24.1711	0.167929	5.65803	0.42755	12.0891	0.702934	20.2791	0.903462	25.906
0.287387	8.02852	0.0417847	1.10227	0.285709	9.00307	0.457618	12.9116	0.567086	15.9845	0.842798	23.548	0.169458	5.53576	0.427988	11.7908	0.70316	19.7546	0.90366	25.2375
0.287799	7.83609	0.0434565	1.11887	0.285981	8.8193	0.458025	12.5921	0.567511	15.5871	0.843023	22.9566	0.17101	5.42146	0.428437	11.5078	0.703392	19.2571	0.903864	24.603
0.288222	7.65345	0.0451431	1.13507	0.286308	8.61369	0.458443	12.2888	0.567947	15.2099	0.843254	22.3947	0.172584	5.3144	0.428898	11.2389	0.703631	18.7845	0.904072	24
0.288655	7.47989	0.0468439	1.15087	0.286692	8.39007	0.458871	12.0006	0.568393	14.8513	0.84349	21.8601	0.17418	5.21395	0.429369	10.9831	0.703875	18.3349	0.904286	23.4263
0.289098	7.31478	0.0485583	1.16629	0.287086	8.17861	0.459308	11.7263	0.56885	14.51	0.843732	21.3508	0.175796	5.11954	0.429851	10.7395	0.704125	17.9069	0.904504	22.8797
0.289552	7.15753	0.0502858	1.18135	0.287491	7.97838	0.459756	11.465	0.569318	14.1848	0.843979	20.8652	0.177431	5.03067	0.430343	10.5072	0.704381	17.4987	0.904728	22.3584
0.290016	7.0076	0.0520257	1.19604	0.287906	7.78852	0.460214	11.2159	0.569796	13.8746	0.844233	20.4015	0.179085	4.94689	0.430782	10.3135	0.704643	17.1092	0.904957	21.8608
0.29049	6.86452	0.0537774	1.21039	0.288332	7.60827	0.460682	10.978	0.570284	13.5785	0.844492	19.9584	0.180757	4.86778	0.431162	10.1543	0.70491	16.7371	0.905192	21.3851
0.290974	6.72784	0.0555405	1.2244	0.288767	7.43693	0.46116	10.7507	0.570783	13.2954	0.844757	19.5345	0.182446	4.793	0.431481	10.0267	0.705184	16.3812	0.905431	20.9301
0.291468	6.59715	0.0573144	1.23807	0.289213	7.27388	0.461648	10.5333	0.571292	13.0246	0.845027	19.1287	0.18415	4.7222	0.431735	9.92822	0.705464	16.0406	0.905676	20.4943
0.291973	6.47208	0.0590987	1.25143	0.28967	7.11854	0.462082	10.3514	0.571811	12.7653	0.845303	18.7397	0.185871	4.6551	0.431925	9.85714	0.705749	15.7142	0.905925	20.0767
0.292487	6.3523	0.0608929	1.26448	0.290136	6.97041	0.462457	10.2016	0.572341	12.5168	0.845585	18.3666	0.187606	4.59141	0.432046	9.81223	0.706041	15.4011	0.90618	19.6761
0.293012	6.23748	0.0626967	1.27722	0.290613	6.829	0.462771	10.0813	0.572881	12.2784	0.845873	18.0084	0.189355	4.53091	0.432222	9.74845	0.706338	15.1007	0.90644	19.2915
0.293547	6.12734	0.0645095	1.28967	0.291099	6.69389	0.463023	9.98831	0.573431	12.0496	0.846166	17.6642	0.191118	4.47336	0.432415	9.68014	0.706641	14.8122	0.906705	18.9219
0.294092	6.0216	0.0663311	1.30184	0.291596	6.56467	0.463209	9.92112	0.573991	11.8298	0.846464	17.3333	0.192893	4.41857	0.432679	9.58891	0.706951	14.5348	0.906976	18.5665
0.294647	5.92003	0.0681609	1.31373	0.292103	6.44099	0.463329	9.87863	0.574562	11.6184	0.846769	17.015	0.194682	4.36634	0.433016	9.4762	0.707266	14.268	0.907251	18.2246
0.295211	5.82238	0.0699988	1.32536	0.292621	6.3225	0.463502	9.81824	0.575142	11.4151	0.847079	16.7084	0.196482	4.31652	0.43343	9.34372	0.707586	14.0111	0.907532	17.8953
0.295786	5.72845	0.0718443	1.33672	0.293148	6.2089	0.463692	9.7535	0.575733	11.2194	0.847395	16.413	0.198293	4.26894	0.433923	9.19343	0.707913	13.7636	0.907817	17.578
0.296371	5.63805	0.0736972	1.34783	0.293685	6.09991	0.463951	9.66695	0.576334	11.0308	0.847716	16.1282	0.200116	4.22346	0.434498	9.02742	0.708246	13.5251	0.908108	17.272
0.296965	5.55097	0.0755571	1.35869	0.294232	5.99526	0.464283	9.55985	0.576944	10.849	0.848043	15.8534	0.201949	4.17996	0.435083	8.86793	0.708584	13.295	0.908404	16.9768
0.29757	5.46706	0.0774238	1.36932	0.29479	5.89471	0.464689	9.43377	0.577565	10.6737	0.848376	15.5881	0.203792	4.1383	0.435679	8.71459	0.708929	13.073	0.908705	16.6918
0.298185	5.38615	0.0792969	1.37971	0.295357	5.79804	0.465172	9.29045	0.578114	10.5259	0.848714	15.3318	0.205645	4.09839	0.436286	8.56707	0.709279	12.8585	0.909011	16.4165
0.298809	5.3081	0.0811763	1.38988	0.295935	5.70503	0.465736	9.13178	0.578587	10.4034	0.849058	15.0842	0.207507	4.06011	0.436903	8.42505	0.709635	12.6513	0.909322	16.1504
0.299443	5.23276	0.0830617	1.39983	0.296522	5.61549	0.466309	8.97899	0.578983	10.3045	0.849408	14.8447	0.209378	4.02337	0.437531	8.28824	0.709997	12.4509	0.909639	15.893
0.300087	5.16	0.0849526	1.40957	0.297119	5.52924	0.466892	8.83177	0.579299	10.2277	0.849763	14.6129	0.211258	3.98809	0.438168	8.15636	0.710364	12.2571	0.90996	15.6439
0.300741	5.0897	0.0868492	1.4191	0.297726	5.44611	0.467484	8.68983	0.579532	10.1721	0.850123	14.3886	0.213146	3.95418	0.438816	8.02917	0.710738	12.0695	0.910286	15.4028
0.301404	5.02175	0.088751	1.42843	0.298343	5.36594	0.468086	8.55289	0.579683	10.1368	0.85049	14.1713	0.215041	3.92157	0.439475	7.90643	0.711117	11.8879	0.910618	15.1693
0.302078	4.95603	0.0906579	1.43756	0.29897	5.2886	0.468698	8.42071	0.579899	10.0866	0.850862	13.9608	0.216944	3.89018	0.440143	7.78792	0.711502	11.7119	0.910955	14.943
0.302761	4.89246	0.0925697	1.4465	0.299607	5.21393	0.469319	8.29305	0.580136	10.0327	0.851239	13.7567	0.218855	3.85995	0.440822	7.67343	0.711893	11.5413	0.911296	14.7236
0.303453	4.83092	0.0944861	1.45526	0.300253	5.14181	0.469949	8.16969	0.58046	9.96034	0.851622	13.5587	0.220773	3.83083	0.441511	7.56277	0.71229	11.3759	0.911643	14.5107
0.304065	4.77889	0.0964071	1.46385	0.300909	5.07212	0.470589	8.05042	0.580873	9.87049	0.852011	13.3666	0.222697	3.80274	0.44221	7.45575	0.712693	11.2155	0.911995	14.3042
0.304592	4.73566	0.0983324	1.47225	0.301575	5.00475	0.471238	7.93505	0.581377	9.76423	0.852405	13.1802	0.224628	3.77564	0.442919	7.35221	0.713101	11.0597	0.912352	14.1037
0.305032	4.70067	0.100262	1.48049	0.302251	4.93959	0.471896	7.8234	0.581976	9.64279	0.852805	12.9991	0.226565	3.74949	0.443638	7.25199	0.713515	10.9085	0.912714	13.909
0.305383	4.67348	0.102195	1.48856	0.302937	4.87654	0.472564	7.7153	0.582672	9.50755	0.85321	12.8232	0.228509	3.72422	0.444367	7.15494	0.71388	10.7803	0.913081	13.7198
0.305642	4.65375	0.104133	1.49647	0.303632	4.81551	0.473241	7.61059	0.583377	9.37651	0.853621	12.6522	0.230458	3.69981	0.445106	7.06091	0.714196	10.6735	0.913453	13.5359
0.305808	4.64123	0.106074	1.50422	0.304337	4.75641	0.473927	7.50911	0.584092	9.24948	0.854037	12.4859	0.232412	3.6762	0.445854	6.96978	0.714458	10.5869	0.91383	13.357
0.306048	4.6234	0.108018	1.51182	0.305052	4.69915	0.474623	7.41073	0.584816	9.1263	0.854459	12.3242	0.234373	3.65337	0.446613	6.88141	0.714668	10.5194	0.914212	13.1831
0.306311	4.60421	0.109966	1.51928	0.305776	4.64366	0.475327	7.31531	0.58555	9.0068	0.854886	12.1669	0.236338	3.63126	0.447381	6.79569	0.714823	10.4704	0.914599	13.0138
0.306669	4.57846	0.111918	1.52659	0.30651	4.58986	0.47604	7.22272	0.586293	8.89082	0.855319	12.0137	0.238308	3.60986	0.44816	6.71252	0.714922	10.4393	0.914991	12.8491
0.307126	4.54644	0.113872	1.53375	0.307253	4.53769	0.476763	7.13285	0.587045	8.7782	0.855757	11.8646	0.240283	3.58913	0.448947	6.63177	0.715066	10.395	0.915388	12.6886
0.307684	4.50849	0.11583	1.54079	0.308006	4.48707	0.477494	7.04559	0.587807	8.66882	0.856201	11.7194	0.242263	3.56903	0.449745	6.55336	0.715223	10.3472	0.915791	12.5324
0.308344	4.46505	0.117538	1.5468	0.308769	4.43794	0.478235	6.96082	0.588578	8.56254	0.856651	11.5779	0.244248	3.54955	0.450552	6.47719	0.715437	10.283	0.916198	12.3801
0.309111	4.41657	0.118996	1.55186	0.309541	4.39025	0.478984	6.87845	0.589358	8.45923	0.857105	11.44	0.246236	3.53064	0.451369	6.40316	0.71571	10.203	0.91661	12.2317
0.309888	4.3695	0.120203	1.55598	0.310323	4.34394	0.479742	6.79838	0.590148	8.35878	0.857566	11.3055	0.248229	3.5123	0.452195	6.3312	0.716043	10.108	0.917027	12.087
0.310674	4.32378	0.121158	1.55921	0.311115	4.29895	0.480509	6.72051	0.590946	8.26107	0.858031	11.1744	0.250226	3.49449	0.453031	6.26123	0.716438	9.99894	0.917449	11.9458
0.311469	4.27937	0.12186	1.56156	0.311916	4.25524	0.481285	6.64478	0.591754	8.166	0.858442	11.0628	0.252227	3.47719	0.453876	6.19316	0.716896	9.87691	0.917876	11.8081
0.312275	4.2362	0.12231	1.56306	0.312726	4.21275	0.48207	6.57108	0.59257	8.07347	0.858795	10.9695	0.254232	3.46038	0.45473	6.12693	0.71736	9.75804	0.918308	11.6738
0.313089	4.19424	0.122957	1.5652	0.313546	4.17144	0.482863	6.49935	0.593396	7.98338	0.859089	10.8936	0.25624	3.44404	0.455594	6.06246	0.71783	9.64223	0.918745	11.5426
0.313913	4.15344	0.12366	1.56752	0.314375	4.13126	0.483665	6.42951	0.59423	7.89563	0.859323	10.8344	0.258252	3.42815	0.456467	5.9997	0.718305	9.52936	0.919187	11.4146
0.314747	4.11376	0.124618	1.57064	0.315214	4.09219	0.484475	6.3615	0.595073	7.81015	0.859496	10.7913	0.260268	3.4127	0.45735	5.93857	0.718786	9.41932	0.919634	11.2895
0.31559	4.07516	0.125829	1.57455	0.316063	4.05416	0.485294	6.29524	0.595926	7.72685	0.859607	10.7639	0.262286	3.39766	0.458241	5.87903	0.719273	9.312	0.920028	11.1829
0.316443	4.03759	0.127295	1.57922	0.316921	4.01716	0.486121	6.23067	0.596787	7.64565	0.859767	10.7248	0.264308	3.38302	0.459142	5.821	0.719766	9.20732	0.920366	11.0936
0.317305	4.00103	0.129017	1.58462	0.317788	3.98114	0.486957	6.16773	0.597656	7.56648	0.859942	10.6827	0.266333	3.36876	0.460052	5.76445	0.720264	9.10517	0.920648	11.021
0.318177	3.96543	0.130994	1.59071	0.318665	3.94607	0.487801	6.10636	0.598535	7.48926	0.860181	10.6259	0.268361	3.35488	0.460971	5.70931	0.720767	9.00547	0.920872	10.9643
0.319058	3.93077	0.132974	1.59669	0.319552	3.91191	0.488654	6.04651	0.599422	7.41392	0.860484	10.555	0.270392	3.34135	0.461899	5.65555	0.721277	8.90814	0.921038	10.923
0.319949	3.89701	0.134956	1.60256	0.320447	3.87864	0.489515	5.98813	0.600317	7.34041	0.860854	10.4707	0.272426	3.32816	0.462836	5.6031	0.721792	8.81309	0.921144	10.8967
0.320849	3.86413	0.136941	1.60832	0.321353	3.84622	0.490384	5.93117	0.601221	7.26866	0.861292	10.3736	0.274462	3.3153	0.463782	5.55193	0.722313	8.72024	0.921297	10.8592
0.321758	3.83208	0.138927	1.61399	0.322268	3.81464	0.491262	5.87557	0.602134	7.19861	0.8618	10.2645	0.276501	3.30276	0.464737	5.50199	0.722839	8.62953	0.921464	10.8188
0.322677	3.80085	0.140915	1.61956	0.323192	3.78385	0.492148	5.82129	0.603055	7.1302	0.862313	10.1579	0.278542	3.29052	0.4657	5.45325	0.723371	8.54088	0.921693	10.7643
0.323606	3.77041	0.142905	1.62503	0.324126	3.75383	0.493041	5.7683	0.603984	7.06338	0.862831	10.0536	0.280586	3.27858	0.466673	5.40566	0.723908	8.45423	0.921983	10.6962
0.324544	3.74074	0.144897	1.6304	0.325069	3.72457	0.493943	5.71654	0.604922	6.9981	0.863355	9.9517	0.282632	3.26693	0.467654	5.35919	0.724451	8.3695	0.922337	10.615
0.325492	3.7118	0.14689	1.63568	0.326023	3.69604	0.494853	5.66597	0.605868	6.9343	0.863884	9.852	0.284681	3.25555	0.468644	5.3138	0.725	8.28665	0.922755	10.5215
0.326449	3.68358	0.148885	1.64088	0.326985	3.6682	0.495771	5.61657	0.606822	6.87194	0.864418	9.75445	0.286732	3.24443	0.469642	5.26945	0.725554	8.2056	0.92324	10.4164
0.327416	3.65605	0.150882	1.64598	0.327957	3.64105	0.496697	5.56828	0.607785	6.81098	0.864958	9.65899	0.288784	3.23357	0.470649	5.22612	0.726114	8.12631	0.92373	10.3135
0.328392	3.6292	0.15288	1.651	0.328939	3.61457	0.497631	5.52109	0.608755	6.75137	0.865503	9.56555	0.290839	3.22295	0.471665	5.18377	0.72668	8.04871	0.924224	10.2128
0.329379	3.603	0.15488	1.65593	0.329931	3.58872	0.498573	5.47494	0.609734	6.69306	0.866053	9.47408	0.292896	3.21258	0.472689	5.14237	0.727251	7.97276	0.924724	10.1142
0.330374	3.57743	0.156881	1.66079	0.330932	3.56349	0.499522	5.42981	0.610721	6.63602	0.866609	9.38451	0.294955	3.20244	0.473722	5.10189	0.727827	7.8984	0.925228	10.0176
0.33138	3.55248	0.158884	1.66556	0.331942	3.53887	0.500479	5.38567	0.611715	6.58022	0.86717	9.29679	0.297016	3.19252	0.474763	5.0623	0.728409	7.8256	0.925737	9.92303
0.332395	3.52812	0.160887	1.67025	0.332963	3.51484	0.501444	5.3425	0.612718	6.5256	0.867736	9.21086	0.299078	3.18281	0.475812	5.02359	0.728997	7.75429	0.926251	9.83036
0.33342	3.50435	0.162893	1.67487	0.333993	3.49138	0.502417	5.30025	0.613729	6.47214	0.868308	9.12666	0.301143	3.17331	0.47687	4.98571	0.72959	7.68444	0.92677	9.73956
0.334455	3.48113	0.164899	1.67941	0.335034	3.46848	0.503397	5.2589	0.614747	6.41981	0.868885	9.04416	0.303208	3.16402	0.477936	4.94865	0.730188	7.61601	0.927294	9.65057
0.335499	3.45847	0.166907	1.68388	0.336084	3.44611	0.504385	5.21843	0.615773	6.36856	0.869467	8.96329	0.305276	3.15492	0.47901	4.91239	0.730792	7.54895	0.927822	9.56334
0.336554	3.43633	0.168915	1.68828	0.337144	3.42426	0.505381	5.1788	0.616807	6.31837	0.870054	8.88402	0.307345	3.14601	0.480093	4.87689	0.731402	7.48323	0.928356	9.47782
0.337618	3.41472	0.170925	1.6926	0.338214	3.40293	0.506384	5.14001	0.617849	6.26921	0.870647	8.80629	0.309416	3.13729	0.481183	4.84214	0.732017	7.4188	0.928894	9.39396
0.338693	3.39361	0.172936	1.69686	0.339294	3.3821	0.507394	5.10201	0.618898	6.22104	0.871245	8.73007	0.311488	3.12874	0.482282	4.80812	0.732637	7.35564	0.929437	9.31172
0.339778	3.37299	0.174948	1.70105	0.340385	3.36174	0.508412	5.0648	0.619955	6.17384	0.871848	8.65531	0.313561	3.12037	0.483389	4.7748	0.733263	7.29369	0.929985	9.23104
0.340873	3.35285	0.176961	1.70518	0.341485	3.34186	0.509437	5.02834	0.62102	6.12759	0.872456	8.58197	0.315636	3.11216	0.484504	4.74217	0.733895	7.23294	0.930537	9.15189
0.341978	3.33317	0.178975	1.70924	0.342596	3.32244	0.51047	4.99262	0.622091	6.08225	0.87307	8.51001	0.317712	3.10412	0.485626	4.71021	0.734532	7.17335	0.931095	9.07422
0.343093	3.31395	0.18099	1.71323	0.343717	3.30347	0.511509	4.95761	0.623171	6.03781	0.873689	8.4394	0.31979	3.09623	0.486757	4.67889	0.735174	7.11489	0.931657	8.99799
0.344219	3.29517	0.183006	1.71717	0.344849	3.28493	0.512556	4.9233	0.624258	5.99423	0.874313	8.3701	0.321869	3.08849	0.487896	4.64821	0.735821	7.05752	0.932224	8.92317
0.345356	3.27683	0.185022	1.72105	0.345992	3.26682	0.51361	4.88967	0.625352	5.95149	0.874942	8.30208	0.323948	3.08091	0.489042	4.61814	0.736475	7.00122	0.932795	8.84972
0.346503	3.2589	0.18704	1.72487	0.347145	3.24912	0.514672	4.85669	0.626453	5.90957	0.875576	8.23529	0.326029	3.07347	0.490196	4.58867	0.737133	6.94596	0.933372	8.7776
0.347661	3.24139	0.189058	1.72862	0.348309	3.23184	0.51574	4.82436	0.627562	5.86845	0.876216	8.16971	0.328111	3.06616	0.491358	4.55977	0.737797	6.89171	0.933953	8.70678
0.34883	3.22428	0.191077	1.73233	0.349484	3.21495	0.516815	4.79265	0.628678	5.82811	0.87686	8.10531	0.330195	3.059	0.492528	4.53145	0.738466	6.83844	0.934539	8.63722
0.35001	3.20756	0.193097	1.73597	0.35067	3.19844	0.517898	4.76155	0.629801	5.78853	0.87751	8.04206	0.332279	3.05196	0.493705	4.50368	0.739141	6.78614	0.935129	8.56889
0.351201	3.19123	0.195117	1.73957	0.351867	3.18232	0.518987	4.73104	0.630931	5.74968	0.878165	7.97993	0.334364	3.04505	0.49489	4.47644	0.739821	6.73478	0.935725	8.50177
0.352403	3.17527	0.197138	1.74311	0.353076	3.16657	0.520083	4.7011	0.632068	5.71155	0.878825	7.91888	0.33645	3.03827	0.496083	4.44973	0.740506	6.68432	0.936325	8.43581
0.353617	3.15969	0.19916	1.7466	0.354296	3.15118	0.521186	4.67173	0.633213	5.67412	0.879491	7.8589	0.338537	3.03161	0.497283	4.42352	0.741197	6.63476	0.936929	8.37099
0.354842	3.14446	0.201182	1.75003	0.355528	3.13615	0.522296	4.6429	0.634364	5.63737	0.880161	7.79995	0.340624	3.02507	0.49849	4.39782	0.741893	6.58606	0.937539	8.30728
0.35608	3.12958	0.203205	1.75342	0.356772	3.12147	0.523413	4.61461	0.635522	5.60128	0.880836	7.74201	0.342713	3.01864	0.499705	4.37259	0.742594	6.53821	0.938153	8.24466
0.357329	3.11506	0.205229	1.75676	0.358028	3.10713	0.524536	4.58684	0.636687	5.56585	0.881517	7.68506	0.344802	3.01232	0.500928	4.34784	0.743301	6.49118	0.938772	8.1831
0.35859	3.10087	0.207253	1.76005	0.359296	3.09313	0.525666	4.55957	0.637859	5.53104	0.882202	7.62907	0.346892	3.00611	0.502158	4.32356	0.744012	6.44496	0.939395	8.12256
0.359864	3.08701	0.209277	1.76329	0.360577	3.07946	0.526803	4.5328	0.639038	5.49685	0.882893	7.57402	0.348983	3.00001	0.503395	4.29972	0.74473	6.39952	0.940023	8.06304
0.361151	3.07348	0.211303	1.76648	0.361871	3.06611	0.527946	4.50651	0.640223	5.46326	0.883589	7.51988	0.351074	2.99401	0.504639	4.27631	0.745452	6.35485	0.940656	8.0045
0.36245	3.06027	0.213328	1.76964	0.363177	3.05307	0.529096	4.48069	0.641415	5.43026	0.884289	7.46664	0.353167	2.98811	0.505891	4.25334	0.74618	6.31093	0.941293	7.94692
0.363762	3.04738	0.215354	1.77274	0.364497	3.04035	0.530253	4.45533	0.642614	5.39783	0.884995	7.41427	0.355259	2.9823	0.50715	4.23078	0.746913	6.26774	0.941935	7.89027
0.365088	3.0348	0.217381	1.7758	0.36583	3.02794	0.531416	4.43042	0.643819	5.36596	0.885706	7.36275	0.357352	2.97659	0.508416	4.20863	0.747651	6.22526	0.942582	7.83454
0.366427	3.02252	0.219408	1.77882	0.367177	3.01583	0.532585	4.40594	0.645031	5.33464	0.886422	7.31207	0.359446	2.97098	0.509689	4.18688	0.748394	6.18348	0.943233	7.77971
0.36778	3.01055	0.221435	1.7818	0.368538	3.00402	0.53376	4.38189	0.646249	5.30385	0.887142	7.2622	0.36154	2.96545	0.510969	4.16551	0.749143	6.14239	0.943889	7.72575
0.369147	2.99887	0.223463	1.78474	0.369913	2.9925	0.534942	4.35826	0.647474	5.27357	0.887868	7.21313	0.363635	2.96001	0.512256	4.14453	0.749897	6.10195	0.94455	7.67265
0.370528	2.98748	0.225491	1.78763	0.371302	2.98127	0.536131	4.33504	0.648705	5.24381	0.888599	7.16484	0.365731	2.95466	0.51355	4.12391	0.750656	6.06217	0.945215	7.62038
0.371925	2.97638	0.22752	1.79049	0.372707	2.97033	0.537325	4.31221	0.649942	5.21454	0.889335	7.1173	0.367826	2.94939	0.514852	4.10366	0.75142	6.02302	0.945884	7.56892
0.373336	2.96556	0.229549	1.79331	0.374126	2.95967	0.538526	4.28977	0.651186	5.18575	0.890075	7.07051	0.369922	2.9442	0.51616	4.08376	0.75219	5.9845	0.946558	7.51826
0.374762	2.95502	0.231578	1.79609	0.375561	2.94928	0.539733	4.26771	0.652436	5.15744	0.890821	7.02444	0.372019	2.93909	0.517475	4.06421	0.752964	5.94658	0.947237	7.46839
0.376204	2.94475	0.233607	1.79883	0.377012	2.93917	0.540946	4.24602	0.653693	5.12959	0.891571	6.97909	0.374115	2.93406	0.518796	4.04499	0.753744	5.90926	0.94792	7.41928
0.377662	2.93476	0.235637	1.80154	0.378479	2.92933	0.542165	4.22469	0.654955	5.1022	0.892327	6.93443	0.376213	2.9291	0.520125	4.0261	0.754529	5.87252	0.948608	7.37091
0.379136	2.92504	0.237667	1.8042	0.379962	2.91975	0.54339	4.20372	0.656224	5.07524	0.893087	6.89045	0.37831	2.92422	0.521461	4.00753	0.755319	5.83634	0.949301	7.32327
0.380627	2.91558	0.239697	1.80684	0.381462	2.91044	0.544621	4.1831	0.657498	5.04872	0.893853	6.84713	0.380407	2.91941	0.522803	3.98928	0.756114	5.80073	0.949998	7.27635
0.382134	2.90639	0.241728	1.80944	0.382979	2.90139	0.545858	4.16281	0.658779	5.02262	0.894623	6.80447	0.382505	2.91467	0.524152	3.97134	0.756914	5.76565	0.950699	7.23013
0.383659	2.89745	0.243759	1.812	0.384513	2.8926	0.547101	4.14285	0.660066	4.99694	0.895398	6.76244	0.384603	2.91	0.525507	3.9537	0.757719	5.73112	0.951405	7.18459
0.385201	2.88877	0.24579	1.81453	0.386065	2.88406	0.54835	4.12322	0.661358	4.97166	0.896178	6.72104	0.386702	2.90539	0.526869	3.93636	0.75853	5.6971	0.952115	7.13972
0.386761	2.88034	0.247821	1.81703	0.387635	2.87577	0.549604	4.1039	0.662657	4.94678	0.896963	6.68025	0.3888	2.90085	0.528238	3.9193	0.759345	5.66359	0.95283	7.09551
0.388339	2.87217	0.249852	1.81949	0.389223	2.86773	0.550865	4.08489	0.663962	4.92228	0.897752	6.64005	0.390899	2.89637	0.529613	3.90253	0.760166	5.63058	0.95355	7.05194
0.389935	2.86424	0.251884	1.82193	0.39083	2.85994	0.552131	4.06619	0.665272	4.89816	0.898547	6.60045	0.392997	2.89196	0.530995	3.88603	0.760992	5.59807	0.954273	7.009
0.39155	2.85655	0.253916	1.82433	0.392455	2.85238	0.553403	4.04778	0.666588	4.87441	0.899346	6.56141	0.395096	2.88761	0.532383	3.8698	0.761822	5.56603	0.955002	6.96667
0.393184	2.8491	0.255948	1.8267	0.3941	2.84507	0.554681	4.02967	0.66791	4.85103	0.90015	6.52294	0.397195	2.88331	0.533778	3.85384	0.762658	5.53446	0.955734	6.92495
0.394837	2.84189	0.25798	1.82904	0.395763	2.83799	0.555964	4.01183	0.669237	4.828	0.900959	6.48502	0.399293	2.87907	0.535179	3.83814	0.763499	5.50335	0.956472	6.88382
0.396509	2.83492	0.260012	1.83135	0.397446	2.83114	0.557253	3.99428	0.67057	4.80532	0.901773	6.44763	0.401392	2.87489	0.536586	3.82269	0.764344	5.47269	0.957213	6.84327
0.3982	2.82817	0.262044	1.83363	0.399148	2.82452	0.558547	3.977	0.671909	4.78298	0.902591	6.41078	0.403491	2.87077	0.538	3.80749	0.765195	5.44248	0.957959	6.80329
0.399911	2.82165	0.264077	1.83588	0.40087	2.81813	0.559847	3.95998	0.673253	4.76097	0.903415	6.37444	0.40559	2.8667	0.53942	3.79253	0.766051	5.4127	0.95871	6.76386
0.401642	2.81536	0.266109	1.83811	0.402612	2.81195	0.561152	3.94323	0.674603	4.73929	0.904243	6.33862	0.407688	2.86268	0.540846	3.77781	0.766911	5.38334	0.959464	6.72498
0.403392	2.80928	0.268142	1.84031	0.404373	2.806	0.562463	3.92673	0.675959	4.71793	0.905075	6.30329	0.409787	2.85872	0.542279	3.76333	0.767777	5.3544	0.960224	6.68664
0.405163	2.80342	0.270175	1.84248	0.406154	2.80025	0.563779	3.91048	0.677319	4.69689	0.905913	6.26845	0.411886	2.8548	0.543717	3.74907	0.768648	5.32586	0.960987	6.64882
0.406952	2.79776	0.272207	1.84462	0.407955	2.79471	0.5651	3.89448	0.678686	4.67615	0.906755	6.23408	0.413984	2.85093	0.545162	3.73504	0.769523	5.29773	0.961755	6.61151
0.408762	2.79232	0.27424	1.84673	0.409775	2.78938	0.566427	3.87872	0.680057	4.65571	0.907602	6.20019	0.416082	2.84712	0.546613	3.72123	0.770404	5.26999	0.962527	6.57471
0.410591	2.78707	0.276273	1.84882	0.411615	2.78425	0.567759	3.8632	0.681434	4.63557	0.908454	6.16676	0.41818	2.84335	0.54807	3.70763	0.771289	5.24263	0.963304	6.5384
0.412439	2.78203	0.278306	1.85089	0.413474	2.77931	0.569097	3.8479	0.682816	4.61572	0.90931	6.13378	0.420278	2.83962	0.549533	3.69424	0.772179	5.21565	0.964085	6.50258
0.414307	2.77717	0.280339	1.85293	0.415352	2.77455	0.570439	3.83283	0.684203	4.59615	0.910171	6.10124	0.422376	2.83594	0.551002	3.68106	0.773074	5.18905	0.96487	6.46724
0.416193	2.7725	0.282372	1.85494	0.417249	2.76999	0.571787	3.81799	0.685596	4.57686	0.911037	6.06914	0.424474	2.83231	0.552478	3.66809	0.773975	5.1628	0.96566	6.43236
0.418099	2.76801	0.284405	1.85693	0.419165	2.7656	0.57314	3.80336	0.686994	4.55784	0.911907	6.03747	0.426571	2.82872	0.553959	3.65531	0.774879	5.13691	0.966454	6.39794
0.420022	2.7637	0.286438	1.8589	0.421099	2.76138	0.574498	3.78895	0.688397	4.53909	0.912782	6.00621	0.428668	2.82517	0.555446	3.64273	0.775789	5.11137	0.967252	6.36398
0.421964	2.75956	0.288472	1.86084	0.423051	2.75733	0.575861	3.77474	0.689805	4.5206	0.913662	5.97537	0.430765	2.82166	0.556939	3.63034	0.776704	5.08618	0.968055	6.33045
0.423924	2.75559	0.290505	1.86276	0.42502	2.75345	0.577229	3.76074	0.691217	4.50237	0.914546	5.94492	0.432861	2.81819	0.558437	3.61813	0.777623	5.06132	0.968861	6.29736
0.425901	2.75177	0.292538	1.86466	0.427006	2.74972	0.578602	3.74694	0.692635	4.48439	0.915435	5.91488	0.434957	2.81477	0.559942	3.60611	0.778548	5.03679	0.969673	6.26469
0.427895	2.74811	0.294571	1.86653	0.429009	2.74615	0.57998	3.73334	0.694058	4.46666	0.916329	5.88522	0.437053	2.81138	0.561452	3.59427	0.779477	5.01259	0.970488	6.23245
0.429905	2.7446	0.296604	1.86838	0.431029	2.74271	0.581363	3.71993	0.695486	4.44917	0.917227	5.85595	0.439148	2.80803	0.562969	3.58261	0.780411	4.9887	0.971307	6.20061
0.431932	2.74123	0.298637	1.87022	0.433064	2.73942	0.58275	3.70671	0.696919	4.43192	0.918129	5.82705	0.441243	2.80471	0.564491	3.57112	0.781349	4.96513	0.972131	6.16917
0.433974	2.73801	0.30067	1.87202	0.435115	2.73627	0.584143	3.69368	0.698357	4.41491	0.919037	5.79852	0.443338	2.80144	0.566018	3.55981	0.782293	4.94187	0.972959	6.13814
0.436031	2.73491	0.302703	1.87381	0.43718	2.73324	0.58554	3.68083	0.699799	4.39812	0.919948	5.77035	0.445432	2.7982	0.567552	3.54865	0.783241	4.91891	0.973792	6.10749
0.438103	2.73194	0.304736	1.87558	0.43926	2.73034	0.586943	3.66816	0.701246	4.38156	0.920865	5.74254	0.447526	2.79499	0.56909	3.53767	0.784194	4.89624	0.974628	6.07722
0.440189	2.72909	0.306769	1.87733	0.441354	2.72756	0.588349	3.65567	0.702698	4.36522	0.921785	5.71508	0.449619	2.79182	0.570635	3.52684	0.785152	4.87387	0.975469	6.04733
0.442289	2.72636	0.308801	1.87905	0.443461	2.72489	0.589761	3.64335	0.704155	4.3491	0.922711	5.68796	0.451712	2.78868	0.572185	3.51618	0.786114	4.85179	0.976313	6.01781
0.444401	2.72374	0.310834	1.88076	0.445581	2.72233	0.591177	3.6312	0.705616	4.33319	0.923641	5.66118	0.453805	2.78558	0.573741	3.50567	0.787081	4.82998	0.977162	5.98865
0.446527	2.72123	0.312867	1.88244	0.447713	2.71988	0.592598	3.61921	0.707082	4.31749	0.924575	5.63473	0.455897	2.78251	0.575302	3.49531	0.788053	4.80845	0.978015	5.95985
0.448665	2.71882	0.314899	1.88411	0.449857	2.71753	0.594024	3.60739	0.708552	4.30199	0.925514	5.6086	0.457988	2.77947	0.576869	3.4851	0.78903	4.7872	0.978873	5.9314
0.450814	2.71651	0.316932	1.88576	0.452013	2.71527	0.595454	3.59573	0.710027	4.2867	0.926457	5.5828	0.460079	2.77646	0.578441	3.47504	0.790011	4.76621	0.979734	5.90329
0.452975	2.71429	0.318964	1.88739	0.45418	2.7131	0.596889	3.58423	0.711507	4.2716	0.927405	5.55731	0.462169	2.77348	0.580019	3.46512	0.790997	4.74548	0.9806	5.87552
0.455147	2.71216	0.320997	1.889	0.456358	2.71102	0.598328	3.57289	0.712991	4.2567	0.928357	5.53213	0.464259	2.77053	0.581602	3.45534	0.791988	4.72501	0.981469	5.84809
0.457329	2.71012	0.323029	1.8906	0.458545	2.70902	0.599772	3.56169	0.714479	4.24199	0.929314	5.50726	0.466348	2.76761	0.58319	3.44571	0.792983	4.7048	0.982343	5.82098
0.459521	2.70816	0.325061	1.89217	0.460742	2.7071	0.60122	3.55065	0.715972	4.22747	0.930275	5.48268	0.468437	2.76472	0.584784	3.43621	0.793983	4.68483	0.983221	5.79419
0.461722	2.70627	0.327093	1.89373	0.462949	2.70525	0.602672	3.53975	0.717469	4.21313	0.931241	5.4584	0.470525	2.76185	0.586383	3.42685	0.794987	4.66512	0.984103	5.76772
0.463933	2.70446	0.329125	1.89527	0.465164	2.70348	0.604129	3.52899	0.718971	4.19898	0.932211	5.43441	0.472612	2.75902	0.587988	3.41761	0.795996	4.64564	0.984989	5.74156
0.466152	2.70272	0.331157	1.89679	0.467388	2.70178	0.605591	3.51838	0.720477	4.185	0.933185	5.4107	0.474699	2.75621	0.589598	3.40851	0.79701	4.6264	0.985879	5.71571
0.468379	2.70104	0.333188	1.8983	0.46962	2.70014	0.607056	3.50791	0.721987	4.1712	0.934164	5.38727	0.476785	2.75343	0.591212	3.39954	0.798028	4.60739	0.986774	5.69016
0.470615	2.69943	0.33522	1.89979	0.47186	2.69856	0.608526	3.49757	0.723501	4.15757	0.935147	5.36412	0.478871	2.75067	0.592833	3.39069	0.799051	4.58861	0.987672	5.6649
0.472858	2.69788	0.337251	1.90126	0.474107	2.69704	0.61	3.48737	0.72502	4.14411	0.936134	5.34124	0.480956	2.74794	0.594458	3.38196	0.800079	4.57006	0.988574	5.63994
0.475108	2.69638	0.339283	1.90272	0.476362	2.69558	0.611479	3.4773	0.726543	4.13081	0.937126	5.31862	0.48304	2.74523	0.596089	3.37336	0.801111	4.55173	0.98948	5.61526
0.477366	2.69494	0.341314	1.90416	0.478623	2.69417	0.612961	3.46736	0.72807	4.11768	0.938122	5.29627	0.485123	2.74255	0.597724	3.36487	0.802147	4.53362	0.990391	5.59087
0.47963	2.69356	0.343345	1.90559	0.48089	2.69281	0.614448	3.45755	0.729601	4.10471	0.939123	5.27418	0.487206	2.73989	0.599365	3.35651	0.803188	4.51573	0.991305	5.56675
0.4819	2.69222	0.345376	1.907	0.483164	2.6915	0.615939	3.44786	0.731136	4.0919	0.940128	5.25234	0.489288	2.73726	0.601011	3.34825	0.804234	4.49805	0.992223	5.54291
0.484177	2.69093	0.347407	1.9084	0.485444	2.69024	0.617434	3.4383	0.732675	4.07924	0.941137	5.23075	0.491369	2.73465	0.602662	3.34011	0.805284	4.48057	0.993146	5.51933
0.486459	2.68969	0.349437	1.90978	0.487729	2.68902	0.618933	3.42885	0.734218	4.06674	0.94215	5.2094	0.493449	2.73206	0.604318	3.33208	0.806338	4.4633	0.994072	5.49602
0.488747	2.68849	0.351468	1.91114	0.49002	2.68784	0.620436	3.41953	0.735765	4.05439	0.943168	5.1883	0.495529	2.72949	0.605979	3.32417	0.807397	4.44623	0.995002	5.47297
0.49104	2.68733	0.353498	1.91249	0.492316	2.6867	0.621943	3.41033	0.737316	4.04218	0.94419	5.16744	0.497608	2.72695	0.607645	3.31636	0.808461	4.42936	0.995936	5.45018
0.493338	2.68621	0.355528	1.91383	0.494616	2.6856	0.623455	3.40124	0.738871	4.03012	0.945216	5.14681	0.499686	2.72443	0.609315	3.30865	0.809529	4.41269	0.996874	5.42764
0.49564	2.68513	0.357558	1.91515	0.496922	2.68454	0.62497	3.39226	0.74043	4.0182	0.946246	5.12642	0.501763	2.72193	0.610991	3.30105	0.810601	4.39621	0.997816	5.40535
0.497948	2.68408	0.359588	1.91646	0.499232	2.68351	0.626489	3.3834	0.741992	4.00643	0.947281	5.10625	0.50384	2.71945	0.612672	3.29355	0.811678	4.37992	0.998762	5.3833
0.50026	2.68307	0.361617	1.91775	0.501546	2.68252	0.628012	3.37464	0.743559	3.99479	0.94832	5.0863	0.505915	2.71699	0.614357	3.28615	0.81276	4.36381	0.999712	5.3615
0.502576	2.68208	0.363647	1.91903	0.503864	2.68155	0.629539	3.36599	0.745129	3.98329	0.949363	5.06658	0.50799	2.71455	0.616048	3.27885	0.813845	4.34789	1.00067	5.33993
0.504896	2.68114	0.365676	1.9203	0.506186	2.68062	0.63107	3.35745	0.746703	3.97192	0.95041	5.04707	0.510064	2.71213	0.617743	3.27165	0.814936	4.33215		
0.50722	2.68021	0.367705	1.92156	0.508512	2.67972	0.632604	3.34902	0.748281	3.96068	0.951462	5.02778	0.512137	2.70973	0.619443	3.26455	0.81603	4.31659		
0.509547	2.67932	0.369734	1.9228	0.510842	2.67884	0.634143	3.34069	0.749862	3.94957	0.952518	5.0087	0.514209	2.70734	0.621148	3.25754	0.817129	4.30121		
0.511878	2.67846	0.371763	1.92402	0.513175	2.67799	0.635685	3.33245	0.751448	3.93859	0.953578	4.98983	0.516281	2.70498	0.622857	3.25062	0.818232	4.286		
0.514213	2.67762	0.373791	1.92524	0.515511	2.67716	0.637231	3.32432	0.753036	3.92774	0.954642	4.97116	0.518351	2.70264	0.624572	3.24379	0.81934	4.27095		
0.51655	2.6768	0.37582	1.92644	0.51785	2.67636	0.638781	3.31629	0.754629	3.91701	0.95571	4.95269	0.520421	2.70031	0.62629	3.23706	0.820452	4.25608		
0.518891	2.67601	0.377848	1.92763	0.520192	2.67558	0.640334	3.30835	0.756225	3.9064	0.956782	4.93443	0.522489	2.698	0.628014	3.23041	0.821568	4.24137		
0.521234	2.67525	0.379876	1.92881	0.522537	2.67483	0.641892	3.30051	0.757824	3.89592	0.957859	4.91635	0.524557	2.69571	0.629742	3.22385	0.822689	4.22683		
0.523581	2.6745	0.381904	1.92998	0.524885	2.67409	0.643452	3.29276	0.759427	3.88555	0.958939	4.89848	0.526624	2.69343	0.631475	3.21737	0.823814	4.21244		
0.52593	2.67377	0.383931	1.93113	0.527235	2.67338	0.645017	3.2851	0.761033	3.87529	0.960024	4.88079	0.52869	2.69117	0.633212	3.21098	0.824943	4.19822		
0.528281	2.67307	0.385959	1.93227	0.529588	2.67268	0.646585	3.27754	0.762643	3.86515	0.961112	4.86329	0.530755	2.68893	0.634954	3.20467	0.826077	4.18415		
0.530635	2.67238	0.387986	1.9334	0.531944	2.672	0.648157	3.27006	0.764257	3.85512	0.962205	4.84597	0.532819	2.68671	0.636701	3.19845	0.827214	4.17023		
0.532991	2.67171	0.390013	1.93452	0.534301	2.67134	0.649732	3.26267	0.765873	3.84521	0.963302	4.82884	0.534882	2.6845	0.638452	3.1923	0.828356	4.15646		
0.53535	2.67106	0.39204	1.93563	0.536661	2.6707	0.651311	3.25537	0.767493	3.8354	0.964403	4.81188	0.536944	2.6823	0.640207	3.18624	0.829503	4.14285		
0.537711	2.67042	0.394066	1.93673	0.539023	2.67008	0.652893	3.24815	0.769117	3.8257	0.965508	4.7951	0.539005	2.68013	0.641967	3.18025	0.830653	4.12938		
0.540073	2.6698	0.396092	1.93781	0.541387	2.66946	0.654479	3.24102	0.770744	3.81611	0.966617	4.7785	0.541065	2.67796	0.643731	3.17434	0.831808	4.11606		
0.542438	2.6692	0.398119	1.93889	0.543752	2.66887	0.656068	3.23397	0.772374	3.80662	0.96773	4.76207	0.543124	2.67582	0.6455	3.1685	0.832967	4.10288		
0.544804	2.66861	0.400145	1.93995	0.54612	2.66829	0.657661	3.227	0.774007	3.79723	0.968847	4.74581	0.545182	2.67368	0.647273	3.16274	0.834131	4.08984		
0.547173	2.66803	0.40217	1.941	0.548489	2.66772	0.659257	3.22011	0.775644	3.78795	0.969968	4.72971	0.547239	2.67156	0.64905	3.15705	0.835298	4.07694		
0.549543	2.66747	0.404196	1.94205	0.55086	2.66716	0.660857	3.2133	0.777283	3.77876	0.971093	4.71378	0.549295	2.66946	0.650832	3.15144	0.83647	4.06417		
0.551914	2.66692	0.406221	1.94308	0.553233	2.66662	0.66246	3.20657	0.778926	3.76968	0.972222	4.69802	0.55135	2.66737	0.652618	3.14589	0.837645	4.05155		
0.554288	2.66639	0.408246	1.9441	0.555607	2.66609	0.664066	3.19991	0.780573	3.76068	0.973355	4.68241	0.553404	2.66529	0.654408	3.14042	0.838825	4.03905		
0.556662	2.66586	0.410271	1.94511	0.557982	2.66557	0.665676	3.19333	0.782222	3.75179	0.974492	4.66696	0.555457	2.66323	0.656203	3.13502	0.84001	4.02669		
0.559038	2.66535	0.412295	1.94612	0.560359	2.66507	0.667289	3.18683	0.783874	3.74299	0.975633	4.65167	0.557509	2.66118	0.658002	3.12968	0.841198	4.01446		
0.561416	2.66485	0.41432	1.94711	0.562737	2.66457	0.668905	3.18039	0.78553	3.73428	0.976778	4.63653	0.55956	2.65914	0.659805	3.12441	0.84239	4.00235		
0.563795	2.66435	0.416344	1.94809	0.565117	2.66408	0.670525	3.17403	0.787188	3.72566	0.977927	4.62155	0.56161	2.65712	0.661612	3.1192	0.843587	3.99037		
0.566175	2.66387	0.418368	1.94907	0.567497	2.66361	0.672148	3.16775	0.788849	3.71713	0.97908	4.60671	0.563659	2.65511	0.663423	3.11406	0.844787	3.97852		
0.568556	2.6634	0.420391	1.95003	0.569879	2.66314	0.673774	3.16153	0.790514	3.7087	0.980236	4.59202	0.565707	2.65311	0.665239	3.10899	0.845992	3.96678		
0.570938	2.66294	0.422415	1.95098	0.572262	2.66268	0.675403	3.15538	0.792181	3.70034	0.981397	4.57748	0.567754	2.65113	0.667058	3.10398	0.847201	3.95517		
0.573322	2.66248	0.424438	1.95193	0.574646	2.66224	0.677036	3.1493	0.793852	3.69208	0.982561	4.56308	0.569799	2.64916	0.668882	3.09903	0.848414	3.94368		
0.575706	2.66204	0.426461	1.95286	0.577031	2.6618	0.678672	3.14328	0.795525	3.6839	0.983729	4.54883	0.571844	2.6472	0.670709	3.09414	0.849631	3.93231		
0.578091	2.6616	0.428484	1.95379	0.579417	2.66136	0.680311	3.13734	0.797201	3.6758	0.984901	4.53471	0.573888	2.64525	0.672541	3.08931	0.850852	3.92105		
0.580478	2.66117	0.430506	1.95471	0.581804	2.66094	0.681953	3.13146	0.798881	3.66779	0.986077	4.52073	0.57593	2.64331	0.674376	3.08454	0.852077	3.90991		
0.582865	2.66075	0.432528	1.95562	0.584191	2.66052	0.683598	3.12564	0.800563	3.65985	0.987257	4.50689	0.577972	2.64138	0.676216	3.07983	0.853306	3.89888		
0.585253	2.66034	0.434551	1.95652	0.58658	2.66011	0.685247	3.11989	0.802247	3.652	0.988441	4.49318	0.580012	2.63947	0.678059	3.07518	0.854539	3.88797		
0.587642	2.65993	0.436572	1.95741	0.588969	2.65971	0.686898	3.11419	0.803935	3.64423	0.989628	4.47961	0.582051	2.63757	0.679906	3.07058	0.855776	3.87716		
0.590031	2.65953	0.438594	1.95829	0.591359	2.65931	0.688553	3.10857	0.805625	3.63653	0.990819	4.46616	0.58409	2.63568	0.681758	3.06604	0.857018	3.86646		
0.592422	2.65914	0.440615	1.95917	0.59375	2.65892	0.690211	3.103	0.807318	3.62891	0.992014	4.45285	0.586127	2.6338	0.683613	3.06155	0.858263	3.85587		
0.594813	2.65875	0.442636	1.96003	0.596141	2.65854	0.691871	3.09749	0.809014	3.62137	0.993213	4.43966	0.588163	2.63193	0.685472	3.05712	0.859512	3.84539		
0.597204	2.65837	0.444657	1.96089	0.598533	2.65816	0.693535	3.09204	0.810713	3.6139	0.994416	4.4266	0.590198	2.63007	0.687334	3.05274	0.860765	3.83501		
0.599596	2.658	0.446677	1.96174	0.600925	2.65779	0.695202	3.08665	0.812414	3.60651	0.995622	4.41367	0.592232	2.62822	0.689201	3.04842	0.862022	3.82473		
0.601989	2.65763	0.448698	1.96258	0.603318	2.65742	0.696872	3.08132	0.814118	3.59918	0.996832	4.40086	0.594265	2.62638	0.691071	3.04415	0.863283	3.81456		
0.604382	2.65726	0.450718	1.96342	0.605712	2.65706	0.698545	3.07604	0.815825	3.59193	0.998046	4.38817	0.596297	2.62456	0.692945	3.03992	0.864548	3.80449		
0.606776	2.6569	0.452738	1.96425	0.608106	2.65671	0.700221	3.07083	0.817534	3.58475	0.999264	4.3756	0.598328	2.62274	0.694822	3.03575	0.865817	3.79451		
0.60917	2.65655	0.454757	1.96506	0.6105	2.65636	0.7019	3.06566	0.819246	3.57764	1.00049	4.36314	0.600358	2.62093	0.696703	3.03163	0.86709	3.78464		
0.611565	2.6562	0.456776	1.96588	0.612895	2.65601	0.703582	3.06055	0.82096	3.5706			0.602387	2.61914	0.698588	3.02756	0.868367	3.77486		
0.61396	2.65586	0.458796	1.96668	0.615291	2.65567	0.705266	3.0555	0.822677	3.56363			0.604414	2.61735	0.700476	3.02353	0.869647	3.76518		
0.616355	2.65552	0.460814	1.96747	0.617686	2.65533	0.706954	3.0505	0.824396	3.55672			0.606441	2.61557	0.702368	3.01956	0.870932	3.75559		
0.618751	2.65518	0.462833	1.96826	0.620082	2.65499	0.708645	3.04555	0.826118	3.54988			0.608466	2.61381	0.704264	3.01563	0.87222	3.74609		
0.621147	2.65485	0.464851	1.96904	0.622478	2.65466	0.710338	3.04065	0.827843	3.54311			0.610491	2.61205	0.706163	3.01174	0.873512	3.73669		
0.623543	2.65452	0.466869	1.96982	0.624875	2.65434	0.712035	3.03581	0.829569	3.5364			0.612514	2.6103	0.708066	3.00791	0.874809	3.72738		
0.62594	2.65419	0.468887	1.97059	0.627271	2.65401	0.713734	3.03101	0.831299	3.52975			0.614537	2.60856	0.709972	3.00411	0.876109	3.71816		
0.628337	2.65387	0.470904	1.97135	0.629668	2.65369	0.715436	3.02627	0.833031	3.52316			0.616558	2.60683	0.711881	3.00036	0.877412	3.70903		
0.630734	2.65355	0.472922	1.9721	0.632065	2.65338	0.717142	3.02157	0.834765	3.51664			0.618578	2.60511	0.713794	2.99666	0.87872	3.69998		
0.633131	2.65324	0.474939	1.97284	0.634463	2.65306	0.718849	3.01692	0.836501	3.51018			0.620597	2.6034	0.71571	2.993	0.880032	3.69102		
0.635528	2.65293	0.476955	1.97358	0.63686	2.65275	0.72056	3.01233	0.83824	3.50378			0.622616	2.6017	0.71763	2.98938	0.881347	3.68215		
0.637925	2.65262	0.478972	1.97432	0.639257	2.65245	0.722274	3.00777	0.839981	3.49744			0.624633	2.60001	0.719552	2.9858	0.882666	3.67337		
0.640323	2.65231	0.480988	1.97504	0.641655	2.65214	0.72399	3.00327	0.841725	3.49115			0.626649	2.59832	0.721479	2.98226	0.883989	3.66466		
0.64272	2.65201	0.483004	1.97576	0.644052	2.65184	0.72571	2.99881	0.843471	3.48493			0.628664	2.59665	0.723408	2.97876	0.885316	3.65604		
0.645118	2.65171	0.48502	1.97647	0.64645	2.65154	0.727432	2.9944	0.845219	3.47876			0.630678	2.59498	0.725341	2.97531	0.886646	3.6475		
0.647515	2.65141	0.487035	1.97718	0.648847	2.65124	0.729157	2.99003	0.846969	3.47264			0.632691	2.59332	0.727276	2.97189	0.88798	3.63904		
0.649913	2.65111	0.48905	1.97788	0.651245	2.65095	0.730885	2.98571	0.848722	3.46659			0.634703	2.59167	0.729215	2.96851	0.889318	3.63066		
0.65231	2.65081	0.491065	1.97857	0.653642	2.65065	0.732615	2.98143	0.850476	3.46059			0.636714	2.59003	0.731157	2.96517	0.89066	3.62236		
0.654708	2.65052	0.49308	1.97926	0.65604	2.65036	0.734348	2.9772	0.852233	3.45464			0.638724	2.58839	0.733103	2.96187	0.892006	3.61414		
0.657105	2.65023	0.495094	1.97994	0.658437	2.65007	0.736084	2.97301	0.853992	3.44874			0.640733	2.58677	0.735051	2.9586	0.893355	3.60599		
0.659502	2.64994	0.497108	1.98062	0.660834	2.64978	0.737823	2.96886	0.855754	3.4429			0.642741	2.58515	0.737002	2.95537	0.894708	3.59792		
0.661899	2.64965	0.499122	1.98129	0.663231	2.64949	0.739565	2.96475	0.857517	3.43711			0.644749	2.58354	0.738957	2.95218	0.896064	3.58993		
0.664296	2.64937	0.501136	1.98195	0.665628	2.64921	0.741309	2.96069	0.859283	3.43138			0.646755	2.58194	0.740914	2.94903	0.897425	3.58201		
0.666693	2.64908	0.503149	1.98261	0.668024	2.64892	0.743056	2.95666	0.861051	3.42569			0.64876	2.58035	0.742875	2.9459	0.898789	3.57416		
0.669089	2.6488	0.505162	1.98326	0.670421	2.64864	0.744806	2.95268	0.86282	3.42005			0.650764	2.57877	0.744838	2.94282	0.900156	3.56639		
0.671486	2.64852	0.507175	1.9839	0.672817	2.64836	0.746559	2.94873	0.864592	3.41447			0.652767	2.57719	0.746804	2.93976	0.901528	3.55868		
0.673882	2.64823	0.509187	1.98454	0.675212	2.64808	0.748314	2.94483	0.866366	3.40893			0.654769	2.57562	0.748773	2.93674	0.902903	3.55105		
0.676277	2.64795	0.5112	1.98518	0.677608	2.6478	0.750073	2.94097	0.868142	3.40344			0.656771	2.57406	0.750745	2.93376	0.904282	3.54349		
0.678673	2.64767	0.513212	1.9858	0.680003	2.64752	0.751833	2.93714	0.86992	3.398			0.658771	2.5725	0.75272	2.9308	0.905664	3.536		
0.681068	2.64739	0.515223	1.98643	0.682398	2.64724	0.753597	2.93335	0.8717	3.3926			0.660771	2.57096	0.754698	2.92788	0.90705	3.52857		
0.683462	2.64712	0.517235	1.98704	0.684792	2.64696	0.755363	2.92961	0.873481	3.38726			0.662769	2.56942	0.756678	2.92499	0.90844	3.52122		
0.685857	2.64684	0.519246	1.98766	0.687186	2.64668	0.757133	2.92589	0.875265	3.38195			0.664767	2.56789	0.758661	2.92214	0.909833	3.51393		
0.68825	2.64656	0.521257	1.98826	0.68958	2.64641	0.758904	2.92222	0.877051	3.3767			0.666764	2.56637	0.760647	2.91931	0.91123	3.5067		
0.690644	2.64628	0.523268	1.98886	0.691973	2.64613	0.760679	2.91858	0.878838	3.37149			0.668759	2.56485	0.762636	2.91651	0.91263	3.49954		
0.693037	2.64601	0.525278	1.98946	0.694366	2.64585	0.762456	2.91498	0.880628	3.36632			0.670754	2.56334	0.764627	2.91374	0.914034	3.49245		
0.695429	2.64573	0.527288	1.99005	0.696758	2.64557	0.764236	2.91142	0.882419	3.3612			0.672748	2.56184	0.76662	2.91101	0.915442	3.48542		
0.697821	2.64545	0.529298	1.99064	0.69915	2.6453	0.766019	2.90789	0.884213	3.35612			0.674742	2.56035	0.768617	2.9083	0.916853	3.47846		
0.700212	2.64517	0.531308	1.99122	0.701541	2.64502	0.767805	2.90439	0.886008	3.35108			0.676734	2.55886	0.770616	2.90562	0.918268	3.47155		
0.702603	2.6449	0.533317	1.99179	0.703931	2.64474	0.769593	2.90093	0.887805	3.34609			0.678725	2.55738	0.772617	2.90297	0.919686	3.46471		
0.704993	2.64462	0.535326	1.99236	0.706321	2.64446	0.771384	2.89751	0.889603	3.34113			0.680716	2.55591	0.774621	2.90034	0.921108	3.45793		
0.707383	2.64434	0.537335	1.99293	0.70871	2.64419	0.773178	2.89412	0.891404	3.33622			0.682706	2.55444	0.776627	2.89775	0.922534	3.45121		
0.709772	2.64406	0.539343	1.99349	0.711099	2.64391	0.774975	2.89076	0.893206	3.33135			0.684695	2.55299	0.778636	2.89518	0.923963	3.44455		
0.71216	2.64378	0.541351	1.99405	0.713487	2.64363	0.776774	2.88744	0.89501	3.32652			0.686683	2.55153	0.780647	2.89263	0.925396	3.43795		
0.714548	2.6435	0.543359	1.9946	0.715874	2.64335	0.778577	2.88415	0.896816	3.32173			0.68867	2.55009	0.782661	2.89012	0.926832	3.43141		
0.716934	2.64322	0.545367	1.99514	0.71826	2.64307	0.780382	2.8809	0.898624	3.31698			0.690657	2.54865	0.784677	2.88763	0.928271	3.42492		
0.71932	2.64294	0.547374	1.99568	0.720646	2.64278	0.78219	2.87767	0.900433	3.31226			0.692642	2.54722	0.786695	2.88516	0.929714	3.4185		
0.721706	2.64266	0.549381	1.99622	0.72303	2.6425	0.784	2.87448	0.902244	3.30759			0.694627	2.5458	0.788716	2.88272	0.931161	3.41213		
0.72409	2.64237	0.551388	1.99675	0.725414	2.64222	0.785814	2.87132	0.904057	3.30295			0.696611	2.54438	0.790739	2.88031	0.932611	3.40581		
0.726474	2.64209	0.553395	1.99728	0.727797	2.64193	0.78763	2.86819	0.905871	3.29835			0.698595	2.54298	0.792764	2.87792	0.934065	3.39956		
0.728856	2.6418	0.555401	1.99781	0.730179	2.64164	0.789449	2.8651	0.907687	3.29379			0.700577	2.54157	0.794791	2.87555	0.935522	3.39335		
0.731238	2.64151	0.557407	1.99832	0.73256	2.64135	0.791271	2.86203	0.909504	3.28927			0.702559	2.54018	0.79682	2.87321	0.936983	3.3872		
0.733619	2.64123	0.559413	1.99884	0.734941	2.64106	0.793096	2.859	0.911324	3.28478			0.70454	2.53879	0.798852	2.87089	0.938447	3.38111		
0.735998	2.64093	0.561419	1.99935	0.73732	2.64077	0.794924	2.85599	0.913144	3.28032			0.706521	2.5374	0.800886	2.86859	0.939914	3.37507		
0.738377	2.64064	0.563424	1.99985	0.739698	2.64048	0.796755	2.85302	0.914967	3.27591			0.708501	2.53603	0.802921	2.86632	0.941385	3.36908		
0.740755	2.64035	0.565429	2.00036	0.742075	2.64018	0.798588	2.85008	0.916791	3.27152			0.71048	2.53466	0.804959	2.86407	0.94286	3.36314		
0.743131	2.64005	0.567434	2.00085	0.744451	2.63989	0.800425	2.84717	0.918616	3.26718			0.712458	2.5333	0.806999	2.86184	0.944338	3.35725		
0.745507	2.63975	0.569438	2.00135	0.746826	2.63959	0.802264	2.84428	0.920443	3.26286			0.714435	2.53194	0.809041	2.85963	0.945819	3.35142		
0.747881	2.63945	0.571442	2.00183	0.749199	2.63928	0.804107	2.84143	0.922272	3.25858			0.716412	2.53059	0.811085	2.85745	0.947304	3.34564		
0.750254	2.63915	0.573446	2.00232	0.751572	2.63898	0.805952	2.83861	0.924102	3.25434			0.718389	2.52925	0.813131	2.85528	0.948792	3.3399		
0.752626	2.63884	0.57545	2.0028	0.753943	2.63867	0.807801	2.83581	0.925933	3.25012			0.720364	2.52791	0.815178	2.85314	0.950283	3.33422		
0.754996	2.63854	0.577453	2.00328	0.756312	2.63836	0.809652	2.83304	0.927766	3.24594			0.722339	2.52658	0.817228	2.85101	0.951778	3.32858		
0.757365	2.63822	0.579456	2.00375	0.758681	2.63805	0.811507	2.83031	0.929601	3.24179			0.724313	2.52526	0.81928	2.84891	0.953277	3.32299		
0.759733	2.63791	0.581459	2.00422	0.761048	2.63774	0.813365	2.8276	0.931437	3.23767			0.726287	2.52394	0.821333	2.84683	0.954779	3.31745		
0.7621	2.6376	0.583462	2.00468	0.763414	2.63742	0.815225	2.82492	0.933274	3.23359			0.72826	2.52263	0.823388	2.84476	0.956284	3.31196		
0.764464	2.63728	0.585464	2.00514	0.765778	2.6371	0.817089	2.82226	0.935113	3.22953			0.730232	2.52132	0.825445	2.84272	0.957792	3.30652		
0.766828	2.63695	0.587466	2.0056	0.76814	2.63677	0.818956	2.81964	0.936953	3.22551			0.732204	2.52002	0.827503	2.84069	0.959304	3.30112		
0.76919	2.63663	0.589468	2.00605	0.770501	2.63645	0.820827	2.81704	0.938795	3.22152			0.734175	2.51873	0.829564	2.83869	0.96082	3.29577		
0.77155	2.6363	0.591469	2.0065	0.772861	2.63612	0.8227	2.81447	0.940638	3.21756			0.736146	2.51745	0.831626	2.8367	0.962338	3.29046		
0.773909	2.63597	0.59347	2.00695	0.775218	2.63578	0.824577	2.81193	0.942482	3.21362			0.738116	2.51617	0.833689	2.83473	0.96386	3.2852		
0.776266	2.63563	0.595471	2.00739	0.777575	2.63544	0.826457	2.80942	0.944328	3.20972			0.740086	2.51489	0.835754	2.83278	0.965386	3.27998		
0.778621	2.63529	0.597472	2.00783	0.779929	2.6351	0.82834	2.80693	0.946175	3.20584			0.742054	2.51363	0.837821	2.83084	0.966914	3.27481		
0.780975	2.63495	0.599472	2.00826	0.782281	2.63476	0.830227	2.80447	0.948023	3.202			0.744023	2.51236	0.83989	2.82893	0.968447	3.26968		
0.783326	2.6346	0.601472	2.00869	0.784632	2.63441	0.832117	2.80203	0.949873	3.19818			0.745991	2.51111	0.84196	2.82703	0.969982	3.2646		
0.785676	2.63425	0.603472	2.00912	0.786981	2.63405	0.834011	2.79963	0.951724	3.19439			0.747958	2.50986	0.844031	2.82514	0.971521	3.25955		
0.788024	2.63389	0.605472	2.00954	0.789328	2.6337	0.835908	2.79725	0.953576	3.19063			0.749925	2.50862	0.846104	2.82328	0.973063	3.25456		
0.79037	2.63353	0.607471	2.00996	0.791672	2.63333	0.837808	2.79489	0.95543	3.1869			0.751891	2.50738	0.848179	2.82143	0.974608	3.2496		
0.792714	2.63317	0.60947	2.01038	0.794015	2.63297	0.839712	2.79256	0.957285	3.18319			0.753857	2.50615	0.850254	2.8196	0.976157	3.24468		
0.795056	2.6328	0.611469	2.01079	0.796356	2.63259	0.84162	2.79026	0.959141	3.17952			0.755822	2.50492	0.852332	2.81778	0.977709	3.23981		
0.797395	2.63243	0.613468	2.01121	0.798694	2.63222	0.843531	2.78799	0.960998	3.17586			0.757787	2.5037	0.85441	2.81598	0.979265	3.23497		
0.799733	2.63205	0.615466	2.01161	0.80103	2.63183	0.845446	2.78574	0.962856	3.17224			0.759751	2.50249	0.85649	2.81419	0.980823	3.23018		
0.802068	2.63166	0.617464	2.01202	0.803364	2.63145	0.847364	2.78351	0.964716	3.16864			0.761715	2.50128	0.858572	2.81242	0.982385	3.22543		
0.804401	2.63127	0.619462	2.01242	0.805696	2.63106	0.849287	2.78131	0.966577	3.16506			0.763679	2.50008	0.860654	2.81066	0.983951	3.22072		
0.806731	2.63088	0.621459	2.01281	0.808025	2.63066	0.851213	2.77914	0.968439	3.16152			0.765642	2.49889	0.862738	2.80892	0.985519	3.21604		
0.809059	2.63048	0.623456	2.01321	0.810351	2.63025	0.853143	2.777	0.970302	3.15799			0.767604	2.4977	0.864823	2.8072	0.987091	3.21141		
0.811385	2.63007	0.625453	2.0136	0.812676	2.62984	0.855076	2.77488	0.972166	3.1545			0.769566	2.49651	0.86691	2.80548	0.988666	3.20681		
0.813708	2.62966	0.62745	2.01398	0.814997	2.62943	0.857014	2.77278	0.974032	3.15102			0.771528	2.49533	0.868997	2.80379	0.990244	3.20225		
0.816028	2.62924	0.629446	2.01437	0.817316	2.62901	0.858956	2.77071	0.975899	3.14758			0.773489	2.49416	0.871086	2.8021	0.991826	3.19773		
0.818346	2.62882	0.631442	2.01475	0.819632	2.62858	0.860902	2.76867	0.977766	3.14415			0.77545	2.49299	0.873176	2.80043	0.993411	3.19325		
0.820661	2.62839	0.633438	2.01513	0.821945	2.62815	0.862851	2.76665	0.979635	3.14075			0.777411	2.49183	0.875267	2.79877	0.994999	3.18881		
0.822973	2.62795	0.635434	2.0155	0.824256	2.62771	0.864805	2.76465	0.981505	3.13737			0.779371	2.49068	0.877359	2.79713	0.996591	3.1844		
0.825282	2.62751	0.637429	2.01587	0.826563	2.62726	0.866764	2.76268	0.983376	3.13402			0.781331	2.48953	0.879452	2.7955	0.998186	3.18003		
0.827588	2.62706	0.639424	2.01624	0.828868	2.62681	0.868726	2.76074	0.985248	3.13069			0.78329	2.48838	0.881546	2.79388	0.999784	3.17569		
0.829891	2.6266	0.641419	2.01661	0.83117	2.62634	0.870693	2.75882	0.987121	3.12739			0.785249	2.48725	0.883641	2.79228	1.00138	3.17139		
0.832192	2.62614	0.643414	2.01697	0.833468	2.62588	0.872664	2.75693	0.988996	3.1241			0.787208	2.48611	0.885737	2.79068				
0.834489	2.62567	0.645408	2.01733	0.835763	2.6254	0.874639	2.75506	0.990871	3.12084			0.789166	2.48499	0.887834	2.7891				
0.836782	2.62519	0.647402	2.01768	0.838055	2.62492	0.876619	2.75322	0.992747	3.1176			0.791124	2.48386	0.889932	2.78754				
0.839073	2.6247	0.649396	2.01804	0.840344	2.62443	0.878604	2.7514	0.994625	3.11438			0.793082	2.48275	0.892031	2.78598				
0.84136	2.62421	0.651389	2.01839	0.842629	2.62393	0.880593	2.74961	0.996503	3.11119			0.795039	2.48164	0.894131	2.78443				
0.843644	2.62371	0.653382	2.01874	0.844911	2.62342	0.882586	2.74784	0.998382	3.10802			0.796996	2.48053	0.896231	2.7829				
0.845924	2.6232	0.655375	2.01908	0.847189	2.62291	0.884585	2.74609	1.00026	3.10486			0.798953	2.47943	0.898333	2.78138				
0.848201	2.62268	0.657368	2.01943	0.849464	2.62239	0.886588	2.74437					0.800909	2.47834	0.900435	2.77987				
0.850474	2.62215	0.65936	2.01977	0.851735	2.62186	0.888595	2.74268					0.802866	2.47725	0.902538	2.77837				
0.852744	2.62162	0.661353	2.0201	0.854003	2.62132	0.890608	2.74101					0.804821	2.47617	0.904642	2.77688				
0.855009	2.62108	0.663345	2.02044	0.856266	2.62077	0.892626	2.73936					0.806777	2.47509	0.906746	2.7754				
0.857271	2.62053	0.665336	2.02077	0.858526	2.62022	0.894648	2.73774					0.808733	2.47402	0.908851	2.77394				
0.859529	2.61997	0.667328	2.0211	0.860782	2.61966	0.896675	2.73614					0.810688	2.47295	0.910957	2.77248				
0.861784	2.6194	0.669319	2.02142	0.863034	2.61908	0.898708	2.73457					0.812643	2.47189	0.913063	2.77103				
0.864034	2.61883	0.67131	2.02175	0.865282	2.6185	0.900745	2.73302					0.814597	2.47083	0.915171	2.7696				
0.86628	2.61824	0.6733	2.02207	0.867526	2.61791	0.902788	2.7315					0.816552	2.46978	0.917278	2.76817				
0.868522	2.61765	0.675291	2.02239	0.869766	2.61731	0.904836	2.73					0.818506	2.46873	0.919386	2.76675				
0.87076	2.61704	0.677281	2.0227	0.872002	2.6167	0.906889	2.72852					0.82046	2.46769	0.921495	2.76535				
0.872994	2.61643	0.679271	2.02302	0.874233	2.61609	0.908947	2.72707					0.822414	2.46666	0.923605	2.76395				
0.875224	2.61581	0.68126	2.02333	0.876461	2.61546	0.911011	2.72564					0.824367	2.46563	0.925714	2.76256				
0.877449	2.61518	0.68325	2.02364	0.878684	2.61482	0.913079	2.72424					0.826321	2.4646	0.927825	2.76118				
0.879671	2.61454	0.685239	2.02394	0.880903	2.61418	0.915154	2.72286					0.828274	2.46358	0.929936	2.75981				
0.881888	2.61389	0.687227	2.02425	0.883117	2.61352	0.917233	2.7215					0.830227	2.46256	0.932047	2.75845				
0.8841	2.61323	0.689216	2.02455	0.885327	2.61286	0.919318	2.72017					0.83218	2.46155	0.934158	2.7571				
0.886308	2.61256	0.691204	2.02485	0.887533	2.61219	0.921408	2.71886					0.834132	2.46055	0.93627	2.75575				
0.888512	2.61188	0.693192	2.02515	0.889734	2.6115	0.923504	2.71757					0.836085	2.45955	0.938383	2.75442				
0.890711	2.6112	0.69518	2.02544	0.891931	2.61081	0.925605	2.71631					0.838037	2.45855	0.940495	2.75309				
0.892906	2.6105	0.697168	2.02573	0.894123	2.61011	0.927712	2.71506					0.839989	2.45756	0.942608	2.75177				
0.895096	2.6098	0.699155	2.02602	0.896311	2.6094	0.929824	2.71385					0.841942	2.45658	0.944722	2.75046				
0.897282	2.60908	0.701142	2.02631	0.898495	2.60868	0.931941	2.71265					0.843894	2.4556	0.946835	2.74915				
0.899464	2.60836	0.703129	2.02659	0.900673	2.60795	0.934064	2.71148					0.845845	2.45462	0.948949	2.74786				
0.901641	2.60763	0.705115	2.02688	0.902848	2.60722	0.936192	2.71032					0.847797	2.45365	0.951063	2.74657				
0.903813	2.60688	0.707102	2.02716	0.905018	2.60647	0.938326	2.70919					0.849749	2.45269	0.953177	2.74529				
0.905981	2.60613	0.709088	2.02744	0.907183	2.60571	0.940465	2.70808					0.8517	2.45173	0.955292	2.74401				
0.908144	2.60538	0.711074	2.02771	0.909344	2.60495	0.94261	2.707					0.853651	2.45077	0.957406	2.74275				
0.910304	2.60461	0.713059	2.02798	0.911501	2.60418	0.94476	2.70593					0.855603	2.44982	0.959521	2.74149				
0.912458	2.60383	0.715044	2.02826	0.913653	2.6034	0.946915	2.70489					0.857554	2.44887	0.961636	2.74024				
0.914608	2.60305	0.717029	2.02853	0.915801	2.60261	0.949076	2.70386					0.859505	2.44793	0.963751	2.73899				
0.916754	2.60225	0.719014	2.02879	0.917944	2.60181	0.951242	2.70286					0.861456	2.447	0.965866	2.73775				
0.918896	2.60145	0.720999	2.02906	0.920083	2.601	0.953413	2.70188					0.863407	2.44606	0.967981	2.73652				
0.921033	2.60064	0.722983	2.02932	0.922218	2.60019	0.95559	2.70091					0.865358	2.44514	0.970096	2.7353				
0.923166	2.59982	0.724967	2.02958	0.924349	2.59937	0.957771	2.69997					0.867309	2.44422	0.972211	2.73408				
0.925294	2.599	0.726951	2.02984	0.926475	2.59854	0.959958	2.69905					0.869259	2.4433	0.974326	2.73286				
0.927419	2.59817	0.728934	2.0301	0.928597	2.5977	0.96215	2.69814					0.87121	2.44238	0.976441	2.73166				
0.929539	2.59733	0.730918	2.03036	0.930715	2.59686	0.964347	2.69725					0.873161	2.44148	0.978556	2.73046				
0.931655	2.59648	0.732901	2.03061	0.932829	2.59601	0.966549	2.69638					0.875111	2.44057	0.980671	2.72926				
0.933767	2.59563	0.734884	2.03086	0.934938	2.59515	0.968756	2.69554					0.877062	2.43967	0.982786	2.72808				
0.935875	2.59477	0.736866	2.03111	0.937044	2.59429	0.970967	2.6947					0.879012	2.43878	0.9849	2.72689				
0.937979	2.5939	0.738849	2.03136	0.939146	2.59342	0.973183	2.69389					0.880963	2.43789	0.987015	2.72572				
0.940079	2.59303	0.740831	2.0316	0.941244	2.59254	0.975405	2.69309					0.882913	2.437	0.989129	2.72455				
0.942175	2.59215	0.742812	2.03185	0.943338	2.59166	0.97763	2.69231					0.884864	2.43612	0.991243	2.72338				
0.944268	2.59126	0.744794	2.03209	0.945429	2.59077	0.979861	2.69155					0.886814	2.43524	0.993357	2.72222				
0.946357	2.59037	0.746775	2.03233	0.947516	2.58988	0.982095	2.6908					0.888764	2.43437	0.995471	2.72106				
0.948442	2.58948	0.748757	2.03256	0.949599	2.58898	0.984335	2.69007					0.890715	2.4335	0.997585	2.71992				
0.950524	2.58857	0.750737	2.0328	0.951679	2.58807	0.986578	2.68935					0.892665	2.43264	0.999698	2.71877				
0.952602	2.58767	0.752718	2.03303	0.953755	2.58716	0.988826	2.68865					0.894616	2.43178	1.00181	2.71763				
0.954677	2.58676	0.754698	2.03327	0.955828	2.58625	0.991078	2.68796					0.896566	2.43093						
0.956748	2.58584	0.756679	2.0335	0.957897	2.58533	0.993334	2.68729					0.898517	2.43008						
0.958816	2.58492	0.758658	2.03373	0.959963	2.58441	0.995594	2.68664					0.900467	2.42923						
0.960881	2.584	0.760638	2.03395	0.962026	2.58348	0.997859	2.68599					0.902418	2.42839						
0.962942	2.58307	0.762618	2.03418	0.964086	2.58255	1.00013	2.68536					0.904368	2.42755						
0.965001	2.58214	0.764597	2.0344	0.966143	2.58162							0.906319	2.42672						
0.967057	2.5812	0.766576	2.03462	0.968197	2.58068							0.908269	2.42589						
0.969109	2.58027	0.768554	2.03484	0.970248	2.57974							0.91022	2.42506						
0.971159	2.57933	0.770533	2.03506	0.972297	2.5788							0.91217	2.42424						
0.973206	2.57838	0.772511	2.03528	0.974342	2.57786							0.914121	2.42343						
0.97525	2.57744	0.774489	2.03549	0.976385	2.57691							0.916072	2.42261						
0.977292	2.57649	0.776467	2.03571	0.978425	2.57596							0.918023	2.42181						
0.979331	2.57554	0.778444	2.03592	0.980463	2.57501							0.919973	2.421						
0.981368	2.57459	0.780422	2.03613	0.982498	2.57406							0.921924	2.4202						
0.983402	2.57363	0.782399	2.03634	0.984531	2.5731							0.923875	2.41941						
0.985434	2.57268	0.784376	2.03654	0.986561	2.57214							0.925826	2.41861						
0.987463	2.57172	0.786352	2.03675	0.988589	2.57119							0.927777	2.41783						
0.98949	2.57076	0.788329	2.03695	0.990615	2.57023							0.929729	2.41704						
0.991515	2.5698	0.790305	2.03715	0.992639	2.56927							0.93168	2.41626						
0.993538	2.56884	0.792281	2.03735	0.994661	2.56831							0.933631	2.41549						
0.995559	2.56788	0.794256	2.03755	0.996681	2.56735							0.935582	2.41471						
0.997578	2.56692	0.796232	2.03775	0.998699	2.56638							0.937534	2.41395						
0.999595	2.56596	0.798207	2.03794	1.00071	2.56542							0.939486	2.41318						
1.00161	2.56499	0.800182	2.03814									0.941437	2.41242						
		0.802157	2.03833									0.943389	2.41167						
		0.804131	2.03852									0.945341	2.41091						
		0.806106	2.03871									0.947293	2.41016						
		0.80808	2.0389									0.949245	2.40942						
		0.810053	2.03909									0.951197	2.40868						
		0.812027	2.03927									0.953149	2.40794						
		0.814	2.03946									0.955102	2.40721						
		0.815974	2.03964									0.957054	2.40648						
		0.817947	2.03982									0.959007	2.40575						
		0.819919	2.04									0.96096	2.40503						
		0.821892	2.04018									0.962913	2.40431						
		0.823864	2.04036									0.964866	2.4036						
		0.825836	2.04053									0.966819	2.40288						
		0.827808	2.04071									0.968772	2.40218						
		0.82978	2.04088									0.970726	2.40147						
		0.831751	2.04105									0.972679	2.40077						
		0.833722	2.04122									0.974633	2.40007						
		0.835693	2.04139									0.976587	2.39938						
		0.837664	2.04156									0.978541	2.39869						
		0.839635	2.04172									0.980495	2.398						
		0.841605	2.04189									0.982449	2.39732						
		0.843575	2.04205									0.984403	2.39664						
		0.845545	2.04221									0.986358	2.39596						
		0.847515	2.04238									0.988313	2.39529						
		0.849484	2.04254									0.990267	2.39462						
		0.851453	2.0427									0.992223	2.39396						
		0.853422	2.04285									0.994178	2.39329						
		0.855391	2.04301									0.996133	2.39263						
		0.85736	2.04316									0.998089	2.39198						
		0.859328	2.04332									1.00004	2.39133						
		0.861296	2.04347																
		0.863264	2.04362																
		0.865232	2.04377																
		0.867199	2.04392																
		0.869167	2.04407																
		0.871134	2.04422																
		0.873101	2.04436																
		0.875068	2.04451																
		0.877034	2.04465																
		0.879	2.0448																
		0.880966	2.04494																
		0.882932	2.04508																
		0.884898	2.04522																
		0.886864	2.04536																
		0.888829	2.04549																
		0.890794	2.04563																
		0.892759	2.04576																
		0.894723	2.0459																
		0.896688	2.04603																
		0.898652	2.04616																
		0.900616	2.04629																
		0.90258	2.04642																
		0.904544	2.04655																
		0.906507	2.04668																
		0.908471	2.04681																
		0.910434	2.04693																
		0.912397	2.04706																
		0.914359	2.04718																
		0.916322	2.04731																
		0.918284	2.04743																
		0.920246	2.04755																
		0.922208	2.04767																
		0.92417	2.04779																
		0.926132	2.04791																
		0.928093	2.04803																
		0.930054	2.04814																
		0.932015	2.04826																
		0.933976	2.04837																
		0.935937	2.04849																
		0.937897	2.0486																
		0.939857	2.04871																
		0.941817	2.04883																
		0.943777	2.04894																
		0.945737	2.04905																
		0.947696	2.04916																
		0.949656	2.04926																
		0.951615	2.04937																
		0.953574	2.04948																
		0.955532	2.04958																
		0.957491	2.04969																
		0.959449	2.04979																
		0.961408	2.0499																
		0.963366	2.05																
		0.965323	2.0501																
		0.967281	2.0502																
		0.969239	2.0503																
		0.971196	2.0504																
		0.973153	2.0505																
		0.97511	2.0506																
		0.977067	2.05069																
		0.979024	2.05079																
		0.98098	2.05089																
		0.982936	2.05098																
		0.984892	2.05107																
		0.986848	2.05117																
		0.988804	2.05126																
		0.99076	2.05135																
		0.992715	2.05144																
		0.99467	2.05153																
		0.996625	2.05162																
		0.99858	2.05171																
		1.00054	2.0518																
