Sym0		Asym0		Sym1		Sym2		Sym3		Sym4		Asym1		Asym2		Asym3		Asym4	
423  Points		526  Points		423  Points		405  Points		351  Points		251  Points		454  Points		399  Points		344  Points		206  Points	
Freq (MHz)	Vph (m/ms)	Freq (MHz)	Vph (m/ms)	Freq (MHz)	Vph (m/ms)	Freq (MHz)	Vph (m/ms)	Freq (MHz)	Vph (m/ms)	Freq (MHz)	Vph (m/ms)	Freq (MHz)	Vph (m/ms)	Freq (MHz)	Vph (m/ms)	Freq (MHz)	Vph (m/ms)	Freq (MHz)	Vph (m/ms)
0.27951	617.125	0.000347797	0.1149	0.279514	306.274	0.449946	11135.8	0.559017	7060.15	0.838526	2134.22	0.139755	944.431	0.419268	466.228	0.698771	3554.92	0.899892	2219.36
0.279521	201.876	0.000593754	0.149989	0.27953	151.563	0.449952	462.866	0.559024	553.01	0.838531	633.049	0.139799	129.483	0.419285	228.996	0.698776	619.339	0.899897	672.987
0.279542	120.684	0.000904116	0.184878	0.279557	100.704	0.449968	236.353	0.559042	287.785	0.838543	371.647	0.13991	69.5596	0.419314	151.779	0.698786	339.224	0.899907	396.634
0.279575	86.0757	0.00127805	0.21952	0.279595	75.409	0.449996	158.701	0.559071	194.509	0.83856	263.038	0.140087	47.5991	0.419355	113.512	0.698803	233.584	0.899923	281.177
0.279618	66.899	0.00171445	0.253852	0.279643	60.2757	0.450034	119.462	0.559111	146.904	0.838583	203.555	0.14033	36.2165	0.419407	90.6618	0.698825	178.12	0.899943	217.785
0.279672	54.7154	0.00221216	0.287838	0.279703	50.206	0.450083	95.7852	0.559163	118.025	0.838611	166.017	0.140639	29.2604	0.419471	75.4749	0.698854	143.944	0.899969	177.721
0.279737	46.2904	0.00276999	0.321452	0.279773	43.0235	0.450143	79.9461	0.559226	98.6403	0.838646	140.17	0.141012	24.5744	0.419546	64.6505	0.698888	120.774	0.9	150.109
0.279813	40.1178	0.00338652	0.354653	0.279854	37.6427	0.450213	68.6063	0.559301	84.7291	0.838686	121.289	0.141448	21.2071	0.419633	56.5457	0.698929	104.032	0.900037	129.925
0.2799	35.4013	0.00406026	0.38741	0.279947	33.4617	0.450294	60.0876	0.559386	74.2607	0.838733	106.893	0.141946	18.6734	0.419732	50.2503	0.698976	91.3679	0.900078	114.528
0.279997	31.6805	0.00478958	0.419689	0.28005	30.1197	0.450386	53.4541	0.559483	66.0981	0.838785	95.5537	0.142506	16.7001	0.419843	45.2196	0.699029	81.4546	0.900125	102.395
0.280106	28.6704	0.00557289	0.451469	0.280163	27.3876	0.450489	48.1428	0.559591	59.5555	0.838843	86.391	0.143125	15.1216	0.419965	41.1077	0.699088	73.4837	0.900177	92.5878
0.280225	26.1854	0.00640851	0.482728	0.280288	25.1126	0.450602	43.7944	0.559711	54.1945	0.838907	78.8332	0.143803	13.8317	0.420099	37.6841	0.699153	66.9353	0.900235	84.4964
0.280355	24.0995	0.00729468	0.513446	0.280424	23.189	0.450727	40.1691	0.559841	49.7216	0.838976	72.4928	0.144536	12.7589	0.420244	34.7895	0.699224	61.46	0.900297	77.7069
0.280496	22.3237	0.00822969	0.543609	0.28057	21.5414	0.450862	37.1005	0.559983	45.9334	0.839052	67.0977	0.145325	11.8536	0.420401	32.3105	0.699301	56.8141	0.900365	71.9285
0.280648	20.7939	0.00921174	0.573201	0.280727	20.1146	0.451007	34.4698	0.560137	42.6839	0.839133	62.4512	0.146168	11.0803	0.42057	30.1635	0.699385	52.8224	0.900438	66.951
0.280811	19.4624	0.0102391	0.602218	0.280895	18.8671	0.451164	32.1896	0.560301	39.866	0.839221	58.4077	0.146943	10.4933	0.42075	28.2863	0.699474	49.3561	0.900516	62.6189
0.280984	18.2932	0.0113101	0.630646	0.281073	17.7673	0.45133	30.1943	0.560477	37.3993	0.839314	54.857	0.147635	10.0461	0.420942	26.6311	0.69957	46.3178	0.9006	58.8143
0.281168	17.2583	0.0124228	0.658483	0.281263	16.7904	0.451508	28.4339	0.560663	35.222	0.839412	51.7144	0.148227	9.70831	0.421146	25.1609	0.699671	43.633	0.900689	55.4465
0.281363	16.3361	0.0135756	0.685725	0.281463	15.917	0.451696	26.8692	0.560861	33.2861	0.839517	48.9132	0.148708	9.45944	0.421361	23.8464	0.699779	41.2433	0.900783	52.4443
0.281569	15.509	0.0147669	0.712374	0.281674	15.1317	0.451896	25.4695	0.56107	31.5538	0.839628	46.4008	0.149069	9.28584	0.421587	22.6642	0.699892	39.1028	0.900882	49.7514
0.281785	14.7633	0.015995	0.738429	0.281896	14.4218	0.452105	24.21	0.56129	29.9946	0.839744	44.1348	0.149303	9.17865	0.421825	21.5953	0.700012	37.1744	0.900986	47.3223
0.282012	14.0876	0.0172583	0.763894	0.282128	13.777	0.452325	23.0708	0.561522	28.5838	0.839866	42.0806	0.149643	9.02965	0.422075	20.6243	0.700138	35.4282	0.901096	45.1201
0.28225	13.4724	0.0185554	0.788776	0.282371	13.1888	0.452556	22.0354	0.561764	27.3013	0.839994	40.21	0.150019	8.87413	0.422335	19.7385	0.700269	33.8395	0.901211	43.1145
0.282499	12.9101	0.0198845	0.813076	0.282625	12.6502	0.452798	21.0904	0.562018	26.1304	0.840128	38.4993	0.150539	8.67272	0.422608	18.927	0.700407	32.3879	0.901331	41.2802
0.282758	12.3943	0.0212445	0.836805	0.28289	12.1551	0.45305	20.2245	0.562282	25.0573	0.840267	36.929	0.151211	8.43339	0.422892	18.1811	0.700551	31.0566	0.901457	39.5964
0.283028	11.9193	0.0226338	0.859968	0.283165	11.6986	0.453312	19.4281	0.562558	24.0702	0.840413	35.4825	0.152045	8.16476	0.423187	17.4931	0.700701	29.8311	0.901587	38.0451
0.283308	11.4807	0.0240512	0.882579	0.283451	11.2764	0.453585	18.6934	0.562845	23.1592	0.840564	34.1457	0.153053	7.87552	0.423494	16.8566	0.700857	28.6994	0.901723	36.6114
0.2836	11.0744	0.0254952	0.90464	0.283747	10.8847	0.453869	18.0134	0.563142	22.316	0.840721	32.9067	0.154247	7.57385	0.423812	16.266	0.701019	27.6511	0.901864	35.2825
0.283901	10.697	0.0269648	0.926168	0.284054	10.5205	0.454163	17.3823	0.563451	21.5332	0.840884	31.755	0.155479	7.30037	0.424141	15.7167	0.701187	26.6773	0.90201	34.0472
0.284214	10.3456	0.0284587	0.947169	0.284331	10.2233	0.454468	16.7951	0.563771	20.8046	0.841053	30.6819	0.156748	7.05147	0.424482	15.2044	0.701361	25.7704	0.902162	32.896
0.284537	10.0176	0.029976	0.967659	0.284572	9.98356	0.454783	16.2473	0.564101	20.1249	0.841227	29.6795	0.158052	6.8241	0.424834	14.7255	0.701541	24.9238	0.902319	31.8207
0.284871	9.71079	0.0315152	0.987644	0.284777	9.79408	0.455108	15.7352	0.564443	19.4893	0.841407	28.7411	0.159389	6.61571	0.425197	14.2771	0.701727	24.1317	0.90248	30.814
0.285215	9.42324	0.0330757	1.00714	0.284941	9.64955	0.455444	15.2554	0.564795	18.8936	0.841593	27.8607	0.160759	6.42412	0.425572	13.8562	0.701919	23.3889	0.902648	29.8695
0.28557	9.15321	0.0346563	1.02616	0.285064	9.54613	0.45579	14.805	0.565158	18.3343	0.841785	27.0333	0.162159	6.24747	0.425958	13.4604	0.702117	22.691	0.90282	28.9817
0.285935	8.89916	0.0362561	1.04471	0.285143	9.48116	0.456147	14.3813	0.565532	17.8082	0.841983	26.2541	0.163588	6.08415	0.426355	13.0876	0.702321	22.0342	0.902997	28.1456
0.286311	8.65974	0.0378742	1.0628	0.285258	9.3894	0.456514	13.9822	0.565917	17.3124	0.842186	25.5191	0.165046	5.93278	0.426763	12.7359	0.702532	21.4148	0.90318	27.3568
0.286697	8.43376	0.0395098	1.08045	0.285383	9.29178	0.456891	13.6055	0.566313	16.8444	0.842395	24.8246	0.16653	5.79215	0.427182	12.4036	0.702748	20.8298	0.903368	26.6115
0.287093	8.22013	0.0411621	1.09767	0.285557	9.16242	0.457279	13.2494	0.566719	16.402	0.84261	24.1674	0.16804	5.66121	0.427612	12.089	0.70297	20.2765	0.903561	25.9062
0.287501	8.0179	0.0428304	1.11446	0.28578	9.00422	0.457677	12.9124	0.567136	15.983	0.842831	23.5445	0.169574	5.53904	0.428054	11.7909	0.703198	19.7522	0.903759	25.2377
0.287918	7.82619	0.0445138	1.13085	0.286055	8.82053	0.458085	12.5929	0.567564	15.5859	0.843058	22.9535	0.171132	5.42482	0.428506	11.508	0.703432	19.2549	0.903963	24.6033
0.288346	7.64423	0.0462117	1.14684	0.286384	8.61502	0.458503	12.2896	0.568002	15.2088	0.84329	22.3918	0.172712	5.31785	0.42897	11.2393	0.703673	18.7825	0.904172	24.0003
0.288784	7.47131	0.0479236	1.16245	0.286773	8.39151	0.458932	12.0014	0.568451	14.8503	0.843528	21.8574	0.174313	5.21747	0.429444	10.9836	0.703919	18.3331	0.904386	23.4267
0.289233	7.30679	0.0496486	1.17767	0.287171	8.18016	0.45937	11.7271	0.568911	14.5092	0.843772	21.3483	0.175935	5.12314	0.42993	10.7401	0.704171	17.9052	0.904605	22.8801
0.289692	7.15009	0.0513863	1.19254	0.28758	7.98003	0.459819	11.4659	0.569381	14.1841	0.844021	20.8628	0.177576	5.03434	0.430426	10.5079	0.704429	17.4972	0.904829	22.3589
0.290161	7.00069	0.0531361	1.20705	0.288	7.79027	0.460278	11.2167	0.569861	13.8741	0.844276	20.3993	0.179235	4.95062	0.430867	10.3142	0.704693	17.1079	0.905058	21.8613
0.290641	6.8581	0.0548973	1.22121	0.28843	7.6101	0.460747	10.9789	0.570353	13.5781	0.844537	19.9564	0.180912	4.87158	0.43125	10.1551	0.704963	16.7359	0.905293	21.3857
0.29113	6.72187	0.0566697	1.23504	0.28887	7.43886	0.461226	10.7516	0.570854	13.2951	0.844804	19.5327	0.182607	4.79686	0.431571	10.0276	0.705239	16.3801	0.905532	20.9307
0.29163	6.59162	0.0584526	1.24854	0.289321	7.27589	0.461715	10.5342	0.571366	13.0244	0.845076	19.1269	0.184317	4.72612	0.431828	9.92912	0.705521	16.0396	0.905777	20.495
0.292141	6.46697	0.0602455	1.26173	0.289782	7.12065	0.462149	10.3523	0.571888	12.7652	0.845355	18.7381	0.186043	4.65907	0.432018	9.85808	0.705809	15.7133	0.906027	20.0774
0.292661	6.34757	0.0620482	1.27461	0.290253	6.97259	0.462525	10.2026	0.572421	12.5168	0.845639	18.3651	0.187784	4.59545	0.432141	9.81319	0.706103	15.4004	0.906283	19.6768
0.293191	6.23312	0.0638601	1.2872	0.290735	6.83127	0.46284	10.0823	0.572964	12.2785	0.845928	18.007	0.189539	4.535	0.432318	9.74944	0.706403	15.1001	0.906543	19.2922
0.293732	6.12333	0.0656808	1.29949	0.291226	6.69623	0.463092	9.98927	0.573517	12.0498	0.846223	17.663	0.191308	4.4775	0.432512	9.68116	0.706709	14.8117	0.906809	18.9226
0.294283	6.01792	0.06751	1.31151	0.291728	6.56709	0.463279	9.92208	0.574081	11.8301	0.846524	17.3322	0.193089	4.42276	0.432778	9.58997	0.70702	14.5344	0.907079	18.5673
0.294844	5.91667	0.0693474	1.32325	0.29224	6.44347	0.463399	9.87959	0.574655	11.6188	0.846831	17.014	0.194883	4.37058	0.433118	9.47731	0.707338	14.2676	0.907355	18.2254
0.295415	5.81932	0.0711925	1.33473	0.292763	6.32506	0.463573	9.81921	0.575238	11.4156	0.847144	16.7075	0.19669	4.3208	0.433534	9.3449	0.707662	14.0109	0.907636	17.8961
0.295996	5.72568	0.0730451	1.34595	0.293295	6.21153	0.463762	9.75448	0.575832	11.2199	0.847462	16.4122	0.198507	4.27327	0.43403	9.19468	0.707991	13.7635	0.907922	17.5788
0.296587	5.63555	0.0749047	1.35692	0.293838	6.10261	0.464023	9.66793	0.576436	11.0314	0.847785	16.1275	0.200336	4.22784	0.43461	9.02875	0.708327	13.525	0.908213	17.2729
0.297188	5.54874	0.0767713	1.36765	0.294391	5.99803	0.464355	9.56085	0.57705	10.8497	0.848115	15.8528	0.202175	4.18437	0.435199	8.86933	0.708668	13.295	0.90851	16.9777
0.297799	5.46507	0.0786444	1.37815	0.294953	5.89754	0.464762	9.43478	0.577674	10.6744	0.84845	15.5876	0.204024	4.14276	0.4358	8.71606	0.709015	13.073	0.908811	16.6927
0.298419	5.3844	0.0805238	1.38841	0.295526	5.80093	0.465246	9.29147	0.578226	10.5267	0.848791	15.3314	0.205883	4.10288	0.436411	8.56861	0.709368	12.8587	0.909118	16.4173
0.29905	5.30658	0.0824093	1.39846	0.296109	5.70798	0.465811	9.13282	0.578703	10.4043	0.849137	15.0838	0.207751	4.06464	0.437032	8.42666	0.709727	12.6515	0.909429	16.1512
0.299691	5.23146	0.0843005	1.40829	0.296702	5.6185	0.466386	8.98004	0.579101	10.3054	0.849489	14.8444	0.209628	4.02795	0.437664	8.28992	0.710092	12.4512	0.909746	15.8939
0.300341	5.15891	0.0861974	1.41791	0.297305	5.53231	0.46697	8.83284	0.579418	10.2287	0.849847	14.6127	0.211514	3.9927	0.438306	8.15811	0.710463	12.2575	0.910068	15.6448
0.301002	5.08881	0.0880996	1.42732	0.297918	5.44924	0.467564	8.69091	0.579653	10.1731	0.85021	14.3885	0.213408	3.95883	0.438959	8.03099	0.710839	12.0699	0.910395	15.4037
0.301672	5.02106	0.0900069	1.43654	0.298541	5.36914	0.468167	8.55399	0.579804	10.1378	0.850579	14.1713	0.215309	3.92625	0.439621	7.90831	0.711222	11.8884	0.910727	15.1702
0.302352	4.95553	0.0919191	1.44556	0.299173	5.29184	0.46878	8.42182	0.580022	10.0877	0.850954	13.9608	0.217219	3.8949	0.440295	7.78986	0.71161	11.7124	0.911064	14.9439
0.303042	4.89213	0.093836	1.4544	0.299816	5.21723	0.469403	8.29418	0.58026	10.0337	0.851334	13.7568	0.219136	3.8647	0.440978	7.67543	0.712004	11.5419	0.911407	14.7245
0.303741	4.83076	0.0957576	1.46305	0.300468	5.14517	0.470035	8.17083	0.580586	9.96141	0.85172	13.5589	0.22106	3.83561	0.441671	7.56483	0.712404	11.3766	0.911754	14.5117
0.304359	4.77888	0.0976835	1.47153	0.301131	5.07553	0.470676	8.05158	0.581001	9.8716	0.852111	13.3668	0.22299	3.80756	0.442375	7.45787	0.71281	11.2162	0.912107	14.3051
0.304891	4.73577	0.0996136	1.47984	0.301803	5.00821	0.471327	7.93622	0.581508	9.76538	0.852508	13.1804	0.224928	3.78049	0.443089	7.35439	0.713221	11.0605	0.912464	14.1047
0.305336	4.70088	0.101548	1.48798	0.302485	4.9431	0.471988	7.82459	0.58211	9.64399	0.852911	12.9994	0.226871	3.75437	0.443813	7.25422	0.713639	10.9094	0.912827	13.9099
0.305689	4.67376	0.103486	1.49595	0.303177	4.88011	0.472657	7.7165	0.582809	9.5088	0.853319	12.8235	0.228821	3.72913	0.444547	7.15722	0.714007	10.7812	0.913194	13.7207
0.305951	4.65409	0.105428	1.50377	0.303878	4.81912	0.473336	7.61181	0.583518	9.37782	0.853733	12.6526	0.230776	3.70475	0.445291	7.06325	0.714325	10.6744	0.913567	13.5368
0.306119	4.64161	0.107373	1.51143	0.304589	4.76007	0.474024	7.51035	0.584237	9.25085	0.854152	12.4864	0.232737	3.68117	0.446045	6.97217	0.71459	10.5878	0.913945	13.358
0.306362	4.62382	0.109322	1.51894	0.30531	4.70286	0.474721	7.41198	0.584965	9.12772	0.854577	12.3247	0.234704	3.65836	0.446808	6.88385	0.714801	10.5204	0.914328	13.1841
0.306626	4.60469	0.111274	1.52631	0.306041	4.64742	0.475428	7.31658	0.585703	9.00827	0.855007	12.1675	0.236675	3.63629	0.447582	6.79819	0.714957	10.4714	0.914715	13.0148
0.306988	4.57901	0.11323	1.53353	0.306781	4.59367	0.476144	7.22401	0.58645	8.89233	0.855443	12.0144	0.238652	3.61491	0.448365	6.71506	0.715057	10.4403	0.915108	12.8501
0.30745	4.54707	0.115188	1.54062	0.307531	4.54154	0.476868	7.13416	0.587206	8.77977	0.855885	11.8653	0.240634	3.59421	0.449158	6.63436	0.715202	10.396	0.915506	12.6896
0.308012	4.50924	0.116897	1.54668	0.30829	4.49096	0.477602	7.04691	0.587972	8.67044	0.856332	11.7201	0.24262	3.57414	0.449961	6.556	0.71536	10.3482	0.915909	12.5334
0.308679	4.46591	0.118356	1.55177	0.30906	4.44188	0.478345	6.96216	0.588747	8.5642	0.856785	11.5787	0.244611	3.55468	0.450774	6.47987	0.715576	10.284	0.916317	12.3811
0.309453	4.41757	0.119564	1.55593	0.309838	4.39423	0.479096	6.87981	0.589531	8.46094	0.857243	11.4408	0.246606	3.5358	0.451596	6.40589	0.715851	10.2041	0.91673	12.2327
0.310237	4.37062	0.120519	1.55918	0.310627	4.34796	0.479857	6.79976	0.590325	8.36053	0.857706	11.3064	0.248606	3.51748	0.452427	6.33398	0.716187	10.1091	0.917148	12.088
0.31103	4.32503	0.121222	1.56155	0.311425	4.30302	0.480626	6.72191	0.591127	8.26287	0.858175	11.1753	0.25061	3.49969	0.453268	6.26405	0.716585	10.0001	0.917571	11.9468
0.311833	4.28073	0.121672	1.56306	0.312232	4.25934	0.481405	6.6462	0.591939	8.16784	0.858589	11.0637	0.252617	3.48242	0.454119	6.19603	0.717047	9.87814	0.917999	11.8092
0.312645	4.23769	0.122319	1.56522	0.313049	4.21689	0.482192	6.57252	0.59276	8.07535	0.858944	10.9705	0.254628	3.46564	0.454979	6.12984	0.717515	9.75932	0.918432	11.6748
0.313467	4.19584	0.123023	1.56755	0.313876	4.17562	0.482987	6.50081	0.593589	7.9853	0.85924	10.8946	0.256643	3.44932	0.455849	6.06542	0.717988	9.64355	0.91887	11.5437
0.314299	4.15515	0.123981	1.5707	0.314712	4.13549	0.483792	6.43099	0.594428	7.8976	0.859476	10.8354	0.258662	3.43346	0.456727	6.0027	0.718467	9.53072	0.919313	11.4156
0.31514	4.11558	0.125193	1.57464	0.315558	4.09645	0.484605	6.363	0.595276	7.81215	0.85965	10.7924	0.260684	3.41802	0.457616	5.94161	0.718952	9.42072	0.91976	11.2905
0.31599	4.07708	0.12666	1.57934	0.316413	4.05846	0.485427	6.29676	0.596132	7.72889	0.859762	10.765	0.262709	3.40301	0.458513	5.88211	0.719443	9.31345	0.920155	11.1839
0.31685	4.03961	0.128382	1.58477	0.317278	4.0215	0.486257	6.23221	0.596997	7.64773	0.859923	10.7259	0.264738	3.38839	0.459419	5.82412	0.719939	9.20881	0.920494	11.0947
0.31772	4.00315	0.130361	1.5909	0.318152	3.98551	0.487096	6.16929	0.597871	7.56859	0.860099	10.6838	0.26677	3.37416	0.460335	5.76761	0.720441	9.1067	0.920776	11.0221
0.318599	3.96765	0.132342	1.59692	0.319036	3.95048	0.487943	6.10794	0.598754	7.49141	0.86034	10.627	0.268804	3.3603	0.46126	5.71251	0.720949	9.00704	0.921001	10.9654
0.319488	3.93308	0.134325	1.60283	0.319929	3.91636	0.488799	6.04812	0.599646	7.41611	0.860646	10.5562	0.270842	3.34679	0.462194	5.65878	0.721462	8.90975	0.921167	10.9241
0.320386	3.89941	0.136311	1.60864	0.320832	3.88312	0.489663	5.98976	0.600546	7.34264	0.861018	10.4718	0.272882	3.33362	0.463137	5.60638	0.721982	8.81474	0.921274	10.8978
0.321293	3.86661	0.138298	1.61434	0.321745	3.85074	0.490536	5.93282	0.601454	7.27092	0.861459	10.3747	0.274925	3.32078	0.464089	5.55524	0.722506	8.72193	0.921427	10.8603
0.322211	3.83465	0.140287	1.61994	0.322667	3.81919	0.491417	5.87724	0.602371	7.2009	0.86197	10.2657	0.276971	3.30826	0.465049	5.50535	0.723037	8.63125	0.921595	10.8198
0.323137	3.80351	0.142278	1.62545	0.323598	3.78843	0.492306	5.82299	0.603297	7.13252	0.862487	10.1591	0.27902	3.29605	0.466019	5.45664	0.723573	8.54264	0.921824	10.7653
0.324074	3.77315	0.144271	1.63086	0.324539	3.75845	0.493203	5.77002	0.604231	7.06574	0.863009	10.0549	0.28107	3.28413	0.466997	5.40909	0.724115	8.45602	0.922115	10.6972
0.325019	3.74356	0.146266	1.63617	0.32549	3.72923	0.494108	5.71828	0.605173	7.00049	0.863536	9.95304	0.283123	3.27249	0.467985	5.36265	0.724662	8.37133	0.922469	10.6161
0.325975	3.7147	0.148262	1.6414	0.32645	3.70072	0.495022	5.66774	0.606124	6.93672	0.864069	9.85337	0.285179	3.26113	0.468981	5.31729	0.725215	8.28851	0.922889	10.5226
0.32694	3.68655	0.15026	1.64653	0.327419	3.67292	0.495943	5.61836	0.607083	6.8744	0.864607	9.75586	0.287237	3.25004	0.469985	5.27298	0.725773	8.2075	0.923375	10.4175
0.327914	3.6591	0.152259	1.65158	0.328399	3.6458	0.496873	5.5701	0.60805	6.81346	0.865151	9.66043	0.289296	3.2392	0.470999	5.22969	0.726338	8.12824	0.923866	10.3146
0.328899	3.63232	0.15426	1.65654	0.329388	3.61935	0.49781	5.52292	0.609025	6.75388	0.8657	9.56703	0.291358	3.2286	0.47202	5.18737	0.726907	8.05068	0.924361	10.2139
0.329893	3.60619	0.156263	1.66142	0.330387	3.59353	0.498756	5.4768	0.610008	6.69561	0.866254	9.47559	0.293422	3.21825	0.473051	5.146	0.727483	7.97476	0.924862	10.1153
0.330896	3.58069	0.158267	1.66622	0.331395	3.56834	0.499709	5.4317	0.611	6.6386	0.866814	9.38606	0.295488	3.20812	0.47409	5.10556	0.728064	7.90044	0.925367	10.0187
0.33191	3.55581	0.160272	1.67094	0.332413	3.54375	0.50067	5.38759	0.611999	6.58282	0.867378	9.29837	0.297556	3.19822	0.475137	5.06601	0.72865	7.82766	0.925878	9.92415
0.332933	3.53152	0.162278	1.67558	0.333441	3.51975	0.50164	5.34443	0.613007	6.52823	0.867949	9.21247	0.299626	3.18853	0.476193	5.02732	0.729242	7.75639	0.926393	9.83149
0.333966	3.50781	0.164286	1.68015	0.334479	3.49632	0.502616	5.30221	0.614022	6.4748	0.868524	9.12831	0.301697	3.17906	0.477257	4.98948	0.72984	7.68658	0.926913	9.74069
0.335009	3.48467	0.166294	1.68464	0.335527	3.47345	0.503601	5.26088	0.615045	6.42249	0.869105	9.04583	0.30377	3.16978	0.478329	4.95245	0.730443	7.61817	0.927438	9.65171
0.336062	3.46206	0.168304	1.68906	0.336585	3.45111	0.504593	5.22044	0.616076	6.37127	0.869692	8.965	0.305845	3.1607	0.47941	4.91622	0.731052	7.55115	0.927968	9.56449
0.337124	3.43999	0.170315	1.69341	0.337652	3.4293	0.505593	5.18084	0.617115	6.32111	0.870283	8.88576	0.307921	3.15181	0.480499	4.88075	0.731666	7.48545	0.928503	9.47897
0.338197	3.41844	0.172328	1.69769	0.33873	3.408	0.5066	5.14207	0.618162	6.27197	0.87088	8.80806	0.309999	3.14311	0.481596	4.84603	0.732286	7.42106	0.929042	9.39512
0.33928	3.39739	0.174341	1.7019	0.339818	3.38719	0.507615	5.1041	0.619216	6.22383	0.871482	8.73187	0.312078	3.13458	0.482701	4.81204	0.732911	7.35792	0.929587	9.31288
0.340373	3.37684	0.176355	1.70605	0.340916	3.36687	0.508637	5.06691	0.620278	6.17666	0.872089	8.65714	0.314159	3.12622	0.483815	4.77875	0.733542	7.29601	0.930136	9.23221
0.341476	3.35675	0.17837	1.71013	0.342025	3.34702	0.509667	5.03048	0.621347	6.13044	0.872702	8.58383	0.316241	3.11803	0.484936	4.74615	0.734178	7.23529	0.93069	9.15306
0.34259	3.33714	0.180386	1.71415	0.343143	3.32763	0.510704	4.99479	0.622424	6.08512	0.87332	8.5119	0.318324	3.11	0.486065	4.71422	0.734819	7.17572	0.931249	9.0754
0.343714	3.31798	0.182403	1.7181	0.344273	3.30868	0.511748	4.95981	0.623508	6.0407	0.873943	8.44132	0.320409	3.10213	0.487203	4.68293	0.735467	7.11729	0.931812	8.99918
0.344849	3.29926	0.184421	1.722	0.345413	3.29018	0.5128	4.92552	0.6246	5.99715	0.874571	8.37205	0.322495	3.09442	0.488348	4.65228	0.736119	7.05995	0.932381	8.92437
0.345994	3.28097	0.18644	1.72583	0.346563	3.2721	0.513859	4.89192	0.625699	5.95443	0.875205	8.30405	0.324582	3.08685	0.489501	4.62224	0.736777	7.00368	0.932954	8.85093
0.34715	3.2631	0.188459	1.72961	0.347725	3.25444	0.514925	4.85897	0.626805	5.91254	0.875843	8.23729	0.32667	3.07942	0.490662	4.59279	0.73744	6.94844	0.933532	8.77881
0.348317	3.24564	0.190479	1.73333	0.348897	3.23718	0.515998	4.82666	0.627919	5.87144	0.876487	8.17174	0.32876	3.07214	0.49183	4.56393	0.738109	6.89422	0.934115	8.708
0.349495	3.22859	0.1925	1.73699	0.35008	3.22032	0.517079	4.79498	0.62904	5.83112	0.877136	8.10737	0.33085	3.06499	0.493007	4.53563	0.738783	6.84099	0.934702	8.63845
0.350684	3.21193	0.194522	1.7406	0.351275	3.20385	0.518166	4.76391	0.630168	5.79156	0.877791	8.04414	0.332942	3.05797	0.494191	4.50788	0.739463	6.78871	0.935294	8.57012
0.351884	3.19565	0.196544	1.74415	0.352481	3.18776	0.519261	4.73342	0.631303	5.75274	0.87845	7.98204	0.335034	3.05108	0.495382	4.48067	0.740148	6.73737	0.935891	8.503
0.353096	3.17975	0.198567	1.74765	0.353698	3.17204	0.520362	4.70352	0.632446	5.71463	0.879115	7.92102	0.337127	3.04431	0.496582	4.45399	0.740839	6.68695	0.936493	8.43705
0.354319	3.16422	0.200591	1.7511	0.354927	3.15669	0.521471	4.67417	0.633595	5.67722	0.879785	7.86106	0.339222	3.03766	0.497788	4.42781	0.741534	6.63741	0.9371	8.37224
0.355555	3.14905	0.202615	1.75451	0.356168	3.1417	0.522586	4.64537	0.634751	5.64049	0.880459	7.80214	0.341317	3.03114	0.499003	4.40213	0.742235	6.58874	0.937711	8.30854
0.356802	3.13423	0.204639	1.75786	0.357421	3.12705	0.523708	4.61711	0.635915	5.60443	0.881139	7.74423	0.343413	3.02472	0.500225	4.37693	0.742942	6.54091	0.938327	8.24593
0.358061	3.11976	0.206665	1.76116	0.358687	3.11275	0.524837	4.58936	0.637085	5.56901	0.881825	7.6873	0.34551	3.01842	0.501454	4.35221	0.743654	6.49391	0.938947	8.18437
0.359332	3.10563	0.208691	1.76441	0.359964	3.09878	0.525972	4.56213	0.638262	5.53423	0.882515	7.63134	0.347607	3.01223	0.50269	4.32794	0.744371	6.44771	0.939573	8.12385
0.360616	3.09183	0.210717	1.76762	0.361255	3.08514	0.527115	4.53538	0.639446	5.50006	0.88321	7.57631	0.349705	3.00614	0.503934	4.30413	0.745093	6.4023	0.940203	8.06433
0.361913	3.07836	0.212744	1.77078	0.362558	3.07183	0.528264	4.50912	0.640636	5.46649	0.88391	7.5222	0.351804	3.00016	0.505186	4.28075	0.745821	6.35766	0.940837	8.0058
0.363223	3.06521	0.214771	1.7739	0.363874	3.05884	0.529419	4.48333	0.641833	5.43351	0.884616	7.46898	0.353904	2.99427	0.506444	4.2578	0.746554	6.31376	0.941477	7.94822
0.364546	3.05237	0.216799	1.77697	0.365204	3.04615	0.530582	4.458	0.643037	5.4011	0.885327	7.41664	0.356004	2.98848	0.50771	4.23526	0.747292	6.2706	0.942121	7.89159
0.365883	3.03985	0.218827	1.78	0.366547	3.03378	0.53175	4.43312	0.644248	5.36925	0.886042	7.36515	0.358105	2.98279	0.508983	4.21314	0.748036	6.22814	0.94277	7.83587
0.367233	3.02763	0.220855	1.78299	0.367904	3.02172	0.532926	4.40867	0.645465	5.33795	0.886763	7.31449	0.360206	2.97719	0.510263	4.19141	0.748785	6.18639	0.943423	7.78104
0.368597	3.01572	0.222884	1.78594	0.369276	3.00995	0.534107	4.38465	0.646688	5.30717	0.887488	7.26464	0.362308	2.97168	0.51155	4.17007	0.749539	6.14532	0.944081	7.72709
0.369976	3.0041	0.224913	1.78884	0.370661	2.99847	0.535295	4.36105	0.647918	5.27692	0.888219	7.21559	0.364411	2.96625	0.512844	4.1491	0.750298	6.10491	0.944743	7.674
0.371369	2.99277	0.226943	1.79171	0.372062	2.98729	0.53649	4.33785	0.649155	5.24717	0.888955	7.16732	0.366513	2.96091	0.514145	4.12851	0.751062	6.06515	0.945411	7.62173
0.372777	2.98173	0.228973	1.79454	0.373478	2.97639	0.53769	4.31505	0.650397	5.21792	0.889695	7.11981	0.368617	2.95566	0.515453	4.10828	0.751832	6.02603	0.946082	7.57029
0.374201	2.97097	0.231003	1.79732	0.374909	2.96577	0.538897	4.29264	0.651646	5.18916	0.890441	7.07304	0.37072	2.95048	0.516768	4.0884	0.752607	5.98752	0.946759	7.51964
0.37564	2.9605	0.233034	1.80007	0.376355	2.95543	0.54011	4.27061	0.652902	5.16086	0.891192	7.027	0.372824	2.94539	0.51809	4.06887	0.753387	5.94963	0.94744	7.46977
0.377094	2.9503	0.235065	1.80279	0.377818	2.94537	0.54133	4.24895	0.654163	5.13303	0.891947	6.98167	0.374929	2.94037	0.519419	4.04967	0.754173	5.91233	0.948125	7.42067
0.378565	2.94037	0.237096	1.80546	0.379297	2.93558	0.542555	4.22765	0.655431	5.10566	0.892708	6.93703	0.377034	2.93543	0.520754	4.0308	0.754963	5.87561	0.948816	7.37231
0.380053	2.93072	0.239127	1.80811	0.380793	2.92605	0.543787	4.20671	0.656705	5.07872	0.893473	6.89307	0.379139	2.93056	0.522097	4.01226	0.755759	5.83946	0.94951	7.32468
0.381557	2.92133	0.241159	1.81071	0.382305	2.91679	0.545024	4.18611	0.657985	5.05222	0.894244	6.84978	0.381244	2.92576	0.523446	3.99403	0.756559	5.80387	0.95021	7.27777
0.383078	2.9122	0.243191	1.81328	0.383835	2.9078	0.546268	4.16586	0.659271	5.02613	0.895019	6.80714	0.383349	2.92104	0.524802	3.97611	0.757365	5.76882	0.950913	7.23156
0.384617	2.90334	0.245223	1.81582	0.385383	2.89906	0.547518	4.14593	0.660563	5.00047	0.895799	6.76513	0.385455	2.91638	0.526164	3.95849	0.758176	5.7343	0.951622	7.18603
0.386173	2.89473	0.247255	1.81832	0.386948	2.89057	0.548773	4.12632	0.661861	4.9752	0.896584	6.72375	0.387561	2.91179	0.527533	3.94116	0.758992	5.7003	0.952335	7.14117
0.387748	2.88637	0.249288	1.82079	0.388532	2.88234	0.550035	4.10704	0.663165	4.95033	0.897374	6.68298	0.389667	2.90726	0.528909	3.92413	0.759814	5.66682	0.953052	7.09697
0.389341	2.87827	0.25132	1.82323	0.390134	2.87436	0.551302	4.08806	0.664475	4.92585	0.898169	6.64281	0.391773	2.90279	0.530291	3.90737	0.76064	5.63383	0.953774	7.05341
0.390953	2.87041	0.253353	1.82564	0.391755	2.86662	0.552575	4.06938	0.665791	4.90175	0.898969	6.60323	0.39388	2.89839	0.53168	3.89089	0.761471	5.60134	0.9545	7.01048
0.392583	2.8628	0.255386	1.82802	0.393394	2.85913	0.553854	4.05101	0.667112	4.87802	0.899773	6.56421	0.395986	2.89405	0.533075	3.87469	0.762308	5.56932	0.955231	6.96816
0.394232	2.85543	0.257419	1.83036	0.395053	2.85188	0.555139	4.03292	0.66844	4.85465	0.900583	6.52576	0.398093	2.88977	0.534477	3.85874	0.763149	5.53778	0.955967	6.92645
0.395901	2.84829	0.259453	1.83268	0.396732	2.84486	0.556429	4.01512	0.669773	4.83164	0.901397	6.48786	0.400199	2.88555	0.535885	3.84306	0.763996	5.50669	0.956706	6.88533
0.397589	2.84139	0.261486	1.83497	0.398429	2.83807	0.557725	3.99759	0.671111	4.80897	0.902216	6.4505	0.402306	2.88138	0.537299	3.82763	0.764848	5.47605	0.957451	6.84479
0.399297	2.83472	0.26352	1.83723	0.400147	2.83151	0.559026	3.98034	0.672455	4.78665	0.90304	6.41367	0.404412	2.87727	0.53872	3.81244	0.765704	5.44586	0.958199	6.80482
0.401025	2.82828	0.265553	1.83946	0.401884	2.82518	0.560333	3.96335	0.673805	4.76466	0.903869	6.37735	0.406519	2.87321	0.540147	3.7975	0.766566	5.4161	0.958953	6.7654
0.402772	2.82206	0.267587	1.84166	0.403641	2.81907	0.561646	3.94663	0.675161	4.743	0.904702	6.34155	0.408626	2.8692	0.54158	3.7828	0.767432	5.38676	0.95971	6.72653
0.404539	2.81606	0.269621	1.84383	0.405418	2.81318	0.562964	3.93016	0.676521	4.72165	0.90554	6.30624	0.410732	2.86525	0.54302	3.76833	0.768304	5.35784	0.960472	6.6882
0.406326	2.81027	0.271654	1.84598	0.407215	2.80749	0.564287	3.91394	0.677888	4.70062	0.906383	6.27142	0.412838	2.86135	0.544466	3.75409	0.76918	5.32933	0.961239	6.65039
0.408133	2.80469	0.273688	1.8481	0.409032	2.80202	0.565616	3.89797	0.679259	4.6799	0.907231	6.23707	0.414945	2.85749	0.545918	3.74008	0.770062	5.30121	0.96201	6.6131
0.40996	2.79932	0.275722	1.85019	0.410868	2.79675	0.566951	3.88224	0.680636	4.65947	0.908083	6.2032	0.417051	2.85368	0.547376	3.72628	0.770948	5.27349	0.962785	6.57631
0.411806	2.79415	0.277756	1.85226	0.412724	2.79167	0.56829	3.86674	0.682019	4.63935	0.908941	6.16979	0.419157	2.84993	0.54884	3.7127	0.77184	5.24615	0.963565	6.54001
0.413671	2.78918	0.27979	1.8543	0.414599	2.78679	0.569635	3.85148	0.683406	4.61951	0.909803	6.13683	0.421262	2.84621	0.55031	3.69933	0.772736	5.2192	0.964349	6.5042
0.415556	2.78439	0.281824	1.85632	0.416493	2.7821	0.570985	3.83644	0.684799	4.59996	0.910669	6.10431	0.423368	2.84255	0.551786	3.68617	0.773637	5.19261	0.965137	6.46887
0.417459	2.7798	0.283858	1.85832	0.418406	2.77759	0.572341	3.82162	0.686198	4.58068	0.91154	6.07223	0.425473	2.83892	0.553268	3.67321	0.774544	5.16638	0.96593	6.434
0.419382	2.77538	0.285892	1.86029	0.420337	2.77326	0.573701	3.80702	0.687601	4.56168	0.912416	6.04057	0.427578	2.83534	0.554757	3.66045	0.775455	5.14051	0.966727	6.3996
0.421322	2.77113	0.287926	1.86223	0.422287	2.7691	0.575067	3.79264	0.689009	4.54294	0.913297	6.00934	0.429683	2.8318	0.556251	3.64788	0.77637	5.11499	0.967528	6.36564
0.423281	2.76706	0.289961	1.86415	0.424254	2.76511	0.576438	3.77846	0.690423	4.52447	0.914182	5.97851	0.431788	2.82831	0.557751	3.6355	0.777291	5.08981	0.968334	6.33213
0.425257	2.76315	0.291995	1.86605	0.426239	2.76128	0.577814	3.76449	0.691841	4.50625	0.915072	5.94809	0.433892	2.82485	0.559257	3.62331	0.778217	5.06497	0.969144	6.29905
0.427251	2.7594	0.294029	1.86793	0.428241	2.7576	0.579194	3.75072	0.693265	4.48828	0.915967	5.91806	0.435996	2.82143	0.560768	3.61131	0.779147	5.04047	0.969958	6.26639
0.429261	2.7558	0.296063	1.86978	0.430259	2.75408	0.58058	3.73715	0.694693	4.47057	0.916866	5.88843	0.438099	2.81806	0.562286	3.59949	0.780083	5.01628	0.970777	6.23416
0.431288	2.75235	0.298097	1.87162	0.432294	2.7507	0.581971	3.72377	0.696127	4.45309	0.91777	5.85917	0.440203	2.81472	0.563809	3.58784	0.781023	4.99242	0.9716	6.20233
0.43333	2.74904	0.300131	1.87343	0.434344	2.74746	0.583367	3.71058	0.697565	4.43585	0.918678	5.83029	0.442306	2.81141	0.565338	3.57636	0.781968	4.96886	0.972427	6.17091
0.435388	2.74586	0.302165	1.87522	0.436409	2.74435	0.584768	3.69757	0.699009	4.41885	0.919591	5.80178	0.444408	2.80815	0.566873	3.56506	0.782917	4.94562	0.973258	6.13988
0.437461	2.74282	0.304198	1.87699	0.438489	2.74136	0.586173	3.68475	0.700457	4.40208	0.920509	5.77363	0.44651	2.80492	0.568413	3.55392	0.783872	4.92268	0.974094	6.10925
0.439549	2.7399	0.306232	1.87874	0.440584	2.73851	0.587583	3.67211	0.70191	4.38553	0.921431	5.74584	0.448612	2.80172	0.569959	3.54295	0.784831	4.90003	0.974934	6.07899
0.44165	2.7371	0.308266	1.88047	0.442692	2.73577	0.588999	3.65965	0.703367	4.3692	0.922358	5.71839	0.450713	2.79856	0.571511	3.53214	0.785795	4.87768	0.975778	6.04911
0.443765	2.73442	0.3103	1.88217	0.444813	2.73314	0.590418	3.64735	0.704829	4.35309	0.923289	5.69129	0.452814	2.79543	0.573068	3.52149	0.786764	4.85561	0.976626	6.01961
0.445892	2.73185	0.312333	1.88386	0.446947	2.73062	0.591843	3.63523	0.706296	4.3372	0.924225	5.66453	0.454914	2.79234	0.574631	3.51099	0.787737	4.83382	0.977479	5.99046
0.448032	2.72938	0.314367	1.88553	0.449093	2.7282	0.593272	3.62328	0.707768	4.32151	0.925165	5.6381	0.457014	2.78927	0.576199	3.50064	0.788716	4.81231	0.978336	5.96167
0.450184	2.72701	0.3164	1.88718	0.45125	2.72588	0.594706	3.61148	0.709244	4.30603	0.92611	5.61199	0.459113	2.78624	0.577773	3.49045	0.789698	4.79107	0.979196	5.93323
0.452348	2.72474	0.318434	1.88881	0.45342	2.72365	0.596145	3.59985	0.710725	4.29075	0.927059	5.5862	0.461212	2.78324	0.579353	3.4804	0.790686	4.7701	0.980062	5.90514
0.454523	2.72256	0.320467	1.89043	0.455599	2.72152	0.597588	3.58838	0.71221	4.27566	0.928013	5.56073	0.46331	2.78027	0.580937	3.4705	0.791678	4.74939	0.980931	5.87738
0.456708	2.72047	0.3225	1.89202	0.45779	2.71946	0.599035	3.57706	0.7137	4.26077	0.928971	5.53557	0.465407	2.77733	0.582528	3.46073	0.792675	4.72894	0.981804	5.84996
0.458903	2.71846	0.324533	1.8936	0.45999	2.71749	0.600488	3.56589	0.715194	4.24608	0.929933	5.51071	0.467504	2.77442	0.584123	3.45111	0.793677	4.70874	0.982682	5.82286
0.461108	2.71653	0.326566	1.89516	0.4622	2.7156	0.601944	3.55487	0.716693	4.23157	0.930901	5.48615	0.469601	2.77154	0.585724	3.44162	0.794683	4.6888	0.983564	5.79609
0.463323	2.71467	0.328599	1.8967	0.464419	2.71378	0.603405	3.544	0.718196	4.21724	0.931872	5.46189	0.471697	2.76868	0.58733	3.43227	0.795694	4.6691	0.984449	5.76963
0.465546	2.71289	0.330632	1.89823	0.466646	2.71203	0.604871	3.53327	0.719703	4.2031	0.932848	5.43791	0.473792	2.76585	0.588942	3.42305	0.79671	4.64963	0.985339	5.74348
0.467778	2.71117	0.332664	1.89973	0.468882	2.71035	0.606341	3.52269	0.721215	4.18914	0.933828	5.41422	0.475886	2.76305	0.590559	3.41396	0.79773	4.63041	0.986233	5.71764
0.470018	2.70953	0.334697	1.90123	0.471126	2.70874	0.607815	3.51224	0.722731	4.17535	0.934813	5.39081	0.47798	2.76028	0.592181	3.405	0.798755	4.61142	0.987132	5.6921
0.472266	2.70794	0.336729	1.9027	0.473378	2.70718	0.609294	3.50193	0.724251	4.16173	0.935802	5.36768	0.480073	2.75753	0.593808	3.39616	0.799784	4.59266	0.988034	5.66686
0.474521	2.70641	0.338761	1.90416	0.475636	2.70568	0.610777	3.49176	0.725776	4.14828	0.936796	5.34481	0.482166	2.75481	0.595441	3.38745	0.800818	4.57412	0.98894	5.64191
0.476783	2.70494	0.340794	1.9056	0.477902	2.70424	0.612264	3.48171	0.727304	4.135	0.937794	5.32221	0.484258	2.75211	0.597078	3.37886	0.801857	4.55581	0.98985	5.61725
0.479052	2.70352	0.342826	1.90703	0.480174	2.70284	0.613755	3.4718	0.728837	4.12188	0.938796	5.29988	0.486349	2.74943	0.598721	3.37039	0.8029	4.53772	0.990765	5.59286
0.481328	2.70216	0.344857	1.90844	0.482453	2.7015	0.615251	3.46201	0.730374	4.10892	0.939803	5.2778	0.488439	2.74678	0.600369	3.36203	0.803947	4.51984	0.991683	5.56876
0.48361	2.70084	0.346889	1.90984	0.484738	2.70021	0.61675	3.45235	0.731915	4.09612	0.940814	5.25598	0.490529	2.74416	0.602022	3.35379	0.805	4.50217	0.992606	5.54493
0.485897	2.69957	0.348921	1.91122	0.487028	2.69896	0.618254	3.44282	0.73346	4.08347	0.941829	5.2344	0.492618	2.74155	0.60368	3.34566	0.806056	4.48471	0.993532	5.52137
0.488191	2.69835	0.350952	1.91258	0.489324	2.69776	0.619762	3.4334	0.735009	4.07098	0.942849	5.21308	0.494706	2.73897	0.605343	3.33764	0.807117	4.46746	0.994463	5.49807
0.490489	2.69716	0.352983	1.91393	0.491626	2.69659	0.621274	3.42411	0.736562	4.05864	0.943872	5.19199	0.496793	2.73641	0.607012	3.32973	0.808183	4.45041	0.995397	5.47504
0.492793	2.69602	0.355014	1.91527	0.493932	2.69547	0.622791	3.41493	0.738119	4.04644	0.9449	5.17114	0.498879	2.73388	0.608685	3.32193	0.809253	4.43355	0.996336	5.45226
0.495102	2.69491	0.357045	1.91659	0.496243	2.69438	0.624311	3.40586	0.73968	4.03439	0.945933	5.15053	0.500965	2.73136	0.610363	3.31424	0.810328	4.4169	0.997278	5.42973
0.497416	2.69384	0.359076	1.9179	0.498559	2.69333	0.625835	3.39691	0.741245	4.02249	0.94697	5.13015	0.50305	2.72886	0.612046	3.30665	0.811407	4.40043	0.998225	5.40745
0.499734	2.69281	0.361106	1.9192	0.500879	2.69231	0.627363	3.38807	0.742814	4.01072	0.948011	5.11	0.505134	2.72639	0.613734	3.29916	0.812491	4.38415	0.999175	5.38542
0.502056	2.69181	0.363137	1.92048	0.503203	2.69133	0.628895	3.37934	0.744386	3.99909	0.949056	5.09007	0.507217	2.72394	0.615426	3.29178	0.813579	4.36807	1.00013	5.36363
0.504382	2.69084	0.365167	1.92175	0.505532	2.69037	0.630431	3.37072	0.745962	3.9876	0.950105	5.07036	0.5093	2.7215	0.617124	3.28449	0.814671	4.35216		
0.506713	2.6899	0.367197	1.923	0.507864	2.68945	0.631971	3.36221	0.747543	3.97625	0.951159	5.05087	0.511381	2.71909	0.618826	3.2773	0.815768	4.33644		
0.509046	2.68899	0.369227	1.92424	0.510199	2.68855	0.633515	3.3538	0.749126	3.96502	0.952217	5.03159	0.513462	2.71669	0.620533	3.2702	0.816869	4.32089		
0.511384	2.68811	0.371256	1.92547	0.512539	2.68769	0.635063	3.34549	0.750714	3.95393	0.953279	5.01253	0.515541	2.71432	0.622245	3.2632	0.817975	4.30552		
0.513725	2.68726	0.373286	1.92669	0.514881	2.68684	0.636614	3.33728	0.752305	3.94296	0.954345	4.99367	0.51762	2.71196	0.623962	3.25629	0.819085	4.29032		
0.516069	2.68643	0.375315	1.92789	0.517227	2.68602	0.638169	3.32917	0.7539	3.93211	0.955415	4.97502	0.519698	2.70962	0.625683	3.24948	0.820199	4.27529		
0.518417	2.68562	0.377344	1.92908	0.519576	2.68523	0.639728	3.32116	0.755498	3.9214	0.95649	4.95657	0.521775	2.70729	0.62741	3.24275	0.821318	4.26044		
0.520767	2.68484	0.379373	1.93026	0.521928	2.68446	0.641291	3.31325	0.7571	3.9108	0.957568	4.93831	0.523851	2.70499	0.62914	3.23611	0.822441	4.24574		
0.52312	2.68408	0.381402	1.93142	0.524282	2.68371	0.642857	3.30543	0.758706	3.90032	0.958651	4.92026	0.525926	2.7027	0.630876	3.22956	0.823568	4.23121		
0.525476	2.68334	0.38343	1.93258	0.526639	2.68298	0.644428	3.29771	0.760315	3.88996	0.959738	4.90239	0.528	2.70043	0.632616	3.2231	0.8247	4.21684		
0.527835	2.68262	0.385458	1.93372	0.528999	2.68227	0.646001	3.29007	0.761928	3.87972	0.960829	4.88472	0.530074	2.69818	0.63436	3.21672	0.825836	4.20263		
0.530196	2.68192	0.387487	1.93485	0.531361	2.68158	0.647579	3.28253	0.763544	3.86959	0.961924	4.86723	0.532146	2.69594	0.63611	3.21042	0.826977	4.18857		
0.532559	2.68124	0.389514	1.93597	0.533726	2.68091	0.64916	3.27508	0.765163	3.85957	0.963024	4.84993	0.534217	2.69372	0.637863	3.2042	0.828121	4.17467		
0.534925	2.68057	0.391542	1.93708	0.536093	2.68025	0.650744	3.26771	0.766786	3.84967	0.964127	4.83281	0.536287	2.69151	0.639622	3.19807	0.82927	4.16092		
0.537292	2.67993	0.39357	1.93818	0.538461	2.67961	0.652333	3.26044	0.768412	3.83987	0.965234	4.81587	0.538357	2.68932	0.641384	3.19201	0.830423	4.14732		
0.539662	2.67929	0.395597	1.93926	0.540832	2.67899	0.653924	3.25324	0.770042	3.83018	0.966346	4.79911	0.540425	2.68715	0.643151	3.18603	0.831581	4.13386		
0.542034	2.67868	0.397624	1.94034	0.543205	2.67838	0.65552	3.24613	0.771675	3.8206	0.967461	4.78252	0.542492	2.68499	0.644923	3.18013	0.832742	4.12055		
0.544408	2.67808	0.399651	1.9414	0.54558	2.67779	0.657118	3.2391	0.773311	3.81112	0.968581	4.7661	0.544558	2.68284	0.646699	3.17431	0.833908	4.10739		
0.546784	2.67749	0.401677	1.94245	0.547956	2.67721	0.658721	3.23216	0.774951	3.80174	0.969704	4.74985	0.546624	2.68071	0.64848	3.16856	0.835078	4.09436		
0.549161	2.67692	0.403704	1.9435	0.550335	2.67665	0.660326	3.22529	0.776594	3.79247	0.970832	4.73377	0.548688	2.6786	0.650264	3.16288	0.836253	4.08147		
0.55154	2.67636	0.40573	1.94453	0.552714	2.67609	0.661935	3.2185	0.77824	3.78329	0.971963	4.71786	0.550751	2.6765	0.652053	3.15727	0.837431	4.06872		
0.553921	2.67582	0.407756	1.94555	0.555096	2.67555	0.663548	3.2118	0.779889	3.77422	0.973099	4.7021	0.552813	2.67441	0.653847	3.15174	0.838614	4.05611		
0.556303	2.67529	0.409782	1.94656	0.557478	2.67503	0.665164	3.20516	0.781542	3.76524	0.974238	4.68651	0.554874	2.67233	0.655644	3.14627	0.839801	4.04363		
0.558686	2.67476	0.411807	1.94757	0.559863	2.67451	0.666783	3.19861	0.783197	3.75635	0.975382	4.67108	0.556934	2.67027	0.657446	3.14088	0.840992	4.03128		
0.561071	2.67425	0.413832	1.94856	0.562248	2.674	0.668406	3.19212	0.784856	3.74756	0.976529	4.6558	0.558993	2.66823	0.659253	3.13555	0.842187	4.01906		
0.563457	2.67375	0.415857	1.94954	0.564635	2.67351	0.670032	3.18571	0.786518	3.73886	0.977681	4.64067	0.561051	2.66619	0.661063	3.13029	0.843387	4.00697		
0.565845	2.67326	0.417882	1.95051	0.567023	2.67303	0.671661	3.17937	0.788182	3.73026	0.978836	4.6257	0.563108	2.66417	0.662877	3.12509	0.84459	3.995		
0.568234	2.67278	0.419907	1.95148	0.569413	2.67255	0.673293	3.17311	0.78985	3.72174	0.979995	4.61088	0.565163	2.66216	0.664696	3.11996	0.845798	3.98316		
0.570623	2.67231	0.421931	1.95243	0.571803	2.67209	0.674929	3.16691	0.791521	3.71331	0.981159	4.5962	0.567218	2.66017	0.666519	3.1149	0.847009	3.97144		
0.573014	2.67185	0.423955	1.95338	0.574194	2.67163	0.676568	3.16078	0.793195	3.70497	0.982326	4.58167	0.569272	2.65818	0.668346	3.10989	0.848225	3.95984		
0.575406	2.6714	0.425979	1.95431	0.576587	2.67118	0.678211	3.15473	0.794872	3.69671	0.983497	4.56729	0.571324	2.65621	0.670177	3.10495	0.849445	3.94836		
0.577799	2.67096	0.428003	1.95524	0.57898	2.67074	0.679856	3.14873	0.796552	3.68854	0.984672	4.55304	0.573376	2.65425	0.672012	3.10007	0.850669	3.937		
0.580193	2.67052	0.430026	1.95616	0.581375	2.67031	0.681505	3.14281	0.798234	3.68046	0.98585	4.53894	0.575426	2.6523	0.673851	3.09525	0.851897	3.92576		
0.582588	2.6701	0.43205	1.95706	0.58377	2.66989	0.683157	3.13695	0.79992	3.67245	0.987033	4.52497	0.577475	2.65037	0.675694	3.09049	0.853129	3.91463		
0.584984	2.66967	0.434073	1.95796	0.586166	2.66947	0.684812	3.13115	0.801608	3.66453	0.988219	4.51115	0.579523	2.64844	0.677541	3.08579	0.854365	3.90361		
0.58738	2.66926	0.436095	1.95886	0.588563	2.66906	0.68647	3.12542	0.8033	3.65669	0.98941	4.49745	0.58157	2.64653	0.679392	3.08115	0.855606	3.89271		
0.589778	2.66886	0.438118	1.95974	0.590961	2.66866	0.688131	3.11975	0.804994	3.64892	0.990604	4.48389	0.583616	2.64462	0.681247	3.07656	0.85685	3.88191		
0.592176	2.66846	0.44014	1.96061	0.593359	2.66826	0.689795	3.11414	0.806691	3.64124	0.991802	4.47046	0.585661	2.64273	0.683105	3.07203	0.858098	3.87123		
0.594574	2.66806	0.442162	1.96148	0.595758	2.66787	0.691463	3.10859	0.80839	3.63363	0.993003	4.45716	0.587705	2.64085	0.684968	3.06755	0.85935	3.86065		
0.596973	2.66768	0.444184	1.96234	0.598157	2.66749	0.693134	3.10311	0.810093	3.62609	0.994209	4.44398	0.589747	2.63898	0.686834	3.06313	0.860606	3.85018		
0.599373	2.6673	0.446205	1.96319	0.600558	2.66711	0.694807	3.09768	0.811798	3.61864	0.995418	4.43094	0.591789	2.63712	0.688705	3.05876	0.861867	3.83981		
0.601774	2.66692	0.448226	1.96403	0.602958	2.66674	0.696484	3.09231	0.813506	3.61125	0.996631	4.41801	0.593829	2.63527	0.690579	3.05444	0.863131	3.82955		
0.604175	2.66655	0.450247	1.96486	0.60536	2.66637	0.698164	3.087	0.815216	3.60394	0.997848	4.40521	0.595869	2.63344	0.692456	3.05018	0.864399	3.81938		
0.606576	2.66619	0.452268	1.96569	0.607761	2.66601	0.699846	3.08174	0.81693	3.5967	0.999069	4.39253	0.597907	2.63161	0.694338	3.04596	0.865671	3.80932		
0.608978	2.66583	0.454289	1.96651	0.610164	2.66565	0.701532	3.07654	0.818645	3.58953	1.00029	4.37998	0.599944	2.62979	0.696223	3.0418	0.866947	3.79936		
0.611381	2.66547	0.456309	1.96732	0.612566	2.6653	0.703221	3.0714	0.820364	3.58243			0.60198	2.62798	0.698112	3.03769	0.868227	3.7895		
0.613783	2.66512	0.458329	1.96812	0.614969	2.66495	0.704912	3.06631	0.822085	3.5754			0.604015	2.62618	0.700004	3.03363	0.869511	3.77973		
0.616187	2.66478	0.460349	1.96892	0.617372	2.66461	0.706607	3.06127	0.823808	3.56843			0.606049	2.6244	0.7019	3.02961	0.870798	3.77006		
0.61859	2.66444	0.462368	1.96971	0.619776	2.66427	0.708305	3.05629	0.825534	3.56154			0.608081	2.62262	0.7038	3.02564	0.87209	3.76048		
0.620994	2.6641	0.464388	1.97049	0.62218	2.66393	0.710005	3.05136	0.827263	3.5547			0.610113	2.62085	0.705703	3.02172	0.873386	3.751		
0.623398	2.66377	0.466407	1.97126	0.624584	2.6636	0.711709	3.04648	0.828994	3.54794			0.612143	2.61909	0.70761	3.01785	0.874685	3.74161		
0.625802	2.66344	0.468425	1.97203	0.626989	2.66327	0.713415	3.04166	0.830728	3.54124			0.614173	2.61734	0.70952	3.01402	0.875988	3.73231		
0.628207	2.66311	0.470444	1.97279	0.629393	2.66295	0.715124	3.03688	0.832464	3.5346			0.616201	2.6156	0.711434	3.01023	0.877296	3.7231		
0.630612	2.66279	0.472462	1.97354	0.631798	2.66263	0.716836	3.03216	0.834202	3.52803			0.618228	2.61386	0.713351	3.00649	0.878607	3.71398		
0.633016	2.66247	0.47448	1.97429	0.634203	2.66231	0.718551	3.02748	0.835943	3.52151			0.620254	2.61214	0.715272	3.0028	0.879921	3.70494		
0.635421	2.66215	0.476498	1.97503	0.636608	2.66199	0.720269	3.02285	0.837687	3.51506			0.622279	2.61043	0.717196	2.99914	0.88124	3.696		
0.637827	2.66184	0.478515	1.97576	0.639013	2.66168	0.72199	3.01827	0.839432	3.50867			0.624303	2.60872	0.719123	2.99553	0.882563	3.68714		
0.640232	2.66153	0.480533	1.97649	0.641419	2.66137	0.723714	3.01374	0.84118	3.50234			0.626326	2.60702	0.721054	2.99196	0.883889	3.67836		
0.642637	2.66122	0.482549	1.9772	0.643824	2.66107	0.72544	3.00925	0.842931	3.49606			0.628348	2.60533	0.722988	2.98843	0.885219	3.66967		
0.645042	2.66091	0.484566	1.97792	0.646229	2.66076	0.727169	3.00481	0.844683	3.48985			0.630369	2.60366	0.724925	2.98494	0.886553	3.66106		
0.647448	2.66061	0.486583	1.97862	0.648635	2.66046	0.728901	3.00042	0.846438	3.48369			0.632388	2.60198	0.726866	2.9815	0.887891	3.65253		
0.649853	2.66031	0.488599	1.97932	0.65104	2.66016	0.730636	2.99607	0.848196	3.47758			0.634407	2.60032	0.728809	2.97809	0.889232	3.64408		
0.652258	2.66001	0.490615	1.98002	0.653445	2.65986	0.732374	2.99176	0.849955	3.47154			0.636425	2.59867	0.730756	2.97472	0.890577	3.63571		
0.654663	2.65971	0.49263	1.9807	0.65585	2.65956	0.734115	2.9875	0.851717	3.46554			0.638441	2.59702	0.732706	2.97139	0.891926	3.62742		
0.657069	2.65941	0.494646	1.98138	0.658255	2.65927	0.735858	2.98329	0.853481	3.45961			0.640457	2.59538	0.734659	2.96809	0.893279	3.61921		
0.659473	2.65912	0.496661	1.98206	0.66066	2.65898	0.737604	2.97911	0.855247	3.45372			0.642471	2.59375	0.736616	2.96484	0.894635	3.61107		
0.661878	2.65883	0.498676	1.98273	0.663065	2.65869	0.739353	2.97498	0.857015	3.44789			0.644484	2.59213	0.738575	2.96162	0.895996	3.60301		
0.664283	2.65854	0.500691	1.98339	0.665469	2.6584	0.741105	2.97089	0.858786	3.44211			0.646497	2.59052	0.740537	2.95843	0.89736	3.59503		
0.666687	2.65825	0.502705	1.98405	0.667874	2.65811	0.742859	2.96685	0.860558	3.43638			0.648508	2.58891	0.742503	2.95529	0.898727	3.58712		
0.669092	2.65796	0.504719	1.9847	0.670278	2.65782	0.744616	2.96284	0.862333	3.43071			0.650519	2.58731	0.744471	2.95217	0.900098	3.57928		
0.671495	2.65767	0.506733	1.98534	0.672682	2.65753	0.746376	2.95887	0.86411	3.42508			0.652528	2.58572	0.746443	2.94909	0.901473	3.57152		
0.673899	2.65739	0.508746	1.98598	0.675085	2.65725	0.748139	2.95495	0.865889	3.4195			0.654536	2.58414	0.748417	2.94605	0.902852	3.56382		
0.676303	2.6571	0.51076	1.98662	0.677488	2.65696	0.749905	2.95106	0.86767	3.41397			0.656544	2.58257	0.750394	2.94304	0.904234	3.5562		
0.678706	2.65682	0.512773	1.98725	0.679891	2.65668	0.751673	2.94721	0.869452	3.40849			0.65855	2.581	0.752374	2.94006	0.90562	3.54865		
0.681108	2.65654	0.514786	1.98787	0.682294	2.6564	0.753444	2.9434	0.871237	3.40306			0.660555	2.57944	0.754357	2.93712	0.90701	3.54117		
0.683511	2.65625	0.516798	1.98849	0.684696	2.65612	0.755218	2.93963	0.873024	3.39768			0.66256	2.57789	0.756343	2.9342	0.908403	3.53375		
0.685913	2.65597	0.51881	1.9891	0.687098	2.65583	0.756994	2.9359	0.874813	3.39234			0.664563	2.57634	0.758331	2.93132	0.9098	3.5264		
0.688314	2.65569	0.520822	1.9897	0.689499	2.65555	0.758774	2.93221	0.876604	3.38705			0.666565	2.57481	0.760322	2.92847	0.911201	3.51913		
0.690715	2.65541	0.522834	1.99031	0.6919	2.65527	0.760556	2.92855	0.878397	3.3818			0.668567	2.57328	0.762316	2.92565	0.912605	3.51191		
0.693116	2.65513	0.524846	1.9909	0.6943	2.65499	0.762341	2.92493	0.880192	3.3766			0.670568	2.57176	0.764313	2.92287	0.914013	3.50476		
0.695516	2.65485	0.526857	1.99149	0.6967	2.65471	0.764128	2.92135	0.881989	3.37144			0.672567	2.57024	0.766312	2.92011	0.915424	3.49768		
0.697915	2.65457	0.528868	1.99208	0.699099	2.65443	0.765919	2.9178	0.883787	3.36633			0.674566	2.56873	0.768314	2.91738	0.916839	3.49066		
0.700314	2.65428	0.530879	1.99266	0.701498	2.65414	0.767712	2.91428	0.885588	3.36126			0.676564	2.56723	0.770319	2.91468	0.918258	3.4837		
0.702713	2.654	0.532889	1.99323	0.703896	2.65386	0.769508	2.91081	0.88739	3.35623			0.678561	2.56574	0.772326	2.91201	0.91968	3.47681		
0.705111	2.65372	0.534899	1.99381	0.706294	2.65358	0.771306	2.90736	0.889194	3.35124			0.680557	2.56425	0.774335	2.90936	0.921106	3.46998		
0.707508	2.65344	0.536909	1.99437	0.70869	2.6533	0.773108	2.90396	0.891	3.3463			0.682552	2.56277	0.776347	2.90675	0.922535	3.46321		
0.709904	2.65315	0.538919	1.99493	0.711086	2.65301	0.774912	2.90058	0.892808	3.3414			0.684546	2.5613	0.778362	2.90416	0.923968	3.4565		
0.7123	2.65287	0.540928	1.99549	0.713482	2.65273	0.776719	2.89724	0.894618	3.33654			0.686539	2.55983	0.780379	2.9016	0.925405	3.44985		
0.714695	2.65259	0.542937	1.99604	0.715877	2.65245	0.778529	2.89394	0.896429	3.33171			0.688532	2.55838	0.782399	2.89907	0.926845	3.44325		
0.717089	2.6523	0.544946	1.99659	0.718271	2.65216	0.780342	2.89066	0.898243	3.32693			0.690523	2.55692	0.78442	2.89656	0.928288	3.43672		
0.719483	2.65202	0.546954	1.99713	0.720664	2.65187	0.782157	2.88742	0.900057	3.32219			0.692514	2.55548	0.786445	2.89408	0.929735	3.43025		
0.721876	2.65173	0.548963	1.99766	0.723056	2.65159	0.783976	2.88422	0.901874	3.31749			0.694504	2.55404	0.788471	2.89162	0.931186	3.42383		
0.724268	2.65144	0.550971	1.9982	0.725447	2.6513	0.785797	2.88104	0.903692	3.31282			0.696493	2.55261	0.7905	2.88919	0.93264	3.41747		
0.726659	2.65115	0.552979	1.99872	0.727838	2.65101	0.787621	2.8779	0.905513	3.3082			0.698481	2.55119	0.792531	2.88678	0.934097	3.41116		
0.729049	2.65086	0.554986	1.99925	0.730228	2.65072	0.789448	2.87479	0.907334	3.30361			0.700469	2.54977	0.794565	2.8844	0.935559	3.40491		
0.731438	2.65057	0.556993	1.99977	0.732616	2.65042	0.791277	2.87171	0.909158	3.29905			0.702455	2.54836	0.7966	2.88204	0.937023	3.39872		
0.733826	2.65027	0.559	2.00028	0.735004	2.65013	0.79311	2.86866	0.910983	3.29454			0.704441	2.54695	0.798638	2.87971	0.938491	3.39258		
0.736213	2.64998	0.561007	2.00079	0.73739	2.64983	0.794946	2.86564	0.912809	3.29006			0.706426	2.54556	0.800678	2.8774	0.939963	3.38649		
0.738599	2.64968	0.563013	2.0013	0.739776	2.64953	0.796784	2.86265	0.914638	3.28561			0.70841	2.54416	0.80272	2.87511	0.941438	3.38046		
0.740984	2.64938	0.56502	2.0018	0.74216	2.64923	0.798625	2.8597	0.916468	3.28121			0.710394	2.54278	0.804764	2.87284	0.942916	3.37448		
0.743368	2.64908	0.567026	2.0023	0.744544	2.64893	0.80047	2.85677	0.918299	3.27683			0.712377	2.5414	0.806811	2.8706	0.944398	3.36855		
0.745751	2.64878	0.569031	2.00279	0.746926	2.64863	0.802317	2.85387	0.920132	3.27249			0.714359	2.54003	0.808859	2.86838	0.945883	3.36268		
0.748132	2.64847	0.571037	2.00328	0.749307	2.64832	0.804167	2.85101	0.921967	3.26819			0.71634	2.53866	0.810909	2.86618	0.947372	3.35685		
0.750512	2.64816	0.573042	2.00376	0.751686	2.64801	0.806021	2.84817	0.923803	3.26392			0.71832	2.5373	0.812961	2.864	0.948865	3.35107		
0.752891	2.64785	0.575047	2.00424	0.754065	2.6477	0.807877	2.84536	0.92564	3.25968			0.7203	2.53595	0.815016	2.86185	0.95036	3.34535		
0.755269	2.64754	0.577051	2.00472	0.756442	2.64738	0.809737	2.84258	0.92748	3.25548			0.722279	2.53461	0.817072	2.85971	0.951859	3.33967		
0.757646	2.64722	0.579056	2.00519	0.758818	2.64707	0.811599	2.83983	0.92932	3.2513			0.724258	2.53327	0.81913	2.85759	0.953362	3.33405		
0.760021	2.64691	0.58106	2.00566	0.761192	2.64675	0.813465	2.83711	0.931162	3.24716			0.726236	2.53193	0.82119	2.8555	0.954868	3.32847		
0.762394	2.64658	0.583063	2.00613	0.763565	2.64642	0.815334	2.83442	0.933006	3.24306			0.728213	2.53061	0.823251	2.85342	0.956377	3.32294		
0.764766	2.64626	0.585067	2.00659	0.765936	2.6461	0.817206	2.83175	0.934851	3.23898			0.730189	2.52928	0.825315	2.85137	0.95789	3.31745		
0.767137	2.64593	0.58707	2.00705	0.768306	2.64577	0.819081	2.82912	0.936698	3.23494			0.732165	2.52797	0.82738	2.84933	0.959406	3.31202		
0.769506	2.6456	0.589073	2.0075	0.770674	2.64544	0.820959	2.82651	0.938545	3.23092			0.73414	2.52666	0.829447	2.84732	0.960925	3.30663		
0.771873	2.64527	0.591076	2.00795	0.77304	2.6451	0.82284	2.82393	0.940395	3.22694			0.736114	2.52536	0.831516	2.84532	0.962448	3.30128		
0.774239	2.64493	0.593078	2.0084	0.775405	2.64476	0.824725	2.82138	0.942245	3.22298			0.738088	2.52406	0.833587	2.84334	0.963975	3.29599		
0.776603	2.64459	0.595081	2.00884	0.777768	2.64442	0.826613	2.81885	0.944098	3.21906			0.740061	2.52277	0.835659	2.84137	0.965504	3.29073		
0.778965	2.64424	0.597083	2.00928	0.78013	2.64407	0.828505	2.81635	0.945951	3.21517			0.742034	2.52149	0.837733	2.83943	0.967037	3.28552		
0.781325	2.64389	0.599084	2.00971	0.782489	2.64372	0.8304	2.81388	0.947806	3.2113			0.744006	2.52021	0.839808	2.8375	0.968574	3.28036		
0.783684	2.64354	0.601086	2.01014	0.784847	2.64336	0.832298	2.81144	0.949662	3.20746			0.745978	2.51894	0.841885	2.8356	0.970113	3.27524		
0.78604	2.64318	0.603087	2.01057	0.787202	2.643	0.8342	2.80902	0.951519	3.20366			0.747948	2.51767	0.843963	2.8337	0.971656	3.27016		
0.788395	2.64282	0.605088	2.01099	0.789556	2.64264	0.836105	2.80663	0.953378	3.19988			0.749919	2.51641	0.846043	2.83183	0.973203	3.26513		
0.790748	2.64245	0.607088	2.01142	0.791908	2.64227	0.838014	2.80427	0.955238	3.19613			0.751888	2.51516	0.848125	2.82997	0.974752	3.26014		
0.793098	2.64208	0.609089	2.01183	0.794257	2.6419	0.839926	2.80193	0.9571	3.1924			0.753858	2.51391	0.850208	2.82813	0.976306	3.25519		
0.795447	2.64171	0.611089	2.01225	0.796604	2.64152	0.841842	2.79962	0.958962	3.18871			0.755826	2.51267	0.852292	2.8263	0.977862	3.25028		
0.797793	2.64133	0.613089	2.01266	0.79895	2.64114	0.843761	2.79734	0.960826	3.18504			0.757794	2.51143	0.854378	2.82449	0.979422	3.24542		
0.800137	2.64094	0.615088	2.01306	0.801292	2.64075	0.845684	2.79508	0.962691	3.18139			0.759762	2.5102	0.856465	2.8227	0.980985	3.24059		
0.802478	2.64055	0.617088	2.01347	0.803633	2.64035	0.847611	2.79285	0.964558	3.17778			0.761729	2.50898	0.858554	2.82092	0.982551	3.23581		
0.804818	2.64015	0.619087	2.01387	0.805971	2.63995	0.849542	2.79064	0.966425	3.17419			0.763695	2.50776	0.860644	2.81916	0.984121	3.23106		
0.807155	2.63975	0.621086	2.01427	0.808307	2.63955	0.851476	2.78846	0.968294	3.17062			0.765661	2.50655	0.862735	2.81741	0.985694	3.22636		
0.809489	2.63934	0.623084	2.01466	0.81064	2.63914	0.853415	2.78631	0.970164	3.16708			0.767627	2.50534	0.864827	2.81567	0.98727	3.22169		
0.811821	2.63893	0.625082	2.01505	0.812971	2.63872	0.855357	2.78418	0.972035	3.16357			0.769592	2.50414	0.866921	2.81396	0.988849	3.21706		
0.81415	2.63851	0.62708	2.01544	0.815299	2.6383	0.857303	2.78208	0.973908	3.16008			0.771557	2.50295	0.869016	2.81225	0.990432	3.21248		
0.816477	2.63808	0.629078	2.01582	0.817624	2.63787	0.859254	2.78	0.975781	3.15662			0.773521	2.50176	0.871112	2.81056	0.992018	3.20793		
0.818801	2.63765	0.631076	2.0162	0.819946	2.63744	0.861208	2.77795	0.977656	3.15318			0.775485	2.50057	0.873209	2.80888	0.993608	3.20341		
0.821122	2.63721	0.633073	2.01658	0.822266	2.637	0.863166	2.77593	0.979532	3.14976			0.777448	2.49939	0.875308	2.80722	0.995201	3.19894		
0.82344	2.63677	0.63507	2.01696	0.824583	2.63655	0.865129	2.77393	0.981409	3.14637			0.779411	2.49822	0.877407	2.80557	0.996796	3.1945		
0.825755	2.63632	0.637067	2.01733	0.826897	2.63609	0.867096	2.77195	0.983287	3.14301			0.781373	2.49705	0.879508	2.80393	0.998396	3.1901		
0.828067	2.63586	0.639063	2.0177	0.829207	2.63563	0.869067	2.77	0.985166	3.13966			0.783335	2.49589	0.881609	2.80231	0.999998	3.18574		
0.830377	2.63539	0.641059	2.01807	0.831515	2.63516	0.871043	2.76808	0.987046	3.13634			0.785297	2.49474	0.883712	2.8007	1.0016	3.18141		
0.832683	2.63492	0.643055	2.01843	0.833819	2.63469	0.873022	2.76618	0.988927	3.13304			0.787258	2.49359	0.885815	2.7991				
0.834986	2.63444	0.645051	2.01879	0.836121	2.6342	0.875007	2.76431	0.99081	3.12977			0.789219	2.49244	0.88792	2.79751				
0.837285	2.63395	0.647046	2.01915	0.838419	2.63371	0.876995	2.76246	0.992693	3.12652			0.791179	2.4913	0.890026	2.79594				
0.839581	2.63346	0.649042	2.0195	0.840713	2.63321	0.878989	2.76064	0.994577	3.12329			0.79314	2.49017	0.892132	2.79438				
0.841874	2.63296	0.651037	2.01985	0.843004	2.63271	0.880987	2.75884	0.996463	3.12008			0.795099	2.48904	0.89424	2.79283				
0.844164	2.63245	0.653031	2.0202	0.845292	2.63219	0.882989	2.75707	0.998349	3.11689			0.797059	2.48792	0.896348	2.79129				
0.846449	2.63193	0.655026	2.02055	0.847576	2.63167	0.884996	2.75532	1.00024	3.11373			0.799018	2.4868	0.898457	2.78977				
0.848732	2.6314	0.65702	2.02089	0.849857	2.63114	0.887009	2.7536					0.800976	2.48569	0.900567	2.78825				
0.85101	2.63087	0.659014	2.02123	0.852133	2.6306	0.889025	2.7519					0.802935	2.48458	0.902678	2.78675				
0.853285	2.63032	0.661007	2.02157	0.854406	2.63005	0.891047	2.75022					0.804893	2.48348	0.904789	2.78525				
0.855556	2.62977	0.663001	2.0219	0.856676	2.6295	0.893074	2.74858					0.806851	2.48239	0.906901	2.78377				
0.857824	2.62921	0.664994	2.02224	0.858941	2.62893	0.895105	2.74695					0.808808	2.4813	0.909014	2.7823				
0.860087	2.62864	0.666987	2.02257	0.861202	2.62836	0.897142	2.74535					0.810765	2.48021	0.911128	2.78084				
0.862346	2.62806	0.668979	2.02289	0.86346	2.62777	0.899184	2.74378					0.812722	2.47913	0.913242	2.77939				
0.864602	2.62748	0.670972	2.02322	0.865713	2.62718	0.901231	2.74223					0.814679	2.47806	0.915357	2.77795				
0.866853	2.62688	0.672964	2.02354	0.867962	2.62658	0.903283	2.7407					0.816635	2.47699	0.917473	2.77652				
0.8691	2.62627	0.674956	2.02386	0.870208	2.62597	0.90534	2.7392					0.818591	2.47593	0.919589	2.7751				
0.871343	2.62566	0.676947	2.02418	0.872449	2.62535	0.907402	2.73772					0.820547	2.47487	0.921706	2.77369				
0.873582	2.62504	0.678939	2.02449	0.874685	2.62473	0.90947	2.73627					0.822502	2.47381	0.923823	2.77229				
0.875817	2.6244	0.68093	2.0248	0.876918	2.62409	0.911543	2.73484					0.824458	2.47277	0.925941	2.7709				
0.878047	2.62376	0.682921	2.02511	0.879146	2.62344	0.913621	2.73343					0.826413	2.47172	0.928059	2.76951				
0.880273	2.62311	0.684911	2.02542	0.88137	2.62279	0.915705	2.73205					0.828368	2.47068	0.930178	2.76814				
0.882495	2.62245	0.686902	2.02573	0.883589	2.62212	0.917794	2.73069					0.830322	2.46965	0.932297	2.76677				
0.884712	2.62178	0.688892	2.02603	0.885804	2.62145	0.919888	2.72936					0.832277	2.46862	0.934416	2.76542				
0.886925	2.6211	0.690882	2.02633	0.888015	2.62076	0.921988	2.72805					0.834231	2.4676	0.936536	2.76407				
0.889133	2.62041	0.692871	2.02662	0.890221	2.62007	0.924093	2.72676					0.836185	2.46658	0.938657	2.76273				
0.891337	2.61971	0.694861	2.02692	0.892422	2.61937	0.926204	2.7255					0.838139	2.46557	0.940777	2.7614				
0.893536	2.61901	0.69685	2.02721	0.89462	2.61865	0.92832	2.72425					0.840092	2.46456	0.942898	2.76008				
0.895731	2.61829	0.698839	2.0275	0.896812	2.61793	0.930442	2.72303					0.842046	2.46356	0.94502	2.75876				
0.897921	2.61756	0.700827	2.02779	0.899	2.6172	0.932569	2.72184					0.843999	2.46256	0.947141	2.75746				
0.900107	2.61683	0.702816	2.02808	0.901184	2.61646	0.934702	2.72066					0.845952	2.46157	0.949263	2.75616				
0.902288	2.61608	0.704804	2.02836	0.903363	2.61571	0.93684	2.71951					0.847905	2.46058	0.951385	2.75487				
0.904465	2.61533	0.706792	2.02864	0.905538	2.61495	0.938983	2.71838					0.849858	2.4596	0.953508	2.75359				
0.906638	2.61457	0.708779	2.02892	0.907708	2.61419	0.941132	2.71727					0.85181	2.45862	0.95563	2.75231				
0.908805	2.6138	0.710767	2.0292	0.909873	2.61341	0.943286	2.71619					0.853763	2.45764	0.957753	2.75104				
0.910969	2.61302	0.712754	2.02947	0.912034	2.61263	0.945446	2.71512					0.855715	2.45668	0.959876	2.74978				
0.913128	2.61223	0.714741	2.02975	0.914191	2.61183	0.947611	2.71408					0.857667	2.45571	0.961999	2.74853				
0.915282	2.61143	0.716728	2.03002	0.916343	2.61103	0.949782	2.71306					0.85962	2.45475	0.964122	2.74728				
0.917432	2.61062	0.718714	2.03029	0.918491	2.61022	0.951957	2.71205					0.861572	2.4538	0.966245	2.74604				
0.919578	2.60981	0.7207	2.03055	0.920635	2.60941	0.954138	2.71107					0.863523	2.45285	0.968368	2.7448				
0.921719	2.60899	0.722686	2.03082	0.922774	2.60858	0.956325	2.71011					0.865475	2.4519	0.970491	2.74358				
0.923856	2.60816	0.724672	2.03108	0.924909	2.60775	0.958516	2.70916					0.867427	2.45096	0.972615	2.74236				
0.925989	2.60732	0.726657	2.03134	0.927039	2.60691	0.960713	2.70824					0.869378	2.45003	0.974738	2.74114				
0.928117	2.60648	0.728642	2.0316	0.929166	2.60606	0.962914	2.70734					0.87133	2.4491	0.976861	2.73993				
0.930242	2.60563	0.730627	2.03185	0.931288	2.6052	0.965121	2.70645					0.873281	2.44817	0.978984	2.73873				
0.932362	2.60477	0.732612	2.03211	0.933406	2.60434	0.967332	2.70558					0.875233	2.44725	0.981107	2.73754				
0.934478	2.6039	0.734597	2.03236	0.935521	2.60347	0.969549	2.70473					0.877184	2.44633	0.98323	2.73635				
0.93659	2.60303	0.736581	2.03261	0.937631	2.6026	0.97177	2.7039					0.879135	2.44542	0.985353	2.73516				
0.938698	2.60215	0.738565	2.03286	0.939737	2.60172	0.973996	2.70309					0.881086	2.44451	0.987476	2.73398				
0.940803	2.60127	0.740549	2.03311	0.941839	2.60083	0.976227	2.70229					0.883037	2.44361	0.989598	2.73281				
0.942903	2.60037	0.742532	2.03335	0.943938	2.59993	0.978462	2.70151					0.884988	2.44271	0.991721	2.73164				
0.945	2.59948	0.744515	2.03359	0.946033	2.59903	0.980702	2.70075					0.886939	2.44181	0.993843	2.73048				
0.947093	2.59858	0.746498	2.03383	0.948124	2.59813	0.982946	2.7					0.88889	2.44092	0.995965	2.72932				
0.949182	2.59767	0.748481	2.03407	0.950212	2.59722	0.985195	2.69927					0.890841	2.44004	0.998086	2.72817				
0.951268	2.59675	0.750464	2.03431	0.952296	2.5963	0.987448	2.69856					0.892792	2.43916	1.00021	2.72703				
0.95335	2.59584	0.752446	2.03454	0.954376	2.59538	0.989706	2.69786					0.894743	2.43828						
0.955429	2.59491	0.754428	2.03478	0.956453	2.59446	0.991967	2.69717					0.896693	2.43741						
0.957504	2.59399	0.75641	2.03501	0.958527	2.59353	0.994233	2.6965					0.898644	2.43654						
0.959577	2.59306	0.758392	2.03524	0.960598	2.59259	0.996502	2.69584					0.900595	2.43568						
0.961646	2.59212	0.760373	2.03547	0.962665	2.59166	0.998776	2.6952					0.902546	2.43482						
0.963712	2.59118	0.762354	2.03569	0.96473	2.59072	1.00105	2.69457					0.904496	2.43396						
0.965774	2.59024	0.764335	2.03592	0.966791	2.58977							0.906447	2.43311						
0.967834	2.58929	0.766316	2.03614	0.968849	2.58883							0.908398	2.43226						
0.969891	2.58834	0.768296	2.03636	0.970905	2.58787							0.910349	2.43142						
0.971945	2.58739	0.770277	2.03658	0.972957	2.58692							0.912299	2.43058						
0.973996	2.58644	0.772257	2.0368	0.975007	2.58597							0.91425	2.42975						
0.976045	2.58548	0.774237	2.03701	0.977054	2.58501							0.916201	2.42892						
0.97809	2.58452	0.776216	2.03723	0.979099	2.58405							0.918152	2.4281						
0.980134	2.58356	0.778195	2.03744	0.981141	2.58309							0.920103	2.42727						
0.982175	2.5826	0.780174	2.03765	0.983181	2.58212							0.922053	2.42646						
0.984213	2.58163	0.782153	2.03786	0.985218	2.58116							0.924004	2.42564						
0.986249	2.58067	0.784132	2.03807	0.987253	2.58019							0.925955	2.42483						
0.988283	2.5797	0.78611	2.03828	0.989285	2.57922							0.927906	2.42403						
0.990314	2.57873	0.788089	2.03848	0.991316	2.57825							0.929857	2.42323						
0.992343	2.57776	0.790066	2.03868	0.993344	2.57728							0.931808	2.42243						
0.994371	2.57679	0.792044	2.03889	0.99537	2.57631							0.93376	2.42164						
0.996396	2.57582	0.794022	2.03909	0.997394	2.57534							0.935711	2.42085						
0.998419	2.57485	0.795999	2.03928	0.999416	2.57437							0.937662	2.42006						
1.00044	2.57387	0.797976	2.03948	1.00144	2.5734							0.939613	2.41928						
		0.799953	2.03968									0.941565	2.4185						
		0.801929	2.03987									0.943516	2.41773						
		0.803906	2.04006									0.945468	2.41696						
		0.805882	2.04025									0.947419	2.4162						
		0.807858	2.04044									0.949371	2.41543						
		0.809834	2.04063									0.951323	2.41467						
		0.811809	2.04082									0.953274	2.41392						
		0.813784	2.041									0.955226	2.41317						
		0.815759	2.04119									0.957178	2.41242						
		0.817734	2.04137									0.959131	2.41168						
		0.819709	2.04155									0.961083	2.41094						
		0.821683	2.04173									0.963035	2.4102						
		0.823657	2.04191									0.964987	2.40947						
		0.825631	2.04209									0.96694	2.40874						
		0.827605	2.04226									0.968893	2.40802						
		0.829579	2.04244									0.970845	2.4073						
		0.831552	2.04261									0.972798	2.40658						
		0.833525	2.04278									0.974751	2.40587						
		0.835498	2.04295									0.976704	2.40516						
		0.837471	2.04312									0.978657	2.40445						
		0.839443	2.04329									0.980611	2.40375						
		0.841415	2.04345									0.982564	2.40305						
		0.843387	2.04362									0.984518	2.40235						
		0.845359	2.04378									0.986471	2.40166						
		0.847331	2.04394									0.988425	2.40097						
		0.849302	2.04411									0.990379	2.40028						
		0.851273	2.04427									0.992333	2.3996						
		0.853244	2.04443									0.994288	2.39892						
		0.855215	2.04458									0.996242	2.39825						
		0.857186	2.04474									0.998196	2.39757						
		0.859156	2.04489									1.00015	2.3969						
		0.861126	2.04505																
		0.863096	2.0452																
		0.865066	2.04535																
		0.867035	2.0455																
		0.869005	2.04565																
		0.870974	2.0458																
		0.872943	2.04595																
		0.874911	2.0461																
		0.87688	2.04624																
		0.878848	2.04639																
		0.880816	2.04653																
		0.882784	2.04667																
		0.884752	2.04681																
		0.88672	2.04695																
		0.888687	2.04709																
		0.890654	2.04723																
		0.892621	2.04736																
		0.894588	2.0475																
		0.896554	2.04763																
		0.89852	2.04777																
		0.900486	2.0479																
		0.902452	2.04803																
		0.904418	2.04816																
		0.906384	2.04829																
		0.908349	2.04842																
		0.910314	2.04855																
		0.912279	2.04867																
		0.914244	2.0488																
		0.916208	2.04892																
		0.918173	2.04905																
		0.920137	2.04917																
		0.922101	2.04929																
		0.924065	2.04941																
		0.926029	2.04953																
		0.927992	2.04965																
		0.929955	2.04977																
		0.931918	2.04989																
		0.933881	2.05																
		0.935844	2.05012																
		0.937806	2.05023																
		0.939769	2.05035																
		0.941731	2.05046																
		0.943693	2.05057																
		0.945655	2.05068																
		0.947616	2.05079																
		0.949578	2.0509																
		0.951539	2.05101																
		0.9535	2.05112																
		0.955461	2.05123																
		0.957421	2.05133																
		0.959382	2.05144																
		0.961342	2.05154																
		0.963303	2.05165																
		0.965263	2.05175																
		0.967222	2.05185																
		0.969182	2.05195																
		0.971141	2.05205																
		0.973101	2.05215																
		0.97506	2.05225																
		0.977019	2.05235																
		0.978978	2.05245																
		0.980936	2.05255																
		0.982895	2.05264																
		0.984853	2.05274																
		0.986811	2.05283																
		0.988769	2.05293																
		0.990727	2.05302																
		0.992684	2.05311																
		0.994642	2.0532																
		0.996599	2.0533																
		0.998556	2.05339																
		1.00051	2.05348																
