Sym0		Asym0		Sym1		Sym2		Sym3		Sym4		Asym1		Asym2		Asym3		Asym4	
425  Points		527  Points		424  Points		407  Points		352  Points		252  Points		456  Points		401  Points		345  Points		207  Points	
Freq (MHz)	Vph (m/ms)	Freq (MHz)	Vph (m/ms)	Freq (MHz)	Vph (m/ms)	Freq (MHz)	Vph (m/ms)	Freq (MHz)	Vph (m/ms)	Freq (MHz)	Vph (m/ms)	Freq (MHz)	Vph (m/ms)	Freq (MHz)	Vph (m/ms)	Freq (MHz)	Vph (m/ms)	Freq (MHz)	Vph (m/ms)
0.279509	733.454	0.000250225	0.0972995	0.279514	307.761	0.449891	12003.6	0.559017	7795.66	0.838526	2177.2	0.139755	966.906	0.419268	469.499	0.698771	3692.59	0.899783	2242.43
0.279519	212.921	0.00046368	0.132352	0.279529	151.925	0.449897	464.207	0.559023	557.127	0.838531	636.778	0.139799	129.896	0.419285	229.782	0.698776	623.389	0.899788	675.036
0.27954	124.546	0.000741564	0.167204	0.279556	100.864	0.449914	236.688	0.559041	288.895	0.838542	372.929	0.139909	69.6781	0.419313	152.123	0.698786	340.435	0.899798	397.324
0.279571	88.0213	0.00108321	0.201836	0.279593	75.4984	0.449941	158.846	0.55907	195.016	0.838559	263.679	0.140085	47.654	0.419354	113.705	0.698802	234.158	0.899814	281.514
0.279613	68.0676	0.00148768	0.236197	0.279641	60.3326	0.449979	119.54	0.55911	147.193	0.838582	203.939	0.140327	36.2477	0.419405	90.7844	0.698824	178.453	0.899834	217.981
0.279665	55.494	0.0019538	0.270229	0.2797	50.2453	0.450028	95.8331	0.559162	118.211	0.83861	166.272	0.140633	29.2802	0.419468	75.5597	0.698853	144.161	0.89986	177.848
0.279729	46.8459	0.00248044	0.303905	0.279769	43.0521	0.450088	79.9779	0.559224	98.7701	0.838645	140.352	0.141004	24.5878	0.419543	64.7126	0.698887	120.927	0.899891	150.197
0.279803	40.5338	0.00306627	0.337192	0.27985	37.6644	0.450158	68.6285	0.559298	84.8247	0.838685	121.425	0.141438	21.2165	0.41963	56.5929	0.698927	104.145	0.899928	129.989
0.279888	35.7244	0.00370979	0.370044	0.27994	33.4786	0.450239	60.1037	0.559383	74.3339	0.838731	106.999	0.141934	18.6802	0.419728	50.2874	0.698974	91.4552	0.899969	114.575
0.279983	31.9384	0.00440957	0.402444	0.280042	30.1332	0.450331	53.4661	0.559479	66.156	0.838782	95.6379	0.142491	16.705	0.419837	45.2495	0.699026	81.5239	0.900016	102.432
0.280089	28.881	0.00516399	0.434363	0.280154	27.3985	0.450434	48.1519	0.559586	59.6024	0.83884	86.4597	0.143107	15.1252	0.419958	41.1322	0.699084	73.54	0.900068	92.6167
0.280206	26.3606	0.00597135	0.465771	0.280277	25.1215	0.450547	43.8014	0.559705	54.2331	0.838903	78.8904	0.14378	13.8341	0.420091	37.7045	0.699149	66.9819	0.900125	84.5196
0.280334	24.2473	0.00682998	0.496652	0.280411	23.1964	0.450671	40.1745	0.559835	49.754	0.838972	72.5411	0.144511	12.7605	0.420235	34.8068	0.699219	61.4992	0.900188	77.7257
0.280472	22.4501	0.00773821	0.526992	0.280555	21.5476	0.450805	37.1048	0.559976	45.9609	0.839047	67.1389	0.145296	11.8545	0.420391	32.3252	0.699296	56.8474	0.900255	71.9439
0.280621	20.9032	0.00869417	0.556768	0.28071	20.1198	0.450951	34.4732	0.560128	42.7075	0.839127	62.4868	0.146134	11.0806	0.420558	30.1762	0.699378	52.8512	0.900328	66.9639
0.280781	19.5577	0.00969621	0.585975	0.280876	18.8714	0.451107	32.1923	0.560291	39.8865	0.839214	58.4388	0.146906	10.4932	0.420737	28.2973	0.699467	49.3811	0.900406	62.6297
0.280951	18.377	0.0107426	0.614608	0.281052	17.7709	0.451274	30.1964	0.560465	37.4171	0.839306	54.8844	0.147594	10.0457	0.420927	26.6407	0.699561	46.3397	0.90049	58.8234
0.281132	17.3325	0.0118315	0.64265	0.281239	16.7934	0.451451	28.4355	0.56065	35.2377	0.839404	51.7386	0.148184	9.70766	0.421128	25.1693	0.699661	43.6523	0.900579	55.4541
0.281323	16.4022	0.0129613	0.670104	0.281437	15.9195	0.451639	26.8705	0.560847	33.3001	0.839508	48.9348	0.148662	9.45861	0.421341	23.8538	0.699768	41.2605	0.900672	52.4508
0.281526	15.5683	0.0141303	0.696968	0.281645	15.1337	0.451838	25.4705	0.561054	31.5662	0.839617	46.4202	0.149021	9.28488	0.421566	22.6707	0.69988	39.1182	0.900772	49.7569
0.281738	14.8166	0.0153368	0.723244	0.281863	14.4234	0.452047	24.2107	0.561273	30.0056	0.839733	44.1522	0.149254	9.17761	0.421802	21.601	0.699999	37.1882	0.900876	47.327
0.281962	14.1358	0.0165793	0.748933	0.282093	13.7782	0.452267	23.0712	0.561503	28.5937	0.839854	42.0964	0.149593	9.0285	0.422049	20.6294	0.700123	35.4406	0.900985	45.1241
0.282196	13.5162	0.0178562	0.774033	0.282333	13.1897	0.452497	22.0357	0.561743	27.3102	0.83998	40.2243	0.149967	8.87287	0.422308	19.743	0.700254	33.8507	0.9011	43.1178
0.28244	12.95	0.0191659	0.798558	0.282583	12.6508	0.452739	21.0905	0.561995	26.1385	0.840113	38.5123	0.150484	8.67132	0.422578	18.931	0.70039	32.3981	0.90122	41.2831
0.282695	12.4307	0.0205071	0.822508	0.282844	12.1555	0.45299	20.2244	0.562258	25.0646	0.840252	36.9409	0.151154	8.43181	0.422859	18.1846	0.700533	31.0659	0.901345	39.5988
0.282961	11.9527	0.0218783	0.845894	0.283116	11.6987	0.453252	19.428	0.562532	24.0768	0.840396	35.4934	0.151984	8.16299	0.423152	17.4962	0.700681	29.8396	0.901476	38.0472
0.283237	11.5113	0.0232781	0.868723	0.283398	11.2763	0.453525	18.6932	0.562816	23.1652	0.840546	34.1557	0.152988	7.87354	0.423456	16.8593	0.700835	28.7071	0.901611	36.6132
0.283524	11.1025	0.0247053	0.891005	0.283691	10.8844	0.453808	18.0131	0.563112	22.3214	0.840701	32.9159	0.154176	7.57164	0.423771	16.2684	0.700996	27.6581	0.901752	35.2839
0.283821	10.723	0.0261585	0.912747	0.283994	10.52	0.454102	17.3819	0.563418	21.5381	0.840863	31.7635	0.155403	7.29796	0.424098	15.7187	0.701162	26.6838	0.901898	34.0484
0.284129	10.3696	0.0276368	0.933963	0.284267	10.2226	0.454406	16.7946	0.563736	20.8091	0.84103	30.6897	0.156666	7.04887	0.424436	15.2061	0.701334	25.7764	0.90205	32.897
0.284447	10.0398	0.0291388	0.954664	0.284506	9.98276	0.45472	16.2468	0.564064	20.1289	0.841203	29.6867	0.157964	6.82133	0.424785	14.727	0.701513	24.9293	0.902206	31.8215
0.284776	9.73139	0.0306634	0.974857	0.284707	9.79318	0.455045	15.7346	0.564403	19.4929	0.841381	28.7478	0.159296	6.61278	0.425145	14.2783	0.701697	24.1367	0.902368	30.8146
0.285115	9.44235	0.0322097	0.994557	0.28487	9.64857	0.45538	15.2547	0.564753	18.8969	0.841566	27.867	0.16066	6.42104	0.425516	13.8572	0.701887	23.3935	0.902535	29.8699
0.285465	9.17096	0.0337766	1.01377	0.284991	9.54509	0.455726	14.8043	0.565114	18.3373	0.841756	27.0391	0.162054	6.24425	0.425899	13.4612	0.702083	22.6953	0.902707	28.982
0.285824	8.91566	0.0353631	1.03252	0.285069	9.48009	0.456082	14.3806	0.565485	17.8109	0.841952	26.2595	0.163477	6.0808	0.426292	13.0882	0.702286	22.0381	0.902884	28.1457
0.286195	8.67509	0.0369685	1.05081	0.285182	9.38828	0.456448	13.9814	0.565867	17.3148	0.842154	25.5241	0.164929	5.9293	0.426697	12.7363	0.702494	21.4184	0.903066	27.3569
0.286575	8.44804	0.0385918	1.06865	0.285306	9.2906	0.456825	13.6047	0.56626	16.8466	0.842361	24.8292	0.166407	5.78855	0.427113	12.4038	0.702708	20.8332	0.903254	26.6115
0.286967	8.23344	0.0402321	1.08605	0.285478	9.16118	0.457212	13.2486	0.566664	16.4039	0.842574	24.1717	0.16791	5.6575	0.42754	12.0891	0.702928	20.2795	0.903447	25.9061
0.287368	8.03029	0.0418888	1.10303	0.285698	9.00289	0.457609	12.9115	0.567078	15.9848	0.842793	23.5486	0.169439	5.53522	0.427977	11.7908	0.703154	19.755	0.903645	25.2375
0.28778	7.83773	0.0435611	1.1196	0.285969	8.8191	0.458016	12.592	0.567502	15.5874	0.843017	22.9572	0.17099	5.42091	0.428426	11.5078	0.703386	19.2575	0.903848	24.603
0.288202	7.65498	0.0452482	1.13576	0.286295	8.61347	0.458433	12.2887	0.567938	15.2101	0.843248	22.3953	0.172563	5.31384	0.428886	11.2389	0.703624	18.7848	0.904056	24
0.288634	7.48132	0.0469495	1.15154	0.286678	8.38983	0.458861	12.0005	0.568384	14.8515	0.843484	21.8606	0.174158	5.21337	0.429356	10.9831	0.703867	18.3353	0.90427	23.4262
0.289076	7.31611	0.0486644	1.16693	0.287072	8.17836	0.459299	11.7262	0.56884	14.5102	0.843725	21.3513	0.175773	5.11895	0.429838	10.7394	0.704117	17.9072	0.904489	22.8797
0.289529	7.15877	0.0503922	1.18196	0.287476	7.97811	0.459746	11.4649	0.569307	14.185	0.843973	20.8656	0.177408	5.03007	0.43033	10.5072	0.704373	17.499	0.904713	22.3584
0.289992	7.00875	0.0521325	1.19663	0.287891	7.78824	0.460204	11.2157	0.569785	13.8748	0.844226	20.4019	0.179061	4.94627	0.430768	10.3134	0.704634	17.1095	0.904942	21.8607
0.290465	6.86559	0.0538845	1.21094	0.288315	7.60797	0.460672	10.9779	0.570273	13.5786	0.844484	19.9588	0.180731	4.86716	0.431147	10.1542	0.704902	16.7373	0.905176	21.385
0.290948	6.72883	0.0556479	1.22492	0.28875	7.43661	0.46115	10.7506	0.570771	13.2955	0.844749	19.5349	0.182419	4.79236	0.431466	10.0266	0.705175	16.3814	0.905415	20.93
0.291442	6.59807	0.0574221	1.23858	0.289196	7.27355	0.461638	10.5331	0.571279	13.0247	0.845019	19.129	0.184123	4.72155	0.43172	9.92808	0.705454	16.0407	0.90566	20.4942
0.291945	6.47294	0.0592066	1.25191	0.289651	7.1182	0.462071	10.3513	0.571798	12.7653	0.845295	18.74	0.185842	4.65444	0.431909	9.85699	0.705739	15.7143	0.905909	20.0766
0.292459	6.35309	0.0610011	1.26493	0.290117	6.97006	0.462446	10.2015	0.572327	12.5168	0.845576	18.3668	0.187576	4.59075	0.432031	9.81208	0.70603	15.4013	0.906164	19.676
0.292983	6.23821	0.062805	1.27766	0.290592	6.82864	0.46276	10.0812	0.572867	12.2784	0.845863	18.0086	0.189324	4.53023	0.432206	9.74829	0.706327	15.1009	0.906424	19.2914
0.293516	6.128	0.064618	1.29009	0.291078	6.69351	0.463012	9.98816	0.573417	12.0496	0.846156	17.6645	0.191086	4.47268	0.432399	9.67998	0.70663	14.8123	0.906689	18.9218
0.29406	6.02222	0.0664397	1.30223	0.291575	6.56428	0.463198	9.92097	0.573976	11.8297	0.846455	17.3336	0.192861	4.41788	0.432662	9.58874	0.706939	14.5349	0.906959	18.5664
0.294614	5.92059	0.0682696	1.3141	0.292081	6.44058	0.463318	9.87848	0.574546	11.6184	0.846759	17.0152	0.194648	4.36564	0.433	9.47602	0.707254	14.268	0.907235	18.2245
0.295178	5.82289	0.0701076	1.32571	0.292597	6.32208	0.463491	9.81808	0.575126	11.415	0.847068	16.7086	0.196448	4.31581	0.433413	9.34354	0.707574	14.0112	0.907515	17.8952
0.295751	5.72892	0.0719532	1.33705	0.293123	6.20847	0.46368	9.75335	0.575716	11.2193	0.847384	16.4131	0.198258	4.26822	0.433905	9.19323	0.7079	13.7637	0.907801	17.5779
0.296335	5.63847	0.0738061	1.34814	0.29366	6.09947	0.46394	9.66679	0.576316	11.0307	0.847705	16.1283	0.20008	4.22274	0.434479	9.02721	0.708232	13.5251	0.908092	17.2719
0.296929	5.55135	0.0756661	1.35899	0.294206	5.99481	0.464271	9.5597	0.576927	10.8489	0.848031	15.8535	0.201912	4.17923	0.435064	8.8677	0.708571	13.295	0.908387	16.9767
0.297532	5.46739	0.0775327	1.36959	0.294763	5.89425	0.464677	9.43362	0.577547	10.6736	0.848364	15.5882	0.203754	4.13757	0.43566	8.71435	0.708914	13.073	0.908688	16.6917
0.298146	5.38645	0.0794059	1.37997	0.295329	5.79756	0.46516	9.29029	0.578095	10.5258	0.848701	15.3319	0.205606	4.09764	0.436265	8.56682	0.709264	12.8585	0.908994	16.4164
0.298769	5.30835	0.0812852	1.39012	0.295906	5.70454	0.465724	9.13162	0.578568	10.4033	0.849045	15.0843	0.207467	4.05936	0.436882	8.42479	0.70962	12.6512	0.909305	16.1502
0.299402	5.23298	0.0831705	1.40006	0.296492	5.61499	0.466297	8.97883	0.578964	10.3043	0.849394	14.8447	0.209337	4.02262	0.437509	8.28796	0.709981	12.4509	0.909622	15.8928
0.300045	5.16018	0.0850616	1.40978	0.297088	5.52873	0.466879	8.83161	0.579279	10.2276	0.849749	14.613	0.211215	3.98733	0.438146	8.15608	0.710348	12.257	0.909943	15.6438
0.300698	5.08985	0.086958	1.41929	0.297694	5.44559	0.467471	8.68966	0.579513	10.1719	0.850109	14.3886	0.213102	3.95341	0.438793	8.02888	0.710721	12.0694	0.910269	15.4027
0.30136	5.02187	0.0888598	1.42861	0.29831	5.36542	0.468073	8.55272	0.579663	10.1367	0.850475	14.1714	0.214997	3.92079	0.43945	7.90613	0.7111	11.8878	0.910601	15.1692
0.302032	4.95612	0.0907666	1.43773	0.298936	5.28806	0.468684	8.42054	0.579879	10.0865	0.850846	13.9608	0.216899	3.8894	0.440118	7.78761	0.711485	11.7118	0.910937	14.9428
0.302714	4.89251	0.0926783	1.44666	0.299572	5.21338	0.469305	8.29287	0.580116	10.0325	0.851223	13.7567	0.218809	3.85917	0.440796	7.67311	0.711875	11.5412	0.911279	14.7234
0.303406	4.83095	0.0945947	1.45541	0.300217	5.14126	0.469935	8.16951	0.580439	9.96017	0.851606	13.5587	0.220725	3.83003	0.441484	7.56243	0.712271	11.3758	0.911626	14.5106
0.304017	4.77889	0.0965155	1.46398	0.300873	5.07156	0.470575	8.05024	0.580852	9.87032	0.851994	13.3666	0.222649	3.80194	0.442182	7.45541	0.712673	11.2153	0.911977	14.3041
0.304543	4.73564	0.0984407	1.47237	0.301538	5.00418	0.471223	7.93487	0.581356	9.76405	0.852388	13.1801	0.224579	3.77484	0.442891	7.35186	0.713081	11.0596	0.912334	14.1036
0.304982	4.70064	0.10037	1.4806	0.302213	4.93901	0.471882	7.82321	0.581954	9.6426	0.852787	12.9991	0.226515	3.74868	0.443609	7.25163	0.713495	10.9084	0.912696	13.9088
0.305332	4.67344	0.102303	1.48866	0.302897	4.87596	0.472549	7.71511	0.582649	9.50735	0.853192	12.8231	0.228457	3.72341	0.444337	7.15457	0.71386	10.7802	0.913063	13.7196
0.305591	4.65369	0.104241	1.49655	0.303591	4.81492	0.473226	7.61039	0.583353	9.3763	0.853602	12.6521	0.230405	3.69899	0.445075	7.06053	0.714174	10.6733	0.913435	13.5357
0.305757	4.64117	0.106181	1.5043	0.304295	4.75581	0.473912	7.50891	0.584068	9.24927	0.854018	12.4858	0.232359	3.67538	0.445823	6.96939	0.714437	10.5867	0.913812	13.3569
0.305997	4.62333	0.108126	1.51189	0.305009	4.69854	0.474607	7.41053	0.584791	9.12608	0.854439	12.3241	0.234318	3.65254	0.446581	6.88101	0.714646	10.5193	0.914194	13.1829
0.306259	4.60414	0.110074	1.51933	0.305732	4.64304	0.475311	7.3151	0.585524	9.00656	0.854866	12.1668	0.236282	3.63043	0.447348	6.79529	0.714801	10.4703	0.914581	13.0137
0.306617	4.57838	0.112025	1.52663	0.306465	4.58924	0.476024	7.22251	0.586267	8.89057	0.855298	12.0136	0.238251	3.60903	0.448126	6.7121	0.7149	10.4392	0.914973	12.8489
0.307073	4.54633	0.113979	1.53379	0.307207	4.53705	0.476746	7.13264	0.587019	8.77795	0.855736	11.8645	0.240225	3.58829	0.448913	6.63135	0.715043	10.3948	0.91537	12.6885
0.307629	4.50838	0.115937	1.54081	0.307959	4.48643	0.477477	7.04537	0.58778	8.66856	0.85618	11.7193	0.242204	3.56819	0.449709	6.55293	0.7152	10.347	0.915772	12.5322
0.308289	4.46491	0.117645	1.54682	0.308721	4.4373	0.478217	6.9606	0.58855	8.56227	0.856628	11.5778	0.244188	3.5487	0.450515	6.47675	0.715414	10.2828	0.916179	12.3799
0.309055	4.41641	0.119103	1.55187	0.309492	4.3896	0.478966	6.87823	0.58933	8.45895	0.857083	11.4399	0.246175	3.52979	0.451331	6.40271	0.715687	10.2028	0.916591	12.2315
0.30983	4.36932	0.12031	1.55599	0.310273	4.34328	0.479724	6.79815	0.590118	8.35849	0.857542	11.3054	0.248167	3.51144	0.452157	6.33075	0.716019	10.1078	0.917008	12.0868
0.310615	4.32358	0.121264	1.55921	0.311063	4.29828	0.48049	6.72029	0.590916	8.26078	0.858008	11.1743	0.250163	3.49363	0.452991	6.26076	0.716413	9.99876	0.91743	11.9457
0.311409	4.27914	0.121967	1.56157	0.311863	4.25456	0.481266	6.64455	0.591723	8.1657	0.858417	11.0626	0.252163	3.47632	0.453836	6.19269	0.716871	9.87671	0.917857	11.808
0.312213	4.23596	0.122417	1.56306	0.312673	4.21206	0.48205	6.57085	0.592539	8.07316	0.85877	10.9693	0.254167	3.45951	0.454689	6.12645	0.717334	9.75784	0.918289	11.6736
0.313027	4.19398	0.123063	1.5652	0.313491	4.17075	0.482843	6.49912	0.593364	7.98307	0.859064	10.8935	0.256174	3.44317	0.455552	6.06198	0.717804	9.64202	0.918725	11.5425
0.31385	4.15316	0.123767	1.56751	0.31432	4.13057	0.483644	6.42927	0.594197	7.89531	0.859298	10.8343	0.258185	3.42728	0.456424	5.99921	0.718278	9.52914	0.919167	11.4144
0.314682	4.11346	0.124724	1.57063	0.315158	4.09148	0.484454	6.36125	0.59504	7.80983	0.85947	10.7912	0.260199	3.41182	0.457306	5.93807	0.718759	9.41909	0.919614	11.2893
0.315524	4.07484	0.125935	1.57454	0.316005	4.05345	0.485272	6.29499	0.595891	7.72652	0.859581	10.7638	0.262216	3.39677	0.458197	5.87852	0.719245	9.31177	0.920007	11.1827
0.316376	4.03726	0.127401	1.5792	0.316862	4.01644	0.486099	6.23042	0.596752	7.64531	0.859741	10.7247	0.264237	3.38213	0.459096	5.82049	0.719737	9.20708	0.920346	11.0935
0.317237	4.00068	0.129123	1.58459	0.317728	3.98042	0.486935	6.16747	0.597621	7.56613	0.859916	10.6825	0.266261	3.36787	0.460005	5.76393	0.720234	9.10493	0.920627	11.0208
0.318107	3.96507	0.1311	1.59067	0.318604	3.94534	0.487778	6.1061	0.598498	7.48891	0.860154	10.6257	0.268288	3.35398	0.460923	5.70879	0.720737	9.00522	0.920851	10.9641
0.318987	3.93039	0.13308	1.59665	0.319489	3.91118	0.488631	6.04625	0.599384	7.41357	0.860458	10.5549	0.270317	3.34045	0.46185	5.65501	0.721246	8.90788	0.921017	10.9228
0.319876	3.89662	0.135062	1.60251	0.320384	3.8779	0.489491	5.98787	0.600279	7.34005	0.860827	10.4705	0.27235	3.32726	0.462786	5.60256	0.72176	8.81282	0.921123	10.8966
0.320775	3.86372	0.137046	1.60827	0.321288	3.84548	0.49036	5.9309	0.601183	7.26829	0.861265	10.3734	0.274385	3.31439	0.463731	5.55138	0.72228	8.71997	0.921276	10.8591
0.321684	3.83166	0.139032	1.61393	0.322202	3.81388	0.491237	5.8753	0.603015	7.12982	0.861771	10.2643	0.276423	3.30185	0.464685	5.50144	0.722806	8.62926	0.921444	10.8186
0.322601	3.80042	0.14102	1.61949	0.323125	3.78309	0.492122	5.82102	0.603943	7.06299	0.862284	10.1577	0.278463	3.28961	0.465648	5.45269	0.723337	8.5406	0.921672	10.7641
0.323529	3.76996	0.143009	1.62496	0.324058	3.75307	0.493015	5.76802	0.60488	6.9977	0.862801	10.0534	0.280506	3.27767	0.466619	5.4051	0.723874	8.45394	0.921962	10.696
0.324466	3.74027	0.145001	1.63033	0.325	3.7238	0.493916	5.71625	0.605826	6.9339	0.863325	9.95149	0.282551	3.26601	0.467599	5.35862	0.724417	8.36921	0.922316	10.6149
0.325412	3.71132	0.146994	1.6356	0.325952	3.69526	0.494826	5.66569	0.606779	6.87154	0.863853	9.85178	0.284598	3.25462	0.468588	5.31322	0.724965	8.28635	0.922734	10.5214
0.326368	3.68309	0.148989	1.64079	0.326913	3.66742	0.495743	5.61628	0.607741	6.81057	0.864387	9.75422	0.286648	3.2435	0.469585	5.26887	0.725518	8.20529	0.923219	10.4162
0.327334	3.65555	0.150986	1.64589	0.327884	3.64027	0.496668	5.56799	0.608711	6.75095	0.864926	9.65876	0.2887	3.23264	0.470591	5.22553	0.726077	8.12599	0.923708	10.3133
0.328309	3.62868	0.152984	1.6509	0.328865	3.61377	0.497602	5.52079	0.609689	6.69264	0.86547	9.56532	0.290753	3.22202	0.471606	5.18317	0.726642	8.04839	0.924203	10.2126
0.329294	3.60247	0.154983	1.65583	0.329855	3.58792	0.498543	5.47464	0.610675	6.6356	0.86602	9.47384	0.292809	3.21164	0.472629	5.14177	0.727212	7.97243	0.924702	10.114
0.330288	3.57689	0.156984	1.66068	0.330855	3.56269	0.499492	5.42951	0.611668	6.57979	0.866575	9.38426	0.294867	3.2015	0.473661	5.10128	0.727788	7.89807	0.925206	10.0174
0.331292	3.55193	0.158986	1.66545	0.331865	3.53807	0.500448	5.38536	0.61267	6.52517	0.867135	9.29653	0.296926	3.19157	0.474701	5.06169	0.728369	7.82526	0.925715	9.92285
0.332306	3.52756	0.16099	1.67014	0.332884	3.51403	0.501413	5.34218	0.61368	6.47171	0.867701	9.2106	0.298988	3.18186	0.475749	5.02297	0.728956	7.75395	0.926229	9.83018
0.33333	3.50377	0.162995	1.67475	0.333913	3.49057	0.502385	5.29993	0.614698	6.41936	0.868272	9.1264	0.301051	3.17237	0.476806	4.98509	0.729548	7.6841	0.926747	9.73938
0.334363	3.48055	0.165001	1.67929	0.334952	3.46765	0.503364	5.25857	0.615723	6.36811	0.868848	9.04389	0.303116	3.16307	0.477871	4.94803	0.730146	7.61566	0.927271	9.65039
0.335406	3.45787	0.167009	1.68375	0.336001	3.44528	0.504351	5.2181	0.616756	6.31792	0.86943	8.96302	0.305182	3.15397	0.478944	4.91175	0.730749	7.5486	0.927799	9.56316
0.33646	3.43573	0.169017	1.68814	0.33706	3.42343	0.505346	5.17847	0.617797	6.26875	0.870016	8.88374	0.30725	3.14506	0.480025	4.87625	0.731358	7.48287	0.928332	9.47764
0.337523	3.41411	0.171027	1.69247	0.338129	3.40209	0.506348	5.13967	0.618846	6.22058	0.870608	8.80601	0.309319	3.13633	0.481115	4.8415	0.731972	7.41843	0.92887	9.39378
0.338596	3.39298	0.173038	1.69672	0.339208	3.38125	0.507358	5.10167	0.619902	6.17338	0.871206	8.72978	0.31139	3.12778	0.482213	4.80747	0.732592	7.35526	0.929413	9.31153
0.339679	3.37236	0.17505	1.70091	0.340297	3.3609	0.508375	5.06445	0.620965	6.12712	0.871808	8.65501	0.313463	3.1194	0.483318	4.77415	0.733217	7.29332	0.92996	9.23085
0.340773	3.3522	0.177062	1.70503	0.341396	3.34101	0.509399	5.02799	0.622037	6.08178	0.872416	8.58167	0.315536	3.11119	0.484432	4.74151	0.733848	7.23256	0.930513	9.1517
0.341877	3.33252	0.179076	1.70909	0.342506	3.32158	0.510431	4.99226	0.623115	6.03733	0.873029	8.50971	0.317611	3.10314	0.485554	4.70954	0.734484	7.17296	0.93107	9.07403
0.342991	3.31329	0.181091	1.71308	0.343626	3.3026	0.51147	4.95725	0.624201	5.99375	0.873647	8.43909	0.319687	3.09525	0.486683	4.67822	0.735125	7.11449	0.931632	8.99781
0.344115	3.2945	0.183106	1.71702	0.344756	3.28406	0.512516	4.92294	0.625294	5.95101	0.87427	8.36979	0.321765	3.08752	0.487821	4.64754	0.735772	7.05712	0.932198	8.92298
0.34525	3.27614	0.185123	1.72089	0.345897	3.26595	0.51357	4.8893	0.626395	5.90908	0.874898	8.30176	0.323844	3.07993	0.488966	4.61746	0.736425	7.00081	0.93277	8.84953
0.346396	3.25821	0.18714	1.72471	0.347049	3.24825	0.51463	4.85632	0.627503	5.86796	0.875532	8.23497	0.325923	3.07248	0.490119	4.58798	0.737082	6.94555	0.933346	8.77741
0.347553	3.24069	0.189158	1.72846	0.348212	3.23095	0.515697	4.82398	0.628618	5.82762	0.876171	8.16938	0.328004	3.06518	0.49128	4.55909	0.737745	6.8913	0.933927	8.70659
0.34872	3.22357	0.191177	1.73216	0.349385	3.21406	0.516772	4.79227	0.62974	5.78803	0.876815	8.10498	0.330086	3.05801	0.492449	4.53076	0.738414	6.83803	0.934512	8.63703
0.349898	3.20684	0.193196	1.73581	0.35057	3.19755	0.517854	4.76116	0.63087	5.74917	0.877464	8.04172	0.332169	3.05097	0.493625	4.50298	0.739087	6.78572	0.935103	8.5687
0.351088	3.1905	0.195216	1.7394	0.351766	3.18142	0.518942	4.73064	0.632006	5.71104	0.878118	7.97958	0.334253	3.04406	0.494809	4.47574	0.739767	6.73435	0.935698	8.50157
0.352289	3.17454	0.197237	1.74293	0.352973	3.16567	0.520037	4.7007	0.633149	5.67361	0.878777	7.91853	0.336338	3.03727	0.496	4.44902	0.740451	6.68389	0.936297	8.43561
0.353501	3.15894	0.199259	1.74642	0.354192	3.15027	0.52114	4.67133	0.6343	5.63685	0.879442	7.85854	0.338423	3.03061	0.497199	4.42282	0.741141	6.63432	0.936902	8.37079
0.354725	3.1437	0.201281	1.74985	0.355422	3.13524	0.522249	4.6425	0.635457	5.60076	0.880111	7.79959	0.34051	3.02406	0.498406	4.3971	0.741836	6.58562	0.937511	8.30708
0.35596	3.12882	0.203304	1.75324	0.356665	3.12055	0.523364	4.6142	0.636621	5.56532	0.880786	7.74165	0.342597	3.01763	0.49962	4.37188	0.742536	6.53776	0.938125	8.24446
0.357208	3.11428	0.205327	1.75657	0.357919	3.1062	0.524487	4.58642	0.637792	5.53052	0.881466	7.68469	0.344685	3.01131	0.500841	4.34712	0.743242	6.49073	0.938743	8.18289
0.358468	3.10008	0.207351	1.75986	0.359186	3.0922	0.525616	4.55915	0.63897	5.49632	0.882151	7.6287	0.346774	3.0051	0.50207	4.32283	0.743953	6.44451	0.939366	8.12236
0.35974	3.08622	0.209375	1.7631	0.360465	3.07852	0.526752	4.53237	0.640155	5.46273	0.88284	7.57364	0.348864	2.99899	0.503305	4.29899	0.744669	6.39907	0.939994	8.06283
0.361025	3.07268	0.2114	1.7663	0.361757	3.06516	0.527894	4.50608	0.641346	5.42973	0.883535	7.5195	0.350954	2.99299	0.504549	4.27558	0.745391	6.35439	0.940627	8.00429
0.362322	3.05946	0.213426	1.76944	0.363062	3.05212	0.529043	4.48026	0.642544	5.3973	0.884235	7.46625	0.353045	2.98709	0.505799	4.2526	0.746118	6.31047	0.941264	7.94671
0.363633	3.04656	0.215452	1.77255	0.36438	3.0394	0.530199	4.45489	0.643748	5.36542	0.88494	7.41388	0.355136	2.98128	0.507057	4.23004	0.74685	6.26727	0.941905	7.89006
0.364957	3.03397	0.217478	1.77561	0.365711	3.02698	0.53136	4.42997	0.644959	5.33409	0.88565	7.36236	0.357228	2.97557	0.508322	4.20789	0.747587	6.22479	0.942552	7.83433
0.366294	3.02168	0.219505	1.77863	0.367057	3.01486	0.532529	4.40549	0.646176	5.3033	0.886365	7.31168	0.359321	2.96995	0.509594	4.18613	0.74833	6.18301	0.943203	7.7795
0.367645	3.00969	0.221532	1.7816	0.368416	3.00304	0.533703	4.38144	0.6474	5.27302	0.887085	7.2618	0.361414	2.96442	0.510873	4.16476	0.749078	6.1419	0.943858	7.72554
0.36901	2.998	0.22356	1.78454	0.369789	2.99152	0.534884	4.3578	0.64863	5.24325	0.88781	7.21273	0.363507	2.95898	0.512159	4.14377	0.749831	6.10147	0.944518	7.67243
0.37039	2.9866	0.225588	1.78743	0.371177	2.98028	0.536072	4.33457	0.649867	5.21398	0.88854	7.16443	0.365601	2.95363	0.513452	4.12315	0.750589	6.06168	0.945183	7.62016
0.371784	2.97549	0.227616	1.79029	0.372579	2.96933	0.537265	4.31174	0.65111	5.18519	0.889275	7.11689	0.367695	2.94835	0.514752	4.1029	0.751352	6.02253	0.945852	7.5687
0.373193	2.96466	0.229645	1.7931	0.373997	2.95866	0.538465	4.2893	0.652359	5.15688	0.890015	7.07009	0.36979	2.94316	0.516059	4.08299	0.75212	5.984	0.946526	7.51804
0.374617	2.95411	0.231674	1.79588	0.37543	2.94827	0.539671	4.26723	0.653615	5.12903	0.89076	7.02402	0.371885	2.93805	0.517373	4.06343	0.752894	5.94608	0.947204	7.46817
0.376057	2.94384	0.233703	1.79862	0.376879	2.93815	0.540883	4.24554	0.654876	5.10163	0.891509	6.97866	0.373981	2.93302	0.518694	4.04421	0.753673	5.90875	0.947887	7.41905
0.377513	2.93384	0.235733	1.80133	0.378344	2.9283	0.542101	4.22421	0.656144	5.07467	0.892264	6.934	0.376077	2.92806	0.520021	4.02532	0.754457	5.87201	0.948575	7.37068
0.378985	2.9241	0.237762	1.80399	0.379825	2.91871	0.543325	4.20323	0.657418	5.04815	0.893023	6.89002	0.378173	2.92317	0.521355	4.00675	0.755246	5.83583	0.949267	7.32304
0.380473	2.91463	0.239793	1.80663	0.381323	2.90939	0.544555	4.1826	0.658698	5.02205	0.893788	6.8467	0.380269	2.91836	0.522696	3.9885	0.75604	5.80021	0.949963	7.27612
0.381978	2.90543	0.241823	1.80922	0.382837	2.90033	0.545791	4.16231	0.659983	4.99636	0.894557	6.80403	0.382366	2.91362	0.524044	3.97056	0.75684	5.76513	0.950664	7.22989
0.383501	2.89648	0.243854	1.81179	0.38437	2.89153	0.547032	4.14234	0.661275	4.97108	0.895331	6.762	0.384462	2.90894	0.525398	3.95291	0.757644	5.73059	0.95137	7.18435
0.38504	2.88779	0.245884	1.81432	0.385919	2.88298	0.54828	4.12271	0.662573	4.94619	0.896111	6.72059	0.386559	2.90433	0.526759	3.93557	0.758453	5.69657	0.95208	7.13948
0.386598	2.87935	0.247915	1.81681	0.387487	2.87469	0.549534	4.10338	0.663877	4.92169	0.896895	6.6798	0.388657	2.89979	0.528127	3.91851	0.759268	5.66306	0.952794	7.09527
0.388173	2.87116	0.249947	1.81928	0.389073	2.86664	0.550793	4.08437	0.665186	4.89757	0.897683	6.6396	0.390754	2.89531	0.529501	3.90173	0.760088	5.63005	0.953513	7.0517
0.389767	2.86322	0.251978	1.82171	0.390677	2.85883	0.552058	4.06566	0.666501	4.87382	0.898477	6.59999	0.392851	2.8909	0.530881	3.88523	0.760912	5.59753	0.954237	7.00876
0.39138	2.85552	0.25401	1.82411	0.3923	2.85127	0.553329	4.04725	0.667822	4.85043	0.899275	6.56095	0.394949	2.88654	0.532268	3.869	0.761742	5.56549	0.954964	6.96643
0.393011	2.84806	0.256041	1.82648	0.393942	2.84394	0.554605	4.02913	0.669149	4.8274	0.900079	6.52247	0.397046	2.88224	0.533662	3.85303	0.762577	5.53391	0.955697	6.92471
0.394661	2.84084	0.258073	1.82882	0.395603	2.83686	0.555887	4.01129	0.670481	4.80471	0.900887	6.48455	0.399144	2.87801	0.535062	3.83733	0.763416	5.5028	0.956433	6.88357
0.39633	2.83385	0.260105	1.83113	0.397283	2.83	0.557175	3.99373	0.671819	4.78237	0.9017	6.44716	0.401241	2.87382	0.536468	3.82187	0.764261	5.47214	0.957175	6.84302
0.398019	2.82709	0.262138	1.83341	0.398983	2.82337	0.558468	3.97645	0.673162	4.76036	0.902517	6.41031	0.403339	2.8697	0.537881	3.80667	0.765111	5.44192	0.95792	6.80304
0.399728	2.82056	0.26417	1.83566	0.400703	2.81696	0.559767	3.95943	0.674511	4.73868	0.903339	6.37397	0.405436	2.86562	0.539299	3.79171	0.765966	5.41214	0.95867	6.76361
0.401455	2.81425	0.266202	1.83789	0.402442	2.81078	0.561071	3.94267	0.675866	4.71732	0.904167	6.33814	0.407533	2.8616	0.540724	3.77699	0.766825	5.38278	0.959424	6.72473
0.403203	2.80816	0.268235	1.84008	0.404201	2.80481	0.56238	3.92617	0.677225	4.69627	0.904999	6.3028	0.409631	2.85764	0.542156	3.7625	0.76769	5.35383	0.960183	6.68638
0.40497	2.80229	0.270267	1.84225	0.405979	2.79906	0.563695	3.90991	0.678591	4.67553	0.905835	6.26796	0.411728	2.85372	0.543593	3.74824	0.76856	5.32529	0.960946	6.64856
0.406757	2.79662	0.2723	1.84439	0.407777	2.79351	0.565015	3.89391	0.679961	4.65509	0.906677	6.23359	0.413825	2.84985	0.545037	3.73421	0.769434	5.29716	0.961714	6.61125
0.408564	2.79116	0.274332	1.84651	0.409595	2.78816	0.566341	3.87814	0.681337	4.63495	0.907523	6.1997	0.415922	2.84603	0.546487	3.72039	0.770314	5.26941	0.962486	6.57445
0.41039	2.78591	0.276365	1.8486	0.411432	2.78302	0.567672	3.86261	0.682718	4.61509	0.908373	6.16626	0.418019	2.84226	0.547943	3.70679	0.771198	5.24205	0.963262	6.53814
0.412236	2.78085	0.278398	1.85066	0.413288	2.77807	0.569008	3.84731	0.684105	4.59552	0.909229	6.13328	0.420116	2.83853	0.549405	3.6934	0.772087	5.21507	0.964042	6.50232
0.4141	2.77598	0.280431	1.8527	0.415164	2.77331	0.570349	3.83224	0.685497	4.57623	0.910089	6.10074	0.422212	2.83485	0.550873	3.68022	0.772981	5.18846	0.964827	6.46697
0.415984	2.7713	0.282464	1.85471	0.417058	2.76873	0.571696	3.81739	0.686893	4.55721	0.910954	6.06863	0.424308	2.83121	0.552347	3.66724	0.77388	5.16221	0.965616	6.4321
0.417887	2.7668	0.284497	1.8567	0.418971	2.76433	0.573047	3.80276	0.688295	4.53846	0.911823	6.03696	0.426404	2.82762	0.553827	3.65446	0.774784	5.13632	0.96641	6.39768
0.419808	2.76248	0.28653	1.85867	0.420902	2.76011	0.574404	3.78834	0.689702	4.51997	0.912697	6.0057	0.4285	2.82407	0.555312	3.64188	0.775693	5.11078	0.967207	6.36371
0.421747	2.75832	0.288563	1.86061	0.422852	2.75605	0.575766	3.77413	0.691114	4.50173	0.913576	5.97485	0.430595	2.82056	0.556804	3.62948	0.776607	5.08558	0.968009	6.33018
0.423703	2.75434	0.290595	1.86253	0.424818	2.75216	0.577132	3.76012	0.692531	4.48375	0.914459	5.9444	0.432691	2.81709	0.558302	3.61728	0.777525	5.06071	0.968816	6.29709
0.425678	2.75051	0.292628	1.86443	0.426802	2.74842	0.578504	3.74632	0.693953	4.46602	0.915347	5.91436	0.434785	2.81366	0.559805	3.60525	0.778448	5.03618	0.969626	6.26442
0.427669	2.74684	0.294661	1.8663	0.428803	2.74483	0.579881	3.73271	0.69538	4.44853	0.91624	5.8847	0.43688	2.81027	0.561315	3.59341	0.779376	5.01198	0.970441	6.23217
0.429677	2.74332	0.296694	1.86815	0.43082	2.74139	0.581262	3.7193	0.696812	4.43128	0.917137	5.85542	0.438974	2.80692	0.56283	3.58175	0.780309	4.98809	0.97126	6.20033
0.4317	2.73995	0.298727	1.86998	0.432852	2.7381	0.582649	3.70608	0.698249	4.41426	0.918039	5.82652	0.441068	2.80361	0.56435	3.57026	0.781247	4.96452	0.972083	6.16889
0.43374	2.73671	0.30076	1.87179	0.434901	2.73493	0.58404	3.69304	0.69969	4.39747	0.918945	5.79799	0.443161	2.80033	0.565877	3.55894	0.782189	4.94125	0.972911	6.13785
0.435795	2.7336	0.302793	1.87358	0.436964	2.7319	0.585436	3.68019	0.701136	4.3809	0.919856	5.76982	0.445254	2.79709	0.567409	3.54778	0.783137	4.91829	0.973742	6.1072
0.437864	2.73062	0.304825	1.87534	0.439041	2.72899	0.586837	3.66751	0.702587	4.36456	0.920771	5.742	0.447346	2.79388	0.568947	3.53679	0.784089	4.89562	0.974578	6.07693
0.439947	2.72777	0.306858	1.87709	0.441132	2.7262	0.588242	3.65501	0.704043	4.34844	0.921691	5.71454	0.449439	2.79071	0.57049	3.52597	0.785045	4.87324	0.975418	6.04704
0.442045	2.72503	0.308891	1.87882	0.443237	2.72353	0.589653	3.64269	0.705503	4.33252	0.922615	5.68741	0.45153	2.78757	0.572039	3.5153	0.786007	4.85115	0.976262	6.01752
0.444155	2.7224	0.310923	1.88052	0.445355	2.72096	0.591068	3.63053	0.706968	4.31682	0.923544	5.66063	0.453621	2.78446	0.573594	3.50479	0.786973	4.82935	0.977111	5.98836
0.446278	2.71988	0.312956	1.88221	0.447485	2.7185	0.592487	3.61855	0.708438	4.30133	0.924478	5.63417	0.455712	2.78139	0.575154	3.49442	0.787944	4.80782	0.977963	5.95955
0.448414	2.71747	0.314988	1.88388	0.449627	2.71614	0.593911	3.60672	0.709912	4.28603	0.925415	5.60805	0.457802	2.77835	0.576719	3.48421	0.788919	4.78656	0.97882	5.9311
0.450561	2.71515	0.317021	1.88552	0.451781	2.71388	0.59534	3.59506	0.71139	4.27093	0.926358	5.58224	0.459892	2.77533	0.57829	3.47415	0.789899	4.76557	0.979681	5.90299
0.452719	2.71292	0.319053	1.88715	0.453945	2.71171	0.596773	3.58355	0.712873	4.25603	0.927305	5.55675	0.461981	2.77235	0.579867	3.46423	0.790884	4.74484	0.980546	5.87522
0.454889	2.71079	0.321085	1.88877	0.456121	2.70962	0.598211	3.5722	0.714361	4.24132	0.928256	5.53156	0.464069	2.7694	0.581449	3.45445	0.791874	4.72437	0.981415	5.84778
0.457068	2.70874	0.323117	1.89036	0.458306	2.70762	0.599654	3.561	0.715853	4.22679	0.929212	5.50669	0.466157	2.76648	0.583036	3.44482	0.792868	4.70415	0.982288	5.82067
0.459258	2.70677	0.325149	1.89193	0.460501	2.70569	0.6011	3.54995	0.717349	4.21246	0.930172	5.48211	0.468244	2.76359	0.584629	3.43531	0.793867	4.68418	0.983165	5.79388
0.461457	2.70488	0.327181	1.89349	0.462706	2.70384	0.602551	3.53905	0.71885	4.1983	0.931136	5.45782	0.470331	2.76072	0.586227	3.42595	0.79487	4.66446	0.984047	5.76741
0.463666	2.70306	0.329213	1.89503	0.464919	2.70207	0.604007	3.52829	0.720355	4.18432	0.932105	5.43383	0.472417	2.75789	0.58783	3.41671	0.795878	4.64498	0.984932	5.74125
0.465883	2.70132	0.331244	1.89656	0.467141	2.70036	0.605467	3.51767	0.721864	4.17051	0.933079	5.41012	0.474503	2.75508	0.589438	3.40761	0.796891	4.62574	0.985821	5.71539
0.468108	2.69964	0.333276	1.89806	0.469371	2.69871	0.606931	3.50719	0.723377	4.15688	0.934056	5.38669	0.476588	2.75229	0.591052	3.39863	0.797908	4.60673	0.986715	5.68984
0.470342	2.69802	0.335307	1.89955	0.471609	2.69713	0.608399	3.49685	0.724895	4.14342	0.935038	5.36353	0.478672	2.74953	0.592671	3.38978	0.79893	4.58795	0.987613	5.66458
0.472583	2.69646	0.337339	1.90103	0.473854	2.69561	0.609872	3.48664	0.726417	4.13012	0.936025	5.34065	0.480755	2.7468	0.594295	3.38106	0.799956	4.56939	0.988514	5.63962
0.474831	2.69497	0.33937	1.90248	0.476107	2.69414	0.611349	3.47657	0.727943	4.11699	0.937016	5.31803	0.482838	2.74409	0.595925	3.37245	0.800987	4.55106	0.98942	5.61494
0.477087	2.69352	0.341401	1.90392	0.478366	2.69273	0.61283	3.46663	0.729473	4.10402	0.938011	5.29568	0.48492	2.74141	0.597559	3.36396	0.802023	4.53295	0.990329	5.59054
0.479349	2.69213	0.343432	1.90535	0.480632	2.69137	0.614316	3.45681	0.731007	4.0912	0.93901	5.27358	0.487002	2.73875	0.599199	3.35559	0.803062	4.51505	0.991243	5.56642
0.481617	2.69079	0.345462	1.90676	0.482903	2.69006	0.615805	3.44712	0.732545	4.07855	0.940014	5.25174	0.489082	2.73612	0.600844	3.34734	0.804107	4.49736	0.992161	5.54257
0.483892	2.6895	0.347493	1.90816	0.485181	2.68879	0.617299	3.43755	0.734087	4.06604	0.941022	5.23015	0.491162	2.73351	0.602493	3.3392	0.805156	4.47989	0.993082	5.519
0.486172	2.68826	0.349523	1.90954	0.487465	2.68757	0.618796	3.4281	0.735633	4.05368	0.942035	5.2088	0.493241	2.73092	0.604148	3.33117	0.80621	4.46261	0.994008	5.49568
0.488458	2.68705	0.351554	1.9109	0.489754	2.68639	0.620298	3.41878	0.737183	4.04148	0.943051	5.1877	0.49532	2.72835	0.605808	3.32325	0.807268	4.44554	0.994937	5.47263
0.490749	2.68589	0.353584	1.91225	0.492048	2.68525	0.621804	3.40957	0.738737	4.02941	0.944072	5.16683	0.497397	2.72581	0.607473	3.31543	0.80833	4.42867	0.995871	5.44984
0.493046	2.68477	0.355614	1.91359	0.494347	2.68415	0.623313	3.40047	0.740295	4.0175	0.945097	5.1462	0.499474	2.72328	0.609142	3.30773	0.809397	4.412	0.996808	5.4273
0.495347	2.68368	0.357644	1.91491	0.496651	2.68308	0.624827	3.39149	0.741857	4.00572	0.946127	5.1258	0.50155	2.72078	0.610817	3.30012	0.810468	4.39551	0.997749	5.405
0.497652	2.68263	0.359673	1.91622	0.498959	2.68205	0.626345	3.38262	0.743422	3.99408	0.94716	5.10563	0.503625	2.7183	0.612496	3.29262	0.811544	4.37922	0.998695	5.38295
0.499962	2.68162	0.361703	1.91751	0.501271	2.68106	0.627866	3.37387	0.744992	3.98257	0.948198	5.08568	0.5057	2.71584	0.614181	3.28522	0.812624	4.36311	0.999644	5.36115
0.502277	2.68064	0.363732	1.91879	0.503588	2.68009	0.629392	3.36521	0.746565	3.9712	0.94924	5.06596	0.507773	2.7134	0.61587	3.27792	0.813709	4.34719	1.0006	5.33958
0.504595	2.67968	0.365761	1.92006	0.505908	2.67916	0.630921	3.35667	0.748141	3.95996	0.950287	5.04645	0.509846	2.71098	0.617564	3.27072	0.814798	4.33145		
0.506917	2.67876	0.36779	1.92131	0.508233	2.67825	0.632454	3.34823	0.749722	3.94886	0.951337	5.02715	0.511918	2.70857	0.619263	3.26361	0.815891	4.31588		
0.509243	2.67787	0.369819	1.92256	0.510561	2.67737	0.633991	3.33989	0.751306	3.93787	0.952392	5.00807	0.513989	2.70619	0.620966	3.2566	0.816989	4.3005		
0.511572	2.677	0.371847	1.92378	0.512892	2.67652	0.635532	3.33166	0.752894	3.92702	0.953451	4.98919	0.516059	2.70383	0.622675	3.24968	0.818091	4.28528		
0.513905	2.67616	0.373876	1.925	0.515226	2.6757	0.637076	3.32352	0.754485	3.91629	0.954514	4.97052	0.518128	2.70148	0.624387	3.24285	0.819198	4.27024		
0.516241	2.67534	0.375904	1.9262	0.517564	2.67489	0.638624	3.31548	0.75608	3.90568	0.955581	4.95206	0.520197	2.69915	0.626105	3.23611	0.820309	4.25536		
0.51858	2.67455	0.377932	1.92739	0.519905	2.67411	0.640176	3.30754	0.757678	3.89519	0.956652	4.93379	0.522264	2.69684	0.627828	3.22946	0.821424	4.24065		
0.520922	2.67378	0.37996	1.92857	0.522248	2.67336	0.641732	3.2997	0.75928	3.88482	0.957727	4.91571	0.52433	2.69455	0.629554	3.2229	0.822543	4.2261		
0.523267	2.67303	0.381987	1.92973	0.524594	2.67262	0.643291	3.29194	0.760886	3.87456	0.958807	4.89783	0.526396	2.69227	0.631286	3.21643	0.823667	4.21172		
0.525614	2.67231	0.384015	1.93089	0.526943	2.6719	0.644854	3.28428	0.762494	3.86442	0.95989	4.88014	0.528461	2.69002	0.633022	3.21003	0.824795	4.19749		
0.527964	2.6716	0.386042	1.93203	0.529295	2.67121	0.646421	3.27671	0.764107	3.85439	0.960978	4.86264	0.530524	2.68777	0.634763	3.20372	0.825928	4.18341		
0.530316	2.67091	0.388069	1.93316	0.531648	2.67053	0.647991	3.26923	0.765723	3.84447	0.96207	4.84532	0.532587	2.68555	0.636508	3.1975	0.827064	4.1695		
0.532671	2.67024	0.390096	1.93428	0.534004	2.66987	0.649565	3.26184	0.767342	3.83466	0.963166	4.82818	0.534649	2.68334	0.638258	3.19135	0.828205	4.15573		
0.535028	2.66959	0.392123	1.93539	0.536363	2.66923	0.651142	3.25453	0.768964	3.82496	0.964266	4.81122	0.53671	2.68114	0.640012	3.18528	0.829351	4.14211		
0.537387	2.66895	0.394149	1.93649	0.538723	2.6686	0.652723	3.24731	0.77059	3.81537	0.96537	4.79444	0.53877	2.67896	0.641771	3.17929	0.8305	4.12864		
0.539749	2.66833	0.396175	1.93757	0.541085	2.66799	0.654307	3.24017	0.772219	3.80588	0.966477	4.77784	0.540828	2.6768	0.643534	3.17338	0.831654	4.11531		
0.542112	2.66773	0.398201	1.93865	0.54345	2.66739	0.655895	3.23312	0.773851	3.79649	0.967589	4.7614	0.542886	2.67465	0.645301	3.16754	0.832812	4.10213		
0.544477	2.66714	0.400227	1.93971	0.545816	2.66681	0.657486	3.22615	0.775487	3.7872	0.968705	4.74514	0.544943	2.67252	0.647073	3.16178	0.833974	4.08909		
0.546844	2.66656	0.402252	1.94076	0.548183	2.66624	0.65908	3.21925	0.777125	3.77801	0.969825	4.72904	0.546999	2.6704	0.648849	3.15609	0.83514	4.07619		
0.549212	2.666	0.404278	1.94181	0.550553	2.66569	0.660678	3.21244	0.778767	3.76893	0.970949	4.71311	0.549054	2.66829	0.65063	3.15047	0.836311	4.06342		
0.551582	2.66545	0.406303	1.94284	0.552924	2.66514	0.66228	3.2057	0.780412	3.75993	0.972077	4.69734	0.551108	2.6662	0.652415	3.14493	0.837485	4.05079		
0.553954	2.66491	0.408328	1.94386	0.555296	2.66461	0.663885	3.19904	0.782061	3.75104	0.973209	4.68174	0.553161	2.66413	0.654204	3.13945	0.838664	4.0383		
0.556327	2.66439	0.410352	1.94487	0.55767	2.66409	0.665493	3.19246	0.783712	3.74223	0.974345	4.66629	0.555213	2.66206	0.655997	3.13405	0.839847	4.02593		
0.558702	2.66387	0.412377	1.94588	0.560046	2.66359	0.667104	3.18595	0.785366	3.73352	0.975485	4.65099	0.557263	2.66001	0.657795	3.12871	0.841034	4.0137		
0.561078	2.66337	0.414401	1.94687	0.562423	2.66309	0.668719	3.17952	0.787024	3.7249	0.976629	4.63585	0.559313	2.65798	0.659597	3.12344	0.842225	4.00159		
0.563455	2.66288	0.416425	1.94785	0.564801	2.6626	0.670337	3.17315	0.788684	3.71637	0.977776	4.62086	0.561362	2.65595	0.661403	3.11823	0.843421	3.98961		
0.565834	2.6624	0.418449	1.94882	0.56718	2.66213	0.671958	3.16686	0.790348	3.70793	0.978928	4.60602	0.56341	2.65394	0.663213	3.11309	0.84462	3.97775		
0.568213	2.66192	0.420472	1.94979	0.56956	2.66166	0.673583	3.16064	0.792014	3.69958	0.980083	4.59133	0.565456	2.65195	0.665027	3.10801	0.845824	3.96602		
0.570594	2.66146	0.422496	1.95074	0.571942	2.6612	0.675211	3.15449	0.793683	3.69131	0.981243	4.57679	0.567502	2.64996	0.666845	3.103	0.847032	3.9544		
0.572976	2.66101	0.424519	1.95169	0.574324	2.66075	0.676842	3.1484	0.795356	3.68313	0.982406	4.56239	0.569547	2.64799	0.668667	3.09805	0.848243	3.94291		
0.575359	2.66056	0.426541	1.95262	0.576708	2.66031	0.678476	3.14238	0.797031	3.67503	0.983573	4.54813	0.57159	2.64603	0.670494	3.09316	0.849459	3.93153		
0.577743	2.66012	0.428564	1.95355	0.579092	2.65988	0.680114	3.13643	0.798709	3.66702	0.984744	4.53401	0.573633	2.64408	0.672324	3.08833	0.850679	3.92028		
0.580128	2.6597	0.430586	1.95447	0.581478	2.65946	0.681754	3.13055	0.80039	3.65908	0.985919	4.52003	0.575674	2.64214	0.674158	3.08356	0.851903	3.90913		
0.582514	2.65927	0.432608	1.95538	0.583864	2.65904	0.683398	3.12473	0.802073	3.65123	0.987098	4.50619	0.577715	2.64022	0.675996	3.07884	0.853131	3.8981		
0.584901	2.65886	0.43463	1.95628	0.586251	2.65863	0.685045	3.11897	0.80376	3.64345	0.98828	4.49248	0.579754	2.6383	0.677839	3.07419	0.854363	3.88718		
0.587288	2.65845	0.436652	1.95717	0.588639	2.65823	0.686695	3.11328	0.805449	3.63576	0.989467	4.4789	0.581792	2.6364	0.679685	3.06959	0.855599	3.87637		
0.589676	2.65805	0.438673	1.95805	0.591028	2.65783	0.688348	3.10765	0.807141	3.62813	0.990657	4.46545	0.583829	2.63451	0.681535	3.06505	0.856839	3.86567		
0.592065	2.65766	0.440694	1.95893	0.593417	2.65744	0.690004	3.10207	0.808836	3.62059	0.991851	4.45214	0.585866	2.63263	0.683388	3.06056	0.858083	3.85508		
0.594455	2.65727	0.442715	1.95979	0.595807	2.65706	0.691663	3.09656	0.810534	3.61312	0.993049	4.43895	0.587901	2.63076	0.685246	3.05613	0.859331	3.8446		
0.596845	2.65689	0.444736	1.96065	0.598197	2.65668	0.693325	3.09111	0.812234	3.60572	0.99425	4.42589	0.589935	2.6289	0.687107	3.05175	0.860583	3.83422		
0.599236	2.65652	0.446756	1.9615	0.600589	2.65631	0.69499	3.08572	0.813937	3.5984	0.995455	4.41295	0.591968	2.62705	0.688973	3.04742	0.861839	3.82394		
0.601627	2.65615	0.448776	1.96234	0.60298	2.65594	0.696659	3.08038	0.815642	3.59115	0.996664	4.40014	0.594	2.62522	0.690842	3.04315	0.863099	3.81376		
0.604019	2.65579	0.450796	1.96318	0.605372	2.65558	0.69833	3.0751	0.81735	3.58397	0.997877	4.38745	0.596031	2.62339	0.692714	3.03892	0.864362	3.80369		
0.606411	2.65543	0.452816	1.964	0.607765	2.65523	0.700004	3.06988	0.819061	3.57685	0.999094	4.37487	0.59806	2.62157	0.69459	3.03475	0.86563	3.79371		
0.608804	2.65507	0.454835	1.96482	0.610158	2.65487	0.701682	3.06471	0.820774	3.56981	1.00031	4.36242	0.600089	2.61977	0.69647	3.03063	0.866902	3.78383		
0.611197	2.65472	0.456854	1.96563	0.612552	2.65453	0.703362	3.0596	0.82249	3.56284			0.602117	2.61797	0.698354	3.02655	0.868177	3.77405		
0.613591	2.65438	0.458873	1.96644	0.614946	2.65418	0.705045	3.05454	0.824208	3.55593			0.604143	2.61618	0.700241	3.02253	0.869457	3.76437		
0.615985	2.65404	0.460892	1.96723	0.61734	2.65385	0.706731	3.04954	0.825929	3.54909			0.606169	2.61441	0.702132	3.01855	0.87074	3.75478		
0.61838	2.6537	0.46291	1.96802	0.619734	2.65351	0.70842	3.04459	0.827652	3.54231			0.608193	2.61264	0.704026	3.01462	0.872027	3.74528		
0.620774	2.65337	0.464928	1.9688	0.622129	2.65318	0.710112	3.03969	0.829378	3.5356			0.610217	2.61088	0.705924	3.01073	0.873318	3.73588		
0.623169	2.65304	0.466946	1.96958	0.624524	2.65286	0.711807	3.03484	0.831106	3.52895			0.612239	2.60914	0.707825	3.00689	0.874613	3.72657		
0.625564	2.65272	0.468964	1.97034	0.62692	2.65253	0.713505	3.03004	0.832837	3.52236			0.614261	2.6074	0.70973	3.0031	0.875912	3.71734		
0.62796	2.65239	0.470981	1.97111	0.629315	2.65221	0.715205	3.02529	0.83457	3.51584			0.616281	2.60567	0.711638	2.99935	0.877215	3.70821		
0.630356	2.65208	0.472998	1.97186	0.631711	2.6519	0.716909	3.0206	0.836305	3.50937			0.6183	2.60395	0.713549	2.99564	0.878521	3.69916		
0.632751	2.65176	0.475015	1.9726	0.634107	2.65158	0.718615	3.01595	0.838043	3.50297			0.620319	2.60224	0.715464	2.99198	0.879832	3.6902		
0.635147	2.65145	0.477032	1.97334	0.636503	2.65127	0.720324	3.01134	0.839783	3.49663			0.622336	2.60054	0.717382	2.98836	0.881146	3.68133		
0.637543	2.65114	0.479048	1.97408	0.638899	2.65097	0.722036	3.00679	0.841525	3.49034			0.624352	2.59884	0.719304	2.98478	0.882464	3.67254		
0.63994	2.65083	0.481064	1.9748	0.641295	2.65066	0.723751	3.00228	0.84327	3.48411			0.626367	2.59716	0.721229	2.98124	0.883785	3.66383		
0.642336	2.65053	0.48308	1.97552	0.643692	2.65036	0.725469	2.99782	0.845017	3.47794			0.628381	2.59548	0.723157	2.97774	0.885111	3.65521		
0.644732	2.65023	0.485095	1.97623	0.646088	2.65006	0.727189	2.99341	0.846766	3.47183			0.630395	2.59382	0.725088	2.97428	0.88644	3.64667		
0.647128	2.64993	0.487111	1.97694	0.648484	2.64976	0.728912	2.98904	0.848518	3.46577			0.632407	2.59216	0.727023	2.97086	0.887773	3.63821		
0.649524	2.64963	0.489126	1.97764	0.65088	2.64947	0.730638	2.98471	0.850271	3.45977			0.634418	2.59051	0.72896	2.96748	0.88911	3.62983		
0.651921	2.64934	0.49114	1.97833	0.653276	2.64917	0.732367	2.98043	0.852027	3.45382			0.636428	2.58887	0.730901	2.96414	0.890451	3.62153		
0.654317	2.64905	0.493155	1.97902	0.655672	2.64888	0.734099	2.97619	0.853785	3.44792			0.638437	2.58724	0.732845	2.96084	0.891795	3.6133		
0.656713	2.64876	0.495169	1.9797	0.658068	2.64859	0.735833	2.972	0.855545	3.44208			0.640445	2.58561	0.734792	2.95757	0.893143	3.60515		
0.659109	2.64847	0.497183	1.98038	0.660464	2.64831	0.73757	2.96785	0.857308	3.43629			0.642452	2.584	0.736742	2.95434	0.894495	3.59708		
0.661505	2.64818	0.499197	1.98105	0.66286	2.64802	0.73931	2.96374	0.859072	3.43055			0.644459	2.58239	0.738695	2.95115	0.89585	3.58909		
0.6639	2.6479	0.50121	1.98171	0.665255	2.64773	0.741053	2.95967	0.860839	3.42486			0.646464	2.58079	0.740652	2.94799	0.897209	3.58116		
0.666296	2.64761	0.503223	1.98237	0.667651	2.64745	0.742799	2.95564	0.862607	3.41922			0.648468	2.5792	0.742611	2.94487	0.898572	3.57331		
0.668691	2.64733	0.505236	1.98302	0.670046	2.64717	0.744547	2.95165	0.864378	3.41364			0.650472	2.57761	0.744573	2.94178	0.899939	3.56554		
0.671086	2.64704	0.507249	1.98366	0.672441	2.64689	0.746298	2.94771	0.86615	3.4081			0.652474	2.57604	0.746538	2.93872	0.901309	3.55783		
0.67348	2.64676	0.509261	1.9843	0.674835	2.64661	0.748052	2.9438	0.867925	3.40261			0.654475	2.57447	0.748505	2.9357	0.902683	3.5502		
0.675875	2.64648	0.511273	1.98494	0.67723	2.64633	0.749808	2.93993	0.869702	3.39716			0.656476	2.57291	0.750476	2.93272	0.90406	3.54264		
0.678269	2.6462	0.513285	1.98556	0.679623	2.64605	0.751567	2.93611	0.871481	3.39177			0.658475	2.57135	0.75245	2.92976	0.905441	3.53514		
0.680663	2.64593	0.515296	1.98619	0.682017	2.64577	0.753329	2.93232	0.873261	3.38642			0.660474	2.56981	0.754426	2.92684	0.906826	3.52772		
0.683056	2.64565	0.517308	1.9868	0.68441	2.64549	0.755094	2.92857	0.875044	3.38111			0.662472	2.56827	0.756405	2.92395	0.908214	3.52036		
0.685449	2.64537	0.519319	1.98742	0.686803	2.64521	0.756861	2.92485	0.876828	3.37586			0.664469	2.56674	0.758387	2.92109	0.909606	3.51307		
0.687842	2.64509	0.521329	1.98802	0.689196	2.64494	0.758631	2.92117	0.878615	3.37064			0.666465	2.56522	0.760371	2.91826	0.911002	3.50584		
0.690234	2.64482	0.52334	1.98862	0.691587	2.64466	0.760404	2.91753	0.880403	3.36547			0.66846	2.56371	0.762358	2.91546	0.912401	3.49868		
0.692626	2.64454	0.52535	1.98922	0.693979	2.64438	0.76218	2.91393	0.882193	3.36035			0.670454	2.5622	0.764348	2.91269	0.913804	3.49159		
0.695017	2.64426	0.52736	1.98981	0.69637	2.64411	0.763958	2.91036	0.883985	3.35527			0.672447	2.5607	0.76634	2.90995	0.915211	3.48456		
0.697408	2.64399	0.52937	1.9904	0.69876	2.64383	0.76574	2.90683	0.885779	3.35023			0.674439	2.55921	0.768335	2.90724	0.916621	3.47759		
0.699798	2.64371	0.531379	1.99098	0.70115	2.64355	0.767523	2.90333	0.887575	3.34523			0.676431	2.55772	0.770333	2.90456	0.918034	3.47068		
0.702188	2.64343	0.533388	1.99155	0.703539	2.64328	0.76931	2.89987	0.889373	3.34028			0.678422	2.55624	0.772333	2.90191	0.919452	3.46384		
0.704577	2.64316	0.535397	1.99212	0.705928	2.643	0.7711	2.89645	0.891172	3.33537			0.680412	2.55477	0.774335	2.89928	0.920872	3.45706		
0.706965	2.64288	0.537405	1.99269	0.708316	2.64272	0.772892	2.89305	0.892973	3.33049			0.682401	2.55331	0.77634	2.89668	0.922297	3.45034		
0.709353	2.6426	0.539414	1.99325	0.710704	2.64244	0.774687	2.88969	0.894776	3.32566			0.684389	2.55185	0.778348	2.89411	0.923724	3.44368		
0.71174	2.64232	0.541422	1.99381	0.71309	2.64217	0.776484	2.88637	0.89658	3.32087			0.686376	2.5504	0.780358	2.89157	0.925156	3.43707		
0.714126	2.64204	0.54343	1.99436	0.715476	2.64189	0.778285	2.88308	0.898387	3.31612			0.688363	2.54896	0.78237	2.88905	0.926591	3.43053		
0.716512	2.64176	0.545437	1.9949	0.717861	2.64161	0.780088	2.87982	0.900195	3.3114			0.690349	2.54752	0.784385	2.88656	0.928029	3.42404		
0.718897	2.64148	0.547444	1.99544	0.720246	2.64132	0.781894	2.87659	0.902005	3.30673			0.692334	2.54609	0.786401	2.88409	0.929471	3.41762		
0.721281	2.6412	0.549451	1.99598	0.72263	2.64104	0.783703	2.8734	0.903816	3.30209			0.694318	2.54467	0.788421	2.88165	0.930916	3.41125		
0.723664	2.64092	0.551458	1.99651	0.725012	2.64076	0.785515	2.87023	0.905629	3.29749			0.696301	2.54326	0.790442	2.87924	0.932365	3.40493		
0.726047	2.64063	0.553464	1.99704	0.727394	2.64047	0.78733	2.8671	0.907444	3.29292			0.698284	2.54185	0.792466	2.87684	0.933818	3.39867		
0.728428	2.64035	0.55547	1.99756	0.729775	2.64019	0.789147	2.864	0.90926	3.2884			0.700266	2.54045	0.794492	2.87448	0.935274	3.39247		
0.730809	2.64006	0.557476	1.99808	0.732155	2.6399	0.790967	2.86094	0.911078	3.28391			0.702247	2.53905	0.79652	2.87213	0.936733	3.38631		
0.733189	2.63977	0.559482	1.9986	0.734534	2.63961	0.79279	2.8579	0.912898	3.27945			0.704228	2.53766	0.79855	2.86981	0.938196	3.38022		
0.735567	2.63948	0.561487	1.99911	0.736913	2.63932	0.794616	2.85489	0.914719	3.27503			0.706207	2.53628	0.800582	2.86751	0.939662	3.37417		
0.737945	2.63919	0.563492	1.99961	0.73929	2.63903	0.796445	2.85192	0.916541	3.27065			0.708186	2.53491	0.802617	2.86524	0.941132	3.36818		
0.740321	2.6389	0.565497	2.00011	0.741666	2.63873	0.798277	2.84897	0.918366	3.2663			0.710165	2.53354	0.804653	2.86299	0.942605	3.36224		
0.742697	2.6386	0.567502	2.00061	0.744041	2.63844	0.800112	2.84606	0.920192	3.26198			0.712142	2.53218	0.806692	2.86076	0.944082	3.35636		
0.745071	2.63831	0.569506	2.0011	0.746414	2.63814	0.80195	2.84317	0.922019	3.2577			0.714119	2.53082	0.808732	2.85855	0.945562	3.35052		
0.747445	2.63801	0.57151	2.00159	0.748787	2.63784	0.80379	2.84032	0.923848	3.25345			0.716096	2.52948	0.810775	2.85636	0.947045	3.34474		
0.749817	2.63771	0.573514	2.00208	0.751158	2.63753	0.805634	2.83749	0.925678	3.24924			0.718071	2.52814	0.812819	2.8542	0.948532	3.339		
0.752188	2.6374	0.575517	2.00256	0.753528	2.63723	0.807481	2.83469	0.92751	3.24505			0.720046	2.5268	0.814865	2.85205	0.950023	3.33331		
0.754557	2.63709	0.57752	2.00303	0.755897	2.63692	0.80933	2.83192	0.929343	3.2409			0.722021	2.52547	0.816914	2.84993	0.951516	3.32768		
0.756925	2.63679	0.579523	2.00351	0.758264	2.63661	0.811183	2.82918	0.931178	3.23679			0.723994	2.52415	0.818964	2.84782	0.953014	3.32209		
0.759292	2.63647	0.581526	2.00398	0.760631	2.6363	0.813039	2.82647	0.933014	3.2327			0.725967	2.52283	0.821015	2.84574	0.954514	3.31655		
0.761658	2.63616	0.583528	2.00444	0.762995	2.63598	0.814898	2.82379	0.934851	3.22864			0.72794	2.52152	0.823069	2.84367	0.956018	3.31105		
0.764021	2.63584	0.58553	2.0049	0.765358	2.63566	0.81676	2.82113	0.93669	3.22462			0.729912	2.52022	0.825125	2.84163	0.957525	3.30561		
0.766384	2.63552	0.587532	2.00536	0.76772	2.63534	0.818625	2.8185	0.938531	3.22062			0.731883	2.51892	0.827182	2.8396	0.959036	3.30021		
0.768745	2.6352	0.589533	2.00581	0.77008	2.63501	0.820494	2.8159	0.940372	3.21666			0.733854	2.51763	0.829241	2.83759	0.96055	3.29486		
0.771105	2.63487	0.591535	2.00626	0.772439	2.63468	0.822366	2.81333	0.942215	3.21272			0.735824	2.51635	0.831301	2.8356	0.962068	3.28955		
0.773462	2.63454	0.593536	2.00671	0.774796	2.63435	0.82424	2.81079	0.94406	3.20882			0.737793	2.51507	0.833363	2.83363	0.963588	3.28428		
0.775818	2.6342	0.595536	2.00715	0.777151	2.63401	0.826119	2.80827	0.945905	3.20494			0.739762	2.5138	0.835427	2.83168	0.965112	3.27907		
0.778173	2.63387	0.597537	2.00759	0.779504	2.63367	0.828	2.80578	0.947753	3.2011			0.74173	2.51253	0.837493	2.82974	0.96664	3.27389		
0.780526	2.63352	0.599537	2.00802	0.781856	2.63333	0.829885	2.80331	0.949601	3.19728			0.743698	2.51127	0.83956	2.82782	0.968171	3.26876		
0.782876	2.63318	0.601537	2.00845	0.784206	2.63298	0.831773	2.80088	0.951451	3.19349			0.745666	2.51002	0.841628	2.82592	0.969705	3.26368		
0.785225	2.63283	0.603537	2.00888	0.786554	2.63263	0.833665	2.79847	0.953302	3.18973			0.747632	2.50877	0.843698	2.82404	0.971243	3.25863		
0.787573	2.63248	0.605536	2.0093	0.7889	2.63227	0.83556	2.79608	0.955154	3.18599			0.749599	2.50753	0.84577	2.82217	0.972783	3.25363		
0.789918	2.63212	0.607535	2.00972	0.791244	2.63191	0.837458	2.79373	0.957007	3.18228			0.751565	2.50629	0.847843	2.82032	0.974328	3.24867		
0.792261	2.63175	0.609534	2.01014	0.793586	2.63155	0.83936	2.7914	0.958862	3.1786			0.75353	2.50507	0.849918	2.81849	0.975875	3.24376		
0.794602	2.63139	0.611532	2.01055	0.795925	2.63118	0.841266	2.78909	0.960718	3.17495			0.755495	2.50384	0.851993	2.81667	0.977426	3.23888		
0.796941	2.63101	0.613531	2.01096	0.798263	2.6308	0.843175	2.78681	0.962575	3.17132			0.757459	2.50262	0.854071	2.81487	0.97898	3.23405		
0.799277	2.63064	0.615529	2.01137	0.800598	2.63042	0.845088	2.78456	0.964433	3.16772			0.759423	2.50141	0.856149	2.81308	0.980537	3.22925		
0.801612	2.63025	0.617527	2.01177	0.802932	2.63004	0.847004	2.78233	0.966293	3.16415			0.761386	2.50021	0.858229	2.81131	0.982098	3.2245		
0.803944	2.62987	0.619524	2.01217	0.805262	2.62965	0.848925	2.78013	0.968154	3.1606			0.763349	2.49901	0.86031	2.80955	0.983662	3.21978		
0.806274	2.62947	0.621521	2.01257	0.807591	2.62925	0.850849	2.77796	0.970016	3.15707			0.765312	2.49781	0.862393	2.80781	0.985229	3.21511		
0.808601	2.62908	0.623518	2.01296	0.809917	2.62885	0.852777	2.77581	0.971879	3.15357			0.767274	2.49663	0.864477	2.80608	0.9868	3.21047		
0.810926	2.62867	0.625515	2.01335	0.81224	2.62844	0.854708	2.77369	0.973743	3.1501			0.769236	2.49544	0.866561	2.80436	0.988374	3.20588		
0.813248	2.62826	0.627511	2.01374	0.814561	2.62803	0.856644	2.77159	0.975608	3.14665			0.771197	2.49427	0.868648	2.80267	0.989951	3.20132		
0.815568	2.62785	0.629507	2.01412	0.816879	2.62761	0.858584	2.76951	0.977474	3.14322			0.773158	2.4931	0.870735	2.80098	0.991531	3.1968		
0.817885	2.62743	0.631503	2.0145	0.819195	2.62718	0.860527	2.76747	0.979342	3.13982			0.775118	2.49193	0.872823	2.79931	0.993115	3.19231		
0.8202	2.627	0.633499	2.01488	0.821508	2.62675	0.862475	2.76544	0.981211	3.13644			0.777078	2.49077	0.874913	2.79765	0.994702	3.18787		
0.822511	2.62656	0.635494	2.01526	0.823818	2.62631	0.864427	2.76345	0.98308	3.13309			0.779038	2.48962	0.877003	2.796	0.996292	3.18346		
0.82482	2.62612	0.637489	2.01563	0.826125	2.62587	0.866383	2.76148	0.984951	3.12976			0.780998	2.48847	0.879095	2.79437	0.997886	3.17908		
0.827126	2.62567	0.639484	2.016	0.828429	2.62542	0.868343	2.75953	0.986823	3.12645			0.782957	2.48733	0.881188	2.79275	0.999482	3.17475		
0.829428	2.62522	0.641479	2.01636	0.83073	2.62496	0.870308	2.75761	0.988696	3.12317			0.784915	2.48619	0.883281	2.79115	1.00108	3.17045		
0.831728	2.62476	0.643473	2.01672	0.833028	2.62449	0.872277	2.75571	0.99057	3.1199			0.786874	2.48506	0.885376	2.78955				
0.834025	2.62429	0.645467	2.01708	0.835322	2.62402	0.87425	2.75384	0.992445	3.11666			0.788831	2.48394	0.887472	2.78797				
0.836318	2.62381	0.647461	2.01744	0.837614	2.62354	0.876228	2.75199	0.994321	3.11344			0.790789	2.48282	0.889568	2.7864				
0.838608	2.62333	0.649455	2.01779	0.839902	2.62305	0.87821	2.75017	0.996198	3.11025			0.792746	2.4817	0.891666	2.78485				
0.840895	2.62284	0.651448	2.01815	0.842187	2.62256	0.880197	2.74837	0.998075	3.10707			0.794703	2.48059	0.893764	2.7833				
0.843178	2.62234	0.653441	2.01849	0.844469	2.62206	0.882188	2.7466	0.999954	3.10392			0.79666	2.47949	0.895863	2.78177				
0.845458	2.62184	0.655433	2.01884	0.846747	2.62155	0.884184	2.74485	1.00183	3.10079			0.798617	2.47839	0.897963	2.78024				
0.847735	2.62132	0.657426	2.01918	0.849021	2.62103	0.886185	2.74313					0.800573	2.4773	0.900064	2.77873				
0.850007	2.6208	0.659418	2.01952	0.851292	2.6205	0.88819	2.74143					0.802529	2.47622	0.902166	2.77723				
0.852277	2.62027	0.66141	2.01986	0.853559	2.61996	0.890201	2.73976					0.804484	2.47513	0.904268	2.77574				
0.854542	2.61973	0.663402	2.02019	0.855822	2.61942	0.892216	2.73811					0.80644	2.47406	0.906371	2.77426				
0.856804	2.61918	0.665393	2.02052	0.858082	2.61887	0.894236	2.73648					0.808395	2.47299	0.908475	2.7728				
0.859062	2.61863	0.667384	2.02085	0.860338	2.61831	0.896261	2.73488					0.81035	2.47192	0.910579	2.77134				
0.861316	2.61806	0.669375	2.02118	0.862589	2.61774	0.898291	2.73331					0.812304	2.47086	0.912684	2.76989				
0.863566	2.61749	0.671366	2.0215	0.864837	2.61716	0.900326	2.73175					0.814259	2.46981	0.91479	2.76845				
0.865812	2.61691	0.673356	2.02182	0.867081	2.61657	0.902366	2.73023					0.816213	2.46876	0.916896	2.76703				
0.868054	2.61631	0.675346	2.02214	0.869321	2.61598	0.904412	2.72872					0.818167	2.46771	0.919003	2.76561				
0.870292	2.61571	0.677336	2.02246	0.871556	2.61537	0.906462	2.72724					0.82012	2.46667	0.92111	2.7642				
0.872526	2.61511	0.679326	2.02277	0.873788	2.61476	0.908518	2.72579					0.822074	2.46564	0.923218	2.7628				
0.874755	2.61449	0.681315	2.02308	0.876015	2.61413	0.910579	2.72436					0.824027	2.46461	0.925327	2.76141				
0.876981	2.61386	0.683304	2.02339	0.878238	2.6135	0.912646	2.72295					0.82598	2.46359	0.927436	2.76003				
0.879202	2.61322	0.685293	2.0237	0.880456	2.61286	0.914717	2.72156					0.827933	2.46257	0.929545	2.75866				
0.881419	2.61258	0.687282	2.024	0.882671	2.61221	0.916794	2.7202					0.829886	2.46156	0.931655	2.7573				
0.883631	2.61192	0.68927	2.0243	0.884881	2.61155	0.918877	2.71887					0.831839	2.46055	0.933765	2.75594				
0.885839	2.61126	0.691258	2.0246	0.887086	2.61088	0.920965	2.71755					0.833791	2.45955	0.935876	2.7546				
0.888043	2.61058	0.693246	2.0249	0.889288	2.6102	0.923058	2.71626					0.835743	2.45855	0.937987	2.75326				
0.890242	2.6099	0.695233	2.02519	0.891484	2.60951	0.925156	2.71499					0.837696	2.45756	0.940098	2.75193				
0.892437	2.60921	0.697221	2.02548	0.893677	2.60881	0.92726	2.71375					0.839648	2.45657	0.94221	2.75061				
0.894627	2.60851	0.699208	2.02577	0.895864	2.60811	0.92937	2.71252					0.8416	2.45558	0.944322	2.7493				
0.896813	2.6078	0.701194	2.02606	0.898048	2.60739	0.931485	2.71132					0.843551	2.45461	0.946434	2.74799				
0.898995	2.60708	0.703181	2.02635	0.900227	2.60666	0.933605	2.71015					0.845503	2.45363	0.948546	2.7467				
0.901171	2.60635	0.705167	2.02663	0.902401	2.60593	0.935731	2.70899					0.847454	2.45267	0.950659	2.74541				
0.903344	2.60561	0.707153	2.02691	0.904571	2.60519	0.937863	2.70786					0.849406	2.4517	0.952772	2.74413				
0.905512	2.60486	0.709139	2.02719	0.906737	2.60444	0.939999	2.70675					0.851357	2.45074	0.954885	2.74285				
0.907675	2.60411	0.711125	2.02746	0.908898	2.60367	0.942141	2.70566					0.853308	2.44979	0.956998	2.74158				
0.909835	2.60334	0.71311	2.02774	0.911054	2.60291	0.944289	2.70459					0.855259	2.44884	0.959111	2.74033				
0.911989	2.60257	0.715095	2.02801	0.913206	2.60213	0.946442	2.70354					0.85721	2.4479	0.961225	2.73907				
0.914139	2.60179	0.71708	2.02828	0.915354	2.60134	0.9486	2.70251					0.859161	2.44696	0.963338	2.73783				
0.916285	2.601	0.719064	2.02854	0.917497	2.60055	0.950763	2.7015					0.861112	2.44602	0.965452	2.73659				
0.918427	2.6002	0.721048	2.02881	0.919636	2.59974	0.952932	2.70052					0.863063	2.44509	0.967566	2.73535				
0.920564	2.59939	0.723032	2.02907	0.921771	2.59893	0.955106	2.69955					0.865014	2.44417	0.969679	2.73413				
0.922697	2.59858	0.725016	2.02933	0.923902	2.59812	0.957285	2.6986					0.866964	2.44325	0.971793	2.73291				
0.924825	2.59776	0.727	2.02959	0.926028	2.59729	0.95947	2.69767					0.868915	2.44233	0.973907	2.7317				
0.92695	2.59693	0.728983	2.02985	0.92815	2.59646	0.961659	2.69677					0.870866	2.44142	0.97602	2.73049				
0.92907	2.59609	0.730966	2.03011	0.930268	2.59562	0.963853	2.69588					0.872816	2.44052	0.978134	2.72929				
0.931186	2.59525	0.732949	2.03036	0.932381	2.59477	0.966053	2.695					0.874767	2.43961	0.980248	2.72809				
0.933298	2.5944	0.734931	2.03061	0.934491	2.59391	0.968257	2.69415					0.876717	2.43872	0.982361	2.7269				
0.935406	2.59354	0.736914	2.03086	0.936597	2.59305	0.970466	2.69332					0.878667	2.43782	0.984474	2.72572				
0.93751	2.59268	0.738896	2.03111	0.938699	2.59219	0.97268	2.6925					0.880618	2.43694	0.986588	2.72454				
0.93961	2.59181	0.740877	2.03135	0.940797	2.59131	0.974899	2.6917					0.882568	2.43605	0.988701	2.72337				
0.941706	2.59093	0.742859	2.03159	0.942891	2.59043	0.977122	2.69091					0.884518	2.43517	0.990813	2.72221				
0.943799	2.59005	0.74484	2.03184	0.944981	2.58955	0.97935	2.69015					0.886469	2.4343	0.992926	2.72104				
0.945888	2.58916	0.746821	2.03208	0.947068	2.58866	0.981583	2.6894					0.888419	2.43343	0.995039	2.71989				
0.947973	2.58827	0.748802	2.03231	0.949151	2.58776	0.98382	2.68866					0.890369	2.43256	0.997151	2.71874				
0.950054	2.58737	0.750783	2.03255	0.951231	2.58686	0.986061	2.68794					0.89232	2.4317	0.999263	2.71759				
0.952133	2.58647	0.752763	2.03278	0.953307	2.58595	0.988307	2.68724					0.89427	2.43084	1.00137	2.71645				
0.954207	2.58556	0.754743	2.03301	0.955379	2.58504	0.990556	2.68655					0.896221	2.42999						
0.956278	2.58464	0.756723	2.03324	0.957449	2.58413	0.99281	2.68588					0.898171	2.42914						
0.958346	2.58373	0.758703	2.03347	0.959515	2.58321	0.995068	2.68522					0.900121	2.4283						
0.960411	2.58281	0.760682	2.0337	0.961578	2.58228	0.99733	2.68457					0.902072	2.42746						
0.962472	2.58188	0.762661	2.03392	0.963637	2.58136	0.999596	2.68394					0.904022	2.42662						
0.964531	2.58095	0.76464	2.03415	0.965694	2.58042	1.00187	2.68332					0.905973	2.42579						
0.966586	2.58002	0.766619	2.03437	0.967748	2.57949							0.907923	2.42497						
0.968639	2.57908	0.768597	2.03459	0.969799	2.57855							0.909874	2.42414						
0.970688	2.57815	0.770575	2.03481	0.971847	2.57761							0.911824	2.42333						
0.972735	2.5772	0.772553	2.03502	0.973892	2.57667							0.913775	2.42251						
0.974779	2.57626	0.774531	2.03524	0.975934	2.57573							0.915726	2.4217						
0.97682	2.57531	0.776508	2.03545	0.977974	2.57478							0.917676	2.4209						
0.978859	2.57437	0.778486	2.03566	0.980012	2.57383							0.919627	2.42009						
0.980896	2.57342	0.780463	2.03587	0.982047	2.57288							0.921578	2.4193						
0.982929	2.57246	0.782439	2.03608	0.984079	2.57192							0.923529	2.4185						
0.984961	2.57151	0.784416	2.03629	0.986109	2.57097							0.92548	2.41771						
0.98699	2.57055	0.786392	2.03649	0.988137	2.57001							0.927431	2.41693						
0.989017	2.5696	0.788368	2.03669	0.990163	2.56906							0.929382	2.41615						
0.991041	2.56864	0.790344	2.0369	0.992186	2.5681							0.931334	2.41537						
0.993064	2.56768	0.79232	2.0371	0.994207	2.56714							0.933285	2.41459						
0.995085	2.56672	0.794295	2.0373	0.996227	2.56618							0.935236	2.41382						
0.997103	2.56576	0.79627	2.03749	0.998244	2.56522							0.937188	2.41306						
0.99912	2.5648	0.798245	2.03769	1.00026	2.56426							0.93914	2.4123						
1.00113	2.56384	0.80022	2.03788									0.941091	2.41154						
		0.802194	2.03807									0.943043	2.41078						
		0.804169	2.03827									0.944995	2.41003						
		0.806143	2.03845									0.946947	2.40929						
		0.808116	2.03864									0.948899	2.40854						
		0.81009	2.03883									0.950851	2.40781						
		0.812063	2.03901									0.952804	2.40707						
		0.814036	2.0392									0.954756	2.40634						
		0.816009	2.03938									0.956709	2.40561						
		0.817982	2.03956									0.958662	2.40489						
		0.819954	2.03974									0.960614	2.40417						
		0.821926	2.03992									0.962567	2.40345						
		0.823898	2.0401									0.96452	2.40274						
		0.82587	2.04027									0.966474	2.40203						
		0.827842	2.04045									0.968427	2.40132						
		0.829813	2.04062									0.97038	2.40062						
		0.831784	2.04079									0.972334	2.39992						
		0.833755	2.04096									0.974288	2.39923						
		0.835726	2.04113									0.976242	2.39854						
		0.837696	2.0413									0.978196	2.39785						
		0.839666	2.04146									0.98015	2.39716						
		0.841636	2.04163									0.982104	2.39648						
		0.843606	2.04179									0.984059	2.39581						
		0.845575	2.04195									0.986014	2.39513						
		0.847545	2.04211									0.987968	2.39446						
		0.849514	2.04227									0.989923	2.39379						
		0.851483	2.04243									0.991879	2.39313						
		0.853452	2.04259									0.993834	2.39247						
		0.85542	2.04275									0.995789	2.39181						
		0.857388	2.0429									0.997745	2.39116						
		0.859356	2.04306									0.999701	2.39051						
		0.861324	2.04321									1.00166	2.38986						
		0.863292	2.04336																
		0.865259	2.04351																
		0.867227	2.04366																
		0.869194	2.04381																
		0.87116	2.04395																
		0.873127	2.0441																
		0.875093	2.04424																
		0.87706	2.04439																
		0.879025	2.04453																
		0.880991	2.04467																
		0.882957	2.04481																
		0.884922	2.04495																
		0.886887	2.04509																
		0.888852	2.04523																
		0.890817	2.04536																
		0.892781	2.0455																
		0.894746	2.04563																
		0.89671	2.04576																
		0.898674	2.04589																
		0.900638	2.04603																
		0.902601	2.04616																
		0.904565	2.04628																
		0.906528	2.04641																
		0.908491	2.04654																
		0.910453	2.04667																
		0.912416	2.04679																
		0.914378	2.04691																
		0.91634	2.04704																
		0.918302	2.04716																
		0.920264	2.04728																
		0.922226	2.0474																
		0.924187	2.04752																
		0.926148	2.04764																
		0.928109	2.04776																
		0.93007	2.04787																
		0.932031	2.04799																
		0.933991	2.0481																
		0.935952	2.04822																
		0.937912	2.04833																
		0.939872	2.04844																
		0.941831	2.04855																
		0.943791	2.04866																
		0.94575	2.04877																
		0.947709	2.04888																
		0.949668	2.04899																
		0.951627	2.0491																
		0.953585	2.0492																
		0.955544	2.04931																
		0.957502	2.04941																
		0.95946	2.04952																
		0.961418	2.04962																
		0.963376	2.04972																
		0.965333	2.04982																
		0.967291	2.04992																
		0.969248	2.05002																
		0.971205	2.05012																
		0.973161	2.05022																
		0.975118	2.05032																
		0.977074	2.05042																
		0.979031	2.05051																
		0.980987	2.05061																
		0.982943	2.0507																
		0.984899	2.0508																
		0.986854	2.05089																
		0.988809	2.05098																
		0.990765	2.05107																
		0.99272	2.05117																
		0.994675	2.05126																
		0.996629	2.05135																
		0.998584	2.05143																
		1.00054	2.05152																
