Sym0		Asym0		Sym1		Sym2		Sym3		Sym4		Asym1		Asym2		Asym3		Asym4	
417  Points		525  Points		417  Points		399  Points		347  Points		248  Points		450  Points		394  Points		338  Points		204  Points	
Freq (MHz)	Vph (m/ms)	Freq (MHz)	Vph (m/ms)	Freq (MHz)	Vph (m/ms)	Freq (MHz)	Vph (m/ms)	Freq (MHz)	Vph (m/ms)	Freq (MHz)	Vph (m/ms)	Freq (MHz)	Vph (m/ms)	Freq (MHz)	Vph (m/ms)	Freq (MHz)	Vph (m/ms)	Freq (MHz)	Vph (m/ms)
0.279512	381.352	0.000182603	0.0839419	0.279514	301.093	0.450183	8699.39	0.559017	5302.23	0.838526	2001.23	0.139755	870.603	0.419269	455.019	0.698771	3152.28	0.900367	2134.63
0.279527	167.92	0.000371959	0.119715	0.279531	150.284	0.450189	457.768	0.559024	539.013	0.838532	620.812	0.139801	127.997	0.419287	226.259	0.698776	605.858	0.900372	665.225
0.279553	107.672	0.000627341	0.155331	0.27956	100.139	0.450206	235.078	0.559043	283.948	0.838544	367.396	0.139915	69.1308	0.419317	150.572	0.698787	335.14	0.900383	394.009
0.279591	79.2482	0.000947899	0.190707	0.2796	75.0923	0.450234	158.152	0.559073	192.75	0.838561	260.902	0.140096	47.4002	0.419359	112.837	0.698804	231.641	0.900398	279.898
0.27964	62.7032	0.00133289	0.225832	0.279651	60.074	0.450272	119.166	0.559115	145.899	0.838585	202.274	0.140345	36.1034	0.419413	90.2311	0.698828	176.988	0.900419	217.043
0.2797	51.8787	0.00178111	0.260631	0.279714	50.0669	0.450322	95.6052	0.559169	117.376	0.838615	165.164	0.14066	29.1887	0.419479	75.1768	0.698858	143.204	0.900445	177.244
0.279772	44.2459	0.00229149	0.295085	0.279788	42.9222	0.450382	79.8278	0.559234	98.187	0.838651	139.562	0.141041	24.5259	0.419558	64.4323	0.698894	120.253	0.900476	149.781
0.279855	38.5751	0.0028626	0.32914	0.279874	37.566	0.450453	68.5244	0.559311	84.395	0.838693	120.834	0.141487	21.173	0.419648	56.3793	0.698937	103.645	0.900513	129.689
0.27995	34.1965	0.00349308	0.36277	0.279971	33.4019	0.450534	60.0288	0.559399	74.0044	0.838741	106.54	0.141995	18.649	0.419751	50.1195	0.698985	91.0703	0.900555	114.351
0.280056	30.7139	0.00418127	0.395931	0.28008	30.0722	0.450627	53.4108	0.559499	65.8956	0.838795	95.2715	0.142566	16.6826	0.419865	45.1143	0.69904	81.2183	0.900602	102.259
0.280173	27.8782	0.00492567	0.428606	0.2802	27.3491	0.45073	48.1102	0.55961	59.3916	0.838855	86.1605	0.143198	15.1093	0.419992	41.0213	0.699102	73.2917	0.900654	92.4816
0.280302	25.5247	0.00572449	0.46076	0.280331	25.0811	0.450845	43.7696	0.559733	54.0592	0.838921	78.6416	0.143888	13.8232	0.42013	37.6121	0.69917	66.7764	0.900712	84.4119
0.280443	23.5403	0.00657603	0.492377	0.280473	23.163	0.450969	40.1501	0.559868	49.6083	0.838994	72.3311	0.144636	12.7536	0.420281	34.7289	0.699244	61.3263	0.900775	77.6388
0.280594	21.8446	0.00747859	0.52344	0.280627	21.5199	0.451105	37.0859	0.560014	45.8372	0.839072	66.9595	0.14544	11.8509	0.420443	32.2587	0.699324	56.7002	0.900843	71.873
0.280757	20.3792	0.00843021	0.553923	0.280793	20.0967	0.451252	34.4586	0.560171	42.6013	0.839156	62.3318	0.146299	11.0796	0.420618	30.1191	0.69941	52.7244	0.900917	66.9054
0.280931	19.1001	0.00942918	0.583822	0.280969	18.8523	0.451409	32.181	0.560341	39.7945	0.839246	58.3035	0.147089	10.4942	0.420804	28.2479	0.699503	49.2709	0.900995	62.5812
0.281117	17.9742	0.0104737	0.613128	0.281157	17.7549	0.451577	30.1879	0.560521	37.3368	0.839342	54.7655	0.147793	10.0483	0.421003	26.5977	0.699603	46.2431	0.901079	58.783
0.281314	16.9755	0.011562	0.641826	0.281357	16.7802	0.451756	28.4292	0.560713	35.1671	0.839445	51.6333	0.148396	9.71142	0.421213	25.1317	0.699708	43.5671	0.901169	55.4204
0.281522	16.0838	0.0126922	0.669921	0.281567	15.9088	0.451945	26.8659	0.560917	33.2377	0.839553	48.841	0.148886	9.46321	0.421435	23.8208	0.69982	41.1848	0.901263	52.4225
0.281742	15.2829	0.0138627	0.697406	0.281789	15.1251	0.452145	25.4673	0.561132	31.5107	0.839667	46.3362	0.149253	9.29008	0.42167	22.6416	0.699938	39.0506	0.901363	49.7331
0.281973	14.5595	0.0150717	0.724278	0.282022	14.4167	0.452356	24.2087	0.561358	29.9562	0.839788	44.0766	0.149492	9.18318	0.421916	21.5755	0.700062	37.1276	0.901468	47.307
0.282214	13.9032	0.0163176	0.750545	0.282267	13.7732	0.452578	23.0703	0.561596	28.5494	0.839914	42.0281	0.149838	9.03457	0.422174	20.6069	0.700193	35.386	0.901578	45.1074
0.282468	13.305	0.0175987	0.776208	0.282522	13.1862	0.45281	22.0356	0.561845	27.2704	0.840047	40.1623	0.150221	8.87948	0.422444	19.7231	0.70033	33.8014	0.901694	43.1039
0.282732	12.7576	0.0189135	0.801274	0.282789	12.6486	0.453053	21.0911	0.562106	26.1027	0.840185	38.4559	0.15075	8.67862	0.422725	18.9135	0.700473	32.3534	0.901814	41.2715
0.283008	12.2548	0.0202605	0.825746	0.283067	12.1545	0.453307	20.2257	0.562378	25.0323	0.840329	36.8894	0.151434	8.43993	0.423019	18.1693	0.700623	31.0252	0.90194	39.5892
0.283295	11.7915	0.0216382	0.849632	0.283356	11.6989	0.453571	19.4298	0.562661	24.0476	0.84048	35.4463	0.152283	8.17203	0.423324	17.4827	0.700778	29.8025	0.902072	38.0394
0.283592	11.3632	0.0230452	0.872944	0.283656	11.2775	0.453846	18.6954	0.562956	23.1388	0.840636	34.1125	0.153309	7.88359	0.423641	16.8476	0.70094	28.6733	0.902208	36.6069
0.283901	10.9662	0.0244802	0.895689	0.283968	10.8866	0.454131	18.0157	0.563262	22.2975	0.840799	32.8761	0.154524	7.58275	0.42397	16.2583	0.701109	27.6272	0.90235	35.279
0.284222	10.5972	0.0259418	0.917877	0.28429	10.5231	0.454427	17.3849	0.563579	21.5165	0.840967	31.7269	0.155777	7.31005	0.42431	15.71	0.701283	26.6555	0.902497	34.0446
0.284553	10.2534	0.0274288	0.939519	0.28458	10.2265	0.454734	16.7979	0.563907	20.7895	0.841141	30.6559	0.157068	7.06185	0.424662	15.1988	0.701464	25.7505	0.902649	32.8942
0.284895	9.93226	0.0289401	0.960628	0.284834	9.98724	0.455051	16.2503	0.564247	20.1112	0.841322	29.6555	0.158393	6.83514	0.425026	14.7209	0.701651	24.9055	0.902807	31.8196
0.285248	9.63173	0.0304745	0.981215	0.285049	9.79813	0.455379	15.7384	0.564598	19.477	0.841508	28.7189	0.159753	6.62737	0.425401	14.2733	0.701844	24.1149	0.902969	30.8135
0.285613	9.34988	0.0320309	1.00129	0.285221	9.65389	0.455717	15.2587	0.56496	18.8825	0.841701	27.8402	0.161146	6.43635	0.425788	13.8532	0.702044	23.3735	0.903137	29.8696
0.285988	9.08507	0.0336082	1.02087	0.28535	9.55068	0.456066	14.8085	0.565333	18.3244	0.841899	27.0143	0.162569	6.26024	0.426187	13.4582	0.70225	22.6769	0.903311	28.9822
0.286374	8.83582	0.0352056	1.03996	0.285433	9.48584	0.456425	14.3849	0.565717	17.7993	0.842103	26.2365	0.164022	6.09743	0.426597	13.0862	0.702462	22.0212	0.903489	28.1466
0.286771	8.60083	0.036822	1.05857	0.285553	9.39427	0.456795	13.9859	0.566112	17.3045	0.842313	25.5028	0.165503	5.94653	0.427018	12.7351	0.70268	21.4029	0.903673	27.3582
0.287179	8.37893	0.0384567	1.07672	0.285685	9.29684	0.457175	13.6093	0.566518	16.8374	0.84253	24.8095	0.167011	5.80635	0.427452	12.4034	0.702904	20.819	0.903862	26.6133
0.287598	8.16908	0.0401087	1.09443	0.285867	9.16775	0.457566	13.2534	0.566935	16.3958	0.842752	24.1533	0.168545	5.67584	0.427896	12.0895	0.703135	20.2665	0.904056	25.9083
0.288028	7.97036	0.0417771	1.11169	0.286101	9.00988	0.457967	12.9164	0.567363	15.9776	0.84298	23.5315	0.170104	5.55407	0.428352	11.7919	0.703372	19.7432	0.904255	25.2401
0.288468	7.78191	0.0434614	1.12853	0.286389	8.82657	0.458378	12.597	0.567803	15.5812	0.843214	22.9414	0.171686	5.44024	0.428819	11.5096	0.703615	19.2467	0.90446	24.6059
0.288919	7.60299	0.0451607	1.14496	0.286735	8.62149	0.4588	12.2938	0.568253	15.2048	0.843454	22.3806	0.173291	5.33362	0.429298	11.2413	0.703864	18.775	0.90467	24.0032
0.289381	7.43291	0.0468743	1.16098	0.287142	8.39846	0.459232	12.0057	0.568713	14.847	0.8437	21.847	0.174918	5.2336	0.429788	10.9861	0.70412	18.3264	0.904885	23.4297
0.289854	7.27105	0.0486016	1.17661	0.28756	8.18756	0.459674	11.7315	0.569185	14.5065	0.843952	21.3388	0.176564	5.1396	0.430289	10.7431	0.704382	17.8991	0.905105	22.8834
0.290338	7.11684	0.050342	1.19186	0.287988	7.98787	0.460127	11.4703	0.569668	14.182	0.84421	20.854	0.178231	5.05111	0.430801	10.5114	0.70465	17.4918	0.905331	22.3623
0.290832	6.96978	0.0520949	1.20674	0.288428	7.79853	0.46059	11.2212	0.570161	13.8725	0.844474	20.3912	0.179916	4.9677	0.431257	10.3181	0.704924	17.1031	0.905562	21.8648
0.291336	6.82939	0.0538597	1.22126	0.288878	7.61878	0.461063	10.9834	0.570665	13.577	0.844744	19.9489	0.181619	4.88896	0.431652	10.1593	0.705204	16.7316	0.905798	21.3893
0.291852	6.69524	0.0556358	1.23544	0.289339	7.44792	0.461546	10.7562	0.57118	13.2946	0.845019	19.5258	0.183339	4.81451	0.431984	10.032	0.70549	16.3764	0.906039	20.9345
0.292377	6.56694	0.0574228	1.24927	0.289811	7.28534	0.46204	10.5389	0.571705	13.0243	0.845301	19.1207	0.185076	4.74404	0.432249	9.93374	0.705783	16.0364	0.906285	20.4989
0.292914	6.44414	0.0592203	1.26278	0.290294	7.13047	0.462478	10.3571	0.572241	12.7656	0.845588	18.7324	0.186828	4.67726	0.432445	9.86283	0.706082	15.7106	0.906537	20.0814
0.293461	6.32649	0.0610276	1.27597	0.290787	6.98278	0.462858	10.2074	0.572787	12.5176	0.845882	18.36	0.188595	4.61388	0.432572	9.81803	0.706387	15.3982	0.906793	19.6809
0.294018	6.2137	0.0628444	1.28885	0.29129	6.8418	0.463176	10.0871	0.573344	12.2798	0.846181	18.0024	0.190377	4.55367	0.432755	9.75441	0.706698	15.0983	0.907055	19.2964
0.294586	6.10548	0.0646704	1.30143	0.291805	6.70711	0.46343	9.99411	0.573912	12.0514	0.846486	17.6589	0.192172	4.49641	0.432955	9.68627	0.707015	14.8103	0.907323	18.9269
0.295164	6.00157	0.066505	1.31372	0.29233	6.5783	0.463619	9.92694	0.574489	11.8321	0.846797	17.3286	0.19398	4.44189	0.433229	9.59526	0.707339	14.5334	0.907595	18.5716
0.295752	5.90174	0.0683479	1.32572	0.292865	6.45501	0.46374	9.88447	0.575078	11.6212	0.847114	17.0107	0.195801	4.38993	0.43358	9.48283	0.707668	14.2671	0.907873	18.2298
0.296351	5.80575	0.0701988	1.33745	0.293411	6.33691	0.463915	9.8241	0.575676	11.4183	0.847437	16.7047	0.197634	4.34036	0.43401	9.35068	0.708004	14.0107	0.908155	17.9006
0.296961	5.7134	0.0720573	1.34892	0.293967	6.22369	0.464107	9.7594	0.576285	11.223	0.847765	16.4098	0.199479	4.29303	0.434522	9.20077	0.708346	13.7637	0.908443	17.5833
0.29758	5.62449	0.0739231	1.36012	0.294534	6.11507	0.46437	9.67287	0.576905	11.0348	0.8481	16.1254	0.201335	4.2478	0.435119	9.03518	0.708694	13.5256	0.908737	17.2774
0.29821	5.53886	0.0757958	1.37108	0.295111	6.01078	0.464706	9.56583	0.577534	10.8534	0.84844	15.8511	0.203201	4.20453	0.435728	8.87609	0.709048	13.2959	0.909035	16.9823
0.29885	5.45632	0.0776753	1.38179	0.295699	5.91059	0.465117	9.4398	0.578174	10.6785	0.848786	15.5863	0.205078	4.1631	0.436347	8.72315	0.709408	13.0742	0.909338	16.6973
0.2995	5.37673	0.0795612	1.39226	0.296297	5.81426	0.465606	9.29654	0.578739	10.531	0.849138	15.3304	0.206964	4.12341	0.436977	8.57601	0.709774	12.8602	0.909647	16.4221
0.30016	5.29994	0.0814532	1.4025	0.296905	5.72159	0.466177	9.13795	0.579228	10.4088	0.849496	15.0832	0.20886	4.08534	0.437618	8.43436	0.710146	12.6533	0.909961	16.156
0.30083	5.2258	0.0833512	1.41252	0.297524	5.63238	0.466757	8.98523	0.579636	10.3101	0.84986	14.8441	0.210765	4.04882	0.43827	8.29792	0.710525	12.4533	0.91028	15.8987
0.301511	5.1542	0.0852547	1.42232	0.298152	5.54646	0.467348	8.83809	0.579961	10.2335	0.850229	14.6127	0.212679	4.01374	0.438932	8.1664	0.710909	12.2599	0.910604	15.6497
0.302201	5.08502	0.0871637	1.43192	0.298791	5.46365	0.467948	8.69622	0.580202	10.178	0.850605	14.3888	0.214601	3.98003	0.439605	8.03956	0.7113	12.0726	0.910934	15.4086
0.302902	5.01814	0.0890779	1.4413	0.299441	5.3838	0.468559	8.55936	0.580356	10.1428	0.850986	14.1719	0.216531	3.94761	0.440289	7.91716	0.711696	11.8913	0.911268	15.1751
0.303613	4.95345	0.0909972	1.45049	0.3001	5.30676	0.469179	8.42726	0.58058	10.0927	0.851373	13.9617	0.218468	3.91642	0.440983	7.79898	0.712099	11.7156	0.911608	14.9488
0.304333	4.89086	0.0929211	1.45948	0.300769	5.23239	0.469808	8.29968	0.580824	10.0389	0.851765	13.7579	0.220414	3.88638	0.441687	7.68482	0.712507	11.5454	0.911953	14.7294
0.305064	4.83028	0.0948497	1.46829	0.301449	5.16057	0.470448	8.17639	0.581157	9.96673	0.852164	13.5603	0.222366	3.85743	0.442402	7.57447	0.712922	11.3803	0.912303	14.5166
0.305708	4.77905	0.0967827	1.47691	0.302139	5.09117	0.471097	8.05721	0.581583	9.87708	0.852568	13.3685	0.224325	3.82952	0.443128	7.46777	0.713343	11.2201	0.912658	14.3101
0.306264	4.73649	0.09872	1.48535	0.302838	5.02408	0.471756	7.94192	0.582102	9.77105	0.852978	13.1824	0.226291	3.8026	0.443864	7.36454	0.713769	11.0647	0.913018	14.1097
0.306727	4.70204	0.100661	1.49363	0.303548	4.95921	0.472424	7.83035	0.582719	9.64988	0.853394	13.0016	0.228263	3.77662	0.44461	7.26462	0.714202	10.9138	0.913384	13.915
0.307096	4.67526	0.102607	1.50173	0.304268	4.89643	0.473102	7.72234	0.583435	9.51494	0.853816	12.826	0.230242	3.75152	0.445366	7.16786	0.714584	10.7858	0.913754	13.7258
0.307369	4.65583	0.104556	1.50967	0.304997	4.83567	0.473789	7.61771	0.584162	9.3842	0.854243	12.6553	0.232226	3.72727	0.446133	7.07412	0.714913	10.6792	0.91413	13.5419
0.307545	4.64351	0.106508	1.51745	0.305737	4.77683	0.474486	7.51632	0.584898	9.25747	0.854676	12.4893	0.234216	3.70383	0.446909	6.98327	0.715188	10.5928	0.914511	13.3631
0.307798	4.62595	0.108464	1.52507	0.306486	4.71984	0.475193	7.41803	0.585643	9.13457	0.855115	12.3279	0.236212	3.68115	0.447696	6.89518	0.715407	10.5255	0.914897	13.1892
0.308074	4.60706	0.110424	1.53255	0.307246	4.6646	0.475909	7.3227	0.586399	9.01534	0.855559	12.1708	0.238213	3.6592	0.448493	6.80974	0.715569	10.4765	0.915288	13.0199
0.308451	4.58169	0.112386	1.53987	0.308015	4.61106	0.476634	7.23021	0.587164	8.89962	0.856009	12.0179	0.240219	3.63795	0.4493	6.72683	0.715672	10.4455	0.915684	12.8552
0.308932	4.55015	0.114099	1.54614	0.308794	4.55913	0.477368	7.14043	0.587938	8.78727	0.856465	11.8691	0.24223	3.61737	0.450117	6.64635	0.715822	10.4012	0.916085	12.6948
0.309518	4.51279	0.115561	1.5514	0.309583	4.50876	0.478112	7.05326	0.588722	8.67814	0.856927	11.7241	0.244246	3.59742	0.450944	6.5682	0.715986	10.3535	0.916492	12.5385
0.310213	4.47	0.116771	1.5557	0.310381	4.45987	0.478865	6.96859	0.589516	8.57211	0.857394	11.5828	0.246267	3.57808	0.451781	6.49228	0.71621	10.2894	0.916903	12.3863
0.311019	4.42225	0.117729	1.55905	0.31119	4.41242	0.479628	6.88632	0.590318	8.46905	0.857867	11.4452	0.248292	3.55932	0.452627	6.41851	0.716495	10.2096	0.91732	12.2379
0.311836	4.37589	0.118433	1.5615	0.312008	4.36633	0.480399	6.80635	0.591131	8.36884	0.858345	11.3109	0.250321	3.54112	0.453484	6.3468	0.716843	10.1148	0.917741	12.0932
0.312661	4.33085	0.118885	1.56306	0.312836	4.32157	0.48118	6.72859	0.591952	8.27136	0.85883	11.1801	0.252355	3.52345	0.45435	6.27707	0.717256	10.006	0.918168	11.9521
0.313497	4.2871	0.119533	1.56529	0.313673	4.27808	0.48197	6.65295	0.592783	8.17652	0.859256	11.0686	0.254392	3.50629	0.455225	6.20924	0.717734	9.88419	0.9186	11.8144
0.314342	4.24458	0.120239	1.5677	0.314521	4.23581	0.482769	6.57937	0.593623	8.08422	0.859623	10.9755	0.256434	3.48961	0.456111	6.14325	0.718219	9.76556	0.919037	11.6801
0.315197	4.20324	0.121199	1.57094	0.315378	4.19472	0.483576	6.50774	0.594472	7.99434	0.859929	10.8998	0.258479	3.47341	0.457006	6.07902	0.718709	9.64998	0.919479	11.5489
0.316062	4.16305	0.122413	1.57501	0.316244	4.15476	0.484393	6.43801	0.59533	7.90682	0.860172	10.8407	0.260528	3.45765	0.45791	6.01649	0.719206	9.53734	0.919926	11.4209
0.316936	4.12396	0.123884	1.57986	0.317121	4.1159	0.485219	6.37011	0.596197	7.82155	0.860352	10.7976	0.262581	3.44233	0.458824	5.95559	0.719708	9.42752	0.920378	11.2959
0.31782	4.08593	0.125611	1.58546	0.318007	4.07808	0.486054	6.30396	0.597073	7.73846	0.860468	10.7703	0.264637	3.42742	0.459747	5.89627	0.720216	9.32043	0.920776	11.1892
0.318714	4.04892	0.127594	1.59178	0.318903	4.04128	0.486897	6.2395	0.597958	7.65746	0.860634	10.7313	0.266696	3.4129	0.46068	5.83847	0.72073	9.21597	0.921119	11.1001
0.319617	4.0129	0.12958	1.59798	0.319808	4.00547	0.487749	6.17668	0.598852	7.57849	0.860816	10.6892	0.268758	3.39877	0.461622	5.78213	0.72125	9.11403	0.921404	11.0274
0.32053	3.97783	0.131568	1.60407	0.320723	3.97059	0.488611	6.11543	0.599755	7.50147	0.861064	10.6325	0.270824	3.38501	0.462574	5.72721	0.721776	9.01455	0.921631	10.9707
0.321453	3.94368	0.133559	1.61004	0.321648	3.93663	0.48948	6.0557	0.600666	7.42633	0.86138	10.5618	0.272892	3.3716	0.463534	5.67366	0.722308	8.91742	0.921798	10.9294
0.322385	3.91042	0.135551	1.61591	0.322582	3.90356	0.490359	5.99744	0.601587	7.35301	0.861764	10.4776	0.274964	3.35854	0.464504	5.62142	0.722845	8.82258	0.921906	10.9032
0.323327	3.87802	0.137545	1.62168	0.323526	3.87133	0.491246	5.94059	0.602516	7.28144	0.862219	10.3806	0.277038	3.3458	0.465483	5.57046	0.723389	8.72994	0.922061	10.8657
0.324279	3.84645	0.139541	1.62733	0.32448	3.83994	0.492142	5.88512	0.603453	7.21157	0.862747	10.2718	0.279115	3.33337	0.466471	5.52073	0.723938	8.63942	0.92223	10.8252
0.32524	3.81569	0.141539	1.63289	0.325443	3.80934	0.493046	5.83097	0.6044	7.14334	0.86328	10.1654	0.281195	3.32125	0.467468	5.47219	0.724493	8.55097	0.922462	10.7707
0.326211	3.7857	0.143539	1.63835	0.326416	3.77951	0.493959	5.77809	0.605354	7.0767	0.863819	10.0613	0.283277	3.30943	0.468474	5.4248	0.725054	8.46451	0.922756	10.7026
0.327192	3.75647	0.145541	1.64372	0.327399	3.75043	0.49488	5.72646	0.606317	7.01159	0.864363	9.95957	0.285362	3.29789	0.469489	5.37852	0.725621	8.37998	0.923114	10.6215
0.328183	3.72796	0.147544	1.64899	0.328392	3.72207	0.49581	5.67603	0.607289	6.94797	0.864913	9.86006	0.287449	3.28662	0.470513	5.33333	0.726193	8.29731	0.923538	10.5281
0.329183	3.70016	0.149548	1.65417	0.329394	3.69442	0.496748	5.62675	0.608269	6.88578	0.865468	9.76269	0.289538	3.27561	0.471545	5.28917	0.726771	8.21645	0.924029	10.4229
0.330193	3.67305	0.151555	1.65926	0.330406	3.66745	0.497694	5.5786	0.609257	6.82499	0.866029	9.66742	0.29163	3.26486	0.472587	5.24603	0.727355	8.13734	0.924524	10.3201
0.331213	3.6466	0.153562	1.66427	0.331428	3.64114	0.498649	5.53153	0.610254	6.76554	0.866595	9.57417	0.293724	3.25436	0.473637	5.20387	0.727945	8.05993	0.925025	10.2194
0.332243	3.6208	0.155571	1.66918	0.33246	3.61547	0.499612	5.48552	0.611259	6.7074	0.867167	9.48287	0.29582	3.24409	0.474696	5.16265	0.72854	7.98415	0.925531	10.1208
0.333282	3.59562	0.157582	1.67402	0.333502	3.59041	0.500583	5.44052	0.612272	6.65052	0.867744	9.39348	0.297918	3.23406	0.475763	5.12236	0.729141	7.90998	0.926042	10.0243
0.334332	3.57105	0.159593	1.67877	0.334553	3.56597	0.501562	5.39652	0.613293	6.59487	0.868327	9.30593	0.300017	3.22424	0.476839	5.08295	0.729748	7.83735	0.926558	9.9297
0.335391	3.54706	0.161606	1.68345	0.335615	3.54211	0.502549	5.35348	0.614322	6.54041	0.868916	9.22018	0.302119	3.21464	0.477924	5.04442	0.730361	7.76622	0.927079	9.83707
0.336461	3.52366	0.16362	1.68805	0.336687	3.51882	0.503545	5.31137	0.615359	6.4871	0.86951	9.13615	0.304223	3.20525	0.479017	5.00672	0.730979	7.69654	0.927605	9.74629
0.337541	3.50081	0.165635	1.69257	0.337769	3.49608	0.504548	5.27016	0.616404	6.43492	0.870109	9.05382	0.306328	3.19606	0.480118	4.96983	0.731603	7.62828	0.928136	9.65733
0.338631	3.4785	0.167652	1.69702	0.338861	3.47389	0.50556	5.22983	0.617457	6.38382	0.870714	8.97312	0.308436	3.18707	0.481228	4.93374	0.732233	7.56139	0.928672	9.57013
0.339731	3.45671	0.169669	1.70139	0.339963	3.45221	0.506579	5.19035	0.618518	6.33377	0.871324	8.89401	0.310545	3.17826	0.482346	4.89841	0.732868	7.49583	0.929213	9.48464
0.340841	3.43545	0.171688	1.7057	0.341075	3.43105	0.507606	5.15169	0.619586	6.28476	0.871939	8.81645	0.312655	3.16964	0.483473	4.86383	0.733509	7.43157	0.929758	9.40081
0.341962	3.41468	0.173707	1.70993	0.342198	3.41038	0.508641	5.11384	0.620663	6.23673	0.87256	8.74039	0.314767	3.16119	0.484607	4.82998	0.734156	7.36856	0.930309	9.31859
0.343093	3.39439	0.175728	1.7141	0.343332	3.3902	0.509684	5.07677	0.621747	6.18968	0.873187	8.66579	0.316881	3.15291	0.48575	4.79682	0.734808	7.30678	0.930865	9.23795
0.344235	3.37459	0.177749	1.7182	0.344476	3.37049	0.510734	5.04046	0.622838	6.14356	0.873819	8.59261	0.318996	3.1448	0.486901	4.76435	0.735466	7.24619	0.931426	9.15883
0.345388	3.35524	0.179771	1.72224	0.345631	3.35124	0.511793	5.00488	0.623938	6.09836	0.874456	8.52081	0.321112	3.13686	0.48806	4.73255	0.73613	7.18676	0.931991	9.08119
0.346551	3.33634	0.181794	1.72621	0.346797	3.33244	0.512859	4.97002	0.625045	6.05405	0.875098	8.45035	0.32323	3.12907	0.489227	4.70139	0.736799	7.12845	0.932561	9.005
0.347726	3.31789	0.183818	1.73012	0.347973	3.31408	0.513932	4.93586	0.626159	6.0106	0.875746	8.3812	0.325349	3.12143	0.490403	4.67087	0.737474	7.07124	0.933137	8.93021
0.348911	3.29987	0.185843	1.73397	0.349161	3.29614	0.515013	4.90237	0.627281	5.968	0.8764	8.31333	0.327469	3.11393	0.491586	4.64095	0.738154	7.01509	0.933717	8.8568
0.350108	3.28226	0.187868	1.73776	0.35036	3.27862	0.516101	4.86955	0.62841	5.92621	0.877058	8.24669	0.329591	3.10659	0.492777	4.61163	0.73884	6.95998	0.934302	8.78471
0.351316	3.26507	0.189894	1.7415	0.35157	3.26151	0.517197	4.83737	0.629547	5.88522	0.877722	8.18127	0.331714	3.09938	0.493975	4.58289	0.739531	6.90588	0.934892	8.71392
0.352535	3.24827	0.191921	1.74517	0.352792	3.2448	0.518301	4.80581	0.63069	5.845	0.878392	8.11701	0.333838	3.0923	0.495182	4.55472	0.740228	6.85277	0.935487	8.6444
0.353766	3.23187	0.193948	1.74879	0.354026	3.22848	0.519412	4.77486	0.631842	5.80554	0.879066	8.05391	0.335963	3.08536	0.496396	4.52709	0.740931	6.80062	0.936087	8.57611
0.355009	3.21585	0.195976	1.75236	0.355271	3.21254	0.52053	4.7445	0.633	5.76682	0.879746	7.99192	0.338089	3.07854	0.497619	4.5	0.741639	6.7494	0.936692	8.50902
0.356264	3.20021	0.198005	1.75587	0.356528	3.19698	0.521655	4.71472	0.634165	5.72881	0.880431	7.93101	0.340216	3.07185	0.498848	4.47343	0.742352	6.69909	0.937302	8.44309
0.357531	3.18494	0.200034	1.75933	0.357798	3.18178	0.522788	4.6855	0.635338	5.6915	0.881122	7.87117	0.342344	3.06528	0.500086	4.44737	0.743071	6.64967	0.937916	8.37831
0.35881	3.17002	0.202064	1.76274	0.35908	3.16694	0.523927	4.65683	0.636517	5.65487	0.881818	7.81237	0.344473	3.05882	0.501331	4.4218	0.743796	6.60111	0.938535	8.31465
0.360102	3.15546	0.204094	1.76609	0.360375	3.15246	0.525074	4.62869	0.637704	5.6189	0.882519	7.75457	0.346603	3.05248	0.502583	4.39672	0.744526	6.55341	0.939159	8.25206
0.361407	3.14125	0.206125	1.7694	0.361683	3.13832	0.526228	4.60107	0.638898	5.58358	0.883225	7.69775	0.348733	3.04625	0.503843	4.37211	0.745261	6.50652	0.939788	8.19054
0.362725	3.12738	0.208157	1.77266	0.363003	3.12452	0.527389	4.57396	0.640098	5.54889	0.883936	7.6419	0.350865	3.04013	0.505111	4.34795	0.746002	6.46044	0.940422	8.13004
0.364057	3.11385	0.210188	1.77587	0.364338	3.11105	0.528557	4.54735	0.641305	5.51481	0.884653	7.58699	0.352997	3.03411	0.506386	4.32425	0.746748	6.41514	0.941061	8.07056
0.365402	3.10064	0.212221	1.77904	0.365685	3.09792	0.529732	4.52122	0.642519	5.48134	0.885375	7.53299	0.35513	3.02819	0.507668	4.30098	0.7475	6.37061	0.941704	8.01206
0.36676	3.08776	0.214253	1.78216	0.367047	3.0851	0.530914	4.49556	0.64374	5.44845	0.886102	7.47988	0.357264	3.02238	0.508957	4.27813	0.748257	6.32682	0.942353	7.95452
0.368133	3.0752	0.216286	1.78524	0.368423	3.0726	0.532103	4.47036	0.644968	5.41613	0.886834	7.42764	0.359398	3.01666	0.510254	4.25571	0.74902	6.28377	0.943006	7.89792
0.369521	3.06295	0.21832	1.78827	0.369814	3.06042	0.533298	4.4456	0.646202	5.38436	0.887572	7.37626	0.361534	3.01103	0.511558	4.23368	0.749787	6.24142	0.943663	7.84224
0.370923	3.05101	0.220354	1.79126	0.371219	3.04854	0.534501	4.42129	0.647443	5.35314	0.888314	7.32571	0.363669	3.0055	0.512869	4.21206	0.750561	6.19978	0.944326	7.78745
0.37234	3.03937	0.222388	1.7942	0.372639	3.03697	0.53571	4.3974	0.64869	5.32246	0.889062	7.27597	0.365806	3.00005	0.514188	4.19082	0.751339	6.15881	0.944994	7.73353
0.373773	3.02804	0.224422	1.79711	0.374075	3.0257	0.536926	4.37393	0.649944	5.29229	0.889815	7.22703	0.367942	2.99469	0.515513	4.16995	0.752123	6.11851	0.945666	7.68047
0.375221	3.017	0.226457	1.79997	0.375526	3.01472	0.538148	4.35086	0.651205	5.26263	0.890573	7.17886	0.37008	2.98942	0.516846	4.14946	0.752913	6.07886	0.946343	7.62825
0.376685	3.00625	0.228492	1.8028	0.376994	3.00403	0.539377	4.32819	0.652471	5.23346	0.891336	7.13145	0.372218	2.98423	0.518185	4.12933	0.753707	6.03984	0.947024	7.57684
0.378166	2.99579	0.230527	1.80558	0.378478	2.99363	0.540612	4.30592	0.653745	5.20478	0.892104	7.08479	0.374356	2.97912	0.519532	4.10955	0.754507	6.00144	0.947711	7.52623
0.379663	2.98562	0.232563	1.80833	0.379979	2.98352	0.541854	4.28402	0.655024	5.17657	0.892878	7.03885	0.376495	2.97409	0.520885	4.09011	0.755313	5.96365	0.948402	7.4764
0.381177	2.97572	0.234599	1.81104	0.381497	2.97368	0.543103	4.26249	0.65631	5.14882	0.893656	6.99361	0.378634	2.96914	0.522246	4.07101	0.756123	5.92646	0.949098	7.42733
0.382709	2.96611	0.236635	1.81372	0.383032	2.96413	0.544358	4.24132	0.657602	5.12152	0.89444	6.94908	0.380773	2.96426	0.523613	4.05223	0.756939	5.88984	0.949798	7.37901
0.384258	2.95677	0.238671	1.81635	0.384586	2.95484	0.545619	4.22051	0.6589	5.09466	0.895228	6.90522	0.382913	2.95945	0.524987	4.03378	0.75776	5.85379	0.950504	7.33143
0.385826	2.9477	0.240708	1.81895	0.386157	2.94583	0.546886	4.20005	0.660205	5.06824	0.896022	6.86203	0.385053	2.95471	0.526367	4.01564	0.758587	5.8183	0.951214	7.28455
0.387412	2.93889	0.242745	1.82152	0.387747	2.93708	0.54816	4.17992	0.661515	5.04223	0.89682	6.81949	0.387194	2.95005	0.527755	3.99781	0.759418	5.78335	0.951928	7.23838
0.389016	2.93035	0.244781	1.82405	0.389355	2.92859	0.54944	4.16013	0.662832	5.01664	0.897624	6.77758	0.389334	2.94545	0.529149	3.98028	0.760255	5.74893	0.952648	7.19289
0.39064	2.92207	0.246819	1.82655	0.390983	2.92037	0.550726	4.14066	0.664155	4.99146	0.898433	6.7363	0.391475	2.94092	0.53055	3.96305	0.761097	5.71503	0.953372	7.14807
0.392283	2.91405	0.248856	1.82902	0.39263	2.9124	0.552019	4.1215	0.665483	4.96666	0.899246	6.69562	0.393616	2.93645	0.531957	3.9461	0.761944	5.68165	0.954101	7.10391
0.393945	2.90629	0.250893	1.83145	0.394296	2.90469	0.553317	4.10266	0.666818	4.94226	0.900065	6.65555	0.395758	2.93204	0.533371	3.92943	0.762797	5.64876	0.954834	7.0604
0.395627	2.89877	0.252931	1.83385	0.395982	2.89723	0.554622	4.08412	0.668158	4.91823	0.900888	6.61606	0.397899	2.9277	0.534792	3.91303	0.763654	5.61636	0.955572	7.01751
0.397329	2.8915	0.254968	1.83622	0.397688	2.89001	0.555932	4.06587	0.669504	4.89457	0.901717	6.57714	0.400041	2.92342	0.536219	3.89691	0.764517	5.58444	0.956315	6.97523
0.399051	2.88447	0.257006	1.83856	0.399414	2.88303	0.557249	4.04792	0.670856	4.87128	0.90255	6.53878	0.402182	2.91919	0.537653	3.88105	0.765385	5.55299	0.957062	6.93357
0.400793	2.87769	0.259044	1.84087	0.401161	2.87629	0.558571	4.03025	0.672214	4.84833	0.903389	6.50097	0.404324	2.91502	0.539093	3.86545	0.766258	5.522	0.957814	6.89249
0.402555	2.87113	0.261082	1.84315	0.402927	2.86979	0.5599	4.01286	0.673578	4.82574	0.904232	6.46371	0.406466	2.91091	0.540539	3.8501	0.767136	5.49145	0.958571	6.852
0.404338	2.86481	0.26312	1.8454	0.404714	2.86352	0.561234	3.99574	0.674947	4.80349	0.90508	6.42697	0.408608	2.90685	0.541992	3.83499	0.76802	5.46135	0.959332	6.81207
0.406141	2.85872	0.265158	1.84762	0.406522	2.85747	0.562574	3.97888	0.676322	4.78157	0.905933	6.39074	0.410749	2.90285	0.543451	3.82013	0.768908	5.43168	0.960097	6.7727
0.407965	2.85284	0.267196	1.84981	0.40835	2.85164	0.56392	3.96229	0.677702	4.75997	0.906792	6.35503	0.412891	2.8989	0.544916	3.80551	0.769802	5.40244	0.960868	6.73388
0.409809	2.84719	0.269234	1.85197	0.410198	2.84603	0.565271	3.94595	0.679088	4.7387	0.907654	6.31981	0.415033	2.895	0.546388	3.79112	0.7707	5.37361	0.961643	6.69559
0.411673	2.84174	0.271272	1.85411	0.412066	2.84063	0.566628	3.92987	0.680479	4.71773	0.908522	6.28508	0.417175	2.89115	0.547865	3.77696	0.771604	5.34519	0.962422	6.65783
0.413557	2.83651	0.273311	1.85622	0.413954	2.83543	0.567991	3.91403	0.681876	4.69708	0.909395	6.25083	0.419316	2.88735	0.549349	3.76302	0.772513	5.31716	0.963206	6.62058
0.41546	2.83147	0.275349	1.85831	0.415862	2.83044	0.569359	3.89843	0.683279	4.67672	0.910272	6.21704	0.421457	2.88359	0.550839	3.7493	0.773426	5.28953	0.963995	6.58384
0.417384	2.82663	0.277387	1.86037	0.417789	2.82564	0.570733	3.88306	0.684686	4.65666	0.911154	6.18372	0.423599	2.87988	0.552336	3.73579	0.774345	5.26229	0.964788	6.54759
0.419326	2.82198	0.279426	1.8624	0.419736	2.82103	0.572112	3.86793	0.686099	4.63689	0.912042	6.15085	0.42574	2.87622	0.553838	3.72249	0.775269	5.23541	0.965585	6.51183
0.421288	2.81752	0.281464	1.86441	0.421702	2.8166	0.573497	3.85302	0.687518	4.6174	0.912933	6.11842	0.427881	2.8726	0.555346	3.7094	0.776198	5.20891	0.966388	6.47654
0.423268	2.81323	0.283502	1.86639	0.423686	2.81235	0.574888	3.83834	0.688941	4.59819	0.91383	6.08642	0.430021	2.86903	0.556861	3.69651	0.777131	5.18277	0.967194	6.44173
0.425267	2.80912	0.285541	1.86835	0.425688	2.80828	0.576283	3.82387	0.69037	4.57925	0.914732	6.05485	0.432162	2.8655	0.558381	3.68382	0.77807	5.15699	0.968005	6.40737
0.427283	2.80517	0.287579	1.87028	0.427708	2.80436	0.577684	3.80962	0.691804	4.56058	0.915638	6.0237	0.434302	2.86201	0.559907	3.67132	0.779014	5.13156	0.968821	6.37346
0.429317	2.80139	0.289617	1.8722	0.429745	2.80061	0.579091	3.79557	0.693243	4.54217	0.916549	5.99296	0.436442	2.85856	0.561439	3.65902	0.779962	5.10647	0.969641	6.34
0.431367	2.79776	0.291655	1.87408	0.431799	2.79702	0.580502	3.78173	0.694687	4.52401	0.917464	5.96263	0.438581	2.85515	0.562977	3.6469	0.780916	5.08171	0.970466	6.30697
0.433434	2.79428	0.293694	1.87595	0.43387	2.79357	0.581919	3.76809	0.696137	4.50611	0.918385	5.93269	0.440721	2.85178	0.564521	3.63496	0.781874	5.05729	0.971295	6.27437
0.435517	2.79095	0.295732	1.87779	0.435956	2.79026	0.583341	3.75464	0.697591	4.48845	0.91931	5.90313	0.44286	2.84845	0.566071	3.6232	0.782838	5.03319	0.972128	6.24218
0.437616	2.78775	0.29777	1.87962	0.438058	2.78709	0.584769	3.74139	0.69905	4.47104	0.92024	5.87396	0.444998	2.84515	0.567626	3.61162	0.783806	5.0094	0.972966	6.21041
0.439729	2.78468	0.299808	1.88142	0.440174	2.78406	0.586201	3.72833	0.700515	4.45387	0.921174	5.84516	0.447136	2.84189	0.569188	3.60021	0.784779	4.98594	0.973809	6.17904
0.441857	2.78175	0.301846	1.88319	0.442305	2.78115	0.587638	3.71546	0.701984	4.43692	0.922113	5.81674	0.449274	2.83867	0.570755	3.58897	0.785757	4.96277	0.974655	6.14807
0.443999	2.77893	0.303884	1.88495	0.44445	2.77835	0.589081	3.70277	0.703458	4.42021	0.923057	5.78867	0.451412	2.83548	0.572327	3.5779	0.78674	4.93991	0.975507	6.11748
0.446154	2.77623	0.305922	1.88669	0.446608	2.77568	0.590528	3.69025	0.704937	4.40372	0.924006	5.76096	0.453548	2.83233	0.573906	3.56699	0.787728	4.91735	0.976362	6.08728
0.448322	2.77364	0.307959	1.88841	0.448778	2.77311	0.591981	3.67792	0.70642	4.38745	0.924959	5.73359	0.455685	2.82921	0.57549	3.55624	0.788721	4.89507	0.977222	6.05746
0.450503	2.77116	0.309997	1.8901	0.450961	2.77065	0.593438	3.66575	0.707909	4.3714	0.925917	5.70657	0.457821	2.82613	0.577079	3.54565	0.789718	4.87308	0.978087	6.028
0.452695	2.76878	0.312035	1.89178	0.453156	2.76829	0.5949	3.65376	0.709402	4.35556	0.926879	5.67989	0.459956	2.82307	0.578674	3.53522	0.79072	4.85138	0.978955	5.99891
0.454899	2.76649	0.314072	1.89344	0.455363	2.76602	0.596367	3.64193	0.7109	4.33993	0.927846	5.65354	0.462091	2.82005	0.580275	3.52493	0.791727	4.82995	0.979829	5.97017
0.457114	2.7643	0.31611	1.89507	0.45758	2.76385	0.597839	3.63026	0.712402	4.32451	0.928817	5.62751	0.464226	2.81706	0.581881	3.5148	0.792739	4.80879	0.980706	5.94179
0.459339	2.76219	0.318147	1.89669	0.459807	2.76176	0.599316	3.61875	0.713909	4.30929	0.929794	5.6018	0.466359	2.81409	0.583493	3.50481	0.793756	4.78789	0.981588	5.91375
0.461575	2.76017	0.320184	1.89829	0.462045	2.75976	0.600797	3.6074	0.715421	4.29426	0.930774	5.57641	0.468493	2.81116	0.58511	3.49496	0.794777	4.76726	0.982474	5.88605
0.46382	2.75823	0.322221	1.89988	0.464292	2.75783	0.602284	3.59621	0.716937	4.27943	0.931759	5.55132	0.470625	2.80826	0.586733	3.48526	0.795803	4.74689	0.983364	5.85868
0.466074	2.75636	0.324258	1.90144	0.466548	2.75598	0.603774	3.58517	0.718458	4.26479	0.932749	5.52654	0.472757	2.80538	0.588361	3.47569	0.796834	4.72677	0.984259	5.83164
0.468337	2.75457	0.326295	1.90299	0.468813	2.7542	0.60527	3.57427	0.719983	4.25033	0.933743	5.50206	0.474889	2.80254	0.589994	3.46626	0.797869	4.7069	0.985158	5.80492
0.470609	2.75284	0.328332	1.90452	0.471086	2.75249	0.60677	3.56352	0.721512	4.23607	0.934742	5.47787	0.477019	2.79972	0.591633	3.45697	0.798909	4.68727	0.986061	5.77852
0.472888	2.75119	0.330368	1.90603	0.473367	2.75085	0.608275	3.55292	0.723047	4.22198	0.935746	5.45397	0.479149	2.79692	0.593277	3.4478	0.799954	4.66788	0.986969	5.75243
0.475176	2.74959	0.332405	1.90753	0.475656	2.74926	0.609784	3.54246	0.724585	4.20807	0.936753	5.43036	0.481279	2.79416	0.594926	3.43877	0.801004	4.64874	0.987881	5.72665
0.47747	2.74805	0.334441	1.90901	0.477952	2.74774	0.611297	3.53213	0.726128	4.19433	0.937766	5.40702	0.483407	2.79142	0.596581	3.42986	0.802058	4.62982	0.988797	5.70117
0.479772	2.74657	0.336477	1.91047	0.480255	2.74627	0.612816	3.52194	0.727675	4.18077	0.938782	5.38396	0.485535	2.7887	0.59824	3.42108	0.803117	4.61113	0.989717	5.67598
0.48208	2.74514	0.338513	1.91191	0.482565	2.74485	0.614338	3.51189	0.729226	4.16737	0.939804	5.36117	0.487662	2.78601	0.599905	3.41242	0.80418	4.59267	0.990642	5.65109
0.484395	2.74377	0.340549	1.91334	0.484881	2.74348	0.615865	3.50197	0.730782	4.15414	0.940829	5.33865	0.489789	2.78334	0.601576	3.40388	0.805249	4.57443	0.991571	5.62649
0.486716	2.74244	0.342585	1.91476	0.487203	2.74217	0.617397	3.49217	0.732341	4.14108	0.941859	5.31639	0.491914	2.7807	0.603251	3.39546	0.806321	4.55641	0.992504	5.60216
0.489042	2.74116	0.34462	1.91616	0.489531	2.7409	0.618932	3.48251	0.733905	4.12817	0.942894	5.29438	0.494039	2.77808	0.604932	3.38716	0.807399	4.5386	0.993441	5.57812
0.491375	2.73992	0.346656	1.91754	0.491864	2.73967	0.620472	3.47297	0.735473	4.11543	0.943932	5.27263	0.496163	2.77548	0.606617	3.37897	0.808481	4.52101	0.994382	5.55435
0.493712	2.73873	0.348691	1.91891	0.494203	2.73848	0.622017	3.46355	0.737045	4.10283	0.944976	5.25113	0.498286	2.77291	0.608308	3.37089	0.809567	4.50362	0.995328	5.53085
0.496055	2.73757	0.350726	1.92026	0.496547	2.73734	0.623565	3.45425	0.738622	4.09039	0.946023	5.22987	0.500408	2.77035	0.610004	3.36293	0.810658	4.48644	0.996277	5.50761
0.498402	2.73646	0.352761	1.9216	0.498895	2.73623	0.625118	3.44507	0.740202	4.0781	0.947075	5.20886	0.50253	2.76782	0.611704	3.35507	0.811754	4.46945	0.997231	5.48463
0.500754	2.73538	0.354796	1.92293	0.501248	2.73516	0.626675	3.43601	0.741786	4.06596	0.948132	5.18809	0.504651	2.76531	0.61341	3.34732	0.812854	4.45267	0.998189	5.46191
0.503111	2.73434	0.35683	1.92424	0.503605	2.73412	0.628236	3.42706	0.743374	4.05396	0.949192	5.16754	0.50677	2.76282	0.615121	3.33968	0.813959	4.43608	0.999152	5.43945
0.505471	2.73333	0.358865	1.92553	0.505967	2.73312	0.629801	3.41823	0.744967	4.04211	0.950257	5.14723	0.508889	2.76035	0.616837	3.33213	0.815068	4.41968	1.00012	5.41723
0.507836	2.73235	0.360899	1.92682	0.508332	2.73214	0.63137	3.4095	0.746563	4.03039	0.951327	5.12715	0.511007	2.7579	0.618557	3.3247	0.816182	4.40348		
0.510204	2.7314	0.362933	1.92809	0.510702	2.7312	0.632944	3.40089	0.748163	4.01882	0.9524	5.10729	0.513124	2.75547	0.620283	3.31736	0.8173	4.38746		
0.512577	2.73048	0.364967	1.92934	0.513074	2.73029	0.634521	3.39238	0.749766	4.00738	0.953478	5.08765	0.51524	2.75306	0.622013	3.31012	0.818423	4.37162		
0.514952	2.72959	0.367001	1.93058	0.515451	2.7294	0.636102	3.38398	0.751374	3.99607	0.95456	5.06823	0.517355	2.75067	0.623748	3.30298	0.81955	4.35596		
0.517331	2.72872	0.369034	1.93181	0.517831	2.72854	0.637688	3.37568	0.752986	3.98489	0.955647	5.04902	0.519469	2.74829	0.625488	3.29593	0.820682	4.34048		
0.519713	2.72788	0.371067	1.93303	0.520213	2.72771	0.639277	3.36749	0.754601	3.97385	0.956737	5.03003	0.521582	2.74594	0.627233	3.28898	0.821818	4.32518		
0.522099	2.72706	0.373101	1.93423	0.522599	2.72689	0.64087	3.35939	0.75622	3.96293	0.957832	5.01123	0.523694	2.7436	0.628983	3.28212	0.822959	4.31005		
0.524487	2.72627	0.375134	1.93542	0.524988	2.72611	0.642467	3.3514	0.757842	3.95214	0.958931	4.99265	0.525805	2.74128	0.630737	3.27535	0.824104	4.29508		
0.526878	2.7255	0.377166	1.9366	0.52738	2.72534	0.644068	3.3435	0.759469	3.94147	0.960035	4.97426	0.527915	2.73898	0.632496	3.26867	0.825253	4.28029		
0.529272	2.72475	0.379199	1.93777	0.529774	2.72459	0.645673	3.33569	0.761099	3.93092	0.961142	4.95608	0.530024	2.73669	0.63426	3.26208	0.826407	4.26566		
0.531668	2.72402	0.381231	1.93892	0.532171	2.72387	0.647282	3.32799	0.762732	3.92049	0.962254	4.93809	0.532132	2.73442	0.636029	3.25557	0.827565	4.2512		
0.534066	2.72331	0.383263	1.94007	0.53457	2.72316	0.648894	3.32037	0.76437	3.91018	0.96337	4.92029	0.534239	2.73216	0.637802	3.24915	0.828727	4.23689		
0.536467	2.72262	0.385295	1.9412	0.536971	2.72247	0.65051	3.31285	0.76601	3.89999	0.96449	4.90268	0.536345	2.72993	0.639579	3.24282	0.829894	4.22274		
0.53887	2.72194	0.387327	1.94232	0.539375	2.7218	0.65213	3.30541	0.767655	3.88991	0.965614	4.88526	0.53845	2.7277	0.641362	3.23657	0.831066	4.20875		
0.541276	2.72128	0.389359	1.94342	0.54178	2.72115	0.653753	3.29807	0.769302	3.87994	0.966743	4.86802	0.540553	2.7255	0.643149	3.23039	0.832241	4.19491		
0.543683	2.72064	0.39139	1.94452	0.544188	2.72051	0.655381	3.29081	0.770954	3.87008	0.967875	4.85096	0.542656	2.7233	0.64494	3.2243	0.833421	4.18122		
0.546092	2.72002	0.393421	1.9456	0.546598	2.71989	0.657011	3.28363	0.772608	3.86033	0.969012	4.83409	0.544757	2.72113	0.646736	3.21829	0.834605	4.16768		
0.548503	2.71941	0.395452	1.94668	0.549009	2.71928	0.658646	3.27655	0.774266	3.85069	0.970153	4.81739	0.546857	2.71896	0.648537	3.21236	0.835794	4.15429		
0.550916	2.71881	0.397483	1.94774	0.551422	2.71869	0.660284	3.26954	0.775928	3.84116	0.971298	4.80086	0.548956	2.71682	0.650342	3.2065	0.836986	4.14104		
0.553331	2.71823	0.399513	1.9488	0.553837	2.71811	0.661926	3.26262	0.777593	3.83173	0.972447	4.78451	0.551055	2.71468	0.652151	3.20072	0.838183	4.12793		
0.555747	2.71766	0.401544	1.94984	0.556254	2.71754	0.663571	3.25578	0.779261	3.8224	0.9736	4.76832	0.553151	2.71256	0.653965	3.19501	0.839385	4.11497		
0.558164	2.7171	0.403574	1.95087	0.558672	2.71699	0.66522	3.24901	0.780933	3.81317	0.974757	4.7523	0.555247	2.71045	0.655783	3.18938	0.84059	4.10214		
0.560584	2.71656	0.405604	1.95189	0.561091	2.71645	0.666872	3.24233	0.782607	3.80404	0.975918	4.73645	0.557341	2.70836	0.657606	3.18382	0.8418	4.08945		
0.563004	2.71603	0.407633	1.9529	0.563512	2.71592	0.668528	3.23572	0.784285	3.79501	0.977083	4.72076	0.559435	2.70628	0.659433	3.17832	0.843014	4.0769		
0.565426	2.7155	0.409663	1.9539	0.565934	2.7154	0.670187	3.22919	0.785967	3.78608	0.978252	4.70523	0.561527	2.70421	0.661264	3.1729	0.844232	4.06447		
0.567849	2.71499	0.411692	1.95489	0.568358	2.71489	0.671849	3.22273	0.787651	3.77724	0.979425	4.68985	0.563618	2.70216	0.6631	3.16755	0.845455	4.05218		
0.570274	2.71449	0.413721	1.95588	0.570782	2.71439	0.673515	3.21635	0.789339	3.7685	0.980603	4.67464	0.565707	2.70011	0.66494	3.16227	0.846682	4.04002		
0.572699	2.714	0.41575	1.95685	0.573208	2.7139	0.675185	3.21004	0.79103	3.75984	0.981784	4.65957	0.567796	2.69808	0.666784	3.15705	0.847912	4.02799		
0.575126	2.71352	0.417778	1.95781	0.575635	2.71342	0.676858	3.2038	0.792724	3.75128	0.982969	4.64466	0.569883	2.69607	0.668633	3.1519	0.849147	4.01608		
0.577553	2.71305	0.419807	1.95876	0.578063	2.71295	0.678534	3.19763	0.794421	3.74281	0.984158	4.62989	0.571969	2.69406	0.670485	3.14681	0.850387	4.00429		
0.579982	2.71258	0.421835	1.95971	0.580491	2.71249	0.680213	3.19154	0.796121	3.73443	0.985351	4.61528	0.574054	2.69207	0.672342	3.14178	0.85163	3.99263		
0.582412	2.71213	0.423863	1.96064	0.582921	2.71204	0.681896	3.18551	0.797824	3.72613	0.986548	4.60081	0.576137	2.69008	0.674203	3.13682	0.852877	3.98109		
0.584842	2.71168	0.42589	1.96157	0.585352	2.71159	0.683582	3.17954	0.79953	3.71793	0.987749	4.58648	0.57822	2.68811	0.676068	3.13192	0.854129	3.96967		
0.587274	2.71124	0.427918	1.96248	0.587784	2.71115	0.685271	3.17365	0.80124	3.7098	0.988954	4.57229	0.580301	2.68615	0.677937	3.12709	0.855385	3.95837		
0.589706	2.71081	0.429945	1.96339	0.590216	2.71072	0.686964	3.16782	0.802952	3.70176	0.990163	4.55825	0.582381	2.6842	0.67981	3.12231	0.856644	3.94718		
0.592139	2.71039	0.431972	1.96429	0.592649	2.7103	0.68866	3.16205	0.804667	3.6938	0.991376	4.54434	0.584459	2.68226	0.681688	3.11759	0.857908	3.9361		
0.594572	2.70997	0.433999	1.96518	0.595083	2.70988	0.690359	3.15635	0.806385	3.68592	0.992592	4.53057	0.586536	2.68034	0.683569	3.11293	0.859176	3.92514		
0.597006	2.70956	0.436025	1.96606	0.597517	2.70947	0.692061	3.15071	0.808106	3.67813	0.993813	4.51693	0.588612	2.67842	0.685454	3.10833	0.860448	3.91429		
0.599441	2.70915	0.438052	1.96694	0.599952	2.70907	0.693766	3.14514	0.80983	3.67041	0.995037	4.50342	0.590687	2.67651	0.687344	3.10378	0.861724	3.90355		
0.601877	2.70876	0.440078	1.9678	0.602388	2.70867	0.695475	3.13962	0.811557	3.66277	0.996265	4.49005	0.592761	2.67462	0.689237	3.09929	0.863005	3.89292		
0.604313	2.70836	0.442103	1.96866	0.604824	2.70828	0.697187	3.13416	0.813287	3.6552	0.997497	4.4768	0.594833	2.67273	0.691134	3.09486	0.864289	3.8824		
0.606749	2.70797	0.444129	1.96951	0.607261	2.70789	0.698901	3.12877	0.815019	3.64772	0.998733	4.46368	0.596904	2.67086	0.693035	3.09048	0.865577	3.87198		
0.609187	2.70759	0.446154	1.97035	0.609698	2.70751	0.700619	3.12343	0.816754	3.6403	0.999973	4.45069	0.598973	2.66899	0.69494	3.08615	0.866869	3.86167		
0.611624	2.70722	0.44818	1.97118	0.612135	2.70714	0.70234	3.11815	0.818492	3.63296	1.00122	4.43782	0.601041	2.66713	0.696849	3.08187	0.868166	3.85146		
0.614062	2.70684	0.450204	1.97201	0.614573	2.70677	0.704065	3.11293	0.820233	3.62569			0.603108	2.66529	0.698762	3.07765	0.869466	3.84135		
0.6165	2.70648	0.452229	1.97282	0.617012	2.7064	0.705792	3.10777	0.821976	3.6185			0.605174	2.66345	0.700678	3.07348	0.87077	3.83134		
0.618939	2.70611	0.454253	1.97363	0.61945	2.70604	0.707522	3.10266	0.823722	3.61137			0.607239	2.66162	0.702598	3.06936	0.872078	3.82143		
0.621378	2.70576	0.456278	1.97443	0.621889	2.70568	0.709255	3.0976	0.825471	3.60432			0.609302	2.6598	0.704522	3.06529	0.87339	3.81162		
0.623817	2.7054	0.458302	1.97523	0.624329	2.70533	0.710992	3.0926	0.827223	3.59733			0.611364	2.65799	0.70645	3.06126	0.874706	3.8019		
0.626257	2.70505	0.460325	1.97602	0.626768	2.70498	0.712731	3.08765	0.828977	3.59041			0.613424	2.65619	0.708381	3.05729	0.876027	3.79228		
0.628696	2.7047	0.462349	1.9768	0.629208	2.70463	0.714473	3.08276	0.830734	3.58356			0.615483	2.6544	0.710316	3.05336	0.877351	3.78276		
0.631136	2.70436	0.464372	1.97757	0.631648	2.70429	0.716218	3.07791	0.832493	3.57677			0.617541	2.65261	0.712254	3.04948	0.878678	3.77332		
0.633576	2.70402	0.466395	1.97833	0.634088	2.70395	0.717967	3.07312	0.834255	3.57005			0.619598	2.65084	0.714196	3.04565	0.88001	3.76398		
0.636016	2.70368	0.468418	1.97909	0.636528	2.70361	0.719718	3.06838	0.836019	3.5634			0.621653	2.64907	0.716142	3.04186	0.881346	3.75473		
0.638456	2.70335	0.47044	1.97984	0.638968	2.70328	0.721472	3.06369	0.837786	3.5568			0.623707	2.64732	0.718091	3.03812	0.882686	3.74557		
0.640897	2.70302	0.472463	1.98059	0.641408	2.70295	0.723229	3.05905	0.839556	3.55027			0.62576	2.64557	0.720044	3.03442	0.884029	3.7365		
0.643337	2.70269	0.474485	1.98133	0.643849	2.70262	0.724989	3.05446	0.841328	3.5438			0.627812	2.64383	0.722	3.03076	0.885377	3.72752		
0.645777	2.70237	0.476506	1.98206	0.646289	2.7023	0.726752	3.04991	0.843102	3.53739			0.629862	2.64209	0.72396	3.02715	0.886728	3.71862		
0.648218	2.70204	0.478528	1.98278	0.648729	2.70198	0.728518	3.04542	0.844879	3.53105			0.631911	2.64037	0.725923	3.02358	0.888083	3.70981		
0.650658	2.70172	0.480549	1.9835	0.65117	2.70166	0.730287	3.04097	0.846658	3.52476			0.633959	2.63865	0.72789	3.02005	0.889442	3.70108		
0.653098	2.7014	0.48257	1.98421	0.65361	2.70134	0.732058	3.03656	0.84844	3.51853			0.636005	2.63695	0.72986	3.01656	0.890805	3.69244		
0.655538	2.70109	0.484591	1.98492	0.65605	2.70102	0.733833	3.0322	0.850224	3.51236			0.63805	2.63525	0.731833	3.01311	0.892171	3.68387		
0.657978	2.70077	0.486612	1.98562	0.65849	2.70071	0.73561	3.02789	0.85201	3.50624			0.640094	2.63355	0.73381	3.00971	0.893542	3.67539		
0.660418	2.70046	0.488632	1.98631	0.66093	2.7004	0.73739	3.02362	0.853799	3.50018			0.642137	2.63187	0.73579	3.00634	0.894916	3.66699		
0.662858	2.70015	0.490652	1.987	0.66337	2.70009	0.739174	3.0194	0.85559	3.49418			0.644178	2.63019	0.737773	3.00301	0.896294	3.65867		
0.665297	2.69984	0.492672	1.98768	0.665809	2.69978	0.74096	3.01522	0.857384	3.48823			0.646218	2.62852	0.739759	2.99972	0.897676	3.65043		
0.667737	2.69953	0.494692	1.98835	0.668248	2.69947	0.742748	3.01108	0.859179	3.48233			0.648257	2.62686	0.741749	2.99647	0.899061	3.64226		
0.670176	2.69923	0.496711	1.98902	0.670687	2.69916	0.74454	3.00699	0.860977	3.47649			0.650294	2.6252	0.743741	2.99325	0.900451	3.63418		
0.672614	2.69892	0.49873	1.98968	0.673126	2.69886	0.746335	3.00294	0.862777	3.47071			0.652331	2.62356	0.745737	2.99007	0.901844	3.62616		
0.675053	2.69862	0.500749	1.99034	0.675564	2.69855	0.748132	2.99893	0.86458	3.46497			0.654366	2.62192	0.747736	2.98693	0.903241	3.61822		
0.677491	2.69831	0.502767	1.99099	0.678002	2.69825	0.749932	2.99496	0.866384	3.45928			0.656399	2.62028	0.749738	2.98382	0.904641	3.61036		
0.679928	2.69801	0.504786	1.99163	0.680439	2.69795	0.751735	2.99103	0.868191	3.45365			0.658432	2.61866	0.751743	2.98075	0.906046	3.60257		
0.682366	2.69771	0.506804	1.99227	0.682877	2.69764	0.753541	2.98714	0.87	3.44807			0.660464	2.61704	0.753751	2.97771	0.907454	3.59485		
0.684802	2.69741	0.508822	1.9929	0.685313	2.69734	0.75535	2.98329	0.871811	3.44253			0.662494	2.61543	0.755762	2.97471	0.908865	3.5872		
0.687239	2.6971	0.51084	1.99353	0.68775	2.69704	0.757161	2.97948	0.873624	3.43705			0.664523	2.61383	0.757776	2.97173	0.910281	3.57963		
0.689675	2.6968	0.512857	1.99415	0.690185	2.69674	0.758976	2.97571	0.87544	3.43161			0.666551	2.61223	0.759793	2.9688	0.9117	3.57212		
0.69211	2.6965	0.514874	1.99477	0.692621	2.69644	0.760793	2.97198	0.877257	3.42622			0.668577	2.61064	0.761813	2.96589	0.913123	3.56468		
0.694545	2.6962	0.516891	1.99538	0.695056	2.69614	0.762613	2.96829	0.879077	3.42088			0.670602	2.60906	0.763836	2.96302	0.914549	3.55731		
0.696979	2.6959	0.518908	1.99599	0.69749	2.69584	0.764436	2.96463	0.880898	3.41559			0.672627	2.60748	0.765862	2.96018	0.91598	3.55001		
0.699413	2.6956	0.520924	1.99659	0.699923	2.69554	0.766261	2.96101	0.882722	3.41034			0.67465	2.60591	0.76789	2.95737	0.917413	3.54277		
0.701846	2.6953	0.52294	1.99718	0.702356	2.69524	0.76809	2.95743	0.884548	3.40513			0.676672	2.60435	0.769921	2.95459	0.918851	3.53561		
0.704278	2.695	0.524956	1.99778	0.704788	2.69493	0.769921	2.95389	0.886375	3.39998			0.678692	2.60279	0.771955	2.95184	0.920292	3.5285		
0.70671	2.6947	0.526972	1.99836	0.70722	2.69463	0.771755	2.95038	0.888205	3.39486			0.680712	2.60124	0.773992	2.94912	0.921737	3.52146		
0.709141	2.69439	0.528987	1.99894	0.709651	2.69433	0.773592	2.9469	0.890036	3.38979			0.68273	2.5997	0.776031	2.94643	0.923185	3.51448		
0.711571	2.69409	0.531003	1.99952	0.712081	2.69403	0.775432	2.94347	0.89187	3.38476			0.684748	2.59816	0.778073	2.94377	0.924637	3.50757		
0.714001	2.69379	0.533018	2.00009	0.71451	2.69372	0.777275	2.94006	0.893705	3.37978			0.686764	2.59663	0.780118	2.94114	0.926093	3.50072		
0.71643	2.69348	0.535032	2.00065	0.716939	2.69342	0.779121	2.9367	0.895543	3.37484			0.688779	2.59511	0.782165	2.93854	0.927552	3.49393		
0.718858	2.69318	0.537047	2.00121	0.719367	2.69311	0.780969	2.93336	0.897382	3.36993			0.690793	2.59359	0.784215	2.93596	0.929015	3.4872		
0.721285	2.69287	0.539061	2.00177	0.721793	2.6928	0.782821	2.93006	0.899223	3.36507			0.692806	2.59208	0.786267	2.93341	0.930482	3.48054		
0.723711	2.69256	0.541075	2.00232	0.724219	2.6925	0.784675	2.9268	0.901066	3.36026			0.694818	2.59058	0.788322	2.93089	0.931952	3.47393		
0.726136	2.69225	0.543089	2.00287	0.726644	2.69219	0.786533	2.92356	0.902911	3.35548			0.696828	2.58908	0.79038	2.9284	0.933425	3.46738		
0.72856	2.69194	0.545102	2.00341	0.729068	2.69187	0.788393	2.92036	0.904758	3.35074			0.698838	2.58759	0.792439	2.92593	0.934902	3.46089		
0.730983	2.69163	0.547115	2.00395	0.731491	2.69156	0.790256	2.9172	0.906606	3.34604			0.700847	2.58611	0.794501	2.92349	0.936383	3.45445		
0.733405	2.69131	0.549129	2.00448	0.733913	2.69125	0.792122	2.91406	0.908457	3.34138			0.702854	2.58463	0.796566	2.92107	0.937867	3.44808		
0.735826	2.691	0.551141	2.00501	0.736334	2.69093	0.793991	2.91096	0.910309	3.33676			0.704861	2.58316	0.798633	2.91868	0.939355	3.44176		
0.738246	2.69068	0.553154	2.00553	0.738753	2.69061	0.795863	2.90789	0.912163	3.33217			0.706866	2.58169	0.800702	2.91631	0.940847	3.4355		
0.740665	2.69036	0.555166	2.00605	0.741172	2.69029	0.797738	2.90486	0.914018	3.32762			0.708871	2.58024	0.802774	2.91396	0.942342	3.42929		
0.743082	2.69003	0.557178	2.00657	0.743589	2.68997	0.799616	2.90185	0.915876	3.32311			0.710874	2.57878	0.804847	2.91164	0.94384	3.42314		
0.745498	2.68971	0.55919	2.00708	0.746005	2.68964	0.801497	2.89888	0.917735	3.31864			0.712877	2.57734	0.806923	2.90935	0.945342	3.41704		
0.747913	2.68938	0.561201	2.00758	0.74842	2.68931	0.803382	2.89593	0.919596	3.3142			0.714878	2.57589	0.809002	2.90708	0.946847	3.41099		
0.750327	2.68905	0.563213	2.00808	0.750833	2.68898	0.805269	2.89302	0.921458	3.3098			0.716879	2.57446	0.811082	2.90483	0.948356	3.405		
0.752739	2.68872	0.565224	2.00858	0.753245	2.68865	0.807159	2.89014	0.923322	3.30544			0.718878	2.57303	0.813165	2.9026	0.949869	3.39906		
0.75515	2.68839	0.567235	2.00908	0.755656	2.68831	0.809053	2.88728	0.925188	3.30111			0.720877	2.57161	0.815249	2.90039	0.951385	3.39317		
0.75756	2.68805	0.569245	2.00957	0.758065	2.68798	0.81095	2.88446	0.927055	3.29681			0.722874	2.57019	0.817336	2.89821	0.952904	3.38733		
0.759968	2.68771	0.571256	2.01005	0.760473	2.68763	0.812849	2.88167	0.928925	3.29255			0.724871	2.56878	0.819425	2.89605	0.954427	3.38155		
0.762374	2.68736	0.573266	2.01053	0.762879	2.68729	0.814752	2.87891	0.930795	3.28832			0.726867	2.56738	0.821515	2.89391	0.955954	3.37581		
0.764779	2.68701	0.575275	2.01101	0.765283	2.68694	0.816659	2.87617	0.932667	3.28412			0.728861	2.56598	0.823608	2.89179	0.957483	3.37013		
0.767182	2.68666	0.577285	2.01148	0.767686	2.68659	0.818568	2.87347	0.934541	3.27996			0.730855	2.56459	0.825703	2.88969	0.959017	3.36449		
0.769584	2.68631	0.579294	2.01195	0.770087	2.68623	0.820481	2.8708	0.936417	3.27583			0.732848	2.5632	0.827799	2.88762	0.960554	3.3589		
0.771983	2.68595	0.581304	2.01242	0.772486	2.68587	0.822397	2.86815	0.938294	3.27173			0.73484	2.56182	0.829898	2.88556	0.962094	3.35336		
0.774381	2.68559	0.583312	2.01288	0.774884	2.68551	0.824317	2.86553	0.940172	3.26767			0.736832	2.56045	0.831998	2.88352	0.963637	3.34787		
0.776778	2.68522	0.585321	2.01334	0.77728	2.68514	0.82624	2.86295	0.942052	3.26363			0.738822	2.55908	0.8341	2.8815	0.965184	3.34243		
0.779172	2.68485	0.587329	2.0138	0.779674	2.68477	0.828166	2.86039	0.943934	3.25963			0.740812	2.55771	0.836204	2.8795	0.966735	3.33703		
0.781564	2.68447	0.589338	2.01425	0.782066	2.6844	0.830096	2.85786	0.945817	3.25566			0.7428	2.55636	0.83831	2.87752	0.968289	3.33168		
0.783954	2.6841	0.591346	2.01469	0.784456	2.68402	0.832029	2.85535	0.947701	3.25172			0.744788	2.55501	0.840417	2.87556	0.969846	3.32637		
0.786343	2.68371	0.593353	2.01514	0.786843	2.68363	0.833966	2.85288	0.949587	3.2478			0.746775	2.55366	0.842527	2.87361	0.971407	3.32111		
0.788729	2.68332	0.595361	2.01558	0.789229	2.68324	0.835906	2.85043	0.951475	3.24392			0.748762	2.55232	0.844637	2.87169	0.972971	3.3159		
0.791113	2.68293	0.597368	2.01601	0.791613	2.68285	0.83785	2.84801	0.953363	3.24007			0.750747	2.55099	0.84675	2.86978	0.974539	3.31073		
0.793495	2.68253	0.599375	2.01645	0.793994	2.68245	0.839798	2.84562	0.955254	3.23625			0.752732	2.54966	0.848864	2.86789	0.97611	3.3056		
0.795874	2.68213	0.601381	2.01688	0.796373	2.68204	0.841749	2.84325	0.957145	3.23245			0.754715	2.54834	0.85098	2.86601	0.977684	3.30052		
0.798251	2.68172	0.603388	2.0173	0.79875	2.68163	0.843704	2.84092	0.959038	3.22869			0.756699	2.54702	0.853097	2.86416	0.979262	3.29548		
0.800626	2.6813	0.605394	2.01772	0.801124	2.68122	0.845663	2.83861	0.960933	3.22495			0.758681	2.54571	0.855216	2.86232	0.980843	3.29049		
0.802999	2.68088	0.6074	2.01814	0.803496	2.68079	0.847626	2.83633	0.962829	3.22124			0.760662	2.5444	0.857336	2.8605	0.982427	3.28553		
0.805368	2.68046	0.609406	2.01856	0.805865	2.68037	0.849592	2.83407	0.964726	3.21756			0.762643	2.5431	0.859458	2.85869	0.984015	3.28062		
0.807735	2.68003	0.611411	2.01897	0.808232	2.67993	0.851563	2.83184	0.966624	3.2139			0.764623	2.54181	0.861581	2.8569	0.985607	3.27575		
0.8101	2.67959	0.613417	2.01938	0.810595	2.67949	0.853537	2.82964	0.968524	3.21027			0.766603	2.54052	0.863706	2.85512	0.987201	3.27092		
0.812462	2.67914	0.615422	2.01978	0.812957	2.67905	0.855516	2.82747	0.970425	3.20667			0.768582	2.53924	0.865832	2.85336	0.988799	3.26613		
0.814821	2.67869	0.617427	2.02019	0.815315	2.6786	0.857498	2.82532	0.972327	3.2031			0.77056	2.53796	0.867959	2.85162	0.9904	3.26139		
0.817177	2.67823	0.619431	2.02059	0.817671	2.67814	0.859485	2.8232	0.974231	3.19955			0.772537	2.53669	0.870088	2.84989	0.992005	3.25668		
0.81953	2.67777	0.621435	2.02098	0.820023	2.67767	0.861476	2.82111	0.976136	3.19603			0.774514	2.53542	0.872218	2.84817	0.993613	3.25201		
0.82188	2.6773	0.62344	2.02138	0.822373	2.6772	0.863471	2.81904	0.978042	3.19253			0.77649	2.53416	0.874349	2.84647	0.995225	3.24738		
0.824227	2.67682	0.625443	2.02176	0.824719	2.67672	0.86547	2.817	0.97995	3.18906			0.778465	2.53291	0.876482	2.84478	0.996839	3.24279		
0.826572	2.67634	0.627447	2.02215	0.827063	2.67623	0.867474	2.81498	0.981859	3.18561			0.78044	2.53166	0.878615	2.84311	0.998457	3.23824		
0.828912	2.67584	0.62945	2.02253	0.829403	2.67574	0.869482	2.81299	0.983769	3.18219			0.782414	2.53041	0.88075	2.84145	1.00008	3.23373		
0.83125	2.67534	0.631454	2.02292	0.83174	2.67524	0.871495	2.81103	0.98568	3.17879			0.784387	2.52918	0.882886	2.83981				
0.833584	2.67483	0.633456	2.02329	0.834073	2.67473	0.873512	2.8091	0.987592	3.17541			0.78636	2.52794	0.885023	2.83818				
0.835915	2.67432	0.635459	2.02367	0.836403	2.67421	0.875534	2.80719	0.989506	3.17206			0.788332	2.52671	0.887162	2.83656				
0.838242	2.67379	0.637462	2.02404	0.83873	2.67368	0.87756	2.8053	0.99142	3.16874			0.790304	2.52549	0.889301	2.83495				
0.840566	2.67326	0.639464	2.02441	0.841053	2.67315	0.879591	2.80345	0.993336	3.16544			0.792275	2.52428	0.891441	2.83336				
0.842886	2.67272	0.641466	2.02477	0.843373	2.67261	0.881627	2.80162	0.995253	3.16216			0.794245	2.52306	0.893583	2.83178				
0.845203	2.67217	0.643468	2.02514	0.845688	2.67206	0.883667	2.79981	0.997171	3.1589			0.796215	2.52186	0.895725	2.83022				
0.847516	2.67161	0.645469	2.0255	0.848	2.6715	0.885713	2.79803	0.999091	3.15567			0.798185	2.52066	0.897868	2.82866				
0.849825	2.67105	0.64747	2.02585	0.850308	2.67093	0.887763	2.79628	1.00101	3.15245			0.800153	2.51946	0.900013	2.82712				
0.85213	2.67047	0.649471	2.02621	0.852613	2.67035	0.889818	2.79455					0.802122	2.51827	0.902158	2.82559				
0.854431	2.66989	0.651472	2.02656	0.854913	2.66977	0.891878	2.79285					0.804089	2.51709	0.904304	2.82407				
0.856728	2.6693	0.653473	2.02691	0.857209	2.66917	0.893944	2.79117					0.806056	2.51591	0.90645	2.82256				
0.859021	2.66869	0.655473	2.02725	0.859502	2.66857	0.896014	2.78952					0.808023	2.51473	0.908598	2.82106				
0.86131	2.66808	0.657473	2.0276	0.86179	2.66795	0.898089	2.7879					0.809989	2.51356	0.910746	2.81958				
0.863595	2.66746	0.659473	2.02794	0.864074	2.66733	0.90017	2.7863					0.811955	2.5124	0.912896	2.8181				
0.865876	2.66683	0.661473	2.02828	0.866354	2.6667	0.902256	2.78472					0.81392	2.51124	0.915046	2.81664				
0.868152	2.66619	0.663472	2.02861	0.868629	2.66606	0.904347	2.78317					0.815885	2.51009	0.917196	2.81518				
0.870424	2.66554	0.665471	2.02894	0.8709	2.66541	0.906444	2.78165					0.817849	2.50894	0.919347	2.81374				
0.872692	2.66488	0.66747	2.02927	0.873167	2.66474	0.908545	2.78015					0.819813	2.5078	0.921499	2.81231				
0.874955	2.66422	0.669469	2.0296	0.875429	2.66407	0.910652	2.77868					0.821777	2.50666	0.923652	2.81088				
0.877214	2.66354	0.671468	2.02993	0.877687	2.66339	0.912765	2.77723					0.82374	2.50552	0.925805	2.80947				
0.879468	2.66285	0.673466	2.03025	0.87994	2.6627	0.914883	2.7758					0.825702	2.5044	0.927959	2.80807				
0.881718	2.66215	0.675464	2.03057	0.882189	2.662	0.917007	2.7744					0.827664	2.50327	0.930113	2.80667				
0.883963	2.66144	0.677462	2.03089	0.884434	2.66129	0.919136	2.77303					0.829626	2.50216	0.932268	2.80529				
0.886204	2.66073	0.679459	2.0312	0.886673	2.66057	0.92127	2.77168					0.831587	2.50104	0.934423	2.80391				
0.88844	2.66	0.681457	2.03151	0.888908	2.65984	0.92341	2.77035					0.833548	2.49994	0.936579	2.80255				
0.890671	2.65926	0.683454	2.03182	0.891139	2.65911	0.925556	2.76905					0.835509	2.49883	0.938735	2.80119				
0.892898	2.65851	0.685451	2.03213	0.893365	2.65836	0.927707	2.76777					0.837469	2.49774	0.940892	2.79984				
0.89512	2.65776	0.687447	2.03244	0.895586	2.6576	0.929863	2.76651					0.839429	2.49664	0.943049	2.7985				
0.897338	2.65699	0.689444	2.03274	0.897802	2.65683	0.932026	2.76528					0.841388	2.49556	0.945206	2.79717				
0.899551	2.65622	0.69144	2.03304	0.900014	2.65605	0.934193	2.76407					0.843347	2.49447	0.947364	2.79584				
0.901759	2.65543	0.693436	2.03334	0.902221	2.65527	0.936367	2.76288					0.845306	2.4934	0.949522	2.79453				
0.903962	2.65464	0.695432	2.03364	0.904424	2.65447	0.938545	2.76172					0.847264	2.49232	0.95168	2.79322				
0.906161	2.65383	0.697427	2.03393	0.906622	2.65366	0.940729	2.76058					0.849223	2.49126	0.953839	2.79192				
0.908356	2.65302	0.699423	2.03422	0.908815	2.65285	0.942919	2.75946					0.85118	2.49019	0.955998	2.79063				
0.910545	2.6522	0.701418	2.03451	0.911004	2.65202	0.945114	2.75836					0.853138	2.48913	0.958157	2.78935				
0.91273	2.65137	0.703413	2.0348	0.913188	2.65119	0.947315	2.75729					0.855095	2.48808	0.960316	2.78807				
0.914911	2.65053	0.705407	2.03508	0.915367	2.65035	0.949521	2.75623					0.857052	2.48703	0.962475	2.7868				
0.917087	2.64968	0.707402	2.03537	0.917542	2.6495	0.951732	2.7552					0.859008	2.48599	0.964635	2.78554				
0.919258	2.64882	0.709396	2.03565	0.919713	2.64864	0.953949	2.75419					0.860964	2.48495	0.966794	2.78429				
0.921425	2.64796	0.71139	2.03593	0.921879	2.64778	0.956171	2.7532					0.86292	2.48392	0.968954	2.78304				
0.923588	2.64709	0.713384	2.0362	0.924041	2.6469	0.958398	2.75223					0.864876	2.48289	0.971114	2.7818				
0.925746	2.64621	0.715377	2.03648	0.926198	2.64602	0.96063	2.75128					0.866831	2.48186	0.973274	2.78056				
0.9279	2.64532	0.717371	2.03675	0.928351	2.64513	0.962868	2.75035					0.868787	2.48084	0.975434	2.77934				
0.930049	2.64442	0.719364	2.03702	0.9305	2.64423	0.96511	2.74943					0.870741	2.47983	0.977593	2.77811				
0.932195	2.64352	0.721356	2.03729	0.932644	2.64333	0.967357	2.74854					0.872696	2.47882	0.979753	2.7769				
0.934336	2.64261	0.723349	2.03756	0.934784	2.64242	0.96961	2.74767					0.874651	2.47781	0.981913	2.77569				
0.936473	2.64169	0.725342	2.03782	0.936921	2.6415	0.971867	2.74681					0.876605	2.47681	0.984073	2.77449				
0.938606	2.64077	0.727334	2.03808	0.939053	2.64057	0.974129	2.74597					0.878559	2.47581	0.986232	2.77329				
0.940735	2.63984	0.729326	2.03834	0.941181	2.63964	0.976396	2.74515					0.880512	2.47482	0.988392	2.7721				
0.94286	2.6389	0.731318	2.0386	0.943305	2.6387	0.978667	2.74435					0.882466	2.47383	0.990551	2.77092				
0.944981	2.63796	0.733309	2.03886	0.945426	2.63776	0.980943	2.74357					0.884419	2.47285	0.99271	2.76974				
0.947099	2.63701	0.735301	2.03911	0.947542	2.63681	0.983224	2.7428					0.886372	2.47187	0.994869	2.76857				
0.949212	2.63606	0.737292	2.03936	0.949655	2.63586	0.985509	2.74205					0.888325	2.4709	0.997028	2.7674				
0.951322	2.6351	0.739283	2.03962	0.951764	2.6349	0.987798	2.74131					0.890278	2.46993	0.999186	2.76624				
0.953429	2.63414	0.741273	2.03986	0.95387	2.63393	0.990092	2.74059					0.892231	2.46896	1.00134	2.76508				
0.955532	2.63317	0.743264	2.04011	0.955972	2.63296	0.99239	2.73988					0.894183	2.468						
0.957631	2.6322	0.745254	2.04036	0.958071	2.63199	0.994692	2.73919					0.896135	2.46705						
0.959727	2.63122	0.747244	2.0406	0.960166	2.63101	0.996998	2.73852					0.898087	2.4661						
0.96182	2.63024	0.749234	2.04084	0.962258	2.63003	0.999307	2.73785					0.900039	2.46515						
0.963909	2.62925	0.751224	2.04108	0.964347	2.62905	1.00162	2.73721					0.901991	2.46421						
0.965996	2.62826	0.753213	2.04132	0.966433	2.62806							0.903942	2.46327						
0.968079	2.62727	0.755202	2.04155	0.968515	2.62706							0.905894	2.46233						
0.970159	2.62628	0.757191	2.04179	0.970595	2.62607							0.907845	2.4614						
0.972236	2.62528	0.75918	2.04202	0.972672	2.62507							0.909796	2.46048						
0.974311	2.62428	0.761168	2.04225	0.974746	2.62407							0.911747	2.45956						
0.976383	2.62328	0.763157	2.04248	0.976817	2.62307							0.913698	2.45864						
0.978452	2.62227	0.765145	2.04271	0.978885	2.62206							0.915649	2.45773						
0.980518	2.62126	0.767133	2.04293	0.980951	2.62105							0.9176	2.45682						
0.982582	2.62025	0.769121	2.04316	0.983014	2.62004							0.91955	2.45592						
0.984643	2.61924	0.771108	2.04338	0.985075	2.61903							0.921501	2.45502						
0.986701	2.61823	0.773095	2.0436	0.987133	2.61802							0.923451	2.45412						
0.988758	2.61722	0.775082	2.04382	0.989189	2.617							0.925401	2.45323						
0.990812	2.6162	0.777069	2.04404	0.991242	2.61599							0.927352	2.45234						
0.992864	2.61518	0.779056	2.04425	0.993293	2.61497							0.929302	2.45146						
0.994913	2.61417	0.781042	2.04447	0.995343	2.61395							0.931252	2.45058						
0.996961	2.61315	0.783029	2.04468	0.99739	2.61294							0.933202	2.44971						
0.999006	2.61213	0.785015	2.04489	0.999435	2.61192							0.935152	2.44884						
1.00105	2.61111	0.787001	2.0451	1.00148	2.6109							0.937102	2.44797						
		0.788986	2.04531									0.939051	2.44711						
		0.790972	2.04551									0.941001	2.44625						
		0.792957	2.04572									0.942951	2.44539						
		0.794942	2.04592									0.9449	2.44454						
		0.796927	2.04612									0.94685	2.4437						
		0.798911	2.04633									0.948799	2.44285						
		0.800896	2.04652									0.950749	2.44202						
		0.80288	2.04672									0.952698	2.44118						
		0.804864	2.04692									0.954648	2.44035						
		0.806848	2.04711									0.956597	2.43952						
		0.808831	2.04731									0.958547	2.4387						
		0.810815	2.0475									0.960496	2.43788						
		0.812798	2.04769									0.962445	2.43707						
		0.814781	2.04788									0.964395	2.43625						
		0.816764	2.04806									0.966344	2.43545						
		0.818746	2.04825									0.968293	2.43464						
		0.820729	2.04843									0.970243	2.43384						
		0.822711	2.04862									0.972192	2.43305						
		0.824693	2.0488									0.974142	2.43225						
		0.826675	2.04898									0.976091	2.43146						
		0.828656	2.04916									0.97804	2.43068						
		0.830638	2.04934									0.97999	2.4299						
		0.832619	2.04952									0.981939	2.42912						
		0.8346	2.04969									0.983889	2.42835						
		0.836581	2.04987									0.985838	2.42757						
		0.838561	2.05004									0.987788	2.42681						
		0.840542	2.05021									0.989737	2.42604						
		0.842522	2.05038									0.991687	2.42528						
		0.844502	2.05055									0.993637	2.42453						
		0.846482	2.05072									0.995586	2.42378						
		0.848461	2.05088									0.997536	2.42303						
		0.850441	2.05105									0.999486	2.42228						
		0.85242	2.05121									1.00144	2.42154						
		0.854399	2.05138																
		0.856378	2.05154																
		0.858357	2.0517																
		0.860335	2.05186																
		0.862313	2.05202																
		0.864291	2.05218																
		0.866269	2.05233																
		0.868247	2.05249																
		0.870225	2.05264																
		0.872202	2.05279																
		0.874179	2.05295																
		0.876156	2.0531																
		0.878133	2.05325																
		0.88011	2.05339																
		0.882086	2.05354																
		0.884062	2.05369																
		0.886038	2.05383																
		0.888014	2.05398																
		0.88999	2.05412																
		0.891965	2.05426																
		0.893941	2.0544																
		0.895916	2.05454																
		0.897891	2.05468																
		0.899866	2.05482																
		0.90184	2.05496																
		0.903815	2.05509																
		0.905789	2.05523																
		0.907763	2.05536																
		0.909737	2.0555																
		0.91171	2.05563																
		0.913684	2.05576																
		0.915657	2.05589																
		0.91763	2.05602																
		0.919603	2.05615																
		0.921576	2.05627																
		0.923549	2.0564																
		0.925521	2.05653																
		0.927494	2.05665																
		0.929466	2.05677																
		0.931438	2.0569																
		0.933409	2.05702																
		0.935381	2.05714																
		0.937353	2.05726																
		0.939324	2.05738																
		0.941295	2.0575																
		0.943266	2.05762																
		0.945237	2.05773																
		0.947207	2.05785																
		0.949178	2.05796																
		0.951148	2.05808																
		0.953118	2.05819																
		0.955088	2.05831																
		0.957057	2.05842																
		0.959027	2.05853																
		0.960996	2.05864																
		0.962966	2.05875																
		0.964935	2.05886																
		0.966904	2.05896																
		0.968872	2.05907																
		0.970841	2.05918																
		0.972809	2.05928																
		0.974778	2.05939																
		0.976746	2.05949																
		0.978714	2.0596																
		0.980681	2.0597																
		0.982649	2.0598																
		0.984616	2.0599																
		0.986584	2.06																
		0.988551	2.0601																
		0.990518	2.0602																
		0.992485	2.0603																
		0.994451	2.0604																
		0.996418	2.06049																
		0.998384	2.06059																
		1.00035	2.06068																
