Sym0		Asym0		Sym1		Sym2		Sym3		Sym4		Asym1		Asym2		Asym3		Asym4	
415  Points		526  Points		416  Points		397  Points		346  Points		246  Points		448  Points		392  Points		337  Points		204  Points	
Freq (MHz)	Vph (m/ms)	Freq (MHz)	Vph (m/ms)	Freq (MHz)	Vph (m/ms)	Freq (MHz)	Vph (m/ms)	Freq (MHz)	Vph (m/ms)	Freq (MHz)	Vph (m/ms)	Freq (MHz)	Vph (m/ms)	Freq (MHz)	Vph (m/ms)	Freq (MHz)	Vph (m/ms)	Freq (MHz)	Vph (m/ms)
0.279513	343.693	2.21416e-005	0.0292885	0.279509	284899	0.450254	8185.58	0.559017	4962.76	0.838526	1968.09	0.139755	852.043	0.419269	452.026	0.698771	3058.1	0.900508	2457.26
0.279529	160.192	0.000110424	0.0654293	0.279514	299.691	0.45026	456.329	0.559024	535.291	0.838532	617.587	0.139802	127.589	0.419287	225.517	0.698776	602.293	0.900512	693.682
0.279556	104.443	0.0002657	0.101436	0.279532	149.934	0.450277	234.715	0.559043	282.912	0.838544	366.264	0.139916	69.0122	0.419317	150.243	0.698787	334.046	0.900522	403.847
0.279595	77.4857	0.000487543	0.137295	0.279561	99.9836	0.450304	157.996	0.559074	192.272	0.838562	260.33	0.140099	47.345	0.41936	112.652	0.698805	231.118	0.900538	284.84
0.279646	61.5955	0.000775238	0.172937	0.279601	75.0052	0.450343	119.082	0.559116	145.625	0.838586	201.931	0.140349	36.0721	0.419415	90.1132	0.698829	176.683	0.900558	220.011
0.279709	51.1188	0.00112817	0.208362	0.279654	60.0185	0.450392	95.5541	0.55917	117.199	0.838616	164.935	0.140666	29.1688	0.419482	75.0951	0.698859	143.004	0.900584	179.223
0.279782	43.6926	0.00154511	0.243472	0.279717	50.0286	0.450453	79.7942	0.559236	98.0632	0.838653	139.398	0.14105	24.5125	0.419561	64.3725	0.698896	120.113	0.900615	151.195
0.279868	38.1545	0.0020251	0.278256	0.279793	42.8943	0.450524	68.5012	0.559313	84.3037	0.838695	120.712	0.141498	21.1636	0.419652	56.3337	0.698939	103.541	0.900651	130.75
0.279965	33.8661	0.00256678	0.312659	0.27988	37.5449	0.450606	60.0122	0.559402	73.9344	0.838744	106.445	0.142009	18.6423	0.419756	50.0837	0.698988	90.9897	0.900693	115.178
0.280073	30.4477	0.00316879	0.346648	0.279978	33.3854	0.450698	53.3986	0.559503	65.8402	0.838798	95.1956	0.142583	16.6778	0.419871	45.0855	0.699044	81.1544	0.90074	102.921
0.280194	27.6592	0.00382962	0.380189	0.280088	30.0591	0.450802	48.1011	0.559616	59.3467	0.838859	86.0985	0.143218	15.1059	0.419999	40.9976	0.699106	73.2397	0.900792	93.0242
0.280325	25.3415	0.00454764	0.413248	0.28021	27.3385	0.450916	43.7628	0.55974	54.0222	0.838926	78.59	0.143913	13.8209	0.420139	37.5924	0.699174	66.7333	0.900849	84.8648
0.280469	23.3848	0.00532121	0.4458	0.280343	25.0724	0.451041	40.1448	0.559875	49.5773	0.838998	72.2876	0.144665	12.7521	0.420291	34.7122	0.699249	61.2901	0.900912	78.0226
0.280623	21.7112	0.00614856	0.477817	0.280488	23.1559	0.451177	37.0819	0.560022	45.8108	0.839077	66.9222	0.145473	11.8502	0.420455	32.2446	0.69933	56.6694	0.90098	72.2026
0.280789	20.2634	0.00702793	0.509281	0.280644	21.514	0.451324	34.4555	0.560181	42.5787	0.839162	62.2996	0.146336	11.0795	0.420631	30.1069	0.699418	52.6978	0.901053	67.1916
0.280967	18.9988	0.00795756	0.540177	0.280812	20.0918	0.451481	32.1787	0.560352	39.7749	0.839254	58.2755	0.147131	10.4946	0.42082	28.2373	0.699512	49.2478	0.901132	62.8321
0.281156	17.8848	0.00893559	0.570487	0.280991	18.8482	0.45165	30.1862	0.560534	37.3198	0.839351	54.7408	0.147839	10.049	0.42102	26.5885	0.699612	46.2229	0.901215	59.0048
0.281357	16.8962	0.00996018	0.600199	0.281181	17.7516	0.451829	28.428	0.560728	35.1521	0.839454	51.6115	0.148445	9.71236	0.421232	25.1237	0.699719	43.5492	0.901304	55.6179
0.281569	16.013	0.0110296	0.629309	0.281384	16.7775	0.452019	26.8651	0.560933	33.2244	0.839563	48.8216	0.148937	9.46434	0.421457	23.8138	0.699832	41.169	0.901399	52.5996
0.281793	15.2193	0.0121419	0.657807	0.281597	15.9066	0.452219	25.4668	0.561149	31.499	0.839679	46.3188	0.149306	9.29134	0.421693	22.6355	0.699951	39.0365	0.901498	49.8929
0.282028	14.5022	0.0132955	0.685694	0.281822	15.1234	0.45243	24.2085	0.561378	29.9457	0.8398	44.061	0.149546	9.18452	0.421942	21.5701	0.700077	37.1149	0.901603	47.4519
0.282274	13.8513	0.0144887	0.71297	0.282059	14.4153	0.452652	23.0703	0.561617	28.54	0.839928	42.0139	0.149894	9.03603	0.422202	20.6021	0.700209	35.3746	0.901713	45.2393
0.282532	13.2578	0.0157195	0.739629	0.282306	13.7722	0.452885	22.0357	0.561869	27.262	0.840062	40.1495	0.150278	8.88105	0.422474	19.7189	0.700347	33.7911	0.901829	43.2246
0.282801	12.7146	0.0169865	0.765677	0.282565	13.1855	0.453128	21.0914	0.562131	26.0951	0.840201	38.4443	0.15081	8.68034	0.422759	18.9099	0.700492	32.3441	0.901949	41.3824
0.283081	12.2155	0.0182881	0.791121	0.282836	12.6483	0.453383	20.2261	0.562405	25.0255	0.840347	36.8788	0.151498	8.44183	0.423055	18.1661	0.700643	31.0168	0.902075	39.6915
0.283373	11.7554	0.0196227	0.815967	0.283118	12.1544	0.453647	19.4303	0.562691	24.0415	0.840499	35.4365	0.152351	8.17414	0.423363	17.48	0.7008	29.7948	0.902206	38.134
0.283676	11.3301	0.0209887	0.840218	0.283411	11.6991	0.453923	18.696	0.562988	23.1333	0.840657	34.1035	0.153382	7.88592	0.423683	16.8452	0.700964	28.6663	0.902343	36.6947
0.28399	10.9357	0.0223848	0.863886	0.283715	11.2779	0.454209	18.0165	0.563296	22.2925	0.840821	32.8679	0.154603	7.58533	0.424015	16.2562	0.701134	27.6208	0.902484	35.3607
0.284315	10.5691	0.0238096	0.886981	0.284031	10.8872	0.454505	17.3857	0.563615	21.512	0.840991	31.7193	0.155862	7.31283	0.424358	15.7083	0.701311	26.6496	0.902631	34.1209
0.284652	10.2273	0.0252617	0.909508	0.284358	10.5239	0.454813	16.7988	0.563946	20.7854	0.841167	30.6489	0.157159	7.06484	0.424714	15.1973	0.701493	25.7451	0.902783	32.9656
0.285	9.90816	0.0267399	0.931481	0.284652	10.2275	0.45513	16.2513	0.564289	20.1076	0.841349	29.6491	0.158491	6.83832	0.425081	14.7197	0.701682	24.9006	0.902941	31.8865
0.285358	9.60939	0.0282429	0.952912	0.284909	9.98834	0.455459	15.7394	0.564642	19.4736	0.841537	28.713	0.159857	6.63072	0.42546	14.2723	0.701878	24.1104	0.903103	30.8764
0.285729	9.32915	0.0297696	0.973811	0.285126	9.79934	0.455798	15.2598	0.565007	18.8796	0.841731	27.8347	0.161256	6.43987	0.42585	13.8525	0.702079	23.3694	0.903271	29.9288
0.28611	9.06581	0.0313189	0.994189	0.285301	9.65518	0.456147	14.8095	0.565382	18.3217	0.841931	27.0092	0.162686	6.2639	0.426252	13.4577	0.702287	22.6731	0.903444	29.0381
0.286502	8.81791	0.0328896	1.01406	0.285431	9.55202	0.456507	14.3861	0.565769	17.7969	0.842138	26.2318	0.164146	6.10123	0.426666	13.0858	0.702502	22.0178	0.903623	28.1994
0.286905	8.58417	0.0344808	1.03343	0.285516	9.48723	0.456878	13.9871	0.566168	17.3024	0.84235	25.4984	0.165634	5.95047	0.427092	12.735	0.702722	21.3998	0.903806	27.4082
0.287319	8.36342	0.0360916	1.05233	0.285637	9.3957	0.457259	13.6105	0.566577	16.8355	0.842568	24.8054	0.167149	5.81042	0.427529	12.4034	0.702949	20.8161	0.903995	26.6606
0.287745	8.15464	0.037721	1.07075	0.285771	9.29833	0.45765	13.2546	0.566997	16.3941	0.842792	24.1496	0.16869	5.68003	0.427977	12.0897	0.703182	20.2639	0.904189	25.9532
0.288181	7.95691	0.0393682	1.08871	0.285956	9.16932	0.458052	12.9176	0.567429	15.9762	0.843023	23.5281	0.170255	5.55837	0.428437	11.7923	0.703422	19.7408	0.904389	25.2828
0.288628	7.76939	0.0410323	1.10623	0.286193	9.01154	0.458465	12.5983	0.567871	15.58	0.843259	22.9382	0.171845	5.44465	0.428909	11.5101	0.703667	19.2445	0.904593	24.6466
0.289086	7.59133	0.0427125	1.12331	0.286485	8.82834	0.458887	12.2951	0.568324	15.2038	0.843501	22.3777	0.173457	5.33814	0.429392	11.242	0.703919	18.773	0.904803	24.042
0.289555	7.42205	0.044408	1.13997	0.286835	8.62338	0.45932	12.007	0.568788	14.8462	0.843749	21.8443	0.17509	5.23821	0.429886	10.9869	0.704177	18.3246	0.905018	23.4668
0.290034	7.26094	0.0461184	1.15622	0.287247	8.40047	0.459764	11.7328	0.569264	14.5058	0.844004	21.3363	0.176744	5.14431	0.430392	10.744	0.704442	17.8975	0.905239	22.9188
0.290525	7.10744	0.0478426	1.17207	0.287671	8.18971	0.460217	11.4716	0.56975	14.1815	0.844264	20.8517	0.178418	5.05592	0.430909	10.5124	0.704713	17.4904	0.905464	22.3962
0.291026	6.96104	0.0495802	1.18753	0.288105	7.99014	0.460681	11.2226	0.570247	13.8722	0.84453	20.3891	0.18011	4.97259	0.431369	10.3192	0.70499	17.1018	0.905695	21.8973
0.291538	6.82127	0.0513306	1.20262	0.28855	7.80092	0.461156	10.9848	0.570754	13.5768	0.844802	19.947	0.181821	4.89393	0.431767	10.1606	0.705273	16.7306	0.905931	21.4205
0.29206	6.68771	0.0530931	1.21734	0.289006	7.62128	0.46164	10.7576	0.571273	13.2945	0.845081	19.5241	0.183548	4.81956	0.432102	10.0333	0.705562	16.3755	0.906172	20.9644
0.292594	6.55997	0.0548672	1.23171	0.289473	7.45054	0.462135	10.5403	0.571802	13.0244	0.845365	19.1191	0.185292	4.74917	0.432369	9.93511	0.705858	16.0356	0.906419	20.5276
0.293138	6.43768	0.0566524	1.24573	0.289951	7.28807	0.462574	10.3585	0.572341	12.7658	0.845655	18.731	0.187052	4.68245	0.432567	9.86424	0.70616	15.7099	0.906671	20.109
0.293692	6.32053	0.0584483	1.25942	0.29044	7.1333	0.462955	10.2088	0.572892	12.5179	0.845951	18.3587	0.188827	4.61915	0.432695	9.81946	0.706468	15.3976	0.906927	19.7074
0.294257	6.20821	0.0602543	1.27278	0.290939	6.98571	0.463274	10.0885	0.573453	12.2802	0.846253	18.0012	0.190616	4.55901	0.432879	9.75587	0.706782	15.0979	0.90719	19.322
0.294833	6.10044	0.0620699	1.28583	0.291449	6.84483	0.463529	9.99555	0.574024	12.052	0.846561	17.6578	0.192419	4.50181	0.433081	9.68777	0.707103	14.81	0.907457	18.9516
0.295419	5.99696	0.0638948	1.29857	0.29197	6.71023	0.463718	9.92838	0.574606	11.8327	0.846875	17.3276	0.194235	4.44736	0.433358	9.59682	0.70743	14.5332	0.907729	18.5954
0.296015	5.89752	0.0657286	1.31101	0.292501	6.58152	0.46384	9.88591	0.575199	11.6219	0.847195	17.0099	0.196063	4.39546	0.433712	9.48445	0.707763	14.267	0.908007	18.2528
0.296622	5.80192	0.0675708	1.32317	0.293043	6.45832	0.464015	9.82555	0.575802	11.4192	0.84752	16.704	0.197904	4.34595	0.434146	9.35238	0.708102	14.0107	0.90829	17.9228
0.297239	5.70993	0.0694211	1.33504	0.293596	6.34031	0.464208	9.76085	0.576415	11.2239	0.847852	16.4092	0.199757	4.29868	0.434662	9.20255	0.708447	13.7638	0.908578	17.6048
0.297867	5.62138	0.0712792	1.34665	0.294159	6.22718	0.464471	9.67434	0.577038	11.0359	0.84819	16.125	0.20162	4.2535	0.435265	9.03705	0.708799	13.5258	0.908872	17.2982
0.298505	5.53608	0.0731447	1.35799	0.294733	6.11865	0.464808	9.5673	0.577672	10.8546	0.848533	15.8508	0.203494	4.21029	0.435879	8.87806	0.709156	13.2962	0.90917	17.0024
0.299153	5.45386	0.0750173	1.36907	0.295317	6.01444	0.46522	9.44129	0.578316	10.6797	0.848882	15.586	0.205379	4.16891	0.436504	8.72521	0.70952	13.0747	0.909474	16.7168
0.299811	5.37457	0.0768968	1.37991	0.295912	5.91433	0.465711	9.29804	0.578886	10.5323	0.849238	15.3303	0.207273	4.12927	0.437139	8.57816	0.70989	12.8607	0.909783	16.4409
0.30048	5.29807	0.0787827	1.3905	0.296517	5.81808	0.466284	9.13946	0.579378	10.4102	0.849599	15.0831	0.209177	4.09126	0.437786	8.4366	0.710266	12.6539	0.910097	16.1743
0.301159	5.22422	0.0806749	1.40086	0.297132	5.72549	0.466866	8.98676	0.579789	10.3115	0.849966	14.8441	0.21109	4.05478	0.438443	8.30024	0.710648	12.454	0.910417	15.9164
0.301848	5.15289	0.0825731	1.411	0.297758	5.63636	0.467459	8.83963	0.580116	10.235	0.850339	14.6129	0.213011	4.01976	0.439111	8.1688	0.711037	12.2606	0.910741	15.6669
0.302547	5.08397	0.084477	1.42091	0.298394	5.55051	0.468061	8.69778	0.580358	10.1795	0.850717	14.389	0.214941	3.98609	0.43979	8.04204	0.711431	12.0734	0.911071	15.4253
0.303256	5.01733	0.0863865	1.43061	0.299041	5.46778	0.468673	8.56094	0.580514	10.1443	0.851102	14.1722	0.216879	3.95372	0.440479	7.91972	0.711832	11.8922	0.911406	15.1914
0.303976	4.95289	0.0883012	1.4401	0.299697	5.388	0.469295	8.42885	0.580739	10.0942	0.851492	13.962	0.218825	3.92257	0.441179	7.80162	0.712238	11.7166	0.911746	14.9647
0.304705	4.89053	0.090221	1.44938	0.300364	5.31103	0.469927	8.30129	0.580985	10.0404	0.851889	13.7584	0.220778	3.89257	0.44189	7.68753	0.712651	11.5465	0.912091	14.7448
0.305444	4.83017	0.0921456	1.45847	0.301041	5.23673	0.470568	8.17803	0.581321	9.9683	0.852291	13.5608	0.222739	3.86367	0.442611	7.57726	0.71307	11.3814	0.912442	14.5316
0.306097	4.77912	0.0940749	1.46737	0.301729	5.16497	0.47122	8.05886	0.581749	9.87869	0.852699	13.3691	0.224706	3.8358	0.443343	7.47062	0.713495	11.2213	0.912797	14.3247
0.306659	4.73671	0.0960087	1.47608	0.302426	5.09564	0.471881	7.94359	0.582272	9.77272	0.853112	13.183	0.22668	3.80892	0.444085	7.36746	0.713926	11.066	0.913158	14.1239
0.307128	4.70239	0.0979468	1.48461	0.303134	5.02862	0.472551	7.83204	0.582893	9.65161	0.853532	13.0023	0.228661	3.78298	0.444837	7.26761	0.714363	10.9151	0.913524	13.9288
0.307501	4.67571	0.099889	1.49297	0.303851	4.96381	0.473232	7.72404	0.583614	9.51674	0.853957	12.8267	0.230648	3.75792	0.4456	7.17092	0.714749	10.7872	0.913895	13.7393
0.307777	4.65635	0.101835	1.50115	0.304579	4.9011	0.473922	7.61943	0.584345	9.38607	0.854388	12.6561	0.23264	3.73371	0.446373	7.07724	0.715081	10.6806	0.914271	13.5551
0.307955	4.64407	0.103785	1.50917	0.305317	4.8404	0.474621	7.51807	0.585086	9.2594	0.854825	12.4902	0.234639	3.71031	0.447156	6.98646	0.715359	10.5942	0.914653	13.376
0.308211	4.62657	0.105739	1.51703	0.306064	4.78162	0.47533	7.41979	0.585837	9.13656	0.855268	12.3288	0.236643	3.68766	0.44795	6.89844	0.71558	10.5269	0.915039	13.2018
0.30849	4.60775	0.107696	1.52472	0.306822	4.72469	0.476049	7.32449	0.586598	9.0174	0.855717	12.1718	0.238652	3.66576	0.448753	6.81306	0.715743	10.4781	0.915431	13.0322
0.308872	4.58248	0.109656	1.53227	0.307589	4.66951	0.476777	7.23201	0.587368	8.90174	0.856171	12.019	0.240667	3.64454	0.449567	6.73021	0.715848	10.447	0.915828	12.8672
0.309358	4.55105	0.11162	1.53966	0.308367	4.61603	0.477514	7.14226	0.588147	8.78945	0.856631	11.8702	0.242686	3.62399	0.450391	6.64979	0.716	10.4028	0.916229	12.7065
0.309952	4.51382	0.113334	1.54599	0.309154	4.56416	0.478261	7.05512	0.588937	8.68038	0.857096	11.7253	0.244711	3.60408	0.451224	6.5717	0.716165	10.3551	0.916636	12.55
0.310654	4.47118	0.114797	1.5513	0.309951	4.51384	0.479017	6.97047	0.589735	8.57441	0.857568	11.5841	0.24674	3.58477	0.452068	6.49584	0.716391	10.291	0.917049	12.3975
0.31147	4.4236	0.116008	1.55563	0.310758	4.46501	0.479782	6.88822	0.590543	8.4714	0.858045	11.4465	0.248774	3.56605	0.452922	6.42213	0.716679	10.2112	0.917466	12.2489
0.312295	4.3774	0.116966	1.55902	0.311575	4.41761	0.480557	6.80827	0.591361	8.37124	0.858528	11.3123	0.250811	3.54788	0.453785	6.35048	0.717031	10.1165	0.917888	12.104
0.31313	4.33253	0.117671	1.56149	0.312402	4.37158	0.481341	6.73053	0.592188	8.27382	0.859016	11.1815	0.252854	3.53024	0.454658	6.2808	0.717447	10.0077	0.918316	11.9626
0.313975	4.28893	0.118122	1.56306	0.313238	4.32687	0.482134	6.65492	0.593024	8.17904	0.859447	11.0701	0.2549	3.51311	0.455541	6.21303	0.71793	9.88596	0.918749	11.8247
0.31483	4.24656	0.118771	1.56531	0.314084	4.28343	0.482936	6.58136	0.593869	8.08678	0.859817	10.977	0.25695	3.49647	0.456434	6.14709	0.71842	9.76739	0.919186	11.6902
0.315694	4.20537	0.119477	1.56774	0.31494	4.24121	0.483747	6.50976	0.594724	7.99696	0.860126	10.9013	0.259004	3.4803	0.457336	6.08292	0.718915	9.65187	0.919629	11.5589
0.316568	4.16532	0.120438	1.57101	0.315806	4.20017	0.484568	6.44006	0.595587	7.90948	0.860371	10.8422	0.261062	3.46457	0.458248	6.02044	0.719417	9.53927	0.920077	11.4306
0.317452	4.12636	0.121653	1.57511	0.316681	4.16026	0.485397	6.37218	0.59646	7.82426	0.860553	10.7992	0.263123	3.44928	0.459169	5.95959	0.719924	9.42951	0.92053	11.3054
0.318346	4.08846	0.123125	1.58	0.317566	4.12144	0.486236	6.30605	0.597342	7.74122	0.860669	10.7719	0.265188	3.4344	0.4601	5.90033	0.720437	9.32247	0.920929	11.1986
0.319249	4.05158	0.124853	1.58565	0.318461	4.08368	0.487083	6.24162	0.598233	7.66027	0.860837	10.7329	0.267256	3.41991	0.46104	5.84258	0.720956	9.21805	0.921272	11.1093
0.320162	4.01569	0.126838	1.59203	0.319366	4.04693	0.487939	6.17882	0.599132	7.58134	0.86102	10.6908	0.269327	3.40581	0.46199	5.78629	0.721482	9.11617	0.921558	11.0366
0.321085	3.98074	0.128825	1.59828	0.32028	4.01116	0.488804	6.1176	0.600041	7.50437	0.861271	10.6341	0.271401	3.39208	0.462949	5.73142	0.722013	9.01673	0.921785	10.9798
0.322017	3.94671	0.130814	1.60442	0.321204	3.97633	0.489678	6.0579	0.600958	7.42927	0.861589	10.5634	0.273479	3.3787	0.463917	5.67791	0.72255	8.91965	0.921953	10.9384
0.322959	3.91357	0.132806	1.61044	0.322137	3.94241	0.490561	5.99967	0.601884	7.35599	0.861977	10.4793	0.275559	3.36566	0.464894	5.62573	0.723092	8.82486	0.922061	10.9122
0.323911	3.88128	0.1348	1.61635	0.32308	3.90938	0.491452	5.94285	0.602819	7.28447	0.862436	10.3824	0.277642	3.35295	0.465881	5.57481	0.723641	8.73226	0.922217	10.8746
0.324872	3.84982	0.136795	1.62216	0.324033	3.8772	0.492352	5.8874	0.603763	7.21465	0.862969	10.2735	0.279728	3.34055	0.466877	5.52513	0.724196	8.64179	0.922386	10.8341
0.325843	3.81916	0.138793	1.62786	0.324996	3.84585	0.493261	5.83328	0.604715	7.14646	0.863506	10.1672	0.281817	3.32846	0.467881	5.47664	0.724756	8.55339	0.922618	10.7795
0.326824	3.78928	0.140792	1.63346	0.325969	3.81529	0.494178	5.78044	0.605675	7.07986	0.86405	10.0632	0.283908	3.31666	0.468895	5.42929	0.725322	8.46697	0.922913	10.7113
0.327815	3.76015	0.142793	1.63897	0.326951	3.78551	0.495104	5.72883	0.606644	7.01479	0.864599	9.96149	0.286002	3.30515	0.469918	5.38306	0.725894	8.38248	0.923272	10.6301
0.328816	3.73175	0.144796	1.64437	0.327943	3.75647	0.496038	5.67843	0.607622	6.95121	0.865154	9.86201	0.288098	3.29391	0.47095	5.33791	0.726472	8.29986	0.923696	10.5365
0.329826	3.70405	0.146801	1.64968	0.328945	3.72816	0.496981	5.62918	0.608608	6.88906	0.865714	9.76469	0.290196	3.28293	0.47199	5.2938	0.727056	8.21904	0.924188	10.4313
0.330846	3.67703	0.148807	1.6549	0.329956	3.70055	0.497932	5.58106	0.609602	6.8283	0.86628	9.66946	0.292297	3.2722	0.47304	5.2507	0.727646	8.13997	0.924685	10.3283
0.331876	3.65068	0.150815	1.66002	0.330978	3.67361	0.498892	5.53402	0.610605	6.76889	0.866851	9.57625	0.2944	3.26173	0.474098	5.20858	0.728241	8.0626	0.925187	10.2274
0.332916	3.62496	0.152824	1.66506	0.332009	3.64734	0.49986	5.48804	0.611616	6.71079	0.867428	9.48499	0.296505	3.25149	0.475165	5.16741	0.728842	7.98687	0.925695	10.1287
0.333966	3.59988	0.154834	1.67001	0.33305	3.62171	0.500836	5.44308	0.612635	6.65395	0.86801	9.39564	0.298612	3.24147	0.47624	5.12716	0.729449	7.91273	0.926207	10.0321
0.335026	3.57539	0.156846	1.67488	0.334101	3.5967	0.50182	5.39911	0.613662	6.59833	0.868598	9.30813	0.300721	3.23168	0.477325	5.0878	0.730062	7.84014	0.926724	9.93737
0.336096	3.5515	0.158859	1.67967	0.335162	3.5723	0.502813	5.3561	0.614697	6.54391	0.869192	9.22242	0.302832	3.22211	0.478417	5.0493	0.730681	7.76905	0.927246	9.84462
0.337176	3.52818	0.160873	1.68437	0.336234	3.54848	0.503814	5.31402	0.615741	6.49064	0.869791	9.13843	0.304945	3.21274	0.479519	5.01164	0.731305	7.69941	0.927774	9.75373
0.338266	3.50541	0.162889	1.689	0.337315	3.52523	0.504823	5.27284	0.616792	6.43848	0.870395	9.05613	0.30706	3.20358	0.480628	4.9748	0.731935	7.63119	0.928306	9.66466
0.339367	3.48318	0.164906	1.69355	0.338407	3.50253	0.505839	5.23254	0.617851	6.38742	0.871005	8.97547	0.309176	3.19461	0.481746	4.93874	0.73257	7.56434	0.928843	9.57736
0.340478	3.46148	0.166923	1.69802	0.339509	3.48037	0.506864	5.1931	0.618919	6.33741	0.871621	8.8964	0.311295	3.18582	0.482873	4.90346	0.733212	7.49882	0.929385	9.49176
0.341599	3.4403	0.168942	1.70243	0.340621	3.45874	0.507897	5.15448	0.619993	6.28843	0.872242	8.81888	0.313414	3.17722	0.484008	4.86892	0.733859	7.43459	0.929933	9.40783
0.342731	3.41961	0.170962	1.70676	0.341743	3.43762	0.508938	5.11666	0.621076	6.24043	0.872868	8.74285	0.315536	3.1688	0.485151	4.8351	0.734512	7.37163	0.930485	9.32552
0.343873	3.3994	0.172983	1.71102	0.342876	3.41699	0.509987	5.07962	0.622167	6.19341	0.8735	8.66829	0.317659	3.16055	0.486302	4.80198	0.73517	7.30988	0.931042	9.24478
0.345026	3.37967	0.175005	1.71521	0.34402	3.39685	0.511043	5.04334	0.623265	6.14733	0.874138	8.59515	0.319783	3.15246	0.487461	4.76955	0.735834	7.24933	0.931604	9.16557
0.34619	3.3604	0.177028	1.71933	0.345174	3.37718	0.512108	5.0078	0.624371	6.10216	0.87478	8.52338	0.321909	3.14453	0.488629	4.73779	0.736504	7.18993	0.932171	9.08785
0.347364	3.34159	0.179051	1.72339	0.34634	3.35797	0.51318	4.97298	0.625484	6.05788	0.875428	8.45296	0.324036	3.13677	0.489805	4.70667	0.737179	7.13166	0.932743	9.01157
0.34855	3.32321	0.181076	1.72739	0.347516	3.33921	0.514259	4.93885	0.626605	6.01446	0.876082	8.38385	0.326165	3.12915	0.490988	4.67617	0.73786	7.07448	0.93332	8.9367
0.349747	3.30526	0.183101	1.73132	0.348703	3.32088	0.515347	4.9054	0.627733	5.97189	0.876741	8.31601	0.328295	3.12168	0.49218	4.6463	0.738547	7.01837	0.933902	8.8632
0.350955	3.28773	0.185127	1.73519	0.349901	3.30299	0.516442	4.87261	0.628869	5.93013	0.877405	8.24941	0.330426	3.11435	0.49338	4.61701	0.739239	6.9633	0.934489	8.79104
0.352175	3.27061	0.187154	1.739	0.351111	3.28551	0.517544	4.84046	0.630012	5.88917	0.878075	8.18401	0.332558	3.10716	0.494587	4.58831	0.739937	6.90924	0.935081	8.72018
0.353406	3.25389	0.189181	1.74275	0.352332	3.26844	0.518654	4.80894	0.631162	5.84898	0.87875	8.1198	0.334692	3.10011	0.495802	4.56016	0.740641	6.85616	0.935678	8.65058
0.354649	3.23756	0.191209	1.74645	0.353565	3.25178	0.519771	4.77802	0.63232	5.80955	0.87943	8.05672	0.336826	3.09319	0.497025	4.53257	0.74135	6.80404	0.93628	8.58222
0.355905	3.22162	0.193238	1.75008	0.35481	3.2355	0.520896	4.7477	0.633485	5.77085	0.880116	7.99477	0.338962	3.08639	0.498256	4.50552	0.742064	6.75285	0.936886	8.51506
0.357172	3.20605	0.195268	1.75367	0.356066	3.2196	0.522028	4.71795	0.634657	5.73287	0.880807	7.9339	0.341098	3.07972	0.499495	4.47898	0.742784	6.70258	0.937498	8.44907
0.358452	3.19086	0.197298	1.7572	0.357335	3.20409	0.523168	4.68877	0.635836	5.69559	0.881504	7.87409	0.343236	3.07317	0.500741	4.45295	0.74351	6.65319	0.938114	8.38423
0.359744	3.17602	0.199328	1.76067	0.358617	3.18893	0.524315	4.66014	0.637022	5.65899	0.882205	7.81531	0.345375	3.06674	0.501994	4.42742	0.744241	6.60467	0.938735	8.3205
0.361049	3.16154	0.201359	1.76409	0.35991	3.17414	0.525469	4.63204	0.638215	5.62305	0.882912	7.75755	0.347514	3.06042	0.503256	4.40237	0.744978	6.55699	0.939362	8.25785
0.362367	3.1474	0.203391	1.76747	0.361217	3.1597	0.52663	4.60446	0.639416	5.58775	0.883625	7.70077	0.349655	3.05421	0.504525	4.37779	0.74572	6.51014	0.939993	8.19627
0.363699	3.13361	0.205423	1.77079	0.362537	3.14561	0.527798	4.57738	0.640623	5.55309	0.884342	7.64494	0.351796	3.0481	0.505801	4.35366	0.746467	6.46409	0.940629	8.13572
0.365044	3.12015	0.207456	1.77406	0.36387	3.13186	0.528974	4.55081	0.641837	5.51904	0.885065	7.59006	0.353938	3.0421	0.507084	4.32999	0.74722	6.41882	0.941269	8.07618
0.366403	3.10702	0.209489	1.77729	0.365217	3.11845	0.530156	4.52471	0.643058	5.48559	0.885793	7.53609	0.356081	3.03621	0.508375	4.30675	0.747979	6.37432	0.941915	8.01763
0.367776	3.09422	0.211523	1.78047	0.366578	3.10536	0.531346	4.49909	0.644285	5.45273	0.886526	7.48301	0.358224	3.03041	0.509674	4.28393	0.748743	6.33057	0.942566	7.96004
0.369163	3.08174	0.213557	1.7836	0.367953	3.0926	0.532542	4.47392	0.64552	5.42043	0.887265	7.43081	0.360368	3.02471	0.510979	4.26154	0.749513	6.28754	0.943221	7.90338
0.370566	3.06957	0.215591	1.78669	0.369342	3.08016	0.533745	4.44921	0.646761	5.38869	0.888008	7.37946	0.362513	3.0191	0.512292	4.23954	0.750287	6.24523	0.943881	7.84765
0.371983	3.05771	0.217626	1.78973	0.370746	3.06803	0.534955	4.42493	0.648008	5.3575	0.888757	7.32893	0.364659	3.01359	0.513612	4.21795	0.751068	6.20362	0.944546	7.79281
0.373415	3.04616	0.219661	1.79273	0.372166	3.05621	0.536172	4.40108	0.649263	5.32684	0.889511	7.27923	0.366805	3.00816	0.51494	4.19674	0.751853	6.16268	0.945216	7.73885
0.374864	3.0349	0.221696	1.79569	0.3736	3.0447	0.537396	4.37764	0.650523	5.29669	0.890271	7.23031	0.368952	3.00282	0.516274	4.1759	0.752644	6.12241	0.94589	7.68575
0.376328	3.02395	0.223732	1.79861	0.37505	3.03348	0.538626	4.35461	0.651791	5.26706	0.891035	7.18218	0.371099	2.99757	0.517616	4.15544	0.753441	6.08279	0.94657	7.63348
0.377809	3.01329	0.225768	1.80148	0.376517	3.02257	0.539863	4.33199	0.653064	5.23791	0.891804	7.1348	0.373247	2.9924	0.518964	4.13533	0.754243	6.0438	0.947254	7.58203
0.379306	3.00292	0.227805	1.80432	0.378	3.01194	0.541107	4.30974	0.654345	5.20925	0.892579	7.08816	0.375395	2.9873	0.520319	4.11558	0.75505	6.00543	0.947943	7.53138
0.380821	2.99283	0.229841	1.80711	0.379499	3.00161	0.542357	4.28788	0.655631	5.18107	0.893359	7.04225	0.377543	2.98229	0.521682	4.09617	0.755862	5.96767	0.948637	7.48151
0.382352	2.98303	0.231878	1.80987	0.381016	2.99156	0.543614	4.26639	0.656924	5.15334	0.894144	6.99705	0.379692	2.97735	0.523051	4.07709	0.75668	5.9305	0.949335	7.43241
0.383902	2.9735	0.233915	1.81259	0.38255	2.98179	0.544877	4.24527	0.658223	5.12606	0.894934	6.95254	0.381842	2.97249	0.524427	4.05835	0.757503	5.89392	0.950039	7.38405
0.385469	2.96425	0.235953	1.81527	0.384102	2.9723	0.546147	4.22449	0.659528	5.09923	0.895729	6.90871	0.383991	2.9677	0.52581	4.03992	0.758331	5.8579	0.950747	7.33643
0.387056	2.95528	0.23799	1.81792	0.385672	2.96309	0.547423	4.20407	0.660839	5.07283	0.896529	6.86554	0.386142	2.96298	0.5272	4.02181	0.759165	5.82243	0.95146	7.28952
0.38866	2.94657	0.240028	1.82053	0.38726	2.95414	0.548706	4.18398	0.662157	5.04685	0.897334	6.82303	0.388292	2.95834	0.528596	4.004	0.760004	5.78751	0.952177	7.24332
0.390284	2.93812	0.242066	1.8231	0.388867	2.94547	0.549994	4.16422	0.663481	5.02128	0.898145	6.78115	0.390442	2.95375	0.53	3.9865	0.760848	5.75312	0.952899	7.1978
0.391927	2.92994	0.244104	1.82564	0.390493	2.93706	0.55129	4.14479	0.66481	4.99611	0.89896	6.7399	0.392593	2.94924	0.53141	3.96929	0.761698	5.71925	0.953626	7.15295
0.39359	2.92202	0.246142	1.82814	0.392139	2.92891	0.552591	4.12567	0.666146	4.97134	0.89978	6.69925	0.394744	2.94479	0.532826	3.95236	0.762552	5.68589	0.954358	7.10876
0.395272	2.91435	0.248181	1.83062	0.393804	2.92102	0.553898	4.10687	0.667487	4.94696	0.900606	6.6592	0.396896	2.9404	0.534249	3.93572	0.763412	5.65303	0.955094	7.06521
0.396974	2.90693	0.250219	1.83306	0.395489	2.91339	0.555212	4.08836	0.668835	4.92295	0.901436	6.61974	0.399047	2.93607	0.535679	3.91935	0.764277	5.62066	0.955835	7.02229
0.398697	2.89976	0.252258	1.83546	0.397194	2.906	0.556531	4.07016	0.670188	4.89931	0.902272	6.58085	0.401199	2.9318	0.537115	3.90325	0.765148	5.58877	0.956581	6.97999
0.40044	2.89284	0.254297	1.83784	0.398919	2.89886	0.557857	4.05224	0.671547	4.87604	0.903112	6.54252	0.40335	2.92759	0.538557	3.88741	0.766023	5.55734	0.957331	6.9383
0.402203	2.88615	0.256336	1.84018	0.400665	2.89197	0.559189	4.03461	0.672912	4.85312	0.903957	6.50473	0.405502	2.92344	0.540006	3.87183	0.766904	5.52638	0.958087	6.8972
0.403987	2.8797	0.258375	1.8425	0.402431	2.88531	0.560526	4.01725	0.674283	4.83054	0.904807	6.46749	0.407654	2.91934	0.541462	3.8565	0.76779	5.49586	0.958846	6.85668
0.405791	2.87348	0.260414	1.84478	0.404217	2.87889	0.56187	4.00017	0.675659	4.80831	0.905663	6.43078	0.409805	2.9153	0.542924	3.84142	0.76868	5.46579	0.959611	6.81673
0.407616	2.86748	0.262453	1.84704	0.406024	2.8727	0.563219	3.98336	0.677041	4.78641	0.906523	6.39458	0.411957	2.91131	0.544392	3.82659	0.769577	5.43614	0.96038	6.77734
0.409462	2.86171	0.264493	1.84926	0.407852	2.86673	0.564574	3.9668	0.678429	4.76483	0.907388	6.35889	0.414109	2.90738	0.545866	3.81199	0.770478	5.40692	0.961153	6.73849
0.411327	2.85615	0.266532	1.85146	0.4097	2.86098	0.565936	3.9505	0.679822	4.74358	0.908258	6.3237	0.416261	2.90349	0.547347	3.79762	0.771384	5.37812	0.961932	6.70018
0.413213	2.8508	0.268571	1.85363	0.411568	2.85545	0.567302	3.93446	0.681221	4.72264	0.909133	6.28899	0.418412	2.89966	0.548834	3.78348	0.772295	5.34972	0.962715	6.6624
0.415119	2.84566	0.270611	1.85577	0.413457	2.85013	0.568675	3.91865	0.682625	4.702	0.910012	6.25477	0.420564	2.89587	0.550327	3.76956	0.773212	5.32173	0.963502	6.62513
0.417045	2.84071	0.27265	1.85789	0.415365	2.84501	0.570053	3.90309	0.684034	4.68166	0.910897	6.22101	0.422715	2.89213	0.551826	3.75586	0.774133	5.29412	0.964294	6.58837
0.41899	2.83597	0.274689	1.85998	0.417293	2.8401	0.571437	3.88777	0.685449	4.66162	0.911786	6.18771	0.424866	2.88843	0.553332	3.74237	0.77506	5.2669	0.965091	6.5521
0.420955	2.83141	0.276729	1.86204	0.419241	2.83537	0.572826	3.87267	0.68687	4.64187	0.91268	6.15486	0.427018	2.88479	0.554843	3.7291	0.775991	5.24005	0.965892	6.51633
0.422938	2.82703	0.278768	1.86408	0.421208	2.83084	0.574221	3.8578	0.688295	4.6224	0.91358	6.12246	0.429168	2.88118	0.55636	3.71603	0.776928	5.21357	0.966698	6.48103
0.42494	2.82283	0.280808	1.86609	0.423193	2.82648	0.575621	3.84315	0.689726	4.60321	0.914483	6.09049	0.431319	2.87762	0.557884	3.70316	0.777869	5.18746	0.967508	6.44619
0.426959	2.8188	0.282847	1.86808	0.425197	2.82231	0.577027	3.82872	0.691162	4.58429	0.915392	6.05894	0.43347	2.8741	0.559413	3.69049	0.778816	5.1617	0.968323	6.41182
0.428997	2.81494	0.284887	1.87004	0.42722	2.8183	0.578438	3.8145	0.692604	4.56563	0.916306	6.02782	0.43562	2.87063	0.560949	3.67801	0.779768	5.13629	0.969142	6.3779
0.431051	2.81123	0.286926	1.87198	0.429259	2.81446	0.579855	3.80049	0.69405	4.54724	0.917224	5.9971	0.43777	2.86719	0.56249	3.66572	0.780724	5.11123	0.969966	6.34442
0.433123	2.80768	0.288966	1.87389	0.431316	2.81077	0.581276	3.78669	0.695502	4.5291	0.918147	5.96679	0.439919	2.86379	0.564037	3.65362	0.781686	5.08649	0.970795	6.31138
0.43521	2.80428	0.291005	1.87578	0.433389	2.80724	0.582704	3.77309	0.696958	4.51122	0.919075	5.93687	0.442068	2.86044	0.56559	3.6417	0.782652	5.06209	0.971628	6.27876
0.437313	2.80101	0.293044	1.87765	0.435479	2.80385	0.584136	3.75968	0.69842	4.49358	0.920007	5.90734	0.444217	2.85712	0.567149	3.62996	0.783624	5.03802	0.972465	6.24656
0.439431	2.79788	0.295083	1.8795	0.437584	2.8006	0.585574	3.74647	0.699887	4.47618	0.920944	5.87819	0.446366	2.85383	0.568714	3.6184	0.7846	5.01426	0.973307	6.21478
0.441565	2.79489	0.297123	1.88132	0.439704	2.79749	0.587016	3.73344	0.701358	4.45903	0.921886	5.84942	0.448514	2.85059	0.570284	3.60701	0.785581	4.99081	0.974154	6.1834
0.443712	2.79201	0.299162	1.88312	0.441839	2.79451	0.588464	3.7206	0.702835	4.4421	0.922833	5.82102	0.450662	2.84738	0.571861	3.59579	0.786567	4.96767	0.975005	6.15241
0.445872	2.78926	0.301201	1.8849	0.443988	2.79165	0.589917	3.70795	0.704316	4.4254	0.923784	5.79297	0.452809	2.8442	0.573442	3.58474	0.787558	4.94484	0.97586	6.12182
0.448046	2.78661	0.30324	1.88666	0.44615	2.78891	0.591375	3.69547	0.705803	4.40893	0.92474	5.76528	0.454956	2.84106	0.57503	3.57384	0.788554	4.92229	0.97672	6.09161
0.450233	2.78408	0.305279	1.8884	0.448326	2.78628	0.592839	3.68317	0.707294	4.39268	0.925701	5.73794	0.457102	2.83795	0.576623	3.56311	0.789555	4.90004	0.977584	6.06178
0.452432	2.78165	0.307318	1.89012	0.450514	2.78376	0.594307	3.67104	0.70879	4.37665	0.926666	5.71094	0.459248	2.83488	0.578222	3.55254	0.79056	4.87808	0.978453	6.03231
0.454642	2.77932	0.309356	1.89182	0.452714	2.78135	0.59578	3.65908	0.71029	4.36083	0.927636	5.68428	0.461394	2.83183	0.579826	3.54212	0.791571	4.85639	0.979326	6.00321
0.456864	2.77708	0.311395	1.8935	0.454926	2.77903	0.597258	3.64729	0.711796	4.34521	0.928611	5.65795	0.463538	2.82882	0.581436	3.53185	0.792586	4.83498	0.980203	5.97447
0.459096	2.77493	0.313434	1.89516	0.457149	2.7768	0.59874	3.63566	0.713306	4.3298	0.92959	5.63195	0.465683	2.82584	0.583052	3.52174	0.793606	4.81385	0.981085	5.94608
0.461338	2.77287	0.315472	1.8968	0.459382	2.77467	0.600228	3.62419	0.71482	4.3146	0.930574	5.60626	0.467826	2.82289	0.584673	3.51176	0.794631	4.79297	0.981971	5.91803
0.46359	2.77089	0.31751	1.89842	0.461626	2.77261	0.60172	3.61287	0.71634	4.29959	0.931562	5.58089	0.469969	2.81996	0.586299	3.50193	0.79566	4.77237	0.982862	5.89033
0.465852	2.76899	0.319549	1.90002	0.46388	2.77065	0.603217	3.60172	0.717863	4.28477	0.932555	5.55583	0.472112	2.81707	0.587931	3.49225	0.796694	4.75201	0.983757	5.86295
0.468122	2.76716	0.321587	1.90161	0.466142	2.76875	0.604719	3.59071	0.719392	4.27015	0.933553	5.53107	0.474254	2.81421	0.589568	3.4827	0.797734	4.73191	0.984656	5.83591
0.470401	2.7654	0.323625	1.90317	0.468414	2.76693	0.606226	3.57985	0.720924	4.25571	0.934555	5.50661	0.476395	2.81137	0.591211	3.47329	0.798777	4.71206	0.98556	5.80919
0.472689	2.76371	0.325663	1.90472	0.470694	2.76518	0.607737	3.56914	0.722462	4.24146	0.935561	5.48244	0.478535	2.80856	0.592859	3.46401	0.799826	4.69246	0.986468	5.78278
0.474984	2.76209	0.3277	1.90625	0.472983	2.7635	0.609253	3.55857	0.724003	4.22739	0.936572	5.45857	0.480675	2.80577	0.594512	3.45486	0.800879	4.67309	0.98738	5.75669
0.477286	2.76052	0.329738	1.90776	0.475279	2.76188	0.610773	3.54814	0.725549	4.21349	0.937588	5.43497	0.482814	2.80302	0.59617	3.44584	0.801937	4.65397	0.988297	5.7309
0.479596	2.75901	0.331775	1.90926	0.477582	2.76032	0.612298	3.53785	0.7271	4.19977	0.938608	5.41166	0.484953	2.80028	0.597834	3.43695	0.803	4.63507	0.989218	5.70542
0.481913	2.75756	0.333813	1.91074	0.479893	2.75882	0.613828	3.5277	0.728655	4.18622	0.939632	5.38862	0.48709	2.79758	0.599503	3.42818	0.804067	4.61641	0.990143	5.68023
0.484236	2.75616	0.33585	1.9122	0.48221	2.75737	0.615362	3.51768	0.730214	4.17284	0.940661	5.36585	0.489227	2.79489	0.601178	3.41954	0.805139	4.59797	0.991073	5.65533
0.486565	2.7548	0.337887	1.91365	0.484534	2.75598	0.6169	3.50779	0.731777	4.15963	0.941695	5.34335	0.491363	2.79224	0.602857	3.41101	0.806215	4.57975	0.992006	5.63073
0.4889	2.7535	0.339924	1.91508	0.486864	2.75463	0.618443	3.49803	0.733344	4.14658	0.942733	5.32111	0.493499	2.7896	0.604542	3.40261	0.807297	4.56174	0.992944	5.6064
0.491241	2.75224	0.341961	1.9165	0.4892	2.75334	0.61999	3.4884	0.734916	4.13369	0.943775	5.29912	0.495633	2.78699	0.606232	3.39432	0.808383	4.54396	0.993887	5.58236
0.493587	2.75103	0.343997	1.9179	0.491541	2.75208	0.621542	3.47889	0.736492	4.12096	0.944822	5.27739	0.497767	2.7844	0.607926	3.38615	0.809473	4.52638	0.994833	5.55858
0.495938	2.74985	0.346034	1.91928	0.493888	2.75087	0.623097	3.4695	0.738072	4.10838	0.945873	5.25591	0.499899	2.78183	0.609626	3.37808	0.810568	4.50901	0.995784	5.53508
0.498294	2.74872	0.34807	1.92065	0.49624	2.7497	0.624657	3.46024	0.739656	4.09596	0.946929	5.23468	0.502031	2.77928	0.611331	3.37013	0.811668	4.49185	0.996739	5.51185
0.500655	2.74762	0.350106	1.922	0.498597	2.74857	0.626222	3.45109	0.741244	4.08368	0.947989	5.21368	0.504162	2.77676	0.613042	3.36229	0.812772	4.47489	0.997698	5.48887
0.503021	2.74656	0.352142	1.92334	0.500958	2.74748	0.62779	3.44206	0.742836	4.07155	0.949053	5.19293	0.506293	2.77426	0.614757	3.35456	0.813881	4.45812	0.998662	5.46615
0.50539	2.74553	0.354178	1.92467	0.503324	2.74642	0.629363	3.43315	0.744432	4.05957	0.950122	5.17241	0.508422	2.77177	0.616477	3.34693	0.814994	4.44156	0.999629	5.44369
0.507764	2.74453	0.356214	1.92598	0.505694	2.7454	0.63094	3.42435	0.746032	4.04773	0.951195	5.15212	0.51055	2.76931	0.618202	3.3394	0.816112	4.42518	1.0006	5.42147
0.510142	2.74357	0.358249	1.92727	0.508069	2.74441	0.632521	3.41566	0.747636	4.03603	0.952272	5.13205	0.512677	2.76686	0.619932	3.33198	0.817234	4.40899		
0.512523	2.74263	0.360284	1.92856	0.510447	2.74345	0.634106	3.40708	0.749244	4.02447	0.953354	5.11221	0.514804	2.76444	0.621667	3.32465	0.818361	4.39299		
0.514908	2.74172	0.362319	1.92983	0.512829	2.74251	0.635695	3.3986	0.750856	4.01304	0.95444	5.09259	0.516929	2.76203	0.623406	3.31743	0.819492	4.37717		
0.517296	2.74084	0.364354	1.93108	0.515214	2.74161	0.637288	3.39023	0.752471	4.00175	0.95553	5.07319	0.519054	2.75965	0.625151	3.3103	0.820628	4.36153		
0.519688	2.73999	0.366389	1.93232	0.517603	2.74073	0.638886	3.38197	0.754091	3.99059	0.956625	5.054	0.521177	2.75728	0.6269	3.30326	0.821769	4.34607		
0.522083	2.73916	0.368424	1.93355	0.519995	2.73988	0.640487	3.3738	0.755714	3.97956	0.957724	5.03502	0.523299	2.75493	0.628655	3.29633	0.822913	4.33079		
0.52448	2.73835	0.370458	1.93477	0.52239	2.73906	0.642092	3.36574	0.757341	3.96865	0.958827	5.01625	0.525421	2.75259	0.630414	3.28948	0.824062	4.31567		
0.526881	2.73757	0.372492	1.93597	0.524788	2.73825	0.643701	3.35777	0.758971	3.95788	0.959934	4.99769	0.527541	2.75028	0.632178	3.28272	0.825216	4.30073		
0.529284	2.73681	0.374526	1.93716	0.527188	2.73747	0.645314	3.34991	0.760606	3.94722	0.961046	4.97932	0.52966	2.74798	0.633946	3.27606	0.826374	4.28595		
0.531689	2.73607	0.37656	1.93834	0.529592	2.73671	0.646931	3.34214	0.762244	3.93669	0.962161	4.96115	0.531778	2.7457	0.635719	3.26948	0.827537	4.27134		
0.534098	2.73534	0.378594	1.93951	0.531998	2.73597	0.648551	3.33446	0.763885	3.92627	0.963282	4.94318	0.533896	2.74343	0.637497	3.26299	0.828704	4.25689		
0.536508	2.73464	0.380627	1.94066	0.534406	2.73525	0.650176	3.32687	0.765531	3.91598	0.964406	4.9254	0.536012	2.74118	0.63928	3.25658	0.829875	4.24261		
0.538921	2.73395	0.38266	1.94181	0.536817	2.73455	0.651804	3.31938	0.767179	3.9058	0.965534	4.90781	0.538126	2.73894	0.641067	3.25026	0.83105	4.22848		
0.541336	2.73329	0.384693	1.94294	0.53923	2.73387	0.653436	3.31198	0.768832	3.89573	0.966667	4.89041	0.54024	2.73673	0.642859	3.24402	0.83223	4.2145		
0.543753	2.73264	0.386726	1.94405	0.541645	2.7332	0.655071	3.30466	0.770488	3.88578	0.967803	4.87319	0.542353	2.73452	0.644656	3.23786	0.833415	4.20068		
0.546172	2.732	0.388759	1.94516	0.544063	2.73255	0.656711	3.29743	0.772147	3.87593	0.968944	4.85615	0.544464	2.73233	0.646457	3.23179	0.834603	4.18701		
0.548593	2.73138	0.390791	1.94626	0.546482	2.73192	0.658354	3.29029	0.77381	3.8662	0.970089	4.83929	0.546575	2.73016	0.648262	3.22579	0.835796	4.17349		
0.551015	2.73077	0.392823	1.94734	0.548903	2.7313	0.66	3.28323	0.775476	3.85657	0.971238	4.82261	0.548684	2.728	0.650072	3.21987	0.836994	4.16011		
0.55344	2.73018	0.394855	1.94842	0.551326	2.7307	0.661651	3.27626	0.777146	3.84705	0.972392	4.8061	0.550792	2.72585	0.651887	3.21402	0.838195	4.14688		
0.555865	2.7296	0.396887	1.94948	0.55375	2.73011	0.663305	3.26936	0.778819	3.83763	0.973549	4.78977	0.552899	2.72372	0.653706	3.20825	0.839401	4.13379		
0.558293	2.72904	0.398918	1.95053	0.556176	2.72953	0.664962	3.26255	0.780495	3.82832	0.97471	4.7736	0.555004	2.7216	0.655529	3.20256	0.840611	4.12084		
0.560722	2.72849	0.40095	1.95157	0.558604	2.72897	0.666623	3.25582	0.782175	3.8191	0.975876	4.7576	0.557108	2.71949	0.657357	3.19694	0.841826	4.10803		
0.563152	2.72794	0.402981	1.95261	0.561033	2.72842	0.668287	3.24916	0.783858	3.80999	0.977045	4.74176	0.559212	2.7174	0.659189	3.19139	0.843045	4.09536		
0.565584	2.72741	0.405012	1.95363	0.563464	2.72788	0.669955	3.24258	0.785545	3.80097	0.978219	4.72609	0.561313	2.71532	0.661026	3.18591	0.844268	4.08282		
0.568017	2.7269	0.407043	1.95464	0.565896	2.72735	0.671627	3.23608	0.787234	3.79205	0.979396	4.71057	0.563414	2.71325	0.662867	3.1805	0.845495	4.07042		
0.570451	2.72639	0.409073	1.95564	0.568329	2.72683	0.673302	3.22965	0.788927	3.78323	0.980578	4.69522	0.565514	2.7112	0.664712	3.17516	0.846726	4.05814		
0.572887	2.72589	0.411103	1.95663	0.570763	2.72632	0.67498	3.2233	0.790623	3.7745	0.981764	4.68001	0.567612	2.70916	0.666562	3.16989	0.847962	4.046		
0.575323	2.7254	0.413133	1.95761	0.573199	2.72583	0.676662	3.21701	0.792322	3.76586	0.982953	4.66497	0.569709	2.70713	0.668416	3.16468	0.849201	4.03398		
0.577761	2.72492	0.415163	1.95858	0.575636	2.72534	0.678347	3.2108	0.794025	3.75731	0.984147	4.65007	0.571804	2.70511	0.670274	3.15954	0.850445	4.02209		
0.5802	2.72445	0.417193	1.95954	0.578073	2.72486	0.680036	3.20466	0.79573	3.74885	0.985345	4.63532	0.573899	2.7031	0.672136	3.15447	0.851694	4.01032		
0.582639	2.72399	0.419222	1.9605	0.580512	2.72439	0.681728	3.19859	0.797439	3.74048	0.986546	4.62072	0.575992	2.70111	0.674003	3.14946	0.852946	3.99867		
0.58508	2.72353	0.421251	1.96144	0.582952	2.72393	0.683423	3.19259	0.79915	3.7322	0.987752	4.60627	0.578084	2.69913	0.675874	3.14451	0.854202	3.98715		
0.587521	2.72309	0.42328	1.96237	0.585392	2.72348	0.685121	3.18666	0.800865	3.72401	0.988962	4.59196	0.580174	2.69715	0.677749	3.13962	0.855463	3.97574		
0.589963	2.72265	0.425309	1.9633	0.587834	2.72303	0.686823	3.18079	0.802583	3.71589	0.990175	4.57779	0.582263	2.69519	0.679628	3.1348	0.856728	3.96446		
0.592406	2.72222	0.427338	1.96422	0.590276	2.72259	0.688528	3.17498	0.804303	3.70787	0.991392	4.56376	0.584351	2.69324	0.681511	3.13003	0.857996	3.95328		
0.594849	2.7218	0.429366	1.96512	0.592719	2.72216	0.690237	3.16925	0.806027	3.69992	0.992614	4.54987	0.586438	2.6913	0.683398	3.12532	0.859269	3.94222		
0.597294	2.72138	0.431394	1.96602	0.595163	2.72174	0.691948	3.16357	0.807754	3.69206	0.993839	4.53611	0.588523	2.68937	0.685289	3.12068	0.860546	3.93128		
0.599738	2.72097	0.433422	1.96691	0.597607	2.72132	0.693663	3.15796	0.809483	3.68427	0.995068	4.52249	0.590607	2.68745	0.687184	3.11609	0.861827	3.92044		
0.602184	2.72056	0.435449	1.96779	0.600052	2.72091	0.695381	3.15241	0.811216	3.67657	0.996301	4.509	0.59269	2.68554	0.689083	3.11155	0.863113	3.90972		
0.60463	2.72016	0.437477	1.96867	0.602497	2.72051	0.697102	3.14692	0.812951	3.66894	0.997537	4.49564	0.594771	2.68365	0.690987	3.10707	0.864402	3.8991		
0.607077	2.71977	0.439504	1.96953	0.604943	2.72011	0.698826	3.14149	0.814689	3.66139	0.998778	4.48241	0.596851	2.68176	0.692894	3.10265	0.865695	3.8886		
0.609524	2.71938	0.441531	1.97039	0.60739	2.71972	0.700554	3.13612	0.81643	3.65391	1.00002	4.46931	0.598929	2.67988	0.694805	3.09828	0.866993	3.87819		
0.611971	2.719	0.443557	1.97124	0.609837	2.71933	0.702284	3.13081	0.818174	3.64651			0.601007	2.67801	0.69672	3.09397	0.868294	3.86789		
0.614419	2.71862	0.445584	1.97208	0.612285	2.71895	0.704018	3.12556	0.819921	3.63919			0.603083	2.67615	0.698638	3.0897	0.869599	3.8577		
0.616867	2.71825	0.44761	1.97291	0.614733	2.71857	0.705755	3.12036	0.82167	3.63193			0.605157	2.6743	0.700561	3.08549	0.870909	3.8476		
0.619316	2.71788	0.449636	1.97373	0.617181	2.7182	0.707495	3.11522	0.823422	3.62475			0.60723	2.67246	0.702487	3.08133	0.872222	3.83761		
0.621765	2.71751	0.451662	1.97455	0.61963	2.71783	0.709237	3.11013	0.825177	3.61764			0.609302	2.67062	0.704418	3.07722	0.873539	3.82772		
0.624214	2.71715	0.453687	1.97536	0.622079	2.71747	0.710983	3.1051	0.826934	3.61059			0.611373	2.6688	0.706352	3.07317	0.874861	3.81792		
0.626663	2.7168	0.455713	1.97616	0.624528	2.71711	0.712732	3.10013	0.828695	3.60362			0.613442	2.66699	0.708289	3.06915	0.876186	3.80822		
0.629113	2.71645	0.457738	1.97695	0.626977	2.71675	0.714484	3.09521	0.830458	3.59671			0.61551	2.66518	0.710231	3.06519	0.877515	3.79861		
0.631563	2.7161	0.459762	1.97774	0.629427	2.7164	0.716239	3.09034	0.832223	3.58987			0.617576	2.66338	0.712176	3.06128	0.878848	3.7891		
0.634013	2.71575	0.461787	1.97852	0.631877	2.71605	0.717997	3.08552	0.833991	3.5831			0.619641	2.6616	0.714124	3.05741	0.880185	3.77968		
0.636463	2.71541	0.463811	1.97929	0.634327	2.71571	0.719758	3.08075	0.835762	3.57639			0.621705	2.65982	0.716077	3.05359	0.881527	3.77036		
0.638913	2.71507	0.465836	1.98006	0.636777	2.71537	0.721522	3.07603	0.837535	3.56975			0.623768	2.65804	0.718033	3.04981	0.882872	3.76112		
0.641363	2.71473	0.467859	1.98082	0.639227	2.71503	0.723289	3.07137	0.839311	3.56317			0.625829	2.65628	0.719992	3.04608	0.88422	3.75198		
0.643813	2.7144	0.469883	1.98157	0.641677	2.71469	0.725059	3.06675	0.841089	3.55665			0.627888	2.65453	0.721955	3.04239	0.885573	3.74292		
0.646264	2.71407	0.471906	1.98231	0.644127	2.71436	0.726832	3.06218	0.84287	3.55019			0.629947	2.65278	0.723922	3.03875	0.88693	3.73395		
0.648714	2.71374	0.47393	1.98305	0.646578	2.71403	0.728608	3.05766	0.844654	3.5438			0.632004	2.65104	0.725892	3.03515	0.88829	3.72507		
0.651164	2.71342	0.475953	1.98378	0.649028	2.7137	0.730386	3.05319	0.846439	3.53746			0.63406	2.64931	0.727865	3.03159	0.889655	3.71627		
0.653614	2.71309	0.477975	1.9845	0.651478	2.71337	0.732168	3.04876	0.848228	3.53119			0.636114	2.64759	0.729842	3.02807	0.891023	3.70755		
0.656064	2.71277	0.479998	1.98522	0.653928	2.71305	0.733952	3.04438	0.850018	3.52497			0.638167	2.64587	0.731822	3.0246	0.892395	3.69892		
0.658514	2.71245	0.48202	1.98593	0.656378	2.71273	0.73574	3.04004	0.851811	3.51881			0.640219	2.64416	0.733806	3.02116	0.893771	3.69038		
0.660964	2.71213	0.484042	1.98664	0.658828	2.71241	0.73753	3.03575	0.853607	3.5127			0.642269	2.64246	0.735793	3.01777	0.895151	3.68191		
0.663413	2.71182	0.486064	1.98734	0.661278	2.71209	0.739323	3.03151	0.855404	3.50666			0.644318	2.64077	0.737783	3.01441	0.896534	3.67352		
0.665862	2.7115	0.488085	1.98803	0.663727	2.71178	0.741119	3.02731	0.857205	3.50067			0.646366	2.63909	0.739777	3.01109	0.897921	3.66521		
0.668311	2.71119	0.490106	1.98871	0.666176	2.71146	0.742918	3.02315	0.859007	3.49473			0.648412	2.63741	0.741773	3.00781	0.899313	3.65698		
0.67076	2.71088	0.492127	1.98939	0.668625	2.71115	0.74472	3.01904	0.860812	3.48885			0.650457	2.63574	0.743773	3.00457	0.900708	3.64883		
0.673209	2.71057	0.494148	1.99007	0.671074	2.71084	0.746525	3.01497	0.862619	3.48302			0.652501	2.63408	0.745777	3.00137	0.902106	3.64076		
0.675657	2.71026	0.496169	1.99073	0.673522	2.71053	0.748332	3.01094	0.864428	3.47725			0.654543	2.63242	0.747783	2.9982	0.903509	3.63276		
0.678105	2.70995	0.498189	1.9914	0.675971	2.71022	0.750142	3.00695	0.86624	3.47152			0.656585	2.63077	0.749792	2.99507	0.904915	3.62483		
0.680552	2.70964	0.500209	1.99205	0.678418	2.70991	0.751956	3.003	0.868054	3.46585			0.658624	2.62913	0.751805	2.99197	0.906325	3.61698		
0.682999	2.70933	0.502229	1.9927	0.680866	2.7096	0.753772	2.99909	0.86987	3.46023			0.660663	2.62749	0.753821	2.98891	0.907739	3.6092		
0.685445	2.70902	0.504249	1.99335	0.683312	2.70929	0.755591	2.99523	0.871688	3.45466			0.6627	2.62587	0.755839	2.98589	0.909156	3.6015		
0.687891	2.70872	0.506268	1.99399	0.685759	2.70898	0.757412	2.9914	0.873508	3.44914			0.664736	2.62425	0.757861	2.98289	0.910577	3.59386		
0.690337	2.70841	0.508287	1.99462	0.688205	2.70868	0.759237	2.98761	0.875331	3.44366			0.666771	2.62263	0.759886	2.97994	0.912002	3.5863		
0.692782	2.7081	0.510306	1.99525	0.69065	2.70837	0.761065	2.98387	0.877155	3.43824			0.668805	2.62103	0.761913	2.97701	0.913431	3.57881		
0.695226	2.7078	0.512325	1.99587	0.693095	2.70806	0.762895	2.98016	0.878982	3.43286			0.670837	2.61943	0.763944	2.97412	0.914863	3.57138		
0.69767	2.70749	0.514343	1.99649	0.69554	2.70776	0.764728	2.97648	0.880811	3.42753			0.672868	2.61783	0.765977	2.97126	0.916299	3.56402		
0.700114	2.70718	0.516361	1.9971	0.697984	2.70745	0.766564	2.97285	0.882642	3.42225			0.674898	2.61625	0.768014	2.96843	0.917739	3.55673		
0.702556	2.70688	0.518379	1.9977	0.700427	2.70714	0.768403	2.96925	0.884475	3.41701			0.676926	2.61467	0.770053	2.96563	0.919182	3.54951		
0.704998	2.70657	0.520397	1.9983	0.702869	2.70684	0.770245	2.96569	0.88631	3.41182			0.678953	2.61309	0.772095	2.96286	0.920629	3.54235		
0.707439	2.70626	0.522414	1.9989	0.705311	2.70653	0.772089	2.96217	0.888147	3.40668			0.680979	2.61153	0.774139	2.96012	0.92208	3.53526		
0.70988	2.70595	0.524431	1.99949	0.707752	2.70622	0.773937	2.95868	0.889986	3.40157			0.683004	2.60997	0.776187	2.95742	0.923534	3.52823		
0.71232	2.70564	0.526448	2.00007	0.710193	2.70591	0.775787	2.95523	0.891827	3.39652			0.685028	2.60841	0.778237	2.95474	0.924992	3.52127		
0.714758	2.70533	0.528465	2.00065	0.712632	2.7056	0.777641	2.95181	0.89367	3.3915			0.687051	2.60687	0.78029	2.95209	0.926454	3.51437		
0.717197	2.70502	0.530482	2.00123	0.715071	2.70529	0.779497	2.94843	0.895515	3.38653			0.689072	2.60533	0.782345	2.94947	0.927919	3.50753		
0.719634	2.70471	0.532498	2.0018	0.717509	2.70498	0.781356	2.94508	0.897362	3.3816			0.691092	2.60379	0.784403	2.94688	0.929388	3.50075		
0.72207	2.7044	0.534514	2.00237	0.719946	2.70467	0.783218	2.94177	0.89921	3.37671			0.693111	2.60226	0.786464	2.94431	0.93086	3.49404		
0.724505	2.70408	0.53653	2.00293	0.722382	2.70436	0.785083	2.93849	0.901061	3.37186			0.695129	2.60074	0.788527	2.94178	0.932336	3.48738		
0.72694	2.70377	0.538545	2.00348	0.724817	2.70404	0.786951	2.93525	0.902914	3.36705			0.697145	2.59923	0.790593	2.93927	0.933816	3.48079		
0.729373	2.70345	0.54056	2.00403	0.727252	2.70373	0.788821	2.93204	0.904768	3.36229			0.699161	2.59772	0.792661	2.93678	0.935299	3.47425		
0.731805	2.70313	0.542575	2.00458	0.729685	2.70341	0.790695	2.92886	0.906625	3.35756			0.701175	2.59621	0.794731	2.93433	0.936786	3.46777		
0.734237	2.70281	0.54459	2.00512	0.732117	2.70309	0.792572	2.92571	0.908483	3.35287			0.703188	2.59472	0.796804	2.93189	0.938276	3.46135		
0.736667	2.70248	0.546605	2.00566	0.734548	2.70277	0.794452	2.9226	0.910343	3.34823			0.705201	2.59323	0.79888	2.92949	0.93977	3.45499		
0.739096	2.70216	0.548619	2.00619	0.736978	2.70244	0.796335	2.91952	0.912204	3.34362			0.707212	2.59174	0.800958	2.92711	0.941267	3.44868		
0.741524	2.70183	0.550633	2.00672	0.739407	2.70212	0.79822	2.91647	0.914068	3.33904			0.709222	2.59026	0.803038	2.92475	0.942768	3.44243		
0.74395	2.7015	0.552647	2.00724	0.741835	2.70179	0.800109	2.91346	0.915933	3.33451			0.711231	2.58879	0.80512	2.92242	0.944273	3.43623		
0.746375	2.70117	0.554661	2.00776	0.744261	2.70146	0.802001	2.91047	0.9178	3.33001			0.713238	2.58733	0.807205	2.92011	0.945781	3.43009		
0.748799	2.70084	0.556674	2.00828	0.746686	2.70113	0.803896	2.90752	0.919669	3.32555			0.715245	2.58587	0.809292	2.91782	0.947293	3.424		
0.751222	2.7005	0.558687	2.00879	0.74911	2.70079	0.805794	2.90459	0.92154	3.32112			0.717251	2.58441	0.811381	2.91556	0.948808	3.41797		
0.753643	2.70016	0.5607	2.00929	0.751532	2.70046	0.807696	2.9017	0.923412	3.31673			0.719256	2.58296	0.813472	2.91332	0.950326	3.41199		
0.756063	2.69982	0.562713	2.0098	0.753953	2.70012	0.8096	2.89884	0.925286	3.31238			0.721259	2.58152	0.815566	2.91111	0.951849	3.40606		
0.758481	2.69947	0.564725	2.01029	0.756373	2.69977	0.811508	2.89601	0.927162	3.30806			0.723262	2.58009	0.817661	2.90891	0.953374	3.40018		
0.760897	2.69912	0.566737	2.01079	0.758791	2.69943	0.813419	2.89321	0.929039	3.30378			0.725263	2.57866	0.819759	2.90674	0.954903	3.39436		
0.763313	2.69877	0.568749	2.01128	0.761207	2.69908	0.815333	2.89044	0.930918	3.29953			0.727264	2.57723	0.821859	2.90459	0.956436	3.38858		
0.765726	2.69841	0.570761	2.01176	0.763622	2.69872	0.81725	2.8877	0.932798	3.29531			0.729264	2.57581	0.823961	2.90246	0.957972	3.38286		
0.768138	2.69805	0.572773	2.01225	0.766035	2.69837	0.819171	2.88499	0.93468	3.29113			0.731262	2.5744	0.826064	2.90035	0.959512	3.37718		
0.770548	2.69769	0.574784	2.01272	0.768447	2.69801	0.821094	2.88231	0.936564	3.28698			0.73326	2.57299	0.82817	2.89827	0.961055	3.37156		
0.772956	2.69732	0.576795	2.0132	0.770856	2.69764	0.823022	2.87965	0.938449	3.28286			0.735257	2.57159	0.830278	2.8962	0.962601	3.36598		
0.775362	2.69695	0.578806	2.01367	0.773264	2.69728	0.824952	2.87703	0.940336	3.27877			0.737253	2.5702	0.832387	2.89415	0.964151	3.36045		
0.777767	2.69658	0.580816	2.01413	0.775671	2.6969	0.826887	2.87444	0.942225	3.27472			0.739248	2.56881	0.834499	2.89212	0.965705	3.35497		
0.780169	2.6962	0.582826	2.0146	0.778075	2.69653	0.828824	2.87187	0.944115	3.2707			0.741242	2.56743	0.836612	2.89012	0.967262	3.34954		
0.78257	2.69581	0.584837	2.01505	0.780477	2.69615	0.830765	2.86933	0.946006	3.26671			0.743235	2.56605	0.838727	2.88813	0.968822	3.34415		
0.784968	2.69542	0.586846	2.01551	0.782877	2.69576	0.83271	2.86682	0.947899	3.26275			0.745227	2.56468	0.840844	2.88616	0.970386	3.33881		
0.787365	2.69503	0.588856	2.01596	0.785276	2.69537	0.834658	2.86434	0.949794	3.25882			0.747218	2.56331	0.842962	2.8842	0.971953	3.33352		
0.789759	2.69463	0.590865	2.01641	0.787672	2.69498	0.83661	2.86189	0.95169	3.25492			0.749208	2.56195	0.845082	2.88227	0.973524	3.32827		
0.792151	2.69423	0.592874	2.01685	0.790066	2.69458	0.838565	2.85947	0.953587	3.25105			0.751198	2.5606	0.847204	2.88035	0.975098	3.32307		
0.794541	2.69382	0.594883	2.01729	0.792457	2.69418	0.840524	2.85707	0.955486	3.24721			0.753187	2.55925	0.849328	2.87846	0.976675	3.31791		
0.796928	2.69341	0.596892	2.01773	0.794847	2.69377	0.842487	2.8547	0.957387	3.24339			0.755174	2.5579	0.851453	2.87658	0.978256	3.3128		
0.799313	2.69299	0.5989	2.01816	0.797234	2.69335	0.844454	2.85236	0.959288	3.23961			0.757161	2.55657	0.85358	2.87471	0.97984	3.30772		
0.801695	2.69256	0.600909	2.01859	0.799618	2.69293	0.846424	2.85005	0.961192	3.23586			0.759148	2.55523	0.855708	2.87287	0.981428	3.3027		
0.804075	2.69213	0.602917	2.01902	0.802	2.69251	0.848399	2.84776	0.963096	3.23213			0.761133	2.55391	0.857838	2.87104	0.983019	3.29771		
0.806452	2.69169	0.604924	2.01944	0.80438	2.69207	0.850377	2.8455	0.965002	3.22843			0.763118	2.55259	0.85997	2.86922	0.984614	3.29277		
0.808827	2.69125	0.606932	2.01986	0.806757	2.69164	0.852359	2.84327	0.96691	3.22476			0.765101	2.55127	0.862102	2.86743	0.986211	3.28787		
0.811199	2.6908	0.608939	2.02027	0.809131	2.69119	0.854346	2.84107	0.968818	3.22112			0.767084	2.54996	0.864237	2.86564	0.987813	3.28301		
0.813568	2.69034	0.610946	2.02069	0.811503	2.69074	0.856336	2.83889	0.970728	3.2175			0.769067	2.54866	0.866372	2.86388	0.989417	3.27819		
0.815934	2.68988	0.612953	2.0211	0.813872	2.69029	0.858331	2.83674	0.97264	3.21391			0.771048	2.54736	0.868509	2.86213	0.991025	3.27341		
0.818298	2.68941	0.614959	2.0215	0.816237	2.68982	0.860329	2.83462	0.974553	3.21035			0.773029	2.54606	0.870648	2.86039	0.992637	3.26868		
0.820658	2.68894	0.616966	2.02191	0.8186	2.68935	0.862332	2.83252	0.976467	3.20681			0.775009	2.54478	0.872788	2.85867	0.994251	3.26398		
0.823015	2.68845	0.618972	2.02231	0.82096	2.68887	0.864339	2.83045	0.978382	3.2033			0.776988	2.54349	0.874929	2.85697	0.995869	3.25932		
0.825369	2.68796	0.620978	2.0227	0.823317	2.68839	0.866351	2.82841	0.980298	3.19982			0.778967	2.54222	0.877071	2.85527	0.997491	3.2547		
0.82772	2.68746	0.622983	2.02309	0.825671	2.6879	0.868367	2.8264	0.982216	3.19636			0.780944	2.54095	0.879214	2.8536	0.999115	3.25012		
0.830068	2.68696	0.624989	2.02348	0.828021	2.6874	0.870388	2.82441	0.984135	3.19292			0.782922	2.53968	0.881359	2.85193	1.00074	3.24558		
0.832412	2.68644	0.626994	2.02387	0.830368	2.68689	0.872412	2.82244	0.986056	3.18951			0.784898	2.53842	0.883505	2.85029				
0.834753	2.68592	0.628999	2.02426	0.832712	2.68638	0.874442	2.82051	0.987977	3.18612			0.786874	2.53717	0.885652	2.84865				
0.83709	2.68539	0.631004	2.02464	0.835052	2.68585	0.876476	2.8186	0.9899	3.18276			0.788849	2.53592	0.8878	2.84703				
0.839424	2.68485	0.633008	2.02501	0.837389	2.68532	0.878515	2.81672	0.991824	3.17942			0.790823	2.53467	0.88995	2.84542				
0.841754	2.68431	0.635012	2.02539	0.839723	2.68478	0.880558	2.81486	0.993749	3.17611			0.792797	2.53343	0.8921	2.84382				
0.84408	2.68375	0.637016	2.02576	0.842052	2.68424	0.882607	2.81303	0.995676	3.17282			0.794771	2.5322	0.894251	2.84224				
0.846403	2.68319	0.63902	2.02613	0.844378	2.68368	0.88466	2.81123	0.997603	3.16955			0.796743	2.53097	0.896404	2.84067				
0.848722	2.68262	0.641024	2.0265	0.8467	2.68312	0.886718	2.80945	0.999532	3.1663			0.798715	2.52975	0.898557	2.83911				
0.851037	2.68204	0.643027	2.02686	0.849019	2.68254	0.888781	2.8077	1.00146	3.16308			0.800686	2.52853	0.900711	2.83756				
0.853348	2.68144	0.64503	2.02722	0.851333	2.68196	0.890849	2.80597					0.802657	2.52732	0.902866	2.83603				
0.855655	2.68085	0.647033	2.02758	0.853644	2.68137	0.892922	2.80427					0.804627	2.52611	0.905022	2.8345				
0.857958	2.68024	0.649036	2.02793	0.85595	2.68077	0.895	2.8026					0.806597	2.52491	0.907179	2.83299				
0.860256	2.67962	0.651038	2.02829	0.858252	2.68016	0.897084	2.80095					0.808566	2.52371	0.909337	2.83149				
0.862551	2.67899	0.65304	2.02864	0.860551	2.67954	0.899172	2.79933					0.810535	2.52252	0.911496	2.83				
0.864841	2.67835	0.655042	2.02898	0.862845	2.67891	0.901266	2.79773					0.812503	2.52133	0.913655	2.82853				
0.867127	2.67771	0.657044	2.02933	0.865135	2.67827	0.903365	2.79616					0.81447	2.52015	0.915815	2.82706				
0.869409	2.67705	0.659046	2.02967	0.86742	2.67762	0.905469	2.79461					0.816437	2.51898	0.917976	2.8256				
0.871686	2.67639	0.661047	2.03001	0.869701	2.67697	0.907579	2.79309					0.818403	2.51781	0.920137	2.82416				
0.873959	2.67571	0.663048	2.03034	0.871978	2.6763	0.909694	2.7916					0.820369	2.51664	0.922299	2.82272				
0.876227	2.67502	0.665049	2.03068	0.87425	2.67562	0.911815	2.79013					0.822335	2.51548	0.924462	2.82129				
0.878491	2.67433	0.66705	2.03101	0.876518	2.67494	0.913941	2.78868					0.8243	2.51433	0.926625	2.81988				
0.880751	2.67362	0.66905	2.03133	0.878781	2.67424	0.916072	2.78726					0.826264	2.51318	0.928789	2.81847				
0.883005	2.67291	0.67105	2.03166	0.88104	2.67353	0.918209	2.78587					0.828228	2.51203	0.930954	2.81708				
0.885255	2.67218	0.67305	2.03198	0.883294	2.67282	0.920352	2.7845					0.830192	2.51089	0.933119	2.81569				
0.887501	2.67145	0.67505	2.0323	0.885543	2.67209	0.9225	2.78315					0.832155	2.50976	0.935284	2.81431				
0.889741	2.6707	0.677049	2.03262	0.887788	2.67135	0.924653	2.78183					0.834117	2.50863	0.93745	2.81294				
0.891978	2.66995	0.679049	2.03294	0.890028	2.67061	0.926812	2.78053					0.836079	2.5075	0.939617	2.81158				
0.894209	2.66918	0.681048	2.03325	0.892264	2.66985	0.928977	2.77925					0.838041	2.50638	0.941784	2.81023				
0.896436	2.66841	0.683047	2.03356	0.894495	2.66908	0.931147	2.778					0.840002	2.50527	0.943951	2.80889				
0.898658	2.66762	0.685045	2.03387	0.896721	2.66831	0.933323	2.77678					0.841963	2.50416	0.946119	2.80756				
0.900875	2.66683	0.687044	2.03418	0.898942	2.66752	0.935504	2.77557					0.843924	2.50305	0.948287	2.80623				
0.903088	2.66603	0.689042	2.03448	0.901159	2.66673	0.937691	2.77439					0.845884	2.50195	0.950455	2.80492				
0.905296	2.66522	0.69104	2.03478	0.903371	2.66592	0.939884	2.77323					0.847844	2.50086	0.952624	2.80361				
0.907499	2.66439	0.693038	2.03508	0.905578	2.66511	0.942082	2.7721					0.849803	2.49976	0.954793	2.80231				
0.909697	2.66356	0.695035	2.03538	0.907781	2.66429	0.944285	2.77099					0.851762	2.49868	0.956962	2.80101				
0.911891	2.66272	0.697033	2.03568	0.909979	2.66346	0.946494	2.76989					0.853721	2.4976	0.959131	2.79973				
0.914081	2.66187	0.69903	2.03597	0.912172	2.66261	0.948708	2.76882					0.855679	2.49652	0.961301	2.79845				
0.916266	2.66102	0.701026	2.03626	0.914361	2.66176	0.950928	2.76778					0.857637	2.49545	0.96347	2.79718				
0.918446	2.66015	0.703023	2.03655	0.916545	2.66091	0.953153	2.76675					0.859594	2.49439	0.96564	2.79592				
0.920622	2.65928	0.70502	2.03683	0.918725	2.66004	0.955383	2.76574					0.861552	2.49332	0.96781	2.79466				
0.922793	2.65839	0.707016	2.03712	0.9209	2.65916	0.957618	2.76476					0.863508	2.49227	0.96998	2.79341				
0.92496	2.6575	0.709012	2.0374	0.923071	2.65828	0.959859	2.76379					0.865465	2.49122	0.97215	2.79217				
0.927122	2.6566	0.711008	2.03768	0.925237	2.65739	0.962105	2.76285					0.867421	2.49017	0.97432	2.79093				
0.92928	2.6557	0.713003	2.03796	0.927399	2.65649	0.964356	2.76192					0.869377	2.48913	0.97649	2.7897				
0.931434	2.65478	0.714999	2.03823	0.929557	2.65558	0.966612	2.76102					0.871333	2.48809	0.978661	2.78848				
0.933584	2.65386	0.716994	2.0385	0.93171	2.65467	0.968873	2.76013					0.873288	2.48706	0.980831	2.78727				
0.935729	2.65294	0.718989	2.03878	0.933859	2.65375	0.971139	2.75926					0.875244	2.48603	0.983001	2.78606				
0.937871	2.652	0.720983	2.03904	0.936004	2.65282	0.973409	2.75841					0.877198	2.485	0.985171	2.78485				
0.940008	2.65106	0.722978	2.03931	0.938145	2.65188	0.975685	2.75758					0.879153	2.48398	0.98734	2.78365				
0.942141	2.65011	0.724972	2.03958	0.940281	2.65094	0.977965	2.75676					0.881107	2.48297	0.98951	2.78246				
0.944271	2.64916	0.726966	2.03984	0.942414	2.64999	0.98025	2.75596					0.883061	2.48196	0.99168	2.78128				
0.946396	2.6482	0.72896	2.0401	0.944543	2.64904	0.982539	2.75518					0.885015	2.48095	0.993849	2.7801				
0.948518	2.64724	0.730954	2.04036	0.946668	2.64808	0.984833	2.75442					0.886969	2.47995	0.996018	2.77892				
0.950636	2.64627	0.732947	2.04062	0.948789	2.64711	0.987131	2.75367					0.888922	2.47896	0.998187	2.77775				
0.95275	2.64529	0.73494	2.04087	0.950907	2.64614	0.989433	2.75294					0.890875	2.47797	1.00036	2.77659				
0.954861	2.64431	0.736933	2.04113	0.953021	2.64517	0.99174	2.75222					0.892828	2.47698						
0.956968	2.64333	0.738926	2.04138	0.955131	2.64419	0.994051	2.75152					0.894781	2.476						
0.959072	2.64234	0.740919	2.04163	0.957238	2.6432	0.996366	2.75083					0.896733	2.47502						
0.961173	2.64135	0.742911	2.04188	0.959342	2.64221	0.998684	2.75016					0.898685	2.47404						
0.96327	2.64035	0.744904	2.04212	0.961442	2.64122	1.00101	2.7495					0.900638	2.47307						
0.965364	2.63935	0.746895	2.04237	0.963539	2.64022							0.902589	2.47211						
0.967455	2.63835	0.748887	2.04261	0.965632	2.63922							0.904541	2.47115						
0.969543	2.63734	0.750879	2.04285	0.967723	2.63822							0.906493	2.47019						
0.971628	2.63633	0.75287	2.04309	0.96981	2.63721							0.908444	2.46924						
0.97371	2.63532	0.754861	2.04333	0.971895	2.6362							0.910395	2.46829						
0.975789	2.6343	0.756852	2.04356	0.973976	2.63519							0.912346	2.46735						
0.977865	2.63328	0.758843	2.0438	0.976055	2.63417							0.914297	2.46641						
0.979939	2.63226	0.760833	2.04403	0.978131	2.63315							0.916247	2.46548						
0.98201	2.63124	0.762824	2.04426	0.980204	2.63213							0.918198	2.46455						
0.984078	2.63022	0.764814	2.04449	0.982275	2.63111							0.920148	2.46362						
0.986144	2.62919	0.766804	2.04471	0.984343	2.63008							0.922099	2.4627						
0.988208	2.62816	0.768793	2.04494	0.986409	2.62906							0.924049	2.46178						
0.990269	2.62714	0.770783	2.04516	0.988472	2.62803							0.925999	2.46087						
0.992328	2.62611	0.772772	2.04538	0.990533	2.627							0.927949	2.45996						
0.994384	2.62508	0.774761	2.0456	0.992591	2.62597							0.929898	2.45906						
0.996439	2.62405	0.77675	2.04582	0.994648	2.62494							0.931848	2.45815						
0.998491	2.62302	0.778739	2.04604	0.996702	2.62391							0.933798	2.45726						
1.00054	2.62198	0.780727	2.04625	0.998754	2.62288							0.935747	2.45637						
		0.782716	2.04647	1.0008	2.62185							0.937696	2.45548						
		0.784704	2.04668									0.939646	2.45459						
		0.786691	2.04689									0.941595	2.45371						
		0.788679	2.0471									0.943544	2.45284						
		0.790667	2.04731									0.945493	2.45196						
		0.792654	2.04751									0.947442	2.4511						
		0.794641	2.04772									0.94939	2.45023						
		0.796628	2.04792									0.951339	2.44937						
		0.798614	2.04812									0.953288	2.44852						
		0.800601	2.04832									0.955237	2.44766						
		0.802587	2.04852									0.957185	2.44681						
		0.804573	2.04872									0.959134	2.44597						
		0.806559	2.04892									0.961082	2.44513						
		0.808545	2.04911									0.963031	2.44429						
		0.81053	2.0493									0.964979	2.44346						
		0.812516	2.04949									0.966927	2.44263						
		0.814501	2.04968									0.968876	2.44181						
		0.816485	2.04987									0.970824	2.44098						
		0.81847	2.05006									0.972772	2.44017						
		0.820455	2.05025									0.974721	2.43935						
		0.822439	2.05043									0.976669	2.43854						
		0.824423	2.05061									0.978617	2.43774						
		0.826407	2.0508									0.980565	2.43693						
		0.828391	2.05098									0.982514	2.43613						
		0.830374	2.05116									0.984462	2.43534						
		0.832358	2.05134									0.98641	2.43455						
		0.834341	2.05151									0.988358	2.43376						
		0.836324	2.05169									0.990307	2.43298						
		0.838306	2.05186									0.992255	2.43219						
		0.840289	2.05204									0.994203	2.43142						
		0.842271	2.05221									0.996151	2.43064						
		0.844254	2.05238									0.9981	2.42987						
		0.846236	2.05255									1.00005	2.42911						
		0.848217	2.05272																
		0.850199	2.05288																
		0.852181	2.05305																
		0.854162	2.05321																
		0.856143	2.05338																
		0.858124	2.05354																
		0.860104	2.0537																
		0.862085	2.05386																
		0.864065	2.05402																
		0.866045	2.05417																
		0.868025	2.05433																
		0.870005	2.05449																
		0.871985	2.05464																
		0.873964	2.05479																
		0.875943	2.05495																
		0.877922	2.0551																
		0.879901	2.05525																
		0.88188	2.0554																
		0.883859	2.05554																
		0.885837	2.05569																
		0.887815	2.05584																
		0.889793	2.05598																
		0.891771	2.05612																
		0.893748	2.05627																
		0.895726	2.05641																
		0.897703	2.05655																
		0.89968	2.05669																
		0.901657	2.05683																
		0.903634	2.05696																
		0.90561	2.0571																
		0.907587	2.05723																
		0.909563	2.05737																
		0.911539	2.0575																
		0.913515	2.05764																
		0.91549	2.05777																
		0.917466	2.0579																
		0.919441	2.05803																
		0.921416	2.05816																
		0.923391	2.05828																
		0.925366	2.05841																
		0.927341	2.05854																
		0.929315	2.05866																
		0.931289	2.05879																
		0.933264	2.05891																
		0.935238	2.05903																
		0.937211	2.05916																
		0.939185	2.05928																
		0.941158	2.0594																
		0.943132	2.05952																
		0.945105	2.05963																
		0.947078	2.05975																
		0.949051	2.05987																
		0.951023	2.05998																
		0.952996	2.0601																
		0.954968	2.06021																
		0.95694	2.06033																
		0.958912	2.06044																
		0.960884	2.06055																
		0.962855	2.06066																
		0.964827	2.06077																
		0.966798	2.06088																
		0.968769	2.06099																
		0.97074	2.0611																
		0.972711	2.0612																
		0.974682	2.06131																
		0.976652	2.06142																
		0.978623	2.06152																
		0.980593	2.06162																
		0.982563	2.06173																
		0.984533	2.06183																
		0.986503	2.06193																
		0.988472	2.06203																
		0.990441	2.06213																
		0.992411	2.06223																
		0.99438	2.06233																
		0.996349	2.06243																
		0.998318	2.06253																
		1.00029	2.06262																
