Sym0		Asym0		Sym1		Sym2		Sym3		Sym4		Asym1		Asym2		Asym3		Asym4	
420  Points		526  Points		420  Points		402  Points		349  Points		250  Points		452  Points		397  Points		341  Points		205  Points	
Freq (MHz)	Vph (m/ms)	Freq (MHz)	Vph (m/ms)	Freq (MHz)	Vph (m/ms)	Freq (MHz)	Vph (m/ms)	Freq (MHz)	Vph (m/ms)	Freq (MHz)	Vph (m/ms)	Freq (MHz)	Vph (m/ms)	Freq (MHz)	Vph (m/ms)	Freq (MHz)	Vph (m/ms)	Freq (MHz)	Vph (m/ms)
0.279511	481.845	0.000185402	0.0842294	0.279514	303.846	0.450051	9877.54	0.559017	6115.48	0.838526	2069.45	0.139755	908.843	0.419268	460.947	0.698771	3354.05	0.900103	2179.93
0.279523	184.897	0.000375092	0.119729	0.27953	150.966	0.450057	460.531	0.559024	546.399	0.838532	627.226	0.1398	128.792	0.419286	227.715	0.698776	612.944	0.900108	669.425
0.279547	114.405	0.000630138	0.155033	0.279558	100.441	0.450074	235.77	0.559042	285.984	0.838543	369.633	0.139912	69.3609	0.419315	151.215	0.698787	337.297	0.900118	395.432
0.279582	82.8348	0.000949973	0.190138	0.279597	75.2615	0.450102	158.45	0.559072	193.685	0.838561	262.027	0.140091	47.507	0.419357	113.197	0.698803	232.669	0.900134	280.591
0.279627	64.926	0.0013336	0.22497	0.279647	60.1818	0.45014	119.326	0.559113	146.434	0.838584	202.95	0.140337	36.1642	0.41941	90.461	0.698826	177.587	0.900155	217.445
0.279684	53.3896	0.00178	0.25949	0.279708	50.1413	0.450189	95.7027	0.559166	117.722	0.838613	165.614	0.140649	29.2272	0.419475	75.3359	0.698856	143.596	0.900181	177.502
0.279753	45.3389	0.00228806	0.293668	0.27978	42.9764	0.450249	79.8918	0.55923	98.4285	0.838648	139.883	0.141025	24.552	0.419551	64.5489	0.698891	120.529	0.900212	149.958
0.279832	39.4021	0.00285638	0.327453	0.279863	37.607	0.45032	68.5686	0.559305	84.5731	0.83869	121.074	0.141465	21.1913	0.41964	56.4682	0.698933	103.85	0.900248	129.817
0.279922	34.8437	0.00348355	0.360813	0.279958	33.4339	0.450401	60.0605	0.559392	74.141	0.838737	106.726	0.141969	18.6621	0.419741	50.1894	0.69898	91.2281	0.90029	114.447
0.280024	31.234	0.00416808	0.39372	0.280063	30.0976	0.450493	53.4341	0.55949	66.0036	0.83879	95.4206	0.142533	16.692	0.419853	45.1706	0.699034	81.3437	0.900337	102.332
0.280136	28.305	0.00490837	0.426145	0.28018	27.3697	0.450596	48.1277	0.5596	59.479	0.838849	86.2823	0.143158	15.1159	0.419977	41.0674	0.699094	73.3935	0.900389	92.5388
0.28026	25.8811	0.00570275	0.45806	0.280307	25.0979	0.45071	43.7829	0.559721	54.1313	0.838913	78.7428	0.143842	13.8277	0.420113	37.6505	0.699161	66.8607	0.900447	84.4574
0.280394	23.8422	0.00654946	0.489442	0.280446	23.1769	0.450835	40.1602	0.559853	49.6687	0.838984	72.4165	0.144582	12.7564	0.420261	34.7613	0.699233	61.3972	0.900509	77.6754
0.28054	22.1035	0.0074468	0.520276	0.280596	21.5314	0.45097	37.0937	0.559997	45.8885	0.839061	67.0325	0.145378	11.8523	0.42042	32.2863	0.699312	56.7606	0.900577	71.9027
0.280697	20.6034	0.00839299	0.550545	0.280757	20.1063	0.451116	34.4645	0.560152	42.6453	0.839144	62.3949	0.146227	11.0799	0.420592	30.1428	0.699397	52.7764	0.900651	66.9299
0.280865	19.2961	0.00938624	0.580237	0.280929	18.8602	0.451273	32.1855	0.560319	39.8326	0.839232	58.3586	0.14701	10.4936	0.420775	28.2684	0.699487	49.3161	0.900729	62.6014
0.281044	18.1468	0.0104248	0.60934	0.281112	17.7615	0.45144	30.1912	0.560497	37.3701	0.839327	54.8138	0.147707	10.0471	0.42097	26.6155	0.699585	46.2827	0.900813	58.7997
0.281234	17.1286	0.0115067	0.637845	0.281305	16.7856	0.451618	28.4316	0.560686	35.1964	0.839427	51.6761	0.148304	9.70967	0.421176	25.1473	0.699688	43.602	0.900902	55.4343
0.281434	16.2205	0.0126305	0.665756	0.28151	15.9131	0.451807	26.8676	0.560886	33.2635	0.839534	48.8791	0.148789	9.46111	0.421395	23.8344	0.699797	41.2158	0.900996	52.4341
0.281646	15.4054	0.0137943	0.693065	0.281726	15.1286	0.452007	25.4684	0.561098	31.5337	0.839646	46.3703	0.149153	9.28772	0.421625	22.6536	0.699913	39.0783	0.901096	49.7428
0.281869	14.67	0.0149965	0.719774	0.281953	14.4193	0.452217	24.2093	0.561321	29.9766	0.839764	44.1073	0.149389	9.18066	0.421866	21.586	0.700035	37.1524	0.9012	47.315
0.282103	14.0032	0.0162354	0.745882	0.282191	13.7752	0.452438	23.0704	0.561556	28.5677	0.839888	42.0558	0.149732	9.03184	0.42212	20.6162	0.700163	35.4084	0.90131	45.114
0.282348	13.3958	0.0175095	0.771395	0.28244	13.1875	0.452669	22.0354	0.561801	27.2869	0.840018	40.1875	0.150111	8.87652	0.422385	19.7313	0.700297	33.8216	0.901425	43.1094
0.282604	12.8403	0.0188171	0.796317	0.2827	12.6494	0.452911	21.0906	0.562058	26.1175	0.840154	38.4788	0.150635	8.67536	0.422661	18.9207	0.700437	32.3717	0.901546	41.276
0.28287	12.3305	0.0201568	0.820654	0.28297	12.1548	0.453164	20.2249	0.562326	25.0456	0.840296	36.9103	0.151312	8.43632	0.422949	18.1755	0.700584	31.0418	0.901672	39.5929
0.283148	11.8609	0.0215271	0.844413	0.283252	11.6987	0.453427	19.4288	0.562605	24.0596	0.840443	35.4654	0.152154	8.16803	0.423249	17.4882	0.700736	29.8177	0.901802	38.0423
0.283436	11.427	0.0229266	0.867602	0.283544	11.2768	0.453701	18.6942	0.562895	23.1497	0.840597	34.13	0.15317	7.87915	0.423561	16.8523	0.700895	28.6871	0.901939	36.6091
0.283736	11.0249	0.024354	0.890233	0.283847	10.8855	0.453986	18.0144	0.563197	22.3073	0.840756	32.8922	0.154373	7.57787	0.423884	16.2623	0.70106	27.6398	0.90208	35.2807
0.284046	10.6514	0.0258081	0.912313	0.284162	10.5216	0.454281	17.3834	0.563509	21.5253	0.840922	31.7417	0.155615	7.30474	0.424218	15.7135	0.701231	26.667	0.902227	34.0458
0.284367	10.3034	0.0272875	0.933855	0.284444	10.2247	0.454586	16.7963	0.563833	20.7975	0.841093	30.6696	0.156893	7.05616	0.424564	15.2017	0.701408	25.761	0.902378	32.895
0.284698	9.97859	0.0287912	0.954867	0.284691	9.98517	0.454902	16.2486	0.564167	20.1185	0.84127	29.6681	0.158207	6.8291	0.424921	14.7233	0.701591	24.9152	0.902535	31.82
0.285041	9.67466	0.0303179	0.975363	0.2849	9.79587	0.455229	15.7366	0.564513	19.4835	0.841453	28.7306	0.159555	6.62099	0.42529	14.2752	0.70178	24.1237	0.902698	30.8136
0.285394	9.38972	0.0318667	0.995355	0.285068	9.65147	0.455566	15.2568	0.56487	18.8884	0.841642	27.851	0.160935	6.42967	0.42567	13.8547	0.701976	23.3816	0.902865	29.8694
0.285758	9.12207	0.0334364	1.01485	0.285194	9.54814	0.455913	14.8065	0.565237	18.3296	0.841837	27.0243	0.162345	6.25326	0.426062	13.4593	0.702177	22.6843	0.903038	28.9818
0.286133	8.87022	0.0350262	1.03387	0.285275	9.48324	0.456271	14.3829	0.565616	17.804	0.842038	26.2457	0.163786	6.09017	0.426465	13.0869	0.702385	22.028	0.903216	28.1459
0.286518	8.63282	0.036635	1.05241	0.285392	9.39156	0.456639	13.9838	0.566006	17.3086	0.842244	25.5113	0.165254	5.93902	0.426879	12.7355	0.702599	21.4092	0.903399	27.3573
0.286914	8.40871	0.038262	1.0705	0.285521	9.29403	0.457018	13.6072	0.566406	16.8411	0.842457	24.8174	0.166749	5.79859	0.427305	12.4034	0.702819	20.8247	0.903587	26.6122
0.287321	8.19681	0.0399064	1.08814	0.285698	9.1648	0.457407	13.2512	0.566817	16.399	0.842675	24.1607	0.16827	5.66785	0.427741	12.0891	0.703045	20.2717	0.903781	25.907
0.287739	7.99618	0.0415673	1.10535	0.285926	9.00675	0.457806	12.9141	0.567239	15.9805	0.842899	23.5383	0.169815	5.54586	0.428189	11.7913	0.703277	19.7479	0.90398	25.2386
0.288166	7.80596	0.043244	1.12214	0.286207	8.82323	0.458216	12.5947	0.567672	15.5836	0.843129	22.9477	0.171384	5.43182	0.428649	11.5087	0.703515	19.251	0.904184	24.6043
0.288605	7.62539	0.0449359	1.13851	0.286544	8.61792	0.458636	12.2915	0.568116	15.2069	0.843365	22.3865	0.172975	5.32501	0.429119	11.2401	0.70376	18.7789	0.904393	24.0015
0.289054	7.45377	0.046642	1.15449	0.28694	8.39463	0.459066	12.0033	0.56857	14.8487	0.843606	21.8524	0.174588	5.22479	0.4296	10.9847	0.70401	18.3299	0.904608	23.4279
0.289513	7.29046	0.048362	1.17008	0.287348	8.18349	0.459506	11.7291	0.569035	14.5078	0.843854	21.3437	0.176221	5.13061	0.430093	10.7414	0.704267	17.9023	0.904827	22.8815
0.289984	7.1349	0.0500951	1.18529	0.287766	7.98356	0.459957	11.4678	0.569511	14.1831	0.844107	20.8586	0.177873	5.04196	0.430597	10.5094	0.704529	17.4946	0.905052	22.3603
0.290464	6.98656	0.0518406	1.20013	0.288195	7.79399	0.460417	11.2187	0.569998	13.8733	0.844366	20.3954	0.179545	4.95838	0.431045	10.3159	0.704798	17.1055	0.905282	21.8628
0.290955	6.84498	0.0535982	1.21462	0.288634	7.61401	0.460888	10.9809	0.570494	13.5775	0.844631	19.9528	0.181234	4.87947	0.431433	10.157	0.705073	16.7338	0.905517	21.3872
0.291456	6.7097	0.0553672	1.22877	0.289083	7.44295	0.461369	10.7536	0.571002	13.2948	0.844902	19.5294	0.18294	4.80488	0.431759	10.0295	0.705353	16.3783	0.905758	20.9323
0.291968	6.58034	0.057147	1.24258	0.289544	7.28016	0.46186	10.5363	0.57152	13.0243	0.845178	19.1239	0.184662	4.73426	0.432019	9.93117	0.70564	16.038	0.906003	20.4966
0.29249	6.45653	0.0589373	1.25606	0.290014	7.12508	0.462296	10.3544	0.572049	12.7653	0.845461	18.7353	0.1864	4.66733	0.432212	9.86019	0.705933	15.712	0.906254	20.0791
0.293022	6.33793	0.0607377	1.26922	0.290495	6.9772	0.462674	10.2047	0.572587	12.5171	0.845749	18.3626	0.188153	4.60382	0.432337	9.81534	0.706232	15.3993	0.90651	19.6785
0.293565	6.22424	0.0625476	1.28208	0.290987	6.83603	0.46299	10.0844	0.573137	12.279	0.846043	18.0048	0.18992	4.54348	0.432517	9.75165	0.706537	15.0992	0.906771	19.294
0.294118	6.11516	0.0643666	1.29464	0.291489	6.70115	0.463243	9.99142	0.573697	12.0505	0.846343	17.661	0.191701	4.48609	0.432713	9.68343	0.706848	14.8109	0.907037	18.9245
0.294681	6.01044	0.0661944	1.30692	0.292002	6.57216	0.463431	9.92424	0.574267	11.8309	0.846648	17.3304	0.193494	4.43145	0.432983	9.59233	0.707165	14.5338	0.907309	18.5692
0.295255	5.90983	0.0680305	1.31891	0.292524	6.4487	0.463551	9.88176	0.574847	11.6198	0.84696	17.0123	0.195301	4.37937	0.433328	9.47977	0.707488	14.2673	0.907585	18.2273
0.295838	5.81311	0.0698747	1.33062	0.293057	6.33043	0.463726	9.82138	0.575438	11.4167	0.847277	16.7061	0.197119	4.32969	0.43375	9.34748	0.707817	14.0107	0.907867	17.898
0.296432	5.72006	0.0717265	1.34208	0.293601	6.21704	0.463917	9.75666	0.576038	11.2212	0.8476	16.411	0.198949	4.28225	0.434254	9.1974	0.708152	13.7635	0.908154	17.5808
0.297036	5.63048	0.0735857	1.35327	0.294154	6.10825	0.464178	9.67013	0.576649	11.0329	0.847928	16.1264	0.20079	4.2369	0.434841	9.03163	0.708493	13.5252	0.908446	17.2748
0.29765	5.54421	0.0754519	1.36422	0.294718	6.00381	0.464512	9.56306	0.57727	10.8513	0.848263	15.8519	0.202641	4.19353	0.43544	8.87236	0.70884	13.2953	0.908744	16.9797
0.298274	5.46106	0.077325	1.37492	0.295292	5.90346	0.464921	9.43701	0.577901	10.6762	0.848603	15.5869	0.204503	4.152	0.436049	8.71925	0.709194	13.0735	0.909046	16.6947
0.298908	5.38088	0.0792045	1.38539	0.295877	5.80697	0.465407	9.29373	0.57846	10.5286	0.848949	15.3308	0.206374	4.11221	0.436668	8.57194	0.709552	12.8593	0.909354	16.4194
0.299553	5.30353	0.0810901	1.39563	0.296471	5.71415	0.465975	9.1351	0.578941	10.4063	0.8493	15.0834	0.208255	4.07405	0.437299	8.43013	0.709918	12.6522	0.909666	16.1533
0.300207	5.22886	0.0829818	1.40565	0.297076	5.6248	0.466552	8.98236	0.579344	10.3075	0.849658	14.8441	0.210145	4.03743	0.437939	8.29352	0.710288	12.4521	0.909984	15.8959
0.300871	5.15674	0.0848791	1.41545	0.29769	5.53873	0.467139	8.83518	0.579665	10.2308	0.850021	14.6126	0.212043	4.00226	0.438591	8.16185	0.710665	12.2585	0.910307	15.6469
0.301545	5.08706	0.086782	1.42504	0.298315	5.45578	0.467736	8.69328	0.579902	10.1753	0.85039	14.3885	0.21395	3.96846	0.439253	8.03486	0.711048	12.0711	0.910635	15.4059
0.302229	5.0197	0.0886901	1.43443	0.29895	5.37579	0.468343	8.55638	0.580055	10.1401	0.850764	14.1714	0.215865	3.93596	0.439925	7.91231	0.711437	11.8896	0.910968	15.1723
0.302923	4.95456	0.0906033	1.44362	0.299595	5.29861	0.468959	8.42425	0.580275	10.0899	0.851144	13.9611	0.217787	3.90467	0.440607	7.79398	0.711832	11.7138	0.911307	14.9461
0.303627	4.89153	0.0925213	1.45261	0.30025	5.22411	0.469585	8.29663	0.580516	10.036	0.85153	13.7572	0.219717	3.87455	0.4413	7.67967	0.712233	11.5434	0.91165	14.7267
0.30434	4.83052	0.094444	1.46142	0.300914	5.15216	0.47022	8.17331	0.580845	9.96377	0.851922	13.5594	0.221654	3.84552	0.442004	7.56919	0.712639	11.3782	0.911999	14.5138
0.30497	4.77893	0.0963712	1.47005	0.301589	5.08263	0.470865	8.05409	0.581265	9.87404	0.852319	13.3675	0.223597	3.81754	0.442717	7.46234	0.713052	11.2179	0.912352	14.3073
0.305513	4.73608	0.0983027	1.4785	0.302274	5.01542	0.47152	7.93877	0.581778	9.76791	0.852722	13.1812	0.225547	3.79054	0.443441	7.35898	0.71347	11.0624	0.912711	14.1069
0.305966	4.70139	0.100238	1.48678	0.302968	4.95041	0.472183	7.82717	0.582386	9.64662	0.853131	13.0003	0.227504	3.76448	0.444175	7.25892	0.713895	10.9113	0.913075	13.9121
0.306327	4.67443	0.102178	1.49489	0.303673	4.88752	0.472857	7.71911	0.583094	9.51155	0.853545	12.8245	0.229467	3.73931	0.444919	7.16203	0.714269	10.7832	0.913444	13.7229
0.306594	4.65486	0.104121	1.50284	0.304387	4.82664	0.47354	7.61445	0.583811	9.38067	0.853965	12.6537	0.231435	3.71498	0.445674	7.06817	0.714592	10.6765	0.913818	13.5391
0.306765	4.64245	0.106068	1.51062	0.305111	4.76768	0.474232	7.51302	0.584537	9.25381	0.85439	12.4876	0.23341	3.69146	0.446438	6.97719	0.714862	10.59	0.914197	13.3603
0.307012	4.62477	0.108019	1.51826	0.305845	4.71057	0.474933	7.41469	0.585273	9.13079	0.854821	12.3261	0.235389	3.66872	0.447212	6.88898	0.715076	10.5227	0.914581	13.1863
0.307282	4.60575	0.109973	1.52574	0.306589	4.65522	0.475644	7.31932	0.586019	9.01144	0.855258	12.1689	0.237374	3.6467	0.447996	6.80342	0.715235	10.4737	0.914971	13.0171
0.307651	4.58021	0.11193	1.53308	0.307342	4.60157	0.476364	7.22679	0.586774	8.89561	0.855701	12.0159	0.239364	3.62538	0.44879	6.72039	0.715337	10.4426	0.915365	12.8523
0.308121	4.54846	0.113891	1.54028	0.308105	4.54953	0.477093	7.13697	0.587539	8.78314	0.856149	11.8669	0.24136	3.60473	0.449594	6.63979	0.715484	10.3983	0.915765	12.6919
0.308695	4.51083	0.115602	1.54644	0.308878	4.49905	0.477831	7.04976	0.588313	8.6739	0.856602	11.7218	0.243359	3.58472	0.450408	6.56152	0.715645	10.3506	0.916169	12.5356
0.309374	4.46776	0.117062	1.5516	0.309661	4.45006	0.478579	6.96505	0.589096	8.56776	0.857062	11.5805	0.245364	3.56531	0.451231	6.48549	0.715864	10.2864	0.916579	12.3834
0.310163	4.41968	0.118271	1.55582	0.310453	4.4025	0.479335	6.88273	0.589889	8.46459	0.857526	11.4427	0.247372	3.54649	0.452065	6.41161	0.716144	10.2065	0.916993	12.235
0.310961	4.373	0.119227	1.55912	0.311255	4.35631	0.480101	6.80272	0.590691	8.36427	0.857997	11.3084	0.249386	3.52822	0.452908	6.33979	0.716485	10.1116	0.917413	12.0903
0.31177	4.32766	0.119931	1.56153	0.312067	4.31145	0.480875	6.72491	0.591502	8.2667	0.858473	11.1774	0.251403	3.51049	0.45376	6.26995	0.71689	10.0027	0.917838	11.9492
0.312587	4.28362	0.120381	1.56306	0.312888	4.26786	0.481659	6.64923	0.592322	8.17176	0.858892	11.0659	0.253424	3.49326	0.454622	6.20202	0.717359	9.88084	0.918267	11.8115
0.313415	4.24081	0.121029	1.56525	0.313719	4.22549	0.482451	6.5756	0.593152	8.07935	0.859253	10.9727	0.255449	3.47653	0.455494	6.13592	0.717835	9.76211	0.918702	11.6771
0.314252	4.19919	0.121734	1.56762	0.314559	4.18431	0.483253	6.50393	0.59399	7.98938	0.859554	10.8969	0.257478	3.46026	0.456375	6.07159	0.718316	9.64643	0.919142	11.546
0.315098	4.15873	0.122692	1.57081	0.31541	4.14425	0.484063	6.43415	0.594838	7.90176	0.859793	10.8378	0.25951	3.44445	0.457265	6.00895	0.718803	9.53369	0.919587	11.418
0.315954	4.11938	0.123906	1.57481	0.316269	4.10529	0.484881	6.36619	0.595694	7.8164	0.859969	10.7947	0.261546	3.42907	0.458165	5.94795	0.719296	9.42377	0.920036	11.2929
0.31682	4.08109	0.125374	1.57958	0.317138	4.06738	0.485709	6.3	0.59656	7.73321	0.860083	10.7674	0.263585	3.4141	0.459074	5.88853	0.719794	9.31658	0.920432	11.1863
0.317696	4.04384	0.127099	1.58509	0.318017	4.03049	0.486545	6.23549	0.597434	7.65212	0.860247	10.7283	0.265628	3.39953	0.459993	5.83063	0.720299	9.21202	0.920773	11.0971
0.318581	4.00757	0.12908	1.5913	0.318906	3.99459	0.48739	6.17261	0.598317	7.57306	0.860425	10.6862	0.267673	3.38534	0.460921	5.7742	0.720809	9.10999	0.921057	11.0245
0.319475	3.97227	0.131063	1.59741	0.319804	3.95962	0.488244	6.11131	0.599209	7.49595	0.860669	10.6295	0.269722	3.37153	0.461857	5.71918	0.721325	9.01041	0.921283	10.9677
0.320379	3.93789	0.133049	1.6034	0.320711	3.92558	0.489106	6.05153	0.60011	7.42073	0.860979	10.5587	0.271774	3.35806	0.462804	5.66553	0.721847	8.9132	0.921449	10.9264
0.321293	3.90441	0.135036	1.60928	0.321629	3.89242	0.489977	5.99322	0.601019	7.34732	0.861357	10.4744	0.273828	3.34494	0.463759	5.6132	0.722374	8.81826	0.921556	10.9002
0.322216	3.87179	0.137026	1.61506	0.322555	3.86011	0.490856	5.93632	0.601937	7.27568	0.861805	10.3774	0.275886	3.33215	0.464723	5.56215	0.722908	8.72553	0.921711	10.8627
0.323149	3.84001	0.139017	1.62074	0.323492	3.82862	0.491743	5.88079	0.602863	7.20573	0.862323	10.2684	0.277946	3.31967	0.465696	5.51233	0.723446	8.63493	0.921879	10.8222
0.324092	3.80904	0.141011	1.62631	0.324438	3.79794	0.492639	5.82658	0.603798	7.13742	0.862848	10.1619	0.280008	3.3075	0.466678	5.4637	0.723991	8.54639	0.922109	10.7677
0.325044	3.77885	0.143006	1.63179	0.325393	3.76803	0.493544	5.77366	0.604741	7.0707	0.863377	10.0578	0.282073	3.29562	0.467669	5.41622	0.724542	8.45985	0.922401	10.6996
0.326005	3.74942	0.145003	1.63717	0.326359	3.73887	0.494456	5.72197	0.605693	7.00551	0.863912	9.95597	0.284141	3.28403	0.468669	5.36986	0.725098	8.37523	0.922758	10.6185
0.326977	3.72072	0.147002	1.64246	0.327334	3.71043	0.495377	5.67147	0.606653	6.94181	0.864453	9.85636	0.28621	3.27271	0.469678	5.32457	0.72566	8.29248	0.923179	10.525
0.327958	3.69274	0.149002	1.64766	0.328318	3.6827	0.496306	5.62214	0.607622	6.87955	0.864999	9.75892	0.288283	3.26166	0.470695	5.28034	0.726227	8.21154	0.923667	10.4199
0.328949	3.66544	0.151004	1.65277	0.329312	3.65565	0.497243	5.57393	0.608599	6.81868	0.86555	9.66356	0.290357	3.25086	0.471721	5.23711	0.7268	8.13234	0.92416	10.317
0.329949	3.63881	0.153007	1.65779	0.330317	3.62926	0.498189	5.5268	0.609584	6.75916	0.866107	9.57023	0.292433	3.2403	0.472756	5.19486	0.727379	8.05485	0.924658	10.2163
0.330959	3.61283	0.155012	1.66273	0.33133	3.60351	0.499142	5.48073	0.610577	6.70094	0.866669	9.47886	0.294512	3.22999	0.473799	5.15356	0.727964	7.979	0.925161	10.1177
0.331979	3.58748	0.157018	1.66758	0.332354	3.57838	0.500103	5.43568	0.611578	6.644	0.867237	9.38939	0.296592	3.2199	0.474851	5.11319	0.728554	7.90474	0.925669	10.0212
0.333009	3.56274	0.159026	1.67235	0.333387	3.55386	0.501073	5.39162	0.612587	6.58828	0.86781	9.30177	0.298674	3.21004	0.475911	5.0737	0.729149	7.83204	0.926182	9.92662
0.334049	3.53859	0.161035	1.67705	0.334431	3.52992	0.50205	5.34851	0.613604	6.53375	0.868388	9.21593	0.300759	3.2004	0.47698	5.03509	0.729751	7.76083	0.9267	9.83397
0.335099	3.51502	0.163045	1.68166	0.335484	3.50656	0.503035	5.30634	0.61463	6.48037	0.868972	9.13183	0.302845	3.19096	0.478058	4.99731	0.730358	7.69108	0.927223	9.74319
0.336158	3.492	0.165056	1.6862	0.336547	3.48375	0.504028	5.26507	0.615663	6.42812	0.869562	9.04942	0.304933	3.18172	0.479143	4.96035	0.730971	7.62274	0.927751	9.65422
0.337228	3.46954	0.167069	1.69067	0.337621	3.46147	0.505029	5.22468	0.616704	6.37696	0.870156	8.96865	0.307022	3.17268	0.480237	4.92418	0.731589	7.55578	0.928283	9.567
0.338308	3.4476	0.169082	1.69507	0.338704	3.43972	0.506038	5.18513	0.617753	6.32685	0.870756	8.88947	0.309113	3.16383	0.481339	4.88878	0.732213	7.49014	0.928821	9.4815
0.339398	3.42617	0.171097	1.69939	0.339798	3.41848	0.507054	5.14642	0.618809	6.27776	0.871362	8.81184	0.311206	3.15516	0.48245	4.85412	0.732842	7.42581	0.929363	9.39766
0.340498	3.40525	0.173112	1.70364	0.340902	3.39774	0.508078	5.1085	0.619873	6.22968	0.871972	8.7357	0.3133	3.14667	0.483568	4.82019	0.733477	7.36273	0.92991	9.31543
0.341608	3.38482	0.175129	1.70783	0.342016	3.37748	0.50911	5.07136	0.620945	6.18256	0.872588	8.66103	0.315396	3.13835	0.484695	4.78696	0.734117	7.30088	0.930462	9.23477
0.342729	3.36486	0.177147	1.71195	0.34314	3.3577	0.510149	5.03499	0.622025	6.13638	0.87321	8.58778	0.317493	3.1302	0.48583	4.75442	0.734764	7.24022	0.931019	9.15563
0.34386	3.34537	0.179165	1.71601	0.344276	3.33837	0.511196	4.99935	0.623112	6.09112	0.873836	8.51592	0.319591	3.1222	0.486973	4.72255	0.735415	7.18072	0.931581	9.07798
0.345002	3.32633	0.181184	1.72	0.345422	3.31949	0.51225	4.96442	0.624206	6.04675	0.874468	8.44539	0.321691	3.11437	0.488124	4.69132	0.736072	7.12234	0.932148	9.00178
0.346155	3.30773	0.183205	1.72393	0.346578	3.30105	0.513311	4.93019	0.625309	6.00325	0.875106	8.37618	0.323792	3.10669	0.489283	4.66073	0.736735	7.06506	0.93272	8.92698
0.347318	3.28956	0.185226	1.7278	0.347746	3.28304	0.51438	4.89664	0.626418	5.96058	0.875748	8.30824	0.325894	3.09915	0.490449	4.63074	0.737403	7.00884	0.933296	8.85355
0.348493	3.27181	0.187248	1.73161	0.348924	3.26544	0.515457	4.86375	0.627535	5.91874	0.876396	8.24153	0.327997	3.09176	0.491624	4.60135	0.738077	6.95367	0.933877	8.78145
0.349678	3.25447	0.18927	1.73536	0.350114	3.24825	0.51654	4.8315	0.628659	5.87769	0.877049	8.17604	0.330102	3.08451	0.492806	4.57255	0.738756	6.8995	0.934463	8.71065
0.350875	3.23754	0.191294	1.73906	0.351314	3.23146	0.517631	4.79987	0.62979	5.83742	0.877707	8.11172	0.332208	3.0774	0.493996	4.54431	0.73944	6.84632	0.935054	8.64111
0.352083	3.22099	0.193318	1.7427	0.352527	3.21505	0.518729	4.76885	0.630929	5.7979	0.878371	8.04855	0.334314	3.07041	0.495194	4.51661	0.74013	6.7941	0.93565	8.5728
0.353303	3.20483	0.195342	1.74628	0.35375	3.19903	0.519834	4.73843	0.632074	5.75912	0.87904	7.9865	0.336422	3.06356	0.4964	4.48946	0.740826	6.74282	0.936251	8.50569
0.354534	3.18905	0.197368	1.74982	0.354986	3.18338	0.520947	4.70858	0.633227	5.72106	0.879713	7.92553	0.338531	3.05682	0.497613	4.46283	0.741527	6.69245	0.936856	8.43976
0.355777	3.17363	0.199393	1.75329	0.356233	3.1681	0.522066	4.67929	0.634387	5.68369	0.880393	7.86563	0.340641	3.05021	0.498834	4.4367	0.742233	6.64296	0.937466	8.37496
0.357032	3.15858	0.20142	1.75672	0.357493	3.15318	0.523192	4.65055	0.635554	5.64701	0.881077	7.80676	0.342751	3.04372	0.500062	4.41107	0.742945	6.59434	0.938081	8.31127
0.3583	3.14388	0.203447	1.7601	0.358765	3.1386	0.524326	4.62234	0.636728	5.61099	0.881767	7.7489	0.344862	3.03734	0.501298	4.38593	0.743662	6.54657	0.938701	8.24867
0.359579	3.12952	0.205475	1.76343	0.360049	3.12437	0.525466	4.59466	0.637909	5.57562	0.882461	7.69203	0.346975	3.03107	0.502541	4.36125	0.744384	6.49962	0.939325	8.18713
0.360872	3.11551	0.207503	1.76671	0.361347	3.11048	0.526613	4.56748	0.639096	5.54088	0.883161	7.63611	0.349088	3.02491	0.503792	4.33704	0.745112	6.45348	0.939954	8.12662
0.362177	3.10183	0.209532	1.76994	0.362657	3.09692	0.527767	4.54079	0.640291	5.50675	0.883866	7.58114	0.351201	3.01885	0.50505	4.31327	0.745846	6.40812	0.940588	8.06712
0.363496	3.08848	0.211561	1.77312	0.36398	3.08369	0.528928	4.51459	0.641492	5.47323	0.884576	7.52708	0.353316	3.0129	0.506315	4.28995	0.746584	6.36353	0.941227	8.0086
0.364828	3.07545	0.21359	1.77626	0.365317	3.07078	0.530095	4.48886	0.6427	5.44029	0.885292	7.47391	0.355431	3.00704	0.507588	4.26704	0.747328	6.31968	0.94187	7.95105
0.366173	3.06274	0.21562	1.77936	0.366667	3.05818	0.53127	4.46359	0.643915	5.40792	0.886012	7.42162	0.357547	3.00129	0.508868	4.24456	0.748078	6.27657	0.942518	7.89443
0.367533	3.05034	0.217651	1.78241	0.368032	3.04589	0.532451	4.43876	0.645136	5.37611	0.886738	7.37017	0.359663	2.99562	0.510155	4.22248	0.748832	6.23417	0.943171	7.83872
0.368906	3.03824	0.219682	1.78542	0.369411	3.03391	0.533638	4.41438	0.646364	5.34484	0.887468	7.31957	0.36178	2.99005	0.511449	4.2008	0.749592	6.19246	0.943829	7.78391
0.370294	3.02645	0.221713	1.78839	0.370804	3.02223	0.534832	4.39042	0.647598	5.31411	0.888204	7.26977	0.363898	2.98457	0.51275	4.1795	0.750358	6.15144	0.944491	7.72998
0.371697	3.01496	0.223744	1.79131	0.372213	3.01084	0.536033	4.36687	0.648839	5.28389	0.888945	7.22077	0.366016	2.97918	0.514059	4.15858	0.751128	6.11108	0.945158	7.6769
0.373115	3.00376	0.225776	1.79419	0.373636	2.99975	0.53724	4.34374	0.650086	5.25418	0.889691	7.17255	0.368134	2.97387	0.515374	4.13804	0.751904	6.07137	0.94583	7.62466
0.374549	2.99285	0.227808	1.79704	0.375075	2.98895	0.538453	4.321	0.65134	5.22497	0.890441	7.12508	0.370253	2.96864	0.516696	4.11785	0.752685	6.03229	0.946506	7.57323
0.375998	2.98223	0.229841	1.79984	0.37653	2.97843	0.539673	4.29865	0.6526	5.19624	0.891197	7.07836	0.372373	2.9635	0.518026	4.09802	0.753471	5.99384	0.947187	7.5226
0.377463	2.97189	0.231874	1.80261	0.378002	2.96819	0.540899	4.27668	0.653866	5.16799	0.891958	7.03236	0.374493	2.95843	0.519362	4.07853	0.754263	5.95599	0.947873	7.47275
0.378945	2.96183	0.233907	1.80534	0.379489	2.95823	0.542132	4.25508	0.655139	5.14019	0.892724	6.98708	0.376613	2.95344	0.520705	4.05937	0.75506	5.91874	0.948563	7.42366
0.380443	2.95204	0.23594	1.80803	0.380994	2.94854	0.543371	4.23384	0.656418	5.11285	0.893495	6.94249	0.378734	2.94853	0.522055	4.04055	0.755862	5.88207	0.949258	7.37532
0.381958	2.94253	0.237974	1.81069	0.382515	2.93912	0.544616	4.21296	0.657703	5.08595	0.894271	6.89858	0.380854	2.94369	0.523412	4.02205	0.756669	5.84596	0.949957	7.32771
0.383491	2.93328	0.240008	1.81331	0.384054	2.92997	0.545867	4.19242	0.658994	5.05948	0.895052	6.85533	0.382976	2.93892	0.524775	4.00386	0.757481	5.81042	0.950661	7.28082
0.385041	2.9243	0.242042	1.81589	0.385611	2.92109	0.547124	4.17222	0.660291	5.03344	0.895838	6.81273	0.385097	2.93422	0.526146	3.98598	0.758299	5.77541	0.95137	7.23462
0.38661	2.91558	0.244076	1.81845	0.387186	2.91246	0.548388	4.15235	0.661594	5.00781	0.896629	6.77077	0.387219	2.92959	0.527523	3.9684	0.759122	5.74094	0.952084	7.18911
0.388196	2.90712	0.24611	1.82096	0.38878	2.9041	0.549657	4.13281	0.662903	4.98258	0.897425	6.72944	0.38934	2.92503	0.528906	3.95112	0.75995	5.70699	0.952802	7.14427
0.389802	2.89892	0.248145	1.82345	0.390392	2.89599	0.550933	4.11358	0.664219	4.95774	0.898226	6.68871	0.391463	2.92053	0.530296	3.93412	0.760783	5.67355	0.953524	7.10009
0.391426	2.89096	0.25018	1.8259	0.392023	2.88812	0.552214	4.09467	0.66554	4.9333	0.899031	6.64858	0.393585	2.91609	0.531693	3.9174	0.761621	5.64061	0.954251	7.05655
0.393069	2.88326	0.252215	1.82832	0.393673	2.88051	0.553502	4.07605	0.666866	4.90923	0.899842	6.60904	0.395707	2.91171	0.533096	3.90096	0.762464	5.60816	0.954983	7.01364
0.394732	2.8758	0.25425	1.83071	0.395343	2.87314	0.554795	4.05774	0.668199	4.88553	0.900657	6.57007	0.39783	2.9074	0.534506	3.88479	0.763313	5.57618	0.955719	6.97134
0.396414	2.86859	0.256285	1.83306	0.397032	2.86601	0.556094	4.03971	0.669538	4.8622	0.901478	6.53166	0.399952	2.90314	0.535922	3.86889	0.764166	5.54468	0.95646	6.92965
0.398116	2.86161	0.25832	1.83539	0.398742	2.85912	0.557399	4.02197	0.670882	4.83921	0.902303	6.49381	0.402075	2.89895	0.537345	3.85324	0.765025	5.51364	0.957205	6.88855
0.399838	2.85487	0.260356	1.83769	0.400471	2.85246	0.558709	4.0045	0.672232	4.81658	0.903133	6.45649	0.404197	2.8948	0.538774	3.83785	0.765889	5.48304	0.957955	6.84803
0.401579	2.84835	0.262391	1.83995	0.40222	2.84604	0.560026	3.98731	0.673587	4.79429	0.903968	6.4197	0.40632	2.89072	0.540209	3.8227	0.766757	5.45289	0.95871	6.80808
0.403341	2.84207	0.264427	1.84219	0.403989	2.83983	0.561348	3.97038	0.674949	4.77233	0.904808	6.38342	0.408443	2.88668	0.541651	3.8078	0.767631	5.42317	0.959468	6.76869
0.405123	2.83601	0.266463	1.8444	0.405778	2.83385	0.562675	3.95372	0.676315	4.7507	0.905652	6.34766	0.410565	2.8827	0.543098	3.79313	0.76851	5.39388	0.960232	6.72984
0.406925	2.83016	0.268499	1.84659	0.407588	2.82808	0.564009	3.93731	0.677688	4.72939	0.906502	6.31239	0.412688	2.87877	0.544553	3.7787	0.769394	5.365	0.961	6.69153
0.408747	2.82453	0.270535	1.84874	0.409417	2.82253	0.565347	3.92115	0.679065	4.70839	0.907356	6.27761	0.41481	2.8749	0.546013	3.7645	0.770283	5.33653	0.961772	6.65374
0.410589	2.81911	0.27257	1.85087	0.411266	2.81718	0.566692	3.90524	0.680448	4.68769	0.908215	6.24331	0.416932	2.87107	0.547479	3.75051	0.771177	5.30846	0.962549	6.61647
0.412451	2.81389	0.274606	1.85297	0.413135	2.81204	0.568041	3.88957	0.681837	4.6673	0.909079	6.20948	0.419055	2.86728	0.548952	3.73675	0.772076	5.28078	0.96333	6.5797
0.414332	2.80887	0.276642	1.85505	0.415023	2.80709	0.569397	3.87413	0.683231	4.6472	0.909948	6.17611	0.421177	2.86355	0.550431	3.72321	0.772979	5.25348	0.964116	6.54342
0.416233	2.80405	0.278678	1.8571	0.416931	2.80234	0.570757	3.85893	0.68463	4.6274	0.910821	6.14319	0.423299	2.85986	0.551916	3.70987	0.773888	5.22656	0.964906	6.50764
0.418153	2.79941	0.280714	1.85912	0.418858	2.79777	0.572123	3.84395	0.686034	4.60787	0.911699	6.11071	0.42542	2.85621	0.553406	3.69674	0.774802	5.20001	0.965701	6.47233
0.420092	2.79496	0.282751	1.86113	0.420803	2.79338	0.573494	3.82919	0.687444	4.58863	0.912582	6.07867	0.427542	2.85261	0.554903	3.68381	0.775721	5.17383	0.9665	6.43748
0.422049	2.79068	0.284787	1.8631	0.422767	2.78916	0.574871	3.81465	0.688859	4.56965	0.913469	6.04705	0.429663	2.84906	0.556406	3.67108	0.776644	5.148	0.967303	6.4031
0.424024	2.78657	0.286823	1.86505	0.424749	2.78512	0.576253	3.80033	0.690279	4.55094	0.914362	6.01586	0.431784	2.84554	0.557915	3.65854	0.777573	5.12252	0.968111	6.36917
0.426017	2.78263	0.288859	1.86698	0.426749	2.78124	0.577639	3.78621	0.691704	4.5325	0.915259	5.98507	0.433904	2.84207	0.559429	3.6462	0.778506	5.09738	0.968924	6.33568
0.428028	2.77886	0.290895	1.86889	0.428765	2.77752	0.579032	3.7723	0.693134	4.51431	0.91616	5.95469	0.436025	2.83863	0.56095	3.63404	0.779445	5.07258	0.96974	6.30262
0.430055	2.77523	0.292931	1.87077	0.430799	2.77395	0.580429	3.75859	0.69457	4.49637	0.917067	5.9247	0.438145	2.83524	0.562476	3.62207	0.780388	5.04811	0.970561	6.26999
0.432099	2.77175	0.294967	1.87263	0.432848	2.77052	0.581831	3.74507	0.69601	4.47868	0.917978	5.8951	0.440265	2.83188	0.564008	3.61028	0.781336	5.02396	0.971387	6.23778
0.434159	2.76842	0.297003	1.87447	0.434914	2.76724	0.583239	3.73175	0.697455	4.46124	0.918893	5.86588	0.442384	2.82856	0.565546	3.59866	0.782289	5.00013	0.972216	6.20597
0.436234	2.76523	0.299039	1.87628	0.436994	2.76409	0.584651	3.71862	0.698905	4.44403	0.919814	5.83704	0.444503	2.82528	0.56709	3.58721	0.783247	4.97662	0.97305	6.17458
0.438324	2.76216	0.301074	1.87808	0.43909	2.76108	0.586068	3.70568	0.70036	4.42705	0.920738	5.80857	0.446622	2.82203	0.56864	3.57594	0.784209	4.95341	0.973889	6.14357
0.440429	2.75922	0.30311	1.87985	0.4412	2.75818	0.587491	3.69291	0.70182	4.41031	0.921668	5.78046	0.44874	2.81882	0.570195	3.56483	0.785177	4.93051	0.974732	6.11296
0.442547	2.75641	0.305146	1.88161	0.443323	2.75541	0.588918	3.68033	0.703285	4.39379	0.922602	5.7527	0.450858	2.81565	0.571755	3.55389	0.786149	4.9079	0.975579	6.08273
0.444679	2.75371	0.307182	1.88334	0.44546	2.75275	0.59035	3.66792	0.704754	4.37749	0.923541	5.72529	0.452975	2.8125	0.573322	3.54311	0.787126	4.88558	0.97643	6.05288
0.446824	2.75112	0.309217	1.88505	0.44761	2.7502	0.591787	3.65569	0.706228	4.3614	0.924484	5.69823	0.455092	2.8094	0.574894	3.53248	0.788108	4.86355	0.977286	6.02339
0.448982	2.74864	0.311253	1.88674	0.449772	2.74776	0.593228	3.64363	0.707707	4.34553	0.925432	5.6715	0.457208	2.80632	0.576471	3.52201	0.789094	4.8418	0.978146	5.99427
0.451152	2.74625	0.313288	1.88842	0.451946	2.74541	0.594675	3.63173	0.70919	4.32987	0.926384	5.6451	0.459324	2.80328	0.578054	3.51169	0.790086	4.82032	0.97901	5.96551
0.453333	2.74397	0.315324	1.89007	0.454131	2.74316	0.596126	3.61999	0.710679	4.31441	0.927341	5.61903	0.461439	2.80026	0.579643	3.50153	0.791082	4.79912	0.979878	5.93709
0.455525	2.74178	0.317359	1.8917	0.456327	2.741	0.597582	3.60842	0.712171	4.29916	0.928303	5.59328	0.463554	2.79728	0.581237	3.4915	0.792083	4.77819	0.980751	5.90902
0.457727	2.73967	0.319394	1.89332	0.458534	2.73892	0.599042	3.597	0.713669	4.2841	0.929269	5.56785	0.465668	2.79433	0.582836	3.48163	0.793088	4.75751	0.981628	5.88129
0.45994	2.73765	0.321429	1.89492	0.46075	2.73693	0.600508	3.58574	0.71517	4.26924	0.930239	5.54272	0.467782	2.7914	0.584441	3.47189	0.794098	4.7371	0.982509	5.8539
0.462163	2.73571	0.323464	1.8965	0.462976	2.73502	0.601977	3.57463	0.716677	4.25457	0.931214	5.5179	0.469895	2.78851	0.586052	3.46229	0.795113	4.71694	0.983394	5.82683
0.464395	2.73384	0.325499	1.89806	0.465211	2.73318	0.603452	3.56366	0.718187	4.24009	0.932194	5.49337	0.472007	2.78564	0.587667	3.45283	0.796133	4.69702	0.984284	5.80008
0.466636	2.73205	0.327534	1.89961	0.467455	2.73141	0.60493	3.55285	0.719702	4.22579	0.933178	5.46915	0.474119	2.78281	0.589288	3.44351	0.797157	4.67736	0.985178	5.77365
0.468885	2.73032	0.329568	1.90113	0.469707	2.72971	0.606414	3.54218	0.721222	4.21167	0.934166	5.44521	0.47623	2.77999	0.590915	3.43431	0.798186	4.65793	0.986076	5.74753
0.471142	2.72866	0.331603	1.90264	0.471968	2.72807	0.607901	3.53165	0.722746	4.19773	0.935159	5.42155	0.47834	2.77721	0.592546	3.42525	0.79922	4.63874	0.986978	5.72171
0.473408	2.72707	0.333637	1.90414	0.474236	2.7265	0.609394	3.52126	0.724274	4.18396	0.936156	5.39817	0.48045	2.77445	0.594183	3.41631	0.800258	4.61978	0.987884	5.6962
0.47568	2.72553	0.335671	1.90561	0.476511	2.72498	0.61089	3.511	0.725806	4.17037	0.937158	5.37507	0.482559	2.77172	0.595825	3.4075	0.801301	4.60106	0.988795	5.67098
0.47796	2.72405	0.337705	1.90707	0.478793	2.72353	0.612391	3.50088	0.727343	4.15694	0.938164	5.35224	0.484668	2.76901	0.597473	3.39881	0.802348	4.58256	0.989709	5.64606
0.480246	2.72263	0.339739	1.90852	0.481082	2.72212	0.613896	3.4909	0.728884	4.14369	0.939175	5.32968	0.486775	2.76633	0.599125	3.39024	0.8034	4.56428	0.990628	5.62142
0.482539	2.72125	0.341773	1.90995	0.483377	2.72076	0.615406	3.48104	0.730429	4.13059	0.940189	5.30738	0.488882	2.76367	0.600783	3.38179	0.804457	4.54621	0.991551	5.59707
0.484838	2.71993	0.343807	1.91136	0.485679	2.71945	0.61692	3.47131	0.731978	4.11766	0.941209	5.28533	0.490988	2.76103	0.602445	3.37346	0.805518	4.52837	0.992478	5.57299
0.487144	2.71865	0.34584	1.91276	0.487986	2.71819	0.618438	3.4617	0.733531	4.10488	0.942232	5.26354	0.493094	2.75842	0.604113	3.36524	0.806584	4.51073	0.993409	5.54919
0.489454	2.71741	0.347873	1.91414	0.490298	2.71697	0.61996	3.45222	0.735088	4.09226	0.94326	5.242	0.495198	2.75583	0.605786	3.35714	0.807654	4.49331	0.994344	5.52565
0.49177	2.71622	0.349907	1.91551	0.492616	2.7158	0.621487	3.44286	0.73665	4.07979	0.944293	5.22071	0.497302	2.75326	0.607464	3.34914	0.808729	4.47609	0.995283	5.50238
0.494091	2.71507	0.35194	1.91686	0.494939	2.71466	0.623017	3.43361	0.738215	4.06747	0.945329	5.19965	0.499405	2.75071	0.609147	3.34126	0.809808	4.45907	0.996227	5.47938
0.496417	2.71396	0.353972	1.9182	0.497267	2.71356	0.624552	3.42449	0.739785	4.0553	0.94637	5.17884	0.501507	2.74819	0.610835	3.33348	0.810892	4.44224	0.997174	5.45662
0.498748	2.71288	0.356005	1.91952	0.499599	2.7125	0.626091	3.41548	0.741358	4.04327	0.947416	5.15826	0.503608	2.74568	0.612528	3.32581	0.81198	4.42562	0.998126	5.43413
0.501083	2.71184	0.358038	1.92083	0.501936	2.71147	0.627634	3.40658	0.742935	4.03139	0.948465	5.13791	0.505709	2.7432	0.614226	3.31824	0.813073	4.40918	0.999081	5.41188
0.503423	2.71083	0.36007	1.92213	0.504277	2.71047	0.62918	3.39779	0.744516	4.01965	0.949519	5.11779	0.507808	2.74074	0.615928	3.31078	0.81417	4.39294	1.00004	5.38987
0.505766	2.70986	0.362102	1.92341	0.506622	2.70951	0.630731	3.38911	0.746101	4.00805	0.950577	5.09789	0.509907	2.7383	0.617636	3.30341	0.815272	4.37688		
0.508114	2.70891	0.364134	1.92468	0.508971	2.70857	0.632286	3.38054	0.74769	3.99658	0.95164	5.07822	0.512005	2.73587	0.619349	3.29615	0.816378	4.36101		
0.510465	2.70799	0.366166	1.92593	0.511323	2.70767	0.633845	3.37208	0.749283	3.98524	0.952706	5.05876	0.514102	2.73347	0.621066	3.28898	0.817489	4.34531		
0.512819	2.7071	0.368198	1.92717	0.513679	2.70679	0.635408	3.36372	0.750879	3.97404	0.953777	5.03951	0.516198	2.73108	0.622788	3.28191	0.818604	4.3298		
0.515178	2.70624	0.370229	1.9284	0.516038	2.70593	0.636974	3.35547	0.752479	3.96297	0.954852	5.02048	0.518293	2.72872	0.624515	3.27493	0.819724	4.31446		
0.517539	2.70541	0.37226	1.92962	0.518401	2.70511	0.638545	3.34731	0.754083	3.95202	0.955931	5.00165	0.520387	2.72637	0.626247	3.26804	0.820848	4.29929		
0.519903	2.70459	0.374292	1.93082	0.520766	2.7043	0.640119	3.33925	0.75569	3.9412	0.957015	4.98303	0.52248	2.72404	0.627983	3.26125	0.821976	4.28429		
0.522271	2.7038	0.376322	1.93201	0.523135	2.70352	0.641697	3.33129	0.757301	3.93051	0.958102	4.96461	0.524572	2.72173	0.629724	3.25454	0.823109	4.26946		
0.524641	2.70304	0.378353	1.93319	0.525506	2.70276	0.643279	3.32343	0.758916	3.91993	0.959194	4.94638	0.526663	2.71943	0.63147	3.24792	0.824246	4.2548		
0.527014	2.70229	0.380384	1.93436	0.52788	2.70202	0.644864	3.31566	0.760534	3.90948	0.96029	4.92836	0.528754	2.71715	0.63322	3.24139	0.825387	4.2403		
0.529389	2.70157	0.382414	1.93551	0.530256	2.70131	0.646454	3.30799	0.762156	3.89914	0.96139	4.91052	0.530843	2.71489	0.634975	3.23495	0.826533	4.22596		
0.531767	2.70086	0.384444	1.93666	0.532635	2.70061	0.648047	3.30041	0.763782	3.88892	0.962495	4.89288	0.532931	2.71264	0.636735	3.22859	0.827683	4.21177		
0.534148	2.70017	0.386474	1.93779	0.535016	2.69992	0.649643	3.29291	0.76541	3.87881	0.963603	4.87542	0.535018	2.71041	0.638499	3.22231	0.828837	4.19775		
0.53653	2.6995	0.388504	1.93891	0.5374	2.69926	0.651244	3.28551	0.767043	3.86882	0.964716	4.85815	0.537104	2.7082	0.640268	3.21612	0.829996	4.18387		
0.538915	2.69885	0.390533	1.94001	0.539785	2.69861	0.652848	3.27819	0.768679	3.85893	0.965832	4.84106	0.539189	2.706	0.642041	3.21	0.831159	4.17015		
0.541302	2.69821	0.392562	1.94111	0.542173	2.69798	0.654455	3.27096	0.770318	3.84916	0.966953	4.82415	0.541273	2.70382	0.643819	3.20397	0.832326	4.15658		
0.543691	2.69759	0.394592	1.9422	0.544562	2.69737	0.656067	3.26382	0.77196	3.83949	0.968078	4.80741	0.543356	2.70165	0.645602	3.19801	0.833498	4.14315		
0.546081	2.69699	0.39662	1.94327	0.546954	2.69677	0.657681	3.25675	0.773606	3.82993	0.969207	4.79085	0.545438	2.69949	0.647388	3.19213	0.834674	4.12987		
0.548474	2.69639	0.398649	1.94433	0.549347	2.69618	0.6593	3.24977	0.775255	3.82047	0.970339	4.77447	0.547519	2.69735	0.64918	3.18632	0.835854	4.11673		
0.550868	2.69582	0.400678	1.94539	0.551742	2.69561	0.660921	3.24287	0.776908	3.81112	0.971476	4.75825	0.549599	2.69523	0.650975	3.18059	0.837038	4.10373		
0.553264	2.69525	0.402706	1.94643	0.554138	2.69505	0.662547	3.23606	0.778564	3.80186	0.972617	4.7422	0.551678	2.69312	0.652775	3.17493	0.838227	4.09087		
0.555661	2.6947	0.404734	1.94746	0.556536	2.6945	0.664175	3.22932	0.780223	3.79271	0.973762	4.72631	0.553755	2.69102	0.654579	3.16934	0.83942	4.07815		
0.55806	2.69416	0.406762	1.94848	0.558935	2.69397	0.665808	3.22265	0.781885	3.78365	0.974911	4.71058	0.555832	2.68894	0.656388	3.16383	0.840617	4.06556		
0.56046	2.69363	0.408789	1.9495	0.561336	2.69344	0.667443	3.21607	0.783551	3.7747	0.976065	4.69502	0.557907	2.68687	0.658201	3.15838	0.841818	4.05311		
0.562862	2.69312	0.410817	1.9505	0.563738	2.69293	0.669082	3.20955	0.78522	3.76583	0.977222	4.67961	0.559981	2.68481	0.660018	3.15301	0.843023	4.04079		
0.565265	2.69261	0.412844	1.95149	0.566142	2.69243	0.670725	3.20312	0.786891	3.75706	0.978383	4.66436	0.562054	2.68276	0.66184	3.1477	0.844233	4.02859		
0.567669	2.69212	0.414871	1.95247	0.568547	2.69194	0.67237	3.19675	0.788566	3.74838	0.979548	4.64926	0.564126	2.68073	0.663665	3.14246	0.845446	4.01653		
0.570075	2.69163	0.416897	1.95344	0.570952	2.69146	0.674019	3.19046	0.790244	3.7398	0.980716	4.63432	0.566197	2.67871	0.665495	3.13728	0.846664	4.00459		
0.572481	2.69115	0.418924	1.95441	0.573359	2.69098	0.675672	3.18424	0.791926	3.7313	0.981889	4.61952	0.568267	2.67671	0.667329	3.13217	0.847886	3.99277		
0.574889	2.69069	0.42095	1.95536	0.575767	2.69052	0.677327	3.17809	0.79361	3.72289	0.983066	4.60487	0.570335	2.67471	0.669168	3.12712	0.849112	3.98108		
0.577298	2.69023	0.422976	1.95631	0.578176	2.69007	0.678986	3.172	0.795297	3.71457	0.984247	4.59037	0.572403	2.67273	0.67101	3.12214	0.850343	3.96951		
0.579707	2.68978	0.425002	1.95724	0.580586	2.68962	0.680649	3.16599	0.796987	3.70634	0.985431	4.57601	0.574469	2.67076	0.672856	3.11722	0.851577	3.95806		
0.582118	2.68934	0.427027	1.95817	0.582997	2.68918	0.682314	3.16004	0.79868	3.69819	0.98662	4.56179	0.576534	2.6688	0.674707	3.11236	0.852815	3.94672		
0.584529	2.68891	0.429052	1.95908	0.585409	2.68875	0.683983	3.15416	0.800376	3.69012	0.987812	4.54772	0.578598	2.66685	0.676562	3.10756	0.854058	3.9355		
0.586942	2.68848	0.431078	1.95999	0.587822	2.68833	0.685655	3.14834	0.802075	3.68214	0.989009	4.53378	0.580661	2.66492	0.67842	3.10281	0.855305	3.9244		
0.589355	2.68806	0.433102	1.96089	0.590235	2.68791	0.68733	3.14259	0.803777	3.67424	0.990209	4.51997	0.582722	2.66299	0.680283	3.09813	0.856555	3.91341		
0.591768	2.68765	0.435127	1.96178	0.592649	2.6875	0.689008	3.1369	0.805482	3.66642	0.991413	4.50631	0.584783	2.66108	0.682149	3.09351	0.85781	3.90253		
0.594183	2.68725	0.437151	1.96267	0.595064	2.6871	0.690689	3.13127	0.80719	3.65867	0.992621	4.49277	0.586842	2.65917	0.68402	3.08894	0.859069	3.89176		
0.596598	2.68685	0.439176	1.96354	0.597479	2.6867	0.692374	3.12571	0.8089	3.65101	0.993832	4.47936	0.5889	2.65728	0.685894	3.08442	0.860331	3.8811		
0.599014	2.68645	0.441199	1.96441	0.599895	2.68631	0.694061	3.1202	0.810613	3.64342	0.995048	4.46609	0.590957	2.6554	0.687772	3.07997	0.861598	3.87054		
0.60143	2.68607	0.443223	1.96526	0.602312	2.68593	0.695752	3.11476	0.812329	3.63591	0.996267	4.45294	0.593013	2.65353	0.689655	3.07556	0.862869	3.8601		
0.603847	2.68569	0.445246	1.96611	0.604729	2.68555	0.697446	3.10937	0.814048	3.62847	0.99749	4.43992	0.595067	2.65166	0.69154	3.07121	0.864144	3.84975		
0.606265	2.68531	0.44727	1.96696	0.607147	2.68517	0.699143	3.10404	0.81577	3.6211	0.998717	4.42702	0.597121	2.64981	0.69343	3.06691	0.865423	3.83951		
0.608683	2.68494	0.449293	1.96779	0.609565	2.68481	0.700843	3.09877	0.817494	3.61381	0.999948	4.41424	0.599173	2.64797	0.695324	3.06267	0.866705	3.82938		
0.611101	2.68457	0.451315	1.96861	0.611983	2.68444	0.702546	3.09356	0.819221	3.60659	1.00118	4.40159	0.601224	2.64614	0.697221	3.05847	0.867992	3.81934		
0.61352	2.68421	0.453338	1.96943	0.614402	2.68408	0.704252	3.0884	0.82095	3.59944			0.603273	2.64432	0.699122	3.05433	0.869283	3.8094		
0.615939	2.68386	0.45536	1.97024	0.616821	2.68373	0.705961	3.0833	0.822683	3.59236			0.605322	2.64251	0.701027	3.05024	0.870577	3.79956		
0.618358	2.68351	0.457382	1.97105	0.619241	2.68338	0.707673	3.07825	0.824417	3.58535			0.607369	2.6407	0.702935	3.04619	0.871876	3.78982		
0.620778	2.68316	0.459404	1.97184	0.621661	2.68303	0.709388	3.07325	0.826155	3.57841			0.609416	2.63891	0.704847	3.04219	0.873178	3.78017		
0.623198	2.68282	0.461425	1.97263	0.624081	2.68269	0.711106	3.06831	0.827895	3.57153			0.611461	2.63713	0.706763	3.03824	0.874485	3.77062		
0.625618	2.68248	0.463446	1.97341	0.626501	2.68235	0.712827	3.06342	0.829637	3.56472			0.613504	2.63535	0.708682	3.03434	0.875795	3.76116		
0.628039	2.68214	0.465467	1.97418	0.628922	2.68202	0.71455	3.05858	0.831383	3.55798			0.615547	2.63358	0.710605	3.03049	0.877109	3.75179		
0.63046	2.68181	0.467488	1.97495	0.631343	2.68169	0.716277	3.05379	0.83313	3.55129			0.617588	2.63183	0.712531	3.02667	0.878427	3.74251		
0.632881	2.68148	0.469509	1.97571	0.633764	2.68136	0.718007	3.04906	0.83488	3.54468			0.619629	2.63008	0.714461	3.02291	0.879749	3.73332		
0.635302	2.68115	0.471529	1.97646	0.636185	2.68103	0.71974	3.04437	0.836633	3.53812			0.621668	2.62834	0.716394	3.01919	0.881075	3.72423		
0.637723	2.68083	0.473549	1.97721	0.638606	2.68071	0.721475	3.03973	0.838388	3.53163			0.623706	2.62661	0.718331	3.01551	0.882405	3.71522		
0.640144	2.68051	0.475569	1.97795	0.641027	2.68039	0.723213	3.03514	0.840145	3.5252			0.625742	2.62489	0.720271	3.01187	0.883738	3.70629		
0.642565	2.68019	0.477588	1.97868	0.643449	2.68008	0.724955	3.0306	0.841905	3.51882			0.627778	2.62318	0.722215	3.00828	0.885076	3.69745		
0.644987	2.67988	0.479607	1.9794	0.64587	2.67976	0.726699	3.0261	0.843667	3.51251			0.629812	2.62147	0.724162	3.00473	0.886417	3.6887		
0.647408	2.67956	0.481626	1.98012	0.648291	2.67945	0.728446	3.02166	0.845432	3.50626			0.631846	2.61977	0.726112	3.00122	0.887762	3.68003		
0.649829	2.67925	0.483645	1.98083	0.650712	2.67914	0.730196	3.01725	0.847199	3.50006			0.633878	2.61809	0.728066	2.99775	0.88911	3.67144		
0.652251	2.67894	0.485664	1.98154	0.653134	2.67883	0.731949	3.0129	0.848968	3.49392			0.635909	2.61641	0.730022	2.99432	0.890463	3.66293		
0.654672	2.67864	0.487682	1.98224	0.655555	2.67853	0.733704	3.00859	0.85074	3.48784			0.637938	2.61473	0.731983	2.99093	0.891819	3.6545		
0.657093	2.67833	0.4897	1.98293	0.657976	2.67822	0.735462	3.00432	0.852513	3.48181			0.639967	2.61307	0.733946	2.98758	0.89318	3.64616		
0.659514	2.67803	0.491717	1.98362	0.660397	2.67792	0.737224	3.00009	0.85429	3.47584			0.641995	2.61141	0.735912	2.98426	0.894544	3.63789		
0.661934	2.67773	0.493735	1.9843	0.662817	2.67762	0.738988	2.99591	0.856068	3.46992			0.644021	2.60977	0.737882	2.98099	0.895911	3.6297		
0.664355	2.67743	0.495752	1.98497	0.665238	2.67732	0.740755	2.99178	0.857848	3.46406			0.646046	2.60813	0.739855	2.97775	0.897283	3.62158		
0.666775	2.67713	0.497769	1.98564	0.667658	2.67703	0.742524	2.98768	0.859631	3.45824			0.64807	2.60649	0.741831	2.97455	0.898658	3.61355		
0.669195	2.67684	0.499786	1.98631	0.670078	2.67673	0.744297	2.98363	0.861416	3.45248			0.650093	2.60487	0.74381	2.97138	0.900037	3.60558		
0.671615	2.67654	0.501802	1.98696	0.672498	2.67643	0.746072	2.97962	0.863203	3.44678			0.652115	2.60325	0.745792	2.96825	0.901419	3.59769		
0.674035	2.67625	0.503819	1.98761	0.674917	2.67614	0.74785	2.97565	0.864993	3.44112			0.654136	2.60164	0.747777	2.96516	0.902806	3.58988		
0.676454	2.67595	0.505835	1.98826	0.677337	2.67585	0.749631	2.97171	0.866784	3.43551			0.656155	2.60004	0.749765	2.9621	0.904196	3.58213		
0.678873	2.67566	0.50785	1.9889	0.679755	2.67555	0.751415	2.96782	0.868577	3.42995			0.658174	2.59845	0.751756	2.95907	0.905589	3.57446		
0.681292	2.67537	0.509866	1.98953	0.682174	2.67526	0.753201	2.96397	0.870373	3.42445			0.660191	2.59686	0.75375	2.95608	0.906987	3.56686		
0.68371	2.67508	0.511881	1.99016	0.684592	2.67497	0.75499	2.96016	0.872171	3.41899			0.662208	2.59528	0.755746	2.95312	0.908388	3.55933		
0.686128	2.67479	0.513896	1.99078	0.687009	2.67468	0.756782	2.95639	0.87397	3.41357			0.664223	2.59371	0.757746	2.95019	0.909793	3.55187		
0.688545	2.6745	0.515911	1.9914	0.689427	2.67439	0.758577	2.95265	0.875772	3.40821			0.666237	2.59214	0.759749	2.9473	0.911201	3.54447		
0.690962	2.67421	0.517925	1.99201	0.691843	2.6741	0.760375	2.94895	0.877576	3.40289			0.66825	2.59058	0.761754	2.94444	0.912613	3.53715		
0.693378	2.67392	0.519939	1.99262	0.694259	2.67381	0.762175	2.94529	0.879382	3.39762			0.670263	2.58903	0.763762	2.9416	0.914029	3.52989		
0.695794	2.67363	0.521953	1.99322	0.696675	2.67352	0.763979	2.94167	0.881189	3.39239			0.672274	2.58749	0.765773	2.9388	0.915448	3.52269		
0.698209	2.67334	0.523967	1.99381	0.69909	2.67323	0.765785	2.93809	0.882999	3.38721			0.674284	2.58595	0.767786	2.93603	0.916871	3.51557		
0.700624	2.67305	0.52598	1.99441	0.701504	2.67294	0.767593	2.93454	0.884811	3.38207			0.676293	2.58442	0.769803	2.93329	0.918298	3.5085		
0.703038	2.67276	0.527993	1.99499	0.703918	2.67265	0.769405	2.93102	0.886624	3.37698			0.678301	2.5829	0.771822	2.93058	0.919728	3.5015		
0.705451	2.67246	0.530006	1.99557	0.706331	2.67236	0.771219	2.92754	0.88844	3.37192			0.680308	2.58138	0.773843	2.9279	0.921162	3.49456		
0.707864	2.67217	0.532019	1.99615	0.708744	2.67207	0.773037	2.9241	0.890257	3.36692			0.682314	2.57987	0.775867	2.92525	0.922599	3.48769		
0.710276	2.67188	0.534032	1.99672	0.711156	2.67178	0.774857	2.92069	0.892077	3.36195			0.684318	2.57837	0.777894	2.92262	0.92404	3.48088		
0.712687	2.67159	0.536044	1.99728	0.713567	2.67148	0.77668	2.91732	0.893898	3.35703			0.686322	2.57688	0.779923	2.92002	0.925485	3.47413		
0.715098	2.6713	0.538056	1.99784	0.715977	2.67119	0.778505	2.91398	0.895721	3.35214			0.688325	2.57539	0.781955	2.91745	0.926933	3.46744		
0.717508	2.671	0.540067	1.9984	0.718387	2.67089	0.780334	2.91067	0.897546	3.3473			0.690327	2.5739	0.783989	2.91491	0.928385	3.4608		
0.719917	2.67071	0.542079	1.99895	0.720795	2.6706	0.782165	2.9074	0.899372	3.3425			0.692328	2.57243	0.786026	2.91239	0.92984	3.45423		
0.722325	2.67041	0.54409	1.9995	0.723203	2.6703	0.784	2.90416	0.901201	3.33774			0.694329	2.57096	0.788065	2.9099	0.931299	3.44772		
0.724732	2.67011	0.546101	2.00004	0.72561	2.67	0.785837	2.90095	0.903031	3.33301			0.696328	2.5695	0.790106	2.90744	0.932761	3.44126		
0.727138	2.66981	0.548111	2.00058	0.728016	2.6697	0.787677	2.89778	0.904863	3.32833			0.698326	2.56804	0.79215	2.905	0.934227	3.43486		
0.729544	2.66951	0.550122	2.00111	0.730421	2.6694	0.78952	2.89464	0.906696	3.32369			0.700323	2.56659	0.794196	2.90259	0.935697	3.42852		
0.731948	2.66921	0.552132	2.00164	0.732825	2.6691	0.791366	2.89153	0.908532	3.31908			0.70232	2.56515	0.796244	2.9002	0.93717	3.42224		
0.734351	2.66891	0.554141	2.00216	0.735228	2.6688	0.793214	2.88845	0.910369	3.31451			0.704315	2.56372	0.798295	2.89783	0.938646	3.41601		
0.736754	2.6686	0.556151	2.00268	0.73763	2.66849	0.795066	2.8854	0.912208	3.30997			0.70631	2.56229	0.800348	2.89549	0.940126	3.40983		
0.739155	2.66829	0.55816	2.0032	0.74003	2.66818	0.796921	2.88239	0.914048	3.30548			0.708303	2.56086	0.802403	2.89317	0.94161	3.40371		
0.741555	2.66799	0.56017	2.00371	0.74243	2.66787	0.798778	2.8794	0.91589	3.30102			0.710296	2.55945	0.804461	2.89088	0.943097	3.39764		
0.743954	2.66767	0.562178	2.00421	0.744828	2.66756	0.800639	2.87645	0.917734	3.29659			0.712288	2.55804	0.80652	2.88861	0.944587	3.39163		
0.746352	2.66736	0.564187	2.00471	0.747226	2.66724	0.802503	2.87353	0.91958	3.2922			0.714279	2.55663	0.808582	2.88636	0.946081	3.38566		
0.748748	2.66704	0.566195	2.00521	0.749622	2.66693	0.804369	2.87063	0.921427	3.28785			0.716269	2.55524	0.810645	2.88414	0.947578	3.37975		
0.751143	2.66673	0.568203	2.00571	0.752016	2.66661	0.806239	2.86777	0.923276	3.28353			0.718259	2.55384	0.812711	2.88193	0.949079	3.3739		
0.753537	2.6664	0.570211	2.00619	0.75441	2.66629	0.808112	2.86494	0.925126	3.27924			0.720247	2.55246	0.814779	2.87975	0.950584	3.36809		
0.755929	2.66608	0.572219	2.00668	0.756802	2.66596	0.809988	2.86213	0.926978	3.27499			0.722235	2.55108	0.816848	2.87759	0.952091	3.36233		
0.75832	2.66575	0.574226	2.00716	0.759192	2.66563	0.811867	2.85936	0.928831	3.27077			0.724222	2.54971	0.81892	2.87545	0.953603	3.35662		
0.76071	2.66542	0.576233	2.00764	0.761581	2.6653	0.813749	2.85662	0.930686	3.26659			0.726208	2.54834	0.820994	2.87333	0.955117	3.35097		
0.763098	2.66509	0.57824	2.00811	0.763969	2.66497	0.815634	2.8539	0.932542	3.26244			0.728194	2.54698	0.823069	2.87123	0.956635	3.34536		
0.765485	2.66476	0.580246	2.00858	0.766355	2.66463	0.817523	2.85121	0.9344	3.25832			0.730178	2.54563	0.825147	2.86916	0.958157	3.3398		
0.76787	2.66442	0.582253	2.00905	0.768739	2.66429	0.819415	2.84855	0.93626	3.25423			0.732162	2.54428	0.827226	2.8671	0.959682	3.33428		
0.770253	2.66407	0.584259	2.00951	0.771122	2.66395	0.82131	2.84592	0.938121	3.25017			0.734145	2.54294	0.829307	2.86506	0.96121	3.32882		
0.772635	2.66373	0.586265	2.00997	0.773503	2.6636	0.823208	2.84332	0.939983	3.24614			0.736127	2.5416	0.83139	2.86304	0.962742	3.3234		
0.775015	2.66338	0.58827	2.01042	0.775882	2.66325	0.82511	2.84075	0.941847	3.24215			0.738109	2.54027	0.833475	2.86104	0.964277	3.31803		
0.777393	2.66302	0.590275	2.01087	0.77826	2.66289	0.827014	2.8382	0.943712	3.23819			0.74009	2.53895	0.835561	2.85906	0.965816	3.3127		
0.779769	2.66267	0.59228	2.01132	0.780635	2.66253	0.828923	2.83569	0.945579	3.23425			0.74207	2.53763	0.837649	2.85709	0.967358	3.30742		
0.782143	2.6623	0.594285	2.01176	0.783009	2.66217	0.830835	2.8332	0.947447	3.23035			0.744049	2.53632	0.839739	2.85515	0.968903	3.30218		
0.784516	2.66194	0.59629	2.0122	0.785381	2.6618	0.83275	2.83073	0.949317	3.22647			0.746028	2.53501	0.84183	2.85322	0.970452	3.29699		
0.786887	2.66157	0.598294	2.01264	0.787751	2.66143	0.834669	2.8283	0.951188	3.22263			0.748006	2.53371	0.843923	2.85131	0.972004	3.29185		
0.789255	2.66119	0.600298	2.01307	0.790118	2.66105	0.836591	2.82589	0.95306	3.21881			0.749983	2.53242	0.846018	2.84942	0.973559	3.28674		
0.791621	2.66081	0.602302	2.0135	0.792484	2.66067	0.838517	2.82351	0.954934	3.21502			0.75196	2.53113	0.848114	2.84754	0.975118	3.28168		
0.793985	2.66043	0.604305	2.01392	0.794847	2.66028	0.840446	2.82116	0.956809	3.21126			0.753936	2.52985	0.850211	2.84568	0.97668	3.27667		
0.796347	2.66004	0.606308	2.01434	0.797208	2.65989	0.842379	2.81883	0.958685	3.20753			0.755912	2.52857	0.852311	2.84384	0.978246	3.27169		
0.798707	2.65964	0.608311	2.01476	0.799567	2.6595	0.844316	2.81653	0.960562	3.20382			0.757886	2.5273	0.854411	2.84201	0.979815	3.26676		
0.801065	2.65924	0.610314	2.01518	0.801924	2.65909	0.846257	2.81426	0.962441	3.20014			0.75986	2.52603	0.856513	2.8402	0.981387	3.26187		
0.80342	2.65883	0.612317	2.01559	0.804278	2.65869	0.848201	2.81201	0.964322	3.19649			0.761834	2.52477	0.858617	2.83841	0.982962	3.25702		
0.805772	2.65842	0.614319	2.01599	0.806629	2.65827	0.850149	2.80979	0.966203	3.19287			0.763807	2.52352	0.860722	2.83663	0.984541	3.25221		
0.808122	2.65801	0.616321	2.0164	0.808979	2.65785	0.852101	2.80759	0.968086	3.18927			0.765779	2.52227	0.862828	2.83487	0.986123	3.24744		
0.810469	2.65758	0.618323	2.0168	0.811325	2.65743	0.854057	2.80543	0.96997	3.1857			0.767751	2.52103	0.864935	2.83312	0.987709	3.24272		
0.812814	2.65715	0.620324	2.0172	0.813669	2.657	0.856017	2.80329	0.971855	3.18215			0.769722	2.51979	0.867044	2.83139	0.989298	3.23803		
0.815156	2.65672	0.622326	2.01759	0.81601	2.65656	0.857981	2.80117	0.973742	3.17863			0.771693	2.51856	0.869154	2.82967	0.99089	3.23338		
0.817496	2.65628	0.624327	2.01799	0.818348	2.65611	0.859949	2.79908	0.975629	3.17514			0.773663	2.51734	0.871266	2.82796	0.992486	3.22877		
0.819832	2.65583	0.626327	2.01837	0.820683	2.65566	0.861922	2.79702	0.977518	3.17167			0.775632	2.51612	0.873378	2.82627	0.994084	3.2242		
0.822165	2.65537	0.628328	2.01876	0.823016	2.65521	0.863898	2.79498	0.979408	3.16823			0.777601	2.51491	0.875492	2.8246	0.995687	3.21967		
0.824496	2.65491	0.630328	2.01914	0.825345	2.65474	0.865879	2.79297	0.9813	3.16481			0.77957	2.5137	0.877607	2.82294	0.997292	3.21517		
0.826824	2.65444	0.632328	2.01952	0.827672	2.65427	0.867864	2.79099	0.983192	3.16141			0.781537	2.51249	0.879723	2.82129	0.998901	3.21071		
0.829148	2.65397	0.634328	2.0199	0.829995	2.65379	0.869853	2.78903	0.985086	3.15804			0.783505	2.5113	0.88184	2.81965	1.00051	3.20629		
0.831469	2.65348	0.636327	2.02027	0.832315	2.65331	0.871847	2.78709	0.98698	3.15469			0.785472	2.51011	0.883958	2.81803				
0.833787	2.65299	0.638327	2.02064	0.834632	2.65281	0.873845	2.78519	0.988876	3.15136			0.787438	2.50892	0.886078	2.81642				
0.836102	2.65249	0.640326	2.02101	0.836945	2.65231	0.875847	2.7833	0.990773	3.14806			0.789404	2.50774	0.888198	2.81482				
0.838413	2.65199	0.642324	2.02137	0.839255	2.6518	0.877855	2.78145	0.992671	3.14478			0.79137	2.50656	0.890319	2.81324				
0.840721	2.65147	0.644323	2.02174	0.841562	2.65128	0.879867	2.77962	0.99457	3.14153			0.793334	2.50539	0.892441	2.81167				
0.843025	2.65095	0.646321	2.02209	0.843865	2.65076	0.881883	2.77781	0.99647	3.13829			0.795299	2.50423	0.894565	2.81011				
0.845326	2.65042	0.648319	2.02245	0.846164	2.65023	0.883904	2.77603	0.998372	3.13508			0.797263	2.50307	0.896689	2.80856				
0.847623	2.64988	0.650317	2.0228	0.84846	2.64968	0.88593	2.77428	1.00027	3.13189			0.799227	2.50192	0.898814	2.80703				
0.849917	2.64934	0.652315	2.02315	0.850752	2.64913	0.887961	2.77255					0.80119	2.50077	0.90094	2.8055				
0.852206	2.64878	0.654312	2.0235	0.85304	2.64858	0.889997	2.77084					0.803153	2.49963	0.903066	2.80399				
0.854492	2.64822	0.656309	2.02385	0.855325	2.64801	0.892038	2.76916					0.805115	2.49849	0.905194	2.80249				
0.856774	2.64764	0.658306	2.02419	0.857605	2.64743	0.894084	2.76751					0.807077	2.49736	0.907322	2.801				
0.859052	2.64706	0.660302	2.02453	0.859882	2.64685	0.896134	2.76588					0.809039	2.49623	0.909451	2.79952				
0.861326	2.64647	0.662299	2.02486	0.862154	2.64625	0.89819	2.76428					0.811	2.49511	0.911581	2.79805				
0.863595	2.64587	0.664295	2.0252	0.864422	2.64565	0.900251	2.7627					0.812961	2.49399	0.913711	2.79659				
0.865861	2.64526	0.666291	2.02553	0.866687	2.64504	0.902317	2.76115					0.814921	2.49288	0.915842	2.79514				
0.868123	2.64464	0.668286	2.02586	0.868947	2.64441	0.904389	2.75962					0.816881	2.49178	0.917974	2.7937				
0.87038	2.64401	0.670282	2.02618	0.871202	2.64378	0.906466	2.75811					0.818841	2.49068	0.920106	2.79228				
0.872633	2.64338	0.672277	2.02651	0.873454	2.64314	0.908547	2.75663					0.8208	2.48958	0.922239	2.79086				
0.874882	2.64273	0.674272	2.02683	0.875701	2.64249	0.910635	2.75518					0.82276	2.48849	0.924373	2.78945				
0.877126	2.64207	0.676266	2.02715	0.877944	2.64183	0.912727	2.75375					0.824718	2.48741	0.926507	2.78805				
0.879366	2.64141	0.678261	2.02746	0.880182	2.64116	0.914825	2.75234					0.826677	2.48633	0.928642	2.78666				
0.881602	2.64073	0.680255	2.02778	0.882416	2.64048	0.916929	2.75096					0.828635	2.48525	0.930777	2.78528				
0.883833	2.64005	0.682249	2.02809	0.884645	2.6398	0.919038	2.7496					0.830593	2.48418	0.932912	2.78391				
0.886059	2.63935	0.684242	2.0284	0.88687	2.6391	0.921152	2.74826					0.83255	2.48312	0.935049	2.78255				
0.888281	2.63865	0.686236	2.0287	0.889091	2.63839	0.923272	2.74695					0.834507	2.48206	0.937185	2.7812				
0.890499	2.63794	0.688229	2.02901	0.891307	2.63767	0.925397	2.74566					0.836464	2.481	0.939322	2.77985				
0.892712	2.63721	0.690222	2.02931	0.893518	2.63695	0.927528	2.7444					0.838421	2.47995	0.941459	2.77852				
0.89492	2.63648	0.692215	2.02961	0.895725	2.63621	0.929664	2.74316					0.840377	2.47891	0.943597	2.77719				
0.897124	2.63574	0.694207	2.0299	0.897927	2.63547	0.931806	2.74194					0.842333	2.47787	0.945735	2.77587				
0.899324	2.63499	0.696199	2.0302	0.900125	2.63471	0.933953	2.74074					0.844289	2.47683	0.947873	2.77456				
0.901518	2.63423	0.698191	2.03049	0.902318	2.63395	0.936106	2.73957					0.846245	2.4758	0.950011	2.77325				
0.903708	2.63346	0.700183	2.03078	0.904506	2.63317	0.938264	2.73842					0.8482	2.47478	0.95215	2.77196				
0.905894	2.63268	0.702175	2.03107	0.90669	2.63239	0.940428	2.73729					0.850156	2.47376	0.954289	2.77067				
0.908075	2.63189	0.704166	2.03135	0.908869	2.6316	0.942597	2.73619					0.85211	2.47274	0.956428	2.76939				
0.910251	2.63109	0.706157	2.03164	0.911044	2.6308	0.944772	2.7351					0.854065	2.47173	0.958568	2.76812				
0.912423	2.63029	0.708148	2.03192	0.913214	2.62999	0.946952	2.73404					0.85602	2.47073	0.960707	2.76685				
0.914591	2.62947	0.710138	2.0322	0.91538	2.62917	0.949137	2.733					0.857974	2.46973	0.962847	2.76559				
0.916754	2.62865	0.712129	2.03247	0.917541	2.62835	0.951328	2.73197					0.859928	2.46873	0.964987	2.76434				
0.918912	2.62782	0.714119	2.03275	0.919698	2.62751	0.953524	2.73097					0.861882	2.46774	0.967126	2.76309				
0.921066	2.62698	0.716109	2.03302	0.921851	2.62667	0.955725	2.72999					0.863836	2.46675	0.969266	2.76186				
0.923216	2.62613	0.718098	2.03329	0.923999	2.62582	0.957932	2.72903					0.865789	2.46577	0.971406	2.76063				
0.925361	2.62528	0.720088	2.03356	0.926143	2.62496	0.960143	2.72809					0.867743	2.46479	0.973546	2.7594				
0.927503	2.62442	0.722077	2.03382	0.928282	2.6241	0.96236	2.72717					0.869696	2.46382	0.975686	2.75818				
0.929639	2.62355	0.724066	2.03409	0.930418	2.62323	0.964582	2.72627					0.871649	2.46285	0.977826	2.75697				
0.931772	2.62267	0.726055	2.03435	0.932549	2.62235	0.966808	2.72539					0.873602	2.46189	0.979966	2.75577				
0.933901	2.62178	0.728043	2.03461	0.934676	2.62146	0.96904	2.72452					0.875554	2.46093	0.982106	2.75457				
0.936025	2.62089	0.730031	2.03487	0.936799	2.62057	0.971277	2.72367					0.877507	2.45998	0.984246	2.75337				
0.938146	2.62	0.73202	2.03513	0.938918	2.61967	0.973518	2.72285					0.87946	2.45903	0.986385	2.75218				
0.940262	2.61909	0.734007	2.03538	0.941033	2.61876	0.975764	2.72203					0.881412	2.45808	0.988525	2.751				
0.942375	2.61818	0.735995	2.03563	0.943144	2.61785	0.978015	2.72124					0.883364	2.45714	0.990664	2.74983				
0.944484	2.61727	0.737982	2.03588	0.945252	2.61693	0.98027	2.72046					0.885316	2.45621	0.992803	2.74866				
0.946589	2.61634	0.739969	2.03613	0.947356	2.61601	0.98253	2.7197					0.887268	2.45528	0.994942	2.74749				
0.94869	2.61542	0.741956	2.03638	0.949456	2.61508	0.984794	2.71896					0.88922	2.45435	0.997081	2.74633				
0.950788	2.61448	0.743943	2.03662	0.951552	2.61414	0.987063	2.71823					0.891172	2.45343	0.99922	2.74518				
0.952882	2.61355	0.745929	2.03687	0.953645	2.6132	0.989335	2.71752					0.893123	2.45251	1.00136	2.74403				
0.954973	2.61261	0.747916	2.03711	0.955734	2.61226	0.991613	2.71682					0.895075	2.4516						
0.95706	2.61166	0.749902	2.03735	0.95782	2.61131	0.993894	2.71613					0.897026	2.45069						
0.959144	2.61071	0.751887	2.03758	0.959903	2.61036	0.996179	2.71547					0.898978	2.44978						
0.961224	2.60975	0.753873	2.03782	0.961982	2.6094	0.998468	2.71481					0.900929	2.44888						
0.963302	2.60879	0.755858	2.03805	0.964059	2.60844	1.00076	2.71417					0.90288	2.44799						
0.965376	2.60783	0.757843	2.03828	0.966132	2.60748							0.904831	2.4471						
0.967447	2.60687	0.759828	2.03851	0.968202	2.60651							0.906782	2.44621						
0.969516	2.6059	0.761813	2.03874	0.970269	2.60554							0.908733	2.44533						
0.971581	2.60492	0.763797	2.03897	0.972334	2.60457							0.910684	2.44445						
0.973643	2.60395	0.765781	2.03919	0.974395	2.60359							0.912635	2.44357						
0.975703	2.60297	0.767765	2.03942	0.976454	2.60261							0.914586	2.4427						
0.97776	2.60199	0.769749	2.03964	0.97851	2.60163							0.916537	2.44184						
0.979815	2.60101	0.771733	2.03986	0.980563	2.60065							0.918488	2.44098						
0.981867	2.60003	0.773716	2.04008	0.982614	2.59967							0.920439	2.44012						
0.983916	2.59904	0.775699	2.04029	0.984663	2.59868							0.922389	2.43926						
0.985963	2.59805	0.777682	2.04051	0.986709	2.59769							0.92434	2.43842						
0.988007	2.59707	0.779664	2.04072	0.988753	2.59671							0.926291	2.43757						
0.99005	2.59608	0.781647	2.04093	0.990794	2.59572							0.928241	2.43673						
0.99209	2.59509	0.783629	2.04114	0.992833	2.59472							0.930192	2.43589						
0.994128	2.59409	0.785611	2.04135	0.994871	2.59373							0.932143	2.43506						
0.996164	2.5931	0.787593	2.04156	0.996906	2.59274							0.934093	2.43423						
0.998197	2.59211	0.789574	2.04177	0.998939	2.59175							0.936044	2.4334						
1.00023	2.59112	0.791556	2.04197	1.00097	2.59076							0.937995	2.43258						
		0.793537	2.04217									0.939945	2.43177						
		0.795518	2.04237									0.941896	2.43095						
		0.797498	2.04257									0.943847	2.43015						
		0.799479	2.04277									0.945797	2.42934						
		0.801459	2.04297									0.947748	2.42854						
		0.803439	2.04316									0.949699	2.42774						
		0.805419	2.04335									0.95165	2.42695						
		0.807399	2.04355									0.9536	2.42616						
		0.809378	2.04374									0.955551	2.42537						
		0.811357	2.04393									0.957502	2.42459						
		0.813336	2.04411									0.959453	2.42381						
		0.815315	2.0443									0.961404	2.42304						
		0.817294	2.04448									0.963355	2.42227						
		0.819272	2.04467									0.965306	2.4215						
		0.82125	2.04485									0.967257	2.42074						
		0.823228	2.04503									0.969209	2.41998						
		0.825206	2.04521									0.97116	2.41922						
		0.827183	2.04539									0.973111	2.41847						
		0.829161	2.04556									0.975063	2.41772						
		0.831138	2.04574									0.977014	2.41698						
		0.833115	2.04591									0.978966	2.41623						
		0.835091	2.04609									0.980917	2.4155						
		0.837068	2.04626									0.982869	2.41476						
		0.839044	2.04643									0.984821	2.41403						
		0.84102	2.0466									0.986772	2.41331						
		0.842996	2.04677									0.988724	2.41258						
		0.844972	2.04693									0.990676	2.41186						
		0.846947	2.0471									0.992629	2.41115						
		0.848922	2.04726									0.994581	2.41043						
		0.850898	2.04742									0.996533	2.40972						
		0.852872	2.04759									0.998485	2.40902						
		0.854847	2.04775									1.00044	2.40831						
		0.856821	2.0479																
		0.858796	2.04806																
		0.86077	2.04822																
		0.862744	2.04838																
		0.864717	2.04853																
		0.866691	2.04868																
		0.868664	2.04884																
		0.870637	2.04899																
		0.87261	2.04914																
		0.874583	2.04929																
		0.876555	2.04943																
		0.878528	2.04958																
		0.8805	2.04972																
		0.882472	2.04987																
		0.884443	2.05001																
		0.886415	2.05015																
		0.888386	2.0503																
		0.890357	2.05044																
		0.892328	2.05058																
		0.894299	2.05071																
		0.896269	2.05085																
		0.89824	2.05099																
		0.90021	2.05112																
		0.90218	2.05126																
		0.90415	2.05139																
		0.906119	2.05152																
		0.908089	2.05165																
		0.910058	2.05178																
		0.912027	2.05191																
		0.913996	2.05204																
		0.915965	2.05217																
		0.917933	2.05229																
		0.919902	2.05242																
		0.92187	2.05254																
		0.923838	2.05267																
		0.925805	2.05279																
		0.927773	2.05291																
		0.92974	2.05303																
		0.931708	2.05315																
		0.933675	2.05327																
		0.935642	2.05339																
		0.937608	2.05351																
		0.939575	2.05362																
		0.941541	2.05374																
		0.943507	2.05385																
		0.945473	2.05397																
		0.947439	2.05408																
		0.949405	2.05419																
		0.95137	2.0543																
		0.953335	2.05441																
		0.955301	2.05452																
		0.957266	2.05463																
		0.95923	2.05474																
		0.961195	2.05485																
		0.963159	2.05496																
		0.965124	2.05506																
		0.967088	2.05517																
		0.969052	2.05527																
		0.971015	2.05537																
		0.972979	2.05548																
		0.974942	2.05558																
		0.976905	2.05568																
		0.978868	2.05578																
		0.980831	2.05588																
		0.982794	2.05598																
		0.984757	2.05608																
		0.986719	2.05617																
		0.988681	2.05627																
		0.990643	2.05637																
		0.992605	2.05646																
		0.994567	2.05656																
		0.996529	2.05665																
		0.99849	2.05674																
		1.00045	2.05684																
