Sym0		Asym0		Sym1		Sym2		Sym3		Sym4		Asym1		Asym2		Asym3		Asym4	
421  Points		526  Points		421  Points		403  Points		350  Points		250  Points		453  Points		398  Points		342  Points		206  Points	
Freq (MHz)	Vph (m/ms)	Freq (MHz)	Vph (m/ms)	Freq (MHz)	Vph (m/ms)	Freq (MHz)	Vph (m/ms)	Freq (MHz)	Vph (m/ms)	Freq (MHz)	Vph (m/ms)	Freq (MHz)	Vph (m/ms)	Freq (MHz)	Vph (m/ms)	Freq (MHz)	Vph (m/ms)	Freq (MHz)	Vph (m/ms)
0.27951	511.744	0.000223407	0.0923632	0.279514	304.477	0.450023	10185.1	0.559017	6336.09	0.838526	2085.79	0.139755	917.916	0.419268	462.315	0.698771	3403.95	0.900046	2190.31
0.279522	189.137	0.000428043	0.127755	0.27953	151.121	0.450029	461.152	0.559024	548.104	0.838532	628.719	0.1398	128.973	0.419286	228.048	0.698776	614.591	0.900051	670.371
0.279546	116.014	0.000697793	0.162953	0.279558	100.51	0.450045	235.925	0.559042	286.451	0.838543	370.151	0.139912	69.4129	0.419315	151.362	0.698786	337.795	0.900061	395.751
0.27958	83.6745	0.00103199	0.197932	0.279596	75.3	0.450073	158.517	0.559072	193.899	0.83856	262.287	0.14009	47.5311	0.419356	113.279	0.698803	232.906	0.900076	280.747
0.279625	65.4404	0.00142971	0.232641	0.279646	60.2063	0.450111	119.362	0.559113	146.556	0.838584	203.106	0.140335	36.1779	0.419409	90.5134	0.698826	177.725	0.900097	217.536
0.279681	53.7366	0.00188979	0.267023	0.279707	50.1582	0.45016	95.7246	0.559165	117.801	0.838613	165.718	0.140646	29.2359	0.419474	75.3722	0.698855	143.686	0.900123	177.56
0.279748	45.5886	0.00241112	0.301053	0.279778	42.9887	0.45022	79.9062	0.559229	98.4836	0.838648	139.957	0.141021	24.5578	0.41955	64.5754	0.69889	120.593	0.900154	149.998
0.279827	39.5903	0.0029923	0.334685	0.279861	37.6164	0.450291	68.5786	0.559304	84.6136	0.838689	121.13	0.141461	21.1954	0.419638	56.4884	0.698932	103.897	0.900191	129.845
0.279916	34.9906	0.00363191	0.367887	0.279955	33.4411	0.450372	60.0677	0.55939	74.1721	0.838736	106.769	0.141963	18.665	0.419738	50.2052	0.698979	91.2643	0.900232	114.468
0.280016	31.3517	0.00432847	0.400634	0.28006	30.1034	0.450464	53.4394	0.559488	66.0281	0.838788	95.4549	0.142526	16.6941	0.41985	45.1834	0.699033	81.3724	0.900279	102.349
0.280128	28.4015	0.00508023	0.432885	0.280175	27.3743	0.450567	48.1317	0.559598	59.4989	0.838847	86.3103	0.143149	15.1174	0.419974	41.0779	0.699093	73.4169	0.900331	92.5517
0.28025	25.9615	0.00588563	0.464627	0.280302	25.1017	0.450681	43.7859	0.559718	54.1477	0.838912	78.7661	0.143831	13.8287	0.420109	37.6593	0.699159	66.88	0.900389	84.4677
0.280384	23.9102	0.00674289	0.495832	0.28044	23.18	0.450805	40.1625	0.55985	49.6825	0.838982	72.4362	0.14457	12.757	0.420256	34.7686	0.699231	61.4135	0.900452	77.6837
0.280528	22.1617	0.00765037	0.526492	0.280589	21.534	0.45094	37.0954	0.559994	45.9001	0.839059	67.0493	0.145364	11.8526	0.420415	32.2926	0.699309	56.7745	0.90052	71.9095
0.280684	20.6538	0.00860616	0.556582	0.280749	20.1084	0.451086	34.4659	0.560148	42.6553	0.839141	62.4094	0.146211	11.08	0.420586	30.1482	0.699393	52.7883	0.900593	66.9354
0.28085	19.3401	0.00960848	0.586089	0.28092	18.862	0.451243	32.1865	0.560314	39.8413	0.839229	58.3712	0.146992	10.4935	0.420768	28.273	0.699484	49.3264	0.900671	62.606
0.281028	18.1856	0.0106557	0.615014	0.281101	17.763	0.45141	30.192	0.560491	37.3777	0.839323	54.825	0.147688	10.0468	0.420962	26.6196	0.699581	46.2918	0.900755	58.8035
0.281216	17.163	0.011746	0.643346	0.281294	16.7868	0.451588	28.4322	0.56068	35.203	0.839423	51.686	0.148284	9.70929	0.421168	25.1508	0.699683	43.61	0.900844	55.4374
0.281415	16.2511	0.0128775	0.671078	0.281498	15.9142	0.451777	26.868	0.56088	33.2694	0.839529	48.8879	0.148768	9.46065	0.421385	23.8375	0.699792	41.223	0.900938	52.4367
0.281625	15.4329	0.0140488	0.698214	0.281712	15.1294	0.451976	25.4686	0.561091	31.5389	0.839641	46.3782	0.14913	9.2872	0.421615	22.6564	0.699907	39.0846	0.901037	49.745
0.281847	14.6947	0.0152579	0.724748	0.281938	14.42	0.452186	24.2095	0.561313	29.9813	0.839759	44.1144	0.149366	9.18011	0.421855	21.5884	0.700029	37.1581	0.901142	47.3169
0.282079	14.0255	0.0165034	0.750686	0.282174	13.7756	0.452407	23.0705	0.561547	28.5719	0.839882	42.0622	0.149708	9.03124	0.422108	20.6183	0.700156	35.4135	0.901252	45.1156
0.282322	13.4161	0.0177836	0.77603	0.282422	13.1878	0.452638	22.0353	0.561791	27.2906	0.840012	40.1933	0.150086	8.87587	0.422371	19.7331	0.700289	33.8262	0.901367	43.1107
0.282575	12.8588	0.0190969	0.800784	0.28268	12.6496	0.45288	21.0905	0.562047	26.1208	0.840147	38.4841	0.150609	8.67465	0.422647	18.9223	0.700429	32.3759	0.901487	41.2771
0.28284	12.3474	0.0204421	0.824959	0.282949	12.1548	0.453133	20.2248	0.562314	25.0486	0.840288	36.9151	0.151285	8.43553	0.422934	18.177	0.700575	31.0456	0.901613	39.5937
0.283116	11.8764	0.0218174	0.848559	0.283229	11.6986	0.453396	19.4286	0.562592	24.0624	0.840435	35.4698	0.152125	8.16715	0.423233	17.4895	0.700727	29.8211	0.901744	38.043
0.283402	11.4412	0.0232218	0.871596	0.283519	11.2767	0.45367	18.694	0.562882	23.1521	0.840588	34.1341	0.153139	7.87817	0.423543	16.8534	0.700885	28.6903	0.90188	36.6097
0.283699	11.038	0.0246537	0.894075	0.283821	10.8853	0.453954	18.0141	0.563182	22.3096	0.840747	32.8959	0.154339	7.57679	0.423864	16.2633	0.701049	27.6427	0.902021	35.2811
0.284007	10.6635	0.0261119	0.916007	0.284133	10.5213	0.454249	17.3831	0.563494	21.5274	0.840912	31.7451	0.155579	7.30357	0.424197	15.7143	0.701219	26.6697	0.902168	34.0461
0.284326	10.3146	0.0275953	0.937405	0.284414	10.2243	0.454554	16.7959	0.563816	20.7994	0.841082	30.6727	0.156855	7.0549	0.424542	15.2024	0.701395	25.7634	0.902319	32.8953
0.284655	9.98894	0.0291025	0.958277	0.28466	9.98473	0.45487	16.2482	0.56415	20.1201	0.841259	29.671	0.158166	6.82776	0.424898	14.7239	0.701578	24.9174	0.902476	31.8202
0.284995	9.68425	0.0306327	0.978638	0.284867	9.79538	0.455196	15.7362	0.564494	19.485	0.841441	28.7333	0.159511	6.61958	0.425265	14.2757	0.701766	24.1258	0.902639	30.8137
0.285346	9.39862	0.0321846	0.998497	0.285035	9.65095	0.455533	15.2564	0.56485	18.8897	0.841629	27.8535	0.160888	6.42818	0.425644	13.8551	0.701961	23.3835	0.902806	29.8694
0.285708	9.13034	0.0337572	1.01786	0.285159	9.54759	0.45588	14.806	0.565216	18.3308	0.841823	27.0266	0.162296	6.25171	0.426034	13.4596	0.702161	22.6861	0.902979	28.9817
0.28608	8.8779	0.0353497	1.03676	0.285239	9.48267	0.456237	14.3825	0.565594	17.8051	0.842023	26.2479	0.163733	6.08856	0.426435	13.0871	0.702368	22.0296	0.903156	28.1458
0.286463	8.63997	0.036961	1.05518	0.285356	9.39097	0.456605	13.9833	0.565982	17.3096	0.842229	25.5133	0.165198	5.93735	0.426848	12.7356	0.702581	21.4106	0.90334	27.3571
0.286856	8.41536	0.0385903	1.07315	0.285484	9.29342	0.456984	13.6067	0.566381	16.8419	0.84244	24.8192	0.166691	5.79687	0.427272	12.4034	0.7028	20.826	0.903528	26.612
0.28726	8.203	0.0402368	1.09068	0.28566	9.16415	0.457372	13.2507	0.566791	16.3998	0.842658	24.1624	0.168209	5.66607	0.427707	12.0891	0.703025	20.2729	0.903721	25.9067
0.287675	8.00195	0.0418997	1.10778	0.285887	9.00607	0.457771	12.9137	0.567212	15.9811	0.842881	23.5399	0.169751	5.54404	0.428153	11.7912	0.703256	19.749	0.90392	25.2384
0.2881	7.81133	0.0435783	1.12446	0.286166	8.8225	0.45818	12.5942	0.567643	15.5842	0.84311	22.9492	0.171317	5.42995	0.428611	11.5085	0.703493	19.252	0.904124	24.604
0.288536	7.63039	0.0452718	1.14073	0.286501	8.61714	0.4586	12.291	0.568086	15.2073	0.843345	22.3878	0.172905	5.3231	0.429079	11.2399	0.703737	18.7798	0.904333	24.0012
0.288982	7.45842	0.0469795	1.15661	0.286896	8.39379	0.459029	12.0028	0.568539	14.8491	0.843585	21.8537	0.174515	5.22284	0.429559	10.9844	0.703986	18.3307	0.904547	23.4275
0.289438	7.2948	0.0487008	1.1721	0.287301	8.18259	0.459469	11.7285	0.569002	14.5082	0.843832	21.3449	0.176145	5.12862	0.430049	10.741	0.704241	17.903	0.904767	22.8811
0.289905	7.13893	0.0504351	1.18722	0.287716	7.98261	0.459919	11.4673	0.569476	14.1833	0.844084	20.8597	0.177794	5.03992	0.430551	10.509	0.704503	17.4953	0.904991	22.3599
0.290383	6.99031	0.0521818	1.20198	0.288143	7.79299	0.46038	11.2182	0.569961	13.8735	0.844342	20.3964	0.179462	4.95631	0.430997	10.3155	0.70477	17.1061	0.905221	21.8623
0.290871	6.84846	0.0539403	1.21638	0.288579	7.61296	0.46085	10.9803	0.570457	13.5776	0.844606	19.9537	0.181148	4.87737	0.431384	10.1565	0.705044	16.7343	0.905456	21.3868
0.291369	6.71293	0.0557102	1.23044	0.289027	7.44185	0.46133	10.7531	0.570963	13.2948	0.844876	19.5302	0.182851	4.80274	0.431709	10.029	0.705323	16.3788	0.905696	20.9318
0.291878	6.58333	0.0574909	1.24416	0.289484	7.27902	0.461821	10.5357	0.571479	13.0243	0.845151	19.1247	0.18457	4.73209	0.431968	9.93061	0.705609	16.0384	0.905942	20.4962
0.292397	6.4593	0.059282	1.25757	0.289952	7.12389	0.462256	10.3539	0.572006	12.7653	0.845433	18.736	0.186305	4.66513	0.432161	9.85961	0.7059	15.7123	0.906192	20.0786
0.292926	6.34049	0.0610829	1.27066	0.290431	6.97596	0.462634	10.2041	0.572543	12.517	0.84572	18.3632	0.188054	4.60159	0.432285	9.81475	0.706198	15.3996	0.906448	19.678
0.293465	6.22659	0.0628934	1.28345	0.29092	6.83475	0.46295	10.0838	0.573091	12.2789	0.846012	18.0053	0.189818	4.54122	0.432464	9.75105	0.706501	15.0994	0.906709	19.2935
0.294015	6.11733	0.0647128	1.29593	0.291419	6.69983	0.463202	9.99083	0.573649	12.0503	0.846311	17.6615	0.191596	4.4838	0.43266	9.68282	0.706811	14.8111	0.906975	18.924
0.294575	6.01243	0.066541	1.30814	0.291929	6.5708	0.46339	9.92365	0.574217	11.8307	0.846615	17.3309	0.193386	4.42913	0.432928	9.59169	0.707127	14.534	0.907246	18.5686
0.295145	5.91164	0.0683775	1.32006	0.292449	6.4473	0.46351	9.88117	0.574796	11.6195	0.846925	17.0127	0.19519	4.37703	0.433272	9.47911	0.707448	14.2673	0.907523	18.2267
0.295725	5.81475	0.0702219	1.33172	0.292979	6.32899	0.463684	9.82079	0.575384	11.4164	0.847241	16.7064	0.197005	4.32732	0.433693	9.34678	0.707776	14.0107	0.907804	17.8975
0.296316	5.72155	0.072074	1.34311	0.293519	6.21557	0.463875	9.75607	0.575983	11.2209	0.847563	16.4112	0.198831	4.27985	0.434194	9.19667	0.708109	13.7635	0.908091	17.5802
0.296916	5.63182	0.0739333	1.35425	0.29407	6.10674	0.464136	9.66953	0.576592	11.0325	0.84789	16.1267	0.200669	4.23449	0.43478	9.03085	0.708449	13.5251	0.908383	17.2743
0.297527	5.5454	0.0757996	1.36513	0.294631	6.00226	0.46447	9.56246	0.577212	10.8509	0.848223	15.8521	0.202517	4.19109	0.435376	8.87154	0.708794	13.2952	0.90868	16.9791
0.298147	5.46212	0.0776726	1.37578	0.295202	5.90187	0.464878	9.43641	0.577841	10.6757	0.848562	15.587	0.204375	4.14953	0.435982	8.71839	0.709146	13.0734	0.908982	16.6941
0.298778	5.38181	0.0795521	1.3862	0.295783	5.80536	0.465364	9.29311	0.578397	10.5281	0.848907	15.331	0.206243	4.10972	0.4366	8.57104	0.709503	12.8591	0.909289	16.4188
0.299418	5.30433	0.0814377	1.39638	0.296375	5.7125	0.465931	9.13448	0.578878	10.4058	0.849257	15.0835	0.208121	4.07154	0.437228	8.4292	0.709867	12.652	0.909602	16.1527
0.300069	5.22954	0.0833293	1.40635	0.296976	5.62312	0.466507	8.98173	0.579279	10.3069	0.849613	14.8442	0.210007	4.0349	0.437866	8.29255	0.710236	12.4518	0.909919	15.8954
0.300729	5.15731	0.0852265	1.4161	0.297588	5.53702	0.467094	8.83454	0.579599	10.2302	0.849974	14.6126	0.211902	3.99971	0.438515	8.16085	0.710611	12.2582	0.910242	15.6463
0.3014	5.08752	0.0871292	1.42565	0.298209	5.45403	0.46769	8.69263	0.579836	10.1747	0.850342	14.3885	0.213805	3.96589	0.439174	8.03382	0.710993	12.0708	0.91057	15.4053
0.30208	5.02006	0.0890371	1.43499	0.298841	5.37401	0.468295	8.55574	0.579988	10.1395	0.850715	14.1714	0.215717	3.93337	0.439844	7.91123	0.71138	11.8893	0.910903	15.1718
0.30277	4.95481	0.09095	1.44413	0.299482	5.2968	0.468911	8.42359	0.580208	10.0893	0.851093	13.961	0.217636	3.90207	0.440524	7.79287	0.711773	11.7134	0.911241	14.9455
0.303471	4.89168	0.0928678	1.45309	0.300134	5.22227	0.469536	8.29597	0.580448	10.0354	0.851478	13.7571	0.219562	3.87192	0.441214	7.67853	0.712172	11.543	0.911584	14.7261
0.30418	4.83058	0.0947902	1.46186	0.300795	5.15029	0.47017	8.17264	0.580776	9.96313	0.851868	13.5593	0.221495	3.84288	0.441915	7.56802	0.712577	11.3778	0.911932	14.5132
0.304807	4.77891	0.096717	1.47044	0.301467	5.08073	0.470814	8.05341	0.581195	9.87337	0.852264	13.3673	0.223435	3.81487	0.442626	7.46115	0.712987	11.2175	0.912286	14.3067
0.305347	4.73599	0.0986481	1.47886	0.302148	5.01349	0.471468	7.93808	0.581706	9.76722	0.852665	13.181	0.225382	3.78786	0.443347	7.35775	0.713404	11.0619	0.912644	14.1062
0.305798	4.70125	0.100583	1.4871	0.302839	4.94846	0.472131	7.82647	0.582313	9.64591	0.853072	13	0.227335	3.76178	0.444079	7.25766	0.713826	10.9108	0.913008	13.9115
0.306157	4.67424	0.102523	1.49517	0.30354	4.88554	0.472803	7.71841	0.583018	9.5108	0.853485	12.8243	0.229294	3.73659	0.44482	7.16074	0.714199	10.7827	0.913376	13.7223
0.306422	4.65465	0.104466	1.50308	0.304251	4.82463	0.473485	7.61373	0.583733	9.3799	0.853903	12.6534	0.23126	3.71225	0.445572	7.06685	0.714521	10.676	0.91375	13.5384
0.306592	4.64222	0.106412	1.51084	0.304972	4.76565	0.474176	7.5123	0.584457	9.25301	0.854327	12.4873	0.23323	3.68872	0.446333	6.97585	0.714789	10.5894	0.914129	13.3596
0.306838	4.62451	0.108362	1.51844	0.305702	4.70851	0.474876	7.41396	0.585191	9.12996	0.854756	12.3257	0.235206	3.66595	0.447104	6.88761	0.715003	10.522	0.914513	13.1857
0.307107	4.60546	0.110316	1.52589	0.306443	4.65314	0.475586	7.31858	0.585935	9.01058	0.855191	12.1685	0.237188	3.64392	0.447886	6.80202	0.715161	10.4731	0.914902	13.0165
0.307474	4.57989	0.112273	1.5332	0.307193	4.59946	0.476304	7.22604	0.586688	8.89472	0.855632	12.0155	0.239175	3.62259	0.448677	6.71896	0.715262	10.442	0.915296	12.8517
0.307942	4.54808	0.114233	1.54037	0.307952	4.5474	0.477032	7.13621	0.58745	8.78223	0.856078	11.8665	0.241166	3.60192	0.449478	6.63834	0.715409	10.3977	0.915695	12.6913
0.308512	4.5104	0.115943	1.5465	0.308722	4.49689	0.47777	7.04899	0.588222	8.67297	0.85653	11.7214	0.243162	3.58189	0.450289	6.56005	0.715569	10.35	0.916099	12.535
0.309189	4.46726	0.117403	1.55165	0.309501	4.44787	0.478516	6.96427	0.589003	8.5668	0.856988	11.58	0.245163	3.56247	0.451109	6.48399	0.715787	10.2858	0.916508	12.3828
0.309973	4.41911	0.118611	1.55585	0.310289	4.40029	0.479271	6.88194	0.589794	8.46361	0.857451	11.4422	0.247168	3.54364	0.45194	6.41008	0.716066	10.2059	0.916922	12.2343
0.310768	4.37236	0.119567	1.55914	0.311088	4.35408	0.480035	6.80192	0.590593	8.36327	0.857919	11.3079	0.249178	3.52536	0.45278	6.33824	0.716406	10.111	0.917341	12.0897
0.311572	4.32696	0.120271	1.56154	0.311896	4.3092	0.480808	6.7241	0.591402	8.26567	0.858393	11.1769	0.251191	3.50761	0.453629	6.26837	0.716809	10.002	0.917765	11.9485
0.312386	4.28284	0.120721	1.56306	0.312713	4.26559	0.48159	6.64841	0.59222	8.1707	0.858811	11.0653	0.253209	3.49037	0.454488	6.20042	0.717276	9.88011	0.918195	11.8109
0.313209	4.23997	0.121369	1.56524	0.31354	4.2232	0.482381	6.57477	0.593047	8.07827	0.859171	10.9721	0.25523	3.47362	0.455357	6.13429	0.717749	9.76136	0.918629	11.6765
0.314042	4.1983	0.122073	1.5676	0.314377	4.18199	0.483181	6.50309	0.593883	7.98828	0.85947	10.8963	0.257255	3.45735	0.456235	6.06994	0.718228	9.64565	0.919068	11.5454
0.314885	4.15777	0.123032	1.57078	0.315224	4.14191	0.48399	6.4333	0.594729	7.90064	0.859708	10.8371	0.259284	3.44152	0.457122	6.00728	0.718713	9.53289	0.919512	11.4173
0.315737	4.11836	0.124245	1.57476	0.31608	4.10293	0.484807	6.36533	0.595583	7.81526	0.859884	10.7941	0.261316	3.42612	0.458019	5.94626	0.719204	9.42295	0.919962	11.2923
0.316599	4.08002	0.125713	1.57951	0.316945	4.06501	0.485633	6.29912	0.596446	7.73205	0.859997	10.7667	0.263352	3.41114	0.458925	5.88682	0.719701	9.31573	0.920357	11.1856
0.31747	4.04271	0.127437	1.585	0.31782	4.0281	0.486468	6.23461	0.597318	7.65094	0.86016	10.7276	0.265391	3.39656	0.45984	5.82889	0.720203	9.21115	0.920697	11.0964
0.318351	4.00639	0.129417	1.5912	0.318705	3.99217	0.487311	6.17172	0.598198	7.57186	0.860338	10.6855	0.267432	3.38236	0.460765	5.77244	0.720711	9.10911	0.920981	11.0238
0.319241	3.97103	0.1314	1.59728	0.319599	3.95719	0.488163	6.11041	0.599088	7.49473	0.860581	10.6288	0.269477	3.36853	0.461698	5.7174	0.721225	9.00951	0.921206	10.9671
0.320141	3.93661	0.133385	1.60325	0.320503	3.92312	0.489024	6.05061	0.599986	7.41949	0.86089	10.558	0.271525	3.35506	0.462641	5.66373	0.721744	8.91227	0.921373	10.9258
0.321051	3.90308	0.135372	1.60911	0.321416	3.88994	0.489893	5.99229	0.600893	7.34607	0.861267	10.4737	0.273576	3.34192	0.463593	5.61138	0.72227	8.81731	0.92148	10.8995
0.32197	3.87041	0.137361	1.61487	0.322339	3.85761	0.49077	5.93538	0.601808	7.2744	0.861713	10.3767	0.27563	3.32912	0.464554	5.56031	0.722801	8.72456	0.921634	10.862
0.322899	3.83858	0.139352	1.62053	0.323272	3.82611	0.491656	5.87984	0.602732	7.20443	0.862229	10.2677	0.277686	3.31663	0.465524	5.51046	0.723337	8.63394	0.921802	10.8216
0.323837	3.80756	0.141345	1.62608	0.324214	3.79541	0.49255	5.82562	0.603664	7.13611	0.862751	10.1612	0.279745	3.30445	0.466502	5.46181	0.72388	8.54538	0.922032	10.7671
0.324785	3.77733	0.14334	1.63154	0.325166	3.76548	0.493452	5.77268	0.604605	7.06937	0.863279	10.057	0.281806	3.29256	0.46749	5.41432	0.724428	8.45882	0.922324	10.699
0.325742	3.74785	0.145336	1.63691	0.326127	3.7363	0.494363	5.72098	0.605555	7.00417	0.863812	9.95517	0.283869	3.28095	0.468487	5.36793	0.724981	8.37418	0.92268	10.6179
0.326709	3.71912	0.147334	1.64218	0.327098	3.70784	0.495282	5.67047	0.606512	6.94045	0.86435	9.85556	0.285935	3.26962	0.469492	5.32263	0.725541	8.29141	0.9231	10.5244
0.327686	3.69109	0.149334	1.64736	0.328079	3.68009	0.496209	5.62112	0.607478	6.87817	0.864894	9.75809	0.288004	3.25856	0.470506	5.27837	0.726106	8.21045	0.923588	10.4193
0.328673	3.66375	0.151335	1.65245	0.329069	3.65303	0.497144	5.5729	0.608452	6.81728	0.865444	9.66272	0.290074	3.24775	0.471528	5.23513	0.726677	8.13124	0.924081	10.3164
0.329669	3.63708	0.153338	1.65746	0.330069	3.62662	0.498087	5.52576	0.609435	6.75774	0.865998	9.56937	0.292147	3.23718	0.47256	5.19286	0.727253	8.05373	0.924578	10.2157
0.330675	3.61106	0.155342	1.66238	0.331079	3.60085	0.499038	5.47968	0.610425	6.69951	0.866558	9.47798	0.294221	3.22686	0.4736	5.15155	0.727835	7.97786	0.92508	10.1171
0.33169	3.58567	0.157347	1.66722	0.332098	3.57571	0.499998	5.43461	0.611424	6.64255	0.867124	9.38849	0.296298	3.21676	0.474648	5.11115	0.728423	7.90359	0.925588	10.0205
0.332716	3.56089	0.159354	1.67198	0.333128	3.55117	0.500965	5.39054	0.61243	6.58682	0.867695	9.30085	0.298376	3.20689	0.475705	5.07165	0.729016	7.83086	0.9261	9.92595
0.333751	3.5367	0.161362	1.67666	0.334167	3.52721	0.50194	5.34742	0.613445	6.53227	0.868271	9.215	0.300456	3.19723	0.47677	5.03301	0.729615	7.75964	0.926617	9.8333
0.334796	3.51309	0.163372	1.68126	0.335216	3.50383	0.502923	5.30523	0.614468	6.47888	0.868853	9.13088	0.302539	3.18778	0.477844	4.99522	0.73022	7.68987	0.927139	9.74251
0.335852	3.49005	0.165382	1.68579	0.336275	3.481	0.503914	5.26395	0.615498	6.42661	0.86944	9.04846	0.304622	3.17854	0.478926	4.95824	0.73083	7.62152	0.927666	9.65354
0.336917	3.46754	0.167394	1.69024	0.337345	3.45871	0.504912	5.22354	0.616536	6.37544	0.870032	8.96767	0.306708	3.16949	0.480017	4.92205	0.731446	7.55454	0.928198	9.56632
0.337992	3.44557	0.169407	1.69463	0.338424	3.43694	0.505919	5.18398	0.617583	6.32531	0.87063	8.88847	0.308795	3.16062	0.481115	4.88664	0.732067	7.48889	0.928735	9.48081
0.339077	3.42411	0.171421	1.69894	0.339513	3.41569	0.506932	5.14525	0.618636	6.27622	0.871233	8.81082	0.310884	3.15194	0.482222	4.85196	0.732694	7.42454	0.929276	9.39697
0.340173	3.40316	0.173436	1.70318	0.340613	3.39493	0.507954	5.10732	0.619698	6.22812	0.871842	8.73467	0.312974	3.14344	0.483337	4.81802	0.733326	7.36144	0.929823	9.31474
0.341279	3.38269	0.175452	1.70736	0.341723	3.37465	0.508983	5.07017	0.620767	6.18098	0.872455	8.65999	0.315066	3.13511	0.48446	4.78477	0.733964	7.29958	0.930374	9.23407
0.342395	3.3627	0.177469	1.71147	0.342843	3.35485	0.51002	5.03378	0.621844	6.13479	0.873074	8.58672	0.317159	3.12695	0.485592	4.75222	0.734607	7.2389	0.93093	9.15494
0.343521	3.34317	0.179487	1.71551	0.343974	3.33551	0.511064	4.99812	0.622928	6.08952	0.873699	8.51484	0.319253	3.11895	0.486731	4.72033	0.735256	7.17938	0.931491	9.07728
0.344659	3.3241	0.181506	1.7195	0.345115	3.31661	0.512115	4.96318	0.62402	6.04513	0.874328	8.4443	0.321349	3.11111	0.487878	4.68908	0.735911	7.12099	0.932057	9.00108
0.345806	3.30547	0.183525	1.72342	0.346268	3.29815	0.513174	4.92894	0.62512	6.00161	0.874963	8.37507	0.323446	3.10341	0.489034	4.65847	0.736571	7.06369	0.932628	8.92627
0.346965	3.28727	0.185546	1.72728	0.34743	3.28012	0.514241	4.89538	0.626226	5.95894	0.875603	8.30711	0.325544	3.09587	0.490197	4.62847	0.737236	7.00746	0.933204	8.85284
0.348135	3.26949	0.187567	1.73108	0.348604	3.26251	0.515314	4.86247	0.62734	5.91708	0.876249	8.2404	0.327644	3.08847	0.491368	4.59907	0.737907	6.95227	0.933784	8.78074
0.349315	3.25212	0.189589	1.73482	0.349789	3.2453	0.516395	4.8302	0.628462	5.87602	0.876899	8.17489	0.329744	3.08121	0.492546	4.57025	0.738583	6.89809	0.934369	8.70993
0.350507	3.23515	0.191612	1.73851	0.350985	3.22849	0.517483	4.79856	0.62959	5.83573	0.877555	8.11056	0.331846	3.07409	0.493733	4.54199	0.739265	6.8449	0.934959	8.64039
0.35171	3.21857	0.193635	1.74214	0.352193	3.21207	0.518578	4.76753	0.630726	5.79621	0.878216	8.04737	0.333948	3.06709	0.494927	4.51429	0.739952	6.79266	0.935554	8.57208
0.352924	3.20238	0.195659	1.74572	0.353412	3.19603	0.519681	4.73709	0.631869	5.75741	0.878882	7.9853	0.336052	3.06023	0.496129	4.48712	0.740645	6.74136	0.936154	8.50497
0.35415	3.18657	0.197684	1.74924	0.354643	3.18036	0.52079	4.70722	0.633019	5.71934	0.879554	7.92432	0.338157	3.05349	0.497338	4.46047	0.741343	6.69098	0.936758	8.43903
0.355388	3.17112	0.199709	1.75271	0.355885	3.16506	0.521906	4.67792	0.634176	5.68196	0.880231	7.8644	0.340262	3.04687	0.498555	4.43433	0.742047	6.64148	0.937367	8.37422
0.356638	3.15604	0.201735	1.75613	0.35714	3.15012	0.52303	4.64916	0.63534	5.64527	0.880912	7.80552	0.342369	3.04036	0.49978	4.40869	0.742756	6.59285	0.937981	8.31054
0.3579	3.1413	0.203761	1.75951	0.358407	3.13552	0.52416	4.62094	0.636511	5.60924	0.881599	7.74765	0.344476	3.03397	0.501012	4.38353	0.74347	6.54506	0.9386	8.24793
0.359174	3.12692	0.205788	1.76283	0.359686	3.12127	0.525297	4.59324	0.637689	5.57385	0.882292	7.69076	0.346584	3.02769	0.502251	4.35884	0.74419	6.4981	0.939223	8.18639
0.360461	3.11287	0.207816	1.7661	0.360978	3.10736	0.526442	4.56605	0.638874	5.5391	0.882989	7.63483	0.348693	3.02153	0.503498	4.33461	0.744915	6.45194	0.939851	8.12587
0.361761	3.09916	0.209844	1.76932	0.362283	3.09378	0.527592	4.53935	0.640065	5.50496	0.883691	7.57984	0.350802	3.01546	0.504753	4.31084	0.745645	6.40657	0.940484	8.06637
0.363073	3.08578	0.211872	1.7725	0.363601	3.08053	0.52875	4.51313	0.641264	5.47143	0.884399	7.52577	0.352913	3.0095	0.506014	4.28749	0.746381	6.36196	0.941122	8.00785
0.364399	3.07272	0.213901	1.77564	0.364932	3.06759	0.529914	4.48738	0.642469	5.43848	0.885112	7.47259	0.355024	3.00364	0.507283	4.26458	0.747122	6.3181	0.941764	7.95028
0.365739	3.05997	0.215931	1.77873	0.366277	3.05497	0.531086	4.46209	0.643681	5.4061	0.885829	7.42028	0.357135	2.99787	0.508559	4.24208	0.747868	6.27497	0.942411	7.89366
0.367092	3.04754	0.217961	1.78177	0.367636	3.04266	0.532263	4.43725	0.644899	5.37428	0.886552	7.36883	0.359248	2.9922	0.509842	4.21999	0.74862	6.23256	0.943063	7.83795
0.368459	3.03541	0.219991	1.78478	0.369009	3.03066	0.533447	4.41285	0.646124	5.343	0.88728	7.31821	0.361361	2.98662	0.511133	4.19829	0.749377	6.19084	0.943719	7.78314
0.369841	3.02359	0.222021	1.78774	0.370397	3.01895	0.534638	4.38887	0.647355	5.31225	0.888013	7.2684	0.363474	2.98113	0.51243	4.17699	0.750139	6.1498	0.944381	7.7292
0.371238	3.01206	0.224052	1.79066	0.371799	3.00754	0.535835	4.36531	0.648593	5.28203	0.888751	7.21938	0.365588	2.97573	0.513735	4.15606	0.750907	6.10943	0.945046	7.67612
0.372649	3.00083	0.226084	1.79354	0.373217	2.99642	0.537039	4.34216	0.649838	5.25231	0.889494	7.17115	0.367702	2.97041	0.515046	4.1355	0.75168	6.0697	0.945717	7.62387
0.374076	2.98988	0.228115	1.79638	0.374649	2.9856	0.538249	4.31941	0.651089	5.22309	0.890243	7.12367	0.369817	2.96518	0.516365	4.1153	0.752458	6.03062	0.946392	7.57244
0.375518	2.97922	0.230147	1.79918	0.376098	2.97505	0.539466	4.29704	0.652346	5.19435	0.890996	7.07694	0.371932	2.96003	0.517691	4.09545	0.753241	5.99215	0.947072	7.5218
0.376976	2.96885	0.23218	1.80194	0.377562	2.96478	0.540688	4.27505	0.653609	5.16608	0.891754	7.03093	0.374048	2.95495	0.519023	4.07595	0.754029	5.95429	0.947756	7.47195
0.37845	2.95875	0.234212	1.80466	0.379043	2.9548	0.541917	4.25344	0.654879	5.13828	0.892517	6.98563	0.376164	2.94996	0.520362	4.05679	0.754823	5.91703	0.948445	7.42286
0.379941	2.94893	0.236245	1.80735	0.380541	2.94508	0.543153	4.23219	0.656155	5.11093	0.893285	6.94103	0.37828	2.94504	0.521708	4.03795	0.755622	5.88034	0.949139	7.37451
0.381449	2.93937	0.238278	1.81	0.382056	2.93564	0.544394	4.21129	0.657437	5.08402	0.894058	6.8971	0.380397	2.94019	0.523061	4.01944	0.756426	5.84423	0.949837	7.3269
0.382974	2.93009	0.240311	1.81262	0.383588	2.92646	0.545642	4.19073	0.658725	5.05754	0.894837	6.85384	0.382514	2.93541	0.524421	4.00124	0.757236	5.80867	0.95054	7.28
0.384517	2.92107	0.242345	1.8152	0.385137	2.91754	0.546895	4.17052	0.660019	5.03149	0.89562	6.81124	0.384631	2.93071	0.525788	3.98335	0.75805	5.77365	0.951247	7.2338
0.386077	2.91231	0.244378	1.81775	0.386705	2.90889	0.548155	4.15063	0.661319	5.00585	0.896408	6.76927	0.386748	2.92607	0.527161	3.96576	0.75887	5.73917	0.951959	7.18828
0.387656	2.90381	0.246412	1.82026	0.388291	2.90049	0.549421	4.13108	0.662626	4.98061	0.897201	6.72792	0.388866	2.9215	0.52854	3.94846	0.759694	5.7052	0.952676	7.14344
0.389253	2.89556	0.248446	1.82275	0.389895	2.89234	0.550693	4.11183	0.663938	4.95576	0.897999	6.68718	0.390984	2.91699	0.529927	3.93146	0.760524	5.67175	0.953397	7.09925
0.390869	2.88757	0.25048	1.82519	0.391519	2.88445	0.55197	4.0929	0.665256	4.93131	0.898801	6.64704	0.393102	2.91254	0.531319	3.91473	0.761359	5.6388	0.954123	7.0557
0.392503	2.87983	0.252515	1.82761	0.393161	2.8768	0.553254	4.07427	0.66658	4.90723	0.899609	6.60749	0.39522	2.90816	0.532719	3.89828	0.7622	5.60634	0.954853	7.01279
0.394157	2.87233	0.254549	1.82999	0.394823	2.8694	0.554543	4.05594	0.667909	4.88352	0.900422	6.5685	0.397338	2.90384	0.534125	3.8821	0.763045	5.57435	0.955588	6.97049
0.395831	2.86507	0.256584	1.83235	0.396504	2.86224	0.555838	4.03789	0.669245	4.86018	0.901239	6.53009	0.399456	2.89958	0.535537	3.86618	0.763895	5.54284	0.956327	6.92879
0.397524	2.85805	0.258619	1.83467	0.398205	2.85531	0.557139	4.02013	0.670586	4.83719	0.902061	6.49222	0.401575	2.89537	0.536956	3.85053	0.764751	5.51178	0.957071	6.88769
0.399237	2.85126	0.260654	1.83697	0.399926	2.84862	0.558446	4.00265	0.671933	4.81455	0.902889	6.45489	0.403693	2.89122	0.538381	3.83512	0.765611	5.48118	0.95782	6.84716
0.400969	2.84471	0.262689	1.83923	0.401667	2.84216	0.559758	3.98545	0.673285	4.79225	0.903721	6.41808	0.405811	2.88713	0.539812	3.81997	0.766477	5.45102	0.958573	6.8072
0.402722	2.83838	0.264724	1.84147	0.403427	2.83592	0.561076	3.9685	0.674644	4.77028	0.904557	6.3818	0.40793	2.88309	0.54125	3.80505	0.767347	5.42128	0.95933	6.7678
0.404495	2.83228	0.266759	1.84368	0.405208	2.8299	0.5624	3.95182	0.676007	4.74864	0.905399	6.34602	0.410048	2.8791	0.542694	3.79038	0.768223	5.39198	0.960092	6.72895
0.406288	2.82639	0.268794	1.84586	0.407009	2.8241	0.563729	3.9354	0.677376	4.72732	0.906246	6.31075	0.412166	2.87517	0.544144	3.77594	0.769103	5.36309	0.960858	6.69063
0.4081	2.82072	0.27083	1.84801	0.408829	2.81852	0.565064	3.91923	0.678751	4.70631	0.907097	6.27596	0.414284	2.87128	0.545601	3.76172	0.769989	5.33461	0.961629	6.65284
0.409933	2.81526	0.272865	1.85014	0.41067	2.81313	0.566404	3.9033	0.680131	4.68561	0.907953	6.24164	0.416402	2.86745	0.547063	3.74773	0.770879	5.30652	0.962404	6.61556
0.411785	2.81	0.274901	1.85224	0.41253	2.80796	0.56775	3.88761	0.681517	4.66521	0.908814	6.2078	0.41852	2.86366	0.548532	3.73396	0.771775	5.27883	0.963184	6.57879
0.413657	2.80494	0.276936	1.85431	0.41441	2.80298	0.569101	3.87216	0.682907	4.64511	0.909679	6.17442	0.420638	2.85992	0.550007	3.72041	0.772676	5.25152	0.963968	6.54251
0.415549	2.80008	0.278972	1.85636	0.416309	2.79819	0.570457	3.85694	0.684304	4.62529	0.910549	6.14149	0.422756	2.85622	0.551488	3.70706	0.773581	5.22459	0.964757	6.50671
0.417459	2.7954	0.281007	1.85838	0.418227	2.79359	0.571819	3.84194	0.685705	4.60576	0.911425	6.109	0.424873	2.85257	0.552975	3.69392	0.774492	5.19804	0.965549	6.4714
0.419388	2.79091	0.283043	1.86038	0.420164	2.78916	0.573186	3.82717	0.687112	4.5865	0.912304	6.07695	0.42699	2.84896	0.554468	3.68098	0.775407	5.17184	0.966347	6.43655
0.421336	2.78659	0.285078	1.86236	0.422119	2.78492	0.574558	3.81261	0.688523	4.56752	0.913189	6.04532	0.429107	2.8454	0.555967	3.66825	0.776327	5.146	0.967149	6.40216
0.423303	2.78245	0.287114	1.86431	0.424092	2.78084	0.575936	3.79827	0.68994	4.54881	0.914078	6.01411	0.431224	2.84188	0.557471	3.6557	0.777252	5.12051	0.967955	6.36822
0.425287	2.77848	0.289149	1.86623	0.426083	2.77694	0.577318	3.78414	0.691362	4.53035	0.914972	5.98332	0.43334	2.8384	0.558982	3.64335	0.778182	5.09536	0.968765	6.33472
0.427288	2.77466	0.291185	1.86814	0.428091	2.77318	0.578706	3.77021	0.692789	4.51216	0.91587	5.95292	0.435456	2.83496	0.560499	3.63118	0.779117	5.07055	0.96958	6.30166
0.429306	2.771	0.29322	1.87002	0.430116	2.76959	0.580099	3.75648	0.694222	4.49421	0.916773	5.92293	0.437572	2.83156	0.562021	3.6192	0.780057	5.04607	0.970399	6.26902
0.431341	2.7675	0.295256	1.87188	0.432158	2.76614	0.581497	3.74295	0.695659	4.47652	0.917681	5.89332	0.439688	2.82819	0.563549	3.6074	0.781002	5.02191	0.971223	6.2368
0.433392	2.76413	0.297291	1.87371	0.434215	2.76283	0.5829	3.72962	0.697101	4.45906	0.918594	5.86409	0.441803	2.82487	0.565083	3.59577	0.781951	4.99807	0.972051	6.205
0.435459	2.76091	0.299327	1.87553	0.436288	2.75966	0.584308	3.71647	0.698548	4.44185	0.919511	5.83524	0.443917	2.82158	0.566623	3.58432	0.782906	4.97455	0.972883	6.17359
0.43754	2.75781	0.301362	1.87732	0.438375	2.75661	0.585721	3.70351	0.7	4.42486	0.920433	5.80676	0.446032	2.81833	0.568169	3.57304	0.783865	4.95133	0.97372	6.14258
0.439637	2.75485	0.303397	1.8791	0.440477	2.7537	0.587138	3.69073	0.701456	4.40811	0.921359	5.77863	0.448146	2.81512	0.56972	3.56192	0.784829	4.92842	0.974561	6.11197
0.441747	2.752	0.305432	1.88085	0.442593	2.7509	0.588561	3.67813	0.702918	4.39158	0.92229	5.75087	0.450259	2.81193	0.571277	3.55097	0.785798	4.9058	0.975406	6.08173
0.443871	2.74928	0.307468	1.88258	0.444722	2.74822	0.589989	3.66571	0.704384	4.37527	0.923225	5.72345	0.452372	2.80879	0.572839	3.54018	0.786771	4.88347	0.976255	6.05187
0.446008	2.74667	0.309503	1.88429	0.446864	2.74565	0.591421	3.65346	0.705855	4.35918	0.924165	5.69638	0.454485	2.80567	0.574407	3.52955	0.78775	4.86143	0.977109	6.02238
0.448158	2.74416	0.311538	1.88598	0.449019	2.74319	0.592858	3.64138	0.707331	4.34331	0.92511	5.66964	0.456597	2.80259	0.575981	3.51907	0.788733	4.83967	0.977967	5.99325
0.450319	2.74175	0.313573	1.88765	0.451185	2.74082	0.5943	3.62947	0.708811	4.32764	0.926059	5.64323	0.458708	2.79954	0.57756	3.50875	0.78972	4.81819	0.978829	5.96448
0.452493	2.73945	0.315608	1.88931	0.453363	2.73855	0.595747	3.61772	0.710296	4.31217	0.927013	5.61715	0.460819	2.79653	0.579145	3.49857	0.790713	4.79697	0.979695	5.93606
0.454677	2.73723	0.317642	1.89094	0.455552	2.73638	0.597198	3.60613	0.711785	4.29691	0.927971	5.59139	0.46293	2.79354	0.580735	3.48854	0.79171	4.77603	0.980566	5.90798
0.456873	2.73511	0.319677	1.89256	0.457752	2.73428	0.598654	3.5947	0.713279	4.28185	0.928934	5.56595	0.46504	2.79058	0.58233	3.47866	0.792712	4.75535	0.981441	5.88024
0.459078	2.73307	0.321711	1.89415	0.459961	2.73228	0.600114	3.58342	0.714778	4.26698	0.929901	5.54081	0.467149	2.78765	0.583931	3.46892	0.793719	4.73492	0.98232	5.85284
0.461294	2.73111	0.323746	1.89573	0.462181	2.73035	0.601579	3.57229	0.716281	4.2523	0.930873	5.51598	0.469258	2.78475	0.585538	3.45931	0.79473	4.71475	0.983203	5.82576
0.463519	2.72923	0.32578	1.8973	0.464409	2.7285	0.603049	3.56132	0.717789	4.23781	0.931849	5.49145	0.471366	2.78188	0.58715	3.44985	0.795747	4.69483	0.984091	5.79901
0.465752	2.72742	0.327815	1.89884	0.466646	2.72671	0.604523	3.55049	0.719301	4.22351	0.93283	5.46721	0.473473	2.77904	0.588767	3.44051	0.796767	4.67515	0.984983	5.77257
0.467995	2.72568	0.329849	1.90037	0.468892	2.725	0.606002	3.5398	0.720817	4.20938	0.933815	5.44326	0.47558	2.77623	0.590389	3.43131	0.797793	4.65572	0.985878	5.74644
0.470246	2.724	0.331883	1.90187	0.471146	2.72335	0.607485	3.52926	0.722337	4.19543	0.934804	5.41959	0.477686	2.77344	0.592017	3.42224	0.798823	4.63652	0.986778	5.72062
0.472504	2.72239	0.333917	1.90337	0.473408	2.72177	0.608972	3.51885	0.723862	4.18166	0.935798	5.39621	0.479792	2.77067	0.59365	3.4133	0.799857	4.61755	0.987683	5.6951
0.47477	2.72084	0.33595	1.90484	0.475677	2.72024	0.610464	3.50858	0.725391	4.16806	0.936797	5.3731	0.481897	2.76794	0.595288	3.40448	0.800896	4.59882	0.988591	5.66988
0.477043	2.71935	0.337984	1.9063	0.477953	2.71877	0.61196	3.49845	0.726925	4.15463	0.937799	5.35026	0.484001	2.76522	0.596931	3.39578	0.80194	4.58031	0.989503	5.64495
0.479323	2.71792	0.340017	1.90775	0.480235	2.71736	0.61346	3.48844	0.728462	4.14137	0.938807	5.32768	0.486105	2.76254	0.59858	3.38721	0.802989	4.56202	0.99042	5.6203
0.48161	2.71653	0.342051	1.90918	0.482524	2.71599	0.614965	3.47857	0.730004	4.12826	0.939818	5.30537	0.488207	2.75987	0.600233	3.37875	0.804042	4.54395	0.99134	5.59594
0.483903	2.71519	0.344084	1.91059	0.48482	2.71467	0.616474	3.46882	0.73155	4.11532	0.940834	5.28332	0.490309	2.75723	0.601892	3.37041	0.805099	4.52609	0.992265	5.57186
0.486202	2.71391	0.346117	1.91199	0.487121	2.7134	0.617987	3.4592	0.7331	4.10254	0.941854	5.26152	0.49241	2.75462	0.603556	3.36219	0.806161	4.50845	0.993194	5.54805
0.488507	2.71266	0.34815	1.91337	0.489428	2.71218	0.619504	3.44971	0.734654	4.08991	0.942879	5.23997	0.494511	2.75202	0.605225	3.35408	0.807228	4.49102	0.994127	5.52451
0.490817	2.71146	0.350182	1.91474	0.49174	2.71099	0.621026	3.44033	0.736212	4.07744	0.943908	5.21867	0.49661	2.74945	0.606899	3.34608	0.808299	4.47378	0.995064	5.50123
0.493132	2.7103	0.352215	1.91609	0.494057	2.70985	0.622552	3.43107	0.737774	4.06511	0.944941	5.19761	0.498709	2.7469	0.608578	3.33819	0.809375	4.45676	0.996005	5.47821
0.495452	2.70918	0.354247	1.91743	0.496379	2.70874	0.624081	3.42193	0.73934	4.05294	0.945979	5.17679	0.500807	2.74438	0.610262	3.3304	0.810455	4.43993	0.99695	5.45546
0.497777	2.7081	0.356279	1.91875	0.498706	2.70767	0.625615	3.41291	0.74091	4.0409	0.94702	5.1562	0.502904	2.74187	0.611951	3.32273	0.81154	4.42329	0.997899	5.43295
0.500106	2.70705	0.358312	1.92006	0.501037	2.70664	0.627153	3.404	0.742484	4.02901	0.948067	5.13584	0.505001	2.73938	0.613645	3.31515	0.812629	4.40685	0.998852	5.41069
0.50244	2.70603	0.360343	1.92135	0.503373	2.70564	0.628695	3.3952	0.744062	4.01727	0.949117	5.11571	0.507096	2.73692	0.615344	3.30768	0.813723	4.3906	0.999809	5.38868
0.504778	2.70505	0.362375	1.92264	0.505712	2.70467	0.630241	3.3865	0.745644	4.00566	0.950172	5.09581	0.509191	2.73447	0.617047	3.30031	0.814821	4.37453	1.00077	5.36691
0.50712	2.7041	0.364407	1.9239	0.508055	2.70373	0.631791	3.37792	0.747229	3.99418	0.951231	5.07612	0.511284	2.73205	0.618756	3.29304	0.815923	4.35865		
0.509465	2.70318	0.366438	1.92516	0.510403	2.70282	0.633344	3.36944	0.748818	3.98284	0.952294	5.05665	0.513377	2.72964	0.620469	3.28586	0.81703	4.34295		
0.511815	2.70228	0.368469	1.9264	0.512753	2.70193	0.634902	3.36107	0.750411	3.97163	0.953361	5.0374	0.515469	2.72725	0.622187	3.27879	0.818142	4.32742		
0.514167	2.70142	0.3705	1.92763	0.515107	2.70108	0.636464	3.3528	0.752008	3.96055	0.954433	5.01836	0.51756	2.72488	0.62391	3.2718	0.819258	4.31207		
0.516523	2.70057	0.372531	1.92885	0.517464	2.70025	0.638029	3.34463	0.753608	3.9496	0.955509	4.99952	0.51965	2.72253	0.625638	3.26491	0.820378	4.2969		
0.518882	2.69976	0.374562	1.93005	0.519825	2.69944	0.639598	3.33656	0.755213	3.93878	0.956588	4.98089	0.521739	2.7202	0.62737	3.25811	0.821502	4.28189		
0.521244	2.69896	0.376592	1.93124	0.522188	2.69865	0.641171	3.32859	0.75682	3.92807	0.957673	4.96246	0.523827	2.71788	0.629107	3.2514	0.822632	4.26706		
0.523609	2.69819	0.378622	1.93242	0.524554	2.69789	0.642748	3.32071	0.758432	3.91749	0.958761	4.94423	0.525914	2.71558	0.630849	3.24478	0.823765	4.25238		
0.525977	2.69744	0.380652	1.93358	0.526923	2.69715	0.644328	3.31293	0.760046	3.90703	0.959853	4.9262	0.528001	2.7133	0.632595	3.23824	0.824903	4.23788		
0.528347	2.69671	0.382682	1.93474	0.529294	2.69643	0.645913	3.30524	0.761665	3.89669	0.96095	4.90835	0.530086	2.71104	0.634347	3.23179	0.826045	4.22353		
0.53072	2.696	0.384712	1.93588	0.531668	2.69573	0.647501	3.29765	0.763287	3.88646	0.962051	4.8907	0.53217	2.70879	0.636102	3.22542	0.827191	4.20934		
0.533095	2.69531	0.386741	1.93701	0.534044	2.69504	0.649092	3.29014	0.764912	3.87635	0.963156	4.87324	0.534253	2.70656	0.637862	3.21914	0.828342	4.1953		
0.535473	2.69464	0.38877	1.93813	0.536422	2.69438	0.650687	3.28272	0.766541	3.86635	0.964265	4.85596	0.536335	2.70434	0.639627	3.21294	0.829497	4.18142		
0.537852	2.69398	0.390799	1.93924	0.538803	2.69373	0.652286	3.27539	0.768174	3.85646	0.965378	4.83886	0.538417	2.70214	0.641396	3.20682	0.830656	4.16769		
0.540234	2.69335	0.392828	1.94034	0.541185	2.6931	0.653889	3.26815	0.769809	3.84668	0.966495	4.82194	0.540497	2.69996	0.64317	3.20078	0.831819	4.15411		
0.542618	2.69272	0.394857	1.94142	0.54357	2.69248	0.655495	3.26099	0.771448	3.83701	0.967616	4.8052	0.542576	2.69779	0.644949	3.19482	0.832987	4.14067		
0.545004	2.69211	0.396885	1.9425	0.545956	2.69188	0.657104	3.25392	0.773091	3.82744	0.968741	4.78863	0.544654	2.69563	0.646731	3.18893	0.834159	4.12738		
0.547391	2.69152	0.398913	1.94356	0.548345	2.69129	0.658717	3.24693	0.774737	3.81798	0.969871	4.77223	0.546731	2.69349	0.648518	3.18312	0.835336	4.11424		
0.54978	2.69094	0.400941	1.94461	0.550734	2.69071	0.660334	3.24001	0.776386	3.80861	0.971004	4.75601	0.548807	2.69136	0.65031	3.17738	0.836516	4.10123		
0.552171	2.69038	0.402969	1.94566	0.553126	2.69015	0.661954	3.23318	0.778038	3.79936	0.972142	4.73995	0.550882	2.68925	0.652106	3.17172	0.837701	4.08837		
0.554564	2.68982	0.404997	1.94669	0.555519	2.6896	0.663577	3.22643	0.779694	3.7902	0.973283	4.72405	0.552955	2.68715	0.653906	3.16613	0.83889	4.07564		
0.556958	2.68928	0.407024	1.94771	0.557914	2.68907	0.665204	3.21975	0.781353	3.78113	0.974428	4.70832	0.555028	2.68507	0.655711	3.16061	0.840083	4.06304		
0.559354	2.68875	0.409051	1.94872	0.56031	2.68854	0.666835	3.21316	0.783015	3.77217	0.975578	4.69275	0.5571	2.683	0.65752	3.15515	0.84128	4.05058		
0.56175	2.68823	0.411078	1.94972	0.562707	2.68803	0.668468	3.20663	0.78468	3.7633	0.976731	4.67733	0.55917	2.68094	0.659333	3.14977	0.842482	4.03825		
0.564149	2.68773	0.413105	1.95072	0.565106	2.68753	0.670106	3.20018	0.786348	3.75453	0.977889	4.66208	0.561239	2.67889	0.66115	3.14446	0.843688	4.02605		
0.566548	2.68723	0.415131	1.9517	0.567506	2.68703	0.671746	3.19381	0.78802	3.74584	0.97905	4.64697	0.563308	2.67686	0.662972	3.13921	0.844898	4.01398		
0.568949	2.68674	0.417157	1.95267	0.569907	2.68655	0.67339	3.1875	0.789694	3.73725	0.980215	4.63202	0.565375	2.67484	0.664798	3.13403	0.846112	4.00203		
0.571351	2.68627	0.419183	1.95364	0.572309	2.68608	0.675037	3.18127	0.791372	3.72875	0.981385	4.61722	0.567441	2.67284	0.666628	3.12892	0.84733	3.99021		
0.573754	2.6858	0.421209	1.95459	0.574713	2.68562	0.676687	3.1751	0.793052	3.72034	0.982558	4.60256	0.569506	2.67084	0.668462	3.12386	0.848552	3.97851		
0.576158	2.68534	0.423234	1.95553	0.577117	2.68516	0.678341	3.16901	0.794736	3.71201	0.983735	4.58805	0.571569	2.66886	0.6703	3.11887	0.849778	3.96693		
0.578562	2.68489	0.42526	1.95647	0.579522	2.68471	0.679998	3.16298	0.796423	3.70377	0.984916	4.57368	0.573632	2.66689	0.672142	3.11395	0.851009	3.95547		
0.580968	2.68445	0.427285	1.9574	0.581929	2.68428	0.681658	3.15702	0.798112	3.69561	0.986101	4.55946	0.575694	2.66493	0.673989	3.10908	0.852243	3.94413		
0.583375	2.68402	0.42931	1.95831	0.584336	2.68384	0.683321	3.15113	0.799805	3.68754	0.987289	4.54538	0.577754	2.66298	0.675839	3.10428	0.853482	3.9329		
0.585783	2.68359	0.431334	1.95922	0.586744	2.68342	0.684988	3.1453	0.8015	3.67955	0.988482	4.53143	0.579813	2.66104	0.677693	3.09953	0.854725	3.92179		
0.588191	2.68317	0.433359	1.96012	0.589153	2.68301	0.686658	3.13954	0.803198	3.67165	0.989679	4.51762	0.581871	2.65912	0.679552	3.09484	0.855972	3.91079		
0.5906	2.68276	0.435383	1.96101	0.591562	2.6826	0.68833	3.13384	0.8049	3.66382	0.990879	4.50394	0.583928	2.6572	0.681414	3.09021	0.857222	3.89991		
0.59301	2.68235	0.437406	1.96189	0.593972	2.68219	0.690007	3.1282	0.806604	3.65607	0.992083	4.4904	0.585984	2.6553	0.68328	3.08564	0.858477	3.88913		
0.595421	2.68195	0.43943	1.96277	0.596383	2.6818	0.691686	3.12262	0.808311	3.6484	0.993291	4.47699	0.588038	2.65341	0.685151	3.08112	0.859736	3.87847		
0.597832	2.68156	0.441453	1.96364	0.598795	2.68141	0.693368	3.1171	0.81002	3.6408	0.994503	4.46371	0.590092	2.65153	0.687025	3.07666	0.860999	3.86791		
0.600244	2.68118	0.443477	1.96449	0.601207	2.68102	0.695053	3.11165	0.811733	3.63329	0.995719	4.45055	0.592144	2.64966	0.688903	3.07225	0.862266	3.85745		
0.602656	2.68079	0.4455	1.96534	0.603619	2.68064	0.696742	3.10625	0.813448	3.62584	0.996938	4.43752	0.594195	2.6478	0.690784	3.06789	0.863537	3.8471		
0.605069	2.68042	0.447522	1.96618	0.606032	2.68027	0.698433	3.10091	0.815166	3.61847	0.998161	4.42462	0.596245	2.64594	0.69267	3.06359	0.864812	3.83686		
0.607483	2.68005	0.449545	1.96702	0.608446	2.6799	0.700128	3.09563	0.816886	3.61118	0.999388	4.41184	0.598294	2.6441	0.694559	3.05934	0.866091	3.82671		
0.609897	2.67968	0.451567	1.96784	0.61086	2.67954	0.701825	3.0904	0.818609	3.60395	1.00062	4.39917	0.600341	2.64227	0.696452	3.05514	0.867374	3.81667		
0.612311	2.67932	0.453589	1.96866	0.613275	2.67918	0.703526	3.08523	0.820335	3.59679			0.602388	2.64045	0.698349	3.05099	0.86866	3.80672		
0.614726	2.67897	0.455611	1.96947	0.615689	2.67883	0.70523	3.08012	0.822064	3.58971			0.604433	2.63864	0.70025	3.04689	0.869951	3.79688		
0.617141	2.67862	0.457632	1.97028	0.618105	2.67848	0.706936	3.07506	0.823795	3.58269			0.606477	2.63684	0.702154	3.04284	0.871246	3.78713		
0.619556	2.67827	0.459653	1.97107	0.62052	2.67813	0.708646	3.07006	0.825529	3.57574			0.60852	2.63505	0.704062	3.03884	0.872544	3.77747		
0.621972	2.67793	0.461674	1.97186	0.622936	2.67779	0.710358	3.0651	0.827265	3.56886			0.610562	2.63327	0.705973	3.03488	0.873847	3.76792		
0.624388	2.67759	0.463695	1.97264	0.625352	2.67745	0.712074	3.0602	0.829004	3.56205			0.612602	2.63149	0.707888	3.03098	0.875153	3.75845		
0.626804	2.67725	0.465715	1.97341	0.627768	2.67712	0.713792	3.05535	0.830745	3.5553			0.614642	2.62973	0.709806	3.02712	0.876463	3.74907		
0.62922	2.67692	0.467736	1.97418	0.630185	2.67679	0.715513	3.05056	0.832489	3.54861			0.61668	2.62797	0.711728	3.0233	0.877777	3.73979		
0.631637	2.67659	0.469756	1.97494	0.632601	2.67646	0.717238	3.04581	0.834235	3.54199			0.618717	2.62623	0.713654	3.01953	0.879095	3.7306		
0.634054	2.67627	0.471775	1.97569	0.635018	2.67614	0.718965	3.04111	0.835984	3.53543			0.620753	2.62449	0.715583	3.0158	0.880417	3.72149		
0.63647	2.67594	0.473795	1.97644	0.637435	2.67582	0.720695	3.03646	0.837735	3.52893			0.622788	2.62276	0.717515	3.01212	0.881743	3.71248		
0.638887	2.67563	0.475814	1.97718	0.639852	2.6755	0.722428	3.03186	0.839489	3.52249			0.624822	2.62104	0.719451	3.00848	0.883073	3.70355		
0.641304	2.67531	0.477833	1.97791	0.642269	2.67518	0.724164	3.02731	0.841245	3.51611			0.626854	2.61933	0.721391	3.00488	0.884406	3.6947		
0.643721	2.67499	0.479852	1.97863	0.644686	2.67487	0.725902	3.0228	0.843004	3.50979			0.628886	2.61763	0.723333	3.00132	0.885743	3.68594		
0.646139	2.67468	0.48187	1.97935	0.647103	2.67456	0.727644	3.01835	0.844764	3.50354			0.630916	2.61594	0.725279	2.99781	0.887084	3.67726		
0.648556	2.67437	0.483888	1.98007	0.64952	2.67425	0.729388	3.01393	0.846528	3.49733			0.632945	2.61425	0.727228	2.99433	0.888429	3.66867		
0.650973	2.67407	0.485906	1.98077	0.651937	2.67395	0.731136	3.00957	0.848293	3.49119			0.634973	2.61257	0.729181	2.9909	0.889778	3.66016		
0.65339	2.67376	0.487924	1.98147	0.654354	2.67364	0.732886	3.00525	0.850061	3.4851			0.637	2.6109	0.731136	2.9875	0.89113	3.65173		
0.655806	2.67346	0.489941	1.98216	0.656771	2.67334	0.734638	3.00097	0.851831	3.47907			0.639025	2.60924	0.733095	2.98415	0.892486	3.64337		
0.658223	2.67316	0.491959	1.98285	0.659187	2.67304	0.736394	2.99674	0.853603	3.47309			0.64105	2.60759	0.735058	2.98083	0.893846	3.6351		
0.66064	2.67286	0.493976	1.98353	0.661604	2.67274	0.738153	2.99255	0.855377	3.46717			0.643074	2.60594	0.737023	2.97755	0.89521	3.6269		
0.663056	2.67256	0.495992	1.98421	0.66402	2.67244	0.739914	2.9884	0.857154	3.4613			0.645096	2.60431	0.738991	2.97431	0.896577	3.61878		
0.665472	2.67227	0.498009	1.98487	0.666437	2.67215	0.741678	2.98429	0.858933	3.45548			0.647117	2.60268	0.740963	2.9711	0.897948	3.61074		
0.667888	2.67197	0.500025	1.98554	0.668852	2.67185	0.743445	2.98023	0.860714	3.44971			0.649137	2.60105	0.742937	2.96793	0.899323	3.60277		
0.670304	2.67168	0.502041	1.98619	0.671268	2.67156	0.745215	2.97621	0.862497	3.444			0.651156	2.59944	0.744915	2.9648	0.900702	3.59487		
0.67272	2.67138	0.504056	1.98684	0.673684	2.67127	0.746987	2.97223	0.864283	3.43834			0.653174	2.59783	0.746895	2.9617	0.902084	3.58705		
0.675135	2.67109	0.506072	1.98749	0.676099	2.67098	0.748763	2.96829	0.86607	3.43273			0.655191	2.59624	0.748879	2.95863	0.90347	3.5793		
0.67755	2.6708	0.508087	1.98813	0.678513	2.67069	0.750541	2.96439	0.86786	3.42716			0.657207	2.59464	0.750865	2.9556	0.90486	3.57163		
0.679964	2.67051	0.510102	1.98876	0.680928	2.6704	0.752322	2.96053	0.869652	3.42165			0.659222	2.59306	0.752855	2.9526	0.906254	3.56402		
0.682378	2.67022	0.512117	1.98939	0.683342	2.67011	0.754105	2.95671	0.871445	3.41618			0.661236	2.59148	0.754847	2.94964	0.907651	3.55648		
0.684792	2.66993	0.514131	1.99001	0.685755	2.66982	0.755892	2.95292	0.873241	3.41077			0.663248	2.58992	0.756842	2.94671	0.909051	3.54901		
0.687206	2.66965	0.516145	1.99063	0.688169	2.66953	0.757681	2.94918	0.875039	3.4054			0.66526	2.58835	0.75884	2.94381	0.910456	3.54162		
0.689618	2.66936	0.518159	1.99124	0.690581	2.66924	0.759473	2.94547	0.876839	3.40007			0.667271	2.5868	0.760841	2.94094	0.911864	3.53428		
0.692031	2.66907	0.520173	1.99185	0.692994	2.66896	0.761268	2.9418	0.878641	3.39479			0.66928	2.58525	0.762845	2.9381	0.913276	3.52702		
0.694443	2.66878	0.522186	1.99245	0.695405	2.66867	0.763065	2.93817	0.880444	3.38956			0.671289	2.58371	0.764851	2.9353	0.914691	3.51982		
0.696854	2.6685	0.524199	1.99305	0.697816	2.66838	0.764866	2.93458	0.88225	3.38437			0.673296	2.58218	0.76686	2.93252	0.91611	3.51269		
0.699265	2.66821	0.526212	1.99364	0.700227	2.66809	0.766669	2.93102	0.884058	3.37923			0.675303	2.58065	0.768872	2.92978	0.917532	3.50562		
0.701675	2.66792	0.528225	1.99422	0.702637	2.6678	0.768475	2.92749	0.885867	3.37413			0.677309	2.57914	0.770886	2.92706	0.918959	3.49861		
0.704085	2.66763	0.530237	1.9948	0.705046	2.66752	0.770284	2.92401	0.887679	3.36908			0.679313	2.57762	0.772903	2.92437	0.920388	3.49167		
0.706494	2.66734	0.532249	1.99538	0.707455	2.66723	0.772095	2.92055	0.889492	3.36406			0.681317	2.57612	0.774923	2.92171	0.921822	3.48479		
0.708902	2.66705	0.534261	1.99595	0.709863	2.66694	0.77391	2.91714	0.891308	3.35909			0.683319	2.57462	0.776945	2.91908	0.923259	3.47797		
0.71131	2.66676	0.536272	1.99652	0.71227	2.66665	0.775727	2.91375	0.893125	3.35416			0.685321	2.57313	0.778969	2.91648	0.924699	3.47122		
0.713716	2.66647	0.538284	1.99708	0.714677	2.66636	0.777547	2.9104	0.894944	3.34927			0.687322	2.57165	0.780997	2.91391	0.926143	3.46452		
0.716123	2.66618	0.540295	1.99763	0.717083	2.66606	0.77937	2.90709	0.896764	3.34443			0.689321	2.57017	0.783026	2.91136	0.927591	3.45788		
0.718528	2.66589	0.542305	1.99818	0.719488	2.66577	0.781195	2.90381	0.898587	3.33962			0.69132	2.5687	0.785058	2.90884	0.929042	3.45131		
0.720932	2.6656	0.544316	1.99873	0.721892	2.66548	0.783024	2.90056	0.900411	3.33485			0.693318	2.56723	0.787093	2.90634	0.930497	3.44479		
0.723336	2.6653	0.546326	1.99927	0.724295	2.66518	0.784855	2.89734	0.902237	3.33013			0.695315	2.56578	0.78913	2.90387	0.931955	3.43833		
0.725739	2.66501	0.548336	1.99981	0.726697	2.66489	0.786689	2.89416	0.904065	3.32544			0.697311	2.56433	0.791169	2.90143	0.933417	3.43192		
0.72814	2.66471	0.550346	2.00034	0.729099	2.66459	0.788527	2.89101	0.905895	3.32079			0.699306	2.56288	0.79321	2.89901	0.934882	3.42558		
0.730541	2.66441	0.552356	2.00087	0.731499	2.66429	0.790367	2.88789	0.907726	3.31617			0.7013	2.56144	0.795254	2.89662	0.936351	3.41929		
0.732941	2.66411	0.554365	2.00139	0.733899	2.66399	0.79221	2.8848	0.909559	3.3116			0.703294	2.56001	0.7973	2.89425	0.937824	3.41305		
0.73534	2.66381	0.556374	2.00191	0.736297	2.66369	0.794055	2.88175	0.911394	3.30706			0.705286	2.55859	0.799349	2.8919	0.939299	3.40687		
0.737738	2.6635	0.558382	2.00243	0.738694	2.66338	0.795904	2.87872	0.91323	3.30256			0.707278	2.55717	0.801399	2.88958	0.940779	3.40074		
0.740134	2.6632	0.560391	2.00294	0.74109	2.66308	0.797756	2.87573	0.915068	3.29809			0.709269	2.55576	0.803452	2.88728	0.942262	3.39467		
0.74253	2.66289	0.562399	2.00344	0.743486	2.66277	0.799611	2.87277	0.916908	3.29366			0.711259	2.55435	0.805507	2.88501	0.943748	3.38865		
0.744924	2.66258	0.564407	2.00395	0.745879	2.66246	0.801468	2.86984	0.918749	3.28927			0.713248	2.55296	0.807563	2.88276	0.945238	3.38268		
0.747317	2.66227	0.566415	2.00444	0.748272	2.66214	0.803329	2.86694	0.920592	3.28491			0.715236	2.55156	0.809622	2.88053	0.946731	3.37677		
0.749709	2.66195	0.568422	2.00494	0.750663	2.66183	0.805193	2.86406	0.922437	3.28058			0.717224	2.55018	0.811684	2.87832	0.948228	3.37091		
0.7521	2.66164	0.570429	2.00543	0.753053	2.66151	0.80706	2.86122	0.924283	3.27629			0.71921	2.5488	0.813747	2.87613	0.949728	3.36509		
0.754489	2.66132	0.572436	2.00591	0.755442	2.66119	0.80893	2.85841	0.92613	3.27204			0.721196	2.54742	0.815812	2.87397	0.951232	3.35933		
0.756877	2.661	0.574443	2.00639	0.75783	2.66087	0.810803	2.85563	0.92798	3.26781			0.723181	2.54606	0.817879	2.87182	0.952739	3.35362		
0.759263	2.66067	0.576449	2.00687	0.760215	2.66054	0.812679	2.85287	0.92983	3.26362			0.725165	2.5447	0.819948	2.8697	0.954249	3.34796		
0.761648	2.66034	0.578456	2.00734	0.7626	2.66021	0.814558	2.85015	0.931682	3.25946			0.727149	2.54334	0.822019	2.8676	0.955763	3.34234		
0.764032	2.66001	0.580461	2.00781	0.764983	2.65988	0.81644	2.84745	0.933536	3.25534			0.729132	2.54199	0.824091	2.86551	0.95728	3.33678		
0.766414	2.65968	0.582467	2.00828	0.767364	2.65954	0.818326	2.84478	0.935391	3.25125			0.731114	2.54065	0.826166	2.86345	0.958801	3.33126		
0.768794	2.65934	0.584472	2.00874	0.769744	2.6592	0.820215	2.84214	0.937248	3.24718			0.733095	2.53931	0.828242	2.86141	0.960325	3.32579		
0.771173	2.659	0.586478	2.0092	0.772122	2.65886	0.822107	2.83953	0.939106	3.24315			0.735076	2.53798	0.830321	2.85938	0.961853	3.32037		
0.77355	2.65865	0.588482	2.00965	0.774498	2.65852	0.824002	2.83695	0.940966	3.23915			0.737056	2.53666	0.8324	2.85738	0.963384	3.31499		
0.775926	2.65831	0.590487	2.0101	0.776873	2.65817	0.825901	2.8344	0.942827	3.23518			0.739035	2.53534	0.834482	2.85539	0.964918	3.30966		
0.778299	2.65795	0.592491	2.01055	0.779246	2.65781	0.827803	2.83187	0.944689	3.23124			0.741013	2.53403	0.836565	2.85342	0.966456	3.30437		
0.780671	2.6576	0.594495	2.01099	0.781617	2.65745	0.829708	2.82937	0.946553	3.22733			0.742991	2.53272	0.838651	2.85147	0.967997	3.29913		
0.783041	2.65724	0.596499	2.01143	0.783986	2.65709	0.831617	2.8269	0.948419	3.22345			0.744968	2.53142	0.840737	2.84954	0.969542	3.29394		
0.785408	2.65687	0.598503	2.01187	0.786353	2.65672	0.83353	2.82445	0.950285	3.2196			0.746945	2.53013	0.842826	2.84763	0.97109	3.28879		
0.787774	2.6565	0.600506	2.0123	0.788718	2.65635	0.835446	2.82203	0.952153	3.21578			0.748921	2.52884	0.844915	2.84573	0.972641	3.28368		
0.790138	2.65613	0.602509	2.01273	0.791081	2.65598	0.837365	2.81964	0.954023	3.21199			0.750896	2.52756	0.847007	2.84385	0.974196	3.27861		
0.7925	2.65575	0.604512	2.01315	0.793442	2.6556	0.839288	2.81728	0.955893	3.20822			0.75287	2.52628	0.8491	2.84199	0.975754	3.27359		
0.794859	2.65537	0.606515	2.01357	0.7958	2.65521	0.841214	2.81494	0.957765	3.20448			0.754844	2.52501	0.851194	2.84014	0.977315	3.26861		
0.797217	2.65498	0.608517	2.01399	0.798157	2.65482	0.843145	2.81263	0.959638	3.20077			0.756818	2.52375	0.85329	2.83831	0.97888	3.26368		
0.799572	2.65458	0.610519	2.0144	0.800511	2.65443	0.845079	2.81035	0.961513	3.19709			0.75879	2.52249	0.855387	2.8365	0.980448	3.25878		
0.801924	2.65418	0.612521	2.01482	0.802863	2.65402	0.847016	2.80809	0.963389	3.19344			0.760763	2.52124	0.857486	2.8347	0.982019	3.25393		
0.804275	2.65378	0.614523	2.01522	0.805212	2.65362	0.848958	2.80586	0.965266	3.18981			0.762734	2.51999	0.859586	2.83291	0.983594	3.24911		
0.806623	2.65337	0.616524	2.01563	0.807559	2.6532	0.850903	2.80366	0.967144	3.1862			0.764705	2.51875	0.861688	2.83115	0.985172	3.24434		
0.808968	2.65295	0.618525	2.01603	0.809903	2.65279	0.852852	2.80148	0.969024	3.18263			0.766675	2.51751	0.863791	2.8294	0.986753	3.23961		
0.811311	2.65253	0.620526	2.01643	0.812245	2.65236	0.854806	2.79933	0.970905	3.17908			0.768645	2.51628	0.865895	2.82766	0.988338	3.23492		
0.813651	2.6521	0.622526	2.01682	0.814584	2.65193	0.856763	2.79721	0.972787	3.17555			0.770615	2.51506	0.868	2.82594	0.989925	3.23026		
0.815988	2.65167	0.624527	2.01721	0.81692	2.6515	0.858724	2.79511	0.97467	3.17205			0.772583	2.51384	0.870107	2.82423	0.991517	3.22565		
0.818323	2.65123	0.626527	2.0176	0.819254	2.65105	0.860689	2.79303	0.976555	3.16858			0.774552	2.51263	0.872215	2.82253	0.993111	3.22107		
0.820654	2.65078	0.628526	2.01799	0.821584	2.6506	0.862659	2.79099	0.97844	3.16513			0.776519	2.51142	0.874324	2.82085	0.994709	3.21654		
0.822983	2.65033	0.630526	2.01837	0.823912	2.65015	0.864632	2.78896	0.980327	3.1617			0.778487	2.51022	0.876434	2.81919	0.99631	3.21204		
0.825309	2.64987	0.632525	2.01875	0.826237	2.64968	0.86661	2.78697	0.982215	3.1583			0.780453	2.50902	0.878545	2.81753	0.997915	3.20757		
0.827632	2.6494	0.634524	2.01912	0.828558	2.64921	0.868592	2.785	0.984104	3.15492			0.782419	2.50783	0.880658	2.8159	0.999522	3.20315		
0.829952	2.64893	0.636523	2.0195	0.830877	2.64874	0.870579	2.78305	0.985995	3.15157			0.784385	2.50665	0.882771	2.81427	1.00113	3.19876		
0.832268	2.64844	0.638522	2.01987	0.833192	2.64825	0.87257	2.78114	0.987886	3.14824			0.78635	2.50547	0.884886	2.81266				
0.834582	2.64796	0.64052	2.02023	0.835504	2.64776	0.874565	2.77924	0.989779	3.14493			0.788315	2.50429	0.887001	2.81106				
0.836892	2.64746	0.642518	2.0206	0.837812	2.64726	0.876565	2.77737	0.991672	3.14165			0.79028	2.50312	0.889118	2.80947				
0.839198	2.64695	0.644516	2.02096	0.840118	2.64675	0.87857	2.77553	0.993567	3.13839			0.792244	2.50196	0.891236	2.80789				
0.841501	2.64644	0.646513	2.02132	0.842419	2.64623	0.880579	2.77371	0.995462	3.13515			0.794207	2.5008	0.893354	2.80633				
0.843801	2.64592	0.64851	2.02167	0.844718	2.64571	0.882592	2.77192	0.997359	3.13193			0.79617	2.49965	0.895473	2.80478				
0.846097	2.64539	0.650508	2.02203	0.847012	2.64518	0.884611	2.77016	0.999257	3.12874			0.798133	2.49851	0.897594	2.80324				
0.848389	2.64485	0.652504	2.02238	0.849303	2.64464	0.886634	2.76842	1.00116	3.12557			0.800095	2.49736	0.899715	2.80171				
0.850678	2.64431	0.654501	2.02272	0.85159	2.64409	0.888662	2.7667					0.802057	2.49623	0.901837	2.8002				
0.852963	2.64375	0.656497	2.02307	0.853874	2.64353	0.890696	2.76501					0.804018	2.4951	0.90396	2.79869				
0.855244	2.64319	0.658493	2.02341	0.856153	2.64296	0.892734	2.76334					0.805979	2.49397	0.906083	2.7972				
0.857521	2.64262	0.660489	2.02375	0.858429	2.64239	0.894777	2.7617					0.80794	2.49285	0.908208	2.79571				
0.859794	2.64204	0.662485	2.02408	0.8607	2.64181	0.896825	2.76009					0.8099	2.49174	0.910333	2.79424				
0.862064	2.64145	0.66448	2.02442	0.862968	2.64121	0.898878	2.7585					0.81186	2.49063	0.912459	2.79278				
0.864329	2.64085	0.666475	2.02475	0.865232	2.64061	0.900936	2.75693					0.81382	2.48953	0.914585	2.79133				
0.86659	2.64024	0.66847	2.02508	0.867491	2.64	0.902999	2.75539					0.815779	2.48843	0.916712	2.78989				
0.868847	2.63963	0.670464	2.0254	0.869746	2.63938	0.905068	2.75387					0.817738	2.48733	0.91884	2.78846				
0.871099	2.639	0.672459	2.02573	0.871997	2.63875	0.907142	2.75238					0.819697	2.48624	0.920968	2.78703				
0.873348	2.63837	0.674453	2.02605	0.874244	2.63811	0.909221	2.75091					0.821655	2.48516	0.923097	2.78562				
0.875592	2.63772	0.676447	2.02637	0.876486	2.63746	0.911306	2.74947					0.823613	2.48408	0.925227	2.78422				
0.877832	2.63707	0.67844	2.02668	0.878724	2.6368	0.913396	2.74805					0.825571	2.48301	0.927357	2.78283				
0.880067	2.6364	0.680434	2.02699	0.880958	2.63614	0.915491	2.74665					0.827528	2.48194	0.929487	2.78145				
0.882298	2.63573	0.682427	2.0273	0.883187	2.63546	0.917592	2.74528					0.829485	2.48088	0.931618	2.78007				
0.884524	2.63505	0.68442	2.02761	0.885412	2.63477	0.919698	2.74393					0.831442	2.47982	0.93375	2.77871				
0.886746	2.63435	0.686412	2.02792	0.887632	2.63408	0.92181	2.74261					0.833399	2.47877	0.935882	2.77735				
0.888964	2.63365	0.688405	2.02822	0.889847	2.63337	0.923927	2.74131					0.835355	2.47772	0.938014	2.776				
0.891177	2.63294	0.690397	2.02852	0.892059	2.63265	0.926049	2.74003					0.837311	2.47668	0.940147	2.77466				
0.893385	2.63222	0.692389	2.02882	0.894265	2.63193	0.928177	2.73878					0.839267	2.47564	0.94228	2.77333				
0.895589	2.63149	0.69438	2.02912	0.896467	2.6312	0.930311	2.73755					0.841223	2.47461	0.944413	2.77201				
0.897788	2.63075	0.696372	2.02941	0.898665	2.63045	0.93245	2.73634					0.843178	2.47358	0.946547	2.7707				
0.899983	2.63	0.698363	2.0297	0.900858	2.6297	0.934594	2.73516					0.845133	2.47256	0.948681	2.76939				
0.902173	2.62924	0.700354	2.02999	0.903046	2.62894	0.936744	2.73399					0.847088	2.47154	0.950815	2.76809				
0.904359	2.62848	0.702345	2.03028	0.90523	2.62817	0.9389	2.73285					0.849042	2.47053	0.952949	2.7668				
0.90654	2.6277	0.704335	2.03057	0.907409	2.62739	0.941061	2.73174					0.850997	2.46952	0.955084	2.76552				
0.908717	2.62691	0.706325	2.03085	0.909584	2.6266	0.943227	2.73064					0.852951	2.46852	0.957219	2.76424				
0.910889	2.62612	0.708315	2.03113	0.911754	2.6258	0.945399	2.72956					0.854905	2.46752	0.959354	2.76297				
0.913056	2.62532	0.710305	2.03141	0.91392	2.62499	0.947576	2.72851					0.856859	2.46653	0.961489	2.76171				
0.915219	2.62451	0.712295	2.03168	0.916081	2.62418	0.949758	2.72748					0.858813	2.46554	0.963624	2.76046				
0.917378	2.62369	0.714284	2.03196	0.918238	2.62336	0.951946	2.72647					0.860766	2.46455	0.96576	2.75921				
0.919532	2.62286	0.716273	2.03223	0.92039	2.62253	0.954139	2.72547					0.862719	2.46358	0.967895	2.75797				
0.921682	2.62202	0.718262	2.0325	0.922539	2.62169	0.956338	2.7245					0.864673	2.4626	0.97003	2.75674				
0.923827	2.62118	0.72025	2.03277	0.924682	2.62084	0.958541	2.72355					0.866626	2.46163	0.972166	2.75551				
0.925968	2.62033	0.722239	2.03303	0.926822	2.61998	0.96075	2.72262					0.868579	2.46067	0.974302	2.75429				
0.928105	2.61947	0.724227	2.0333	0.928957	2.61912	0.962963	2.72171					0.870531	2.45971	0.976437	2.75307				
0.930238	2.6186	0.726215	2.03356	0.931088	2.61825	0.965182	2.72081					0.872484	2.45875	0.978572	2.75187				
0.932366	2.61773	0.728202	2.03382	0.933215	2.61738	0.967406	2.71994					0.874436	2.4578	0.980708	2.75066				
0.934491	2.61685	0.73019	2.03408	0.935338	2.61649	0.969634	2.71908					0.876389	2.45685	0.982843	2.74947				
0.936611	2.61596	0.732177	2.03433	0.937456	2.6156	0.971868	2.71824					0.878341	2.45591	0.984979	2.74828				
0.938728	2.61506	0.734164	2.03459	0.939571	2.61471	0.974106	2.71742					0.880293	2.45497	0.987114	2.7471				
0.94084	2.61416	0.73615	2.03484	0.941682	2.6138	0.976349	2.71662					0.882245	2.45404	0.989249	2.74592				
0.942949	2.61326	0.738137	2.03509	0.943789	2.61289	0.978597	2.71583					0.884197	2.45311	0.991383	2.74474				
0.945054	2.61235	0.740123	2.03534	0.945893	2.61198	0.980849	2.71506					0.886148	2.45219	0.993518	2.74358				
0.947155	2.61143	0.742109	2.03558	0.947992	2.61106	0.983105	2.71431					0.8881	2.45127	0.995652	2.74242				
0.949252	2.61051	0.744095	2.03583	0.950088	2.61014	0.985366	2.71357					0.890052	2.45035	0.997786	2.74126				
0.951346	2.60958	0.746081	2.03607	0.95218	2.60921	0.987632	2.71285					0.892003	2.44944	0.99992	2.74011				
0.953436	2.60864	0.748066	2.03631	0.954269	2.60827	0.989901	2.71214					0.893955	2.44854	1.00205	2.73896				
0.955523	2.60771	0.750051	2.03655	0.956355	2.60733	0.992175	2.71145					0.895906	2.44764						
0.957606	2.60676	0.752036	2.03678	0.958437	2.60639	0.994453	2.71077					0.897857	2.44674						
0.959687	2.60582	0.75402	2.03702	0.960516	2.60544	0.996735	2.71011					0.899808	2.44585						
0.961763	2.60487	0.756005	2.03725	0.962591	2.60449	0.999021	2.70946					0.901759	2.44496						
0.963837	2.60391	0.757989	2.03748	0.964664	2.60353	1.00131	2.70883					0.90371	2.44407						
0.965908	2.60295	0.759973	2.03771	0.966733	2.60257							0.905662	2.4432						
0.967975	2.60199	0.761957	2.03794	0.9688	2.60161							0.907613	2.44232						
0.97004	2.60103	0.76394	2.03817	0.970863	2.60064							0.909563	2.44145						
0.972102	2.60006	0.765923	2.03839	0.972924	2.59967							0.911514	2.44058						
0.974161	2.59909	0.767907	2.03861	0.974981	2.5987							0.913465	2.43972						
0.976217	2.59812	0.769889	2.03884	0.977037	2.59773							0.915416	2.43886						
0.97827	2.59714	0.771872	2.03905	0.979089	2.59676							0.917367	2.43801						
0.980321	2.59617	0.773854	2.03927	0.981139	2.59578							0.919318	2.43716						
0.98237	2.59519	0.775836	2.03949	0.983186	2.5948							0.921268	2.43631						
0.984416	2.59421	0.777818	2.0397	0.985231	2.59382							0.923219	2.43547						
0.986459	2.59323	0.7798	2.03992	0.987274	2.59284							0.92517	2.43463						
0.9885	2.59224	0.781782	2.04013	0.989314	2.59185							0.927121	2.4338						
0.990539	2.59126	0.783763	2.04034	0.991352	2.59087							0.929072	2.43297						
0.992576	2.59028	0.785744	2.04054	0.993388	2.58988							0.931022	2.43214						
0.994611	2.58929	0.787725	2.04075	0.995422	2.5889							0.932973	2.43132						
0.996643	2.5883	0.789705	2.04096	0.997454	2.58791							0.934924	2.4305						
0.998674	2.58732	0.791686	2.04116	0.999484	2.58692							0.936875	2.42969						
1.0007	2.58633	0.793666	2.04136	1.00151	2.58593							0.938826	2.42888						
		0.795646	2.04156									0.940776	2.42807						
		0.797626	2.04176									0.942727	2.42727						
		0.799605	2.04196									0.944678	2.42647						
		0.801585	2.04215									0.946629	2.42568						
		0.803564	2.04235									0.94858	2.42489						
		0.805542	2.04254									0.950531	2.42411						
		0.807521	2.04273									0.952482	2.42332						
		0.8095	2.04292									0.954433	2.42254						
		0.811478	2.04311									0.956385	2.42177						
		0.813456	2.0433									0.958336	2.421						
		0.815434	2.04348									0.960287	2.42023						
		0.817411	2.04367									0.962238	2.41947						
		0.819389	2.04385									0.96419	2.41871						
		0.821366	2.04403									0.966141	2.41795						
		0.823343	2.04421									0.968093	2.4172						
		0.825319	2.04439									0.970044	2.41645						
		0.827296	2.04457									0.971996	2.41571						
		0.829272	2.04474									0.973948	2.41497						
		0.831248	2.04492									0.9759	2.41423						
		0.833224	2.04509									0.977852	2.41349						
		0.8352	2.04526									0.979804	2.41276						
		0.837175	2.04543									0.981756	2.41204						
		0.839151	2.0456									0.983708	2.41131						
		0.841126	2.04577									0.98566	2.41059						
		0.843101	2.04594									0.987613	2.40988						
		0.845075	2.0461									0.989565	2.40917						
		0.84705	2.04627									0.991518	2.40846						
		0.849024	2.04643									0.993471	2.40775						
		0.850998	2.04659									0.995423	2.40705						
		0.852972	2.04676									0.997376	2.40635						
		0.854946	2.04691									0.999329	2.40565						
		0.856919	2.04707									1.00128	2.40496						
		0.858892	2.04723																
		0.860865	2.04739																
		0.862838	2.04754																
		0.864811	2.0477																
		0.866783	2.04785																
		0.868756	2.048																
		0.870728	2.04815																
		0.872699	2.0483																
		0.874671	2.04845																
		0.876642	2.04859																
		0.878614	2.04874																
		0.880585	2.04889																
		0.882556	2.04903																
		0.884526	2.04917																
		0.886497	2.04931																
		0.888467	2.04945																
		0.890437	2.04959																
		0.892407	2.04973																
		0.894377	2.04987																
		0.896346	2.05001																
		0.898316	2.05014																
		0.900285	2.05028																
		0.902254	2.05041																
		0.904222	2.05054																
		0.906191	2.05067																
		0.908159	2.0508																
		0.910127	2.05093																
		0.912095	2.05106																
		0.914063	2.05119																
		0.916031	2.05132																
		0.917998	2.05144																
		0.919965	2.05157																
		0.921933	2.05169																
		0.923899	2.05181																
		0.925866	2.05193																
		0.927833	2.05206																
		0.929799	2.05218																
		0.931765	2.05229																
		0.933731	2.05241																
		0.935697	2.05253																
		0.937662	2.05265																
		0.939628	2.05276																
		0.941593	2.05288																
		0.943558	2.05299																
		0.945523	2.0531																
		0.947488	2.05322																
		0.949452	2.05333																
		0.951417	2.05344																
		0.953381	2.05355																
		0.955345	2.05366																
		0.957309	2.05377																
		0.959272	2.05387																
		0.961236	2.05398																
		0.963199	2.05409																
		0.965162	2.05419																
		0.967125	2.0543																
		0.969088	2.0544																
		0.971051	2.0545																
		0.973013	2.0546																
		0.974975	2.0547																
		0.976937	2.05481																
		0.978899	2.05491																
		0.980861	2.055																
		0.982823	2.0551																
		0.984784	2.0552																
		0.986745	2.0553																
		0.988707	2.05539																
		0.990667	2.05549																
		0.992628	2.05558																
		0.994589	2.05568																
		0.996549	2.05577																
		0.99851	2.05586																
		1.00047	2.05595																
