Sym0		Asym0		Sym1		Sym2		Sym3		Sym4		Asym1		Asym2		Asym3		Asym4	
423  Points		528  Points		422  Points		404  Points		351  Points		251  Points		454  Points		399  Points		343  Points		206  Points	
Freq (MHz)	Vph (m/ms)	Freq (MHz)	Vph (m/ms)	Freq (MHz)	Vph (m/ms)	Freq (MHz)	Vph (m/ms)	Freq (MHz)	Vph (m/ms)	Freq (MHz)	Vph (m/ms)	Freq (MHz)	Vph (m/ms)	Freq (MHz)	Vph (m/ms)	Freq (MHz)	Vph (m/ms)	Freq (MHz)	Vph (m/ms)
0.27951	580.043	3.6067e-005	0.0370567	0.279514	305.705	0.449969	10821.2	0.559017	6813.53	0.838526	2118.56	0.139755	935.963	0.419268	464.986	0.698771	3505.43	0.899939	2210.24
0.279521	197.741	0.000138159	0.0725247	0.27953	151.423	0.449975	462.33	0.559024	551.447	0.838531	631.664	0.139799	129.323	0.419285	228.696	0.698776	617.82	0.899944	672.17
0.279543	119.195	0.00030604	0.107887	0.279557	100.643	0.449992	236.22	0.559042	287.361	0.838543	371.17	0.13991	69.5136	0.419314	151.647	0.698786	338.768	0.899954	396.358
0.279576	85.3156	0.000539173	0.143078	0.279595	75.3745	0.450019	158.644	0.559071	194.316	0.83856	262.798	0.140088	47.5778	0.419355	113.438	0.698803	233.368	0.899969	281.043
0.27962	66.4392	0.000836888	0.178059	0.279644	60.2538	0.450057	119.431	0.559112	146.794	0.838583	203.412	0.140332	36.2044	0.419408	90.6149	0.698825	177.994	0.89999	217.707
0.279675	54.4077	0.00119846	0.212804	0.279704	50.1909	0.450106	95.7662	0.559164	117.954	0.838612	165.921	0.140641	29.2527	0.419472	75.4424	0.698854	143.862	0.900016	177.671
0.279741	46.0702	0.0016228	0.247247	0.279775	43.0125	0.450166	79.9336	0.559227	98.5906	0.838647	140.102	0.141015	24.5692	0.419547	64.6268	0.698889	120.716	0.900047	150.074
0.279817	39.9525	0.00210891	0.28137	0.279857	37.6344	0.450237	68.5976	0.559302	84.6925	0.838687	121.238	0.141452	21.2034	0.419635	56.5276	0.69893	103.989	0.900084	129.9
0.279905	35.2728	0.00265539	0.31511	0.279949	33.4552	0.450318	60.0813	0.559387	74.2326	0.838734	106.854	0.141951	18.6708	0.419734	50.2361	0.698977	91.3349	0.900125	114.509
0.280003	31.5777	0.00326091	0.348442	0.280053	30.1146	0.45041	53.4495	0.559485	66.0759	0.838786	95.5222	0.142512	16.6982	0.419845	45.2082	0.69903	81.4284	0.900172	102.38
0.280113	28.5863	0.00392407	0.381339	0.280167	27.3834	0.450513	48.1393	0.559593	59.5376	0.838844	86.3653	0.143133	15.1203	0.419968	41.0983	0.699089	73.4624	0.900224	92.5764
0.280233	26.1155	0.00464327	0.413767	0.280293	25.1091	0.450626	43.7917	0.559713	54.1796	0.838908	78.8118	0.143811	13.8307	0.420102	37.6762	0.699155	66.9177	0.900282	84.4874
0.280364	24.0404	0.0054168	0.445694	0.280429	23.1861	0.450751	40.167	0.559844	49.7092	0.838978	72.4748	0.144547	12.7583	0.420248	34.7829	0.699226	61.4452	0.900344	77.6996
0.280506	22.2732	0.00624306	0.477104	0.280576	21.5391	0.450886	37.0989	0.559987	45.9228	0.839054	67.0823	0.145337	11.8533	0.420406	32.3048	0.699304	56.8014	0.900412	71.9225
0.280659	20.7502	0.00712032	0.507976	0.280734	20.1127	0.451031	34.4685	0.56014	42.6748	0.839136	62.4379	0.146181	11.0802	0.420575	30.1587	0.699387	52.8116	0.900485	66.9461
0.280823	19.4243	0.00804674	0.53829	0.280903	18.8655	0.451188	32.1886	0.560305	39.8582	0.839223	58.3961	0.146959	10.4933	0.420756	28.2821	0.699477	49.3467	0.900564	62.6148
0.280997	18.2596	0.00902074	0.568042	0.281082	17.7659	0.451355	30.1936	0.560481	37.3924	0.839317	54.8468	0.147651	10.0463	0.420948	26.6275	0.699573	46.3095	0.900647	58.8109
0.281183	17.2286	0.0100403	0.597208	0.281273	16.7892	0.451533	28.4333	0.560668	35.216	0.839416	51.7053	0.148245	9.70861	0.421153	25.1577	0.699675	43.6256	0.900736	55.4436
0.281379	16.3096	0.0111039	0.62579	0.281474	15.9161	0.451721	26.8688	0.560867	33.2808	0.839521	48.9051	0.148727	9.45981	0.421368	23.8436	0.699783	41.2368	0.90083	52.4419
0.281586	15.4853	0.0122097	0.653782	0.281686	15.131	0.45192	25.4692	0.561077	31.5491	0.839632	46.3936	0.149088	9.28626	0.421596	22.6617	0.699897	39.097	0.900929	49.7493
0.281804	14.742	0.013356	0.681179	0.281909	14.4212	0.45213	24.2098	0.561297	29.9903	0.839748	44.1283	0.149322	9.1791	0.421834	21.5931	0.700017	37.1692	0.901034	47.3206
0.282033	14.0682	0.0145411	0.707977	0.282143	13.7765	0.45235	23.0706	0.561529	28.58	0.839871	42.0748	0.149663	9.03014	0.422085	20.6224	0.700143	35.4235	0.901144	45.1186
0.282272	13.4549	0.0157633	0.734181	0.282387	13.1885	0.452581	22.0354	0.561773	27.2979	0.839999	40.2047	0.15004	8.87467	0.422347	19.7368	0.700276	33.8352	0.901259	43.1132
0.282522	12.8942	0.0170211	0.759795	0.282642	12.65	0.452823	21.0904	0.562027	26.1274	0.840134	38.4945	0.150561	8.67332	0.42262	18.9255	0.700414	32.3841	0.901379	41.2792
0.282783	12.3797	0.018313	0.784819	0.282908	12.155	0.453075	20.2245	0.562292	25.0545	0.840274	36.9246	0.151234	8.43405	0.422905	18.1798	0.700558	31.0531	0.901504	39.5955
0.283055	11.9059	0.0196372	0.80926	0.283185	11.6986	0.453338	19.4282	0.562569	24.0677	0.84042	35.4785	0.15207	8.1655	0.423201	17.492	0.700709	29.8279	0.901635	38.0444
0.283337	11.4684	0.0209926	0.833127	0.283472	11.2765	0.453611	18.6935	0.562856	23.157	0.840572	34.142	0.15308	7.87634	0.423509	16.8556	0.700865	28.6965	0.901771	36.6109
0.28363	11.063	0.0223777	0.856428	0.28377	10.8849	0.453895	18.0136	0.563155	22.3139	0.840729	32.9032	0.154276	7.57476	0.423828	16.2651	0.701028	27.6484	0.901912	35.282
0.283934	10.6865	0.023791	0.879168	0.284079	10.5207	0.454189	17.3825	0.563464	21.5313	0.840893	31.7519	0.15551	7.30136	0.424159	15.7159	0.701197	26.6749	0.902058	34.0468
0.284249	10.3359	0.0252313	0.90136	0.284356	10.2236	0.454494	16.7953	0.563785	20.8029	0.841062	30.6789	0.156781	7.05253	0.424501	15.2037	0.701372	25.7682	0.90221	32.8958
0.284574	10.0087	0.0266974	0.923014	0.2846	9.98391	0.454809	16.2476	0.564116	20.1234	0.841237	29.6768	0.158087	6.82523	0.424854	14.725	0.701552	24.9218	0.902367	31.8205
0.284909	9.70253	0.0281881	0.944139	0.284805	9.79447	0.455135	15.7355	0.564459	19.4879	0.841418	28.7386	0.159427	6.61691	0.425218	14.2766	0.701739	24.1298	0.902529	30.8138
0.285255	9.41558	0.0297022	0.964747	0.28497	9.64997	0.455471	15.2557	0.564812	18.8924	0.841605	27.8584	0.160799	6.42538	0.425594	13.8558	0.701932	23.3872	0.902696	29.8694
0.285612	9.14609	0.0312386	0.984849	0.285093	9.54657	0.455818	14.8053	0.565176	18.3332	0.841797	27.0312	0.162201	6.24879	0.425981	13.4601	0.702131	22.6894	0.902868	28.9816
0.28598	8.89254	0.0327965	1.00446	0.285173	9.48162	0.456175	14.3817	0.565551	17.8072	0.841995	26.2521	0.163633	6.08552	0.42638	13.0874	0.702336	22.0327	0.903046	28.1456
0.286358	8.65359	0.0343746	1.02358	0.285288	9.38988	0.456542	13.9825	0.565937	17.3115	0.842199	25.5172	0.165093	5.9342	0.426789	12.7358	0.702547	21.4135	0.903229	27.3569
0.286746	8.42803	0.0359721	1.04224	0.285415	9.29228	0.45692	13.6058	0.566334	16.8436	0.842409	24.8229	0.16658	5.79361	0.42721	12.4035	0.702764	20.8286	0.903417	26.6116
0.287145	8.2148	0.0375882	1.06043	0.285589	9.16295	0.457308	13.2498	0.566741	16.4013	0.842625	24.1658	0.168092	5.66272	0.427642	12.089	0.702987	20.2753	0.90361	25.9063
0.287554	8.01293	0.0392218	1.07818	0.285813	9.00479	0.457706	12.9128	0.56716	15.9824	0.842847	23.5431	0.169629	5.54059	0.428085	11.791	0.703216	19.7512	0.903808	25.2379
0.287974	7.82157	0.0408724	1.0955	0.286089	8.82114	0.458114	12.5933	0.567588	15.5853	0.843074	22.9521	0.171189	5.42641	0.428539	11.5082	0.703451	19.2539	0.904012	24.6035
0.288405	7.63992	0.0425389	1.11239	0.286421	8.61567	0.458533	12.29	0.568028	15.2083	0.843307	22.3905	0.172772	5.31947	0.429004	11.2394	0.703693	18.7816	0.904221	24.0006
0.288845	7.4673	0.0442209	1.12887	0.286811	8.39221	0.458962	12.0018	0.568478	14.8499	0.843546	21.8562	0.174376	5.21914	0.42948	10.9838	0.70394	18.3323	0.904435	23.4269
0.289297	7.30306	0.0459174	1.14494	0.287212	8.18091	0.459401	11.7276	0.568939	14.5089	0.84379	21.3472	0.176	5.12484	0.429967	10.7403	0.704193	17.9045	0.904654	22.8804
0.289758	7.14662	0.0476279	1.16063	0.287623	7.98082	0.45985	11.4663	0.56941	14.1839	0.844041	20.8618	0.177643	5.03607	0.430465	10.5082	0.704452	17.4966	0.904878	22.3592
0.29023	6.99746	0.0493518	1.17594	0.288044	7.7911	0.460309	11.2172	0.569892	13.8739	0.844297	20.3984	0.179306	4.95238	0.430908	10.3146	0.704717	17.1073	0.905108	21.8616
0.290712	6.85509	0.0510885	1.19089	0.288476	7.61099	0.460778	10.9793	0.570385	13.5779	0.844559	19.9555	0.180986	4.87338	0.431292	10.1555	0.704988	16.7354	0.905343	21.386
0.291204	6.71909	0.0528373	1.20547	0.288919	7.43978	0.461258	10.752	0.570888	13.295	0.844826	19.5319	0.182683	4.79868	0.431614	10.028	0.705265	16.3797	0.905582	20.931
0.291707	6.58904	0.0545978	1.21971	0.289371	7.27686	0.461747	10.5347	0.571401	13.0244	0.8451	19.1262	0.184396	4.72797	0.431872	9.92958	0.705548	16.0392	0.905827	20.4953
0.29222	6.46458	0.0563694	1.23361	0.289835	7.12165	0.462182	10.3528	0.571925	12.7652	0.845379	18.7374	0.186124	4.66095	0.432063	9.85855	0.705837	15.713	0.906078	20.0777
0.292743	6.34536	0.0581516	1.24718	0.290308	6.97363	0.462558	10.2031	0.572459	12.5168	0.845664	18.3645	0.187868	4.59735	0.432186	9.81366	0.706132	15.4001	0.906333	19.6771
0.293276	6.23109	0.059944	1.26044	0.290792	6.83234	0.462874	10.0827	0.573003	12.2786	0.845954	18.0065	0.189626	4.53693	0.432363	9.74993	0.706433	15.0999	0.906594	19.2925
0.29382	6.12146	0.0617461	1.27338	0.291286	6.69734	0.463126	9.98975	0.573558	12.0499	0.846251	17.6625	0.191397	4.47945	0.432558	9.68167	0.70674	14.8115	0.906859	18.923
0.294373	6.01621	0.0635575	1.28603	0.29179	6.56823	0.463313	9.92256	0.574123	11.8302	0.846553	17.3318	0.193182	4.42473	0.432825	9.5905	0.707053	14.5342	0.90713	18.5677
0.294937	5.9151	0.0653779	1.29839	0.292305	6.44466	0.463433	9.88007	0.574698	11.619	0.84686	17.0136	0.194978	4.37258	0.433166	9.47786	0.707372	14.2675	0.907406	18.2258
0.295511	5.8179	0.0672068	1.31046	0.29283	6.32627	0.463607	9.81969	0.575284	11.4158	0.847174	16.7071	0.196787	4.32283	0.433584	9.34548	0.707697	14.0108	0.907687	17.8965
0.296095	5.72439	0.0690439	1.32226	0.293365	6.21278	0.463797	9.75496	0.575879	11.2202	0.847493	16.4119	0.198608	4.27531	0.434081	9.19529	0.708028	13.7635	0.907974	17.5792
0.296689	5.63439	0.0708888	1.33379	0.29391	6.10389	0.464057	9.66842	0.576485	11.0317	0.847818	16.1272	0.200439	4.2299	0.434662	9.02939	0.708364	13.5251	0.908265	17.2733
0.297293	5.5477	0.0727411	1.34507	0.294465	5.99934	0.46439	9.56134	0.5771	10.8501	0.848148	15.8525	0.202281	4.18646	0.435254	8.87001	0.708707	13.2951	0.908562	16.9781
0.297907	5.46415	0.0746007	1.35609	0.295031	5.89888	0.464798	9.43527	0.577726	10.6748	0.848485	15.5874	0.204133	4.14486	0.435856	8.71678	0.709056	13.0731	0.908863	16.6931
0.29853	5.38359	0.0764673	1.36687	0.295606	5.8023	0.465282	9.29197	0.578279	10.5271	0.848827	15.3312	0.205995	4.10501	0.436469	8.56936	0.70941	12.8588	0.90917	16.4178
0.299164	5.30588	0.0783403	1.37741	0.296192	5.70938	0.465848	9.13332	0.578757	10.4047	0.849174	15.0837	0.207866	4.06678	0.437093	8.42744	0.70977	12.6516	0.909482	16.1517
0.299808	5.23086	0.0802198	1.38772	0.296787	5.61993	0.466423	8.98056	0.579156	10.3059	0.849528	14.8443	0.209746	4.0301	0.437727	8.29073	0.710137	12.4514	0.909799	15.8943
0.300462	5.15841	0.0821053	1.39781	0.297393	5.53377	0.467008	8.83336	0.579474	10.2292	0.849886	14.6127	0.211634	3.99488	0.438371	8.15896	0.710509	12.2577	0.910121	15.6453
0.301125	5.08841	0.0839966	1.40768	0.298008	5.45073	0.467603	8.69143	0.57971	10.1736	0.850251	14.3885	0.213531	3.96102	0.439025	8.03186	0.710887	12.0702	0.910449	15.4042
0.301799	5.02074	0.0858936	1.41734	0.298634	5.37065	0.468207	8.55452	0.579861	10.1383	0.850621	14.1713	0.215436	3.92846	0.439691	7.90922	0.711271	11.8886	0.910781	15.1707
0.302482	4.9553	0.0877959	1.4268	0.299269	5.29338	0.46882	8.42236	0.58008	10.0882	0.850997	13.9608	0.217348	3.89712	0.440366	7.79079	0.71166	11.7127	0.911118	14.9444
0.303175	4.89199	0.0897034	1.43606	0.299915	5.21879	0.469444	8.29472	0.580318	10.0342	0.851379	13.7568	0.219268	3.86694	0.441051	7.67639	0.712056	11.5423	0.911461	14.725
0.303877	4.8307	0.0916159	1.44512	0.30057	5.14675	0.470077	8.17138	0.580645	9.96193	0.851766	13.559	0.221195	3.83786	0.441747	7.56581	0.712457	11.3769	0.911809	14.5121
0.304498	4.77889	0.0935331	1.45399	0.301235	5.07714	0.470719	8.05214	0.581061	9.87214	0.852159	13.367	0.223129	3.80983	0.442453	7.45888	0.712865	11.2166	0.912161	14.3056
0.305033	4.73584	0.0954549	1.46268	0.30191	5.00985	0.47137	7.93679	0.581569	9.76594	0.852557	13.1806	0.225069	3.78278	0.443169	7.35543	0.713278	11.0609	0.912519	14.1051
0.305479	4.70099	0.0973811	1.47119	0.302595	4.94476	0.472032	7.82516	0.582173	9.64457	0.852961	12.9996	0.227015	3.75667	0.443895	7.25529	0.713697	10.9098	0.912882	13.9104
0.305834	4.67391	0.0993115	1.47953	0.303289	4.88179	0.472702	7.71709	0.582874	9.50941	0.85337	12.8237	0.228968	3.73145	0.444632	7.15831	0.714067	10.7816	0.91325	13.7212
0.306097	4.65426	0.101246	1.4877	0.303994	4.82083	0.473382	7.6124	0.583585	9.37846	0.853786	12.6528	0.230926	3.70708	0.445378	7.06436	0.714386	10.6749	0.913623	13.5373
0.306266	4.6418	0.103185	1.49571	0.304708	4.7618	0.474071	7.51094	0.584305	9.25151	0.854206	12.4867	0.23289	3.68351	0.446134	6.9733	0.714652	10.5883	0.914001	13.3585
0.306509	4.62403	0.105127	1.50356	0.305432	4.70461	0.474769	7.41259	0.585035	9.12841	0.854633	12.325	0.23486	3.66072	0.4469	6.88501	0.714864	10.5209	0.914384	13.1846
0.306775	4.60493	0.107073	1.51125	0.306165	4.64919	0.475476	7.31719	0.585775	9.00898	0.855065	12.1678	0.236835	3.63866	0.447676	6.79937	0.71502	10.4719	0.914772	13.0153
0.307139	4.57928	0.109022	1.51879	0.306909	4.59546	0.476193	7.22463	0.586523	8.89307	0.855502	12.0147	0.238814	3.6173	0.448462	6.71627	0.715121	10.4409	0.915166	12.8506
0.307602	4.54738	0.110974	1.52618	0.307662	4.54335	0.476919	7.13479	0.587282	8.78053	0.855945	11.8657	0.240799	3.5966	0.449257	6.63559	0.715266	10.3965	0.915564	12.6901
0.308167	4.5096	0.11293	1.53343	0.308424	4.4928	0.477653	7.04755	0.588049	8.67121	0.856394	11.7205	0.242788	3.57654	0.450063	6.55725	0.715425	10.3488	0.915967	12.5339
0.308837	4.46633	0.114889	1.54054	0.309197	4.44374	0.478397	6.96281	0.588826	8.565	0.856848	11.5791	0.244782	3.5571	0.450878	6.48115	0.715642	10.2846	0.916375	12.3816
0.309614	4.41804	0.116599	1.54663	0.309978	4.39611	0.47915	6.88046	0.589613	8.46176	0.857307	11.4412	0.246781	3.53823	0.451702	6.40719	0.715918	10.2046	0.916789	12.2332
0.310401	4.37116	0.118058	1.55173	0.31077	4.34986	0.479912	6.80042	0.590408	8.36137	0.857772	11.3068	0.248783	3.51992	0.452537	6.3353	0.716255	10.1097	0.917207	12.0885
0.311198	4.32563	0.119266	1.5559	0.311571	4.30493	0.480682	6.72259	0.591213	8.26373	0.858243	11.1758	0.25079	3.50215	0.45338	6.26539	0.716654	10.0007	0.91763	11.9474
0.312004	4.28139	0.120221	1.55917	0.312382	4.26128	0.481462	6.64688	0.592026	8.16872	0.858658	11.0642	0.252801	3.48489	0.454234	6.19739	0.717118	9.87874	0.918059	11.8097
0.31282	4.23839	0.120924	1.56155	0.313202	4.21885	0.48225	6.57321	0.592849	8.07625	0.859014	10.971	0.254815	3.46811	0.455096	6.13122	0.717588	9.75994	0.918492	11.6753
0.313645	4.1966	0.121375	1.56306	0.314032	4.1776	0.483047	6.50151	0.593681	7.98622	0.859312	10.8951	0.256833	3.45181	0.455968	6.06682	0.718063	9.6442	0.91893	11.5442
0.31448	4.15596	0.122022	1.56523	0.314871	4.13748	0.483853	6.4317	0.594521	7.89854	0.859548	10.836	0.258855	3.43596	0.45685	6.00412	0.718544	9.53138	0.919374	11.4161
0.315325	4.11644	0.122726	1.56757	0.31572	4.09846	0.484667	6.36372	0.595371	7.81311	0.859723	10.7929	0.26088	3.42054	0.457741	5.94305	0.71903	9.4214	0.919822	11.2911
0.316179	4.07799	0.123684	1.57072	0.316578	4.06049	0.48549	6.29749	0.59623	7.72987	0.859835	10.7655	0.262909	3.40553	0.458641	5.88357	0.719523	9.31415	0.920217	11.1844
0.317042	4.04057	0.124896	1.57467	0.317446	4.02354	0.486322	6.23295	0.597097	7.64872	0.859997	10.7264	0.264941	3.39093	0.45955	5.8256	0.720021	9.20953	0.920556	11.0952
0.317915	4.00415	0.126363	1.57939	0.318324	3.98758	0.487162	6.17004	0.597973	7.5696	0.860174	10.6843	0.266975	3.3767	0.460468	5.76911	0.720525	9.10744	0.920839	11.0226
0.318798	3.9687	0.128086	1.58484	0.319211	3.95256	0.488011	6.1087	0.598858	7.49244	0.860415	10.6275	0.269013	3.36285	0.461396	5.71403	0.721035	9.0078	0.921064	10.9659
0.31969	3.93417	0.130066	1.59099	0.320108	3.91846	0.488868	6.04889	0.599751	7.41716	0.860722	10.5567	0.271054	3.34935	0.462333	5.66032	0.72155	8.91052	0.92123	10.9246
0.320592	3.90055	0.132047	1.59703	0.321014	3.88524	0.489734	5.99054	0.600653	7.3437	0.861096	10.4724	0.273098	3.3362	0.463278	5.60793	0.722071	8.81553	0.921337	10.8983
0.321503	3.86779	0.134031	1.60296	0.321929	3.85287	0.490608	5.93361	0.601564	7.27199	0.861538	10.3753	0.275144	3.32337	0.464233	5.55681	0.722598	8.72274	0.92149	10.8608
0.322424	3.83587	0.136017	1.60879	0.322855	3.82134	0.49149	5.87804	0.602483	7.20199	0.862051	10.2663	0.277193	3.31086	0.465197	5.50693	0.72313	8.63208	0.921658	10.8204
0.323354	3.80477	0.138005	1.61451	0.323789	3.7906	0.492381	5.8238	0.603411	7.13363	0.862569	10.1598	0.279245	3.29866	0.466169	5.45824	0.723668	8.54349	0.921887	10.7659
0.324294	3.77445	0.139995	1.62013	0.324734	3.76063	0.49328	5.77084	0.604347	7.06686	0.863093	10.0556	0.281299	3.28674	0.46715	5.41071	0.724212	8.45688	0.922179	10.6978
0.325244	3.74489	0.141986	1.62565	0.325687	3.73142	0.494187	5.71911	0.605291	7.00162	0.863622	9.9537	0.283355	3.27512	0.46814	5.36429	0.724761	8.37221	0.922534	10.6166
0.326203	3.71607	0.14398	1.63107	0.326651	3.70293	0.495102	5.66858	0.606244	6.93787	0.864156	9.85404	0.285414	3.26377	0.469139	5.31895	0.725316	8.28941	0.922954	10.5231
0.327171	3.68796	0.145975	1.6364	0.327624	3.67515	0.496025	5.61921	0.607205	6.87556	0.864696	9.75654	0.287475	3.25268	0.470147	5.27465	0.725877	8.20841	0.92344	10.418
0.32815	3.66054	0.147972	1.64164	0.328607	3.64805	0.496957	5.57096	0.608175	6.81464	0.865242	9.66113	0.289538	3.24185	0.471163	5.23137	0.726443	8.12917	0.923931	10.3151
0.329138	3.6338	0.14997	1.64679	0.329599	3.6216	0.497896	5.5238	0.609152	6.75508	0.865792	9.56775	0.291603	3.23126	0.472188	5.18907	0.727015	8.05162	0.924428	10.2144
0.330135	3.6077	0.15197	1.65185	0.330602	3.5958	0.498843	5.47769	0.610138	6.69681	0.866348	9.47633	0.29367	3.22092	0.473221	5.14772	0.727592	7.97572	0.924929	10.1158
0.331143	3.58224	0.153972	1.65683	0.331614	3.57063	0.499798	5.4326	0.611131	6.63982	0.86691	9.3868	0.295739	3.2108	0.474263	5.10729	0.728175	7.90141	0.925435	10.0193
0.33216	3.55739	0.155975	1.66172	0.332635	3.54605	0.500761	5.3885	0.612133	6.58406	0.867477	9.29913	0.29781	3.20091	0.475313	5.06776	0.728764	7.82865	0.925946	9.92469
0.333187	3.53313	0.157979	1.66653	0.333667	3.52207	0.501732	5.34535	0.613143	6.52948	0.868049	9.21325	0.299883	3.19123	0.476372	5.02909	0.729358	7.75739	0.926462	9.83204
0.334223	3.50945	0.159985	1.67126	0.334708	3.49865	0.502711	5.30314	0.61416	6.47607	0.868626	9.1291	0.301958	3.18176	0.477439	4.99126	0.729958	7.68759	0.926982	9.74125
0.33527	3.48633	0.161992	1.67592	0.335759	3.47579	0.503697	5.26183	0.615186	6.42377	0.869209	9.04664	0.304034	3.1725	0.478515	4.95425	0.730563	7.61921	0.927508	9.65227
0.336327	3.46376	0.164	1.6805	0.336821	3.45347	0.504692	5.2214	0.616219	6.37256	0.869797	8.96582	0.306112	3.16343	0.479598	4.91803	0.731174	7.55219	0.928039	9.56505
0.337393	3.44172	0.166009	1.685	0.337892	3.43167	0.505693	5.18181	0.61726	6.32241	0.870391	8.88659	0.308192	3.15455	0.48069	4.88258	0.73179	7.48651	0.928574	9.47953
0.33847	3.4202	0.16802	1.68943	0.338973	3.41038	0.506703	5.14305	0.618309	6.27329	0.87099	8.80891	0.310273	3.14585	0.481791	4.84787	0.732412	7.42213	0.929114	9.39568
0.339557	3.39918	0.170031	1.69379	0.340065	3.38959	0.50772	5.1051	0.619365	6.22516	0.871594	8.73273	0.312356	3.13733	0.482899	4.8139	0.73304	7.35901	0.929659	9.31345
0.340654	3.37865	0.172044	1.69808	0.341167	3.36928	0.508744	5.06792	0.620429	6.178	0.872203	8.65802	0.31444	3.12898	0.484015	4.78062	0.733673	7.29711	0.930209	9.23278
0.341761	3.3586	0.174058	1.7023	0.342279	3.34945	0.509776	5.0315	0.621501	6.13179	0.872818	8.58472	0.316526	3.1208	0.48514	4.74804	0.734311	7.2364	0.930764	9.15363
0.342879	3.33901	0.176073	1.70646	0.343401	3.33007	0.510815	4.99582	0.62258	6.08649	0.873437	8.51281	0.318612	3.11278	0.486272	4.71611	0.734955	7.17685	0.931323	9.07598
0.344007	3.31987	0.178088	1.71055	0.344534	3.31114	0.511862	4.96085	0.623667	6.04207	0.874062	8.44224	0.320701	3.10492	0.487412	4.68484	0.735604	7.11843	0.931887	8.99976
0.345146	3.30118	0.180105	1.71457	0.345678	3.29265	0.512916	4.92658	0.624761	5.99853	0.874693	8.37298	0.32279	3.09721	0.488561	4.6542	0.736259	7.06111	0.932457	8.92495
0.346295	3.28292	0.182122	1.71854	0.346833	3.27459	0.513977	4.89299	0.625863	5.95583	0.875328	8.30499	0.324881	3.08965	0.489717	4.62417	0.73692	7.00485	0.933031	8.85151
0.347456	3.26508	0.184141	1.72244	0.347998	3.25694	0.515045	4.86005	0.626971	5.91394	0.875969	8.23825	0.326972	3.08223	0.490881	4.59474	0.737585	6.94963	0.933609	8.7794
0.348627	3.24765	0.18616	1.72628	0.349174	3.2397	0.516121	4.82776	0.628087	5.87286	0.876615	8.17271	0.329065	3.07495	0.492053	4.56589	0.738256	6.89542	0.934193	8.70859
0.349809	3.23063	0.18818	1.73007	0.350361	3.22286	0.517204	4.79609	0.629211	5.83255	0.877266	8.10835	0.331159	3.06781	0.493232	4.5376	0.738933	6.8422	0.934781	8.63904
0.351002	3.21399	0.190201	1.73379	0.35156	3.2064	0.518294	4.76503	0.630341	5.793	0.877923	8.04514	0.333254	3.0608	0.494419	4.50987	0.739615	6.78994	0.935374	8.57072
0.352207	3.19774	0.192222	1.73746	0.35277	3.19033	0.519391	4.73456	0.631479	5.75418	0.878584	7.98304	0.33535	3.05392	0.495614	4.48267	0.740302	6.73861	0.935972	8.50361
0.353423	3.18187	0.194244	1.74108	0.353992	3.17463	0.520495	4.70466	0.632624	5.71609	0.879251	7.92204	0.337447	3.04716	0.496817	4.456	0.740995	6.68819	0.936575	8.43766
0.354651	3.16636	0.196267	1.74464	0.355225	3.15929	0.521605	4.67533	0.633775	5.67869	0.879923	7.86209	0.339545	3.04052	0.498027	4.42983	0.741693	6.63867	0.937182	8.37285
0.35589	3.15122	0.198291	1.74815	0.35647	3.14431	0.522723	4.64655	0.634934	5.64197	0.8806	7.80318	0.341643	3.034	0.499244	4.40416	0.742397	6.59001	0.937794	8.30915
0.357142	3.13643	0.200315	1.75161	0.357727	3.12968	0.523848	4.61829	0.6361	5.60592	0.881282	7.74528	0.343743	3.02759	0.500469	4.37898	0.743106	6.54219	0.938411	8.24654
0.358406	3.12198	0.202339	1.75501	0.358997	3.11539	0.524979	4.59056	0.637272	5.57051	0.88197	7.68837	0.345843	3.0213	0.501701	4.35427	0.74382	6.49521	0.939032	8.18499
0.359682	3.10787	0.204365	1.75837	0.360279	3.10144	0.526118	4.56334	0.638452	5.53574	0.882662	7.63242	0.347944	3.01511	0.502941	4.33001	0.74454	6.44902	0.939658	8.12447
0.360971	3.0941	0.206391	1.76168	0.361574	3.08782	0.527263	4.53661	0.639638	5.50158	0.883359	7.5774	0.350046	3.00903	0.504188	4.30621	0.745264	6.40362	0.940289	8.06496
0.362273	3.08066	0.208417	1.76494	0.362881	3.07453	0.528414	4.51036	0.640831	5.46802	0.884062	7.5233	0.352148	3.00305	0.505443	4.28284	0.745995	6.35899	0.940925	8.00643
0.363588	3.06753	0.210444	1.76815	0.364202	3.06155	0.529573	4.48458	0.642031	5.43505	0.88477	7.4701	0.354251	2.99718	0.506705	4.2599	0.74673	6.3151	0.941565	7.94886
0.364916	3.05473	0.212471	1.77132	0.365537	3.04889	0.530738	4.45927	0.643237	5.40265	0.885483	7.41776	0.356355	2.99139	0.507973	4.23738	0.747471	6.27195	0.94221	7.89222
0.366258	3.04223	0.214499	1.77444	0.366885	3.03654	0.531909	4.4344	0.64445	5.37081	0.8862	7.36628	0.35846	2.98571	0.509249	4.21526	0.748217	6.22951	0.94286	7.83651
0.367613	3.03004	0.216527	1.77752	0.368247	3.02449	0.533087	4.40996	0.645669	5.33951	0.886923	7.31564	0.360564	2.98011	0.510533	4.19354	0.748968	6.18777	0.943514	7.78169
0.368983	3.01816	0.218556	1.78056	0.369624	3.01274	0.534271	4.38596	0.646895	5.30875	0.887651	7.2658	0.36267	2.97461	0.511823	4.17221	0.749725	6.1467	0.944173	7.72774
0.370367	3.00656	0.220585	1.78355	0.371014	3.00128	0.535462	4.36237	0.648128	5.2785	0.888384	7.21677	0.364776	2.96919	0.51312	4.15126	0.750487	6.10631	0.944837	7.67465
0.371766	2.99527	0.222614	1.7865	0.37242	2.99012	0.53666	4.33919	0.649367	5.24876	0.889122	7.16851	0.366882	2.96386	0.514425	4.13068	0.751254	6.06656	0.945505	7.62239
0.37318	2.98426	0.224644	1.78941	0.373841	2.97924	0.537863	4.3164	0.650612	5.21952	0.889865	7.12101	0.368989	2.95861	0.515736	4.11046	0.752026	6.02745	0.946178	7.57095
0.374609	2.97353	0.226674	1.79228	0.375278	2.96865	0.539073	4.294	0.651863	5.19077	0.890613	7.07425	0.371096	2.95345	0.517054	4.09059	0.752804	5.98896	0.946855	7.5203
0.376054	2.96309	0.228705	1.79511	0.37673	2.95833	0.540289	4.27199	0.653121	5.16248	0.891366	7.02822	0.373204	2.94836	0.51838	4.07107	0.753587	5.95107	0.947537	7.47044
0.377515	2.95292	0.230736	1.7979	0.378198	2.94829	0.541512	4.25034	0.654385	5.13466	0.892124	6.98289	0.375312	2.94335	0.519712	4.05188	0.754374	5.91378	0.948224	7.42134
0.378992	2.94302	0.232767	1.80066	0.379683	2.93852	0.54274	4.22906	0.655656	5.10729	0.892887	6.93827	0.37742	2.93841	0.521051	4.03302	0.755168	5.87708	0.948915	7.37299
0.380485	2.9334	0.234798	1.80337	0.381184	2.92902	0.543975	4.20813	0.656932	5.08036	0.893655	6.89432	0.379529	2.93355	0.522396	4.01449	0.755966	5.84094	0.949611	7.32536
0.381996	2.92404	0.23683	1.80605	0.382703	2.91979	0.545216	4.18754	0.658215	5.05387	0.894428	6.85104	0.381638	2.92876	0.523749	3.99627	0.756769	5.80535	0.950311	7.27846
0.383524	2.91495	0.238862	1.8087	0.384239	2.91082	0.546462	4.1673	0.659503	5.02779	0.895205	6.80841	0.383747	2.92404	0.525108	3.97836	0.757578	5.77031	0.951016	7.23225
0.385069	2.90612	0.240894	1.81131	0.385793	2.9021	0.547715	4.14738	0.660798	5.00213	0.895988	6.76641	0.385857	2.91938	0.526474	3.96074	0.758392	5.73581	0.951726	7.18672
0.386633	2.89754	0.242926	1.81388	0.387365	2.89365	0.548974	4.12779	0.662099	4.97688	0.896776	6.72504	0.387966	2.9148	0.527846	3.94343	0.75921	5.70182	0.95244	7.14187
0.388214	2.88922	0.244959	1.81642	0.388955	2.88544	0.550238	4.10852	0.663405	4.95202	0.897568	6.68428	0.390076	2.91028	0.529225	3.9264	0.760034	5.66835	0.953158	7.09767
0.389814	2.88115	0.246992	1.81893	0.390563	2.87749	0.551509	4.08956	0.664717	4.92754	0.898365	6.64412	0.392186	2.90582	0.53061	3.90966	0.760863	5.63537	0.953881	7.05411
0.391433	2.87333	0.249025	1.8214	0.392191	2.86978	0.552785	4.0709	0.666036	4.90345	0.899168	6.60454	0.394296	2.90142	0.532002	3.89319	0.761697	5.60289	0.954609	7.01119
0.393071	2.86575	0.251058	1.82385	0.393837	2.86232	0.554067	4.05253	0.66736	4.87973	0.899975	6.56554	0.396406	2.89709	0.533401	3.87699	0.762537	5.57088	0.955341	6.96888
0.394728	2.85841	0.253091	1.82626	0.395503	2.85509	0.555355	4.03446	0.66869	4.85637	0.900787	6.5271	0.398516	2.89281	0.534806	3.86105	0.763381	5.53934	0.956078	6.92717
0.396404	2.85132	0.255125	1.82864	0.397189	2.8481	0.556649	4.01667	0.670025	4.83336	0.901603	6.48921	0.400626	2.8886	0.536217	3.84538	0.76423	5.50827	0.956819	6.88606
0.3981	2.84445	0.257158	1.83098	0.398894	2.84134	0.557948	3.99916	0.671366	4.8107	0.902425	6.45186	0.402736	2.88443	0.537635	3.82995	0.765085	5.47764	0.957564	6.84552
0.399815	2.83782	0.259192	1.8333	0.400618	2.83482	0.559253	3.98192	0.672713	4.78839	0.903251	6.41503	0.404847	2.88033	0.539059	3.81478	0.765944	5.44746	0.958315	6.80555
0.401551	2.83141	0.261226	1.83559	0.402363	2.82851	0.560563	3.96495	0.674065	4.7664	0.904082	6.37873	0.406957	2.87628	0.54049	3.79985	0.766808	5.41771	0.959069	6.76614
0.403306	2.82523	0.26326	1.83785	0.404127	2.82243	0.561879	3.94824	0.675423	4.74474	0.904918	6.34293	0.409067	2.87228	0.541926	3.78515	0.767678	5.38838	0.959828	6.72728
0.405081	2.81926	0.265294	1.84008	0.405912	2.81656	0.563201	3.93178	0.676787	4.72341	0.905759	6.30763	0.411177	2.86833	0.543369	3.77069	0.768552	5.35947	0.960591	6.68895
0.406876	2.81351	0.267328	1.84229	0.407716	2.81091	0.564528	3.91558	0.678156	4.70238	0.906605	6.27282	0.413287	2.86443	0.544818	3.75646	0.769431	5.33096	0.961359	6.65115
0.408691	2.80797	0.269362	1.84446	0.40954	2.80547	0.56586	3.89962	0.67953	4.68167	0.907455	6.23849	0.415397	2.86058	0.546273	3.74245	0.770316	5.30286	0.962131	6.61386
0.410525	2.80263	0.271396	1.84661	0.411383	2.80022	0.567198	3.8839	0.68091	4.66125	0.90831	6.20463	0.417507	2.85678	0.547735	3.72867	0.771205	5.27515	0.962908	6.57707
0.412379	2.7975	0.273431	1.84873	0.413247	2.79518	0.568541	3.86842	0.682295	4.64113	0.90917	6.17122	0.419616	2.85303	0.549202	3.71509	0.772099	5.24782	0.963689	6.54078
0.414253	2.79256	0.275465	1.85083	0.415129	2.79033	0.56989	3.85317	0.683685	4.6213	0.910034	6.13827	0.421726	2.84932	0.550676	3.70173	0.772998	5.22087	0.964474	6.50498
0.416146	2.78781	0.2775	1.8529	0.417031	2.78566	0.571243	3.83814	0.68508	4.60175	0.910904	6.10576	0.423835	2.84566	0.552155	3.68858	0.773903	5.19429	0.965264	6.46965
0.418057	2.78324	0.279534	1.85495	0.418951	2.78118	0.572602	3.82334	0.686481	4.58248	0.911778	6.07369	0.425944	2.84204	0.553641	3.67562	0.774812	5.16807	0.966058	6.43479
0.419988	2.77885	0.281569	1.85697	0.42089	2.77688	0.573967	3.80875	0.687887	4.56349	0.912656	6.04204	0.428053	2.83846	0.555132	3.66287	0.775725	5.14221	0.966857	6.40039
0.421936	2.77464	0.283603	1.85896	0.422847	2.77275	0.575336	3.79438	0.689298	4.54476	0.913539	6.01082	0.430161	2.83493	0.55663	3.65031	0.776644	5.1167	0.96766	6.36644
0.423903	2.7706	0.285638	1.86093	0.424822	2.76878	0.57671	3.78022	0.690714	4.52629	0.914427	5.98	0.43227	2.83144	0.558133	3.63794	0.777568	5.09153	0.968467	6.33293
0.425887	2.76672	0.287672	1.86288	0.426814	2.76497	0.57809	3.76626	0.692136	4.50808	0.91532	5.94959	0.434378	2.82799	0.559642	3.62576	0.778496	5.0667	0.969278	6.29985
0.427888	2.763	0.289707	1.8648	0.428823	2.76132	0.579475	3.7525	0.693562	4.49012	0.916217	5.91957	0.436485	2.82458	0.561157	3.61376	0.77943	5.0422	0.970094	6.2672
0.429906	2.75943	0.291741	1.8667	0.430848	2.75782	0.580864	3.73894	0.694993	4.47241	0.917119	5.88994	0.438592	2.8212	0.562678	3.60194	0.780368	5.01803	0.970914	6.23497
0.43194	2.756	0.293776	1.86858	0.43289	2.75446	0.582259	3.72558	0.696429	4.45494	0.918026	5.8607	0.440699	2.81787	0.564205	3.5903	0.781311	4.99417	0.971739	6.20315
0.43399	2.75272	0.29581	1.87044	0.434947	2.75124	0.583658	3.7124	0.69787	4.43771	0.918937	5.83183	0.442806	2.81457	0.565737	3.57883	0.782259	4.97063	0.972568	6.17174
0.436056	2.74957	0.297845	1.87227	0.43702	2.74815	0.585063	3.69941	0.699316	4.42072	0.919852	5.80332	0.444912	2.81131	0.567275	3.56754	0.783211	4.94739	0.973401	6.14072
0.438136	2.74655	0.299879	1.87409	0.439106	2.74519	0.586472	3.68661	0.700767	4.40395	0.920773	5.77518	0.447018	2.80808	0.568819	3.55641	0.784169	4.92446	0.974238	6.11009
0.44023	2.74366	0.301914	1.87588	0.441207	2.74235	0.587886	3.67398	0.702222	4.38741	0.921698	5.7474	0.449123	2.80489	0.570368	3.54544	0.785131	4.90182	0.975079	6.07984
0.442339	2.74088	0.303948	1.87765	0.443322	2.73963	0.589305	3.66153	0.703683	4.37109	0.922627	5.71996	0.451228	2.80174	0.571923	3.53464	0.786098	4.87947	0.975925	6.04996
0.44446	2.73822	0.305982	1.8794	0.44545	2.73702	0.590729	3.64925	0.705148	4.35498	0.923561	5.69287	0.453332	2.79861	0.573484	3.52399	0.78707	4.85741	0.976775	6.02046
0.446595	2.73567	0.308016	1.88113	0.44759	2.73452	0.592158	3.63714	0.706617	4.33909	0.924499	5.66611	0.455436	2.79552	0.57505	3.5135	0.788046	4.83563	0.977629	5.99132
0.448742	2.73322	0.31005	1.88284	0.449742	2.73212	0.593591	3.62519	0.708092	4.32341	0.925443	5.63969	0.45754	2.79246	0.576622	3.50316	0.789028	4.81413	0.978488	5.96254
0.450901	2.73087	0.312085	1.88453	0.451907	2.72981	0.595029	3.61341	0.70957	4.30793	0.92639	5.61359	0.459643	2.78944	0.578199	3.49297	0.790013	4.7929	0.979351	5.9341
0.453071	2.72862	0.314119	1.8862	0.454082	2.7276	0.596471	3.6018	0.711054	4.29266	0.927342	5.58781	0.461745	2.78644	0.579782	3.48293	0.791004	4.77194	0.980217	5.90601
0.455252	2.72645	0.316152	1.88785	0.456268	2.72548	0.597918	3.59033	0.712542	4.27758	0.928299	5.56235	0.463847	2.78347	0.58137	3.47303	0.791999	4.75124	0.981088	5.87826
0.457443	2.72438	0.318186	1.88948	0.458464	2.72344	0.59937	3.57903	0.714034	4.2627	0.92926	5.53719	0.465948	2.78054	0.582964	3.46327	0.792999	4.7308	0.981964	5.85085
0.459645	2.72238	0.32022	1.89109	0.46067	2.72149	0.600826	3.56787	0.715531	4.24801	0.930225	5.51234	0.468049	2.77763	0.584562	3.45366	0.794004	4.71061	0.982843	5.82376
0.461856	2.72047	0.322254	1.89269	0.462886	2.71961	0.602287	3.55687	0.717033	4.2335	0.931195	5.48779	0.470149	2.77475	0.586167	3.44418	0.795013	4.69067	0.983727	5.79699
0.464077	2.71863	0.324287	1.89427	0.465111	2.7178	0.603752	3.54601	0.718539	4.21918	0.932169	5.46354	0.472248	2.7719	0.587776	3.43483	0.796027	4.67097	0.984614	5.77054
0.466306	2.71686	0.32632	1.89583	0.467344	2.71606	0.605221	3.5353	0.720049	4.20505	0.933148	5.43957	0.474347	2.76907	0.589391	3.42562	0.797046	4.65152	0.985506	5.7444
0.468544	2.71516	0.328354	1.89737	0.469585	2.71439	0.606695	3.52472	0.721563	4.19109	0.934131	5.41589	0.476445	2.76628	0.591012	3.41653	0.798069	4.6323	0.986402	5.71856
0.47079	2.71352	0.330387	1.89889	0.471835	2.71278	0.608174	3.51429	0.723082	4.1773	0.935119	5.39248	0.478543	2.76351	0.592637	3.40758	0.799097	4.61332	0.987302	5.69303
0.473043	2.71195	0.33242	1.9004	0.474092	2.71124	0.609656	3.50399	0.724605	4.16369	0.936111	5.36936	0.48064	2.76076	0.594268	3.39875	0.80013	4.59457	0.988206	5.66779
0.475304	2.71043	0.334453	1.9019	0.476356	2.70975	0.611143	3.49383	0.726132	4.15025	0.937107	5.3465	0.482736	2.75804	0.595904	3.39004	0.801167	4.57604	0.989114	5.64285
0.477572	2.70897	0.336486	1.90337	0.478627	2.70831	0.612635	3.4838	0.727664	4.13697	0.938108	5.32391	0.484831	2.75535	0.597545	3.38145	0.802208	4.55774	0.990026	5.61819
0.479847	2.70756	0.338518	1.90483	0.480904	2.70693	0.61413	3.4739	0.729199	4.12386	0.939113	5.30158	0.486926	2.75268	0.599191	3.37298	0.803254	4.53965	0.990943	5.59382
0.482127	2.70621	0.340551	1.90627	0.483188	2.7056	0.61563	3.46413	0.730739	4.1109	0.940123	5.27951	0.48902	2.75003	0.600842	3.36463	0.804305	4.52178	0.991863	5.56972
0.484415	2.7049	0.342583	1.9077	0.485478	2.70431	0.617134	3.45448	0.732283	4.09811	0.941137	5.2577	0.491113	2.7474	0.602499	3.3564	0.80536	4.50412	0.992788	5.54589
0.486708	2.70364	0.344615	1.90911	0.487774	2.70307	0.618642	3.44495	0.733831	4.08547	0.942155	5.23613	0.493205	2.7448	0.60416	3.34827	0.80642	4.48667	0.993716	5.52234
0.489006	2.70242	0.346648	1.91051	0.490075	2.70187	0.620154	3.43555	0.735382	4.07298	0.943177	5.21481	0.495297	2.74223	0.605826	3.34026	0.807484	4.46942	0.994649	5.49905
0.49131	2.70124	0.34868	1.91189	0.492381	2.70071	0.62167	3.42626	0.736938	4.06064	0.944204	5.19373	0.497388	2.73967	0.607498	3.33236	0.808553	4.45238	0.995585	5.47602
0.493619	2.70011	0.350711	1.91326	0.494692	2.69959	0.623191	3.4171	0.738498	4.04846	0.945235	5.17289	0.499478	2.73714	0.609174	3.32456	0.809626	4.43553	0.996526	5.45325
0.495933	2.69901	0.352743	1.91461	0.497008	2.69851	0.624715	3.40805	0.740062	4.03641	0.946271	5.15229	0.501567	2.73462	0.610856	3.31687	0.810704	4.41888	0.99747	5.43073
0.498251	2.69795	0.354774	1.91594	0.499329	2.69747	0.626244	3.39911	0.741629	4.02451	0.94731	5.13192	0.503656	2.73213	0.612542	3.30929	0.811786	4.40242	0.998419	5.40846
0.500574	2.69692	0.356806	1.91727	0.501654	2.69645	0.627776	3.39028	0.743201	4.01275	0.948354	5.11177	0.505743	2.72966	0.614233	3.30181	0.812873	4.38615	0.999371	5.38643
0.502901	2.69592	0.358837	1.91858	0.503983	2.69547	0.629312	3.38156	0.744776	4.00113	0.949402	5.09185	0.50783	2.72721	0.61593	3.29442	0.813964	4.37007	1.00033	5.36464
0.505233	2.69496	0.360868	1.91987	0.506316	2.69452	0.630853	3.37295	0.746355	3.98964	0.950455	5.07215	0.509916	2.72478	0.61763	3.28714	0.81506	4.35417		
0.507568	2.69403	0.362899	1.92115	0.508653	2.6936	0.632397	3.36445	0.747938	3.97829	0.951511	5.05266	0.512001	2.72236	0.619336	3.27996	0.81616	4.33846		
0.509906	2.69312	0.364929	1.92242	0.510993	2.69271	0.633945	3.35605	0.749525	3.96707	0.952572	5.0334	0.514085	2.71997	0.621047	3.27287	0.817264	4.32292		
0.512249	2.69225	0.36696	1.92368	0.513337	2.69185	0.635497	3.34775	0.751115	3.95598	0.953637	5.01434	0.516168	2.7176	0.622762	3.26587	0.818373	4.30755		
0.514594	2.69139	0.36899	1.92492	0.515684	2.69101	0.637053	3.33956	0.752709	3.94502	0.954706	4.99549	0.518251	2.71524	0.624482	3.25897	0.819486	4.29236		
0.516943	2.69057	0.37102	1.92615	0.518034	2.69019	0.638612	3.33146	0.754307	3.93418	0.955779	4.97684	0.520332	2.7129	0.626207	3.25216	0.820604	4.27734		
0.519295	2.68977	0.37305	1.92736	0.520388	2.6894	0.640176	3.32347	0.755908	3.92347	0.956857	4.95839	0.522413	2.71058	0.627937	3.24544	0.821726	4.26249		
0.52165	2.68899	0.375079	1.92856	0.522744	2.68863	0.641743	3.31556	0.757513	3.91287	0.957939	4.94015	0.524492	2.70828	0.629671	3.2388	0.822852	4.2478		
0.524008	2.68823	0.377109	1.92976	0.525103	2.68789	0.643314	3.30776	0.759122	3.9024	0.959024	4.9221	0.526571	2.706	0.63141	3.23226	0.823983	4.23328		
0.526368	2.68749	0.379138	1.93093	0.527464	2.68716	0.644888	3.30004	0.760734	3.89205	0.960114	4.90424	0.528648	2.70373	0.633153	3.2258	0.825118	4.21892		
0.528731	2.68678	0.381167	1.9321	0.529829	2.68645	0.646466	3.29242	0.762349	3.88181	0.961208	4.88657	0.530725	2.70147	0.634901	3.21942	0.826257	4.20471		
0.531096	2.68608	0.383196	1.93325	0.532195	2.68576	0.648048	3.28489	0.763968	3.87169	0.962307	4.86909	0.5328	2.69924	0.636654	3.21313	0.8274	4.19066		
0.533464	2.6854	0.385225	1.9344	0.534564	2.68509	0.649633	3.27745	0.765591	3.86167	0.963409	4.8518	0.534875	2.69702	0.638411	3.20692	0.828548	4.17676		
0.535834	2.68474	0.387254	1.93553	0.536935	2.68444	0.651223	3.2701	0.767216	3.85177	0.964515	4.83469	0.536949	2.69482	0.640173	3.20078	0.8297	4.16302		
0.538206	2.6841	0.389282	1.93665	0.539308	2.6838	0.652815	3.26283	0.768846	3.84198	0.965626	4.81775	0.539021	2.69263	0.641939	3.19473	0.830857	4.14942		
0.540581	2.68347	0.39131	1.93775	0.541683	2.68318	0.654411	3.25564	0.770478	3.8323	0.96674	4.801	0.541093	2.69045	0.643709	3.18876	0.832017	4.13598		
0.542957	2.68286	0.393338	1.93885	0.54406	2.68258	0.656011	3.24855	0.772114	3.82272	0.967859	4.78441	0.543164	2.6883	0.645484	3.18286	0.833182	4.12267		
0.545335	2.68226	0.395366	1.93994	0.546439	2.68198	0.657614	3.24153	0.773754	3.81325	0.968981	4.768	0.545233	2.68615	0.647264	3.17704	0.834351	4.10951		
0.547715	2.68167	0.397393	1.94101	0.54882	2.68141	0.659221	3.23459	0.775396	3.80387	0.970108	4.75176	0.547302	2.68402	0.649048	3.17129	0.835525	4.09649		
0.550096	2.6811	0.39942	1.94208	0.551202	2.68084	0.660831	3.22774	0.777042	3.79461	0.971238	4.73569	0.549369	2.68191	0.650836	3.16562	0.836702	4.08361		
0.552479	2.68055	0.401447	1.94313	0.553586	2.68029	0.662445	3.22096	0.778691	3.78543	0.972373	4.71978	0.551436	2.67981	0.652629	3.16002	0.837884	4.07087		
0.554864	2.68	0.403474	1.94417	0.555972	2.67975	0.664062	3.21426	0.780343	3.77636	0.973512	4.70403	0.553501	2.67772	0.654425	3.15449	0.83907	4.05826		
0.55725	2.67947	0.405501	1.9452	0.558359	2.67923	0.665682	3.20764	0.781999	3.76739	0.974654	4.68845	0.555566	2.67565	0.656227	3.14903	0.84026	4.04579		
0.559638	2.67895	0.407527	1.94623	0.560747	2.67871	0.667306	3.20109	0.783657	3.75851	0.975801	4.67302	0.557629	2.67359	0.658032	3.14364	0.841455	4.03344		
0.562027	2.67844	0.409553	1.94724	0.563137	2.67821	0.668933	3.19462	0.785319	3.74972	0.976951	4.65775	0.559691	2.67154	0.659842	3.13831	0.842653	4.02123		
0.564418	2.67794	0.411579	1.94824	0.565528	2.67771	0.670563	3.18822	0.786984	3.74103	0.978106	4.64263	0.561752	2.66951	0.661656	3.13306	0.843856	4.00914		
0.566809	2.67745	0.413605	1.94923	0.56792	2.67723	0.672197	3.18189	0.788651	3.73243	0.979264	4.62766	0.563812	2.66749	0.663474	3.12787	0.845063	3.99718		
0.569202	2.67698	0.41563	1.95022	0.570313	2.67676	0.673834	3.17564	0.790322	3.72391	0.980427	4.61284	0.565871	2.66548	0.665296	3.12274	0.846273	3.98535		
0.571596	2.67651	0.417656	1.95119	0.572708	2.67629	0.675474	3.16945	0.791996	3.71549	0.981593	4.59818	0.567929	2.66348	0.667122	3.11768	0.847488	3.97363		
0.573991	2.67605	0.419681	1.95215	0.575103	2.67584	0.677118	3.16334	0.793673	3.70715	0.982763	4.58365	0.569986	2.6615	0.668952	3.11268	0.848707	3.96204		
0.576387	2.67559	0.421705	1.95311	0.5775	2.67539	0.678765	3.15729	0.795353	3.6989	0.983937	4.56927	0.572041	2.65953	0.670787	3.10774	0.849931	3.95057		
0.578784	2.67515	0.42373	1.95405	0.579897	2.67495	0.680415	3.1513	0.797036	3.69074	0.985115	4.55503	0.574096	2.65757	0.672625	3.10287	0.851158	3.93921		
0.581182	2.67472	0.425754	1.95499	0.582295	2.67452	0.682068	3.14539	0.798721	3.68265	0.986297	4.54094	0.576149	2.65562	0.674468	3.09805	0.852389	3.92798		
0.583581	2.67429	0.427778	1.95591	0.584695	2.67409	0.683725	3.13954	0.80041	3.67465	0.987483	4.52698	0.578202	2.65368	0.676315	3.0933	0.853625	3.91685		
0.58598	2.67387	0.429802	1.95683	0.587095	2.67368	0.685384	3.13375	0.802102	3.66674	0.988672	4.51315	0.580253	2.65176	0.678165	3.0886	0.854864	3.90584		
0.588381	2.67346	0.431826	1.95774	0.589495	2.67327	0.687047	3.12803	0.803796	3.6589	0.989866	4.49947	0.582303	2.64985	0.68002	3.08396	0.856108	3.89494		
0.590782	2.67305	0.433849	1.95864	0.591897	2.67287	0.688713	3.12237	0.805493	3.65114	0.991063	4.48591	0.584352	2.64794	0.681878	3.07938	0.857355	3.88415		
0.593184	2.67265	0.435873	1.95953	0.594299	2.67247	0.690382	3.11677	0.807193	3.64346	0.992264	4.47248	0.5864	2.64605	0.68374	3.07485	0.858607	3.87347		
0.595587	2.67226	0.437895	1.96041	0.596702	2.67208	0.692054	3.11123	0.808896	3.63585	0.993469	4.45919	0.588447	2.64417	0.685606	3.07038	0.859862	3.8629		
0.59799	2.67187	0.439918	1.96129	0.599105	2.6717	0.693729	3.10575	0.810601	3.62832	0.994678	4.44602	0.590492	2.6423	0.687476	3.06596	0.861122	3.85243		
0.600394	2.67149	0.441941	1.96215	0.601509	2.67132	0.695407	3.10034	0.81231	3.62087	0.99589	4.43298	0.592537	2.64044	0.68935	3.06159	0.862385	3.84207		
0.602798	2.67112	0.443963	1.96301	0.603914	2.67095	0.697088	3.09498	0.814021	3.61349	0.997106	4.42006	0.59458	2.63859	0.691228	3.05728	0.863653	3.83181		
0.605203	2.67075	0.445985	1.96386	0.606319	2.67058	0.698773	3.08967	0.815734	3.60618	0.998326	4.40727	0.596622	2.63675	0.693109	3.05302	0.864924	3.82166		
0.607608	2.67038	0.448006	1.9647	0.608725	2.67022	0.70046	3.08443	0.817451	3.59895	0.99955	4.39459	0.598664	2.63492	0.694994	3.04881	0.8662	3.8116		
0.610014	2.67002	0.450028	1.96554	0.611131	2.66986	0.70215	3.07924	0.81917	3.59178	1.00078	4.38204	0.600704	2.63311	0.696883	3.04465	0.867479	3.80165		
0.61242	2.66967	0.452049	1.96636	0.613537	2.66951	0.703844	3.0741	0.820891	3.58468			0.602742	2.6313	0.698775	3.04054	0.868762	3.79179		
0.614827	2.66932	0.45407	1.96718	0.615944	2.66916	0.70554	3.06902	0.822615	3.57766			0.60478	2.6295	0.700672	3.03649	0.870049	3.78203		
0.617234	2.66897	0.456091	1.96799	0.618351	2.66881	0.707239	3.064	0.824342	3.5707			0.606817	2.62771	0.702571	3.03247	0.871341	3.77236		
0.619641	2.66863	0.458111	1.9688	0.620758	2.66847	0.708942	3.05902	0.826071	3.56381			0.608852	2.62593	0.704475	3.02851	0.872636	3.76279		
0.622049	2.66829	0.460131	1.96959	0.623166	2.66814	0.710647	3.0541	0.827803	3.55698			0.610887	2.62416	0.706381	3.02459	0.873934	3.75331		
0.624456	2.66796	0.462151	1.97038	0.625574	2.6678	0.712355	3.04924	0.829537	3.55022			0.61292	2.6224	0.708292	3.02072	0.875237	3.74393		
0.626865	2.66763	0.464171	1.97116	0.627982	2.66748	0.714066	3.04442	0.831274	3.54352			0.614952	2.62064	0.710206	3.0169	0.876544	3.73463		
0.629273	2.6673	0.466191	1.97194	0.630391	2.66715	0.71578	3.03965	0.833013	3.53689			0.616983	2.6189	0.712123	3.01312	0.877854	3.72543		
0.631681	2.66698	0.46821	1.9727	0.632799	2.66683	0.717497	3.03493	0.834755	3.53032			0.619013	2.61717	0.714044	3.00938	0.879169	3.71631		
0.63409	2.66666	0.470229	1.97346	0.635208	2.66651	0.719216	3.03027	0.836499	3.52381			0.621042	2.61544	0.715968	3.00569	0.880487	3.70728		
0.636499	2.66634	0.472247	1.97421	0.637617	2.66619	0.720939	3.02565	0.838246	3.51736			0.62307	2.61373	0.717896	3.00204	0.881809	3.69834		
0.638907	2.66602	0.474266	1.97496	0.640026	2.66588	0.722664	3.02107	0.839995	3.51098			0.625097	2.61202	0.719827	2.99843	0.883135	3.68948		
0.641316	2.66571	0.476284	1.9757	0.642435	2.66557	0.724393	3.01655	0.841746	3.50465			0.627122	2.61032	0.721761	2.99487	0.884465	3.68071		
0.643725	2.6654	0.478302	1.97643	0.644843	2.66526	0.726124	3.01207	0.843499	3.49838			0.629147	2.60863	0.723699	2.99134	0.885798	3.67202		
0.646134	2.6651	0.48032	1.97716	0.647252	2.66496	0.727858	3.00764	0.845255	3.49217			0.63117	2.60695	0.72564	2.98786	0.887135	3.66342		
0.648543	2.66479	0.482337	1.97788	0.649661	2.66465	0.729594	3.00326	0.847014	3.48601			0.633192	2.60528	0.727584	2.98441	0.888477	3.6549		
0.650952	2.66449	0.484354	1.97859	0.65207	2.66435	0.731334	2.99892	0.848774	3.47991			0.635213	2.60361	0.729532	2.98101	0.889821	3.64645		
0.653361	2.66419	0.486371	1.9793	0.654479	2.66405	0.733077	2.99462	0.850537	3.47387			0.637234	2.60196	0.731482	2.97765	0.89117	3.63809		
0.65577	2.66389	0.488388	1.97999	0.656888	2.66375	0.734822	2.99037	0.852302	3.46788			0.639253	2.60031	0.733436	2.97432	0.892522	3.6298		
0.658178	2.6636	0.490404	1.98069	0.659296	2.66346	0.73657	2.98616	0.854069	3.46195			0.641271	2.59867	0.735393	2.97103	0.893879	3.6216		
0.660587	2.6633	0.492421	1.98137	0.661705	2.66316	0.738321	2.98199	0.855838	3.45607			0.643287	2.59704	0.737353	2.96778	0.895238	3.61346		
0.662995	2.66301	0.494436	1.98206	0.664113	2.66287	0.740074	2.97787	0.85761	3.45024			0.645303	2.59541	0.739316	2.96456	0.896602	3.60541		
0.665404	2.66272	0.496452	1.98273	0.666521	2.66258	0.741831	2.97379	0.859384	3.44447			0.647318	2.5938	0.741282	2.96138	0.897969	3.59743		
0.667811	2.66242	0.498467	1.9834	0.668929	2.66229	0.74359	2.96975	0.86116	3.43875			0.649332	2.59219	0.743251	2.95824	0.89934	3.58953		
0.670219	2.66214	0.500483	1.98406	0.671337	2.662	0.745352	2.96575	0.862938	3.43307			0.651345	2.59059	0.745224	2.95513	0.900715	3.58169		
0.672627	2.66185	0.502497	1.98472	0.673744	2.66171	0.747117	2.96179	0.864718	3.42745			0.653356	2.58899	0.747199	2.95205	0.902094	3.57393		
0.675034	2.66156	0.504512	1.98537	0.676151	2.66143	0.748884	2.95788	0.8665	3.42188			0.655367	2.58741	0.749177	2.94901	0.903476	3.56625		
0.677441	2.66127	0.506526	1.98602	0.678558	2.66114	0.750655	2.954	0.868284	3.41635			0.657377	2.58583	0.751158	2.94601	0.904861	3.55863		
0.679847	2.66099	0.50854	1.98666	0.680964	2.66086	0.752428	2.95016	0.870071	3.41088			0.659385	2.58426	0.753142	2.94303	0.906251	3.55108		
0.682253	2.6607	0.510554	1.98729	0.68337	2.66057	0.754203	2.94636	0.871859	3.40545			0.661393	2.5827	0.755128	2.94009	0.907644	3.5436		
0.684659	2.66042	0.512568	1.98792	0.685776	2.66029	0.755982	2.9426	0.873649	3.40007			0.6634	2.58114	0.757118	2.93718	0.909041	3.53619		
0.687065	2.66013	0.514581	1.98854	0.688181	2.66	0.757763	2.93887	0.875442	3.39474			0.665405	2.5796	0.75911	2.93431	0.910441	3.52885		
0.689469	2.65985	0.516594	1.98916	0.690586	2.65972	0.759548	2.93519	0.877236	3.38945			0.66741	2.57806	0.761105	2.93146	0.911845	3.52158		
0.691874	2.65957	0.518607	1.98977	0.69299	2.65944	0.761334	2.93154	0.879032	3.38421			0.669414	2.57652	0.763103	2.92865	0.913253	3.51437		
0.694278	2.65928	0.520619	1.99038	0.695393	2.65915	0.763124	2.92792	0.88083	3.37901			0.671417	2.575	0.765103	2.92586	0.914664	3.50722		
0.696681	2.659	0.522632	1.99098	0.697797	2.65887	0.764917	2.92435	0.882631	3.37386			0.673418	2.57348	0.767107	2.92311	0.916079	3.50014		
0.699084	2.65872	0.524644	1.99157	0.700199	2.65859	0.766712	2.92081	0.884433	3.36875			0.675419	2.57197	0.769112	2.92038	0.917498	3.49313		
0.701486	2.65843	0.526655	1.99216	0.702601	2.6583	0.76851	2.9173	0.886236	3.36368			0.677419	2.57047	0.771121	2.91769	0.91892	3.48618		
0.703888	2.65815	0.528667	1.99275	0.705003	2.65802	0.77031	2.91383	0.888042	3.35866			0.679418	2.56897	0.773132	2.91502	0.920345	3.47929		
0.706289	2.65787	0.530678	1.99333	0.707404	2.65773	0.772114	2.9104	0.88985	3.35368			0.681416	2.56748	0.775145	2.91238	0.921775	3.47246		
0.70869	2.65758	0.532689	1.99391	0.709804	2.65745	0.77392	2.907	0.891659	3.34874			0.683413	2.566	0.777161	2.90977	0.923207	3.46569		
0.711089	2.6573	0.5347	1.99448	0.712203	2.65716	0.77573	2.90363	0.893471	3.34384			0.68541	2.56452	0.77918	2.90718	0.924644	3.45899		
0.713488	2.65701	0.53671	1.99504	0.714602	2.65688	0.777541	2.9003	0.895284	3.33898			0.687405	2.56305	0.781201	2.90463	0.926084	3.45234		
0.715887	2.65672	0.53872	1.9956	0.717	2.65659	0.779356	2.897	0.897099	3.33417			0.689399	2.56159	0.783224	2.9021	0.927527	3.44575		
0.718284	2.65644	0.54073	1.99616	0.719397	2.6563	0.781174	2.89373	0.898915	3.32939			0.691393	2.56013	0.78525	2.89959	0.928974	3.43923		
0.720681	2.65615	0.54274	1.99671	0.721793	2.65601	0.782994	2.8905	0.900734	3.32465			0.693386	2.55868	0.787278	2.89712	0.930425	3.43276		
0.723077	2.65586	0.544749	1.99726	0.724188	2.65572	0.784818	2.8873	0.902554	3.31995			0.695377	2.55724	0.789308	2.89466	0.931879	3.42634		
0.725472	2.65557	0.546758	1.9978	0.726583	2.65543	0.786644	2.88413	0.904376	3.31529			0.697368	2.55581	0.791341	2.89224	0.933336	3.41999		
0.727866	2.65527	0.548767	1.99834	0.728977	2.65514	0.788473	2.881	0.906199	3.31067			0.699359	2.55438	0.793376	2.88983	0.934797	3.41369		
0.730259	2.65498	0.550776	1.99887	0.731369	2.65484	0.790305	2.87789	0.908024	3.30608			0.701348	2.55296	0.795414	2.88746	0.936262	3.40744		
0.732651	2.65469	0.552784	1.9994	0.733761	2.65455	0.792139	2.87482	0.909851	3.30154			0.703336	2.55154	0.797453	2.8851	0.93773	3.40125		
0.735042	2.65439	0.554792	1.99992	0.736152	2.65425	0.793977	2.87178	0.91168	3.29702			0.705324	2.55013	0.799495	2.88277	0.939202	3.39511		
0.737432	2.65409	0.5568	2.00044	0.738541	2.65395	0.795818	2.86877	0.91351	3.29255			0.707311	2.54873	0.801539	2.88046	0.940677	3.38903		
0.739821	2.65379	0.558807	2.00095	0.74093	2.65365	0.797661	2.86579	0.915342	3.28811			0.709297	2.54734	0.803585	2.87818	0.942155	3.383		
0.742209	2.65349	0.560815	2.00146	0.743317	2.65335	0.799507	2.86284	0.917175	3.28371			0.711282	2.54595	0.805633	2.87592	0.943637	3.37703		
0.744596	2.65318	0.562822	2.00197	0.745703	2.65304	0.801357	2.85992	0.91901	3.27934			0.713267	2.54456	0.807683	2.87368	0.945123	3.3711		
0.746982	2.65288	0.564828	2.00247	0.748088	2.65273	0.803209	2.85703	0.920847	3.275			0.715251	2.54319	0.809735	2.87146	0.946611	3.36523		
0.749366	2.65257	0.566835	2.00297	0.750472	2.65242	0.805065	2.85418	0.922685	3.2707			0.717234	2.54182	0.81179	2.86927	0.948104	3.35941		
0.751749	2.65226	0.568841	2.00346	0.752855	2.65211	0.806923	2.85135	0.924525	3.26644			0.719216	2.54046	0.813846	2.86709	0.9496	3.35364		
0.754131	2.65194	0.570847	2.00395	0.755236	2.65179	0.808785	2.84855	0.926366	3.2622			0.721197	2.5391	0.815904	2.86494	0.951099	3.34792		
0.756511	2.65162	0.572853	2.00444	0.757616	2.65148	0.810649	2.84577	0.928209	3.258			0.723178	2.53775	0.817964	2.86281	0.952601	3.34224		
0.75889	2.65131	0.574858	2.00492	0.759994	2.65116	0.812517	2.84303	0.930053	3.25383			0.725158	2.5364	0.820026	2.8607	0.954107	3.33662		
0.761268	2.65098	0.576863	2.00539	0.762371	2.65083	0.814388	2.84032	0.931899	3.2497			0.727137	2.53507	0.82209	2.85861	0.955617	3.33105		
0.763644	2.65066	0.578868	2.00587	0.764747	2.65051	0.816262	2.83763	0.933746	3.2456			0.729116	2.53373	0.824156	2.85653	0.95713	3.32552		
0.766019	2.65033	0.580873	2.00634	0.767121	2.65018	0.818139	2.83498	0.935595	3.24152			0.731094	2.53241	0.826223	2.85448	0.958646	3.32004		
0.768392	2.65	0.582877	2.0068	0.769493	2.64984	0.82002	2.83235	0.937445	3.23748			0.733071	2.53109	0.828293	2.85245	0.960166	3.31461		
0.770764	2.64966	0.584881	2.00726	0.771864	2.64951	0.821903	2.82975	0.939296	3.23347			0.735048	2.52977	0.830364	2.85044	0.961689	3.30922		
0.773133	2.64932	0.586885	2.00772	0.774233	2.64917	0.82379	2.82718	0.941149	3.22949			0.737024	2.52847	0.832436	2.84844	0.963215	3.30388		
0.775502	2.64898	0.588889	2.00817	0.7766	2.64882	0.82568	2.82463	0.943004	3.22555			0.738999	2.52717	0.834511	2.84647	0.964745	3.29859		
0.777868	2.64864	0.590892	2.00862	0.778966	2.64847	0.827574	2.82211	0.944859	3.22163			0.740974	2.52587	0.836587	2.84451	0.966278	3.29334		
0.780232	2.64829	0.592895	2.00907	0.781329	2.64812	0.829471	2.81962	0.946716	3.21774			0.742948	2.52458	0.838665	2.84257	0.967815	3.28814		
0.782595	2.64793	0.594898	2.00951	0.783691	2.64777	0.831371	2.81716	0.948575	3.21388			0.744921	2.5233	0.840744	2.84065	0.969355	3.28298		
0.784956	2.64757	0.596901	2.00995	0.786051	2.64741	0.833274	2.81473	0.950435	3.21004			0.746894	2.52202	0.842825	2.83874	0.970898	3.27786		
0.787315	2.64721	0.598903	2.01039	0.788409	2.64704	0.835182	2.81232	0.952296	3.20624			0.748866	2.52075	0.844908	2.83685	0.972445	3.27279		
0.789672	2.64684	0.600905	2.01082	0.790765	2.64667	0.837092	2.80994	0.954158	3.20247			0.750838	2.51949	0.846992	2.83498	0.973995	3.26776		
0.792027	2.64647	0.602907	2.01125	0.793119	2.6463	0.839007	2.80758	0.956022	3.19872			0.752809	2.51823	0.849077	2.83313	0.975548	3.26277		
0.794379	2.6461	0.604908	2.01167	0.795471	2.64592	0.840924	2.80525	0.957887	3.195			0.75478	2.51698	0.851164	2.83129	0.977105	3.25782		
0.79673	2.64571	0.606909	2.01209	0.79782	2.64554	0.842846	2.80295	0.959754	3.19131			0.75675	2.51573	0.853253	2.82947	0.978665	3.25292		
0.799078	2.64533	0.60891	2.01251	0.800167	2.64515	0.844771	2.80067	0.961621	3.18764			0.758719	2.51449	0.855343	2.82766	0.980228	3.24806		
0.801424	2.64494	0.610911	2.01292	0.802512	2.64475	0.8467	2.79843	0.96349	3.184			0.760688	2.51325	0.857434	2.82587	0.981795	3.24324		
0.803768	2.64454	0.612912	2.01333	0.804855	2.64435	0.848632	2.7962	0.96536	3.18039			0.762656	2.51202	0.859526	2.82409	0.983365	3.23846		
0.806109	2.64414	0.614912	2.01374	0.807195	2.64395	0.850569	2.79401	0.967232	3.1768			0.764624	2.5108	0.86162	2.82233	0.984938	3.23371		
0.808448	2.64373	0.616912	2.01414	0.809533	2.64354	0.852509	2.79183	0.969104	3.17324			0.766591	2.50958	0.863715	2.82059	0.986515	3.22901		
0.810784	2.64332	0.618911	2.01455	0.811868	2.64312	0.854453	2.78969	0.970978	3.16971			0.768558	2.50837	0.865812	2.81886	0.988094	3.22435		
0.813118	2.6429	0.620911	2.01494	0.8142	2.6427	0.856401	2.78757	0.972853	3.1662			0.770524	2.50716	0.86791	2.81714	0.989678	3.21973		
0.815449	2.64247	0.62291	2.01534	0.81653	2.64227	0.858354	2.78548	0.974729	3.16272			0.77249	2.50596	0.870008	2.81544	0.991264	3.21514		
0.817777	2.64204	0.624909	2.01573	0.818857	2.64183	0.86031	2.78341	0.976606	3.15926			0.774455	2.50477	0.872109	2.81375	0.992854	3.2106		
0.820102	2.6416	0.626908	2.01612	0.821181	2.64139	0.86227	2.78137	0.978485	3.15582			0.77642	2.50358	0.87421	2.81208	0.994447	3.20609		
0.822425	2.64115	0.628906	2.0165	0.823502	2.64094	0.864235	2.77935	0.980364	3.15241			0.778384	2.50239	0.876312	2.81042	0.996043	3.20162		
0.824745	2.6407	0.630904	2.01688	0.82582	2.64049	0.866203	2.77736	0.982245	3.14902			0.780348	2.50122	0.878416	2.80877	0.997643	3.19719		
0.827061	2.64024	0.632902	2.01726	0.828135	2.64003	0.868176	2.7754	0.984127	3.14566			0.782312	2.50004	0.88052	2.80714	0.999246	3.19279		
0.829375	2.63978	0.6349	2.01764	0.830448	2.63956	0.870153	2.77346	0.98601	3.14232			0.784275	2.49888	0.882626	2.80552	1.00085	3.18843		
0.831685	2.63931	0.636897	2.01801	0.832757	2.63908	0.872135	2.77154	0.987894	3.13901			0.786237	2.49771	0.884733	2.80391				
0.833993	2.63883	0.638894	2.01838	0.835062	2.6386	0.874121	2.76965	0.989779	3.13571			0.7882	2.49656	0.88684	2.80232				
0.836297	2.63834	0.640891	2.01874	0.837365	2.63811	0.876112	2.76779	0.991665	3.13244			0.790162	2.49541	0.888949	2.80073				
0.838597	2.63784	0.642888	2.01911	0.839664	2.63761	0.878107	2.76595	0.993552	3.12919			0.792123	2.49426	0.891059	2.79916				
0.840895	2.63734	0.644884	2.01947	0.84196	2.6371	0.880106	2.76414	0.99544	3.12597			0.794084	2.49313	0.893169	2.79761				
0.843189	2.63683	0.64688	2.01983	0.844252	2.63659	0.882111	2.76235	0.99733	3.12276			0.796045	2.49199	0.89528	2.79606				
0.845479	2.63631	0.648876	2.02018	0.846541	2.63607	0.88412	2.76059	0.99922	3.11958			0.798005	2.49086	0.897393	2.79453				
0.847766	2.63578	0.650872	2.02053	0.848826	2.63554	0.886134	2.75885	1.00111	3.11642			0.799965	2.48974	0.899506	2.793				
0.850049	2.63525	0.652867	2.02088	0.851107	2.635	0.888152	2.75714					0.801925	2.48862	0.90162	2.79149				
0.852328	2.6347	0.654862	2.02123	0.853385	2.63445	0.890175	2.75545					0.803884	2.48751	0.903734	2.78999				
0.854604	2.63415	0.656857	2.02157	0.855659	2.63389	0.892204	2.75378					0.805843	2.4864	0.90585	2.7885				
0.856876	2.63359	0.658851	2.02191	0.857929	2.63333	0.894237	2.75215					0.807801	2.4853	0.907966	2.78702				
0.859144	2.63302	0.660846	2.02225	0.860195	2.63276	0.896275	2.75053					0.80976	2.48421	0.910083	2.78555				
0.861408	2.63244	0.66284	2.02259	0.862457	2.63217	0.898319	2.74894					0.811717	2.48312	0.912201	2.7841				
0.863668	2.63186	0.664834	2.02292	0.864715	2.63158	0.900367	2.74738					0.813675	2.48203	0.914319	2.78265				
0.865924	2.63126	0.666827	2.02325	0.866969	2.63098	0.902421	2.74584					0.815632	2.48095	0.916438	2.78121				
0.868175	2.63066	0.668821	2.02358	0.869219	2.63037	0.904479	2.74432					0.817589	2.47987	0.918557	2.77978				
0.870423	2.63004	0.670814	2.0239	0.871465	2.62975	0.906544	2.74283					0.819546	2.4788	0.920678	2.77837				
0.872666	2.62942	0.672806	2.02423	0.873706	2.62913	0.908613	2.74136					0.821503	2.47774	0.922798	2.77696				
0.874906	2.62878	0.674799	2.02455	0.875943	2.62849	0.910687	2.73992					0.823459	2.47668	0.92492	2.77556				
0.87714	2.62814	0.676791	2.02486	0.878176	2.62784	0.912767	2.7385					0.825415	2.47563	0.927041	2.77417				
0.879371	2.62749	0.678783	2.02518	0.880405	2.62719	0.914852	2.73711					0.827371	2.47458	0.929163	2.77279				
0.881597	2.62683	0.680775	2.02549	0.882629	2.62652	0.916943	2.73574					0.829326	2.47353	0.931286	2.77142				
0.883819	2.62616	0.682767	2.0258	0.884848	2.62584	0.919039	2.73439					0.831281	2.47249	0.933409	2.77006				
0.886036	2.62548	0.684758	2.02611	0.887064	2.62516	0.921141	2.73307					0.833236	2.47146	0.935533	2.7687				
0.888249	2.62479	0.686749	2.02641	0.889274	2.62447	0.923247	2.73177					0.835191	2.47043	0.937657	2.76736				
0.890457	2.62409	0.68874	2.02671	0.891481	2.62376	0.92536	2.73049					0.837146	2.46941	0.939781	2.76602				
0.892661	2.62338	0.690731	2.02702	0.893683	2.62305	0.927478	2.72923					0.8391	2.46839	0.941906	2.76469				
0.894861	2.62267	0.692721	2.02731	0.89588	2.62233	0.929601	2.728					0.841054	2.46737	0.944031	2.76337				
0.897055	2.62194	0.694711	2.02761	0.898073	2.6216	0.93173	2.72679					0.843008	2.46637	0.946156	2.76206				
0.899246	2.6212	0.696701	2.0279	0.900261	2.62086	0.933864	2.72561					0.844962	2.46536	0.948282	2.76076				
0.901431	2.62046	0.698691	2.02819	0.902444	2.62011	0.936004	2.72445					0.846916	2.46436	0.950407	2.75946				
0.903613	2.6197	0.70068	2.02848	0.904624	2.61935	0.938149	2.7233					0.848869	2.46337	0.952533	2.75817				
0.905789	2.61894	0.702669	2.02877	0.906798	2.61858	0.940299	2.72218					0.850822	2.46238	0.95466	2.75689				
0.907962	2.61817	0.704658	2.02905	0.908968	2.61781	0.942456	2.72109					0.852775	2.46139	0.956786	2.75562				
0.910129	2.61739	0.706646	2.02933	0.911134	2.61702	0.944617	2.72001					0.854728	2.46041	0.958913	2.75435				
0.912293	2.6166	0.708635	2.02961	0.913295	2.61623	0.946784	2.71896					0.856681	2.45944	0.961039	2.75309				
0.914451	2.6158	0.710623	2.02989	0.915452	2.61542	0.948956	2.71792					0.858634	2.45847	0.963166	2.75184				
0.916606	2.61499	0.712611	2.03017	0.917604	2.61461	0.951133	2.71691					0.860586	2.4575	0.965293	2.7506				
0.918756	2.61418	0.714599	2.03044	0.919752	2.61379	0.953316	2.71591					0.862539	2.45654	0.96742	2.74936				
0.920901	2.61335	0.716586	2.03071	0.921896	2.61297	0.955504	2.71494					0.864491	2.45559	0.969547	2.74813				
0.923043	2.61252	0.718573	2.03098	0.924035	2.61213	0.957697	2.71399					0.866443	2.45464	0.971674	2.7469				
0.92518	2.61168	0.72056	2.03125	0.92617	2.61129	0.959896	2.71306					0.868395	2.45369	0.973801	2.74568				
0.927312	2.61084	0.722547	2.03151	0.928301	2.61044	0.962099	2.71214					0.870347	2.45275	0.975928	2.74447				
0.929441	2.60998	0.724533	2.03177	0.930427	2.60958	0.964308	2.71125					0.872299	2.45181	0.978055	2.74326				
0.931565	2.60912	0.726519	2.03203	0.93255	2.60872	0.966521	2.71037					0.874251	2.45088	0.980182	2.74206				
0.933685	2.60825	0.728505	2.03229	0.934668	2.60785	0.968739	2.70951					0.876202	2.44995	0.982309	2.74087				
0.935802	2.60738	0.730491	2.03255	0.936782	2.60697	0.970963	2.70867					0.878154	2.44903	0.984436	2.73968				
0.937914	2.6065	0.732477	2.0328	0.938893	2.60609	0.973191	2.70785					0.880105	2.44811	0.986562	2.7385				
0.940022	2.60561	0.734462	2.03306	0.940999	2.6052	0.975424	2.70704					0.882056	2.44719	0.988689	2.73732				
0.942127	2.60472	0.736447	2.03331	0.943102	2.6043	0.977661	2.70626					0.884008	2.44628	0.990815	2.73615				
0.944227	2.60382	0.738432	2.03356	0.945201	2.6034	0.979903	2.70548					0.885959	2.44538	0.992941	2.73499				
0.946324	2.60291	0.740416	2.0338	0.947296	2.60249	0.982149	2.70473					0.88791	2.44448	0.995067	2.73383				
0.948417	2.602	0.7424	2.03405	0.949388	2.60158	0.9844	2.70399					0.889861	2.44358	0.997193	2.73267				
0.950507	2.60109	0.744385	2.03429	0.951476	2.60066	0.986656	2.70327					0.891812	2.44269	0.999318	2.73152				
0.952593	2.60017	0.746368	2.03453	0.95356	2.59974	0.988915	2.70256					0.893763	2.4418	1.00144	2.73038				
0.954676	2.59924	0.748352	2.03477	0.955641	2.59881	0.991179	2.70187					0.895714	2.44092						
0.956755	2.59831	0.750335	2.03501	0.957719	2.59788	0.993447	2.70119					0.897665	2.44004						
0.958831	2.59738	0.752318	2.03525	0.959793	2.59694	0.995719	2.70052					0.899616	2.43917						
0.960903	2.59644	0.754301	2.03548	0.961864	2.596	0.997995	2.69987					0.901567	2.4383						
0.962973	2.5955	0.756284	2.03571	0.963932	2.59506	1.00027	2.69924					0.903518	2.43743						
0.965039	2.59455	0.758266	2.03594	0.965997	2.59411							0.905469	2.43657						
0.967103	2.5936	0.760249	2.03617	0.968059	2.59316							0.90742	2.43571						
0.969163	2.59265	0.762231	2.0364	0.970118	2.5922							0.90937	2.43486						
0.97122	2.59169	0.764212	2.03662	0.972174	2.59125							0.911321	2.43401						
0.973275	2.59073	0.766194	2.03685	0.974228	2.59029							0.913272	2.43317						
0.975327	2.58977	0.768175	2.03707	0.976278	2.58933							0.915223	2.43233						
0.977376	2.58881	0.770156	2.03729	0.978326	2.58836							0.917174	2.43149						
0.979423	2.58784	0.772137	2.03751	0.980372	2.5874							0.919124	2.43066						
0.981467	2.58688	0.774118	2.03772	0.982415	2.58643							0.921075	2.42983						
0.983508	2.58591	0.776098	2.03794	0.984455	2.58546							0.923026	2.42901						
0.985548	2.58494	0.778078	2.03815	0.986493	2.58449							0.924977	2.42819						
0.987585	2.58397	0.780058	2.03836	0.988529	2.58351							0.926928	2.42737						
0.989619	2.58299	0.782038	2.03857	0.990563	2.58254							0.928879	2.42656						
0.991652	2.58202	0.784017	2.03878	0.992594	2.58157							0.93083	2.42575						
0.993682	2.58104	0.785997	2.03899	0.994624	2.58059							0.932781	2.42495						
0.99571	2.58007	0.787976	2.03919	0.996651	2.57961							0.934732	2.42415						
0.997736	2.57909	0.789954	2.0394	0.998676	2.57864							0.936683	2.42335						
0.999761	2.57811	0.791933	2.0396	1.0007	2.57766							0.938634	2.42256						
1.00178	2.57714	0.793911	2.0398									0.940585	2.42178						
		0.795889	2.04									0.942537	2.42099						
		0.797867	2.0402									0.944488	2.42021						
		0.799845	2.04039									0.946439	2.41944						
		0.801822	2.04059									0.948391	2.41866						
		0.8038	2.04078									0.950342	2.4179						
		0.805777	2.04097									0.952294	2.41713						
		0.807753	2.04116									0.954245	2.41637						
		0.80973	2.04135									0.956197	2.41561						
		0.811706	2.04154									0.958149	2.41486						
		0.813682	2.04172									0.960101	2.41411						
		0.815658	2.04191									0.962053	2.41337						
		0.817634	2.04209									0.964005	2.41262						
		0.819609	2.04227									0.965957	2.41189						
		0.821585	2.04245									0.967909	2.41115						
		0.82356	2.04263									0.969862	2.41042						
		0.825535	2.04281									0.971814	2.40969						
		0.827509	2.04298									0.973767	2.40897						
		0.829484	2.04316									0.975719	2.40825						
		0.831458	2.04333									0.977672	2.40753						
		0.833432	2.0435									0.979625	2.40682						
		0.835406	2.04367									0.981578	2.40611						
		0.837379	2.04384									0.983531	2.4054						
		0.839353	2.04401									0.985484	2.4047						
		0.841326	2.04418									0.987438	2.404						
		0.843299	2.04435									0.989391	2.40331						
		0.845271	2.04451									0.991345	2.40262						
		0.847244	2.04467									0.993298	2.40193						
		0.849216	2.04484									0.995252	2.40124						
		0.851188	2.045									0.997206	2.40056						
		0.85316	2.04516									0.99916	2.39988						
		0.855132	2.04531									1.00111	2.39921						
		0.857103	2.04547																
		0.859074	2.04563																
		0.861046	2.04578																
		0.863016	2.04594																
		0.864987	2.04609																
		0.866957	2.04624																
		0.868928	2.04639																
		0.870898	2.04654																
		0.872868	2.04669																
		0.874837	2.04683																
		0.876807	2.04698																
		0.878776	2.04712																
		0.880745	2.04727																
		0.882714	2.04741																
		0.884682	2.04755																
		0.886651	2.04769																
		0.888619	2.04783																
		0.890587	2.04797																
		0.892555	2.04811																
		0.894523	2.04824																
		0.89649	2.04838																
		0.898457	2.04851																
		0.900424	2.04864																
		0.902391	2.04878																
		0.904358	2.04891																
		0.906324	2.04904																
		0.908291	2.04917																
		0.910257	2.04929																
		0.912223	2.04942																
		0.914188	2.04955																
		0.916154	2.04967																
		0.918119	2.0498																
		0.920084	2.04992																
		0.922049	2.05004																
		0.924014	2.05016																
		0.925979	2.05029																
		0.927943	2.0504																
		0.929907	2.05052																
		0.931871	2.05064																
		0.933835	2.05076																
		0.935799	2.05087																
		0.937763	2.05099																
		0.939726	2.0511																
		0.941689	2.05122																
		0.943652	2.05133																
		0.945615	2.05144																
		0.947577	2.05155																
		0.94954	2.05166																
		0.951502	2.05177																
		0.953464	2.05188																
		0.955426	2.05199																
		0.957387	2.0521																
		0.959349	2.0522																
		0.96131	2.05231																
		0.963271	2.05241																
		0.965232	2.05252																
		0.967193	2.05262																
		0.969154	2.05272																
		0.971114	2.05282																
		0.973075	2.05292																
		0.975035	2.05302																
		0.976995	2.05312																
		0.978954	2.05322																
		0.980914	2.05332																
		0.982873	2.05341																
		0.984833	2.05351																
		0.986792	2.05361																
		0.988751	2.0537																
		0.990709	2.05379																
		0.992668	2.05389																
		0.994626	2.05398																
		0.996585	2.05407																
		0.998543	2.05416																
		1.0005	2.05425																
