Sym0		Asym0		Sym1		Sym2		Sym3		Sym4		Asym1		Asym2		Asym3		Asym4	
425  Points		529  Points		424  Points		407  Points		353  Points		252  Points		456  Points		401  Points		345  Points		207  Points	
Freq (MHz)	Vph (m/ms)	Freq (MHz)	Vph (m/ms)	Freq (MHz)	Vph (m/ms)	Freq (MHz)	Vph (m/ms)	Freq (MHz)	Vph (m/ms)	Freq (MHz)	Vph (m/ms)	Freq (MHz)	Vph (m/ms)	Freq (MHz)	Vph (m/ms)	Freq (MHz)	Vph (m/ms)	Freq (MHz)	Vph (m/ms)
0.279509	742.739	2.07382e-005	0.0280201	0.279514	307.863	0.449888	12066.4	0.559017	7853.65	0.838526	2180.33	0.139755	968.509	0.419268	469.728	0.698771	3702.78	0.899777	2243.99
0.279519	213.697	0.000105849	0.0633139	0.279529	151.95	0.449894	464.297	0.559023	557.421	0.838531	637.046	0.139799	129.925	0.419285	229.837	0.698776	623.678	0.899782	675.174
0.279539	124.81	0.000256376	0.0984733	0.279556	100.875	0.44991	236.711	0.559041	288.975	0.838542	373.021	0.139909	69.6864	0.419313	152.148	0.698786	340.521	0.899792	397.371
0.279571	88.1535	0.000471954	0.133501	0.279593	75.5045	0.449938	158.856	0.55907	195.052	0.838559	263.725	0.140085	47.6578	0.419353	113.718	0.698802	234.199	0.899807	281.537
0.279612	68.1466	0.000751985	0.168346	0.279641	60.3365	0.449976	119.545	0.55911	147.213	0.838582	203.967	0.140326	36.2499	0.419405	90.793	0.698824	178.477	0.899828	217.995
0.279665	55.5464	0.00109569	0.202958	0.2797	50.248	0.450025	95.8364	0.559161	118.225	0.83861	166.29	0.140633	29.2816	0.419468	75.5656	0.698853	144.177	0.899853	177.856
0.279728	46.8832	0.00150218	0.2373	0.279769	43.0541	0.450084	79.9801	0.559224	98.7793	0.838645	140.365	0.141003	24.5888	0.419543	64.7169	0.698887	120.938	0.899885	150.203
0.279802	40.5617	0.00197024	0.271309	0.279849	37.6659	0.450155	68.63	0.559298	84.8315	0.838685	121.435	0.141437	21.2172	0.419629	56.5962	0.698927	104.153	0.899921	129.993
0.279887	35.746	0.00249879	0.304966	0.27994	33.4797	0.450236	60.1048	0.559383	74.3392	0.838731	107.006	0.141933	18.6807	0.419727	50.29	0.698974	91.4614	0.899962	114.579
0.279982	31.9557	0.0030865	0.338233	0.280041	30.1341	0.450328	53.467	0.559479	66.1601	0.838782	95.6439	0.142489	16.7054	0.419837	45.2516	0.699026	81.5288	0.900009	102.434
0.280088	28.8951	0.0037318	0.371062	0.280154	27.3992	0.45043	48.1525	0.559586	59.6057	0.83884	86.4646	0.143105	15.1254	0.419958	41.1339	0.699084	73.544	0.900061	92.6187
0.280205	26.3723	0.00443331	0.40344	0.280276	25.1221	0.450543	43.8019	0.559705	54.2359	0.838903	78.8944	0.143779	13.8343	0.42009	37.7059	0.699149	66.9852	0.900118	84.5212
0.280332	24.2572	0.00518939	0.435334	0.28041	23.1969	0.450667	40.1749	0.559834	49.7563	0.838972	72.5445	0.144509	12.7606	0.420234	34.808	0.699219	61.5019	0.900181	77.727
0.280471	22.4586	0.00599835	0.46672	0.280554	21.548	0.450802	37.1051	0.559975	45.9628	0.839047	67.1419	0.145294	11.8546	0.42039	32.3262	0.699295	56.8498	0.900249	71.945
0.280619	20.9104	0.00685852	0.497576	0.280709	20.1201	0.450947	34.4734	0.560127	42.7092	0.839127	62.4894	0.146132	11.0806	0.420557	30.1771	0.699378	52.8532	0.900322	66.9648
0.280779	19.5641	0.00776812	0.527886	0.280874	18.8717	0.451103	32.1925	0.56029	39.8879	0.839213	58.441	0.146904	10.4932	0.420736	28.2981	0.699466	49.3829	0.9004	62.6304
0.280949	18.3826	0.00872557	0.557642	0.281051	17.7711	0.45127	30.1966	0.560464	37.4184	0.839306	54.8863	0.147592	10.0457	0.420926	26.6414	0.69956	46.3413	0.900483	58.824
0.28113	17.3375	0.00972887	0.586821	0.281237	16.7936	0.451448	28.4357	0.56065	35.2388	0.839403	51.7403	0.148181	9.70762	0.421127	25.1699	0.699661	43.6537	0.900572	55.4547
0.281321	16.4066	0.0107765	0.615428	0.281435	15.9197	0.451636	26.8706	0.560846	33.301	0.839507	48.9363	0.148659	9.45856	0.42134	23.8543	0.699767	41.2617	0.900666	52.4513
0.281523	15.5722	0.0118666	0.643446	0.281643	15.1339	0.451834	25.4705	0.561053	31.5671	0.839617	46.4215	0.149018	9.28482	0.421564	22.6711	0.69988	39.1193	0.900765	49.7573
0.281735	14.8202	0.0129976	0.670876	0.281861	14.4235	0.452044	24.2108	0.561272	30.0064	0.839732	44.1535	0.149251	9.17755	0.4218	21.6014	0.699998	37.1892	0.900869	47.3273
0.281958	14.139	0.0141675	0.697712	0.282091	13.7783	0.452263	23.0713	0.561501	28.5944	0.839853	42.0975	0.14959	9.02843	0.422047	20.6298	0.700122	35.4415	0.900979	45.1244
0.282192	13.5191	0.0153751	0.723964	0.28233	13.1898	0.452494	22.0357	0.561742	27.3108	0.83998	40.2253	0.149964	8.87279	0.422306	19.7433	0.700253	33.8515	0.901093	43.1181
0.282436	12.9526	0.0166185	0.749626	0.282581	12.6508	0.452735	21.0905	0.561994	26.139	0.840112	38.5133	0.150481	8.67123	0.422576	18.9313	0.700389	32.3989	0.901213	41.2833
0.282691	12.4331	0.0178963	0.774704	0.282841	12.1555	0.452986	20.2244	0.562256	25.0651	0.84025	36.9418	0.15115	8.43171	0.422857	18.1849	0.700531	31.0665	0.901339	39.599
0.282957	11.9549	0.0192069	0.799205	0.283113	11.6987	0.453249	19.428	0.56253	24.0772	0.840395	35.4942	0.15198	8.16287	0.42315	17.4964	0.70068	29.8402	0.901469	38.0473
0.283233	11.5133	0.0205488	0.823133	0.283395	11.2763	0.453521	18.6932	0.562814	23.1656	0.840544	34.1565	0.152983	7.87341	0.423454	16.8595	0.700834	28.7077	0.901605	36.6133
0.283519	11.1044	0.0219207	0.846495	0.283687	10.8844	0.453804	18.0131	0.56311	22.3218	0.8407	32.9165	0.154172	7.5715	0.423769	16.2685	0.700994	27.6587	0.901745	35.2841
0.283816	10.7247	0.0233213	0.869303	0.28399	10.52	0.454098	17.3819	0.563416	21.5384	0.840861	31.7641	0.155398	7.29781	0.424095	15.7188	0.70116	26.6843	0.901891	34.0485
0.284123	10.3712	0.0247491	0.891561	0.284263	10.2226	0.454402	16.7946	0.563733	20.8094	0.841028	30.6903	0.156661	7.0487	0.424433	15.2062	0.701333	25.7768	0.902043	32.8971
0.284441	10.0413	0.026203	0.913285	0.284501	9.98271	0.454716	16.2468	0.564061	20.1292	0.841201	29.6872	0.157958	6.82115	0.424782	14.7272	0.701511	24.9297	0.902199	31.8216
0.28477	9.73276	0.0276818	0.93448	0.284703	9.79312	0.455041	15.7346	0.5644	19.4932	0.84138	28.7483	0.15929	6.61259	0.425142	14.2784	0.701695	24.1371	0.902361	30.8146
0.285108	9.44363	0.0291842	0.955158	0.284865	9.64851	0.455376	15.2547	0.56475	18.8972	0.841564	27.8674	0.160653	6.42084	0.425513	13.8573	0.701885	23.3939	0.902528	29.87
0.285458	9.17214	0.0307094	0.975334	0.284986	9.54503	0.455722	14.8042	0.56511	18.3376	0.841754	27.0395	0.162047	6.24404	0.425895	13.4613	0.702081	22.6956	0.9027	28.982
0.285817	8.91675	0.0322561	0.995015	0.285064	9.48002	0.456078	14.3806	0.565482	17.8111	0.84195	26.2599	0.16347	6.08058	0.426288	13.0883	0.702283	22.0384	0.902877	28.1458
0.286187	8.67611	0.0338234	1.01421	0.285177	9.38821	0.456444	13.9814	0.565864	17.315	0.842151	25.5245	0.164921	5.92907	0.426693	12.7364	0.702491	21.4187	0.903059	27.3569
0.286567	8.44899	0.0354104	1.03294	0.285301	9.29053	0.456821	13.6046	0.566256	16.8468	0.842359	24.8296	0.166399	5.78832	0.427108	12.4038	0.702705	20.8334	0.903247	26.6115
0.286958	8.23432	0.0370162	1.05121	0.285473	9.1611	0.457207	13.2486	0.56666	16.4041	0.842572	24.172	0.167902	5.65726	0.427535	12.0891	0.702925	20.2797	0.90344	25.9061
0.287359	8.03111	0.0386398	1.06904	0.285692	9.00281	0.457604	12.9115	0.567074	15.9849	0.84279	23.5489	0.16943	5.53497	0.427972	11.7908	0.703151	19.7552	0.903638	25.2375
0.28777	7.8385	0.0402804	1.08642	0.285964	8.81901	0.458012	12.5919	0.567498	15.5875	0.843015	22.9575	0.17098	5.42065	0.428421	11.5078	0.703383	19.2577	0.903841	24.603
0.288192	7.6557	0.0419374	1.10339	0.286289	8.61338	0.458429	12.2886	0.567934	15.2102	0.843245	22.3955	0.172554	5.31357	0.42888	11.2389	0.70362	18.785	0.904049	24
0.288624	7.48199	0.0436099	1.11994	0.286672	8.38973	0.458857	12.0004	0.568379	14.8516	0.843481	21.8608	0.174148	5.2131	0.42935	10.9831	0.703864	18.3354	0.904263	23.4262
0.289066	7.31673	0.0452972	1.13609	0.287066	8.17825	0.459294	11.7261	0.568836	14.5102	0.843722	21.3515	0.175762	5.11867	0.429832	10.7394	0.704113	17.9073	0.904482	22.8796
0.289518	7.15934	0.0469988	1.15185	0.287469	7.97799	0.459742	11.4648	0.569302	14.185	0.843969	20.8658	0.177397	5.02979	0.430323	10.5071	0.704369	17.4992	0.904705	22.3584
0.289981	7.00929	0.0487139	1.16723	0.287883	7.7881	0.4602	11.2157	0.56978	13.8748	0.844222	20.4021	0.179049	4.94598	0.430761	10.3133	0.70463	17.1096	0.904934	21.8607
0.290453	6.86609	0.0504419	1.18224	0.288308	7.60783	0.460667	10.9778	0.570267	13.5786	0.844481	19.959	0.180719	4.86687	0.43114	10.1542	0.704898	16.7374	0.905169	21.385
0.290936	6.72929	0.0521823	1.1969	0.288742	7.43647	0.461145	10.7505	0.570765	13.2955	0.844745	19.535	0.182406	4.79206	0.431459	10.0265	0.705171	16.3815	0.905408	20.93
0.291429	6.5985	0.0539345	1.2112	0.289187	7.2734	0.461633	10.5331	0.571274	13.0247	0.845015	19.1291	0.18411	4.72125	0.431713	9.92801	0.70545	16.0408	0.905652	20.4942
0.291932	6.47333	0.055698	1.22517	0.289642	7.11804	0.462066	10.3512	0.571792	12.7653	0.845291	18.7401	0.185829	4.65413	0.431902	9.85693	0.705735	15.7144	0.905902	20.0766
0.292446	6.35345	0.0574724	1.23881	0.290108	6.96989	0.462441	10.2014	0.572321	12.5168	0.845572	18.367	0.187562	4.59044	0.432023	9.81201	0.706026	15.4014	0.906157	19.676
0.292969	6.23855	0.059257	1.25213	0.290583	6.82846	0.462755	10.0811	0.57286	12.2784	0.845859	18.0087	0.18931	4.52992	0.432199	9.74822	0.706322	15.1009	0.906417	19.2913
0.293502	6.12832	0.0610516	1.26515	0.291069	6.69333	0.463007	9.9881	0.57341	12.0496	0.846152	17.6646	0.191072	4.47236	0.432391	9.67991	0.706625	14.8123	0.906682	18.9218
0.294045	6.0225	0.0628555	1.27786	0.291564	6.56409	0.463193	9.9209	0.573969	11.8297	0.84645	17.3337	0.192846	4.41755	0.432655	9.58867	0.706934	14.5349	0.906952	18.5664
0.294599	5.92085	0.0646686	1.29028	0.29207	6.44039	0.463313	9.87841	0.574539	11.6183	0.846754	17.0152	0.194633	4.36532	0.432992	9.47594	0.707248	14.2681	0.907227	18.2244
0.295162	5.82313	0.0664903	1.30241	0.292586	6.32189	0.463486	9.81802	0.575119	11.415	0.847063	16.7086	0.196431	4.31548	0.433405	9.34345	0.707568	14.0112	0.907508	17.8951
0.295735	5.72914	0.0683203	1.31427	0.293112	6.20827	0.463675	9.75328	0.575709	11.2192	0.847379	16.4132	0.198242	4.26789	0.433896	9.19314	0.707894	13.7637	0.907793	17.5778
0.296319	5.63866	0.0701583	1.32587	0.293648	6.09926	0.463935	9.66672	0.576309	11.0307	0.847699	16.1284	0.200063	4.2224	0.43447	9.02711	0.708226	13.5252	0.908084	17.2719
0.296912	5.55152	0.072004	1.3372	0.294194	5.9946	0.464266	9.55963	0.576918	10.8489	0.848026	15.8536	0.201894	4.17889	0.435055	8.8676	0.708564	13.295	0.90838	16.9767
0.297515	5.46755	0.073857	1.34829	0.29475	5.89403	0.464672	9.43354	0.577538	10.6735	0.848358	15.5883	0.203736	4.13722	0.43565	8.71424	0.708908	13.073	0.908681	16.6916
0.298128	5.38659	0.0757169	1.35912	0.295316	5.79734	0.465155	9.29022	0.578086	10.5257	0.848696	15.332	0.205587	4.0973	0.436256	8.5667	0.709257	12.8585	0.908987	16.4163
0.29875	5.30848	0.0775836	1.36972	0.295892	5.70432	0.465718	9.13155	0.578559	10.4032	0.849039	15.0843	0.207448	4.05901	0.436872	8.42466	0.709613	12.6512	0.909298	16.1502
0.299383	5.23308	0.0794568	1.38009	0.296478	5.61476	0.466291	8.97875	0.578955	10.3043	0.849388	14.8448	0.209318	4.02227	0.437498	8.28784	0.709974	12.4508	0.909614	15.8928
0.300025	5.16027	0.0813361	1.39024	0.297074	5.5285	0.466873	8.83153	0.57927	10.2275	0.849742	14.613	0.211196	3.98697	0.438135	8.15595	0.710341	12.257	0.909935	15.6437
0.300678	5.08992	0.0832214	1.40016	0.29768	5.44535	0.467466	8.68958	0.579503	10.1719	0.850102	14.3887	0.213082	3.95305	0.438782	8.02874	0.710713	12.0694	0.910262	15.4026
0.30134	5.02192	0.0851123	1.40988	0.298295	5.36518	0.468067	8.55264	0.579653	10.1366	0.850468	14.1714	0.214976	3.92043	0.439439	7.90599	0.711092	11.8878	0.910593	15.1691
0.302011	4.95616	0.0870088	1.41939	0.298921	5.28781	0.468678	8.42046	0.57987	10.0864	0.850839	13.9608	0.216878	3.88904	0.440107	7.78746	0.711476	11.7118	0.91093	14.9428
0.302693	4.89254	0.0889106	1.4287	0.299556	5.21313	0.469299	8.29279	0.580106	10.0325	0.851216	13.7567	0.218787	3.8588	0.440784	7.67296	0.711867	11.5412	0.911271	14.7234
0.303384	4.83096	0.0908174	1.43781	0.300201	5.141	0.469929	8.16943	0.58043	9.9601	0.851598	13.5587	0.220703	3.82967	0.441472	7.56228	0.712262	11.3758	0.911618	14.5105
0.303994	4.77889	0.092729	1.44673	0.300856	5.0713	0.470568	8.05015	0.580842	9.87024	0.851986	13.3666	0.222626	3.80157	0.44217	7.45525	0.712664	11.2153	0.911969	14.304
0.30452	4.73564	0.0946453	1.45548	0.30152	5.00392	0.471217	7.93478	0.581346	9.76396	0.85238	13.1801	0.224556	3.77447	0.442877	7.3517	0.713072	11.0595	0.912326	14.1035
0.304959	4.70062	0.0965661	1.46404	0.302195	4.93874	0.471875	7.82313	0.581943	9.64251	0.852779	12.999	0.226491	3.74831	0.443595	7.25146	0.713485	10.9083	0.912688	13.9088
0.305308	4.67341	0.0984913	1.47243	0.302879	4.87568	0.472542	7.71502	0.582638	9.50725	0.853183	12.8231	0.228433	3.72303	0.444323	7.15439	0.71385	10.7801	0.913055	13.7196
0.305567	4.65367	0.100421	1.48065	0.303572	4.81464	0.473219	7.6103	0.583343	9.3762	0.853593	12.6521	0.23038	3.69861	0.445061	7.06035	0.714164	10.6733	0.913427	13.5357
0.305733	4.64115	0.102354	1.4887	0.304276	4.75552	0.473904	7.50882	0.584056	9.24917	0.854009	12.4858	0.232334	3.675	0.445808	6.9692	0.714427	10.5867	0.913803	13.3568
0.305973	4.6233	0.104291	1.49659	0.304989	4.69826	0.474599	7.41043	0.58478	9.12597	0.85443	12.3241	0.234292	3.65216	0.446566	6.88082	0.714636	10.5192	0.914185	13.1829
0.306234	4.6041	0.106232	1.50433	0.305712	4.64275	0.475303	7.31501	0.585513	9.00646	0.854857	12.1668	0.236256	3.63005	0.447333	6.7951	0.71479	10.4702	0.914572	13.0136
0.306592	4.57833	0.108176	1.51192	0.306444	4.58895	0.476016	7.22242	0.586255	8.89046	0.855289	12.0136	0.238225	3.60864	0.44811	6.71191	0.71489	10.4391	0.914964	12.8489
0.307048	4.54629	0.110124	1.51936	0.307186	4.53676	0.476738	7.13255	0.587006	8.77783	0.855726	11.8645	0.240198	3.5879	0.448896	6.63115	0.715033	10.3947	0.915361	12.6884
0.307604	4.50832	0.112075	1.52665	0.307938	4.48613	0.477469	7.04528	0.587767	8.66844	0.85617	11.7192	0.242177	3.5678	0.449693	6.55273	0.715189	10.3469	0.915763	12.5321
0.308263	4.46485	0.114029	1.53381	0.308699	4.43699	0.478209	6.9605	0.588537	8.56215	0.856618	11.5777	0.244159	3.5483	0.450498	6.47654	0.715403	10.2827	0.91617	12.3799
0.309028	4.41634	0.115987	1.54083	0.309469	4.38929	0.478958	6.87813	0.589316	8.45883	0.857072	11.4398	0.246147	3.52939	0.451314	6.4025	0.715676	10.2027	0.916582	12.2314
0.309803	4.36923	0.117695	1.54683	0.31025	4.34297	0.479715	6.79805	0.590105	8.35837	0.857532	11.3053	0.248138	3.51104	0.452139	6.33053	0.716008	10.1077	0.916999	12.0867
0.310588	4.32349	0.119153	1.55188	0.311039	4.29797	0.480482	6.72018	0.590902	8.26065	0.857997	11.1742	0.250133	3.49322	0.452973	6.26055	0.716402	9.99867	0.917421	11.9456
0.311382	4.27904	0.120359	1.55599	0.311839	4.25424	0.481257	6.64444	0.591709	8.16557	0.858406	11.0626	0.252133	3.47592	0.453817	6.19247	0.716859	9.87663	0.917848	11.8079
0.312185	4.23585	0.121314	1.55922	0.312648	4.21175	0.482041	6.57074	0.592524	8.07302	0.858759	10.9693	0.254136	3.45911	0.45467	6.12623	0.717323	9.75775	0.91828	11.6735
0.312998	4.19386	0.122017	1.56157	0.313466	4.17043	0.482833	6.49901	0.593349	7.98292	0.859052	10.8934	0.256143	3.44276	0.455533	6.06175	0.717791	9.64193	0.918716	11.5424
0.31382	4.15303	0.122466	1.56306	0.314294	4.13024	0.483634	6.42916	0.594182	7.89517	0.859286	10.8342	0.258153	3.42687	0.456404	5.99898	0.718266	9.52904	0.919158	11.4143
0.314652	4.11333	0.123113	1.5652	0.315131	4.09116	0.484444	6.36114	0.595024	7.80968	0.859459	10.7911	0.260167	3.41141	0.457285	5.93784	0.718746	9.41899	0.919605	11.2893
0.315494	4.0747	0.123817	1.56751	0.315978	4.05312	0.485262	6.29488	0.595876	7.72637	0.859569	10.7637	0.262184	3.39636	0.458176	5.87829	0.719232	9.31166	0.919998	11.1826
0.316344	4.03711	0.124773	1.57063	0.316834	4.01611	0.486089	6.2303	0.596735	7.64516	0.859729	10.7246	0.264204	3.38172	0.459075	5.82025	0.719723	9.20697	0.920336	11.0934
0.317205	4.00052	0.125985	1.57453	0.3177	3.98008	0.486924	6.16736	0.597604	7.56597	0.859904	10.6824	0.266227	3.36746	0.459983	5.76369	0.72022	9.10481	0.920618	11.0208
0.318075	3.9649	0.127451	1.57919	0.318575	3.945	0.487768	6.10598	0.598481	7.48874	0.860142	10.6257	0.268254	3.35357	0.460901	5.70854	0.720723	9.0051	0.920842	10.9641
0.318954	3.93022	0.129172	1.58458	0.31946	3.91083	0.48862	6.04613	0.599367	7.4134	0.860445	10.5548	0.270283	3.34003	0.461828	5.65476	0.721232	8.90776	0.921008	10.9228
0.319843	3.89644	0.13115	1.59066	0.320354	3.87756	0.48948	5.98775	0.600262	7.33988	0.860815	10.4704	0.272315	3.32684	0.462763	5.60231	0.721746	8.8127	0.921114	10.8965
0.320741	3.86353	0.133129	1.59663	0.321258	3.84513	0.490348	5.93077	0.601165	7.26812	0.861252	10.3733	0.274349	3.31397	0.463707	5.55113	0.722266	8.71985	0.921267	10.859
0.321649	3.83146	0.135111	1.60249	0.322171	3.81353	0.491225	5.87517	0.602076	7.19806	0.861758	10.2642	0.276387	3.30143	0.464661	5.50118	0.722791	8.62913	0.921434	10.8185
0.322566	3.80021	0.137095	1.60825	0.323094	3.78274	0.49211	5.82089	0.602996	7.12964	0.86227	10.1576	0.278426	3.28919	0.465623	5.45243	0.723322	8.54047	0.921662	10.764
0.323493	3.76975	0.139081	1.61391	0.324026	3.75272	0.493003	5.76789	0.603924	7.06281	0.862788	10.0533	0.280469	3.27724	0.466594	5.40483	0.723858	8.4538	0.921953	10.6959
0.324429	3.74006	0.141069	1.61946	0.324968	3.72345	0.493904	5.71612	0.604861	6.99752	0.86331	9.95139	0.282513	3.26558	0.467573	5.35835	0.7244	8.36907	0.922306	10.6148
0.325375	3.7111	0.143058	1.62492	0.325919	3.6949	0.494813	5.66555	0.605806	6.93372	0.863839	9.85168	0.28456	3.25419	0.468562	5.31295	0.724948	8.28621	0.922724	10.5213
0.32633	3.68286	0.14505	1.63029	0.32688	3.66706	0.49573	5.61614	0.606759	6.87135	0.864372	9.75412	0.286609	3.24307	0.469559	5.2686	0.725501	8.20515	0.923209	10.4161
0.327295	3.65532	0.147043	1.63557	0.32785	3.6399	0.496655	5.56785	0.60772	6.81038	0.864911	9.65865	0.28866	3.23221	0.470564	5.22525	0.72606	8.12585	0.923698	10.3133
0.32827	3.62844	0.149038	1.64075	0.32883	3.61341	0.497588	5.52065	0.60869	6.75076	0.865455	9.56521	0.290713	3.22159	0.471579	5.1829	0.726624	8.04824	0.924193	10.2125
0.329254	3.60223	0.151034	1.64585	0.32982	3.58755	0.498529	5.47449	0.609667	6.69245	0.866004	9.47373	0.292769	3.21121	0.472601	5.14149	0.727194	7.97228	0.924692	10.1139
0.330248	3.57664	0.153032	1.65086	0.330819	3.56232	0.499477	5.42936	0.610653	6.63541	0.866559	9.38415	0.294826	3.20106	0.473632	5.101	0.72777	7.89792	0.925196	10.0174
0.331251	3.55167	0.155031	1.65579	0.331828	3.53769	0.500434	5.38522	0.611647	6.57959	0.867119	9.29642	0.296885	3.19113	0.474672	5.06141	0.728351	7.8251	0.925705	9.92277
0.332265	3.5273	0.157032	1.66063	0.332847	3.51365	0.501398	5.34203	0.612648	6.52497	0.867685	9.21048	0.298946	3.18142	0.47572	5.02268	0.728937	7.75379	0.926218	9.8301
0.333288	3.50351	0.159035	1.6654	0.333876	3.49019	0.502369	5.29978	0.613657	6.4715	0.868255	9.12627	0.301008	3.17192	0.476776	4.9848	0.729529	7.68394	0.926737	9.7393
0.33432	3.48028	0.161038	1.67008	0.334914	3.46727	0.503349	5.25842	0.614675	6.41916	0.868831	9.04376	0.303072	3.16262	0.47784	4.94773	0.730126	7.6155	0.92726	9.65031
0.335363	3.4576	0.163043	1.67469	0.335962	3.4449	0.504336	5.21794	0.6157	6.36791	0.869412	8.96289	0.305138	3.15352	0.478913	4.91146	0.730729	7.54843	0.927788	9.56308
0.336416	3.43545	0.165049	1.67923	0.337021	3.42305	0.50533	5.17832	0.616733	6.31771	0.869999	8.88361	0.307206	3.14461	0.479994	4.87596	0.731338	7.4827	0.928321	9.47756
0.337478	3.41382	0.167056	1.68369	0.338089	3.4017	0.506332	5.13951	0.617773	6.26854	0.87059	8.80587	0.309274	3.13588	0.481083	4.8412	0.731952	7.41826	0.928859	9.3937
0.338551	3.39269	0.169065	1.68808	0.339167	3.38086	0.507341	5.10151	0.618821	6.22037	0.871187	8.72964	0.311345	3.12733	0.48218	4.80717	0.732571	7.35509	0.929402	9.31145
0.339633	3.37206	0.171075	1.6924	0.340256	3.3605	0.508358	5.06429	0.619877	6.17317	0.871789	8.65488	0.313417	3.11895	0.483285	4.77384	0.733196	7.29314	0.929949	9.23077
0.340726	3.3519	0.173085	1.69666	0.341354	3.34061	0.509382	5.02783	0.62094	6.12691	0.872397	8.58153	0.31549	3.11074	0.484399	4.74121	0.733826	7.23238	0.930502	9.15161
0.341829	3.33221	0.175097	1.70084	0.342463	3.32118	0.510413	4.9921	0.622011	6.08156	0.873009	8.50957	0.317564	3.10269	0.48552	4.70924	0.734462	7.17278	0.931059	9.07394
0.342943	3.31298	0.17711	1.70496	0.343583	3.3022	0.511452	4.95709	0.623089	6.03711	0.873627	8.43895	0.31964	3.0948	0.486649	4.67791	0.735103	7.11431	0.93162	8.99772
0.344067	3.29419	0.179123	1.70902	0.344713	3.28366	0.512498	4.92277	0.624175	5.99352	0.87425	8.36964	0.321717	3.08706	0.487786	4.64722	0.735749	7.05694	0.932187	8.9229
0.345201	3.27583	0.181138	1.71301	0.345853	3.26554	0.513551	4.88913	0.625268	5.95078	0.874878	8.30161	0.323795	3.07947	0.488931	4.61715	0.736401	7.00063	0.932758	8.84944
0.346346	3.25789	0.183153	1.71695	0.347004	3.24784	0.514611	4.85615	0.626368	5.90886	0.875512	8.23481	0.325874	3.07202	0.490083	4.58767	0.737058	6.94536	0.933334	8.77732
0.347502	3.24036	0.185169	1.72082	0.348166	3.23054	0.515678	4.82381	0.627475	5.86773	0.87615	8.16923	0.327954	3.06471	0.491244	4.55877	0.737721	6.8911	0.933915	8.7065
0.348669	3.22324	0.187187	1.72463	0.349339	3.21364	0.516752	4.79209	0.62859	5.82739	0.876794	8.10482	0.330036	3.05754	0.492412	4.53044	0.738389	6.83783	0.9345	8.63694
0.349846	3.20651	0.189205	1.72839	0.350523	3.19713	0.517833	4.76098	0.629712	5.78779	0.877442	8.04156	0.332118	3.0505	0.493588	4.50266	0.739063	6.78553	0.93509	8.56861
0.351035	3.19016	0.191223	1.73208	0.351719	3.181	0.518921	4.73046	0.630841	5.74894	0.878096	7.97942	0.334201	3.04359	0.494771	4.47541	0.739741	6.73415	0.935685	8.50148
0.352235	3.17419	0.193243	1.73573	0.352925	3.16524	0.520016	4.70052	0.631977	5.7108	0.878755	7.91837	0.336285	3.03681	0.495962	4.4487	0.740425	6.68369	0.936285	8.43552
0.353447	3.15859	0.195263	1.73932	0.354143	3.14985	0.521118	4.67114	0.63312	5.67337	0.879419	7.85838	0.338371	3.03014	0.49716	4.42249	0.741115	6.63412	0.936889	8.3707
0.35467	3.14335	0.197284	1.74285	0.355373	3.13481	0.522227	4.64231	0.63427	5.63661	0.880088	7.79942	0.340456	3.02359	0.498366	4.39677	0.74181	6.58542	0.937498	8.30699
0.355905	3.12846	0.199305	1.74634	0.356615	3.12012	0.523342	4.61401	0.635427	5.60052	0.880763	7.74148	0.342543	3.01716	0.49958	4.37154	0.74251	6.53756	0.938112	8.24436
0.357152	3.11392	0.201327	1.74977	0.357869	3.10577	0.524464	4.58623	0.636591	5.56508	0.881442	7.68452	0.344631	3.01084	0.5008	4.34679	0.743215	6.49052	0.93873	8.1828
0.358411	3.09972	0.20335	1.75315	0.359135	3.09176	0.525593	4.55896	0.637761	5.53027	0.882126	7.62853	0.346719	3.00463	0.502028	4.32249	0.743926	6.4443	0.939353	8.12226
0.359682	3.08585	0.205373	1.75649	0.360413	3.07808	0.526728	4.53218	0.638939	5.49608	0.882816	7.57347	0.348808	2.99852	0.503264	4.29865	0.744641	6.39885	0.939981	8.06274
0.360966	3.0723	0.207397	1.75978	0.361704	3.06472	0.52787	4.50588	0.640123	5.46249	0.88351	7.51932	0.350897	2.99252	0.504507	4.27524	0.745363	6.35418	0.940613	8.00419
0.362263	3.05908	0.209421	1.76301	0.363008	3.05168	0.529019	4.48006	0.641314	5.42948	0.88421	7.46608	0.352988	2.98661	0.505757	4.25226	0.746089	6.31025	0.94125	7.94661
0.363572	3.04617	0.211446	1.76621	0.364326	3.03895	0.530173	4.45469	0.642511	5.39705	0.884915	7.4137	0.355079	2.9808	0.507014	4.2297	0.746821	6.26705	0.941891	7.88996
0.364895	3.03358	0.213471	1.76936	0.365656	3.02653	0.531335	4.42977	0.643715	5.36517	0.885624	7.36218	0.35717	2.97509	0.508278	4.20754	0.747558	6.22457	0.942538	7.83423
0.366232	3.02129	0.215497	1.77246	0.367001	3.01441	0.532503	4.40529	0.644925	5.33384	0.886339	7.31149	0.359262	2.96947	0.50955	4.18578	0.7483	6.18278	0.943188	7.7794
0.367582	3.0093	0.217524	1.77552	0.368359	3.00259	0.533677	4.38123	0.646142	5.30304	0.887058	7.26162	0.361354	2.96394	0.510828	4.16441	0.749047	6.14168	0.943844	7.72544
0.368946	2.9976	0.21955	1.77854	0.369731	2.99106	0.534857	4.35759	0.647366	5.27277	0.887783	7.21254	0.363447	2.9585	0.512114	4.14342	0.7498	6.10124	0.944504	7.67233
0.370325	2.9862	0.221577	1.78151	0.371118	2.97982	0.536044	4.33436	0.648596	5.243	0.888513	7.16424	0.365541	2.95314	0.513406	4.1228	0.750557	6.06145	0.945168	7.62006
0.371718	2.97508	0.223605	1.78445	0.37252	2.96886	0.537237	4.31153	0.649832	5.21372	0.889247	7.1167	0.367635	2.94787	0.514706	4.10254	0.75132	6.0223	0.945837	7.5686
0.373126	2.96425	0.225633	1.78734	0.373937	2.95819	0.538436	4.28908	0.651075	5.18493	0.889987	7.0699	0.369729	2.94268	0.516012	4.08264	0.752088	5.98377	0.946511	7.51794
0.37455	2.95369	0.227661	1.79019	0.375369	2.94779	0.539642	4.26701	0.652323	5.15662	0.890731	7.02383	0.371823	2.93757	0.517325	4.06308	0.752862	5.94585	0.947189	7.46806
0.375989	2.94341	0.22969	1.79301	0.376817	2.93767	0.540853	4.24532	0.653578	5.12876	0.89148	6.97847	0.373918	2.93253	0.518646	4.04385	0.75364	5.90852	0.947872	7.41895
0.377443	2.9334	0.231718	1.79579	0.37828	2.92781	0.542071	4.22398	0.65484	5.10136	0.892235	6.9338	0.376013	2.92757	0.519972	4.02496	0.754423	5.87177	0.948559	7.37058
0.378914	2.92367	0.233748	1.79853	0.379761	2.91823	0.543294	4.203	0.656107	5.07441	0.892994	6.88982	0.378109	2.92269	0.521306	4.00639	0.755212	5.83559	0.949251	7.32294
0.380401	2.91419	0.235777	1.80123	0.381258	2.9089	0.544524	4.18237	0.65738	5.04788	0.893758	6.8465	0.380205	2.91787	0.522647	3.98814	0.756006	5.79997	0.949947	7.27601
0.381906	2.90498	0.237807	1.8039	0.382771	2.89984	0.545759	4.16207	0.65866	5.02178	0.894527	6.80383	0.382301	2.91313	0.523994	3.97019	0.756805	5.76489	0.950648	7.22979
0.383427	2.89603	0.239837	1.80653	0.384303	2.89103	0.547	4.14211	0.659945	4.99609	0.895301	6.76179	0.384397	2.90845	0.525348	3.95254	0.757609	5.73035	0.951354	7.18425
0.384965	2.88733	0.241867	1.80912	0.385851	2.88248	0.548248	4.12247	0.661237	4.9708	0.896079	6.72039	0.386493	2.90384	0.526708	3.9352	0.758418	5.69632	0.952063	7.13938
0.386522	2.87889	0.243898	1.81169	0.387418	2.87418	0.549501	4.10314	0.662534	4.94592	0.896863	6.67959	0.38859	2.8993	0.528075	3.91813	0.759232	5.66281	0.952778	7.09516
0.388096	2.87069	0.245929	1.81422	0.389003	2.86613	0.550759	4.08413	0.663837	4.92141	0.897651	6.63939	0.390686	2.89482	0.529449	3.90136	0.760051	5.6298	0.953496	7.05159
0.389689	2.86274	0.247959	1.81671	0.390606	2.85832	0.552024	4.06542	0.665146	4.89729	0.898444	6.59978	0.392783	2.8904	0.530829	3.88485	0.760875	5.59728	0.95422	7.00865
0.3913	2.85504	0.249991	1.81918	0.392228	2.85075	0.553294	4.04701	0.666461	4.87354	0.899242	6.56074	0.39488	2.88604	0.532215	3.86862	0.761705	5.56523	0.954947	6.96632
0.39293	2.84757	0.252022	1.82161	0.393869	2.84342	0.55457	4.02888	0.667781	4.85015	0.900045	6.52226	0.396977	2.88175	0.533608	3.85266	0.762539	5.53366	0.955679	6.92459
0.394579	2.84035	0.254053	1.82401	0.395529	2.83633	0.555852	4.01104	0.669107	4.82712	0.900853	6.48433	0.399074	2.87751	0.535007	3.83695	0.763378	5.50255	0.956416	6.88346
0.396247	2.83335	0.256085	1.82638	0.397208	2.82946	0.557139	3.99348	0.670439	4.80443	0.901665	6.44694	0.401171	2.87332	0.536413	3.82149	0.764222	5.47188	0.957157	6.84291
0.397935	2.82659	0.258117	1.82872	0.398906	2.82283	0.558431	3.97619	0.671777	4.78209	0.902483	6.41009	0.403268	2.8692	0.537825	3.80629	0.765072	5.44166	0.957902	6.80292
0.399642	2.82005	0.260149	1.83103	0.400625	2.81642	0.559729	3.95917	0.67312	4.76008	0.903305	6.37375	0.405364	2.86512	0.539243	3.79133	0.765926	5.41188	0.958652	6.7635
0.401369	2.81374	0.262181	1.83331	0.402363	2.81023	0.561033	3.94241	0.674468	4.7384	0.904131	6.33791	0.407461	2.8611	0.540668	3.77661	0.766785	5.38251	0.959406	6.72461
0.403115	2.80764	0.264213	1.83556	0.40412	2.80426	0.562342	3.9259	0.675822	4.71703	0.904963	6.30258	0.409558	2.85713	0.542099	3.76212	0.767649	5.35357	0.960164	6.68627
0.404881	2.80176	0.266245	1.83778	0.405897	2.7985	0.563656	3.90965	0.677182	4.69599	0.905799	6.26773	0.411655	2.85321	0.543536	3.74786	0.768519	5.32503	0.960927	6.64844
0.406667	2.79609	0.268278	1.83998	0.407694	2.79295	0.564976	3.89364	0.678547	4.67524	0.90664	6.23337	0.413751	2.84935	0.544979	3.73382	0.769393	5.29689	0.961695	6.61113
0.408472	2.79062	0.27031	1.84215	0.409511	2.7876	0.566301	3.87787	0.679917	4.6548	0.907485	6.19947	0.415848	2.84552	0.546428	3.72	0.770272	5.26914	0.962466	6.57433
0.410297	2.78536	0.272343	1.84429	0.411347	2.78245	0.567631	3.86234	0.681292	4.63466	0.908336	6.16603	0.417944	2.84175	0.547883	3.7064	0.771155	5.24178	0.963242	6.53802
0.412141	2.7803	0.274375	1.8464	0.413202	2.77749	0.568967	3.84704	0.682673	4.6148	0.909191	6.13305	0.42004	2.83802	0.549345	3.69301	0.772044	5.2148	0.964022	6.5022
0.414004	2.77542	0.276408	1.84849	0.415076	2.77273	0.570307	3.83196	0.684059	4.59523	0.91005	6.1005	0.422136	2.83434	0.550812	3.67983	0.772938	5.18819	0.964807	6.46685
0.415887	2.77074	0.278441	1.85055	0.416969	2.76814	0.571653	3.81711	0.68545	4.57594	0.910915	6.0684	0.424231	2.83071	0.552286	3.66685	0.773837	5.16194	0.965596	6.43197
0.417788	2.76623	0.280474	1.85259	0.418881	2.76374	0.573004	3.80248	0.686847	4.55691	0.911784	6.03672	0.426327	2.82711	0.553765	3.65407	0.77474	5.13604	0.966389	6.39755
0.419708	2.7619	0.282506	1.85461	0.420811	2.75951	0.57436	3.78805	0.688248	4.53816	0.912658	6.00546	0.428422	2.82356	0.55525	3.64148	0.775648	5.1105	0.967186	6.36358
0.421645	2.75775	0.284539	1.8566	0.422759	2.75545	0.575721	3.77384	0.689655	4.51967	0.913536	5.97461	0.430516	2.82005	0.556742	3.62908	0.776561	5.0853	0.967988	6.33005
0.423601	2.75376	0.286572	1.85856	0.424724	2.75155	0.577087	3.75983	0.691066	4.50143	0.914419	5.94416	0.432611	2.81658	0.558239	3.61688	0.777479	5.06043	0.968794	6.29696
0.425574	2.74993	0.288605	1.8605	0.426707	2.74781	0.578458	3.74603	0.692483	4.48345	0.915306	5.91411	0.434705	2.81315	0.559742	3.60485	0.778402	5.0359	0.969604	6.26429
0.427564	2.74625	0.290638	1.86242	0.428707	2.74422	0.579835	3.73242	0.693904	4.46572	0.916198	5.88445	0.436799	2.80976	0.56125	3.59301	0.77933	5.01169	0.970419	6.23204
0.42957	2.74273	0.292671	1.86432	0.430722	2.74078	0.581216	3.719	0.695331	4.44823	0.917095	5.85517	0.438893	2.80641	0.562765	3.58134	0.780262	4.98781	0.971238	6.2002
0.431593	2.73935	0.294703	1.86619	0.432754	2.73748	0.582601	3.70578	0.696762	4.43097	0.917996	5.82627	0.440986	2.80309	0.564285	3.56985	0.781199	4.96423	0.972061	6.16876
0.433631	2.7361	0.296736	1.86804	0.434801	2.73431	0.583992	3.69274	0.698198	4.41395	0.918902	5.79774	0.443078	2.79981	0.565811	3.55853	0.782141	4.94096	0.972888	6.13772
0.435684	2.73299	0.298769	1.86987	0.436863	2.73127	0.585387	3.67989	0.699639	4.39716	0.919812	5.76956	0.445171	2.79657	0.567342	3.54738	0.783088	4.918	0.973719	6.10707
0.437753	2.73001	0.300802	1.87168	0.438939	2.72836	0.586788	3.66721	0.701085	4.3806	0.920727	5.74175	0.447263	2.79336	0.56888	3.53639	0.784039	4.89533	0.974555	6.0768
0.439835	2.72715	0.302835	1.87347	0.441029	2.72557	0.588193	3.65471	0.702536	4.36426	0.921647	5.71428	0.449354	2.79019	0.570423	3.52556	0.784996	4.87295	0.975395	6.04691
0.441931	2.72441	0.304867	1.87523	0.443133	2.72289	0.589602	3.64238	0.703991	4.34813	0.922571	5.68716	0.451445	2.78705	0.571971	3.51489	0.785957	4.85086	0.976239	6.01738
0.44404	2.72178	0.3069	1.87698	0.445249	2.72033	0.591017	3.63022	0.705451	4.33222	0.923499	5.66037	0.453536	2.78394	0.573525	3.50438	0.786922	4.82905	0.977087	5.98822
0.446162	2.71926	0.308932	1.87871	0.447378	2.71786	0.592435	3.61823	0.706915	4.31651	0.924432	5.63392	0.455626	2.78087	0.575085	3.49401	0.787893	4.80752	0.977939	5.95942
0.448297	2.71684	0.310965	1.88041	0.44952	2.7155	0.593859	3.60641	0.708384	4.30102	0.92537	5.60779	0.457715	2.77782	0.57665	3.4838	0.788868	4.78626	0.978795	5.93096
0.450443	2.71452	0.312997	1.8821	0.451672	2.71323	0.595287	3.59474	0.709858	4.28572	0.926311	5.58198	0.459804	2.77481	0.57822	3.47374	0.789847	4.76527	0.979656	5.90285
0.4526	2.71229	0.31503	1.88377	0.453836	2.71106	0.59672	3.58323	0.711336	4.27062	0.927258	5.55649	0.461893	2.77183	0.579796	3.46382	0.790832	4.74454	0.980521	5.87508
0.454768	2.71015	0.317062	1.88541	0.45601	2.70897	0.598157	3.57188	0.712819	4.25572	0.928209	5.5313	0.463981	2.76888	0.581377	3.45404	0.791821	4.72406	0.981389	5.84764
0.456947	2.7081	0.319094	1.88704	0.458195	2.70696	0.599599	3.56068	0.714306	4.241	0.929164	5.50642	0.466068	2.76596	0.582964	3.4444	0.792814	4.70385	0.982262	5.82053
0.459136	2.70613	0.321126	1.88865	0.460389	2.70504	0.601045	3.54962	0.715797	4.22648	0.930124	5.48184	0.468155	2.76306	0.584556	3.4349	0.793813	4.68388	0.983139	5.79374
0.461334	2.70423	0.323158	1.89025	0.462592	2.70319	0.602495	3.53872	0.717293	4.21214	0.931088	5.45756	0.470241	2.7602	0.586154	3.42553	0.794816	4.66415	0.98402	5.76726
0.463541	2.70241	0.32519	1.89182	0.464805	2.70141	0.60395	3.52796	0.718793	4.19798	0.932056	5.43356	0.472326	2.75736	0.587756	3.4163	0.795823	4.64467	0.984905	5.7411
0.465757	2.70066	0.327222	1.89338	0.467026	2.6997	0.605409	3.51734	0.720298	4.184	0.933029	5.40985	0.474411	2.75455	0.589364	3.40719	0.796835	4.62543	0.985795	5.71525
0.467982	2.69898	0.329254	1.89492	0.469255	2.69805	0.606873	3.50686	0.721807	4.1702	0.934006	5.38642	0.476496	2.75176	0.590978	3.39821	0.797852	4.60642	0.986688	5.68969
0.470215	2.69736	0.331285	1.89644	0.471492	2.69647	0.60834	3.49652	0.72332	4.15656	0.934988	5.36326	0.478579	2.74901	0.592596	3.38936	0.798873	4.58764	0.987585	5.66443
0.472455	2.69581	0.333317	1.89795	0.473736	2.69494	0.609812	3.48631	0.724837	4.1431	0.935974	5.34037	0.480662	2.74627	0.59422	3.38063	0.799899	4.56908	0.988486	5.63947
0.474702	2.69431	0.335348	1.89944	0.475988	2.69348	0.611289	3.47623	0.726358	4.1298	0.936964	5.31776	0.482744	2.74356	0.595848	3.37203	0.80093	4.55075	0.989392	5.61479
0.476957	2.69286	0.337379	1.90091	0.478246	2.69206	0.612769	3.46628	0.727884	4.11667	0.937959	5.2954	0.484826	2.74088	0.597482	3.36354	0.801965	4.53263	0.990301	5.59039
0.479218	2.69147	0.33941	1.90237	0.480511	2.6907	0.614254	3.45647	0.729413	4.1037	0.938958	5.2733	0.486907	2.73822	0.599121	3.35517	0.803004	4.51473	0.991214	5.56627
0.481486	2.69013	0.341441	1.90381	0.482782	2.68939	0.615743	3.44677	0.730947	4.09088	0.939961	5.25146	0.488987	2.73559	0.600766	3.34691	0.804048	4.49705	0.992131	5.54242
0.483759	2.68884	0.343472	1.90524	0.485059	2.68812	0.617236	3.4372	0.732484	4.07822	0.940969	5.22987	0.491066	2.73297	0.602415	3.33877	0.805096	4.47957	0.993053	5.51884
0.486039	2.68759	0.345503	1.90665	0.487342	2.6869	0.618732	3.42775	0.734026	4.06571	0.941981	5.20852	0.493145	2.73038	0.604069	3.33074	0.806149	4.4623	0.993978	5.49553
0.488324	2.68638	0.347533	1.90804	0.48963	2.68572	0.620233	3.41843	0.735572	4.05336	0.942997	5.18741	0.495222	2.72782	0.605728	3.32282	0.807207	4.44522	0.994907	5.47248
0.490614	2.68522	0.349564	1.90942	0.491923	2.68457	0.621738	3.40921	0.737121	4.04115	0.944017	5.16655	0.497299	2.72527	0.607392	3.315	0.808269	4.42835	0.99584	5.44968
0.492909	2.6841	0.351594	1.91079	0.494221	2.68347	0.623247	3.40012	0.738675	4.02909	0.945042	5.14591	0.499376	2.72275	0.609061	3.3073	0.809335	4.41167	0.996777	5.42714
0.49521	2.68301	0.353624	1.91214	0.496524	2.68241	0.62476	3.39114	0.740232	4.01717	0.946071	5.12551	0.501451	2.72024	0.610736	3.29969	0.810406	4.39519	0.997718	5.40484
0.497515	2.68196	0.355654	1.91348	0.498832	2.68138	0.626277	3.38227	0.741793	4.00539	0.947104	5.10534	0.503526	2.71776	0.612414	3.29219	0.811481	4.37889	0.998663	5.38279
0.499824	2.68094	0.357683	1.9148	0.501143	2.68038	0.627798	3.3735	0.743359	3.99375	0.948142	5.08539	0.505599	2.7153	0.614098	3.28479	0.812561	4.36279	0.999612	5.36099
0.502137	2.67996	0.359713	1.91611	0.503459	2.67941	0.629323	3.36485	0.744927	3.98224	0.949183	5.06567	0.507672	2.71286	0.615787	3.27749	0.813645	4.34686	1.00056	5.33941
0.504455	2.67901	0.361742	1.9174	0.505779	2.67848	0.630852	3.3563	0.7465	3.97087	0.950229	5.04616	0.509745	2.71044	0.61748	3.27028	0.814734	4.33112		
0.506776	2.67808	0.363772	1.91868	0.508102	2.67757	0.632384	3.34786	0.748076	3.95963	0.951279	5.02686	0.511816	2.70804	0.619179	3.26318	0.815827	4.31555		
0.509101	2.67719	0.365801	1.91995	0.51043	2.67669	0.63392	3.33952	0.749656	3.94852	0.952333	5.00778	0.513886	2.70565	0.620882	3.25616	0.816924	4.30017		
0.51143	2.67632	0.36783	1.9212	0.51276	2.67584	0.63546	3.33129	0.75124	3.93754	0.953392	4.9889	0.515956	2.70329	0.622589	3.24924	0.818026	4.28495		
0.513762	2.67548	0.369858	1.92244	0.515094	2.67501	0.637004	3.32315	0.752827	3.92668	0.954454	4.97023	0.518024	2.70094	0.624302	3.24241	0.819132	4.2699		
0.516097	2.67466	0.371887	1.92367	0.517431	2.67421	0.638552	3.31511	0.754418	3.91595	0.955521	4.95176	0.520092	2.69861	0.626019	3.23568	0.820242	4.25503		
0.518435	2.67387	0.373915	1.92489	0.519771	2.67343	0.640103	3.30716	0.756012	3.90534	0.956591	4.93349	0.522159	2.6963	0.627741	3.22903	0.821357	4.24032		
0.520776	2.6731	0.375943	1.92609	0.522113	2.67267	0.641658	3.29932	0.75761	3.89485	0.957666	4.91541	0.524225	2.69401	0.629467	3.22246	0.822476	4.22577		
0.52312	2.67235	0.377971	1.92728	0.524459	2.67193	0.643216	3.29156	0.759212	3.88448	0.958745	4.89753	0.52629	2.69173	0.631198	3.21598	0.823599	4.21138		
0.525467	2.67162	0.379999	1.92846	0.526807	2.67122	0.644779	3.2839	0.760817	3.87422	0.959828	4.87984	0.528354	2.68948	0.632934	3.20959	0.824726	4.19715		
0.527816	2.67092	0.382027	1.92962	0.529158	2.67052	0.646344	3.27633	0.762425	3.86408	0.960916	4.86233	0.530417	2.68723	0.634674	3.20328	0.825858	4.18307		
0.530168	2.67023	0.384054	1.93078	0.531511	2.66984	0.647914	3.26884	0.764037	3.85405	0.962007	4.84501	0.532479	2.68501	0.636419	3.19705	0.826994	4.16915		
0.532522	2.66956	0.386081	1.93192	0.533866	2.66918	0.649487	3.26145	0.765652	3.84413	0.963102	4.82787	0.53454	2.6828	0.638168	3.19091	0.828135	4.15539		
0.534878	2.6689	0.388108	1.93305	0.536224	2.66854	0.651063	3.25414	0.767271	3.83432	0.964202	4.81092	0.536601	2.6806	0.639921	3.18484	0.82928	4.14177		
0.537237	2.66827	0.390135	1.93417	0.538583	2.66791	0.652643	3.24692	0.768893	3.82462	0.965305	4.79414	0.53866	2.67842	0.641679	3.17885	0.830429	4.12829		
0.539597	2.66765	0.392161	1.93528	0.540945	2.6673	0.654227	3.23978	0.770518	3.81502	0.966412	4.77753	0.540718	2.67626	0.643442	3.17293	0.831582	4.11497		
0.54196	2.66704	0.394188	1.93637	0.543308	2.6667	0.655814	3.23272	0.772147	3.80553	0.967524	4.76109	0.542776	2.67411	0.645209	3.1671	0.832739	4.10178		
0.544324	2.66645	0.396214	1.93746	0.545674	2.66612	0.657404	3.22575	0.773778	3.79614	0.968639	4.74483	0.544832	2.67198	0.64698	3.16133	0.833901	4.08874		
0.54669	2.66587	0.39824	1.93853	0.548041	2.66555	0.658998	3.21885	0.775414	3.78685	0.969759	4.72873	0.546887	2.66986	0.648756	3.15564	0.835066	4.07584		
0.549058	2.66531	0.400265	1.9396	0.55041	2.665	0.660595	3.21204	0.777052	3.77767	0.970882	4.7128	0.548942	2.66775	0.650536	3.15003	0.836236	4.06307		
0.551427	2.66476	0.402291	1.94065	0.55278	2.66445	0.662196	3.2053	0.778693	3.76858	0.97201	4.69703	0.550995	2.66566	0.65232	3.14448	0.83741	4.05044		
0.553798	2.66422	0.404316	1.94169	0.555152	2.66392	0.6638	3.19864	0.780338	3.75958	0.973141	4.68142	0.553047	2.66358	0.654109	3.139	0.838589	4.03794		
0.556171	2.6637	0.406341	1.94273	0.557525	2.6634	0.665408	3.19205	0.781985	3.75069	0.974277	4.66597	0.555099	2.66152	0.655901	3.1336	0.839771	4.02558		
0.558545	2.66318	0.408366	1.94375	0.5599	2.6629	0.667018	3.18554	0.783636	3.74188	0.975416	4.65067	0.557149	2.65947	0.657698	3.12826	0.840958	4.01334		
0.56092	2.66268	0.41039	1.94476	0.562276	2.6624	0.668632	3.17911	0.78529	3.73317	0.976559	4.63553	0.559198	2.65743	0.6595	3.12298	0.842149	4.00123		
0.563297	2.66219	0.412415	1.94576	0.564653	2.66191	0.67025	3.17274	0.786947	3.72455	0.977706	4.62054	0.561246	2.65541	0.661305	3.11778	0.843343	3.98925		
0.565675	2.66171	0.414439	1.94675	0.567032	2.66144	0.67187	3.16645	0.788607	3.71602	0.978857	4.6057	0.563294	2.6534	0.663114	3.11264	0.844542	3.97739		
0.568054	2.66124	0.416463	1.94774	0.569412	2.66097	0.673494	3.16022	0.79027	3.70758	0.980012	4.59101	0.56534	2.6514	0.664928	3.10756	0.845745	3.96566		
0.570434	2.66077	0.418487	1.94871	0.571793	2.66051	0.675121	3.15407	0.791936	3.69923	0.981171	4.57647	0.567385	2.64942	0.666746	3.10254	0.846953	3.95404		
0.572815	2.66032	0.42051	1.94967	0.574174	2.66006	0.676752	3.14798	0.793605	3.69096	0.982334	4.56206	0.569429	2.64744	0.668567	3.09759	0.848164	3.94255		
0.575198	2.65987	0.422533	1.95063	0.576557	2.65962	0.678385	3.14197	0.795277	3.68278	0.983501	4.54781	0.571472	2.64548	0.670393	3.0927	0.849379	3.93117		
0.577581	2.65944	0.424556	1.95157	0.578941	2.65919	0.680022	3.13601	0.796951	3.67468	0.984671	4.53369	0.573514	2.64353	0.672223	3.08787	0.850598	3.91991		
0.579965	2.65901	0.426579	1.95251	0.581326	2.65877	0.681662	3.13013	0.798629	3.66666	0.985845	4.5197	0.575555	2.6416	0.674057	3.0831	0.851822	3.90877		
0.58235	2.65859	0.428601	1.95344	0.583712	2.65835	0.683304	3.1243	0.800309	3.65872	0.987024	4.50586	0.577595	2.63967	0.675894	3.07838	0.853049	3.89774		
0.584736	2.65817	0.430624	1.95435	0.586098	2.65794	0.684951	3.11855	0.801992	3.65087	0.988206	4.49215	0.579634	2.63776	0.677736	3.07373	0.854281	3.88682		
0.587123	2.65777	0.432646	1.95526	0.588485	2.65754	0.6866	3.11285	0.803678	3.64309	0.989392	4.47857	0.581671	2.63586	0.679581	3.06913	0.855516	3.87601		
0.589511	2.65737	0.434667	1.95616	0.590873	2.65714	0.688252	3.10722	0.805367	3.63539	0.990581	4.46512	0.583708	2.63396	0.681431	3.06459	0.856756	3.86531		
0.591899	2.65697	0.436689	1.95706	0.593262	2.65675	0.689907	3.10164	0.807059	3.62777	0.991775	4.45181	0.585744	2.63208	0.683284	3.0601	0.857999	3.85471		
0.594288	2.65659	0.43871	1.95794	0.595651	2.65637	0.691566	3.09613	0.808753	3.62023	0.992972	4.43862	0.587778	2.63022	0.685141	3.05567	0.859246	3.84423		
0.596677	2.6562	0.440731	1.95881	0.598041	2.65599	0.693227	3.09068	0.81045	3.61276	0.994173	4.42556	0.589812	2.62836	0.687002	3.05129	0.860498	3.83385		
0.599068	2.65583	0.442752	1.95968	0.600432	2.65562	0.694892	3.08528	0.81215	3.60536	0.995378	4.41262	0.591844	2.62651	0.688866	3.04696	0.861753	3.82357		
0.601458	2.65546	0.444773	1.96054	0.602823	2.65525	0.696559	3.07995	0.813852	3.59803	0.996586	4.3998	0.593876	2.62467	0.690735	3.04268	0.863013	3.81339		
0.60385	2.6551	0.446793	1.96139	0.605214	2.65489	0.69823	3.07467	0.815557	3.59078	0.997798	4.38711	0.595906	2.62285	0.692607	3.03846	0.864276	3.80331		
0.606241	2.65474	0.448813	1.96223	0.607606	2.65453	0.699903	3.06944	0.817265	3.5836	0.999014	4.37454	0.597936	2.62103	0.694482	3.03429	0.865543	3.79334		
0.608634	2.65438	0.450833	1.96307	0.609999	2.65418	0.70158	3.06427	0.818975	3.57649	1.00023	4.36208	0.599964	2.61922	0.696362	3.03016	0.866814	3.78346		
0.611026	2.65403	0.452852	1.96389	0.612392	2.65384	0.703259	3.05916	0.820687	3.56944			0.601991	2.61743	0.698245	3.02609	0.868089	3.77368		
0.613419	2.65369	0.454872	1.96471	0.614785	2.65349	0.704942	3.0541	0.822403	3.56247			0.604017	2.61564	0.700131	3.02206	0.869368	3.76399		
0.615813	2.65335	0.456891	1.96552	0.617178	2.65316	0.706627	3.04909	0.824121	3.55556			0.606042	2.61386	0.702021	3.01808	0.870651	3.7544		
0.618206	2.65301	0.45891	1.96633	0.619572	2.65282	0.708315	3.04414	0.825841	3.54872			0.608066	2.6121	0.703915	3.01415	0.871937	3.74491		
0.620601	2.65268	0.460928	1.96712	0.621967	2.65249	0.710007	3.03924	0.827564	3.54194			0.610089	2.61034	0.705812	3.01026	0.873228	3.7355		
0.622995	2.65235	0.462946	1.96791	0.624361	2.65217	0.711701	3.03439	0.829289	3.53522			0.612111	2.60859	0.707713	3.00642	0.874522	3.72619		
0.625389	2.65203	0.464964	1.96869	0.626756	2.65184	0.713398	3.02959	0.831017	3.52858			0.614132	2.60685	0.709617	3.00263	0.875821	3.71696		
0.627784	2.65171	0.466982	1.96947	0.629151	2.65152	0.715097	3.02484	0.832747	3.52199			0.616152	2.60513	0.711524	2.99888	0.877123	3.70783		
0.630179	2.65139	0.469	1.97023	0.631546	2.65121	0.7168	3.02014	0.834479	3.51546			0.618171	2.60341	0.713435	2.99517	0.878429	3.69878		
0.632575	2.65107	0.471017	1.97099	0.633941	2.6509	0.718506	3.01549	0.836214	3.509			0.620189	2.6017	0.71535	2.99151	0.879738	3.68982		
0.63497	2.65076	0.473034	1.97175	0.636337	2.65059	0.720214	3.01089	0.837951	3.50259			0.622205	2.59999	0.717267	2.98788	0.881052	3.68095		
0.637365	2.65045	0.475051	1.97249	0.638732	2.65028	0.721925	3.00633	0.839691	3.49625			0.624221	2.5983	0.719188	2.9843	0.882369	3.67216		
0.639761	2.65015	0.477067	1.97323	0.641128	2.64997	0.723639	3.00182	0.841433	3.48996			0.626236	2.59662	0.721112	2.98076	0.883691	3.66345		
0.642156	2.64984	0.479083	1.97396	0.643523	2.64967	0.725356	2.99736	0.843177	3.48374			0.62825	2.59494	0.72304	2.97726	0.885016	3.65483		
0.644552	2.64954	0.481099	1.97469	0.645919	2.64937	0.727076	2.99294	0.844923	3.47756			0.630262	2.59328	0.724971	2.97381	0.886344	3.64628		
0.646948	2.64924	0.483115	1.97541	0.648315	2.64907	0.728798	2.98857	0.846672	3.47145			0.632274	2.59162	0.726905	2.97039	0.887677	3.63782		
0.649343	2.64895	0.485131	1.97612	0.65071	2.64878	0.730524	2.98424	0.848423	3.46539			0.634285	2.58997	0.728842	2.96701	0.889013	3.62944		
0.651739	2.64865	0.487146	1.97683	0.653106	2.64849	0.732252	2.97996	0.850176	3.45939			0.636295	2.58833	0.730782	2.96366	0.890353	3.62114		
0.654135	2.64836	0.489161	1.97753	0.655501	2.64819	0.733983	2.97572	0.851931	3.45344			0.638303	2.5867	0.732725	2.96036	0.891697	3.61291		
0.65653	2.64807	0.491175	1.97822	0.657897	2.64791	0.735716	2.97153	0.853689	3.44754			0.640311	2.58507	0.734672	2.95709	0.893044	3.60476		
0.658925	2.64778	0.49319	1.97891	0.660292	2.64762	0.737453	2.96737	0.855448	3.4417			0.642318	2.58346	0.736621	2.95386	0.894395	3.59669		
0.661321	2.64749	0.495204	1.97959	0.662687	2.64733	0.739192	2.96326	0.85721	3.43591			0.644324	2.58185	0.738574	2.95067	0.89575	3.58869		
0.663716	2.64721	0.497218	1.98026	0.665082	2.64705	0.740934	2.95919	0.858974	3.43017			0.646328	2.58025	0.740529	2.94751	0.897109	3.58077		
0.66611	2.64692	0.499231	1.98093	0.667477	2.64676	0.742679	2.95516	0.86074	3.42448			0.648332	2.57866	0.742488	2.94438	0.898471	3.57292		
0.668505	2.64664	0.501245	1.9816	0.669871	2.64648	0.744426	2.95118	0.862508	3.41884			0.650335	2.57707	0.744449	2.9413	0.899837	3.56514		
0.670899	2.64636	0.503258	1.98225	0.672265	2.6462	0.746176	2.94723	0.864278	3.41325			0.652337	2.5755	0.746413	2.93824	0.901207	3.55744		
0.673294	2.64608	0.50527	1.9829	0.674659	2.64592	0.747929	2.94332	0.86605	3.40771			0.654338	2.57393	0.748381	2.93522	0.90258	3.5498		
0.675687	2.6458	0.507283	1.98355	0.677053	2.64564	0.749685	2.93945	0.867824	3.40222			0.656338	2.57237	0.750351	2.93223	0.903957	3.54224		
0.678081	2.64552	0.509295	1.98419	0.679446	2.64536	0.751443	2.93562	0.8696	3.39677			0.658337	2.57082	0.752323	2.92928	0.905337	3.53474		
0.680474	2.64524	0.511307	1.98482	0.68184	2.64508	0.753204	2.93183	0.871379	3.39138			0.660336	2.56927	0.754299	2.92635	0.906722	3.52732		
0.682867	2.64496	0.513319	1.98545	0.684232	2.64481	0.754968	2.92808	0.873159	3.38603			0.662333	2.56774	0.756277	2.92346	0.908109	3.51996		
0.68526	2.64469	0.51533	1.98607	0.686624	2.64453	0.756735	2.92436	0.874941	3.38072			0.66433	2.56621	0.758259	2.9206	0.909501	3.51267		
0.687652	2.64441	0.517342	1.98669	0.689016	2.64425	0.758504	2.92069	0.876725	3.37546			0.666325	2.56469	0.760242	2.91777	0.910896	3.50544		
0.690043	2.64413	0.519353	1.9873	0.691408	2.64398	0.760276	2.91705	0.878511	3.37025			0.66832	2.56317	0.762229	2.91497	0.912295	3.49828		
0.692434	2.64386	0.521363	1.98791	0.693799	2.6437	0.762051	2.91344	0.880298	3.36508			0.670314	2.56166	0.764218	2.9122	0.913697	3.49118		
0.694825	2.64358	0.523374	1.98851	0.696189	2.64342	0.763829	2.90987	0.882088	3.35996			0.672306	2.56017	0.76621	2.90946	0.915103	3.48415		
0.697215	2.64331	0.525384	1.98911	0.698579	2.64315	0.765609	2.90634	0.883879	3.35487			0.674299	2.55867	0.768204	2.90675	0.916512	3.47718		
0.699605	2.64303	0.527393	1.9897	0.700968	2.64287	0.767392	2.90284	0.885673	3.34983			0.67629	2.55719	0.770201	2.90407	0.917925	3.47028		
0.701994	2.64275	0.529403	1.99028	0.703357	2.64259	0.769178	2.89938	0.887468	3.34484			0.67828	2.55571	0.7722	2.90142	0.919342	3.46343		
0.704383	2.64248	0.531412	1.99086	0.705745	2.64232	0.770967	2.89595	0.889265	3.33988			0.68027	2.55424	0.774202	2.89879	0.920762	3.45665		
0.70677	2.6422	0.533421	1.99144	0.708133	2.64204	0.772758	2.89255	0.891064	3.33497			0.682258	2.55278	0.776207	2.89619	0.922186	3.44993		
0.709158	2.64192	0.53543	1.99201	0.710519	2.64176	0.774552	2.88919	0.892864	3.33009			0.684246	2.55132	0.778214	2.89362	0.923613	3.44327		
0.711544	2.64164	0.537439	1.99258	0.712906	2.64148	0.776349	2.88587	0.894667	3.32526			0.686233	2.54987	0.780223	2.89107	0.925044	3.43667		
0.71393	2.64136	0.539447	1.99314	0.715291	2.64121	0.778149	2.88257	0.896471	3.32047			0.688219	2.54843	0.782234	2.88856	0.926478	3.43012		
0.716315	2.64109	0.541455	1.99369	0.717676	2.64093	0.779951	2.87931	0.898276	3.31571			0.690205	2.54699	0.784248	2.88606	0.927916	3.42363		
0.7187	2.6408	0.543462	1.99424	0.72006	2.64064	0.781757	2.87609	0.900084	3.311			0.69219	2.54557	0.786265	2.8836	0.929357	3.41721		
0.721083	2.64052	0.54547	1.99479	0.722443	2.64036	0.783565	2.87289	0.901893	3.30632			0.694174	2.54414	0.788283	2.88116	0.930802	3.41083		
0.723466	2.64024	0.547477	1.99533	0.724825	2.64008	0.785376	2.86973	0.903704	3.30168			0.696157	2.54273	0.790304	2.87874	0.932251	3.40452		
0.725848	2.63996	0.549484	1.99587	0.727206	2.63979	0.78719	2.8666	0.905516	3.29708			0.698139	2.54132	0.792327	2.87635	0.933703	3.39826		
0.728229	2.63967	0.55149	1.9964	0.729587	2.63951	0.789006	2.8635	0.907331	3.29252			0.700121	2.53992	0.794352	2.87398	0.935158	3.39205		
0.730609	2.63939	0.553497	1.99693	0.731967	2.63922	0.790826	2.86043	0.909146	3.28799			0.702102	2.53853	0.79638	2.87163	0.936617	3.3859		
0.732988	2.6391	0.555503	1.99745	0.734345	2.63893	0.792648	2.85739	0.910964	3.2835			0.704082	2.53714	0.798409	2.86931	0.938079	3.3798		
0.735366	2.63881	0.557509	1.99797	0.736723	2.63864	0.794473	2.85438	0.912783	3.27904			0.706061	2.53576	0.800441	2.86701	0.939545	3.37376		
0.737743	2.63852	0.559514	1.99848	0.739099	2.63835	0.796301	2.85141	0.914603	3.27462			0.70804	2.53439	0.802475	2.86474	0.941014	3.36777		
0.74012	2.63822	0.561519	1.99899	0.741475	2.63806	0.798132	2.84846	0.916425	3.27024			0.710018	2.53302	0.804511	2.86248	0.942486	3.36183		
0.742495	2.63793	0.563524	1.9995	0.743849	2.63776	0.799966	2.84554	0.918249	3.26589			0.711995	2.53166	0.806548	2.86025	0.943963	3.35594		
0.744869	2.63763	0.565529	2	0.746223	2.63746	0.801803	2.84266	0.920074	3.26157			0.713972	2.5303	0.808588	2.85804	0.945442	3.3501		
0.747241	2.63733	0.567533	2.0005	0.748595	2.63716	0.803643	2.8398	0.921901	3.25729			0.715948	2.52896	0.81063	2.85586	0.946925	3.34432		
0.749613	2.63703	0.569537	2.00099	0.750965	2.63686	0.805486	2.83697	0.923729	3.25304			0.717923	2.52762	0.812674	2.85369	0.948411	3.33858		
0.751983	2.63673	0.571541	2.00148	0.753335	2.63655	0.807332	2.83417	0.925559	3.24882			0.719898	2.52628	0.81472	2.85154	0.949901	3.33289		
0.754352	2.63642	0.573545	2.00197	0.755703	2.63625	0.809181	2.8314	0.92739	3.24464			0.721872	2.52495	0.816767	2.84942	0.951394	3.32726		
0.75672	2.63611	0.575548	2.00245	0.75807	2.63594	0.811033	2.82866	0.929223	3.24049			0.723845	2.52363	0.818816	2.84731	0.952891	3.32167		
0.759086	2.6358	0.577551	2.00292	0.760436	2.63562	0.812888	2.82595	0.931057	3.23637			0.725818	2.52232	0.820868	2.84523	0.954391	3.31613		
0.761451	2.63549	0.579554	2.00339	0.7628	2.63531	0.814746	2.82326	0.932892	3.23228			0.72779	2.52101	0.822921	2.84316	0.955894	3.31063		
0.763815	2.63517	0.581557	2.00386	0.765163	2.63499	0.816607	2.8206	0.934729	3.22823			0.729762	2.51971	0.824975	2.84112	0.957401	3.30519		
0.766177	2.63485	0.583559	2.00433	0.767524	2.63467	0.818471	2.81797	0.936568	3.2242			0.731733	2.51841	0.827032	2.83909	0.958911	3.29978		
0.768538	2.63453	0.585561	2.00479	0.769884	2.63434	0.820339	2.81537	0.938407	3.22021			0.733703	2.51712	0.82909	2.83708	0.960425	3.29443		
0.770897	2.6342	0.587563	2.00525	0.772242	2.63401	0.82221	2.8128	0.940248	3.21624			0.735673	2.51584	0.83115	2.83509	0.961941	3.28912		
0.773254	2.63387	0.589564	2.0057	0.774598	2.63368	0.824084	2.81025	0.942091	3.21231			0.737643	2.51456	0.833212	2.83312	0.963462	3.28386		
0.77561	2.63354	0.591565	2.00615	0.776953	2.63335	0.825961	2.80773	0.943935	3.2084			0.739611	2.51329	0.835275	2.83117	0.964985	3.27864		
0.777964	2.6332	0.593566	2.00659	0.779306	2.63301	0.827841	2.80524	0.94578	3.20452			0.741579	2.51202	0.83734	2.82923	0.966512	3.27347		
0.780316	2.63286	0.595567	2.00703	0.781658	2.63266	0.829725	2.80278	0.947626	3.20068			0.743547	2.51076	0.839406	2.82731	0.968042	3.26834		
0.782667	2.63252	0.597567	2.00747	0.784007	2.63232	0.831613	2.80034	0.949474	3.19686			0.745514	2.50951	0.841474	2.82541	0.969576	3.26325		
0.785015	2.63217	0.599567	2.00791	0.786354	2.63197	0.833503	2.79793	0.951323	3.19307			0.747481	2.50826	0.843543	2.82352	0.971113	3.2582		
0.787362	2.63181	0.601567	2.00834	0.7887	2.63161	0.835398	2.79554	0.953174	3.1893			0.749447	2.50702	0.845614	2.82166	0.972653	3.2532		
0.789707	2.63146	0.603566	2.00877	0.791044	2.63125	0.837295	2.79318	0.955025	3.18557			0.751412	2.50579	0.847687	2.81981	0.974197	3.24824		
0.79205	2.63109	0.605566	2.00919	0.793385	2.63089	0.839196	2.79085	0.956878	3.18186			0.753377	2.50456	0.84976	2.81797	0.975744	3.24333		
0.79439	2.63073	0.607565	2.00961	0.795725	2.63052	0.841101	2.78855	0.958732	3.17818			0.755342	2.50334	0.851836	2.81615	0.977294	3.23845		
0.796729	2.63036	0.609563	2.01003	0.798062	2.63014	0.843009	2.78627	0.960587	3.17452			0.757306	2.50212	0.853912	2.81435	0.978847	3.23361		
0.799065	2.62998	0.611562	2.01044	0.800397	2.62976	0.844921	2.78401	0.962444	3.1709			0.75927	2.50091	0.85599	2.81256	0.980404	3.22882		
0.801399	2.6296	0.61356	2.01085	0.80273	2.62938	0.846837	2.78179	0.964302	3.16729			0.761233	2.49971	0.858069	2.81079	0.981964	3.22406		
0.803731	2.62921	0.615558	2.01126	0.80506	2.62899	0.848756	2.77958	0.966161	3.16372			0.763196	2.49851	0.86015	2.80903	0.983528	3.21935		
0.806061	2.62882	0.617556	2.01166	0.807389	2.62859	0.850679	2.77741	0.968021	3.16017			0.765158	2.49731	0.862232	2.80729	0.985094	3.21467		
0.808388	2.62842	0.619553	2.01206	0.809714	2.62819	0.852606	2.77526	0.969882	3.15664			0.76712	2.49613	0.864315	2.80556	0.986664	3.21004		
0.810712	2.62802	0.62155	2.01246	0.812037	2.62779	0.854537	2.77313	0.971744	3.15314			0.769082	2.49495	0.866399	2.80384	0.988238	3.20544		
0.813034	2.62761	0.623547	2.01285	0.814358	2.62738	0.856472	2.77103	0.973608	3.14967			0.771043	2.49377	0.868485	2.80214	0.989814	3.20088		
0.815354	2.6272	0.625544	2.01324	0.816676	2.62696	0.85841	2.76896	0.975473	3.14622			0.773003	2.4926	0.870571	2.80046	0.991394	3.19636		
0.817671	2.62678	0.62754	2.01363	0.818991	2.62653	0.860353	2.76691	0.977339	3.14279			0.774964	2.49144	0.872659	2.79879	0.992977	3.19187		
0.819985	2.62635	0.629536	2.01401	0.821304	2.6261	0.8623	2.76488	0.979205	3.13939			0.776923	2.49028	0.874748	2.79713	0.994563	3.18743		
0.822296	2.62592	0.631532	2.01439	0.823613	2.62567	0.864251	2.76289	0.981073	3.13601			0.778883	2.48913	0.876838	2.79548	0.996153	3.18302		
0.824604	2.62548	0.633527	2.01477	0.82592	2.62522	0.866206	2.76091	0.982943	3.13266			0.780842	2.48798	0.878929	2.79385	0.997746	3.17864		
0.82691	2.62503	0.635523	2.01514	0.828224	2.62477	0.868165	2.75896	0.984813	3.12932			0.782801	2.48684	0.881021	2.79223	0.999342	3.17431		
0.829212	2.62458	0.637518	2.01551	0.830525	2.62431	0.870128	2.75704	0.986684	3.12602			0.78476	2.4857	0.883114	2.79062	1.00094	3.17001		
0.831512	2.62412	0.639512	2.01588	0.832822	2.62385	0.872096	2.75514	0.988556	3.12273			0.786718	2.48457	0.885208	2.78903				
0.833808	2.62365	0.641507	2.01625	0.835117	2.62338	0.874069	2.75327	0.990429	3.11947			0.788676	2.48345	0.887303	2.78745				
0.836101	2.62317	0.643501	2.01661	0.837408	2.6229	0.876045	2.75142	0.992304	3.11622			0.790633	2.48233	0.889399	2.78588				
0.838391	2.62269	0.645495	2.01697	0.839696	2.62241	0.878026	2.7496	0.994179	3.11301			0.79259	2.48122	0.891496	2.78432				
0.840678	2.6222	0.647489	2.01733	0.841981	2.62192	0.880012	2.7478	0.996055	3.10981			0.794547	2.48011	0.893593	2.78277				
0.842961	2.62171	0.649482	2.01768	0.844262	2.62142	0.882003	2.74602	0.997933	3.10663			0.796504	2.47901	0.895692	2.78124				
0.845241	2.6212	0.651475	2.01803	0.84654	2.62091	0.883997	2.74427	0.999811	3.10348			0.79846	2.47791	0.897791	2.77972				
0.847517	2.62069	0.653468	2.01838	0.848814	2.62039	0.885997	2.74255	1.00169	3.10035			0.800416	2.47682	0.899891	2.7782				
0.84979	2.62017	0.655461	2.01872	0.851085	2.61987	0.888002	2.74085					0.802372	2.47573	0.901992	2.7767				
0.852059	2.61964	0.657453	2.01907	0.853352	2.61933	0.890011	2.73917					0.804327	2.47465	0.904094	2.77521				
0.854324	2.6191	0.659445	2.01941	0.855615	2.61879	0.892025	2.73752					0.806282	2.47358	0.906196	2.77373				
0.856586	2.61855	0.661437	2.01974	0.857875	2.61824	0.894044	2.7359					0.808237	2.47251	0.908299	2.77226				
0.858844	2.618	0.663428	2.02008	0.86013	2.61768	0.896068	2.73429					0.810192	2.47144	0.910403	2.77081				
0.861098	2.61744	0.66542	2.02041	0.862382	2.61711	0.898097	2.73272					0.812146	2.47038	0.912507	2.76936				
0.863348	2.61686	0.667411	2.02074	0.86463	2.61653	0.900131	2.73116					0.814101	2.46933	0.914612	2.76792				
0.865594	2.61628	0.669402	2.02106	0.866873	2.61595	0.90217	2.72963					0.816055	2.46828	0.916718	2.76649				
0.867836	2.61569	0.671392	2.02139	0.869113	2.61535	0.904214	2.72813					0.818008	2.46724	0.918824	2.76507				
0.870073	2.6151	0.673382	2.02171	0.871348	2.61475	0.906264	2.72665					0.819962	2.4662	0.920931	2.76366				
0.872307	2.61449	0.675372	2.02203	0.87358	2.61414	0.908318	2.72519					0.821915	2.46517	0.923038	2.76227				
0.874537	2.61387	0.677362	2.02234	0.875807	2.61352	0.910378	2.72376					0.823869	2.46414	0.925146	2.76088				
0.876762	2.61325	0.679352	2.02266	0.87803	2.61288	0.912444	2.72235					0.825822	2.46312	0.927254	2.75949				
0.878983	2.61261	0.681341	2.02297	0.880248	2.61224	0.914514	2.72096					0.827775	2.4621	0.929363	2.75812				
0.8812	2.61197	0.68333	2.02328	0.882463	2.61159	0.91659	2.7196					0.829727	2.46109	0.931472	2.75676				
0.883412	2.61131	0.685318	2.02358	0.884673	2.61093	0.918671	2.71826					0.83168	2.46008	0.933582	2.75541				
0.88562	2.61065	0.687307	2.02389	0.886878	2.61027	0.920758	2.71694					0.833632	2.45908	0.935692	2.75406				
0.887824	2.60998	0.689295	2.02419	0.889079	2.60959	0.92285	2.71565					0.835584	2.45808	0.937802	2.75272				
0.890023	2.6093	0.691283	2.02449	0.891276	2.6089	0.924947	2.71438					0.837536	2.45709	0.939913	2.75139				
0.892218	2.6086	0.693271	2.02478	0.893468	2.60821	0.92705	2.71313					0.839488	2.4561	0.942024	2.75007				
0.894408	2.6079	0.695258	2.02508	0.895656	2.6075	0.929159	2.71191					0.84144	2.45512	0.944135	2.74876				
0.896594	2.6072	0.697245	2.02537	0.89784	2.60679	0.931272	2.71071					0.843392	2.45414	0.946247	2.74745				
0.898776	2.60648	0.699232	2.02566	0.900018	2.60606	0.933392	2.70953					0.845343	2.45317	0.948358	2.74616				
0.900953	2.60575	0.701219	2.02594	0.902193	2.60533	0.935516	2.70837					0.847295	2.4522	0.950471	2.74487				
0.903125	2.60501	0.703205	2.02623	0.904363	2.60459	0.937647	2.70724					0.849246	2.45124	0.952583	2.74359				
0.905293	2.60427	0.705191	2.02651	0.906528	2.60384	0.939782	2.70612					0.851197	2.45028	0.954695	2.74231				
0.907457	2.60351	0.707177	2.02679	0.908689	2.60308	0.941923	2.70503					0.853148	2.44933	0.956808	2.74104				
0.909616	2.60275	0.709163	2.02707	0.910846	2.60231	0.944069	2.70396					0.855099	2.44838	0.95892	2.73978				
0.911771	2.60198	0.711148	2.02735	0.912998	2.60154	0.946221	2.70291					0.85705	2.44744	0.961033	2.73853				
0.913921	2.6012	0.713133	2.02762	0.915146	2.60075	0.948378	2.70188					0.859001	2.4465	0.963146	2.73728				
0.916067	2.60041	0.715118	2.02789	0.917289	2.59996	0.95054	2.70087					0.860952	2.44557	0.965259	2.73604				
0.918208	2.59962	0.717103	2.02816	0.919428	2.59916	0.952708	2.69988					0.862903	2.44464	0.967372	2.73481				
0.920345	2.59881	0.719087	2.02843	0.921563	2.59835	0.954881	2.69891					0.864853	2.44372	0.969485	2.73358				
0.922478	2.598	0.721072	2.02869	0.923693	2.59753	0.957059	2.69797					0.866804	2.4428	0.971598	2.73236				
0.924607	2.59718	0.723055	2.02896	0.925819	2.59671	0.959242	2.69704					0.868754	2.44188	0.973711	2.73115				
0.926731	2.59635	0.725039	2.02922	0.927941	2.59588	0.96143	2.69613					0.870705	2.44097	0.975825	2.72994				
0.928851	2.59552	0.727022	2.02948	0.930059	2.59504	0.963624	2.69523					0.872655	2.44007	0.977937	2.72874				
0.930967	2.59467	0.729006	2.02973	0.932173	2.59419	0.965822	2.69436					0.874606	2.43917	0.98005	2.72755				
0.933079	2.59382	0.730989	2.02999	0.934283	2.59334	0.968025	2.69351					0.876556	2.43827	0.982163	2.72636				
0.935187	2.59297	0.732971	2.03024	0.936388	2.59248	0.970233	2.69267					0.878507	2.43738	0.984276	2.72517				
0.937291	2.59211	0.734954	2.03049	0.93849	2.59161	0.972446	2.69185					0.880457	2.43649	0.986388	2.724				
0.939392	2.59124	0.736936	2.03074	0.940588	2.59074	0.974664	2.69105					0.882407	2.43561	0.988501	2.72282				
0.941488	2.59036	0.738918	2.03099	0.942682	2.58986	0.976886	2.69026					0.884357	2.43473	0.990613	2.72166				
0.94358	2.58948	0.740899	2.03123	0.944772	2.58898	0.979113	2.6895					0.886308	2.43386	0.992725	2.7205				
0.945669	2.5886	0.742881	2.03148	0.946859	2.58809	0.981344	2.68874					0.888258	2.43299	0.994837	2.71934				
0.947754	2.5877	0.744862	2.03172	0.948942	2.58719	0.98358	2.68801					0.890208	2.43212	0.996949	2.71819				
0.949836	2.58681	0.746843	2.03196	0.951022	2.58629	0.98582	2.68729					0.892159	2.43126	0.99906	2.71705				
0.951914	2.5859	0.748824	2.0322	0.953098	2.58539	0.988065	2.68658					0.894109	2.43041	1.00117	2.7159				
0.953988	2.585	0.750804	2.03243	0.95517	2.58448	0.990313	2.68589					0.896059	2.42956						
0.956059	2.58409	0.752784	2.03266	0.95724	2.58356	0.992566	2.68522					0.89801	2.42871						
0.958127	2.58317	0.754764	2.0329	0.959306	2.58265	0.994823	2.68456					0.89996	2.42787						
0.960192	2.58225	0.756744	2.03313	0.961368	2.58172	0.997084	2.68391					0.90191	2.42703						
0.962253	2.58133	0.758723	2.03336	0.963428	2.5808	0.999349	2.68328					0.903861	2.42619						
0.964312	2.5804	0.760703	2.03358	0.965485	2.57987	1.00162	2.68266					0.905811	2.42536						
0.966367	2.57947	0.762682	2.03381	0.967538	2.57893							0.907762	2.42454						
0.968419	2.57853	0.76466	2.03403	0.969589	2.578							0.909712	2.42372						
0.970469	2.5776	0.766639	2.03425	0.971637	2.57706							0.911663	2.4229						
0.972515	2.57665	0.768617	2.03447	0.973682	2.57612							0.913614	2.42209						
0.974559	2.57571	0.770595	2.03469	0.975724	2.57517							0.915564	2.42128						
0.976601	2.57477	0.772573	2.0349	0.977764	2.57423							0.917515	2.42047						
0.978639	2.57382	0.774551	2.03512	0.979801	2.57328							0.919466	2.41967						
0.980675	2.57287	0.776528	2.03533	0.981836	2.57233							0.921417	2.41887						
0.982709	2.57192	0.778505	2.03554	0.983868	2.57138							0.923368	2.41808						
0.98474	2.57097	0.780482	2.03575	0.985898	2.57042							0.925319	2.41729						
0.986769	2.57001	0.782458	2.03596	0.987926	2.56947							0.92727	2.41651						
0.988796	2.56906	0.784435	2.03617	0.989951	2.56851							0.929221	2.41573						
0.990821	2.5681	0.786411	2.03637	0.991975	2.56755							0.931172	2.41495						
0.992843	2.56714	0.788387	2.03658	0.993996	2.5666							0.933124	2.41418						
0.994863	2.56618	0.790363	2.03678	0.996015	2.56564							0.935075	2.41341						
0.996882	2.56523	0.792338	2.03698	0.998032	2.56468							0.937027	2.41264						
0.998898	2.56427	0.794313	2.03718	1.00005	2.56372							0.938978	2.41188						
1.00091	2.56331	0.796288	2.03737									0.94093	2.41113						
		0.798263	2.03757									0.942882	2.41037						
		0.800238	2.03776									0.944834	2.40962						
		0.802212	2.03795									0.946786	2.40888						
		0.804186	2.03814									0.948738	2.40814						
		0.80616	2.03833									0.95069	2.4074						
		0.808133	2.03852									0.952642	2.40666						
		0.810107	2.03871									0.954595	2.40593						
		0.81208	2.03889									0.956548	2.40521						
		0.814053	2.03908									0.9585	2.40448						
		0.816026	2.03926									0.960453	2.40377						
		0.817998	2.03944									0.962406	2.40305						
		0.81997	2.03962									0.964359	2.40234						
		0.821943	2.0398									0.966313	2.40163						
		0.823914	2.03997									0.968266	2.40093						
		0.825886	2.04015									0.970219	2.40022						
		0.827857	2.04032									0.972173	2.39953						
		0.829828	2.0405									0.974127	2.39883						
		0.831799	2.04067									0.976081	2.39814						
		0.83377	2.04084									0.978035	2.39746						
		0.835741	2.04101									0.979989	2.39677						
		0.837711	2.04117									0.981944	2.39609						
		0.839681	2.04134									0.983898	2.39542						
		0.841651	2.0415									0.985853	2.39474						
		0.84362	2.04167									0.987808	2.39407						
		0.84559	2.04183									0.989763	2.39341						
		0.847559	2.04199									0.991718	2.39274						
		0.849528	2.04215									0.993674	2.39208						
		0.851497	2.04231									0.995629	2.39143						
		0.853465	2.04247									0.997585	2.39078						
		0.855434	2.04262									0.999541	2.39013						
		0.857402	2.04278									1.0015	2.38948						
		0.85937	2.04293																
		0.861337	2.04308																
		0.863305	2.04324																
		0.865272	2.04339																
		0.867239	2.04354																
		0.869206	2.04368																
		0.871173	2.04383																
		0.873139	2.04398																
		0.875105	2.04412																
		0.877071	2.04426																
		0.879037	2.04441																
		0.881003	2.04455																
		0.882968	2.04469																
		0.884933	2.04483																
		0.886898	2.04496																
		0.888863	2.0451																
		0.890828	2.04524																
		0.892792	2.04537																
		0.894756	2.04551																
		0.89672	2.04564																
		0.898684	2.04577																
		0.900648	2.0459																
		0.902611	2.04603																
		0.904574	2.04616																
		0.906537	2.04629																
		0.9085	2.04641																
		0.910463	2.04654																
		0.912425	2.04666																
		0.914387	2.04679																
		0.916349	2.04691																
		0.918311	2.04703																
		0.920273	2.04715																
		0.922234	2.04727																
		0.924195	2.04739																
		0.926156	2.04751																
		0.928117	2.04763																
		0.930078	2.04775																
		0.932038	2.04786																
		0.933998	2.04798																
		0.935959	2.04809																
		0.937918	2.0482																
		0.939878	2.04831																
		0.941838	2.04843																
		0.943797	2.04854																
		0.945756	2.04865																
		0.947715	2.04875																
		0.949674	2.04886																
		0.951633	2.04897																
		0.953591	2.04907																
		0.955549	2.04918																
		0.957507	2.04928																
		0.959465	2.04939																
		0.961423	2.04949																
		0.96338	2.04959																
		0.965338	2.04969																
		0.967295	2.0498																
		0.969252	2.0499																
		0.971209	2.04999																
		0.973165	2.05009																
		0.975122	2.05019																
		0.977078	2.05029																
		0.979034	2.05038																
		0.98099	2.05048																
		0.982946	2.05057																
		0.984901	2.05067																
		0.986857	2.05076																
		0.988812	2.05085																
		0.990767	2.05094																
		0.992722	2.05103																
		0.994677	2.05112																
		0.996631	2.05121																
		0.998586	2.0513																
		1.00054	2.05139																
