Sym0		Asym0		Sym1		Sym2		Sym3		Sym4		Asym1		Asym2		Asym3		Asym4	
419  Points		527  Points		419  Points		401  Points		348  Points		249  Points		451  Points		396  Points		340  Points		205  Points	
Freq (MHz)	Vph (m/ms)	Freq (MHz)	Vph (m/ms)	Freq (MHz)	Vph (m/ms)	Freq (MHz)	Vph (m/ms)	Freq (MHz)	Vph (m/ms)	Freq (MHz)	Vph (m/ms)	Freq (MHz)	Vph (m/ms)	Freq (MHz)	Vph (m/ms)	Freq (MHz)	Vph (m/ms)	Freq (MHz)	Vph (m/ms)
0.279511	433.758	2.85586e-005	0.0331329	0.279514	302.674	0.450107	9345.17	0.559017	5741.25	0.838526	2039.78	0.139755	892.291	0.419269	458.41	0.698771	3265.08	0.900213	2160.65
0.279525	177.353	0.000123601	0.0689107	0.279531	150.676	0.450112	459.364	0.559024	543.236	0.838532	624.474	0.1398	128.455	0.419286	227.094	0.698776	609.907	0.900218	667.652
0.279549	111.473	0.000284985	0.104569	0.279559	100.313	0.450129	235.478	0.559043	285.115	0.838543	368.675	0.139913	69.2635	0.419316	150.941	0.698787	336.375	0.900229	394.832
0.279585	81.2871	0.000512315	0.140091	0.279598	75.1898	0.450157	158.325	0.559072	193.287	0.838561	261.546	0.140093	47.4618	0.419358	113.044	0.698804	232.23	0.900244	280.299
0.279632	63.9719	0.000804936	0.175416	0.279649	60.1361	0.450195	119.259	0.559114	146.206	0.838584	202.661	0.140341	36.1385	0.419411	90.3632	0.698827	177.332	0.900265	217.276
0.279691	52.7433	0.00116201	0.210494	0.279711	50.1098	0.450244	95.6615	0.559167	117.575	0.838614	165.421	0.140654	29.2109	0.419477	75.2682	0.698857	143.429	0.900291	177.393
0.279761	44.8725	0.00158249	0.245268	0.279784	42.9534	0.450304	79.8648	0.559231	98.3257	0.83865	139.746	0.141032	24.541	0.419554	64.4993	0.698892	120.412	0.900322	149.884
0.279841	39.0499	0.00206536	0.279715	0.279868	37.5896	0.450375	68.5499	0.559307	84.4973	0.838691	120.972	0.141474	21.1836	0.419643	56.4304	0.698934	103.763	0.900359	129.763
0.279934	34.5684	0.00260928	0.313785	0.279963	33.4203	0.450457	60.0471	0.559395	74.0829	0.838739	106.647	0.14198	18.6566	0.419745	50.1597	0.698982	91.1608	0.900401	114.406
0.280037	31.013	0.0032129	0.347446	0.28007	30.0868	0.450549	53.4243	0.559494	65.9576	0.838792	95.3569	0.142547	16.688	0.419858	45.1467	0.699037	81.2903	0.900448	102.302
0.280152	28.1239	0.00387468	0.380658	0.280188	27.361	0.450652	48.1203	0.559604	59.4418	0.838851	86.2303	0.143175	15.1131	0.419983	41.0478	0.699097	73.3501	0.9005	92.5147
0.280277	25.73	0.00459312	0.4134	0.280317	25.0908	0.450766	43.7773	0.559726	54.1007	0.838917	78.6996	0.143861	13.8258	0.42012	37.6342	0.699164	66.8247	0.900558	84.4382
0.280414	23.7142	0.00536646	0.445635	0.280458	23.171	0.450891	40.1559	0.559859	49.643	0.838988	72.3801	0.144605	12.7552	0.420269	34.7475	0.699237	61.367	0.90062	77.6599
0.280563	21.9938	0.00619311	0.477349	0.280609	21.5265	0.451026	37.0904	0.560004	45.8666	0.839066	67.0013	0.145404	11.8517	0.42043	32.2746	0.699317	56.7349	0.900688	71.8902
0.280722	20.5084	0.00707125	0.508515	0.280772	20.1022	0.451173	34.462	0.56016	42.6266	0.839149	62.3679	0.146257	11.0798	0.420603	30.1327	0.699402	52.7543	0.900762	66.9195
0.280893	19.2131	0.00799912	0.53912	0.280946	18.8568	0.451329	32.1836	0.560328	39.8164	0.839238	58.3351	0.147043	10.4939	0.420787	28.2596	0.699494	49.2968	0.90084	62.5929
0.281074	18.0738	0.00897488	0.569145	0.281131	17.7587	0.451497	30.1898	0.560507	37.356	0.839333	54.7932	0.147743	10.0476	0.420984	26.6079	0.699592	46.2659	0.900924	58.7926
0.281267	17.0639	0.00999686	0.598587	0.281327	16.7833	0.451676	28.4306	0.560697	35.1839	0.839435	51.6578	0.148343	9.7104	0.421192	25.1406	0.699696	43.5871	0.901013	55.4284
0.281471	16.1627	0.0110631	0.62743	0.281534	15.9113	0.451865	26.8668	0.560899	33.2525	0.839542	48.8629	0.14883	9.46199	0.421412	23.8286	0.699807	41.2026	0.901108	52.4291
0.281686	15.3536	0.0121721	0.655678	0.281753	15.1271	0.452065	25.4679	0.561112	31.5239	0.839655	46.3557	0.149195	9.28871	0.421644	22.6485	0.699924	39.0665	0.901207	49.7387
0.281912	14.6233	0.0133218	0.683317	0.281982	14.4182	0.452275	24.209	0.561337	29.9679	0.839774	44.0942	0.149432	9.18171	0.421887	21.5815	0.700046	37.1419	0.901312	47.3116
0.28215	13.9609	0.0145107	0.71035	0.282223	13.7743	0.452496	23.0703	0.561573	28.5599	0.839899	42.044	0.149777	9.03298	0.422142	20.6122	0.700175	35.3989	0.901422	45.1112
0.282398	13.3574	0.0157371	0.736784	0.282475	13.1869	0.452728	22.0354	0.56182	27.2799	0.84003	40.1767	0.150157	8.87776	0.422409	19.7278	0.700311	33.813	0.901537	43.107
0.282657	12.8054	0.0169994	0.762613	0.282737	12.649	0.45297	21.0908	0.562078	26.1112	0.840167	38.4691	0.150683	8.67673	0.422688	18.9176	0.700452	32.3639	0.901658	41.2741
0.282928	12.2985	0.0182959	0.78785	0.283011	12.1547	0.453224	20.2252	0.562348	25.0399	0.84031	36.9014	0.151364	8.43783	0.422979	18.1729	0.7006	31.0348	0.901784	39.5913
0.283209	11.8316	0.0196252	0.812493	0.283296	11.6988	0.453487	19.4292	0.562629	24.0545	0.840459	35.4572	0.152208	8.16971	0.423281	17.4859	0.700754	29.8112	0.901915	38.041
0.283502	11.4	0.0209857	0.836552	0.283591	11.2771	0.453762	18.6947	0.562921	23.145	0.840613	34.1225	0.153228	7.88101	0.423594	16.8503	0.700914	28.6812	0.902051	36.6082
0.283805	11.0001	0.0223762	0.860036	0.283898	10.886	0.454047	18.0149	0.563224	22.3031	0.840774	32.8853	0.154436	7.57992	0.42392	16.2606	0.70108	27.6345	0.902193	35.2799
0.284119	10.6285	0.0237951	0.882954	0.284216	10.5222	0.454342	17.384	0.563539	21.5216	0.840941	31.7354	0.155683	7.30697	0.424257	15.712	0.701253	26.6621	0.90234	34.0453
0.284445	10.2823	0.0252411	0.905314	0.284501	10.2255	0.454648	16.7969	0.563864	20.7941	0.841113	30.6637	0.156967	7.05855	0.424605	15.2004	0.701431	25.7565	0.902492	32.8947
0.284781	9.95903	0.0267131	0.927127	0.284751	9.98603	0.454965	16.2493	0.564201	20.1154	0.841292	29.6627	0.158286	6.83164	0.424965	14.7223	0.701616	24.911	0.902649	31.8198
0.285128	9.65653	0.0282098	0.948406	0.284963	9.79681	0.455292	15.7373	0.564549	19.4807	0.841476	28.7256	0.159638	6.62368	0.425337	14.2744	0.701807	24.1199	0.902811	30.8135
0.285486	9.3729	0.0297301	0.969158	0.285133	9.65248	0.455629	15.2576	0.564908	18.8859	0.841667	27.8464	0.161024	6.43248	0.42572	13.8541	0.702004	23.3781	0.902979	29.8694
0.285854	9.10645	0.0312728	0.989399	0.285259	9.54921	0.455977	14.8073	0.565278	18.3274	0.841863	27.02	0.16244	6.2562	0.426114	13.4588	0.702208	22.6812	0.903152	28.9819
0.286234	8.8557	0.032837	1.00914	0.285341	9.48433	0.456336	14.3837	0.565658	17.802	0.842065	26.2418	0.163885	6.09323	0.42652	13.0866	0.702417	22.0251	0.90333	28.1461
0.286624	8.61932	0.0344216	1.02839	0.28546	9.39269	0.456704	13.9847	0.56605	17.3069	0.842273	25.5077	0.165359	5.94218	0.426938	12.7353	0.702633	21.4065	0.903513	27.3577
0.287025	8.39614	0.0360256	1.04717	0.28559	9.29521	0.457084	13.6081	0.566453	16.8395	0.842487	24.814	0.16686	5.80186	0.427366	12.4034	0.702855	20.8222	0.903702	26.6126
0.287437	8.18511	0.0376482	1.06547	0.285769	9.16604	0.457473	13.2521	0.566867	16.3976	0.842707	24.1576	0.168386	5.67121	0.427806	12.0893	0.703083	20.2695	0.903896	25.9075
0.28786	7.98528	0.0392885	1.08333	0.285999	9.00806	0.457873	12.9151	0.567292	15.9792	0.842933	23.5354	0.169937	5.54931	0.428258	11.7916	0.703317	19.7459	0.904095	25.2392
0.288293	7.79581	0.0409457	1.10075	0.286283	8.82463	0.458284	12.5957	0.567727	15.5826	0.843165	22.945	0.171511	5.43536	0.42872	11.5091	0.703557	19.2491	0.904299	24.6049
0.288737	7.61594	0.042619	1.11774	0.286624	8.61942	0.458704	12.2924	0.568173	15.206	0.843402	22.384	0.173108	5.32864	0.429194	11.2406	0.703804	18.7772	0.904509	24.0022
0.289191	7.44496	0.0443076	1.13431	0.287025	8.39623	0.459135	12.0043	0.568631	14.848	0.843646	21.8501	0.174727	5.2285	0.429679	10.9853	0.704056	18.3284	0.904723	23.4286
0.289656	7.28227	0.046011	1.15047	0.287437	8.1852	0.459577	11.7301	0.569098	14.5072	0.843895	21.3416	0.176366	5.13439	0.430176	10.7421	0.704315	17.9009	0.904943	22.8823
0.290132	7.12728	0.0477283	1.16624	0.28786	7.98537	0.460028	11.4689	0.569577	14.1826	0.84415	20.8566	0.178024	5.04581	0.430683	10.5102	0.70458	17.4934	0.905169	22.3611
0.290618	6.97948	0.049459	1.18163	0.288293	7.79589	0.46049	11.2198	0.570066	13.8729	0.844411	20.3936	0.179701	4.9623	0.431134	10.3168	0.704851	17.1045	0.905399	21.8636
0.291115	6.83839	0.0512024	1.19665	0.288737	7.61602	0.460961	10.982	0.570566	13.5773	0.844678	19.9511	0.181396	4.88347	0.431525	10.158	0.705128	16.7329	0.905634	21.3881
0.291622	6.70359	0.0529579	1.2113	0.289191	7.44504	0.461443	10.7547	0.571077	13.2947	0.844951	19.5278	0.183108	4.80893	0.431853	10.0305	0.705411	16.3775	0.905875	20.9332
0.29214	6.57468	0.0547252	1.2256	0.289656	7.28234	0.461935	10.5374	0.571598	13.0243	0.84523	19.1225	0.184836	4.73838	0.432116	9.93224	0.7057	16.0373	0.906121	20.4976
0.292668	6.4513	0.0565035	1.23957	0.290132	7.12735	0.462372	10.3555	0.572129	12.7654	0.845514	18.7341	0.18658	4.67151	0.43231	9.86129	0.705996	15.7114	0.906372	20.08
0.293206	6.3331	0.0582925	1.2532	0.290618	6.97954	0.462751	10.2058	0.572672	12.5173	0.845805	18.3615	0.188339	4.60805	0.432436	9.81646	0.706297	15.3988	0.906628	19.6795
0.293755	6.21979	0.0600916	1.26651	0.291115	6.83846	0.463068	10.0855	0.573224	12.2793	0.846101	18.0037	0.190112	4.54777	0.432617	9.7528	0.706605	15.0988	0.90689	19.295
0.294314	6.11107	0.0619004	1.27951	0.291622	6.70365	0.463321	9.99254	0.573787	12.0509	0.846403	17.6601	0.191899	4.49043	0.432815	9.68462	0.706918	14.8106	0.907157	18.9255
0.294884	6.0067	0.0637186	1.2922	0.29214	6.57474	0.463509	9.92537	0.57436	11.8314	0.846711	17.3296	0.193699	4.43584	0.433087	9.59355	0.707238	14.5336	0.907428	18.5702
0.295464	5.90641	0.0655456	1.3046	0.292668	6.45135	0.46363	9.88289	0.574944	11.6204	0.847025	17.0116	0.195512	4.38382	0.433434	9.48105	0.707564	14.2672	0.907706	18.2283
0.296054	5.81	0.067381	1.31672	0.293206	6.33315	0.463805	9.82252	0.575538	11.4174	0.847344	16.7054	0.197336	4.33418	0.43386	9.34882	0.707896	14.0107	0.907988	17.8991
0.296654	5.71724	0.0692247	1.32856	0.293755	6.21984	0.463996	9.7578	0.576142	11.222	0.847669	16.4104	0.199172	4.28679	0.434367	9.19881	0.708234	13.7635	0.908275	17.5818
0.297265	5.62795	0.0710762	1.34013	0.294314	6.11112	0.464258	9.67127	0.576757	11.0337	0.848001	16.126	0.201019	4.24149	0.434958	9.03311	0.708578	13.5253	0.908568	17.2759
0.297885	5.54195	0.072935	1.35144	0.294884	6.00674	0.464593	9.56422	0.577381	10.8522	0.848337	15.8515	0.202877	4.19816	0.435561	8.87392	0.708928	13.2956	0.908865	16.9808
0.298516	5.45906	0.0748012	1.36249	0.295463	5.90646	0.465003	9.43818	0.578016	10.6772	0.84868	15.5866	0.204745	4.15667	0.436174	8.72088	0.709284	13.0738	0.909168	16.6958
0.299157	5.37913	0.076674	1.3733	0.296054	5.81004	0.465491	9.2949	0.578577	10.5296	0.849029	15.3307	0.206623	4.11692	0.436798	8.57365	0.709646	12.8596	0.909476	16.4205
0.299808	5.30201	0.0785535	1.38387	0.296654	5.71728	0.466059	9.13629	0.579062	10.4074	0.849383	15.0833	0.20851	4.0788	0.437433	8.43191	0.710014	12.6527	0.909789	16.1544
0.300469	5.22756	0.0804393	1.39421	0.297264	5.62799	0.466638	8.98356	0.579467	10.3086	0.849743	14.8441	0.210406	4.04222	0.438079	8.29537	0.710388	12.4526	0.910108	15.8971
0.30114	5.15567	0.0823311	1.40432	0.297885	5.54198	0.467227	8.83639	0.57979	10.232	0.850109	14.6127	0.212311	4.00709	0.438734	8.16376	0.710768	12.259	0.910431	15.6481
0.301821	5.0862	0.0842288	1.41421	0.298516	5.45909	0.467825	8.69451	0.580028	10.1764	0.85048	14.3886	0.214224	3.97333	0.439401	8.03683	0.711154	12.0717	0.91076	15.407
0.302512	5.01904	0.0861319	1.42389	0.299157	5.37916	0.468433	8.55763	0.580182	10.1412	0.850857	14.1716	0.216145	3.94086	0.440078	7.91434	0.711546	11.8903	0.911094	15.1735
0.303213	4.95409	0.0880404	1.43337	0.299807	5.30204	0.469051	8.42551	0.580403	10.0911	0.85124	13.9613	0.218074	3.90962	0.440766	7.79608	0.711944	11.7146	0.911433	14.9472
0.303924	4.89124	0.0899541	1.44264	0.300468	5.2276	0.469678	8.2979	0.580646	10.0372	0.851629	13.7575	0.22001	3.87953	0.441463	7.68183	0.712348	11.5443	0.911777	14.7278
0.304644	4.83042	0.0918725	1.45172	0.301139	5.1557	0.470316	8.1746	0.580977	9.96501	0.852024	13.5598	0.221953	3.85054	0.442172	7.57141	0.712758	11.3791	0.912126	14.515
0.305281	4.77898	0.0937959	1.4606	0.301821	5.08623	0.470962	8.0554	0.581399	9.87531	0.852424	13.3679	0.223904	3.82258	0.44289	7.46462	0.713174	11.2189	0.91248	14.3085
0.305829	4.73624	0.0957236	1.46931	0.302512	5.01907	0.471618	7.94009	0.581915	9.76922	0.85283	13.1817	0.22586	3.79562	0.443619	7.36131	0.713596	11.0633	0.91284	14.108
0.306286	4.70166	0.0976558	1.47783	0.303212	4.95412	0.472284	7.8285	0.582526	9.64798	0.853241	13.0008	0.227824	3.76959	0.444358	7.26131	0.714024	10.9124	0.913204	13.9133
0.30665	4.67477	0.099592	1.48618	0.303923	4.89127	0.47296	7.72046	0.583237	9.51297	0.853659	12.8251	0.229793	3.74445	0.445107	7.16448	0.714402	10.7843	0.913574	13.7241
0.30692	4.65527	0.101532	1.49435	0.304644	4.83044	0.473644	7.61581	0.583958	9.38215	0.854082	12.6544	0.231768	3.72016	0.445867	7.07067	0.714727	10.6777	0.913949	13.5402
0.307093	4.64289	0.103477	1.50237	0.305375	4.77154	0.474338	7.5144	0.584689	9.25534	0.85451	12.4883	0.233749	3.69667	0.446636	6.97974	0.714999	10.5912	0.914328	13.3614
0.307342	4.62526	0.105424	1.51022	0.306115	4.71447	0.475042	7.41609	0.585429	9.13237	0.854945	12.3268	0.235736	3.67395	0.447416	6.89159	0.715215	10.5238	0.914713	13.1875
0.307615	4.6063	0.107376	1.51792	0.306865	4.65917	0.475755	7.32074	0.586179	9.01307	0.855385	12.1697	0.237727	3.65196	0.448205	6.80607	0.715375	10.4749	0.915103	13.0183
0.307988	4.58083	0.109331	1.52546	0.307626	4.60556	0.476477	7.22822	0.586938	8.89729	0.855831	12.0167	0.239724	3.63068	0.449005	6.7231	0.715478	10.4438	0.915499	12.8535
0.308462	4.54917	0.111289	1.53286	0.308395	4.55357	0.477208	7.13842	0.587707	8.78487	0.856282	11.8678	0.241726	3.61005	0.449814	6.64255	0.715627	10.3995	0.915899	12.6931
0.309041	4.51165	0.113251	1.54011	0.309175	4.50314	0.477949	7.05123	0.588485	8.67568	0.856739	11.7228	0.243733	3.59007	0.450634	6.56433	0.715788	10.3518	0.916304	12.5369
0.309727	4.4687	0.114962	1.54631	0.309964	4.45419	0.478699	6.96653	0.589273	8.56958	0.857201	11.5815	0.245744	3.57069	0.451463	6.48835	0.71601	10.2877	0.916714	12.3846
0.310523	4.42076	0.116423	1.55152	0.310764	4.40667	0.479458	6.88423	0.59007	8.46646	0.85767	11.4437	0.24776	3.55189	0.452302	6.41451	0.716292	10.2078	0.91713	12.2362
0.311329	4.37421	0.117633	1.55577	0.311572	4.36053	0.480226	6.80424	0.590876	8.36619	0.858144	11.3095	0.249779	3.53365	0.45315	6.34274	0.716636	10.113	0.91755	12.0915
0.312145	4.329	0.118589	1.55909	0.312391	4.31571	0.481003	6.72645	0.591692	8.26866	0.858623	11.1785	0.251804	3.51594	0.454008	6.27295	0.717044	10.0041	0.917976	11.9504
0.31297	4.28508	0.119293	1.56152	0.313219	4.27217	0.481789	6.65079	0.592516	8.17376	0.859045	11.067	0.253832	3.49875	0.454876	6.20506	0.717517	9.88224	0.918407	11.8127
0.313805	4.24239	0.119744	1.56306	0.314057	4.22984	0.482584	6.57718	0.59335	8.08139	0.859409	10.9739	0.255864	3.48204	0.455754	6.139	0.717996	9.76356	0.918842	11.6784
0.314649	4.2009	0.120392	1.56527	0.314904	4.18869	0.483388	6.50553	0.594193	7.99146	0.859712	10.8981	0.257899	3.4658	0.456641	6.07471	0.718482	9.64792	0.919283	11.5472
0.315504	4.16055	0.121097	1.56765	0.315761	4.14868	0.484201	6.43577	0.595045	7.90388	0.859953	10.839	0.259939	3.45001	0.457537	6.01212	0.718973	9.53522	0.919729	11.4192
0.316367	4.12131	0.122057	1.57087	0.316628	4.10976	0.485023	6.36784	0.595906	7.81856	0.860131	10.7959	0.261982	3.43465	0.458443	5.95117	0.719469	9.42534	0.920179	11.2941
0.317241	4.08313	0.123271	1.57489	0.317504	4.07189	0.485854	6.30166	0.596776	7.73541	0.860245	10.7686	0.264028	3.4197	0.459358	5.89179	0.719972	9.31819	0.920576	11.1875
0.318124	4.04598	0.12474	1.57969	0.31839	4.03504	0.486693	6.23717	0.597655	7.65437	0.86041	10.7295	0.266077	3.40516	0.460282	5.83393	0.720481	9.21367	0.920918	11.0983
0.319017	4.00981	0.126465	1.58525	0.319286	3.99917	0.487541	6.17432	0.598542	7.57534	0.86059	10.6874	0.26813	3.391	0.461216	5.77754	0.720995	9.11169	0.921202	11.0257
0.319919	3.97461	0.128447	1.5915	0.320191	3.96425	0.488398	6.11304	0.599439	7.49827	0.860835	10.6307	0.270186	3.3772	0.462159	5.72256	0.721515	9.01215	0.921428	10.969
0.320831	3.94033	0.130432	1.59765	0.321106	3.93024	0.489263	6.05328	0.600344	7.42308	0.861148	10.56	0.272245	3.36376	0.463111	5.66895	0.722041	8.91497	0.921595	10.9277
0.321752	3.90694	0.132419	1.60368	0.32203	3.89711	0.490137	5.99499	0.601258	7.34971	0.861529	10.4757	0.274306	3.35066	0.464073	5.61666	0.722573	8.82007	0.921703	10.9014
0.322684	3.87442	0.134407	1.6096	0.322964	3.86484	0.49102	5.93811	0.60218	7.2781	0.861979	10.3787	0.276371	3.33789	0.465043	5.56565	0.72311	8.72738	0.921857	10.8639
0.323624	3.84272	0.136398	1.61542	0.323908	3.83339	0.491911	5.88261	0.603112	7.20818	0.862502	10.2698	0.278438	3.32544	0.466022	5.51586	0.723654	8.63682	0.922026	10.8235
0.324575	3.81184	0.138391	1.62113	0.324861	3.80274	0.49281	5.82842	0.604051	7.13991	0.86303	10.1634	0.280508	3.31329	0.467011	5.46727	0.724203	8.54832	0.922256	10.769
0.325535	3.78174	0.140385	1.62674	0.325824	3.77287	0.493718	5.77552	0.604999	7.07322	0.863563	10.0593	0.28258	3.30144	0.468008	5.41983	0.724757	8.4618	0.92255	10.7009
0.326505	3.75239	0.142382	1.63226	0.326797	3.74374	0.494634	5.72385	0.605956	7.00807	0.864102	9.95748	0.284655	3.28986	0.469014	5.37351	0.725318	8.37722	0.922907	10.6198
0.327484	3.72377	0.14438	1.63767	0.327779	3.71534	0.495559	5.67338	0.606921	6.9444	0.864646	9.85791	0.286732	3.27857	0.470029	5.32826	0.725884	8.29451	0.923329	10.5263
0.328473	3.69586	0.14638	1.64299	0.328772	3.68764	0.496491	5.62407	0.607894	6.88217	0.865196	9.7605	0.288811	3.26753	0.471053	5.28406	0.726456	8.2136	0.923818	10.4212
0.329472	3.66865	0.148381	1.64822	0.329773	3.66062	0.497433	5.57589	0.608876	6.82133	0.865752	9.66518	0.290893	3.25675	0.472086	5.24086	0.727034	8.13444	0.924313	10.3183
0.330481	3.64209	0.150385	1.65336	0.330785	3.63426	0.498382	5.52879	0.609866	6.76184	0.866313	9.57188	0.292976	3.24622	0.473127	5.19865	0.727617	8.05698	0.924812	10.2176
0.331499	3.61619	0.152389	1.65841	0.331806	3.60855	0.499339	5.48274	0.610864	6.70366	0.866879	9.48054	0.295062	3.23593	0.474177	5.15739	0.728206	7.98117	0.925316	10.119
0.332528	3.59091	0.154395	1.66338	0.332838	3.58345	0.500305	5.43771	0.61187	6.64674	0.867451	9.39111	0.29715	3.22586	0.475235	5.11705	0.728801	7.90694	0.925826	10.0225
0.333566	3.56624	0.156402	1.66826	0.333879	3.55896	0.501278	5.39367	0.612884	6.59105	0.868028	9.30351	0.29924	3.21602	0.476302	5.0776	0.729402	7.83427	0.92634	9.92791
0.334614	3.54216	0.158411	1.67306	0.33493	3.53506	0.50226	5.3506	0.613906	6.53655	0.86861	9.21771	0.301332	3.20639	0.477378	5.03901	0.730008	7.76309	0.926859	9.83526
0.335672	3.51866	0.160421	1.67778	0.335991	3.51172	0.503249	5.30845	0.614937	6.4832	0.869199	9.13365	0.303425	3.19698	0.478462	5.00127	0.73062	7.69337	0.927383	9.74449
0.33674	3.49571	0.162433	1.68242	0.337062	3.48894	0.504247	5.26721	0.615975	6.43098	0.869792	9.05127	0.30552	3.18776	0.479554	4.96434	0.731237	7.62507	0.927912	9.65552
0.337818	3.47331	0.164445	1.68698	0.338143	3.4667	0.505252	5.22684	0.617021	6.37984	0.870391	8.97053	0.307617	3.17874	0.480655	4.9282	0.73186	7.55813	0.928446	9.56831
0.338907	3.45144	0.166459	1.69147	0.339234	3.44499	0.506265	5.18732	0.618075	6.32976	0.870995	8.89138	0.309716	3.1699	0.481763	4.89283	0.732489	7.49253	0.928985	9.48281
0.340005	3.43008	0.168473	1.69589	0.340336	3.42378	0.507286	5.14863	0.619136	6.2807	0.871605	8.81377	0.311816	3.16125	0.482881	4.85821	0.733123	7.42823	0.929529	9.39898
0.341114	3.40922	0.170489	1.70024	0.341448	3.40307	0.508315	5.11074	0.620206	6.23265	0.87222	8.73767	0.313918	3.15278	0.484006	4.82431	0.733763	7.36518	0.930077	9.31675
0.342233	3.38885	0.172506	1.70451	0.34257	3.38284	0.509351	5.07363	0.621283	6.18555	0.87284	8.66303	0.316021	3.14448	0.48514	4.79112	0.734408	7.30336	0.930631	9.2361
0.343363	3.36896	0.174524	1.70872	0.343703	3.36309	0.510395	5.03728	0.622367	6.1394	0.873466	8.58981	0.318125	3.13634	0.486281	4.75861	0.735059	7.24273	0.93119	9.15697
0.344503	3.34953	0.176543	1.71286	0.344847	3.34379	0.511446	5.00167	0.62346	6.09417	0.874097	8.51797	0.320231	3.12837	0.487431	4.72676	0.735716	7.18326	0.931753	9.07933
0.345654	3.33055	0.178562	1.71694	0.346001	3.32495	0.512505	4.96677	0.624559	6.04982	0.874734	8.44747	0.322339	3.12056	0.488589	4.69556	0.736378	7.12491	0.932321	9.00313
0.346816	3.31201	0.180583	1.72095	0.347166	3.30654	0.513572	4.93257	0.625667	6.00634	0.875375	8.37829	0.324447	3.11289	0.489754	4.665	0.737046	7.06766	0.932894	8.92833
0.347989	3.2939	0.182604	1.7249	0.348342	3.28856	0.514646	4.89905	0.626781	5.9637	0.876022	8.31037	0.326557	3.10538	0.490928	4.63504	0.737719	7.01147	0.933472	8.85491
0.349172	3.27621	0.184627	1.72878	0.349529	3.27099	0.515727	4.86618	0.627903	5.92188	0.876675	8.2437	0.328668	3.098	0.49211	4.60568	0.738398	6.95632	0.934055	8.78281
0.350367	3.25893	0.18665	1.73261	0.350727	3.25384	0.516816	4.83396	0.629033	5.88085	0.877332	8.17824	0.330781	3.09077	0.493299	4.5769	0.739082	6.90219	0.934643	8.71202
0.351574	3.24206	0.188674	1.73638	0.351937	3.23708	0.517912	4.80236	0.630169	5.84061	0.877995	8.11395	0.332894	3.08367	0.494496	4.54869	0.739772	6.84904	0.935236	8.64249
0.352791	3.22557	0.190698	1.74009	0.353158	3.22071	0.519016	4.77137	0.631313	5.80111	0.878664	8.0508	0.335008	3.0767	0.495701	4.52103	0.740467	6.79684	0.935833	8.57419
0.354021	3.20947	0.192723	1.74375	0.354391	3.20472	0.520126	4.74098	0.632464	5.76236	0.879337	7.98877	0.337124	3.06987	0.496913	4.4939	0.741168	6.74559	0.936436	8.50708
0.355262	3.19375	0.194749	1.74735	0.355636	3.18911	0.521244	4.71116	0.633622	5.72432	0.880016	7.92784	0.33924	3.06315	0.498133	4.46729	0.741874	6.69524	0.937043	8.44115
0.356515	3.17839	0.196776	1.75089	0.356893	3.17386	0.522369	4.6819	0.634787	5.68698	0.8807	7.86796	0.341358	3.05655	0.499361	4.44119	0.742586	6.64578	0.937655	8.37636
0.35778	3.1634	0.198803	1.75439	0.358162	3.15897	0.523501	4.65319	0.63596	5.65031	0.881389	7.80912	0.343476	3.05008	0.500597	4.41559	0.743303	6.59719	0.938271	8.31269
0.359058	3.14876	0.20083	1.75783	0.359443	3.14444	0.52464	4.62501	0.637139	5.61432	0.882083	7.75128	0.345595	3.04371	0.501839	4.39047	0.744026	6.54945	0.938893	8.25009
0.360348	3.13446	0.202859	1.76122	0.360737	3.13025	0.525786	4.59735	0.638325	5.57897	0.882783	7.69443	0.347715	3.03746	0.50309	4.36583	0.744754	6.50252	0.939519	8.18856
0.361652	3.12051	0.204887	1.76456	0.362044	3.11639	0.526939	4.5702	0.639518	5.54425	0.883488	7.63855	0.349836	3.03132	0.504347	4.34164	0.745487	6.45641	0.94015	8.12806
0.362968	3.10689	0.206917	1.76785	0.363365	3.10287	0.528099	4.54355	0.640718	5.51014	0.884198	7.5836	0.351957	3.02527	0.505613	4.3179	0.746226	6.41107	0.940786	8.06856
0.364297	3.0936	0.208946	1.77109	0.364698	3.08968	0.529266	4.51737	0.641925	5.47664	0.884913	7.52956	0.35408	3.01934	0.506885	4.29459	0.74697	6.36651	0.941427	8.01005
0.365641	3.08063	0.210977	1.77429	0.366046	3.07681	0.530439	4.49167	0.643138	5.44372	0.885633	7.47642	0.356203	3.0135	0.508165	4.27171	0.747719	6.32269	0.942072	7.9525
0.366998	3.06798	0.213007	1.77744	0.367407	3.06425	0.53162	4.46643	0.644358	5.41137	0.886358	7.42415	0.358326	3.00776	0.509452	4.24925	0.748474	6.2796	0.942723	7.89589
0.368369	3.05564	0.215039	1.78055	0.368782	3.05201	0.532807	4.44164	0.645585	5.37958	0.887089	7.37273	0.360451	3.00211	0.510746	4.2272	0.749235	6.23722	0.943378	7.84019
0.369754	3.04361	0.21707	1.78361	0.370172	3.04007	0.534	4.41728	0.646818	5.34833	0.887824	7.32215	0.362576	2.99656	0.512047	4.20554	0.75	6.19554	0.944037	7.78539
0.371155	3.03189	0.219102	1.78663	0.371577	3.02843	0.535201	4.39335	0.648058	5.31762	0.888565	7.27238	0.364701	2.99109	0.513356	4.18427	0.750771	6.15454	0.944702	7.73147
0.37257	3.02046	0.221134	1.7896	0.372997	3.0171	0.536408	4.36984	0.649304	5.28742	0.889311	7.2234	0.366827	2.98571	0.514671	4.16337	0.751547	6.1142	0.945371	7.6784
0.374001	3.00933	0.223167	1.79254	0.374432	3.00605	0.537621	4.34673	0.650557	5.25774	0.890062	7.1752	0.368953	2.98042	0.515994	4.14285	0.752329	6.07452	0.946045	7.62616
0.375447	2.99849	0.2252	1.79543	0.375883	2.9953	0.538841	4.32402	0.651816	5.22854	0.890818	7.12776	0.37108	2.97521	0.517324	4.12268	0.753116	6.03547	0.946723	7.57474
0.376909	2.98793	0.227233	1.79828	0.37735	2.98483	0.540068	4.3017	0.653082	5.19983	0.891579	7.08106	0.373208	2.97008	0.51866	4.10287	0.753908	5.99704	0.947407	7.52412
0.378388	2.97766	0.229267	1.8011	0.378834	2.97464	0.541301	4.27976	0.654354	5.1716	0.892345	7.03509	0.375336	2.96503	0.520004	4.08341	0.754705	5.95922	0.948095	7.47428
0.379883	2.96767	0.231301	1.80387	0.380334	2.96473	0.54254	4.25819	0.655632	5.14382	0.893117	6.98983	0.377464	2.96005	0.521354	4.06427	0.755508	5.92199	0.948787	7.4252
0.381395	2.95796	0.233335	1.80661	0.381852	2.9551	0.543785	4.23698	0.656916	5.1165	0.893893	6.94526	0.379592	2.95515	0.522711	4.04547	0.756315	5.88534	0.949484	7.37687
0.382925	2.94851	0.235369	1.80931	0.383387	2.94574	0.545037	4.21613	0.658207	5.08962	0.894674	6.90137	0.381721	2.95033	0.524075	4.02699	0.757129	5.84926	0.950186	7.32927
0.384472	2.93934	0.237404	1.81197	0.384939	2.93665	0.546295	4.19562	0.659504	5.06317	0.89546	6.85815	0.38385	2.94557	0.525446	4.00882	0.757947	5.81373	0.950893	7.28238
0.386037	2.93043	0.239439	1.8146	0.38651	2.92782	0.54756	4.17546	0.660806	5.03714	0.896252	6.81557	0.38598	2.94089	0.526824	3.99096	0.75877	5.77875	0.951604	7.2362
0.387621	2.92179	0.241474	1.81719	0.388099	2.91925	0.54883	4.15562	0.662115	5.01152	0.897048	6.77364	0.38811	2.93627	0.528208	3.97341	0.759599	5.7443	0.95232	7.1907
0.389223	2.91341	0.243509	1.81975	0.389707	2.91094	0.550106	4.13611	0.66343	4.98631	0.897849	6.73232	0.390239	2.93172	0.529599	3.95614	0.760433	5.71038	0.953041	7.14587
0.390844	2.90528	0.245545	1.82227	0.391333	2.90289	0.551389	4.11691	0.664751	4.9615	0.898655	6.69162	0.39237	2.92723	0.530996	3.93916	0.761272	5.67696	0.953766	7.10169
0.392484	2.8974	0.247581	1.82476	0.392979	2.89509	0.552678	4.09802	0.666078	4.93707	0.899466	6.65151	0.3945	2.92281	0.5324	3.92247	0.762116	5.64404	0.954496	7.05816
0.394144	2.88978	0.249616	1.82722	0.394645	2.88754	0.553972	4.07944	0.66741	4.91302	0.900283	6.61199	0.39663	2.91845	0.533811	3.90605	0.762966	5.61161	0.95523	7.01526
0.395823	2.8824	0.251652	1.82965	0.39633	2.88024	0.555273	4.06115	0.668749	4.88933	0.901103	6.57304	0.398761	2.91414	0.535228	3.8899	0.76382	5.57966	0.955969	6.97298
0.397522	2.87526	0.253689	1.83204	0.398034	2.87317	0.556579	4.04316	0.670093	4.86602	0.901929	6.53466	0.400891	2.9099	0.536651	3.87401	0.76468	5.54818	0.956713	6.93129
0.39924	2.86837	0.255725	1.8344	0.399759	2.86635	0.557891	4.02545	0.671443	4.84305	0.90276	6.49682	0.403022	2.90572	0.538081	3.85838	0.765544	5.51716	0.957461	6.8902
0.400979	2.8617	0.257761	1.83673	0.401504	2.85975	0.559209	4.00801	0.672798	4.82044	0.903596	6.45952	0.405153	2.90159	0.539517	3.84301	0.766414	5.48658	0.958213	6.8497
0.402738	2.85527	0.259798	1.83904	0.403269	2.85339	0.560533	3.99085	0.67416	4.79816	0.904436	6.42276	0.407283	2.89751	0.54096	3.82788	0.767289	5.45645	0.958971	6.80975
0.404518	2.84907	0.261834	1.84131	0.405055	2.84725	0.561863	3.97396	0.675527	4.77622	0.905282	6.3865	0.409414	2.89349	0.542409	3.813	0.768169	5.42676	0.959732	6.77037
0.406317	2.84308	0.263871	1.84355	0.40686	2.84133	0.563198	3.95732	0.676899	4.7546	0.906132	6.35076	0.411545	2.88952	0.543864	3.79835	0.769054	5.39748	0.960499	6.73153
0.408137	2.83732	0.265908	1.84577	0.408686	2.83563	0.564539	3.94094	0.678277	4.7333	0.906987	6.31551	0.413675	2.88561	0.545326	3.78393	0.769944	5.36862	0.96127	6.69323
0.409976	2.83177	0.267945	1.84795	0.410531	2.83014	0.565886	3.92482	0.67966	4.71232	0.907847	6.28075	0.415806	2.88174	0.546793	3.76975	0.770839	5.34017	0.962045	6.65545
0.411836	2.82642	0.269981	1.85011	0.412397	2.82486	0.567238	3.90893	0.681049	4.69164	0.908712	6.24647	0.417936	2.87792	0.548267	3.75578	0.771739	5.31212	0.962825	6.61819
0.413716	2.82128	0.272018	1.85225	0.414282	2.81978	0.568595	3.89329	0.682444	4.67127	0.909581	6.21266	0.420067	2.87415	0.549747	3.74204	0.772644	5.28446	0.963609	6.58143
0.415615	2.81634	0.274055	1.85435	0.416187	2.8149	0.569958	3.87789	0.683843	4.65118	0.910456	6.17931	0.422197	2.87043	0.551233	3.72851	0.773555	5.25719	0.964398	6.54517
0.417533	2.81159	0.276092	1.85643	0.418111	2.8102	0.571327	3.86271	0.685248	4.63139	0.911335	6.14641	0.424327	2.86675	0.552726	3.71519	0.77447	5.23029	0.965191	6.5094
0.419471	2.80702	0.278129	1.85849	0.420055	2.80569	0.572701	3.84776	0.686659	4.61188	0.912219	6.11395	0.426456	2.86312	0.554224	3.70207	0.77539	5.20376	0.965989	6.4741
0.421427	2.80264	0.280166	1.86051	0.422016	2.80136	0.57408	3.83304	0.688074	4.59265	0.913108	6.08193	0.428586	2.85953	0.555728	3.68916	0.776315	5.17759	0.966791	6.43926
0.423402	2.79843	0.282203	1.86252	0.423997	2.79721	0.575464	3.81853	0.689495	4.57369	0.914001	6.05034	0.430715	2.85598	0.557238	3.67645	0.777245	5.15178	0.967598	6.40489
0.425394	2.7944	0.28424	1.8645	0.425995	2.79322	0.576854	3.80423	0.690921	4.555	0.914899	6.01916	0.432844	2.85248	0.558754	3.66393	0.77818	5.12632	0.968409	6.37097
0.427405	2.79052	0.286277	1.86645	0.42801	2.78939	0.578249	3.79014	0.692352	4.53657	0.915802	5.98839	0.434973	2.84901	0.560276	3.6516	0.77912	5.1012	0.969225	6.33749
0.429432	2.78681	0.288314	1.86838	0.430042	2.78572	0.57965	3.77626	0.693788	4.51839	0.91671	5.95803	0.437102	2.84559	0.561804	3.63946	0.780064	5.07642	0.970045	6.30445
0.431476	2.78325	0.290351	1.87029	0.432092	2.78221	0.581055	3.76258	0.695229	4.50047	0.917622	5.92806	0.43923	2.8422	0.563338	3.6275	0.781014	5.05197	0.970869	6.27183
0.433536	2.77983	0.292388	1.87218	0.434157	2.77883	0.582466	3.7491	0.696675	4.4828	0.918539	5.89848	0.441358	2.83886	0.564878	3.61572	0.781969	5.02785	0.971698	6.23963
0.435613	2.77655	0.294425	1.87404	0.436238	2.7756	0.583882	3.7358	0.698126	4.46536	0.91946	5.86928	0.443485	2.83555	0.566423	3.60412	0.782928	5.00404	0.972531	6.20784
0.437704	2.77342	0.296462	1.87588	0.438333	2.7725	0.585302	3.7227	0.699583	4.44817	0.920387	5.84046	0.445612	2.83228	0.567974	3.59269	0.783892	4.98054	0.973369	6.17645
0.43981	2.77041	0.298499	1.8777	0.440444	2.76953	0.586728	3.70979	0.701043	4.43121	0.921318	5.81201	0.447739	2.82904	0.569531	3.58143	0.784861	4.95735	0.974211	6.14546
0.441931	2.76752	0.300536	1.8795	0.442569	2.76668	0.588159	3.69706	0.702509	4.41447	0.922253	5.78391	0.449865	2.82584	0.571093	3.57034	0.785835	4.93447	0.975057	6.11486
0.444065	2.76475	0.302572	1.88127	0.444707	2.76395	0.589595	3.6845	0.70398	4.39797	0.923193	5.75618	0.451991	2.82268	0.572661	3.55941	0.786814	4.91188	0.975908	6.08464
0.446212	2.7621	0.304609	1.88303	0.446858	2.76133	0.591035	3.67212	0.705455	4.38168	0.924138	5.72879	0.454117	2.81954	0.574235	3.54864	0.787798	4.88958	0.976763	6.0548
0.448372	2.75956	0.306646	1.88476	0.449022	2.75882	0.592481	3.65992	0.706935	4.36561	0.925087	5.70174	0.456241	2.81644	0.575815	3.53803	0.788786	4.86756	0.977622	6.02533
0.450545	2.75712	0.308682	1.88648	0.451198	2.75641	0.593931	3.64788	0.70842	4.34975	0.926041	5.67503	0.458366	2.81338	0.5774	3.52757	0.789779	4.84583	0.978486	5.99622
0.452729	2.75478	0.310719	1.88817	0.453385	2.75409	0.595386	3.63601	0.70991	4.3341	0.927	5.64865	0.46049	2.81034	0.57899	3.51727	0.790777	4.82438	0.979354	5.96747
0.454924	2.75253	0.312755	1.88985	0.455584	2.75188	0.596846	3.62431	0.711404	4.31866	0.927963	5.6226	0.462613	2.80734	0.580586	3.50712	0.79178	4.80319	0.980226	5.93907
0.457131	2.75038	0.314791	1.8915	0.457794	2.74975	0.598311	3.61276	0.712903	4.30342	0.928931	5.59687	0.464736	2.80436	0.582187	3.49711	0.792787	4.78227	0.981102	5.91101
0.459347	2.74831	0.316828	1.89314	0.460013	2.7477	0.59978	3.60137	0.714406	4.28838	0.929903	5.57145	0.466858	2.80142	0.583794	3.48724	0.793799	4.76162	0.981983	5.88329
0.461574	2.74632	0.318864	1.89475	0.462243	2.74574	0.601254	3.59014	0.715914	4.27353	0.93088	5.54634	0.46898	2.79851	0.585407	3.47752	0.794816	4.74122	0.982868	5.85591
0.46381	2.74441	0.3209	1.89635	0.464482	2.74385	0.602733	3.57906	0.717426	4.25887	0.931861	5.52154	0.471101	2.79562	0.587025	3.46794	0.795838	4.72108	0.983758	5.82885
0.466055	2.74258	0.322935	1.89793	0.466729	2.74204	0.604216	3.56812	0.718943	4.2444	0.932847	5.49703	0.473221	2.79276	0.588648	3.45849	0.796864	4.70118	0.984651	5.80211
0.468309	2.74081	0.324971	1.8995	0.468986	2.7403	0.605704	3.55734	0.720464	4.23011	0.933837	5.47282	0.475341	2.78993	0.590276	3.44918	0.797895	4.68153	0.985549	5.77569
0.470571	2.73912	0.327007	1.90104	0.47125	2.73862	0.607196	3.5467	0.72199	4.21601	0.934831	5.4489	0.47746	2.78713	0.59191	3.44	0.798931	4.66212	0.986451	5.74959
0.472841	2.73748	0.329042	1.90257	0.473523	2.73701	0.608693	3.53619	0.72352	4.20208	0.935831	5.42526	0.479579	2.78435	0.593549	3.43095	0.799971	4.64295	0.987357	5.72379
0.475119	2.73591	0.331078	1.90408	0.475803	2.73545	0.610194	3.52583	0.725054	4.18833	0.936834	5.4019	0.481696	2.7816	0.595193	3.42202	0.801016	4.62401	0.988268	5.69829
0.477404	2.7344	0.333113	1.90558	0.47809	2.73396	0.6117	3.5156	0.726593	4.17474	0.937842	5.37881	0.483813	2.77887	0.596843	3.41322	0.802066	4.6053	0.989182	5.67308
0.479696	2.73294	0.335148	1.90705	0.480384	2.73252	0.61321	3.50551	0.728135	4.16133	0.938855	5.356	0.48593	2.77617	0.598498	3.40454	0.80312	4.58682	0.990101	5.64817
0.481994	2.73154	0.337183	1.90852	0.482684	2.73113	0.614724	3.49555	0.729682	4.14809	0.939872	5.33345	0.488045	2.7735	0.600158	3.39599	0.804179	4.56855	0.991024	5.62355
0.484299	2.73018	0.339218	1.90996	0.484991	2.72979	0.616243	3.48572	0.731234	4.135	0.940893	5.31117	0.49016	2.77084	0.601823	3.38755	0.805242	4.55051	0.991951	5.59921
0.48661	2.72888	0.341252	1.91139	0.487303	2.7285	0.617766	3.47602	0.732789	4.12208	0.941918	5.28914	0.492274	2.76821	0.603493	3.37923	0.80631	4.53268	0.992882	5.57514
0.488926	2.72762	0.343287	1.9128	0.489621	2.72725	0.619293	3.46644	0.734348	4.10932	0.942949	5.26737	0.494387	2.76561	0.605168	3.37102	0.807383	4.51506	0.993818	5.55135
0.491248	2.7264	0.345321	1.9142	0.491945	2.72604	0.620825	3.45698	0.735912	4.09671	0.943983	5.24584	0.4965	2.76302	0.606849	3.36293	0.80846	4.49765	0.994757	5.52783
0.493576	2.72523	0.347356	1.91559	0.494274	2.72488	0.622361	3.44765	0.73748	4.08425	0.945022	5.22457	0.498611	2.76046	0.608534	3.35495	0.809542	4.48045	0.995701	5.50458
0.495908	2.72409	0.34939	1.91695	0.496608	2.72376	0.6239	3.43843	0.739051	4.07194	0.946065	5.20353	0.500722	2.75792	0.610225	3.34708	0.810628	4.46344	0.996649	5.48158
0.498245	2.72299	0.351424	1.91831	0.498946	2.72267	0.625445	3.42933	0.740627	4.05979	0.947112	5.18273	0.502832	2.75541	0.61192	3.33931	0.811719	4.44664	0.997601	5.45885
0.500587	2.72193	0.353457	1.91965	0.501289	2.72162	0.626993	3.42035	0.742207	4.04777	0.948164	5.16217	0.504941	2.75291	0.61362	3.33165	0.812814	4.43003	0.998557	5.43636
0.502933	2.7209	0.355491	1.92097	0.503636	2.7206	0.628545	3.41148	0.74379	4.0359	0.94922	5.14184	0.507049	2.75043	0.615326	3.3241	0.813914	4.41361	0.999517	5.41413
0.505283	2.71991	0.357524	1.92228	0.505987	2.71961	0.630101	3.40272	0.745377	4.02417	0.95028	5.12173	0.509157	2.74797	0.617036	3.31664	0.815018	4.39738	1.00048	5.39214
0.507637	2.71894	0.359558	1.92358	0.508343	2.71866	0.631662	3.39407	0.746969	4.01258	0.951345	5.10185	0.511263	2.74554	0.618751	3.30929	0.816127	4.38134		
0.509995	2.71801	0.361591	1.92486	0.510702	2.71773	0.633226	3.38552	0.748564	4.00112	0.952414	5.08219	0.513369	2.74312	0.620471	3.30203	0.81724	4.36548		
0.512356	2.7171	0.363624	1.92613	0.513064	2.71683	0.634794	3.37709	0.750163	3.9898	0.953487	5.06275	0.515473	2.74072	0.622196	3.29488	0.818358	4.3498		
0.514721	2.71622	0.365656	1.92738	0.51543	2.71596	0.636366	3.36875	0.751766	3.97861	0.954565	5.04352	0.517577	2.73834	0.623926	3.28781	0.81948	4.3343		
0.51709	2.71537	0.367689	1.92862	0.5178	2.71512	0.637943	3.36052	0.753372	3.96755	0.955646	5.0245	0.519679	2.73598	0.62566	3.28085	0.820606	4.31897		
0.519461	2.71454	0.369721	1.92985	0.520172	2.7143	0.639523	3.35239	0.754982	3.95661	0.956732	5.00569	0.521781	2.73363	0.627399	3.27397	0.821737	4.30382		
0.521836	2.71374	0.371753	1.93107	0.522547	2.7135	0.641107	3.34436	0.756596	3.9458	0.957822	4.98708	0.523882	2.73131	0.629143	3.26719	0.822872	4.28884		
0.524213	2.71296	0.373785	1.93227	0.524926	2.71273	0.642694	3.33643	0.758213	3.93512	0.958916	4.96867	0.525982	2.729	0.630892	3.26049	0.824012	4.27402		
0.526593	2.7122	0.375817	1.93346	0.527307	2.71197	0.644286	3.32859	0.759835	3.92455	0.960015	4.95047	0.52808	2.72671	0.632645	3.25389	0.825156	4.25938		
0.528976	2.71146	0.377849	1.93464	0.52969	2.71124	0.645881	3.32085	0.761459	3.91411	0.961118	4.93245	0.530178	2.72443	0.634403	3.24737	0.826305	4.24489		
0.531361	2.71074	0.37988	1.93581	0.532076	2.71053	0.64748	3.3132	0.763088	3.90378	0.962224	4.91464	0.532275	2.72217	0.636166	3.24093	0.827458	4.23056		
0.533749	2.71004	0.381911	1.93696	0.534464	2.70983	0.649083	3.30564	0.764719	3.89357	0.963335	4.89701	0.53437	2.71993	0.637933	3.23458	0.828615	4.21639		
0.536139	2.70936	0.383942	1.93811	0.536855	2.70915	0.650689	3.29817	0.766355	3.88348	0.96445	4.87956	0.536465	2.7177	0.639705	3.22832	0.829776	4.20238		
0.538531	2.70869	0.385973	1.93924	0.539248	2.7085	0.652299	3.29079	0.767994	3.8735	0.96557	4.86231	0.538559	2.71549	0.641482	3.22213	0.830942	4.18852		
0.540925	2.70804	0.388004	1.94036	0.541643	2.70785	0.653913	3.2835	0.769636	3.86362	0.966693	4.84523	0.540651	2.7133	0.643263	3.21603	0.832112	4.17481		
0.543322	2.70741	0.390034	1.94146	0.54404	2.70723	0.655531	3.27629	0.771282	3.85386	0.96782	4.82833	0.542742	2.71112	0.645048	3.21	0.833287	4.16125		
0.54572	2.7068	0.392064	1.94256	0.546439	2.70661	0.657152	3.26917	0.772931	3.8442	0.968952	4.81161	0.544833	2.70895	0.646838	3.20405	0.834465	4.14784		
0.54812	2.70619	0.394094	1.94365	0.548839	2.70602	0.658776	3.26213	0.774583	3.83465	0.970087	4.79507	0.546922	2.7068	0.648633	3.19818	0.835648	4.13457		
0.550522	2.70561	0.396124	1.94472	0.551241	2.70543	0.660404	3.25518	0.776239	3.82521	0.971227	4.77869	0.54901	2.70466	0.650431	3.19239	0.836836	4.12145		
0.552925	2.70503	0.398153	1.94578	0.553645	2.70486	0.662036	3.2483	0.777898	3.81586	0.972371	4.76249	0.551097	2.70254	0.652235	3.18666	0.838027	4.10846		
0.55533	2.70447	0.400183	1.94684	0.556051	2.70431	0.663671	3.24151	0.779561	3.80662	0.973519	4.74645	0.553183	2.70043	0.654042	3.18102	0.839223	4.09562		
0.557737	2.70392	0.402212	1.94788	0.558458	2.70376	0.66531	3.23479	0.781226	3.79748	0.97467	4.73058	0.555268	2.69833	0.655854	3.17544	0.840423	4.08291		
0.560145	2.70339	0.404241	1.94891	0.560866	2.70323	0.666952	3.22815	0.782895	3.78843	0.975826	4.71487	0.557351	2.69625	0.657671	3.16993	0.841627	4.07034		
0.562554	2.70286	0.406269	1.94993	0.563276	2.70271	0.668597	3.22159	0.784567	3.77948	0.976986	4.69932	0.559434	2.69418	0.659491	3.1645	0.842835	4.0579		
0.564965	2.70235	0.408298	1.95094	0.565687	2.7022	0.670246	3.2151	0.786243	3.77063	0.97815	4.68393	0.561515	2.69213	0.661316	3.15913	0.844048	4.04559		
0.567377	2.70184	0.410326	1.95195	0.5681	2.7017	0.671899	3.20868	0.787921	3.76187	0.979318	4.66869	0.563595	2.69008	0.663146	3.15383	0.845265	4.03341		
0.56979	2.70135	0.412354	1.95294	0.570514	2.70121	0.673554	3.20234	0.789603	3.75321	0.98049	4.6536	0.565674	2.68805	0.664979	3.1486	0.846486	4.02136		
0.572205	2.70087	0.414382	1.95392	0.572928	2.70072	0.675213	3.19607	0.791288	3.74463	0.981665	4.63867	0.567752	2.68603	0.666817	3.14344	0.847711	4.00943		
0.57462	2.70039	0.41641	1.95489	0.575344	2.70025	0.676876	3.18987	0.792976	3.73614	0.982845	4.62389	0.569829	2.68403	0.668659	3.13834	0.84894	3.99763		
0.577037	2.69993	0.418437	1.95586	0.577761	2.69979	0.678541	3.18375	0.794666	3.72775	0.984029	4.60926	0.571904	2.68203	0.670505	3.1333	0.850173	3.98595		
0.579454	2.69947	0.420464	1.95681	0.580179	2.69934	0.68021	3.17768	0.79636	3.71944	0.985216	4.59477	0.573978	2.68005	0.672355	3.12832	0.851411	3.97439		
0.581873	2.69902	0.422491	1.95775	0.582597	2.69889	0.681883	3.17169	0.798057	3.71121	0.986408	4.58042	0.576051	2.67808	0.674209	3.12341	0.852652	3.96295		
0.584292	2.69858	0.424518	1.95869	0.585017	2.69845	0.683558	3.16577	0.799757	3.70308	0.987603	4.56622	0.578123	2.67612	0.676068	3.11856	0.853898	3.95163		
0.586712	2.69815	0.426544	1.95961	0.587438	2.69802	0.685237	3.15991	0.80146	3.69502	0.988803	4.55215	0.580194	2.67417	0.67793	3.11377	0.855148	3.94042		
0.589133	2.69773	0.42857	1.96053	0.589859	2.6976	0.686919	3.15411	0.803166	3.68705	0.990006	4.53823	0.582263	2.67224	0.679796	3.10904	0.856402	3.92933		
0.591555	2.69731	0.430596	1.96144	0.592281	2.69718	0.688604	3.14838	0.804875	3.67915	0.991213	4.52444	0.584332	2.67031	0.681667	3.10436	0.85766	3.91835		
0.593978	2.6969	0.432622	1.96234	0.594703	2.69677	0.690293	3.14271	0.806586	3.67134	0.992424	4.51078	0.586399	2.66839	0.683541	3.09975	0.858922	3.90748		
0.596401	2.69649	0.434648	1.96323	0.597127	2.69637	0.691984	3.13711	0.808301	3.66361	0.993639	4.49726	0.588465	2.66649	0.68542	3.09519	0.860188	3.89673		
0.598824	2.69609	0.436673	1.96411	0.599551	2.69597	0.693679	3.13156	0.810018	3.65596	0.994857	4.48386	0.590529	2.6646	0.687302	3.09069	0.861458	3.88608		
0.601249	2.6957	0.438698	1.96499	0.601975	2.69558	0.695376	3.12608	0.811738	3.64838	0.99608	4.4706	0.592593	2.66271	0.689188	3.08624	0.862732	3.87554		
0.603674	2.69531	0.440723	1.96585	0.6044	2.6952	0.697077	3.12065	0.813461	3.64087	0.997306	4.45747	0.594655	2.66084	0.691078	3.08184	0.86401	3.8651		
0.606099	2.69493	0.442747	1.96671	0.606826	2.69482	0.698781	3.11529	0.815187	3.63345	0.998536	4.44446	0.596716	2.65898	0.692972	3.0775	0.865292	3.85477		
0.608525	2.69456	0.444772	1.96756	0.609252	2.69444	0.700488	3.10998	0.816915	3.62609	0.99977	4.43157	0.598775	2.65712	0.69487	3.07321	0.866578	3.84454		
0.610951	2.69418	0.446796	1.9684	0.611678	2.69407	0.702198	3.10473	0.818646	3.61881	1.00101	4.41881	0.600834	2.65528	0.696772	3.06898	0.867869	3.83442		
0.613378	2.69382	0.44882	1.96923	0.614105	2.69371	0.703912	3.09954	0.82038	3.6116			0.602891	2.65344	0.698677	3.06479	0.869163	3.82439		
0.615805	2.69346	0.450843	1.97006	0.616533	2.69335	0.705628	3.0944	0.822117	3.60446			0.604947	2.65162	0.700586	3.06066	0.870461	3.81447		
0.618233	2.6931	0.452867	1.97088	0.61896	2.69299	0.707347	3.08932	0.823856	3.59739			0.607002	2.64981	0.702499	3.05657	0.871763	3.80464		
0.620661	2.69275	0.45489	1.97169	0.621388	2.69264	0.709069	3.08429	0.825598	3.59039			0.609055	2.648	0.704415	3.05254	0.873069	3.79491		
0.623089	2.6924	0.456913	1.97249	0.623816	2.69229	0.710795	3.07931	0.827342	3.58346			0.611108	2.6462	0.706335	3.04855	0.874379	3.78527		
0.625517	2.69205	0.458935	1.97328	0.626245	2.69195	0.712523	3.07439	0.829089	3.57659			0.613159	2.64442	0.708259	3.04461	0.875692	3.77573		
0.627946	2.69171	0.460958	1.97407	0.628673	2.69161	0.714254	3.06952	0.830839	3.56979			0.615209	2.64264	0.710187	3.04072	0.87701	3.76628		
0.630375	2.69137	0.46298	1.97485	0.631102	2.69127	0.715988	3.0647	0.832591	3.56306			0.617257	2.64087	0.712117	3.03687	0.878332	3.75693		
0.632804	2.69104	0.465002	1.97562	0.633531	2.69094	0.717725	3.05993	0.834346	3.55639			0.619305	2.63911	0.714052	3.03307	0.879657	3.74766		
0.635233	2.69071	0.467024	1.97639	0.63596	2.69061	0.719465	3.05522	0.836103	3.54978			0.621351	2.63736	0.71599	3.02931	0.880987	3.73849		
0.637662	2.69038	0.469045	1.97715	0.63839	2.69028	0.721208	3.05055	0.837863	3.54323			0.623396	2.63561	0.717931	3.0256	0.88232	3.7294		
0.640091	2.69006	0.471066	1.9779	0.640819	2.68996	0.722954	3.04593	0.839625	3.53675			0.625439	2.63388	0.719876	3.02193	0.883657	3.7204		
0.64252	2.68973	0.473087	1.97865	0.643248	2.68964	0.724703	3.04136	0.841389	3.53033			0.627482	2.63215	0.721825	3.01831	0.884998	3.71149		
0.64495	2.68941	0.475108	1.97939	0.645678	2.68932	0.726454	3.03684	0.843156	3.52397			0.629523	2.63044	0.723777	3.01472	0.886343	3.70266		
0.647379	2.6891	0.477129	1.98012	0.648107	2.689	0.728209	3.03236	0.844926	3.51766			0.631563	2.62873	0.725732	3.01118	0.887692	3.69392		
0.649809	2.68878	0.479149	1.98084	0.650536	2.68869	0.729966	3.02793	0.846698	3.51142			0.633602	2.62703	0.72769	3.00768	0.889044	3.68526		
0.652238	2.68847	0.481169	1.98156	0.652965	2.68838	0.731727	3.02355	0.848472	3.50523			0.63564	2.62533	0.729652	3.00422	0.8904	3.67668		
0.654667	2.68816	0.483188	1.98227	0.655395	2.68807	0.73349	3.01921	0.850248	3.4991			0.637676	2.62365	0.731617	3.0008	0.89176	3.66818		
0.657096	2.68785	0.485208	1.98298	0.657824	2.68776	0.735256	3.01492	0.852027	3.49303			0.639711	2.62197	0.733586	2.99742	0.893124	3.65977		
0.659525	2.68754	0.487227	1.98368	0.660253	2.68745	0.737024	3.01067	0.853808	3.48701			0.641745	2.6203	0.735557	2.99408	0.894492	3.65143		
0.661954	2.68724	0.489246	1.98437	0.662681	2.68715	0.738796	3.00646	0.855591	3.48105			0.643778	2.61864	0.737532	2.99077	0.895863	3.64317		
0.664382	2.68693	0.491265	1.98506	0.66511	2.68684	0.740571	3.0023	0.857377	3.47514			0.64581	2.61699	0.73951	2.98751	0.897239	3.63499		
0.666811	2.68663	0.493283	1.98574	0.667538	2.68654	0.742348	2.99818	0.859165	3.46929			0.64784	2.61534	0.741491	2.98428	0.898618	3.62689		
0.669239	2.68633	0.495302	1.98641	0.669966	2.68624	0.744128	2.9941	0.860955	3.46349			0.64987	2.6137	0.743476	2.98108	0.9	3.61886		
0.671667	2.68603	0.49732	1.98708	0.672394	2.68594	0.745911	2.99007	0.862747	3.45774			0.651898	2.61207	0.745463	2.97793	0.901387	3.61091		
0.674094	2.68573	0.499337	1.98774	0.674821	2.68564	0.747697	2.98607	0.864542	3.45204			0.653925	2.61045	0.747453	2.97481	0.902777	3.60303		
0.676521	2.68543	0.501355	1.9884	0.677248	2.68535	0.749485	2.98212	0.866338	3.44639			0.655951	2.60883	0.749447	2.97172	0.904171	3.59523		
0.678948	2.68514	0.503372	1.98905	0.679675	2.68505	0.751277	2.97821	0.868137	3.44079			0.657975	2.60722	0.751443	2.96867	0.905569	3.58749		
0.681375	2.68484	0.505389	1.98969	0.682102	2.68475	0.753071	2.97434	0.869938	3.43525			0.659999	2.60562	0.753443	2.96565	0.90697	3.57983		
0.683801	2.68455	0.507406	1.99033	0.684528	2.68446	0.754868	2.9705	0.871741	3.42975			0.662021	2.60403	0.755445	2.96267	0.908375	3.57224		
0.686227	2.68425	0.509422	1.99097	0.686953	2.68416	0.756668	2.96671	0.873546	3.4243			0.664043	2.60244	0.75745	2.95972	0.909784	3.56472		
0.688652	2.68396	0.511439	1.99159	0.689378	2.68387	0.758471	2.96295	0.875353	3.4189			0.666063	2.60086	0.759459	2.9568	0.911196	3.55727		
0.691077	2.68366	0.513455	1.99222	0.691803	2.68357	0.760276	2.95923	0.877163	3.41354			0.668082	2.59929	0.76147	2.95392	0.912612	3.54988		
0.693501	2.68337	0.51547	1.99283	0.694227	2.68328	0.762084	2.95555	0.878974	3.40823			0.6701	2.59772	0.763483	2.95106	0.914032	3.54257		
0.695925	2.68307	0.517486	1.99345	0.69665	2.68298	0.763895	2.95191	0.880787	3.40297			0.672116	2.59616	0.7655	2.94824	0.915455	3.53532		
0.698348	2.68278	0.519501	1.99405	0.699073	2.68269	0.765709	2.94831	0.882602	3.39775			0.674132	2.59461	0.76752	2.94545	0.916882	3.52813		
0.70077	2.68248	0.521516	1.99465	0.701496	2.68239	0.767526	2.94474	0.88442	3.39258			0.676147	2.59307	0.769542	2.94269	0.918313	3.52102		
0.703192	2.68219	0.523531	1.99525	0.703918	2.6821	0.769345	2.9412	0.886239	3.38745			0.67816	2.59153	0.771566	2.93996	0.919747	3.51396		
0.705613	2.68189	0.525545	1.99584	0.706339	2.6818	0.771168	2.93771	0.88806	3.38237			0.680173	2.59	0.773594	2.93725	0.921185	3.50697		
0.708034	2.6816	0.52756	1.99643	0.708759	2.68151	0.772993	2.93425	0.889883	3.37733			0.682184	2.58847	0.775624	2.93458	0.922627	3.50005		
0.710454	2.6813	0.529574	1.99701	0.711179	2.68121	0.774821	2.93082	0.891708	3.37233			0.684194	2.58696	0.777657	2.93194	0.924072	3.49318		
0.712873	2.681	0.531587	1.99758	0.713598	2.68091	0.776652	2.92743	0.893535	3.36737			0.686204	2.58545	0.779692	2.92932	0.92552	3.48638		
0.715291	2.6807	0.533601	1.99815	0.716016	2.68061	0.778485	2.92407	0.895364	3.36246			0.688212	2.58394	0.78173	2.92673	0.926973	3.47964		
0.717709	2.68041	0.535614	1.99872	0.718433	2.68032	0.780322	2.92075	0.897195	3.35758			0.690219	2.58244	0.78377	2.92417	0.928429	3.47296		
0.720126	2.68011	0.537627	1.99928	0.720849	2.68002	0.782161	2.91746	0.899027	3.35275			0.692226	2.58095	0.785813	2.92164	0.929888	3.46633		
0.722541	2.6798	0.53964	1.99983	0.723265	2.67971	0.784004	2.9142	0.900861	3.34796			0.694231	2.57947	0.787859	2.91913	0.931351	3.45977		
0.724956	2.6795	0.541652	2.00039	0.72568	2.67941	0.785849	2.91098	0.902698	3.34321			0.696235	2.57799	0.789906	2.91665	0.932818	3.45327		
0.72737	2.6792	0.543665	2.00093	0.728093	2.67911	0.787697	2.90779	0.904535	3.33849			0.698238	2.57652	0.791957	2.91419	0.934288	3.44682		
0.729783	2.67889	0.545677	2.00147	0.730506	2.6788	0.789548	2.90463	0.906375	3.33382			0.70024	2.57506	0.794009	2.91176	0.935761	3.44043		
0.732195	2.67859	0.547688	2.00201	0.732918	2.67849	0.791402	2.90151	0.908216	3.32918			0.702242	2.5736	0.796064	2.90936	0.937239	3.4341		
0.734606	2.67828	0.5497	2.00254	0.735328	2.67818	0.793259	2.89842	0.91006	3.32459			0.704242	2.57215	0.798121	2.90698	0.938719	3.42782		
0.737016	2.67797	0.551711	2.00307	0.737738	2.67787	0.795119	2.89536	0.911905	3.32003			0.706241	2.5707	0.800181	2.90462	0.940204	3.4216		
0.739425	2.67765	0.553722	2.0036	0.740146	2.67756	0.796981	2.89233	0.913751	3.3155			0.70824	2.56926	0.802242	2.90229	0.941691	3.41544		
0.741833	2.67734	0.555733	2.00412	0.742554	2.67724	0.798847	2.88933	0.9156	3.31102			0.710237	2.56783	0.804306	2.89998	0.943183	3.40932		
0.744239	2.67702	0.557743	2.00463	0.74496	2.67693	0.800716	2.88636	0.91745	3.30657			0.712234	2.5664	0.806372	2.8977	0.944677	3.40327		
0.746644	2.6767	0.559754	2.00514	0.747364	2.67661	0.802588	2.88342	0.919301	3.30215			0.714229	2.56498	0.808441	2.89544	0.946176	3.39726		
0.749048	2.67638	0.561764	2.00565	0.749768	2.67629	0.804463	2.88052	0.921155	3.29777			0.716224	2.56357	0.810511	2.8932	0.947677	3.39131		
0.751451	2.67606	0.563773	2.00615	0.75217	2.67596	0.806341	2.87764	0.923009	3.29343			0.718218	2.56216	0.812583	2.89098	0.949182	3.38541		
0.753852	2.67573	0.565783	2.00665	0.754571	2.67563	0.808222	2.8748	0.924866	3.28912			0.720211	2.56076	0.814658	2.88879	0.950691	3.37956		
0.756252	2.6754	0.567792	2.00714	0.75697	2.6753	0.810106	2.87198	0.926724	3.28484			0.722203	2.55936	0.816734	2.88661	0.952203	3.37376		
0.75865	2.67507	0.569801	2.00763	0.759368	2.67497	0.811993	2.86919	0.928584	3.2806			0.724194	2.55797	0.818813	2.88446	0.953719	3.36801		
0.761047	2.67473	0.57181	2.00812	0.761765	2.67463	0.813884	2.86644	0.930445	3.27639			0.726184	2.55659	0.820894	2.88233	0.955238	3.36231		
0.763443	2.6744	0.573818	2.0086	0.76416	2.67429	0.815778	2.86371	0.932308	3.27222			0.728174	2.55521	0.822976	2.88022	0.95676	3.35666		
0.765837	2.67405	0.575827	2.00908	0.766553	2.67395	0.817674	2.86101	0.934173	3.26807			0.730162	2.55384	0.825061	2.87813	0.958286	3.35106		
0.768229	2.67371	0.577835	2.00955	0.768945	2.67361	0.819575	2.85834	0.936039	3.26396			0.73215	2.55248	0.827147	2.87606	0.959816	3.34551		
0.770619	2.67336	0.579842	2.01002	0.771335	2.67326	0.821478	2.8557	0.937906	3.25988			0.734137	2.55112	0.829235	2.87401	0.961349	3.34001		
0.773008	2.67301	0.58185	2.01048	0.773723	2.6729	0.823385	2.85309	0.939775	3.25584			0.736124	2.54976	0.831325	2.87198	0.962885	3.33455		
0.775395	2.67265	0.583857	2.01095	0.77611	2.67254	0.825295	2.85051	0.941645	3.25182			0.738109	2.54842	0.833417	2.86997	0.964425	3.32914		
0.77778	2.67229	0.585864	2.0114	0.778495	2.67218	0.827208	2.84795	0.943517	3.24783			0.740094	2.54708	0.83551	2.86798	0.965968	3.32378		
0.780164	2.67193	0.587871	2.01186	0.780877	2.67182	0.829125	2.84542	0.945391	3.24388			0.742078	2.54574	0.837605	2.866	0.967514	3.31846		
0.782545	2.67156	0.589877	2.01231	0.783258	2.67145	0.831045	2.84292	0.947266	3.23995			0.744061	2.54441	0.839702	2.86405	0.969064	3.31319		
0.784925	2.67119	0.591884	2.01276	0.785637	2.67107	0.832969	2.84045	0.949142	3.23606			0.746043	2.54309	0.841801	2.86211	0.970617	3.30796		
0.787302	2.67081	0.59389	2.0132	0.788014	2.67069	0.834896	2.83801	0.951019	3.23219			0.748025	2.54177	0.843901	2.86019	0.972174	3.30278		
0.789678	2.67043	0.595896	2.01364	0.790389	2.67031	0.836827	2.83559	0.952899	3.22836			0.750006	2.54046	0.846003	2.85829	0.973734	3.29764		
0.792051	2.67004	0.597901	2.01407	0.792761	2.66992	0.838762	2.8332	0.954779	3.22455			0.751986	2.53915	0.848107	2.8564	0.975297	3.29255		
0.794422	2.66965	0.599906	2.01451	0.795132	2.66953	0.8407	2.83084	0.956661	3.22077			0.753965	2.53785	0.850212	2.85454	0.976864	3.2875		
0.796791	2.66925	0.601911	2.01494	0.7975	2.66913	0.842642	2.8285	0.958544	3.21702			0.755944	2.53656	0.852318	2.85269	0.978434	3.28249		
0.799157	2.66885	0.603916	2.01536	0.799865	2.66873	0.844587	2.82619	0.960428	3.2133			0.757922	2.53527	0.854426	2.85085	0.980008	3.27752		
0.801521	2.66844	0.605921	2.01578	0.802229	2.66832	0.846537	2.82391	0.962314	3.2096			0.7599	2.53399	0.856536	2.84903	0.981585	3.2726		
0.803883	2.66803	0.607925	2.0162	0.80459	2.6679	0.84849	2.82166	0.964202	3.20593			0.761876	2.53271	0.858647	2.84723	0.983165	3.26772		
0.806242	2.66761	0.609929	2.01662	0.806948	2.66748	0.850447	2.81943	0.96609	3.20229			0.763852	2.53144	0.860759	2.84544	0.984748	3.26288		
0.808598	2.66718	0.611933	2.01703	0.809304	2.66705	0.852408	2.81723	0.96798	3.19868			0.765828	2.53017	0.862873	2.84367	0.986335	3.25808		
0.810952	2.66675	0.613936	2.01744	0.811657	2.66662	0.854372	2.81505	0.969871	3.19509			0.767803	2.52891	0.864988	2.84192	0.987926	3.25332		
0.813304	2.66631	0.61594	2.01784	0.814007	2.66618	0.856341	2.81291	0.971763	3.19153			0.769777	2.52766	0.867105	2.84018	0.989519	3.2486		
0.815652	2.66587	0.617943	2.01824	0.816355	2.66574	0.858314	2.81079	0.973657	3.18799			0.77175	2.52641	0.869222	2.83845	0.991116	3.24392		
0.817998	2.66542	0.619946	2.01864	0.8187	2.66528	0.860291	2.80869	0.975551	3.18448			0.773723	2.52517	0.871341	2.83674	0.992716	3.23928		
0.82034	2.66496	0.621948	2.01904	0.821042	2.66483	0.862273	2.80662	0.977447	3.181			0.775696	2.52393	0.873462	2.83504	0.99432	3.23468		
0.82268	2.6645	0.62395	2.01943	0.82338	2.66436	0.864258	2.80458	0.979345	3.17754			0.777667	2.5227	0.875583	2.83336	0.995927	3.23011		
0.825017	2.66403	0.625953	2.01982	0.825716	2.66389	0.866248	2.80256	0.981243	3.1741			0.779639	2.52147	0.877706	2.83169	0.997537	3.22559		
0.827351	2.66355	0.627954	2.02021	0.828049	2.66341	0.868242	2.80057	0.983143	3.17069			0.781609	2.52025	0.87983	2.83004	0.999151	3.2211		
0.829681	2.66307	0.629956	2.02059	0.830378	2.66292	0.87024	2.79861	0.985044	3.1673			0.783579	2.51904	0.881955	2.8284	1.00077	3.21665		
0.832008	2.66257	0.631957	2.02097	0.832705	2.66242	0.872243	2.79667	0.986946	3.16394			0.785549	2.51783	0.884081	2.82677				
0.834332	2.66207	0.633958	2.02135	0.835028	2.66192	0.874251	2.79476	0.988849	3.1606			0.787518	2.51662	0.886208	2.82515				
0.836653	2.66157	0.635959	2.02172	0.837347	2.66141	0.876263	2.79287	0.990753	3.15728			0.789486	2.51542	0.888336	2.82355				
0.83897	2.66105	0.63796	2.02209	0.839663	2.66089	0.878279	2.79101	0.992658	3.15399			0.791454	2.51423	0.890465	2.82196				
0.841283	2.66053	0.63996	2.02246	0.841976	2.66037	0.8803	2.78917	0.994565	3.15072			0.793421	2.51304	0.892595	2.82039				
0.843594	2.65999	0.64196	2.02282	0.844285	2.65983	0.882326	2.78736	0.996473	3.14748			0.795388	2.51186	0.894726	2.81882				
0.8459	2.65945	0.64396	2.02318	0.84659	2.65929	0.884357	2.78558	0.998381	3.14425			0.797355	2.51068	0.896858	2.81727				
0.848203	2.6589	0.64596	2.02354	0.848892	2.65874	0.886392	2.78382	1.00029	3.14105			0.799321	2.50951	0.898991	2.81573				
0.850502	2.65835	0.647959	2.0239	0.85119	2.65818	0.888433	2.78209					0.801286	2.50834	0.901125	2.8142				
0.852797	2.65778	0.649959	2.02425	0.853484	2.65761	0.890478	2.78038					0.803251	2.50718	0.90326	2.81268				
0.855088	2.65721	0.651958	2.0246	0.855774	2.65703	0.892528	2.7787					0.805216	2.50602	0.905395	2.81118				
0.857375	2.65662	0.653956	2.02495	0.85806	2.65645	0.894584	2.77705					0.80718	2.50487	0.907532	2.80968				
0.859659	2.65603	0.655955	2.0253	0.860342	2.65585	0.896644	2.77541					0.809143	2.50373	0.909669	2.8082				
0.861938	2.65543	0.657953	2.02564	0.86262	2.65525	0.89871	2.77381					0.811107	2.50259	0.911807	2.80673				
0.864213	2.65482	0.659951	2.02598	0.864893	2.65463	0.90078	2.77223					0.813069	2.50145	0.913945	2.80526				
0.866484	2.6542	0.661949	2.02632	0.867163	2.65401	0.902856	2.77067					0.815032	2.50032	0.916084	2.80381				
0.86875	2.65357	0.663946	2.02665	0.869429	2.65337	0.904937	2.76914					0.816994	2.4992	0.918224	2.80237				
0.871013	2.65293	0.665943	2.02698	0.87169	2.65273	0.907024	2.76763					0.818955	2.49808	0.920365	2.80094				
0.873271	2.65228	0.667941	2.02731	0.873946	2.65208	0.909116	2.76615					0.820916	2.49697	0.922506	2.79952				
0.875524	2.65162	0.669937	2.02764	0.876199	2.65142	0.911213	2.7647					0.822877	2.49586	0.924648	2.7981				
0.877774	2.65095	0.671934	2.02796	0.878447	2.65075	0.913315	2.76326					0.824838	2.49475	0.92679	2.7967				
0.880018	2.65027	0.67393	2.02829	0.88069	2.65007	0.915423	2.76186					0.826798	2.49366	0.928933	2.79531				
0.882259	2.64959	0.675926	2.02861	0.882929	2.64938	0.917537	2.76047					0.828757	2.49256	0.931076	2.79393				
0.884495	2.64889	0.677922	2.02892	0.885164	2.64868	0.919656	2.75911					0.830717	2.49147	0.93322	2.79255				
0.886726	2.64818	0.679918	2.02924	0.887394	2.64797	0.92178	2.75778					0.832676	2.49039	0.935365	2.79119				
0.888953	2.64746	0.681913	2.02955	0.889619	2.64725	0.92391	2.75647					0.834635	2.48931	0.937509	2.78983				
0.891175	2.64674	0.683908	2.02986	0.89184	2.64652	0.926045	2.75518					0.836593	2.48824	0.939654	2.78848				
0.893392	2.646	0.685903	2.03016	0.894056	2.64578	0.928186	2.75392					0.838551	2.48717	0.9418	2.78714				
0.895605	2.64526	0.687898	2.03047	0.896267	2.64503	0.930332	2.75267					0.840509	2.48611	0.943946	2.78581				
0.897814	2.6445	0.689892	2.03077	0.898474	2.64428	0.932484	2.75146					0.842466	2.48505	0.946092	2.78449				
0.900018	2.64374	0.691887	2.03107	0.900677	2.64351	0.934642	2.75026					0.844423	2.48399	0.948239	2.78318				
0.902217	2.64297	0.693881	2.03137	0.902875	2.64273	0.936804	2.74909					0.84638	2.48295	0.950385	2.78187				
0.904411	2.64218	0.695874	2.03166	0.905068	2.64195	0.938973	2.74794					0.848337	2.4819	0.952533	2.78057				
0.906601	2.64139	0.697868	2.03196	0.907256	2.64115	0.941147	2.74681					0.850293	2.48086	0.95468	2.77928				
0.908787	2.64059	0.699861	2.03225	0.90944	2.64035	0.943326	2.74571					0.852249	2.47983	0.956827	2.778				
0.910967	2.63978	0.701854	2.03254	0.91162	2.63954	0.945511	2.74462					0.854205	2.4788	0.958975	2.77672				
0.913144	2.63896	0.703847	2.03282	0.913795	2.63872	0.947701	2.74356					0.85616	2.47778	0.961123	2.77545				
0.915315	2.63814	0.70584	2.03311	0.915965	2.63789	0.949896	2.74252					0.858116	2.47676	0.963271	2.77419				
0.917483	2.6373	0.707832	2.03339	0.918131	2.63705	0.952097	2.7415					0.860071	2.47574	0.965419	2.77294				
0.919645	2.63646	0.709824	2.03367	0.920292	2.6362	0.954303	2.7405					0.862026	2.47473	0.967567	2.77169				
0.921804	2.6356	0.711816	2.03395	0.922449	2.63535	0.956515	2.73952					0.86398	2.47373	0.969716	2.77045				
0.923958	2.63474	0.713808	2.03422	0.924602	2.63448	0.958731	2.73856					0.865935	2.47273	0.971864	2.76922				
0.926107	2.63388	0.715799	2.03449	0.92675	2.63361	0.960953	2.73762					0.867889	2.47173	0.974012	2.76799				
0.928253	2.633	0.717791	2.03477	0.928894	2.63274	0.96318	2.7367					0.869843	2.47074	0.976161	2.76677				
0.930394	2.63212	0.719782	2.03504	0.931034	2.63185	0.965412	2.7358					0.871797	2.46975	0.978309	2.76556				
0.932531	2.63123	0.721772	2.0353	0.93317	2.63096	0.967649	2.73492					0.87375	2.46877	0.980457	2.76435				
0.934663	2.63033	0.723763	2.03557	0.935301	2.63006	0.96989	2.73405					0.875704	2.46779	0.982606	2.76315				
0.936792	2.62943	0.725753	2.03583	0.937429	2.62915	0.972137	2.73321					0.877657	2.46682	0.984754	2.76195				
0.938917	2.62852	0.727743	2.03609	0.939552	2.62824	0.974388	2.73238					0.87961	2.46585	0.986902	2.76076				
0.941038	2.6276	0.729733	2.03635	0.941672	2.62732	0.976644	2.73157					0.881563	2.46489	0.98905	2.75958				
0.943154	2.62668	0.731723	2.03661	0.943788	2.6264	0.978905	2.73078					0.883515	2.46393	0.991197	2.7584				
0.945267	2.62575	0.733712	2.03686	0.9459	2.62547	0.98117	2.73					0.885468	2.46298	0.993345	2.75723				
0.947377	2.62481	0.735701	2.03712	0.948008	2.62453	0.98344	2.72924					0.88742	2.46203	0.995492	2.75606				
0.949482	2.62388	0.73769	2.03737	0.950112	2.62359	0.985714	2.7285					0.889373	2.46108	0.99764	2.7549				
0.951584	2.62293	0.739679	2.03762	0.952213	2.62265	0.987993	2.72777					0.891325	2.46014	0.999786	2.75374				
0.953682	2.62198	0.741668	2.03786	0.95431	2.6217	0.990276	2.72706					0.893277	2.4592	1.00193	2.75259				
0.955777	2.62103	0.743656	2.03811	0.956404	2.62074	0.992563	2.72636					0.895229	2.45827						
0.957869	2.62007	0.745644	2.03835	0.958495	2.61978	0.994854	2.72568					0.89718	2.45735						
0.959957	2.6191	0.747632	2.0386	0.960582	2.61882	0.997149	2.72501					0.899132	2.45642						
0.962042	2.61814	0.749619	2.03884	0.962666	2.61785	0.999448	2.72436					0.901084	2.4555						
0.964123	2.61717	0.751607	2.03907	0.964746	2.61688	1.00175	2.72372					0.903035	2.45459						
0.966202	2.61619	0.753594	2.03931	0.966824	2.6159							0.904986	2.45368						
0.968277	2.61521	0.755581	2.03955	0.968899	2.61492							0.906938	2.45277						
0.97035	2.61423	0.757568	2.03978	0.97097	2.61394							0.908889	2.45187						
0.97242	2.61325	0.759554	2.04001	0.973039	2.61296							0.91084	2.45098						
0.974486	2.61226	0.761541	2.04024	0.975105	2.61197							0.912791	2.45008						
0.976551	2.61128	0.763527	2.04047	0.977168	2.61098							0.914742	2.44919						
0.978612	2.61028	0.765513	2.04069	0.979229	2.60999							0.916692	2.44831						
0.980671	2.60929	0.767498	2.04092	0.981287	2.60899							0.918643	2.44743						
0.982727	2.6083	0.769484	2.04114	0.983342	2.608							0.920594	2.44655						
0.98478	2.6073	0.771469	2.04136	0.985395	2.607							0.922544	2.44568						
0.986832	2.6063	0.773454	2.04158	0.987446	2.606							0.924495	2.44481						
0.988881	2.6053	0.775439	2.0418	0.989494	2.605							0.926445	2.44395						
0.990927	2.6043	0.777423	2.04201	0.99154	2.604							0.928396	2.44309						
0.992972	2.6033	0.779408	2.04223	0.993584	2.603							0.930346	2.44224						
0.995014	2.6023	0.781392	2.04244	0.995625	2.602							0.932297	2.44139						
0.997054	2.60129	0.783376	2.04265	0.997665	2.60099							0.934247	2.44054						
0.999092	2.60029	0.78536	2.04286	0.999703	2.59999							0.936197	2.4397						
1.00113	2.59929	0.787343	2.04307	1.00174	2.59899							0.938148	2.43886						
		0.789326	2.04328									0.940098	2.43802						
		0.79131	2.04348									0.942048	2.43719						
		0.793292	2.04369									0.943999	2.43636						
		0.795275	2.04389									0.945949	2.43554						
		0.797258	2.04409									0.947899	2.43472						
		0.79924	2.04429									0.949849	2.43391						
		0.801222	2.04448									0.9518	2.43309						
		0.803204	2.04468									0.95375	2.43229						
		0.805185	2.04487									0.9557	2.43148						
		0.807167	2.04507									0.95765	2.43068						
		0.809148	2.04526									0.959601	2.42989						
		0.811129	2.04545									0.961551	2.42909						
		0.81311	2.04564									0.963501	2.42831						
		0.81509	2.04583									0.965452	2.42752						
		0.817071	2.04601									0.967402	2.42674						
		0.819051	2.0462									0.969353	2.42596						
		0.821031	2.04638									0.971303	2.42519						
		0.823011	2.04656									0.973254	2.42442						
		0.82499	2.04674									0.975204	2.42365						
		0.826969	2.04692									0.977155	2.42289						
		0.828949	2.0471									0.979105	2.42213						
		0.830927	2.04728									0.981056	2.42138						
		0.832906	2.04745									0.983007	2.42063						
		0.834885	2.04763									0.984958	2.41988						
		0.836863	2.0478									0.986909	2.41913						
		0.838841	2.04797									0.98886	2.41839						
		0.840819	2.04814									0.990811	2.41766						
		0.842797	2.04831									0.992762	2.41692						
		0.844774	2.04848									0.994713	2.41619						
		0.846752	2.04864									0.996664	2.41546						
		0.848729	2.04881									0.998615	2.41474						
		0.850706	2.04897									1.00057	2.41402						
		0.852683	2.04913																
		0.854659	2.0493																
		0.856636	2.04946																
		0.858612	2.04962																
		0.860588	2.04977																
		0.862563	2.04993																
		0.864539	2.05009																
		0.866514	2.05024																
		0.86849	2.05039																
		0.870465	2.05055																
		0.872439	2.0507																
		0.874414	2.05085																
		0.876388	2.051																
		0.878363	2.05114																
		0.880337	2.05129																
		0.88231	2.05144																
		0.884284	2.05158																
		0.886258	2.05173																
		0.888231	2.05187																
		0.890204	2.05201																
		0.892177	2.05215																
		0.89415	2.05229																
		0.896122	2.05243																
		0.898094	2.05256																
		0.900067	2.0527																
		0.902039	2.05284																
		0.90401	2.05297																
		0.905982	2.0531																
		0.907953	2.05324																
		0.909925	2.05337																
		0.911896	2.0535																
		0.913866	2.05363																
		0.915837	2.05376																
		0.917808	2.05388																
		0.919778	2.05401																
		0.921748	2.05414																
		0.923718	2.05426																
		0.925688	2.05439																
		0.927657	2.05451																
		0.929627	2.05463																
		0.931596	2.05475																
		0.933565	2.05487																
		0.935534	2.05499																
		0.937503	2.05511																
		0.939471	2.05523																
		0.94144	2.05534																
		0.943408	2.05546																
		0.945376	2.05558																
		0.947344	2.05569																
		0.949312	2.0558																
		0.951279	2.05592																
		0.953246	2.05603																
		0.955214	2.05614																
		0.957181	2.05625																
		0.959147	2.05636																
		0.961114	2.05647																
		0.96308	2.05658																
		0.965047	2.05668																
		0.967013	2.05679																
		0.968979	2.05689																
		0.970945	2.057																
		0.97291	2.0571																
		0.974876	2.05721																
		0.976841	2.05731																
		0.978806	2.05741																
		0.980771	2.05751																
		0.982736	2.05761																
		0.984701	2.05771																
		0.986665	2.05781																
		0.98863	2.05791																
		0.990594	2.058																
		0.992558	2.0581																
		0.994522	2.0582																
		0.996485	2.05829																
		0.998449	2.05839																
		1.00041	2.05848																
