Sym0		Asym0		Sym1		Sym2		Sym3		Sym4		Asym1		Asym2		Asym3		Asym4	
416  Points		524  Points		416  Points		398  Points		346  Points		247  Points		449  Points		393  Points		338  Points		204  Points	
Freq (MHz)	Vph (m/ms)	Freq (MHz)	Vph (m/ms)	Freq (MHz)	Vph (m/ms)	Freq (MHz)	Vph (m/ms)	Freq (MHz)	Vph (m/ms)	Freq (MHz)	Vph (m/ms)	Freq (MHz)	Vph (m/ms)	Freq (MHz)	Vph (m/ms)	Freq (MHz)	Vph (m/ms)	Freq (MHz)	Vph (m/ms)
0.279512	362.815	0.000319964	0.111164	0.279514	300.436	0.450216	8451.73	0.559017	5137.83	0.838526	1985.6	0.139755	861.872	0.419269	453.617	0.698771	3107.43	0.900433	2123.82
0.279528	164.226	0.000559626	0.146884	0.279532	150.12	0.450222	457.095	0.559024	537.265	0.838532	619.3	0.139801	127.807	0.419287	225.912	0.698776	604.182	0.900438	664.204
0.279554	106.142	0.000864886	0.1824	0.27956	100.066	0.450239	234.908	0.559043	283.462	0.838544	366.866	0.139916	69.0756	0.419317	150.418	0.698787	334.626	0.900448	393.663
0.279593	78.4165	0.00123488	0.217661	0.279601	75.0516	0.450267	158.08	0.559074	192.526	0.838562	260.634	0.140098	47.3745	0.419359	112.75	0.698805	231.396	0.900464	279.729
0.279643	62.1818	0.00166855	0.252616	0.279652	60.0481	0.450305	119.127	0.559116	145.771	0.838586	202.113	0.140347	36.0888	0.419414	90.176	0.698828	176.845	0.900484	216.945
0.279704	51.5215	0.00216475	0.287225	0.279716	50.049	0.450355	95.5813	0.559169	117.293	0.838616	165.057	0.140663	29.1794	0.41948	75.1386	0.698858	143.111	0.900511	177.181
0.279777	43.9861	0.00272214	0.321445	0.27979	42.9091	0.450415	79.8121	0.559235	98.129	0.838652	139.485	0.141045	24.5197	0.419559	64.4044	0.698895	120.187	0.900542	149.737
0.279861	38.3778	0.00333927	0.355236	0.279877	37.5561	0.450486	68.5135	0.559312	84.3523	0.838694	120.777	0.141492	21.1687	0.41965	56.358	0.698937	103.596	0.900579	129.657
0.279957	34.0416	0.00401474	0.388579	0.279974	33.3942	0.450568	60.021	0.559401	73.9717	0.838742	106.495	0.142002	18.6459	0.419753	50.1028	0.698987	91.0325	0.900621	114.328
0.280064	30.5892	0.00474682	0.421432	0.280084	30.066	0.45066	53.4051	0.559501	65.8697	0.838797	95.236	0.142574	16.6804	0.419868	45.1009	0.699042	81.1883	0.900668	102.241
0.280183	27.7757	0.00553386	0.453772	0.280204	27.3442	0.450764	48.106	0.559613	59.3706	0.838857	86.1315	0.143207	15.1077	0.419995	41.0102	0.699104	73.2673	0.90072	92.4677
0.280313	25.439	0.00637418	0.48558	0.280336	25.0771	0.450878	43.7664	0.559736	54.0419	0.838923	78.6175	0.1439	13.8222	0.420134	37.6029	0.699172	66.7562	0.900778	84.4009
0.280455	23.4676	0.00726592	0.51683	0.28048	23.1597	0.451003	40.1476	0.559871	49.5938	0.838996	72.3107	0.14465	12.7529	0.420285	34.7211	0.699246	61.3094	0.900841	77.6298
0.280608	21.7822	0.00820727	0.547504	0.280635	21.5171	0.451139	37.084	0.560018	45.8248	0.839074	66.9421	0.145456	11.8505	0.420449	32.2521	0.699327	56.6858	0.900909	71.8657
0.280772	20.325	0.00919653	0.577598	0.280802	20.0944	0.451285	34.4572	0.560176	42.5907	0.839159	62.3167	0.146316	11.0796	0.420624	30.1134	0.699414	52.712	0.900983	66.8995
0.280948	19.0527	0.0102318	0.607093	0.280979	18.8504	0.451443	32.1799	0.560346	39.7853	0.83925	58.2904	0.147108	10.4944	0.420811	28.2429	0.699507	49.2601	0.901061	62.5763
0.281135	17.9324	0.0113113	0.635984	0.281169	17.7534	0.451611	30.1871	0.560527	37.3288	0.839346	54.7539	0.147814	10.0486	0.421011	26.5934	0.699607	46.2336	0.901145	58.779
0.281334	16.9384	0.0124332	0.664268	0.281369	16.779	0.45179	28.4286	0.56072	35.1601	0.839449	51.6231	0.148419	9.71186	0.421222	25.1279	0.699713	43.5587	0.901235	55.417
0.281544	16.0507	0.0135958	0.69194	0.281581	15.9078	0.451979	26.8655	0.560924	33.2315	0.839558	48.8319	0.14891	9.46375	0.421445	23.8175	0.699825	41.1774	0.901329	52.4197
0.281765	15.2532	0.0147974	0.718999	0.281805	15.1243	0.45218	25.4671	0.56114	31.5052	0.839673	46.328	0.149278	9.29067	0.421681	22.6388	0.699944	39.044	0.901429	49.7308
0.281998	14.5328	0.0160363	0.74545	0.282039	14.416	0.452391	24.2086	0.561367	29.9512	0.839794	44.0693	0.149517	9.18381	0.421928	21.573	0.700069	37.1217	0.901534	47.3051
0.282242	13.8789	0.0173108	0.771294	0.282285	13.7727	0.452613	23.0703	0.561606	28.545	0.839921	42.0215	0.149864	9.03526	0.422187	20.6047	0.7002	35.3807	0.901644	45.1058
0.282497	13.2829	0.0186195	0.796535	0.282542	13.1859	0.452845	22.0357	0.561856	27.2665	0.840054	40.1563	0.150247	8.88021	0.422458	19.7211	0.700338	33.7966	0.90176	43.1026
0.282764	12.7375	0.0199607	0.821182	0.282811	12.6484	0.453088	21.0913	0.562118	26.0991	0.840193	38.4505	0.150778	8.67942	0.422741	18.9118	0.700482	32.3491	0.901881	41.2704
0.283042	12.2364	0.021333	0.845239	0.283091	12.1545	0.453342	20.2259	0.562391	25.0291	0.840338	36.8844	0.151464	8.44082	0.423036	18.1678	0.700632	31.0213	0.902007	39.5884
0.283331	11.7747	0.0227349	0.868716	0.283382	11.699	0.453606	19.43	0.562675	24.0447	0.840489	35.4417	0.152315	8.17302	0.423342	17.4814	0.700789	29.7989	0.902138	38.0387
0.283631	11.3478	0.0241651	0.891625	0.283684	11.2777	0.453882	18.6957	0.562971	23.1362	0.840646	34.1083	0.153343	7.88468	0.42366	16.8465	0.700951	28.67	0.902275	36.6064
0.283943	10.952	0.0256223	0.913971	0.283997	10.8869	0.454167	18.0161	0.563278	22.2952	0.840809	32.8723	0.154561	7.58396	0.423991	16.2573	0.701121	27.6242	0.902417	35.2786
0.284265	10.5841	0.0271053	0.935769	0.284322	10.5235	0.454464	17.3853	0.563596	21.5144	0.840978	31.7233	0.155817	7.31135	0.424333	15.7092	0.701296	26.6528	0.902564	34.0443
0.284599	10.2412	0.0286127	0.957027	0.284614	10.227	0.454771	16.7983	0.563925	20.7876	0.841153	30.6526	0.15711	7.06325	0.424686	15.1981	0.701478	25.7479	0.902716	32.8941
0.284944	9.92101	0.0301435	0.977759	0.284869	9.98775	0.455088	16.2508	0.564266	20.1095	0.841334	29.6525	0.158439	6.83663	0.425051	14.7203	0.701666	24.9032	0.902874	31.8195
0.2853	9.62129	0.0316966	0.997976	0.285085	9.79869	0.455416	15.7388	0.564618	19.4754	0.841522	28.7161	0.159802	6.62893	0.425428	14.2729	0.70186	24.1128	0.903037	30.8135
0.285667	9.3402	0.0332708	1.01769	0.285258	9.65449	0.455755	15.2592	0.564981	18.8812	0.841715	27.8377	0.161197	6.438	0.425817	13.8529	0.70206	23.3715	0.903205	29.8697
0.286045	9.07607	0.0348654	1.03691	0.285388	9.55131	0.456104	14.809	0.565356	18.3231	0.841914	27.0119	0.162624	6.26195	0.426217	13.458	0.702267	22.6751	0.903378	28.9824
0.286434	8.82746	0.0364792	1.05566	0.285471	9.48649	0.456464	14.3855	0.565741	17.7982	0.842119	26.2343	0.16408	6.09921	0.426629	13.086	0.70248	22.0196	0.903557	28.1468
0.286834	8.59305	0.0381114	1.07394	0.285592	9.39494	0.456834	13.9864	0.566138	17.3035	0.84233	25.5007	0.165564	5.94837	0.427053	12.7351	0.7027	21.4015	0.903741	27.3585
0.287244	8.37169	0.0397611	1.09176	0.285725	9.29754	0.457214	13.6099	0.566545	16.8365	0.842548	24.8076	0.167075	5.80825	0.427487	12.4034	0.702925	20.8176	0.90393	26.6136
0.287666	8.16234	0.0414276	1.10914	0.285908	9.16848	0.457605	13.2539	0.566964	16.395	0.842771	24.1516	0.168613	5.67779	0.427934	12.0896	0.703157	20.2653	0.904124	25.9086
0.288099	7.96408	0.0431099	1.12609	0.286144	9.01065	0.458007	12.917	0.567394	15.977	0.843	23.5299	0.170175	5.55608	0.428392	11.7921	0.703395	19.7421	0.904324	25.2404
0.288543	7.77606	0.0448075	1.14263	0.286434	8.82739	0.458418	12.5976	0.567834	15.5806	0.843235	22.9399	0.17176	5.4423	0.428861	11.5098	0.703639	19.2456	0.904528	24.6063
0.288997	7.59755	0.0465196	1.15876	0.286782	8.62237	0.458841	12.2944	0.568286	15.2043	0.843476	22.3792	0.173368	5.33573	0.429342	11.2416	0.70389	18.7741	0.904738	24.0036
0.289462	7.42784	0.0482455	1.17449	0.287191	8.3994	0.459273	12.0063	0.568748	14.8466	0.843723	21.8458	0.174998	5.23575	0.429834	10.9865	0.704147	18.3255	0.904954	23.4302
0.289938	7.26633	0.0499845	1.18984	0.287612	8.18856	0.459716	11.7321	0.569222	14.5062	0.843976	21.3376	0.176648	5.14179	0.430337	10.7435	0.70441	17.8984	0.905174	22.8838
0.290425	7.11245	0.0517363	1.20482	0.288043	7.98893	0.460169	11.4709	0.569706	14.1818	0.844235	20.8529	0.178318	5.05336	0.430852	10.5119	0.704679	17.4911	0.9054	22.3628
0.290922	6.9657	0.0535	1.21943	0.288485	7.79964	0.460632	11.2218	0.570201	13.8724	0.8445	20.3902	0.180007	4.96998	0.431309	10.3186	0.704954	17.1025	0.905631	21.8653
0.29143	6.8256	0.0552752	1.2337	0.288938	7.61994	0.461106	10.9841	0.570707	13.5769	0.844771	19.948	0.181713	4.89127	0.431706	10.1599	0.705236	16.7311	0.905867	21.3899
0.291949	6.69172	0.0570614	1.24762	0.289402	7.44914	0.46159	10.7569	0.571223	13.2945	0.845048	19.525	0.183437	4.81687	0.432039	10.0326	0.705524	16.376	0.906108	20.935
0.292478	6.56368	0.0588581	1.26121	0.289876	7.28662	0.462084	10.5395	0.57175	13.0244	0.845331	19.12	0.185177	4.74644	0.432305	9.93437	0.705818	16.036	0.906355	20.4994
0.293018	6.44112	0.0606648	1.27448	0.290362	7.13179	0.462523	10.3577	0.572288	12.7657	0.845619	18.7317	0.186932	4.67968	0.432502	9.86349	0.706118	15.7103	0.906607	20.082
0.293568	6.32371	0.0624811	1.28744	0.290858	6.98415	0.462903	10.208	0.572836	12.5178	0.845914	18.3594	0.188703	4.61634	0.432629	9.8187	0.706425	15.3979	0.906864	19.6815
0.294129	6.21114	0.0643065	1.30009	0.291364	6.84322	0.463222	10.0877	0.573395	12.28	0.846215	18.0019	0.190488	4.55616	0.432813	9.75509	0.706737	15.0981	0.907126	19.297
0.294701	6.10313	0.0661408	1.31245	0.291882	6.70856	0.463476	9.99478	0.573964	12.0517	0.846521	17.6584	0.192287	4.49893	0.433014	9.68697	0.707056	14.8102	0.907393	18.9275
0.295283	5.99942	0.0679833	1.32453	0.29241	6.5798	0.463665	9.92761	0.574544	11.8324	0.846833	17.3281	0.194099	4.44444	0.433289	9.59599	0.707381	14.5333	0.907666	18.5723
0.295875	5.89977	0.069834	1.33633	0.292948	6.45656	0.463786	9.88514	0.575134	11.6215	0.847152	17.0103	0.195924	4.39251	0.433642	9.48358	0.707712	14.267	0.907944	18.2304
0.296477	5.80396	0.0716923	1.34786	0.293497	6.3385	0.463962	9.82478	0.575735	11.4187	0.847476	16.7043	0.19776	4.34297	0.434073	9.35147	0.70805	14.0107	0.908227	17.9012
0.29709	5.71178	0.073558	1.35913	0.294057	6.22532	0.464154	9.76007	0.576346	11.2234	0.847806	16.4095	0.199609	4.29567	0.434587	9.2016	0.708393	13.7637	0.908515	17.584
0.297714	5.62304	0.0754306	1.37014	0.294627	6.11674	0.464417	9.67355	0.576967	11.0353	0.848142	16.1252	0.201468	4.25046	0.435187	9.03605	0.708743	13.5257	0.908809	17.2781
0.298347	5.53756	0.0773101	1.38091	0.295207	6.01249	0.464753	9.56651	0.577599	10.854	0.848483	15.8509	0.203338	4.20721	0.435798	8.87701	0.709098	13.2961	0.909107	16.9829
0.298991	5.45517	0.079196	1.39144	0.295798	5.91234	0.465165	9.44049	0.57824	10.6791	0.848831	15.5861	0.205218	4.16581	0.43642	8.72411	0.70946	13.0744	0.909411	16.698
0.299645	5.37572	0.0810881	1.40174	0.2964	5.81604	0.465655	9.29724	0.578808	10.5316	0.849185	15.3304	0.207108	4.12614	0.437053	8.57701	0.709828	12.8604	0.90972	16.4227
0.300309	5.29907	0.0829862	1.41181	0.297011	5.72341	0.466227	9.13865	0.579298	10.4095	0.849544	15.0832	0.209008	4.08811	0.437696	8.43541	0.710202	12.6536	0.910034	16.1566
0.300984	5.22506	0.0848899	1.42166	0.297633	5.63424	0.466808	8.98595	0.579707	10.3108	0.849909	14.8441	0.210917	4.0516	0.438351	8.299	0.710582	12.4536	0.910353	15.8993
0.301668	5.15359	0.0867991	1.4313	0.298265	5.54835	0.467399	8.83881	0.580033	10.2342	0.85028	14.6128	0.212834	4.01655	0.439016	8.16752	0.710969	12.2602	0.910678	15.6503
0.302363	5.08453	0.0887136	1.44074	0.298908	5.46558	0.468001	8.69695	0.580275	10.1787	0.850657	14.3889	0.21476	3.98286	0.439691	8.04072	0.711361	12.073	0.911008	15.4093
0.303067	5.01776	0.0906331	1.44997	0.299561	5.38576	0.468612	8.5601	0.58043	10.1435	0.85104	14.172	0.216693	3.95046	0.440378	7.91836	0.711759	11.8917	0.911343	15.1758
0.303782	4.95319	0.0925574	1.45901	0.300223	5.30875	0.469233	8.428	0.580654	10.0934	0.851429	13.9619	0.218635	3.91929	0.441074	7.80021	0.712164	11.7161	0.911683	14.9495
0.304506	4.89071	0.0944863	1.46786	0.300896	5.23441	0.469864	8.30043	0.580899	10.0396	0.851823	13.7581	0.220584	3.88927	0.441782	7.68608	0.712574	11.5459	0.912028	14.7301
0.305241	4.83023	0.0964197	1.47652	0.30158	5.16262	0.470504	8.17715	0.581234	9.96746	0.852223	13.5605	0.22254	3.86034	0.4425	7.57577	0.712991	11.3808	0.912378	14.5173
0.305889	4.77908	0.0983573	1.48501	0.302273	5.09326	0.471154	8.05797	0.58166	9.87783	0.852629	13.3688	0.224503	3.83245	0.443228	7.4691	0.713414	11.2207	0.912734	14.3108
0.306448	4.73659	0.100299	1.49332	0.302976	5.0262	0.471814	7.9427	0.582182	9.77183	0.853041	13.1827	0.226473	3.80555	0.443967	7.3659	0.713842	11.0653	0.913094	14.1104
0.306914	4.7022	0.102245	1.50146	0.30369	4.96135	0.472483	7.83114	0.5828	9.65069	0.853458	13.0019	0.228449	3.77959	0.444716	7.26601	0.714277	10.9144	0.91346	13.9157
0.307285	4.67547	0.104194	1.50943	0.304413	4.89861	0.473162	7.72313	0.583519	9.51578	0.853882	12.8263	0.230431	3.75451	0.445475	7.16928	0.714661	10.7865	0.913831	13.7265
0.30756	4.65607	0.106147	1.51725	0.305146	4.83788	0.473851	7.61851	0.584247	9.38507	0.854311	12.6556	0.232419	3.73028	0.446245	7.07558	0.714992	10.6799	0.914207	13.5426
0.307736	4.64377	0.108104	1.52491	0.30589	4.77907	0.474549	7.51713	0.584986	9.25837	0.854746	12.4897	0.234413	3.70685	0.447025	6.98476	0.715268	10.5934	0.914588	13.3638
0.30799	4.62624	0.110064	1.53242	0.306643	4.7221	0.475257	7.41885	0.585734	9.1355	0.855186	12.3283	0.236413	3.68419	0.447815	6.8967	0.715488	10.5261	0.914975	13.1899
0.308268	4.60738	0.112027	1.53978	0.307406	4.6669	0.475974	7.32353	0.586492	9.0163	0.855633	12.1713	0.238418	3.66226	0.448615	6.81129	0.71565	10.4772	0.915366	13.0207
0.308647	4.58206	0.11374	1.54607	0.308179	4.61338	0.4767	7.23105	0.587259	8.90061	0.856085	12.0184	0.240428	3.64103	0.449425	6.72841	0.715754	10.4462	0.915763	12.8559
0.309131	4.55057	0.115203	1.55135	0.308962	4.56148	0.477436	7.14128	0.588036	8.78828	0.856542	11.8696	0.242443	3.62046	0.450245	6.64795	0.715905	10.4019	0.916165	12.6955
0.30972	4.51327	0.116413	1.55567	0.309755	4.51113	0.478181	7.05413	0.588822	8.67919	0.857006	11.7246	0.244463	3.60053	0.451075	6.56983	0.71607	10.3543	0.916571	12.5393
0.310419	4.47055	0.117371	1.55904	0.310557	4.46227	0.478936	6.96947	0.589618	8.57318	0.857475	11.5834	0.246488	3.58121	0.451915	6.49394	0.716295	10.2902	0.916983	12.387
0.311229	4.42288	0.118076	1.5615	0.31137	4.41484	0.4797	6.8872	0.590423	8.47014	0.85795	11.4458	0.248517	3.56246	0.452765	6.4202	0.716581	10.2103	0.9174	12.2386
0.31205	4.37659	0.118527	1.56306	0.312192	4.36878	0.480473	6.80724	0.591238	8.36996	0.858431	11.3116	0.25055	3.54427	0.453624	6.34852	0.716931	10.1156	0.917823	12.0939
0.31288	4.33164	0.119176	1.5653	0.313024	4.32405	0.481255	6.72949	0.592062	8.27251	0.858917	11.1807	0.252587	3.52662	0.454494	6.27881	0.717345	10.0068	0.91825	11.9528
0.31372	4.28795	0.119882	1.56772	0.313865	4.28058	0.482046	6.65387	0.592895	8.1777	0.859345	11.0693	0.254629	3.50947	0.455373	6.21101	0.717826	9.88501	0.918682	11.8151
0.31457	4.2455	0.120842	1.57098	0.314717	4.23833	0.482847	6.58029	0.593738	8.08541	0.859714	10.9762	0.256675	3.49281	0.456261	6.14504	0.718313	9.76641	0.91912	11.6808
0.315429	4.20424	0.122057	1.57505	0.315578	4.19727	0.483656	6.50868	0.594589	7.99556	0.860021	10.9005	0.258724	3.47662	0.45716	6.08084	0.718805	9.65086	0.919562	11.5497
0.316298	4.16411	0.123528	1.57993	0.316448	4.15733	0.484475	6.43897	0.59545	7.90806	0.860265	10.8414	0.260777	3.46088	0.458068	6.01833	0.719304	9.53824	0.92001	11.4216
0.317177	4.12508	0.125255	1.58555	0.317329	4.11849	0.485302	6.37107	0.59632	7.82282	0.860446	10.7984	0.262834	3.44557	0.458985	5.95746	0.719809	9.42845	0.920463	11.2966
0.318065	4.08711	0.127239	1.59189	0.318219	4.0807	0.486138	6.30493	0.597199	7.73974	0.860562	10.771	0.264894	3.43067	0.459912	5.89816	0.720319	9.32138	0.920861	11.19
0.318964	4.05016	0.129226	1.59812	0.319119	4.04392	0.486984	6.24049	0.598086	7.65877	0.860729	10.732	0.266957	3.41617	0.460848	5.84039	0.720836	9.21694	0.921204	11.1008
0.319871	4.0142	0.131215	1.60423	0.320028	4.00812	0.487838	6.17768	0.598983	7.57982	0.860911	10.6899	0.269024	3.40206	0.461794	5.78407	0.721358	9.11503	0.92149	11.0282
0.320789	3.97919	0.133206	1.61023	0.320947	3.97327	0.488701	6.11644	0.599888	7.50282	0.86116	10.6333	0.271093	3.38831	0.462749	5.72918	0.721887	9.01557	0.921717	10.9715
0.321716	3.9451	0.135198	1.61612	0.321876	3.93933	0.489573	6.05673	0.600803	7.4277	0.861477	10.5625	0.273166	3.37491	0.463713	5.67564	0.722421	8.91846	0.921885	10.9302
0.322653	3.91189	0.137193	1.6219	0.322815	3.90628	0.490453	5.99848	0.601726	7.3544	0.861864	10.4784	0.275242	3.36186	0.464686	5.62343	0.722961	8.82364	0.921992	10.9039
0.323599	3.87954	0.13919	1.62758	0.323763	3.87407	0.491342	5.94164	0.602657	7.28285	0.862321	10.3814	0.27732	3.34913	0.465669	5.57249	0.723507	8.73102	0.922148	10.8664
0.324556	3.84803	0.141189	1.63316	0.324721	3.8427	0.49224	5.88618	0.603598	7.21301	0.86285	10.2726	0.279401	3.33672	0.46666	5.52278	0.724058	8.64053	0.922317	10.826
0.325522	3.81731	0.143189	1.63864	0.325689	3.81212	0.493146	5.83205	0.604547	7.1448	0.863386	10.1662	0.281485	3.32462	0.467661	5.47426	0.724616	8.5521	0.922549	10.7715
0.326497	3.78737	0.145191	1.64402	0.326666	3.78231	0.494061	5.77919	0.605504	7.07817	0.863927	10.0622	0.283571	3.31281	0.468671	5.4269	0.725179	8.46566	0.922843	10.7034
0.327483	3.75819	0.147195	1.64931	0.327653	3.75325	0.494984	5.72757	0.60647	7.01308	0.864473	9.96046	0.28566	3.30128	0.469689	5.38064	0.725748	8.38114	0.923202	10.6223
0.328478	3.72973	0.149201	1.65451	0.32865	3.72491	0.495916	5.67715	0.607444	6.94948	0.865025	9.86097	0.287752	3.29002	0.470717	5.33547	0.726323	8.2985	0.923626	10.5288
0.329483	3.70198	0.151207	1.65962	0.329656	3.69728	0.496857	5.62788	0.608427	6.88731	0.865583	9.76363	0.289845	3.27903	0.471753	5.29133	0.726904	8.21766	0.924118	10.4237
0.330498	3.67491	0.153216	1.66464	0.330673	3.67033	0.497805	5.57974	0.609418	6.82653	0.866146	9.66837	0.291941	3.26829	0.472798	5.24821	0.727491	8.13857	0.924614	10.3208
0.331522	3.6485	0.155225	1.66957	0.331699	3.64403	0.498762	5.53269	0.610418	6.7671	0.866715	9.57514	0.294039	3.2578	0.473852	5.20607	0.728083	8.06117	0.925116	10.2201
0.332557	3.62274	0.157236	1.67442	0.332735	3.61838	0.499727	5.48669	0.611425	6.70898	0.867289	9.48386	0.296139	3.24754	0.474915	5.16487	0.728681	7.98542	0.925623	10.1216
0.333601	3.59761	0.159249	1.67919	0.333782	3.59335	0.500701	5.44172	0.612441	6.65212	0.867869	9.39449	0.298242	3.23752	0.475986	5.1246	0.729285	7.91126	0.926134	10.025
0.334656	3.57308	0.161262	1.68388	0.334838	3.56892	0.501682	5.39773	0.613465	6.59648	0.868454	9.30696	0.300346	3.22772	0.477066	5.08521	0.729895	7.83865	0.926651	9.93047
0.33572	3.54914	0.163277	1.68849	0.335904	3.54508	0.502672	5.3547	0.614497	6.54204	0.869045	9.22122	0.302452	3.21813	0.478154	5.0467	0.73051	7.76754	0.927173	9.83783
0.336795	3.52577	0.165293	1.69303	0.33698	3.52181	0.50367	5.3126	0.615537	6.48875	0.869641	9.13722	0.30456	3.20875	0.479251	5.00902	0.731131	7.69788	0.9277	9.74706
0.337879	3.50296	0.16731	1.69749	0.338066	3.49909	0.504676	5.27141	0.616585	6.43658	0.870243	9.0549	0.30667	3.19957	0.480356	4.97215	0.731758	7.62964	0.928231	9.6581
0.338974	3.48069	0.169328	1.70188	0.339163	3.47691	0.50569	5.23109	0.617641	6.3855	0.87085	8.97422	0.308781	3.19058	0.48147	4.93608	0.73239	7.56276	0.928768	9.57091
0.340079	3.45894	0.171347	1.70619	0.34027	3.45526	0.506712	5.19163	0.618705	6.33547	0.871462	8.89513	0.310895	3.18179	0.482592	4.90077	0.733029	7.49722	0.92931	9.48542
0.341195	3.43771	0.173368	1.71044	0.341387	3.43412	0.507742	5.15299	0.619776	6.28647	0.872081	8.81758	0.313009	3.17318	0.483722	4.8662	0.733672	7.43298	0.929856	9.40159
0.342321	3.41698	0.175389	1.71462	0.342515	3.41347	0.50878	5.11515	0.620856	6.23846	0.872704	8.74154	0.315126	3.16474	0.484861	4.83237	0.734322	7.36999	0.930408	9.31938
0.343457	3.39673	0.177411	1.71873	0.343653	3.3933	0.509825	5.0781	0.621943	6.19142	0.873333	8.66695	0.317244	3.15647	0.486008	4.79923	0.734977	7.30823	0.930964	9.23873
0.344604	3.37696	0.179433	1.72278	0.344802	3.37361	0.510878	5.0418	0.623037	6.14532	0.873967	8.59379	0.319363	3.14838	0.487163	4.76678	0.735638	7.24766	0.931526	9.15961
0.345762	3.35765	0.181457	1.72676	0.345962	3.35438	0.511939	5.00624	0.62414	6.10013	0.874607	8.52201	0.321484	3.14044	0.488326	4.73499	0.736304	7.18824	0.932092	9.08198
0.346931	3.33879	0.183482	1.73068	0.347132	3.3356	0.513008	4.9714	0.62525	6.05584	0.875252	8.45157	0.323606	3.13266	0.489497	4.70385	0.736976	7.12995	0.932663	9.00579
0.34811	3.32037	0.185507	1.73454	0.348314	3.31725	0.514085	4.93725	0.626367	6.0124	0.875903	8.38244	0.32573	3.12503	0.490676	4.67334	0.737654	7.07275	0.93324	8.93101
0.349301	3.30238	0.187533	1.73834	0.349507	3.29934	0.515169	4.90378	0.627492	5.96981	0.876559	8.31458	0.327854	3.11755	0.491863	4.64345	0.738337	7.01662	0.933821	8.8576
0.350503	3.28481	0.18956	1.74208	0.350711	3.28184	0.51626	4.87098	0.628624	5.92804	0.87722	8.24796	0.32998	3.11021	0.493058	4.61414	0.739026	6.96153	0.934407	8.78552
0.351716	3.26765	0.191587	1.74577	0.351926	3.26475	0.517359	4.83881	0.629764	5.88706	0.877887	8.18255	0.332108	3.10301	0.494261	4.58542	0.739721	6.90745	0.934998	8.71473
0.352941	3.25089	0.193615	1.7494	0.353153	3.24806	0.518465	4.80727	0.630911	5.84686	0.878559	8.11831	0.334236	3.09595	0.495472	4.55726	0.740421	6.85435	0.935594	8.64521
0.354178	3.23453	0.195644	1.75297	0.354392	3.23176	0.519579	4.77633	0.632065	5.80741	0.879236	8.05522	0.336366	3.08901	0.49669	4.52965	0.741126	6.80221	0.936195	8.57692
0.355427	3.21854	0.197673	1.75649	0.355642	3.21584	0.520701	4.74599	0.633226	5.7687	0.879919	7.99324	0.338496	3.08221	0.497916	4.50257	0.741837	6.75101	0.936801	8.50984
0.356687	3.20294	0.199703	1.75996	0.356905	3.20029	0.521829	4.71623	0.634395	5.7307	0.880607	7.93236	0.340628	3.07552	0.49915	4.47602	0.742554	6.70072	0.937411	8.44392
0.35796	3.1877	0.201734	1.76337	0.35818	3.18512	0.522965	4.68703	0.63557	5.69341	0.8813	7.87253	0.34276	3.06896	0.500392	4.44997	0.743276	6.65131	0.938027	8.37914
0.359246	3.17282	0.203765	1.76674	0.359468	3.1703	0.524108	4.65837	0.636753	5.65679	0.881999	7.81374	0.344894	3.06252	0.501641	4.42442	0.744003	6.60277	0.938647	8.31548
0.360544	3.1583	0.205796	1.77005	0.360768	3.15584	0.525258	4.63025	0.637943	5.62083	0.882702	7.75596	0.347028	3.05618	0.502897	4.39936	0.744736	6.55508	0.939273	8.2529
0.361855	3.14412	0.207828	1.77332	0.362081	3.14172	0.526416	4.60265	0.639139	5.58553	0.883411	7.69916	0.349163	3.04996	0.504161	4.37476	0.745475	6.50821	0.939903	8.19138
0.363179	3.13029	0.20986	1.77654	0.363408	3.12795	0.52758	4.57556	0.640343	5.55085	0.884126	7.64332	0.351299	3.04385	0.505433	4.35062	0.746219	6.46214	0.940538	8.13089
0.364517	3.11679	0.211893	1.77971	0.364748	3.11451	0.528751	4.54896	0.641553	5.51678	0.884845	7.58842	0.353436	3.03784	0.506712	4.32693	0.746969	6.41686	0.941177	8.07141
0.365869	3.10362	0.213927	1.78283	0.366102	3.10139	0.52993	4.52285	0.642771	5.48332	0.88557	7.53443	0.355574	3.03193	0.507998	4.30367	0.747724	6.37234	0.941822	8.01291
0.367234	3.09078	0.21596	1.78592	0.36747	3.0886	0.531115	4.4972	0.643995	5.45044	0.8863	7.48134	0.357712	3.02613	0.509292	4.28084	0.748484	6.32857	0.942471	7.95538
0.368614	3.07825	0.217994	1.78895	0.368852	3.07613	0.532308	4.47202	0.645225	5.41813	0.887035	7.42912	0.359851	3.02042	0.510593	4.25843	0.74925	6.28553	0.943126	7.89878
0.370008	3.06604	0.220029	1.79195	0.370249	3.06397	0.533507	4.44728	0.646463	5.38638	0.887775	7.37775	0.361991	3.0148	0.511901	4.23642	0.750021	6.2432	0.943785	7.8431
0.371417	3.05413	0.222063	1.7949	0.371661	3.05212	0.534713	4.42298	0.647707	5.35518	0.888521	7.32721	0.364131	3.00927	0.513216	4.21481	0.750797	6.20157	0.944449	7.78832
0.372842	3.04254	0.224098	1.79781	0.373088	3.04058	0.535925	4.39911	0.648957	5.3245	0.889272	7.27749	0.366272	3.00384	0.514539	4.19358	0.751579	6.16062	0.945117	7.73441
0.374281	3.03124	0.226134	1.80068	0.37453	3.02933	0.537145	4.37566	0.650215	5.29434	0.890027	7.22856	0.368413	2.99849	0.515868	4.17273	0.752367	6.12033	0.945791	7.68135
0.375737	3.02024	0.22817	1.80351	0.375989	3.01838	0.538371	4.35261	0.651478	5.26469	0.890788	7.18041	0.370555	2.99322	0.517205	4.15225	0.753159	6.08069	0.946469	7.62913
0.377209	3.00953	0.230206	1.8063	0.377463	3.00772	0.539604	4.32996	0.652748	5.23554	0.891555	7.13301	0.372698	2.98804	0.518549	4.13213	0.753957	6.04169	0.947152	7.57773
0.378697	2.99911	0.232242	1.80905	0.378955	2.99735	0.540843	4.3077	0.654025	5.20687	0.892326	7.08636	0.374841	2.98294	0.519899	4.11236	0.754761	6.0033	0.94784	7.52712
0.380203	2.98898	0.234278	1.81177	0.380463	2.98727	0.542089	4.28582	0.655307	5.17867	0.893102	7.04043	0.376984	2.97792	0.521257	4.09294	0.755569	5.96553	0.948532	7.4773
0.381725	2.97913	0.236315	1.81444	0.381988	2.97747	0.543341	4.26431	0.656596	5.15093	0.893884	6.99522	0.379128	2.97297	0.522622	4.07385	0.756383	5.92834	0.94923	7.42824
0.383265	2.96956	0.238352	1.81708	0.383531	2.96794	0.5446	4.24316	0.657892	5.12364	0.89467	6.95069	0.381272	2.9681	0.523993	4.05509	0.757202	5.89174	0.949932	7.37992
0.384823	2.96026	0.240389	1.81969	0.385092	2.95869	0.545865	4.22237	0.659193	5.09679	0.895462	6.90685	0.383416	2.9633	0.525371	4.03665	0.758027	5.85571	0.950638	7.33234
0.386399	2.95123	0.242426	1.82226	0.386672	2.94971	0.547137	4.20192	0.660501	5.07038	0.896259	6.86367	0.385561	2.95857	0.526756	4.01852	0.758857	5.82023	0.95135	7.28547
0.387994	2.94247	0.244464	1.8248	0.38827	2.94099	0.548415	4.18181	0.661815	5.04439	0.89706	6.82114	0.387706	2.95392	0.528148	4.0007	0.759692	5.78529	0.952066	7.2393
0.389607	2.93398	0.246501	1.8273	0.389886	2.93254	0.549699	4.16204	0.663135	5.01881	0.897867	6.77925	0.389852	2.94932	0.529546	3.98318	0.760532	5.75089	0.952787	7.19382
0.39124	2.92574	0.248539	1.82977	0.391522	2.92436	0.550989	4.14258	0.664461	4.99363	0.898679	6.73798	0.391997	2.9448	0.530951	3.96596	0.761377	5.717	0.953512	7.14901
0.392892	2.91777	0.250577	1.8322	0.393177	2.91642	0.552285	4.12345	0.665792	4.96885	0.899495	6.69732	0.394143	2.94034	0.532363	3.94902	0.762228	5.68363	0.954243	7.10485
0.394564	2.91005	0.252615	1.83461	0.394853	2.90875	0.553588	4.10462	0.66713	4.94445	0.900317	6.65725	0.396289	2.93594	0.533781	3.93236	0.763084	5.65075	0.954978	7.06134
0.396255	2.90258	0.254653	1.83698	0.396547	2.90132	0.554897	4.0861	0.668474	4.92043	0.901144	6.61777	0.398435	2.93161	0.535206	3.91598	0.763945	5.61837	0.955717	7.01846
0.397966	2.89535	0.256692	1.83932	0.398262	2.89414	0.556212	4.06787	0.669823	4.89678	0.901976	6.57887	0.400581	2.92733	0.536637	3.89987	0.764811	5.58646	0.956461	6.97619
0.399698	2.88837	0.25873	1.84163	0.399998	2.8872	0.557532	4.04993	0.671179	4.8735	0.902812	6.54052	0.402727	2.92311	0.538075	3.88402	0.765683	5.55502	0.95721	6.93453
0.40145	2.88163	0.260769	1.84391	0.401753	2.8805	0.558859	4.03228	0.67254	4.85057	0.903654	6.50273	0.404874	2.91895	0.539519	3.86843	0.76656	5.52404	0.957964	6.89346
0.403223	2.87513	0.262807	1.84617	0.403529	2.87403	0.560192	4.01491	0.673907	4.82798	0.904501	6.46547	0.40702	2.91485	0.54097	3.85309	0.767441	5.49351	0.958722	6.85297
0.405016	2.86885	0.264846	1.84839	0.405325	2.8678	0.56153	3.9978	0.675279	4.80574	0.905352	6.42875	0.409167	2.9108	0.542427	3.838	0.768328	5.46342	0.959485	6.81305
0.406829	2.8628	0.266885	1.85058	0.407142	2.86179	0.562875	3.98097	0.676657	4.78383	0.906209	6.39253	0.411313	2.9068	0.54389	3.82315	0.76922	5.43377	0.960252	6.77369
0.408663	2.85698	0.268923	1.85275	0.408979	2.856	0.564225	3.96439	0.678041	4.76224	0.90707	6.35683	0.41346	2.90286	0.54536	3.80853	0.770117	5.40453	0.961024	6.73487
0.410517	2.85137	0.270962	1.85489	0.410837	2.85042	0.565581	3.94808	0.67943	4.74097	0.907936	6.32163	0.415606	2.89896	0.546835	3.79415	0.771019	5.37572	0.961801	6.69659
0.412391	2.84597	0.273001	1.857	0.412715	2.84506	0.566942	3.93201	0.680825	4.72002	0.908807	6.28691	0.417752	2.89512	0.548317	3.78	0.771927	5.3473	0.962582	6.65883
0.414285	2.84077	0.27504	1.85909	0.414612	2.8399	0.56831	3.91619	0.682226	4.69937	0.909683	6.25267	0.419898	2.89132	0.549806	3.76607	0.772839	5.31929	0.963368	6.62159
0.416199	2.83578	0.277079	1.86115	0.41653	2.83494	0.569683	3.9006	0.683631	4.67903	0.910564	6.21889	0.422045	2.88758	0.5513	3.75236	0.773756	5.29167	0.964158	6.58485
0.418133	2.83098	0.279117	1.86319	0.418467	2.83018	0.571061	3.88526	0.685042	4.65898	0.911449	6.18558	0.42419	2.88387	0.552801	3.73886	0.774679	5.26444	0.964953	6.54861
0.420086	2.82638	0.281156	1.86519	0.420423	2.8256	0.572445	3.87014	0.686459	4.63921	0.91234	6.15272	0.426336	2.88022	0.554307	3.72558	0.775606	5.23758	0.965752	6.51286
0.422057	2.82195	0.283195	1.86718	0.422398	2.82121	0.573835	3.85525	0.68788	4.61973	0.913235	6.1203	0.428482	2.87661	0.55582	3.71249	0.776539	5.21109	0.966556	6.47758
0.424048	2.81771	0.285234	1.86914	0.424391	2.817	0.57523	3.84058	0.689307	4.60053	0.914135	6.08832	0.430627	2.87304	0.557338	3.69961	0.777476	5.18496	0.967365	6.44277
0.426056	2.81363	0.287273	1.87108	0.426403	2.81295	0.57663	3.82613	0.69074	4.5816	0.91504	6.05676	0.432772	2.86951	0.558863	3.68693	0.778418	5.15919	0.968178	6.40842
0.428082	2.80973	0.289312	1.87299	0.428432	2.80907	0.578036	3.81189	0.692177	4.56294	0.915949	6.02562	0.434917	2.86603	0.560393	3.67444	0.779366	5.13377	0.968996	6.37452
0.430126	2.80598	0.29135	1.87488	0.430478	2.80535	0.579447	3.79787	0.69362	4.54453	0.916864	5.99489	0.437062	2.86259	0.56193	3.66215	0.780318	5.10869	0.969818	6.34106
0.432186	2.80239	0.293389	1.87675	0.432541	2.80179	0.580863	3.78404	0.695067	4.52639	0.917783	5.96457	0.439206	2.85918	0.563472	3.65004	0.781275	5.08394	0.970644	6.30804
0.434262	2.79894	0.295428	1.87859	0.434621	2.79837	0.582285	3.77042	0.69652	4.50849	0.918707	5.93464	0.44135	2.85582	0.56502	3.63811	0.782237	5.05953	0.971475	6.27544
0.436355	2.79564	0.297466	1.88042	0.436716	2.79509	0.583712	3.75699	0.697978	4.49085	0.919635	5.9051	0.443493	2.85249	0.566574	3.62636	0.783205	5.03544	0.972311	6.24327
0.438463	2.79248	0.299505	1.88222	0.438826	2.79195	0.585144	3.74376	0.699441	4.47344	0.920569	5.87594	0.445637	2.8492	0.568134	3.61479	0.784177	5.01167	0.973151	6.2115
0.440585	2.78944	0.301543	1.884	0.440951	2.78894	0.586581	3.73072	0.700908	4.45627	0.921507	5.84715	0.447779	2.84595	0.5697	3.60339	0.785154	4.98821	0.973995	6.18014
0.442722	2.78654	0.303582	1.88575	0.44309	2.78605	0.588024	3.71786	0.702381	4.43934	0.922449	5.81873	0.449922	2.84273	0.571271	3.59216	0.786135	4.96506	0.974844	6.14917
0.444873	2.78375	0.30562	1.88749	0.445243	2.78328	0.589471	3.70518	0.703858	4.42263	0.923397	5.79068	0.452064	2.83955	0.572848	3.58109	0.787122	4.94221	0.975697	6.11859
0.447037	2.78108	0.307658	1.88921	0.44741	2.78063	0.590923	3.69269	0.705341	4.40615	0.924349	5.76298	0.454205	2.83641	0.574431	3.57019	0.788114	4.91966	0.976555	6.0884
0.449214	2.77851	0.309697	1.89091	0.449589	2.77808	0.592381	3.68037	0.706828	4.38989	0.925305	5.73562	0.456347	2.83329	0.576019	3.55945	0.78911	4.89739	0.977417	6.05858
0.451403	2.77605	0.311735	1.89258	0.45178	2.77564	0.593843	3.66822	0.70832	4.37385	0.926266	5.70861	0.458487	2.83021	0.577613	3.54887	0.790111	4.87541	0.978283	6.02913
0.453603	2.7737	0.313773	1.89424	0.453982	2.7733	0.59531	3.65624	0.709816	4.35802	0.927232	5.68194	0.460627	2.82716	0.579212	3.53844	0.791117	4.85372	0.979154	6.00005
0.455816	2.77143	0.315811	1.89588	0.456197	2.77106	0.596782	3.64443	0.711318	4.3424	0.928203	5.6556	0.462767	2.82414	0.580817	3.52816	0.792128	4.8323	0.98003	5.97132
0.458039	2.76926	0.317848	1.8975	0.458421	2.7689	0.598259	3.63278	0.712824	4.32698	0.929178	5.62958	0.464906	2.82116	0.582428	3.51804	0.793144	4.81115	0.980909	5.94294
0.460272	2.76718	0.319886	1.8991	0.460656	2.76683	0.599741	3.62129	0.714334	4.31176	0.930158	5.60388	0.467044	2.8182	0.584044	3.50805	0.794164	4.79026	0.981793	5.91491
0.462515	2.76518	0.321924	1.90069	0.462901	2.76484	0.601228	3.60996	0.715849	4.29675	0.931142	5.5785	0.469182	2.81527	0.585665	3.49822	0.795189	4.76964	0.982682	5.88722
0.464768	2.76325	0.323961	1.90225	0.465156	2.76293	0.602719	3.59878	0.717369	4.28192	0.932131	5.55343	0.471319	2.81237	0.587292	3.48852	0.796219	4.74928	0.983574	5.85986
0.46703	2.76141	0.325998	1.9038	0.467419	2.7611	0.604215	3.58775	0.718893	4.26729	0.933124	5.52866	0.473456	2.8095	0.588924	3.47896	0.797254	4.72917	0.984471	5.83282
0.469301	2.75963	0.328036	1.90533	0.469691	2.75933	0.605716	3.57687	0.720422	4.25284	0.934122	5.50418	0.475592	2.80666	0.590562	3.46954	0.798293	4.70931	0.985373	5.80611
0.47158	2.75792	0.330073	1.90684	0.471972	2.75763	0.607221	3.56614	0.721955	4.23858	0.935124	5.48001	0.477727	2.80384	0.592205	3.46025	0.799337	4.68969	0.986278	5.77972
0.473866	2.75627	0.33211	1.90834	0.47426	2.756	0.608731	3.55555	0.723493	4.2245	0.936131	5.45612	0.479862	2.80106	0.593853	3.4511	0.800386	4.67032	0.987188	5.75364
0.476161	2.75469	0.334146	1.90982	0.476556	2.75443	0.610245	3.54511	0.725035	4.2106	0.937143	5.43251	0.481996	2.79829	0.595507	3.44207	0.801439	4.65118	0.988102	5.72786
0.478463	2.75317	0.336183	1.91128	0.478858	2.75291	0.611764	3.5348	0.726581	4.19687	0.938159	5.40919	0.484129	2.79556	0.597166	3.43317	0.802498	4.63227	0.989021	5.70239
0.480771	2.7517	0.33822	1.91273	0.481168	2.75145	0.613288	3.52463	0.728132	4.18331	0.939179	5.38614	0.486261	2.79285	0.59883	3.4244	0.80356	4.61359	0.989944	5.67721
0.483086	2.75029	0.340256	1.91416	0.483484	2.75005	0.614816	3.51459	0.729687	4.16993	0.940204	5.36336	0.488393	2.79016	0.600499	3.41574	0.804628	4.59514	0.990871	5.65233
0.485408	2.74892	0.342292	1.91557	0.485807	2.74869	0.616348	3.50468	0.731246	4.1567	0.941233	5.34084	0.490524	2.78749	0.602174	3.40721	0.8057	4.57691	0.991802	5.62773
0.487735	2.7476	0.344328	1.91697	0.488136	2.74738	0.617885	3.4949	0.732809	4.14365	0.942267	5.31859	0.492654	2.78485	0.603854	3.3988	0.806777	4.5589	0.992737	5.60341
0.490069	2.74633	0.346364	1.91836	0.49047	2.74612	0.619426	3.48525	0.734377	4.13075	0.943305	5.29659	0.494783	2.78224	0.605538	3.3905	0.807858	4.5411	0.993677	5.57938
0.492407	2.74511	0.3484	1.91972	0.492809	2.7449	0.620971	3.47573	0.735948	4.11801	0.944348	5.27485	0.496912	2.77964	0.607228	3.38232	0.808944	4.52352	0.994621	5.55561
0.494751	2.74392	0.350435	1.92108	0.495154	2.74372	0.622521	3.46633	0.737524	4.10542	0.945395	5.25336	0.499039	2.77707	0.608923	3.37425	0.810034	4.50614	0.995569	5.53212
0.4971	2.74278	0.352471	1.92242	0.497504	2.74259	0.624075	3.45704	0.739104	4.09299	0.946446	5.23212	0.501166	2.77452	0.610623	3.36629	0.81113	4.48896	0.996521	5.50889
0.499454	2.74167	0.354506	1.92374	0.499859	2.74148	0.625633	3.44788	0.740688	4.0807	0.947502	5.21111	0.503292	2.77199	0.612329	3.35844	0.812229	4.47199	0.997478	5.48592
0.501812	2.7406	0.356541	1.92505	0.502218	2.74042	0.627195	3.43883	0.742276	4.06857	0.948562	5.19035	0.505417	2.76949	0.614039	3.3507	0.813333	4.45522	0.998439	5.46321
0.504175	2.73956	0.358576	1.92635	0.504581	2.73939	0.628762	3.4299	0.743868	4.05658	0.949626	5.16981	0.507541	2.767	0.615754	3.34306	0.814442	4.43864	0.999403	5.44075
0.506542	2.73856	0.360611	1.92763	0.506948	2.73839	0.630332	3.42108	0.745464	4.04473	0.950695	5.14951	0.509665	2.76453	0.617474	3.33553	0.815555	4.42225	1.00037	5.41855
0.508912	2.73759	0.362645	1.9289	0.50932	2.73742	0.631907	3.41237	0.747063	4.03302	0.951768	5.12944	0.511787	2.76209	0.619199	3.32809	0.816673	4.40605		
0.511287	2.73664	0.36468	1.93016	0.511695	2.73649	0.633486	3.40377	0.748667	4.02145	0.952845	5.10959	0.513908	2.75966	0.620929	3.32076	0.817796	4.39004		
0.513665	2.73573	0.366714	1.9314	0.514074	2.73558	0.635069	3.39528	0.750275	4.01002	0.953927	5.08996	0.516029	2.75725	0.622663	3.31353	0.818922	4.37421		
0.516047	2.73484	0.368748	1.93263	0.516456	2.73469	0.636656	3.3869	0.751886	3.99872	0.955013	5.07055	0.518148	2.75486	0.624403	3.30639	0.820054	4.35856		
0.518432	2.73398	0.370782	1.93385	0.518841	2.73384	0.638246	3.37861	0.753501	3.98755	0.956103	5.05135	0.520267	2.75249	0.626147	3.29935	0.821189	4.34309		
0.52082	2.73315	0.372815	1.93505	0.52123	2.73301	0.639841	3.37043	0.75512	3.97651	0.957198	5.03236	0.522384	2.75014	0.627897	3.29241	0.822329	4.3278		
0.523211	2.73234	0.374849	1.93624	0.523621	2.7322	0.64144	3.36235	0.756743	3.9656	0.958296	5.01358	0.5245	2.7478	0.629651	3.28555	0.823474	4.31267		
0.525605	2.73155	0.376882	1.93742	0.526016	2.73141	0.643043	3.35437	0.758369	3.95481	0.959399	4.995	0.526616	2.74548	0.63141	3.27879	0.824623	4.29772		
0.528001	2.73078	0.378915	1.93858	0.528413	2.73065	0.644649	3.34649	0.759999	3.94415	0.960507	4.97662	0.52873	2.74318	0.633173	3.27212	0.825776	4.28293		
0.5304	2.73003	0.380948	1.93974	0.530813	2.72991	0.64626	3.3387	0.761633	3.93361	0.961618	4.95845	0.530843	2.7409	0.634941	3.26553	0.826934	4.26831		
0.532802	2.72931	0.382981	1.94088	0.533215	2.72919	0.647874	3.331	0.76327	3.92319	0.962734	4.94046	0.532956	2.73863	0.636714	3.25903	0.828096	4.25386		
0.535206	2.7286	0.385013	1.94201	0.535619	2.72848	0.649492	3.3234	0.764911	3.91288	0.963853	4.92267	0.535067	2.73637	0.638492	3.25262	0.829263	4.23956		
0.537613	2.72791	0.387045	1.94313	0.538026	2.7278	0.651113	3.31589	0.766556	3.9027	0.964977	4.90507	0.537177	2.73414	0.640274	3.24629	0.830434	4.22542		
0.540022	2.72724	0.389077	1.94424	0.540435	2.72713	0.652739	3.30847	0.768204	3.89262	0.966106	4.88766	0.539286	2.73192	0.642061	3.24005	0.831609	4.21143		
0.542432	2.72659	0.391109	1.94533	0.542846	2.72648	0.654368	3.30114	0.769855	3.88266	0.967238	4.87043	0.541394	2.72971	0.643852	3.23388	0.832789	4.1976		
0.544845	2.72595	0.393141	1.94642	0.54526	2.72584	0.656001	3.2939	0.77151	3.87281	0.968374	4.85339	0.5435	2.72752	0.645648	3.2278	0.833973	4.18392		
0.54726	2.72533	0.395172	1.94749	0.547675	2.72522	0.657638	3.28674	0.773169	3.86307	0.969515	4.83652	0.545606	2.72534	0.647449	3.22179	0.835161	4.17039		
0.549676	2.72472	0.397203	1.94856	0.550091	2.72461	0.659278	3.27966	0.774831	3.85343	0.970659	4.81983	0.54771	2.72318	0.649253	3.21586	0.836354	4.157		
0.552094	2.72412	0.399234	1.94961	0.55251	2.72402	0.660922	3.27267	0.776496	3.84391	0.971808	4.80331	0.549814	2.72104	0.651063	3.21001	0.837551	4.14376		
0.554514	2.72354	0.401265	1.95065	0.55493	2.72344	0.662569	3.26576	0.778165	3.83448	0.972961	4.78696	0.551916	2.7189	0.652877	3.20424	0.838752	4.13067		
0.556936	2.72297	0.403296	1.95168	0.557352	2.72288	0.66422	3.25894	0.779837	3.82516	0.974118	4.77079	0.554017	2.71678	0.654695	3.19853	0.839957	4.11771		
0.559359	2.72242	0.405326	1.9527	0.559775	2.72233	0.665874	3.25219	0.781512	3.81594	0.975279	4.75478	0.556116	2.71468	0.656518	3.19291	0.841167	4.10489		
0.561783	2.72188	0.407356	1.95372	0.5622	2.72179	0.667532	3.24551	0.783191	3.80682	0.976444	4.73893	0.558215	2.71258	0.658345	3.18735	0.842381	4.09221		
0.564209	2.72135	0.409386	1.95472	0.564626	2.72126	0.669194	3.23892	0.784873	3.79779	0.977613	4.72325	0.560312	2.7105	0.660177	3.18186	0.843599	4.07966		
0.566636	2.72083	0.411416	1.95571	0.567053	2.72074	0.670859	3.2324	0.786558	3.78886	0.978786	4.70772	0.562408	2.70844	0.662013	3.17645	0.844822	4.06725		
0.569064	2.72032	0.413446	1.95669	0.569481	2.72023	0.672527	3.22596	0.788246	3.78003	0.979963	4.69236	0.564503	2.70638	0.663853	3.1711	0.846048	4.05497		
0.571494	2.71982	0.415475	1.95766	0.571911	2.71973	0.674199	3.21959	0.789938	3.7713	0.981145	4.67715	0.566597	2.70434	0.665697	3.16582	0.847279	4.04281		
0.573925	2.71933	0.417504	1.95862	0.574342	2.71924	0.675874	3.21329	0.791633	3.76265	0.98233	4.66209	0.568689	2.70231	0.667546	3.16061	0.848514	4.03078		
0.576356	2.71885	0.419533	1.95958	0.576774	2.71876	0.677552	3.20707	0.793331	3.7541	0.983519	4.64719	0.57078	2.70029	0.669399	3.15546	0.849753	4.01888		
0.578789	2.71837	0.421561	1.96052	0.579207	2.71829	0.679234	3.20091	0.795032	3.74563	0.984712	4.63243	0.57287	2.69828	0.671256	3.15038	0.850997	4.00711		
0.581223	2.71791	0.42359	1.96145	0.581641	2.71783	0.68092	3.19483	0.796736	3.73725	0.985909	4.61782	0.574959	2.69629	0.673117	3.14536	0.852244	3.99545		
0.583658	2.71746	0.425618	1.96238	0.584076	2.71738	0.682608	3.18881	0.798443	3.72897	0.98711	4.60336	0.577047	2.69431	0.674983	3.14041	0.853496	3.98392		
0.586093	2.71701	0.427646	1.9633	0.586511	2.71694	0.6843	3.18286	0.800153	3.72076	0.988315	4.58904	0.579133	2.69234	0.676852	3.13552	0.854752	3.97251		
0.588529	2.71657	0.429674	1.9642	0.588948	2.7165	0.685995	3.17698	0.801866	3.71264	0.989524	4.57486	0.581218	2.69038	0.678726	3.13068	0.856012	3.96121		
0.590967	2.71614	0.431701	1.9651	0.591385	2.71607	0.687694	3.17116	0.803582	3.70461	0.990737	4.56082	0.583301	2.68843	0.680604	3.12591	0.857276	3.95003		
0.593405	2.71572	0.433728	1.96599	0.593823	2.71564	0.689395	3.16541	0.805301	3.69666	0.991953	4.54692	0.585383	2.68649	0.682486	3.1212	0.858544	3.93896		
0.595843	2.7153	0.435755	1.96687	0.596262	2.71523	0.6911	3.15972	0.807024	3.68878	0.993174	4.53315	0.587464	2.68456	0.684372	3.11655	0.859816	3.92801		
0.598282	2.71489	0.437782	1.96775	0.598701	2.71482	0.692808	3.15409	0.808749	3.68099	0.994398	4.51952	0.589544	2.68264	0.686262	3.11195	0.861092	3.91716		
0.600722	2.71448	0.439809	1.96861	0.601141	2.71441	0.69452	3.14853	0.810477	3.67328	0.995627	4.50603	0.591623	2.68073	0.688156	3.10741	0.862373	3.90643		
0.603163	2.71408	0.441835	1.96947	0.603582	2.71402	0.696234	3.14303	0.812207	3.66565	0.996859	4.49266	0.5937	2.67884	0.690054	3.10292	0.863657	3.89581		
0.605604	2.71369	0.443861	1.97032	0.606023	2.71362	0.697952	3.13758	0.813941	3.65809	0.998095	4.47942	0.595776	2.67695	0.691955	3.09849	0.864945	3.88529		
0.608045	2.7133	0.445887	1.97116	0.608464	2.71324	0.699672	3.1322	0.815677	3.65061	0.999335	4.46631	0.59785	2.67507	0.693861	3.09412	0.866238	3.87488		
0.610487	2.71292	0.447913	1.97199	0.610906	2.71286	0.701396	3.12687	0.817417	3.6432	1.00058	4.45332	0.599923	2.6732	0.695771	3.0898	0.867534	3.86457		
0.612929	2.71254	0.449938	1.97282	0.613349	2.71248	0.703123	3.12161	0.819159	3.63587			0.601995	2.67134	0.697684	3.08553	0.868835	3.85437		
0.615372	2.71217	0.451963	1.97363	0.615792	2.71211	0.704853	3.1164	0.820903	3.6286			0.604066	2.6695	0.699601	3.08131	0.870139	3.84427		
0.617815	2.7118	0.453988	1.97444	0.618235	2.71174	0.706586	3.11124	0.822651	3.62141			0.606135	2.66766	0.701523	3.07715	0.871448	3.83427		
0.620259	2.71144	0.456013	1.97524	0.620678	2.71138	0.708322	3.10615	0.824401	3.61429			0.608203	2.66583	0.703447	3.07303	0.87276	3.82436		
0.622702	2.71108	0.458037	1.97604	0.623122	2.71102	0.710062	3.1011	0.826154	3.60725			0.610269	2.66401	0.705376	3.06896	0.874077	3.81456		
0.625146	2.71073	0.460062	1.97683	0.625566	2.71066	0.711804	3.09611	0.827909	3.60026			0.612335	2.66219	0.707308	3.06495	0.875397	3.80485		
0.627591	2.71037	0.462086	1.97761	0.62801	2.71031	0.713549	3.09118	0.829668	3.59335			0.614399	2.66039	0.709244	3.06098	0.876722	3.79524		
0.630035	2.71003	0.464109	1.97838	0.630455	2.70997	0.715297	3.08629	0.831428	3.58651			0.616461	2.6586	0.711184	3.05706	0.87805	3.78572		
0.63248	2.70968	0.466133	1.97914	0.632899	2.70962	0.717048	3.08146	0.833192	3.57973			0.618523	2.65681	0.713127	3.05318	0.879382	3.77629		
0.634924	2.70934	0.468156	1.9799	0.635344	2.70928	0.718803	3.07668	0.834958	3.57301			0.620583	2.65503	0.715074	3.04935	0.880718	3.76696		
0.637369	2.709	0.470179	1.98065	0.637789	2.70895	0.72056	3.07195	0.836726	3.56636			0.622641	2.65327	0.717025	3.04557	0.882058	3.75772		
0.639814	2.70867	0.472202	1.9814	0.640234	2.70861	0.72232	3.06727	0.838498	3.55977			0.624699	2.65151	0.718979	3.04183	0.883402	3.74856		
0.642259	2.70834	0.474224	1.98214	0.642679	2.70828	0.724083	3.06264	0.840271	3.55325			0.626755	2.64975	0.720936	3.03814	0.88475	3.7395		
0.644704	2.70801	0.476247	1.98287	0.645124	2.70795	0.725849	3.05806	0.842047	3.54678			0.628809	2.64801	0.722897	3.03449	0.886102	3.73052		
0.647149	2.70768	0.478269	1.98359	0.647569	2.70763	0.727618	3.05353	0.843826	3.54038			0.630863	2.64628	0.724862	3.03088	0.887457	3.72163		
0.649594	2.70736	0.480291	1.98431	0.650014	2.7073	0.72939	3.04904	0.845607	3.53404			0.632915	2.64455	0.72683	3.02732	0.888817	3.71282		
0.652039	2.70704	0.482312	1.98502	0.652458	2.70698	0.731164	3.0446	0.84739	3.52776			0.634966	2.64283	0.728801	3.02379	0.89018	3.7041		
0.654484	2.70672	0.484334	1.98572	0.654903	2.70666	0.732942	3.04021	0.849176	3.52153			0.637015	2.64112	0.730776	3.02031	0.891547	3.69547		
0.656928	2.7064	0.486355	1.98642	0.657348	2.70634	0.734723	3.03586	0.850964	3.51537			0.639064	2.63941	0.732754	3.01687	0.892918	3.68691		
0.659373	2.70608	0.488376	1.98712	0.659792	2.70603	0.736506	3.03156	0.852755	3.50926			0.64111	2.63772	0.734735	3.01347	0.894293	3.67843		
0.661817	2.70577	0.490396	1.9878	0.662237	2.70571	0.738292	3.0273	0.854548	3.5032			0.643156	2.63603	0.73672	3.01011	0.895671	3.67004		
0.664261	2.70545	0.492417	1.98848	0.664681	2.7054	0.740081	3.02309	0.856343	3.4972			0.6452	2.63435	0.738708	3.00678	0.897054	3.66173		
0.666705	2.70514	0.494437	1.98916	0.667125	2.70509	0.741873	3.01892	0.858141	3.49126			0.647243	2.63267	0.740699	3.0035	0.89844	3.65349		
0.669149	2.70483	0.496457	1.98982	0.669568	2.70478	0.743668	3.0148	0.859941	3.48537			0.649285	2.63101	0.742693	3.00025	0.89983	3.64533		
0.671592	2.70452	0.498477	1.99049	0.672012	2.70447	0.745466	3.01071	0.861743	3.47954			0.651326	2.62935	0.744691	2.99704	0.901224	3.63725		
0.674035	2.70422	0.500496	1.99114	0.674455	2.70416	0.747267	3.00667	0.863548	3.47376			0.653365	2.6277	0.746692	2.99386	0.902621	3.62924		
0.676478	2.70391	0.502515	1.99179	0.676898	2.70386	0.74907	3.00267	0.865354	3.46803			0.655403	2.62606	0.748696	2.99073	0.904022	3.62131		
0.678921	2.7036	0.504534	1.99244	0.67934	2.70355	0.750876	2.99871	0.867163	3.46235			0.657439	2.62442	0.750703	2.98762	0.905427	3.61345		
0.681363	2.7033	0.506553	1.99307	0.681782	2.70325	0.752685	2.99479	0.868974	3.45672			0.659475	2.62279	0.752713	2.98456	0.906836	3.60567		
0.683804	2.70299	0.508571	1.99371	0.684223	2.70294	0.754497	2.99091	0.870787	3.45114			0.661509	2.62117	0.754726	2.98153	0.908248	3.59795		
0.686245	2.70269	0.51059	1.99434	0.686664	2.70264	0.756312	2.98708	0.872603	3.44561			0.663542	2.61955	0.756742	2.97853	0.909665	3.59031		
0.688686	2.70239	0.512608	1.99496	0.689105	2.70233	0.75813	2.98328	0.87442	3.44013			0.665574	2.61794	0.758761	2.97556	0.911084	3.58274		
0.691126	2.70208	0.514625	1.99557	0.691545	2.70203	0.75995	2.97952	0.87624	3.4347			0.667604	2.61634	0.760783	2.97263	0.912508	3.57524		
0.693566	2.70178	0.516643	1.99619	0.693985	2.70173	0.761774	2.9758	0.878062	3.42932			0.669633	2.61475	0.762808	2.96973	0.913935	3.56781		
0.696005	2.70148	0.51866	1.99679	0.696424	2.70142	0.7636	2.97211	0.879886	3.42398			0.671661	2.61316	0.764835	2.96686	0.915366	3.56045		
0.698443	2.70117	0.520677	1.99739	0.698862	2.70112	0.765429	2.96847	0.881712	3.4187			0.673688	2.61158	0.766866	2.96403	0.916801	3.55315		
0.700881	2.70087	0.522694	1.99799	0.7013	2.70082	0.767261	2.96486	0.88354	3.41345			0.675714	2.61	0.768899	2.96122	0.918239	3.54592		
0.703319	2.70057	0.52471	1.99858	0.703737	2.70051	0.769095	2.96129	0.88537	3.40825			0.677738	2.60844	0.770936	2.95845	0.919681	3.53876		
0.705755	2.70026	0.526727	1.99916	0.706173	2.70021	0.770933	2.95775	0.887202	3.4031			0.679762	2.60688	0.772974	2.95571	0.921127	3.53166		
0.708191	2.69996	0.528743	1.99974	0.708609	2.6999	0.772773	2.95425	0.889036	3.39799			0.681784	2.60532	0.775016	2.95299	0.922576	3.52462		
0.710626	2.69965	0.530759	2.00032	0.711044	2.6996	0.774617	2.95079	0.890872	3.39293			0.683805	2.60377	0.77706	2.95031	0.924029	3.51765		
0.71306	2.69934	0.532774	2.00089	0.713478	2.69929	0.776463	2.94736	0.89271	3.38791			0.685824	2.60223	0.779108	2.94765	0.925485	3.51075		
0.715494	2.69904	0.534789	2.00146	0.715912	2.69898	0.778312	2.94397	0.89455	3.38293			0.687843	2.6007	0.781157	2.94503	0.926945	3.5039		
0.717927	2.69873	0.536804	2.00202	0.718344	2.69868	0.780164	2.94061	0.896391	3.37799			0.68986	2.59917	0.78321	2.94243	0.928409	3.49712		
0.720358	2.69842	0.538819	2.00257	0.720776	2.69837	0.782019	2.93729	0.898235	3.37309			0.691877	2.59765	0.785264	2.93986	0.929877	3.49039		
0.722789	2.69811	0.540834	2.00312	0.723206	2.69806	0.783876	2.934	0.900081	3.36824			0.693892	2.59613	0.787322	2.93732	0.931347	3.48373		
0.725219	2.6978	0.542848	2.00367	0.725636	2.69774	0.785737	2.93074	0.901928	3.36343			0.695906	2.59462	0.789382	2.9348	0.932822	3.47713		
0.727648	2.69748	0.544862	2.00421	0.728065	2.69743	0.787601	2.92752	0.903778	3.35865			0.697919	2.59312	0.791444	2.93231	0.9343	3.47059		
0.730076	2.69717	0.546876	2.00475	0.730493	2.69711	0.789467	2.92433	0.905629	3.35392			0.699931	2.59162	0.793509	2.92985	0.935782	3.4641		
0.732503	2.69685	0.54889	2.00528	0.73292	2.6968	0.791337	2.92117	0.907482	3.34923			0.701942	2.59013	0.795576	2.92741	0.937267	3.45767		
0.734929	2.69653	0.550903	2.00581	0.735345	2.69648	0.793209	2.91805	0.909337	3.34457			0.703951	2.58865	0.797646	2.925	0.938756	3.4513		
0.737354	2.69621	0.552916	2.00633	0.73777	2.69616	0.795085	2.91496	0.911193	3.33996			0.70596	2.58717	0.799718	2.92261	0.940248	3.44499		
0.739777	2.69589	0.554929	2.00685	0.740193	2.69584	0.796963	2.9119	0.913052	3.33538			0.707968	2.5857	0.801792	2.92025	0.941744	3.43873		
0.7422	2.69557	0.556942	2.00737	0.742615	2.69551	0.798845	2.90887	0.914912	3.33084			0.709974	2.58424	0.803869	2.91791	0.943243	3.43253		
0.744621	2.69524	0.558954	2.00788	0.745036	2.69518	0.800729	2.90587	0.916774	3.32633			0.71198	2.58278	0.805948	2.91559	0.944746	3.42638		
0.747041	2.69491	0.560967	2.00839	0.747456	2.69485	0.802617	2.90291	0.918637	3.32186			0.713984	2.58132	0.808029	2.9133	0.946253	3.42029		
0.749459	2.69458	0.562979	2.00889	0.749874	2.69452	0.804507	2.89997	0.920503	3.31743			0.715988	2.57988	0.810112	2.91104	0.947763	3.41425		
0.751876	2.69424	0.56499	2.00939	0.752291	2.69419	0.806401	2.89707	0.92237	3.31304			0.71799	2.57844	0.812197	2.90879	0.949276	3.40826		
0.754292	2.69391	0.567002	2.00988	0.754707	2.69385	0.808298	2.8942	0.924238	3.30868			0.719992	2.577	0.814285	2.90657	0.950793	3.40233		
0.756707	2.69357	0.569013	2.01037	0.757121	2.69351	0.810198	2.89136	0.926109	3.30435			0.721992	2.57557	0.816375	2.90437	0.952314	3.39644		
0.759119	2.69322	0.571024	2.01086	0.759533	2.69316	0.812102	2.88854	0.927981	3.30006			0.723992	2.57415	0.818467	2.90219	0.953838	3.39061		
0.761531	2.69288	0.573035	2.01134	0.761944	2.69282	0.814008	2.88576	0.929854	3.2958			0.72599	2.57273	0.82056	2.90004	0.955365	3.38483		
0.76394	2.69253	0.575045	2.01181	0.764354	2.69247	0.815918	2.88301	0.93173	3.29158			0.727988	2.57132	0.822656	2.8979	0.956896	3.3791		
0.766348	2.69217	0.577055	2.01229	0.766762	2.69211	0.817831	2.88029	0.933607	3.28739			0.729984	2.56992	0.824754	2.89579	0.95843	3.37342		
0.768755	2.69182	0.579065	2.01276	0.769168	2.69176	0.819747	2.87759	0.935485	3.28323			0.73198	2.56852	0.826854	2.89369	0.959968	3.36779		
0.771159	2.69146	0.581075	2.01322	0.771572	2.69139	0.821667	2.87493	0.937365	3.27911			0.733975	2.56713	0.828956	2.89162	0.96151	3.36221		
0.773562	2.69109	0.583085	2.01369	0.773975	2.69103	0.823589	2.87229	0.939247	3.27502			0.735969	2.56574	0.831059	2.88957	0.963054	3.35667		
0.775963	2.69072	0.585094	2.01414	0.776375	2.69066	0.825516	2.86969	0.94113	3.27096			0.737962	2.56436	0.833165	2.88753	0.964603	3.35119		
0.778363	2.69035	0.587103	2.0146	0.778774	2.69029	0.827446	2.86711	0.943014	3.26693			0.739954	2.56298	0.835272	2.88552	0.966154	3.34575		
0.78076	2.68997	0.589112	2.01505	0.781171	2.68991	0.829379	2.86456	0.944901	3.26293			0.741945	2.56161	0.837381	2.88353	0.967709	3.34036		
0.783155	2.68959	0.591121	2.0155	0.783566	2.68953	0.831315	2.86204	0.946788	3.25896			0.743935	2.56025	0.839492	2.88155	0.969268	3.33501		
0.785548	2.68921	0.593129	2.01594	0.785959	2.68914	0.833256	2.85955	0.948678	3.25503			0.745925	2.55889	0.841605	2.87959	0.97083	3.32971		
0.787939	2.68882	0.595137	2.01638	0.78835	2.68875	0.835199	2.85708	0.950568	3.25112			0.747913	2.55754	0.843719	2.87765	0.972395	3.32446		
0.790328	2.68842	0.597145	2.01682	0.790738	2.68835	0.837147	2.85465	0.95246	3.24725			0.749901	2.55619	0.845835	2.87573	0.973964	3.31925		
0.792715	2.68802	0.599153	2.01725	0.793124	2.68795	0.839098	2.85224	0.954354	3.2434			0.751888	2.55485	0.847953	2.87383	0.975536	3.31408		
0.795099	2.68762	0.60116	2.01768	0.795508	2.68755	0.841053	2.84986	0.956249	3.23958			0.753874	2.55352	0.850072	2.87194	0.977112	3.30896		
0.797481	2.6872	0.603167	2.01811	0.79789	2.68713	0.843011	2.8475	0.958145	3.23579			0.75586	2.55219	0.852193	2.87007	0.978691	3.30388		
0.799861	2.68679	0.605174	2.01853	0.800269	2.68672	0.844973	2.84518	0.960043	3.23203			0.757844	2.55086	0.854316	2.86822	0.980273	3.29885		
0.802238	2.68637	0.607181	2.01895	0.802646	2.68629	0.846939	2.84288	0.961942	3.2283			0.759828	2.54954	0.85644	2.86639	0.981859	3.29386		
0.804613	2.68594	0.609187	2.01936	0.80502	2.68586	0.848909	2.84061	0.963843	3.2246			0.761811	2.54823	0.858565	2.86457	0.983448	3.28891		
0.806985	2.6855	0.611193	2.01978	0.807392	2.68543	0.850883	2.83836	0.965745	3.22092			0.763793	2.54692	0.860692	2.86277	0.985041	3.284		
0.809354	2.68506	0.613199	2.02019	0.809761	2.68499	0.852861	2.83615	0.967648	3.21727			0.765775	2.54562	0.86282	2.86098	0.986636	3.27914		
0.811721	2.68462	0.615205	2.02059	0.812127	2.68454	0.854843	2.83396	0.969552	3.21365			0.767756	2.54433	0.86495	2.85921	0.988236	3.27431		
0.814085	2.68416	0.617211	2.02099	0.814491	2.68409	0.856829	2.83179	0.971458	3.21005			0.769736	2.54304	0.867081	2.85745	0.989838	3.26953		
0.816446	2.6837	0.619216	2.02139	0.816851	2.68363	0.858819	2.82966	0.973366	3.20648			0.771715	2.54175	0.869214	2.85571	0.991444	3.26479		
0.818804	2.68324	0.621221	2.02179	0.819209	2.68316	0.860813	2.82755	0.975274	3.20294			0.773693	2.54047	0.871348	2.85399	0.993054	3.26009		
0.821159	2.68277	0.623226	2.02218	0.821563	2.68268	0.862812	2.82547	0.977184	3.19942			0.775671	2.5392	0.873483	2.85228	0.994666	3.25542		
0.823511	2.68229	0.62523	2.02257	0.823915	2.6822	0.864815	2.82341	0.979095	3.19593			0.777649	2.53793	0.875619	2.85058	0.996282	3.2508		
0.82586	2.6818	0.627235	2.02296	0.826263	2.68171	0.866822	2.82138	0.981007	3.19246			0.779625	2.53667	0.877757	2.8489	0.997902	3.24622		
0.828206	2.6813	0.629239	2.02334	0.828608	2.68122	0.868833	2.81938	0.982921	3.18902			0.781601	2.53541	0.879896	2.84723	0.999525	3.24167		
0.830548	2.6808	0.631243	2.02372	0.83095	2.68071	0.870849	2.8174	0.984836	3.1856			0.783576	2.53416	0.882036	2.84558	1.00115	3.23716		
0.832888	2.68029	0.633247	2.0241	0.833289	2.6802	0.87287	2.81545	0.986752	3.18221			0.785551	2.53291	0.884177	2.84393				
0.835223	2.67977	0.63525	2.02448	0.835624	2.67968	0.874895	2.81353	0.988669	3.17884			0.787525	2.53167	0.886319	2.84231				
0.837555	2.67925	0.637253	2.02485	0.837955	2.67915	0.876925	2.81163	0.990587	3.1755			0.789498	2.53044	0.888463	2.84069				
0.839884	2.67871	0.639256	2.02522	0.840284	2.67862	0.878959	2.80976	0.992507	3.17218			0.791471	2.52921	0.890607	2.83909				
0.842209	2.67817	0.641259	2.02558	0.842608	2.67807	0.880998	2.80792	0.994428	3.16888			0.793443	2.52798	0.892753	2.8375				
0.844531	2.67762	0.643261	2.02595	0.844929	2.67752	0.883042	2.8061	0.99635	3.16561			0.795414	2.52676	0.894899	2.83593				
0.846848	2.67706	0.645264	2.02631	0.847246	2.67696	0.885091	2.80431	0.998273	3.16235			0.797385	2.52555	0.897047	2.83437				
0.849162	2.67649	0.647266	2.02666	0.849559	2.67639	0.887144	2.80254	1.0002	3.15913			0.799355	2.52434	0.899195	2.83281				
0.851472	2.67591	0.649267	2.02702	0.851868	2.67581	0.889203	2.8008					0.801325	2.52314	0.901344	2.83128				
0.853778	2.67533	0.651269	2.02737	0.854174	2.67522	0.891266	2.79908					0.803294	2.52194	0.903495	2.82975				
0.85608	2.67473	0.65327	2.02772	0.856475	2.67463	0.893335	2.7974					0.805263	2.52075	0.905646	2.82823				
0.858378	2.67413	0.655271	2.02806	0.858772	2.67402	0.895408	2.79573					0.807231	2.51956	0.907797	2.82673				
0.860672	2.67351	0.657272	2.02841	0.861065	2.67341	0.897487	2.7941					0.809199	2.51838	0.90995	2.82523				
0.862962	2.67289	0.659273	2.02875	0.863354	2.67278	0.899571	2.79248					0.811166	2.5172	0.912104	2.82375				
0.865247	2.67226	0.661273	2.02909	0.865639	2.67215	0.90166	2.7909					0.813132	2.51603	0.914258	2.82228				
0.867528	2.67161	0.663274	2.02942	0.867919	2.6715	0.903755	2.78934					0.815098	2.51486	0.916413	2.82082				
0.869805	2.67096	0.665274	2.02976	0.870195	2.67085	0.905855	2.7878					0.817064	2.5137	0.918569	2.81937				
0.872077	2.6703	0.667273	2.03009	0.872467	2.67018	0.90796	2.78629					0.819029	2.51254	0.920725	2.81793				
0.874345	2.66963	0.669273	2.03041	0.874734	2.66951	0.91007	2.7848					0.820993	2.51139	0.922882	2.8165				
0.876609	2.66895	0.671272	2.03074	0.876997	2.66883	0.912186	2.78334					0.822958	2.51025	0.92504	2.81508				
0.878868	2.66826	0.673271	2.03106	0.879255	2.66814	0.914308	2.78191					0.824921	2.50911	0.927198	2.81367				
0.881123	2.66756	0.67527	2.03138	0.881509	2.66743	0.916435	2.7805					0.826885	2.50797	0.929357	2.81227				
0.883372	2.66684	0.677269	2.0317	0.883758	2.66672	0.918567	2.77911					0.828847	2.50684	0.931516	2.81088				
0.885618	2.66612	0.679267	2.03202	0.886003	2.666	0.920705	2.77775					0.83081	2.50571	0.933676	2.8095				
0.887859	2.66539	0.681265	2.03233	0.888243	2.66527	0.922848	2.77641					0.832772	2.50459	0.935836	2.80813				
0.890095	2.66465	0.683263	2.03264	0.890478	2.66453	0.924997	2.7751					0.834733	2.50348	0.937997	2.80676				
0.892326	2.6639	0.685261	2.03295	0.892709	2.66377	0.927152	2.77381					0.836694	2.50237	0.940158	2.80541				
0.894553	2.66314	0.687258	2.03325	0.894935	2.66301	0.929312	2.77254					0.838655	2.50126	0.94232	2.80406				
0.896775	2.66237	0.689256	2.03356	0.897156	2.66224	0.931477	2.7713					0.840615	2.50016	0.944482	2.80273				
0.898992	2.6616	0.691253	2.03386	0.899373	2.66146	0.933649	2.77008					0.842575	2.49906	0.946644	2.8014				
0.901205	2.66081	0.69325	2.03416	0.901585	2.66067	0.935825	2.76889					0.844535	2.49797	0.948807	2.80008				
0.903413	2.66001	0.695246	2.03446	0.903792	2.65987	0.938007	2.76771					0.846494	2.49689	0.95097	2.79877				
0.905617	2.6592	0.697243	2.03475	0.905994	2.65906	0.940195	2.76656					0.848453	2.49581	0.953133	2.79746				
0.907815	2.65839	0.699239	2.03504	0.908192	2.65824	0.942388	2.76543					0.850411	2.49473	0.955296	2.79617				
0.910009	2.65756	0.701235	2.03533	0.910386	2.65742	0.944587	2.76433					0.85237	2.49366	0.95746	2.79488				
0.912199	2.65673	0.70323	2.03562	0.912574	2.65658	0.946791	2.76324					0.854327	2.49259	0.959624	2.7936				
0.914384	2.65588	0.705226	2.03591	0.914759	2.65574	0.949	2.76218					0.856285	2.49153	0.961788	2.79232				
0.916564	2.65503	0.707221	2.03619	0.916938	2.65488	0.951215	2.76114					0.858242	2.49047	0.963952	2.79106				
0.91874	2.65417	0.709216	2.03647	0.919113	2.65402	0.953436	2.76012					0.860199	2.48942	0.966117	2.7898				
0.920912	2.6533	0.711211	2.03675	0.921284	2.65315	0.955661	2.75912					0.862156	2.48838	0.968281	2.78855				
0.923078	2.65242	0.713206	2.03703	0.92345	2.65227	0.957892	2.75814					0.864112	2.48733	0.970446	2.7873				
0.925241	2.65154	0.7152	2.0373	0.925612	2.65139	0.960128	2.75718					0.866068	2.4863	0.97261	2.78606				
0.927399	2.65065	0.717194	2.03757	0.927769	2.65049	0.962369	2.75624					0.868023	2.48526	0.974775	2.78483				
0.929553	2.64975	0.719188	2.03784	0.929922	2.64959	0.964615	2.75532					0.869979	2.48423	0.97694	2.78361				
0.931703	2.64884	0.721182	2.03811	0.932071	2.64868	0.966866	2.75442					0.871934	2.48321	0.979104	2.78239				
0.933848	2.64792	0.723176	2.03838	0.934216	2.64777	0.969122	2.75354					0.873889	2.48219	0.981269	2.78117				
0.935989	2.647	0.725169	2.03865	0.936356	2.64684	0.971383	2.75268					0.875844	2.48118	0.983434	2.77997				
0.938126	2.64608	0.727162	2.03891	0.938493	2.64592	0.973649	2.75184					0.877798	2.48017	0.985598	2.77877				
0.940259	2.64514	0.729155	2.03917	0.940625	2.64498	0.975919	2.75101					0.879752	2.47916	0.987762	2.77757				
0.942389	2.6442	0.731147	2.03943	0.942754	2.64404	0.978194	2.7502					0.881706	2.47816	0.989927	2.77639				
0.944514	2.64325	0.73314	2.03968	0.944878	2.64309	0.980474	2.74941					0.88366	2.47717	0.992091	2.7752				
0.946635	2.6423	0.735132	2.03994	0.946999	2.64214	0.982759	2.74863					0.885613	2.47618	0.994254	2.77403				
0.948753	2.64134	0.737124	2.04019	0.949116	2.64118	0.985047	2.74787					0.887566	2.47519	0.996418	2.77285				
0.950867	2.64038	0.739116	2.04044	0.951229	2.64021	0.98734	2.74713					0.889519	2.47421	0.998582	2.77169				
0.952977	2.63941	0.741108	2.04069	0.953339	2.63924	0.989638	2.7464					0.891472	2.47323	1.00074	2.77053				
0.955084	2.63844	0.743099	2.04094	0.955445	2.63827	0.99194	2.74569					0.893425	2.47226						
0.957187	2.63746	0.74509	2.04119	0.957548	2.63729	0.994245	2.74499					0.895377	2.47129						
0.959287	2.63648	0.747081	2.04143	0.959648	2.63631	0.996555	2.74431					0.89733	2.47032						
0.961384	2.63549	0.749072	2.04167	0.961744	2.63532	0.998869	2.74364					0.899282	2.46936						
0.963477	2.6345	0.751062	2.04191	0.963836	2.63433	1.00119	2.74299					0.901233	2.46841						
0.965567	2.63351	0.753053	2.04215	0.965926	2.63334							0.903185	2.46746						
0.967654	2.63251	0.755043	2.04239	0.968012	2.63234							0.905137	2.46651						
0.969738	2.63151	0.757033	2.04262	0.970096	2.63134							0.907088	2.46557						
0.97182	2.63051	0.759022	2.04285	0.972177	2.63033							0.909039	2.46463						
0.973898	2.6295	0.761012	2.04309	0.974254	2.62933							0.91099	2.4637						
0.975973	2.62849	0.763001	2.04331	0.976329	2.62832							0.912941	2.46277						
0.978046	2.62748	0.76499	2.04354	0.978401	2.62731							0.914892	2.46184						
0.980115	2.62647	0.766979	2.04377	0.980471	2.62629							0.916843	2.46092						
0.982183	2.62545	0.768968	2.04399	0.982537	2.62528							0.918794	2.46001						
0.984247	2.62443	0.770956	2.04422	0.984602	2.62426							0.920744	2.45909						
0.98631	2.62342	0.772944	2.04444	0.986664	2.62324							0.922694	2.45819						
0.98837	2.6224	0.774932	2.04466	0.988723	2.62222							0.924644	2.45728						
0.990427	2.62137	0.77692	2.04488	0.99078	2.6212							0.926595	2.45638						
0.992482	2.62035	0.778908	2.04509	0.992835	2.62018							0.928545	2.45549						
0.994535	2.61933	0.780895	2.04531	0.994887	2.61915							0.930495	2.4546						
0.996586	2.61831	0.782882	2.04552	0.996938	2.61813							0.932444	2.45371						
0.998635	2.61728	0.784869	2.04573	0.998986	2.61711							0.934394	2.45283						
1.00068	2.61626	0.786856	2.04594	1.00103	2.61608							0.936344	2.45195						
		0.788843	2.04615									0.938293	2.45107						
		0.790829	2.04636									0.940243	2.4502						
		0.792815	2.04656									0.942192	2.44933						
		0.794801	2.04677									0.944142	2.44847						
		0.796787	2.04697									0.946091	2.44761						
		0.798773	2.04717									0.94804	2.44676						
		0.800758	2.04737									0.949989	2.44591						
		0.802743	2.04757									0.951938	2.44506						
		0.804728	2.04776									0.953888	2.44422						
		0.806713	2.04796									0.955837	2.44338						
		0.808698	2.04815									0.957786	2.44254						
		0.810682	2.04835									0.959735	2.44171						
		0.812666	2.04854									0.961683	2.44089						
		0.81465	2.04873									0.963632	2.44006						
		0.816634	2.04891									0.965581	2.43924						
		0.818617	2.0491									0.96753	2.43843						
		0.820601	2.04929									0.969479	2.43761						
		0.822584	2.04947									0.971428	2.43681						
		0.824567	2.04965									0.973377	2.436						
		0.82655	2.04983									0.975326	2.4352						
		0.828532	2.05001									0.977275	2.4344						
		0.830515	2.05019									0.979223	2.43361						
		0.832497	2.05037									0.981172	2.43282						
		0.834479	2.05055									0.983121	2.43203						
		0.836461	2.05072									0.98507	2.43125						
		0.838442	2.05089									0.987019	2.43047						
		0.840424	2.05107									0.988968	2.4297						
		0.842405	2.05124									0.990917	2.42893						
		0.844386	2.05141									0.992866	2.42816						
		0.846367	2.05158									0.994815	2.42739						
		0.848348	2.05174									0.996764	2.42663						
		0.850328	2.05191									0.998713	2.42588						
		0.852308	2.05208									1.00066	2.42512						
		0.854289	2.05224																
		0.856268	2.0524																
		0.858248	2.05256																
		0.860228	2.05272																
		0.862207	2.05288																
		0.864186	2.05304																
		0.866165	2.0532																
		0.868144	2.05335																
		0.870123	2.05351																
		0.872101	2.05366																
		0.874079	2.05381																
		0.876057	2.05397																
		0.878035	2.05412																
		0.880013	2.05426																
		0.88199	2.05441																
		0.883968	2.05456																
		0.885945	2.05471																
		0.887922	2.05485																
		0.889898	2.05499																
		0.891875	2.05514																
		0.893851	2.05528																
		0.895827	2.05542																
		0.897804	2.05556																
		0.899779	2.0557																
		0.901755	2.05583																
		0.903731	2.05597																
		0.905706	2.05611																
		0.907681	2.05624																
		0.909656	2.05638																
		0.911631	2.05651																
		0.913605	2.05664																
		0.91558	2.05677																
		0.917554	2.0569																
		0.919528	2.05703																
		0.921502	2.05716																
		0.923476	2.05729																
		0.925449	2.05741																
		0.927423	2.05754																
		0.929396	2.05766																
		0.931369	2.05779																
		0.933342	2.05791																
		0.935315	2.05803																
		0.937287	2.05815																
		0.93926	2.05827																
		0.941232	2.05839																
		0.943204	2.05851																
		0.945176	2.05863																
		0.947147	2.05874																
		0.949119	2.05886																
		0.95109	2.05897																
		0.953061	2.05909																
		0.955032	2.0592																
		0.957003	2.05931																
		0.958974	2.05943																
		0.960945	2.05954																
		0.962915	2.05965																
		0.964885	2.05976																
		0.966855	2.05986																
		0.968825	2.05997																
		0.970795	2.06008																
		0.972764	2.06019																
		0.974734	2.06029																
		0.976703	2.0604																
		0.978672	2.0605																
		0.980641	2.0606																
		0.98261	2.06071																
		0.984578	2.06081																
		0.986547	2.06091																
		0.988515	2.06101																
		0.990483	2.06111																
		0.992451	2.06121																
		0.994419	2.06131																
		0.996386	2.0614																
		0.998354	2.0615																
		1.00032	2.0616																
