Sym0		Asym0		Sym1		Sym2		Sym3		Sym4		Asym1		Asym2		Asym3		Asym4	
424  Points		527  Points		424  Points		406  Points		352  Points		252  Points		455  Points		400  Points		344  Points		207  Points	
Freq (MHz)	Vph (m/ms)	Freq (MHz)	Vph (m/ms)	Freq (MHz)	Vph (m/ms)	Freq (MHz)	Vph (m/ms)	Freq (MHz)	Vph (m/ms)	Freq (MHz)	Vph (m/ms)	Freq (MHz)	Vph (m/ms)	Freq (MHz)	Vph (m/ms)	Freq (MHz)	Vph (m/ms)	Freq (MHz)	Vph (m/ms)
0.27951	673.469	0.000208645	0.0889421	0.279514	307.044	0.449916	11575.9	0.559017	7421.93	0.838526	2156.04	0.139755	956.007	0.419268	467.913	0.698771	3624.39	0.899833	2231.42
0.27952	207.555	0.000406766	0.124107	0.27953	151.751	0.449922	463.569	0.559024	555.13	0.838531	634.955	0.139799	129.698	0.419285	229.402	0.698776	621.414	0.899838	674.061
0.279541	122.691	0.000669558	0.159069	0.279556	100.787	0.449939	236.529	0.559041	288.357	0.838543	372.303	0.139909	69.6213	0.419314	151.957	0.698786	339.846	0.899848	396.995
0.279573	87.0912	0.000996456	0.193828	0.279594	75.4553	0.449966	158.777	0.55907	194.771	0.838559	263.366	0.140086	47.6277	0.419354	113.612	0.698802	233.879	0.899864	281.353
0.279615	67.5104	0.00138646	0.228313	0.279642	60.3052	0.450004	119.503	0.559111	147.053	0.838582	203.752	0.140328	36.2328	0.419406	90.7252	0.698825	178.291	0.899884	217.888
0.279669	55.1233	0.00183854	0.262487	0.279701	50.2264	0.450053	95.8102	0.559162	118.121	0.838611	166.147	0.140636	29.2707	0.41947	75.5187	0.698853	144.056	0.89991	177.787
0.279733	46.5818	0.00235159	0.296318	0.279771	43.0384	0.450113	79.9627	0.559225	98.7073	0.838645	140.263	0.141008	24.5814	0.419545	64.6826	0.698888	120.853	0.899941	150.155
0.279808	40.3362	0.00292417	0.329755	0.279852	37.654	0.450183	68.6179	0.559299	84.7785	0.838686	121.359	0.141443	21.212	0.419631	56.5701	0.698928	104.09	0.899978	129.958
0.279893	35.571	0.00355499	0.362776	0.279943	33.4704	0.450264	60.0959	0.559384	74.2985	0.838732	106.947	0.14194	18.6769	0.41973	50.2695	0.698975	91.4128	0.900019	114.553
0.27999	31.816	0.00424248	0.395344	0.280046	30.1267	0.450356	53.4603	0.559481	66.128	0.838784	95.5969	0.142498	16.7027	0.41984	45.2351	0.699027	81.4902	0.900066	102.414
0.280097	28.7811	0.00498505	0.427431	0.280159	27.3932	0.450459	48.1475	0.559589	59.5797	0.838841	86.4262	0.143115	15.1235	0.419961	41.1203	0.699086	73.5126	0.900118	92.6028
0.280215	26.2775	0.00578112	0.45902	0.280282	25.1172	0.450572	43.798	0.559708	54.2144	0.838905	78.8625	0.143791	13.8329	0.420095	37.6946	0.699151	66.9592	0.900175	84.5084
0.280344	24.1772	0.00662894	0.490082	0.280417	23.1928	0.450696	40.1719	0.559838	49.7383	0.838974	72.5175	0.144523	12.7597	0.420239	34.7985	0.699222	61.4801	0.900238	77.7166
0.280483	22.3902	0.00752676	0.520599	0.280562	21.5446	0.450831	37.1027	0.559979	45.9476	0.839049	67.1188	0.14531	11.8541	0.420396	32.3181	0.699298	56.8312	0.900306	71.9365
0.280634	20.8514	0.00847283	0.550556	0.280718	20.1173	0.450977	34.4715	0.560132	42.6961	0.83913	62.4695	0.14615	11.0804	0.420564	30.1701	0.699381	52.8372	0.900379	66.9577
0.280795	19.5126	0.00946548	0.579947	0.280885	18.8694	0.451133	32.1909	0.560296	39.8766	0.839217	58.4236	0.146924	10.4932	0.420743	28.292	0.69947	49.3689	0.900457	62.6244
0.280966	18.3373	0.0105029	0.608761	0.281062	17.7691	0.4513	30.1954	0.56047	37.4085	0.83931	54.871	0.147614	10.0459	0.420934	26.6361	0.699565	46.3291	0.90054	58.819
0.281149	17.2974	0.0115834	0.636986	0.28125	16.7919	0.451477	28.4347	0.560656	35.2301	0.839408	51.7268	0.148204	9.70795	0.421136	25.1652	0.699666	43.6429	0.900629	55.4504
0.281342	16.3709	0.0127051	0.664621	0.281449	15.9183	0.451665	26.8699	0.560854	33.2933	0.839512	48.9242	0.148684	9.45899	0.42135	23.8502	0.699773	41.2522	0.900723	52.4476
0.281546	15.5402	0.0138665	0.691665	0.281659	15.1327	0.451864	25.47	0.561062	31.5602	0.839622	46.4107	0.149044	9.28532	0.421576	22.6675	0.699886	39.1107	0.900822	49.7542
0.28176	14.7914	0.0150659	0.718114	0.281879	14.4226	0.452074	24.2103	0.561281	30.0002	0.839738	44.1437	0.149277	9.17809	0.421813	21.5983	0.700005	37.1815	0.900927	47.3246
0.281986	14.1129	0.0163016	0.743976	0.28211	13.7776	0.452294	23.071	0.561512	28.5889	0.83986	42.0887	0.149617	9.02903	0.422061	20.6269	0.70013	35.4346	0.901036	45.1221
0.282221	13.4955	0.0175721	0.769249	0.282351	13.1893	0.452524	22.0355	0.561753	27.3059	0.839987	40.2173	0.149991	8.87345	0.422321	19.7408	0.700261	33.8452	0.901151	43.1161
0.282468	12.9311	0.0188759	0.793943	0.282603	12.6505	0.452766	21.0904	0.562006	26.1346	0.84012	38.506	0.15051	8.67197	0.422592	18.9291	0.700398	32.3932	0.901271	41.2817
0.282725	12.4134	0.0202114	0.818058	0.282866	12.1553	0.453018	20.2244	0.562269	25.061	0.840259	36.9351	0.151181	8.43254	0.422875	18.1829	0.700541	31.0613	0.901396	39.5976
0.282993	11.9369	0.0215773	0.841606	0.283139	11.6987	0.45328	19.428	0.562544	24.0736	0.840404	35.4881	0.152013	8.16381	0.423169	17.4947	0.70069	29.8354	0.901527	38.0461
0.283271	11.4968	0.0229722	0.864593	0.283423	11.2763	0.453553	18.6932	0.56283	23.1623	0.840554	34.1508	0.153019	7.87446	0.423474	16.858	0.700845	28.7033	0.901663	36.6123
0.28356	11.0892	0.0243947	0.887028	0.283718	10.8845	0.453836	18.0132	0.563126	22.3187	0.840711	32.9114	0.15421	7.57268	0.42379	16.2672	0.701007	27.6547	0.901804	35.2832
0.283859	10.7107	0.0258437	0.908922	0.284023	10.5202	0.45413	17.3821	0.563434	21.5357	0.840873	31.7594	0.155439	7.29909	0.424118	15.7177	0.701174	26.6806	0.90195	34.0478
0.284169	10.3582	0.0273178	0.930286	0.284297	10.2229	0.454434	16.7948	0.563752	20.8069	0.841041	30.6859	0.156705	7.05009	0.424458	15.2053	0.701347	25.7735	0.902101	32.8965
0.284489	10.0293	0.028816	0.951127	0.284537	9.98312	0.454749	16.247	0.564082	20.127	0.841214	29.6832	0.158006	6.82263	0.424808	14.7263	0.701526	24.9266	0.902258	31.8211
0.284821	9.72164	0.0303372	0.971461	0.28474	9.79359	0.455074	15.7349	0.564422	19.4911	0.841394	28.7445	0.15934	6.61416	0.42517	14.2777	0.701711	24.1342	0.902419	30.8142
0.285162	9.43331	0.0318802	0.991296	0.284904	9.64902	0.45541	15.255	0.564773	18.8953	0.841579	27.8639	0.160706	6.42249	0.425543	13.8567	0.701902	23.3913	0.902587	29.8697
0.285514	9.16255	0.033444	1.01064	0.285025	9.54557	0.455756	14.8046	0.565135	18.3359	0.84177	27.0363	0.162103	6.24576	0.425927	13.4608	0.702099	22.6932	0.902759	28.9818
0.285876	8.90785	0.0350278	1.02952	0.285104	9.48058	0.456112	14.3809	0.565507	17.8096	0.841967	26.2569	0.16353	6.08238	0.426322	13.0879	0.702303	22.0362	0.902936	28.1456
0.286249	8.66782	0.0366305	1.04793	0.285218	9.3888	0.456479	13.9817	0.565891	17.3137	0.842169	25.5216	0.164984	5.93094	0.426728	12.7361	0.702512	21.4167	0.903119	27.3568
0.286633	8.44128	0.0382514	1.06589	0.285343	9.29114	0.456856	13.605	0.566285	16.8455	0.842377	24.827	0.166465	5.79025	0.427145	12.4037	0.702727	20.8315	0.903306	26.6114
0.287026	8.22714	0.0398895	1.08341	0.285515	9.16175	0.457243	13.249	0.56669	16.403	0.842591	24.1696	0.167972	5.65925	0.427574	12.089	0.702948	20.278	0.903499	25.9061
0.28743	8.02442	0.0415441	1.1005	0.285736	9.00351	0.45764	12.9119	0.567105	15.9839	0.842811	23.5466	0.169503	5.53702	0.428013	11.7909	0.703175	19.7537	0.903697	25.2375
0.287845	7.83227	0.0432145	1.11717	0.28601	8.81976	0.458048	12.5924	0.567531	15.5866	0.843036	22.9554	0.171057	5.42275	0.428464	11.5079	0.703408	19.2562	0.903901	24.6031
0.28827	7.64989	0.0448999	1.13344	0.286337	8.61419	0.458466	12.2891	0.567968	15.2094	0.843268	22.3935	0.172633	5.31572	0.428925	11.2391	0.703647	18.7836	0.904109	24.0001
0.288705	7.47658	0.0465997	1.14932	0.286723	8.39062	0.458894	12.0009	0.568416	14.8509	0.843504	21.859	0.174231	5.2153	0.429398	10.9833	0.703892	18.3342	0.904323	23.4264
0.28915	7.3117	0.0483131	1.16481	0.287119	8.1792	0.459332	11.7266	0.568874	14.5097	0.843747	21.3498	0.175849	5.12092	0.429881	10.7397	0.704142	17.9062	0.904542	22.8798
0.289606	7.15466	0.0500396	1.17994	0.287525	7.97901	0.45978	11.4653	0.569342	14.1845	0.843996	20.8642	0.177487	5.03208	0.430375	10.5075	0.704399	17.4981	0.904766	22.3586
0.290072	7.00493	0.0517786	1.1947	0.287942	7.78918	0.460238	11.2162	0.569821	13.8744	0.84425	20.4006	0.179143	4.94832	0.430815	10.3138	0.704662	17.1087	0.904995	21.8609
0.290548	6.86204	0.0535296	1.2091	0.288369	7.60897	0.460707	10.9783	0.57031	13.5783	0.844509	19.9576	0.180817	4.86924	0.431196	10.1546	0.704931	16.7366	0.90523	21.3853
0.291034	6.72553	0.055292	1.22317	0.288807	7.43766	0.461185	10.751	0.57081	13.2953	0.844775	19.5338	0.182508	4.79448	0.431515	10.027	0.705205	16.3808	0.905469	20.9303
0.291531	6.59501	0.0570653	1.23691	0.289255	7.27465	0.461673	10.5336	0.57132	13.0245	0.845046	19.128	0.184215	4.72371	0.431771	9.92855	0.705486	16.0402	0.905714	20.4945
0.292037	6.47011	0.0588491	1.25032	0.289713	7.11935	0.462107	10.3518	0.571841	12.7653	0.845323	18.739	0.185937	4.65662	0.431961	9.85749	0.705772	15.7138	0.905964	20.0769
0.292554	6.35047	0.0606428	1.26342	0.290181	6.97124	0.462483	10.202	0.572372	12.5168	0.845606	18.366	0.187674	4.59296	0.432083	9.81259	0.706065	15.4008	0.906219	19.6763
0.293081	6.23579	0.0624462	1.27622	0.290659	6.82987	0.462797	10.0817	0.572913	12.2784	0.845894	18.0078	0.189426	4.53248	0.432259	9.74882	0.706363	15.1005	0.906479	19.2917
0.293618	6.12579	0.0642587	1.28872	0.291148	6.69478	0.463049	9.98867	0.573464	12.0497	0.846188	17.6637	0.191191	4.47495	0.432452	9.68052	0.706667	14.812	0.906744	18.9222
0.294165	6.02018	0.0660799	1.30094	0.291647	6.5656	0.463235	9.92148	0.574026	11.8299	0.846488	17.3329	0.192969	4.42018	0.432717	9.58931	0.706977	14.5346	0.907015	18.5668
0.294722	5.91873	0.0679095	1.31288	0.292156	6.44194	0.463355	9.87899	0.574597	11.6186	0.846793	17.0145	0.194759	4.36797	0.433055	9.47662	0.707293	14.2678	0.90729	18.2249
0.295289	5.8212	0.0697472	1.32455	0.292675	6.32348	0.463529	9.8186	0.575179	11.4153	0.847104	16.708	0.196562	4.31816	0.43347	9.34417	0.707615	14.011	0.907571	17.8956
0.295867	5.72738	0.0715926	1.33595	0.293204	6.20991	0.463718	9.75387	0.575771	11.2196	0.84742	16.4127	0.198376	4.2706	0.433964	9.1939	0.707943	13.7636	0.907857	17.5783
0.296454	5.63708	0.0734453	1.34711	0.293744	6.10094	0.463978	9.66731	0.576373	11.031	0.847743	16.1279	0.2002	4.22514	0.434541	9.02792	0.708277	13.5251	0.908148	17.2723
0.297051	5.55011	0.0753052	1.35801	0.294293	5.99632	0.46431	9.56023	0.576985	10.8493	0.848071	15.8531	0.202036	4.18165	0.435128	8.86846	0.708616	13.295	0.908444	16.9771
0.297658	5.46629	0.0771717	1.36868	0.294853	5.8958	0.464717	9.43415	0.577607	10.674	0.848404	15.5879	0.203881	4.14001	0.435726	8.71515	0.708962	13.073	0.908745	16.6921
0.298275	5.38547	0.0790449	1.37911	0.295422	5.79915	0.4652	9.29083	0.578157	10.5262	0.848744	15.3316	0.205736	4.10011	0.436334	8.56765	0.709313	12.8585	0.909051	16.4168
0.298902	5.30751	0.0809243	1.38932	0.296002	5.70616	0.465764	9.13217	0.578632	10.4037	0.849088	15.084	0.207601	4.06185	0.436953	8.42566	0.70967	12.6513	0.909363	16.1507
0.299538	5.23225	0.0828096	1.3993	0.296591	5.61664	0.466338	8.97939	0.579028	10.3048	0.849439	14.8445	0.209474	4.02513	0.437582	8.28888	0.710033	12.451	0.909679	15.8933
0.300185	5.15958	0.0847008	1.40907	0.297191	5.53042	0.466921	8.83217	0.579345	10.2281	0.849795	14.6128	0.211356	3.98986	0.438221	8.15703	0.710402	12.2572	0.910001	15.6443
0.300841	5.08936	0.0865974	1.41864	0.2978	5.44731	0.467514	8.69024	0.579579	10.1725	0.850157	14.3885	0.213246	3.95597	0.438871	8.02987	0.710777	12.0697	0.910327	15.4032
0.301507	5.02148	0.0884994	1.428	0.298419	5.36717	0.468117	8.55331	0.579729	10.1372	0.850524	14.1713	0.215144	3.92337	0.439531	7.90715	0.711157	11.888	0.910659	15.1696
0.302183	4.95584	0.0904065	1.43717	0.299048	5.28984	0.468729	8.42113	0.579946	10.087	0.850897	13.9608	0.21705	3.89199	0.440201	7.78866	0.711544	11.7121	0.910996	14.9433
0.302869	4.89233	0.0923184	1.44614	0.299687	5.21519	0.469351	8.29348	0.580184	10.0331	0.851276	13.7567	0.218963	3.86178	0.440882	7.6742	0.711936	11.5415	0.911338	14.7239
0.303564	4.83085	0.094235	1.45493	0.300336	5.1431	0.469982	8.17012	0.580508	9.96074	0.85166	13.5588	0.220883	3.83266	0.441573	7.56356	0.712334	11.3762	0.911685	14.5111
0.304178	4.77888	0.0961562	1.46354	0.300994	5.07343	0.470622	8.05086	0.580922	9.87091	0.852049	13.3667	0.22281	3.80459	0.442273	7.45656	0.712738	11.2157	0.912037	14.3046
0.304707	4.7357	0.0980817	1.47197	0.301663	5.00608	0.471272	7.93549	0.581428	9.76466	0.852445	13.1803	0.224743	3.77751	0.442984	7.35304	0.713147	11.06	0.912394	14.1041
0.305149	4.70075	0.100011	1.48024	0.302341	4.94094	0.471931	7.82385	0.582027	9.64324	0.852845	12.9992	0.226683	3.75136	0.443705	7.25285	0.713563	10.9088	0.912756	13.9093
0.3055	4.67358	0.101945	1.48833	0.303029	4.87791	0.472599	7.71575	0.582724	9.50802	0.853252	12.8233	0.228629	3.72611	0.444436	7.15581	0.713929	10.7806	0.913124	13.7201
0.305761	4.65387	0.103883	1.49627	0.303727	4.8169	0.473277	7.61105	0.583431	9.377	0.853664	12.6523	0.23058	3.70171	0.445177	7.0618	0.714245	10.6738	0.913496	13.5362
0.305928	4.64137	0.105824	1.50405	0.304434	4.75781	0.473964	7.50958	0.584147	9.25	0.854081	12.4861	0.232537	3.67811	0.445928	6.97069	0.714509	10.5872	0.913873	13.3574
0.306169	4.62356	0.107769	1.51167	0.305151	4.70057	0.47466	7.4112	0.584873	9.12684	0.854504	12.3244	0.2345	3.65529	0.446688	6.88234	0.714719	10.5198	0.914256	13.1835
0.306432	4.60439	0.109717	1.51915	0.305878	4.6451	0.475365	7.31579	0.585608	9.00736	0.854933	12.1671	0.236468	3.63319	0.447459	6.79665	0.714874	10.4708	0.914643	13.0142
0.306792	4.57867	0.111669	1.52648	0.306614	4.59132	0.47608	7.22321	0.586353	8.89139	0.855367	12.014	0.23844	3.6118	0.448239	6.71349	0.714974	10.4397	0.915035	12.8494
0.30725	4.54668	0.113624	1.53367	0.30736	4.53917	0.476803	7.13335	0.587107	8.7788	0.855806	11.8649	0.240418	3.59108	0.449029	6.63276	0.715118	10.3953	0.915433	12.689
0.30781	4.50878	0.115582	1.54072	0.308116	4.48856	0.477535	7.04609	0.58787	8.66943	0.856251	11.7197	0.242401	3.57099	0.449828	6.55437	0.715276	10.3476	0.915835	12.5327
0.308473	4.46538	0.117291	1.54676	0.308881	4.43946	0.478277	6.96133	0.588643	8.56317	0.856702	11.5782	0.244387	3.55152	0.450637	6.47821	0.71549	10.2834	0.916243	12.3805
0.309242	4.41695	0.118749	1.55182	0.309656	4.39178	0.479027	6.87896	0.589425	8.45988	0.857158	11.4403	0.246379	3.53262	0.451456	6.40421	0.715764	10.2034	0.916655	12.232
0.310022	4.36993	0.119956	1.55596	0.31044	4.34549	0.479786	6.7989	0.590216	8.35945	0.85762	11.3059	0.248374	3.51429	0.452284	6.33227	0.716098	10.1084	0.917073	12.0873
0.310811	4.32426	0.120911	1.5592	0.311234	4.30051	0.480554	6.72105	0.591016	8.26176	0.858087	11.1748	0.250374	3.49649	0.453122	6.26231	0.716494	9.99939	0.917495	11.9462
0.311609	4.27989	0.121614	1.56156	0.312037	4.25681	0.481331	6.64532	0.591825	8.1667	0.858498	11.0631	0.252377	3.4792	0.453969	6.19426	0.716954	9.87737	0.917922	11.8085
0.312417	4.23677	0.122064	1.56306	0.31285	4.21434	0.482116	6.57163	0.592643	8.07419	0.858852	10.9699	0.254384	3.4624	0.454826	6.12804	0.717419	9.75853	0.918355	11.6742
0.313234	4.19485	0.122711	1.56521	0.313673	4.17304	0.48291	6.49991	0.59347	7.98411	0.859147	10.894	0.256395	3.44607	0.455692	6.0636	0.717891	9.64273	0.918792	11.543
0.314061	4.1541	0.123414	1.56753	0.314505	4.13289	0.483713	6.43008	0.594306	7.89638	0.859382	10.8348	0.25841	3.43019	0.456567	6.00085	0.718368	9.52987	0.919234	11.4149
0.314898	4.11446	0.124372	1.57066	0.315346	4.09382	0.484525	6.36207	0.595151	7.81092	0.859555	10.7917	0.260428	3.41474	0.457452	5.93974	0.71885	9.41985	0.919682	11.2899
0.315744	4.07589	0.125583	1.57458	0.316198	4.05582	0.485345	6.29581	0.596005	7.72763	0.859667	10.7643	0.262449	3.39972	0.458346	5.88021	0.719338	9.31255	0.920076	11.1833
0.316599	4.03837	0.12705	1.57927	0.317058	4.01883	0.486173	6.23125	0.596868	7.64644	0.859827	10.7252	0.264473	3.38508	0.459249	5.8222	0.719832	9.20788	0.920414	11.094
0.317464	4.00184	0.128772	1.58468	0.317928	3.98282	0.48701	6.16832	0.597739	7.56728	0.860002	10.6831	0.266501	3.37084	0.460161	5.76566	0.720332	9.10575	0.920696	11.0214
0.318339	3.96628	0.13075	1.59078	0.318808	3.94776	0.487856	6.10696	0.598619	7.49008	0.860242	10.6263	0.268532	3.35696	0.461082	5.71054	0.720837	9.00607	0.920921	10.9647
0.319223	3.93166	0.13273	1.59678	0.319697	3.91362	0.488709	6.04713	0.599508	7.41476	0.860546	10.5555	0.270565	3.34344	0.462012	5.65679	0.721348	8.90875	0.921086	10.9234
0.320117	3.89793	0.134713	1.60266	0.320595	3.88036	0.489572	5.98875	0.600405	7.34126	0.860917	10.4711	0.272601	3.33026	0.462952	5.60436	0.721865	8.81371	0.921193	10.8971
0.32102	3.86508	0.136697	1.60845	0.321503	3.84796	0.490442	5.9318	0.601311	7.26952	0.861356	10.374	0.27464	3.31741	0.4639	5.5532	0.722387	8.72088	0.921346	10.8596
0.321932	3.83307	0.138684	1.61413	0.322421	3.81638	0.491321	5.87621	0.602225	7.19948	0.861865	10.265	0.276682	3.30488	0.464857	5.50328	0.722915	8.63019	0.921514	10.8192
0.322854	3.80187	0.140672	1.61971	0.323348	3.78561	0.492208	5.82194	0.603148	7.13109	0.86238	10.1584	0.278726	3.29265	0.465823	5.45455	0.723448	8.54155	0.921742	10.7647
0.323786	3.77146	0.142663	1.62519	0.324285	3.75561	0.493103	5.76895	0.604079	7.06428	0.862899	10.0541	0.280772	3.28072	0.466798	5.40698	0.723988	8.45491	0.922033	10.6966
0.324727	3.74182	0.144655	1.63058	0.325231	3.72636	0.494006	5.7172	0.605019	6.99901	0.863424	9.95221	0.282821	3.26907	0.467781	5.36052	0.724532	8.3702	0.922387	10.6154
0.325677	3.71291	0.146649	1.63587	0.326187	3.69784	0.494918	5.66665	0.605966	6.93523	0.863955	9.85252	0.284872	3.25769	0.468773	5.31514	0.725083	8.28736	0.922806	10.5219
0.326638	3.68472	0.148644	1.64108	0.327152	3.67002	0.495837	5.61725	0.606922	6.87288	0.864491	9.75498	0.286926	3.24658	0.469774	5.27081	0.725639	8.20632	0.923291	10.4168
0.327608	3.65722	0.150642	1.64619	0.328127	3.64288	0.496764	5.56898	0.607887	6.81193	0.865032	9.65954	0.288981	3.23573	0.470784	5.22749	0.7262	8.12704	0.923781	10.3139
0.328587	3.6304	0.15264	1.65122	0.329112	3.6164	0.497699	5.52179	0.608859	6.75233	0.865578	9.56611	0.291039	3.22512	0.471802	5.18515	0.726767	8.04946	0.924276	10.2132
0.329576	3.60422	0.154641	1.65617	0.330106	3.59057	0.498643	5.47565	0.609839	6.69404	0.86613	9.47465	0.293098	3.21476	0.472828	5.14376	0.72734	7.97352	0.924776	10.1146
0.330575	3.57868	0.156642	1.66103	0.33111	3.56536	0.499594	5.43053	0.610828	6.63701	0.866688	9.3851	0.29516	3.20462	0.473863	5.1033	0.727918	7.89918	0.925281	10.018
0.331583	3.55376	0.158645	1.66581	0.332123	3.54075	0.500552	5.38641	0.611825	6.58121	0.86725	9.29739	0.297223	3.19471	0.474907	5.06372	0.728502	7.82639	0.92579	9.92345
0.332602	3.52943	0.16065	1.67052	0.333147	3.51673	0.501519	5.34324	0.612829	6.52661	0.867818	9.21147	0.299289	3.18501	0.475959	5.02502	0.729091	7.75509	0.926305	9.83078
0.33363	3.50568	0.162655	1.67514	0.33418	3.49328	0.502493	5.301	0.613841	6.47316	0.868391	9.12729	0.301356	3.17552	0.477019	4.98716	0.729686	7.68526	0.926824	9.73999
0.334668	3.48249	0.164662	1.67969	0.335223	3.47039	0.503475	5.25966	0.614862	6.42084	0.868969	9.04479	0.303424	3.16623	0.478087	4.95011	0.730286	7.61684	0.927349	9.651
0.335715	3.45985	0.16667	1.68417	0.336276	3.44803	0.504465	5.2192	0.61589	6.3696	0.869553	8.96394	0.305495	3.15714	0.479164	4.91386	0.730892	7.54979	0.927878	9.56377
0.336773	3.43774	0.168679	1.68858	0.337339	3.4262	0.505462	5.17958	0.616926	6.31942	0.870142	8.88468	0.307566	3.14824	0.480249	4.87837	0.731503	7.48408	0.928411	9.47825
0.337841	3.41615	0.17069	1.69291	0.338412	3.40488	0.506466	5.1408	0.617969	6.27027	0.870737	8.80696	0.30964	3.13952	0.481342	4.84363	0.73212	7.41966	0.92895	9.3944
0.338919	3.39506	0.172701	1.69718	0.339496	3.38405	0.507479	5.10281	0.61902	6.22211	0.871336	8.73075	0.311715	3.13098	0.482443	4.80962	0.732743	7.35651	0.929494	9.31215
0.340006	3.37447	0.174714	1.70138	0.340589	3.36371	0.508498	5.06561	0.620079	6.17493	0.871941	8.65601	0.313791	3.12262	0.483553	4.77632	0.73337	7.29458	0.930042	9.23148
0.341105	3.35435	0.176727	1.70551	0.341693	3.34384	0.509525	5.02916	0.621145	6.12868	0.872551	8.58268	0.315869	3.11442	0.48467	4.7437	0.734004	7.23384	0.930595	9.15233
0.342213	3.3347	0.178741	1.70958	0.342807	3.32443	0.510559	4.99345	0.622219	6.08335	0.873166	8.51073	0.317948	3.10638	0.485795	4.71175	0.734642	7.17426	0.931153	9.07466
0.343332	3.3155	0.180757	1.71359	0.343931	3.30547	0.511601	4.95845	0.6233	6.03892	0.873786	8.44013	0.320028	3.0985	0.486928	4.68044	0.735286	7.1158	0.931716	8.99844
0.344461	3.29674	0.182773	1.71753	0.345066	3.28695	0.512649	4.92415	0.624389	5.99535	0.874412	8.37084	0.322109	3.09077	0.48807	4.64977	0.735936	7.05845	0.932283	8.92363
0.345601	3.27842	0.18479	1.72141	0.346211	3.26885	0.513705	4.89053	0.625485	5.95262	0.875043	8.30283	0.324192	3.08319	0.489219	4.61971	0.736591	7.00216	0.932855	8.85018
0.346752	3.26052	0.186808	1.72524	0.347368	3.25117	0.514769	4.85756	0.626589	5.91071	0.875679	8.23605	0.326276	3.07575	0.490375	4.59025	0.737251	6.94691	0.933432	8.77806
0.347913	3.24302	0.188827	1.729	0.348535	3.23389	0.515839	4.82524	0.627699	5.8696	0.87632	8.17049	0.328361	3.06846	0.49154	4.56137	0.737917	6.89267	0.934014	8.70724
0.349085	3.22594	0.190846	1.73271	0.349713	3.21701	0.516916	4.79354	0.628817	5.82927	0.876967	8.1061	0.330447	3.0613	0.492712	4.53306	0.738588	6.83942	0.934601	8.63768
0.350269	3.20924	0.192866	1.73637	0.350902	3.20052	0.518001	4.76245	0.629942	5.78969	0.877618	8.04286	0.332533	3.05427	0.493892	4.50529	0.739265	6.78713	0.935192	8.56936
0.351463	3.19293	0.194887	1.73996	0.352103	3.18441	0.519092	4.73195	0.631074	5.75085	0.878275	7.98073	0.334621	3.04737	0.495079	4.47807	0.739947	6.73577	0.935788	8.50223
0.352669	3.177	0.196909	1.74351	0.353315	3.16867	0.52019	4.70203	0.632213	5.71273	0.878937	7.9197	0.33671	3.04059	0.496275	4.45136	0.740634	6.68533	0.936389	8.43628
0.353887	3.16143	0.198931	1.747	0.354539	3.1533	0.521295	4.67266	0.63336	5.67531	0.879604	7.85972	0.3388	3.03394	0.497477	4.42517	0.741326	6.63577	0.936994	8.37146
0.355116	3.14622	0.200954	1.75045	0.355774	3.13828	0.522407	4.64385	0.634513	5.63857	0.880276	7.80078	0.340891	3.0274	0.498687	4.39947	0.742024	6.58708	0.937604	8.30776
0.356357	3.13137	0.202977	1.75384	0.357022	3.12361	0.523526	4.61557	0.635673	5.60249	0.880953	7.74286	0.342982	3.02098	0.499905	4.37426	0.742728	6.53924	0.938219	8.24514
0.35761	3.11686	0.205001	1.75718	0.358281	3.10929	0.524651	4.58781	0.63684	5.56706	0.881635	7.68591	0.345074	3.01467	0.50113	4.34952	0.743436	6.49223	0.938838	8.18358
0.358875	3.10269	0.207026	1.76048	0.359553	3.0953	0.525784	4.56055	0.638014	5.53226	0.882322	7.62993	0.347167	3.00846	0.502363	4.32524	0.74415	6.44601	0.939463	8.12305
0.360153	3.08886	0.209051	1.76372	0.360838	3.08164	0.526923	4.53379	0.639194	5.49808	0.883015	7.57489	0.349261	3.00236	0.503602	4.30141	0.744869	6.40059	0.940091	8.06353
0.361444	3.07535	0.211076	1.76692	0.362135	3.0683	0.528068	4.50751	0.640382	5.4645	0.883712	7.52077	0.351355	2.99637	0.504849	4.27802	0.745594	6.35593	0.940725	8.00499
0.362747	3.06217	0.213102	1.77008	0.363445	3.05529	0.52922	4.4817	0.641576	5.43151	0.884415	7.46753	0.35345	2.99047	0.506104	4.25505	0.746324	6.31202	0.941363	7.94741
0.364063	3.0493	0.215129	1.77319	0.364769	3.04258	0.530379	4.45635	0.642776	5.39909	0.885122	7.41517	0.355546	2.98468	0.507365	4.2325	0.747059	6.26883	0.942006	7.89077
0.365393	3.03674	0.217156	1.77626	0.366106	3.03019	0.531544	4.43145	0.643984	5.36723	0.885835	7.36367	0.357642	2.97897	0.508634	4.21036	0.747799	6.22637	0.942653	7.83505
0.366737	3.02448	0.219183	1.77928	0.367456	3.01809	0.532715	4.40699	0.645197	5.33591	0.886553	7.313	0.359738	2.97336	0.509909	4.18862	0.748544	6.1846	0.943305	7.78022
0.368094	3.01253	0.221211	1.78226	0.368821	3.0063	0.533893	4.38295	0.646418	5.30512	0.887275	7.26314	0.361836	2.96784	0.511192	4.16726	0.749295	6.14351	0.943962	7.72626
0.369465	3.00087	0.22324	1.7852	0.3702	2.9948	0.535078	4.35933	0.647645	5.27486	0.888003	7.21407	0.363933	2.96241	0.512482	4.14629	0.750051	6.10308	0.944623	7.67316
0.370851	2.98951	0.225268	1.7881	0.371594	2.98358	0.536268	4.33612	0.648878	5.2451	0.888736	7.16579	0.366032	2.95706	0.513779	4.12568	0.750812	6.06331	0.945289	7.62089
0.372252	2.97843	0.227297	1.79096	0.373003	2.97266	0.537465	4.3133	0.650117	5.21584	0.889473	7.11826	0.36813	2.9518	0.515083	4.10543	0.751579	6.02417	0.94596	7.56944
0.373668	2.96764	0.229326	1.79378	0.374427	2.96201	0.538668	4.29087	0.651363	5.18706	0.890216	7.07148	0.370229	2.94662	0.516394	4.08554	0.75235	5.98566	0.946635	7.51879
0.375099	2.95712	0.231356	1.79656	0.375866	2.95164	0.539878	4.26882	0.652615	5.15876	0.890963	7.02542	0.372328	2.94151	0.517711	4.066	0.753127	5.94775	0.947314	7.46891
0.376546	2.94688	0.233386	1.79931	0.377322	2.94155	0.541093	4.24715	0.653874	5.13091	0.891716	6.98007	0.374428	2.93649	0.519036	4.04679	0.753909	5.91044	0.947998	7.4198
0.378009	2.93692	0.235416	1.80202	0.378793	2.93173	0.542314	4.22583	0.655138	5.10352	0.892473	6.93542	0.376528	2.93154	0.520367	4.02791	0.754696	5.8737	0.948687	7.37144
0.379488	2.92722	0.237447	1.80469	0.380281	2.92217	0.543542	4.20487	0.656409	5.07658	0.893236	6.89145	0.378628	2.92666	0.521705	4.00935	0.755488	5.83754	0.94938	7.32381
0.380984	2.91779	0.239477	1.80733	0.381786	2.91288	0.544776	4.18425	0.657685	5.05006	0.894003	6.84815	0.380729	2.92185	0.52305	3.99111	0.756285	5.80193	0.950078	7.27689
0.382497	2.90862	0.241508	1.80993	0.383308	2.90385	0.546015	4.16398	0.658968	5.02397	0.894775	6.80549	0.38283	2.91712	0.524402	3.97317	0.757088	5.76687	0.950781	7.23067
0.384027	2.89971	0.243539	1.81249	0.384847	2.89508	0.547261	4.14403	0.660257	4.99829	0.895552	6.76347	0.384931	2.91245	0.52576	3.95554	0.757895	5.73234	0.951487	7.18514
0.385574	2.89106	0.245571	1.81503	0.386404	2.88656	0.548512	4.12441	0.661552	4.97302	0.896334	6.72208	0.387032	2.90785	0.527124	3.93821	0.758708	5.69833	0.952199	7.14027
0.38714	2.88266	0.247603	1.81753	0.38798	2.8783	0.54977	4.1051	0.662853	4.94814	0.897121	6.6813	0.389133	2.90331	0.528496	3.92116	0.759525	5.66483	0.952915	7.09606
0.388724	2.87451	0.249634	1.82	0.389573	2.87028	0.551033	4.08611	0.664159	4.92365	0.897913	6.64111	0.391235	2.89884	0.529874	3.90439	0.760348	5.63183	0.953635	7.0525
0.390326	2.86661	0.251666	1.82243	0.391185	2.86251	0.552301	4.06742	0.665471	4.89954	0.898709	6.60151	0.393336	2.89443	0.531258	3.8879	0.761176	5.59932	0.95436	7.00956
0.391947	2.85895	0.253699	1.82483	0.392816	2.85498	0.553576	4.04902	0.66679	4.8758	0.89951	6.56248	0.395438	2.89008	0.532649	3.87168	0.762009	5.56729	0.955089	6.96724
0.393586	2.85153	0.255731	1.82721	0.394466	2.84768	0.554856	4.03091	0.668113	4.85242	0.900317	6.52402	0.39754	2.88579	0.534046	3.85573	0.762847	5.53573	0.955823	6.92552
0.395245	2.84435	0.257763	1.82955	0.396135	2.84063	0.556142	4.01309	0.669443	4.8294	0.901128	6.48611	0.399642	2.88156	0.53545	3.84003	0.76369	5.50463	0.956561	6.88439
0.396924	2.8374	0.259796	1.83186	0.397824	2.8338	0.557434	3.99555	0.670778	4.80672	0.901943	6.44873	0.401743	2.87739	0.53686	3.82459	0.764538	5.47398	0.957304	6.84385
0.398621	2.83069	0.261829	1.83415	0.399532	2.82721	0.558731	3.97828	0.672119	4.78439	0.902764	6.41189	0.403845	2.87327	0.538277	3.80939	0.765391	5.44378	0.958051	6.80387
0.400339	2.8242	0.263862	1.8364	0.40126	2.82084	0.560033	3.96128	0.673466	4.76239	0.903589	6.37556	0.405947	2.8692	0.539699	3.79444	0.766249	5.414	0.958802	6.76445
0.402076	2.81793	0.265894	1.83863	0.403007	2.81469	0.561341	3.94453	0.674817	4.74071	0.904419	6.33974	0.408049	2.86519	0.541128	3.77973	0.767112	5.38465	0.959558	6.72557
0.403833	2.81188	0.267928	1.84083	0.404775	2.80875	0.562655	3.92805	0.676175	4.71936	0.905254	6.30442	0.41015	2.86123	0.542564	3.76525	0.76798	5.35572	0.960318	6.68723
0.405609	2.80605	0.269961	1.843	0.406562	2.80303	0.563974	3.91181	0.677538	4.69832	0.906094	6.26959	0.412252	2.85732	0.544005	3.751	0.768852	5.32719	0.961083	6.64942
0.407406	2.80043	0.271994	1.84514	0.408369	2.79752	0.565298	3.89582	0.678906	4.67759	0.906938	6.23523	0.414353	2.85345	0.545453	3.73698	0.76973	5.29907	0.961852	6.61211
0.409222	2.79501	0.274027	1.84726	0.410195	2.79221	0.566628	3.88007	0.68028	4.65716	0.907787	6.20135	0.416455	2.84964	0.546906	3.72317	0.770613	5.27133	0.962626	6.57532
0.411057	2.78979	0.27606	1.84935	0.412041	2.7871	0.567963	3.86456	0.681659	4.63702	0.908641	6.16792	0.418556	2.84588	0.548366	3.70958	0.771501	5.24398	0.963403	6.53902
0.412912	2.78477	0.278094	1.85142	0.413906	2.78218	0.569303	3.84927	0.683043	4.61717	0.9095	6.13495	0.420657	2.84216	0.549832	3.6962	0.772393	5.21701	0.964186	6.5032
0.414786	2.77994	0.280127	1.85346	0.415791	2.77745	0.570649	3.83422	0.684433	4.59761	0.910363	6.10242	0.422757	2.83848	0.551304	3.68303	0.773291	5.19041	0.964972	6.46786
0.41668	2.7753	0.282161	1.85547	0.417694	2.77291	0.571999	3.81938	0.685827	4.57833	0.911231	6.07033	0.424858	2.83485	0.552782	3.67006	0.774193	5.16417	0.965763	6.43299
0.418591	2.77084	0.284194	1.85747	0.419615	2.76854	0.573355	3.80477	0.687227	4.55931	0.912103	6.03866	0.426958	2.83126	0.554266	3.65728	0.775101	5.13829	0.966558	6.39857
0.420522	2.76656	0.286228	1.85943	0.421555	2.76435	0.574716	3.79036	0.688632	4.54057	0.91298	6.00741	0.429058	2.82772	0.555755	3.64471	0.776013	5.11276	0.967357	6.36461
0.42247	2.76244	0.288261	1.86138	0.423513	2.76032	0.576082	3.77617	0.690042	4.52209	0.913862	5.97657	0.431158	2.82422	0.557251	3.63232	0.77693	5.08757	0.968161	6.33109
0.424436	2.75849	0.290295	1.8633	0.425488	2.75646	0.577453	3.76218	0.691457	4.50386	0.914749	5.94614	0.433257	2.82075	0.558752	3.62012	0.777851	5.06272	0.968969	6.298
0.426419	2.7547	0.292328	1.8652	0.427481	2.75275	0.578829	3.74839	0.692877	4.48589	0.91564	5.9161	0.435356	2.81733	0.56026	3.60811	0.778778	5.0382	0.969782	6.26534
0.42842	2.75107	0.294361	1.86707	0.42949	2.74919	0.58021	3.7348	0.694302	4.46816	0.916535	5.88645	0.437455	2.81395	0.561773	3.59628	0.77971	5.01401	0.970598	6.2331
0.430436	2.74758	0.296395	1.86893	0.431515	2.74578	0.581596	3.7214	0.695732	4.45068	0.917436	5.85719	0.439554	2.8106	0.563292	3.58462	0.780646	4.99013	0.971419	6.20127
0.432469	2.74423	0.298428	1.87076	0.433556	2.74251	0.582987	3.7082	0.697167	4.43343	0.91834	5.8283	0.441652	2.80729	0.564816	3.57314	0.781587	4.96656	0.972244	6.16984
0.434517	2.74102	0.300462	1.87257	0.435612	2.73937	0.584383	3.69517	0.698607	4.41642	0.91925	5.79977	0.443749	2.80402	0.566347	3.56182	0.782533	4.94331	0.973073	6.1388
0.436581	2.73795	0.302495	1.87436	0.437683	2.73636	0.585783	3.68234	0.700052	4.39964	0.920164	5.77161	0.445847	2.80078	0.567883	3.55068	0.783483	4.92035	0.973907	6.10816
0.438658	2.735	0.304528	1.87612	0.439769	2.73348	0.587189	3.66968	0.701501	4.38308	0.921082	5.74381	0.447943	2.79758	0.569425	3.5397	0.784439	4.8977	0.974745	6.0779
0.44075	2.73217	0.306561	1.87787	0.441868	2.73071	0.588599	3.6572	0.702955	4.36675	0.922005	5.71635	0.45004	2.79441	0.570972	3.52888	0.785399	4.87533	0.975587	6.04801
0.442856	2.72946	0.308595	1.8796	0.44398	2.72806	0.590013	3.64489	0.704414	4.35063	0.922933	5.68924	0.452136	2.79128	0.572525	3.51822	0.786364	4.85325	0.976433	6.0185
0.444974	2.72686	0.310628	1.8813	0.446106	2.72552	0.591433	3.63275	0.705877	4.33473	0.923865	5.66246	0.454231	2.78818	0.574083	3.50771	0.787334	4.83146	0.977283	5.98934
0.447106	2.72436	0.312661	1.88299	0.448243	2.72308	0.592857	3.62077	0.707345	4.31903	0.924802	5.63602	0.456326	2.78511	0.575647	3.49736	0.788308	4.80993	0.978138	5.96055
0.449249	2.72197	0.314694	1.88466	0.450393	2.72074	0.594286	3.60896	0.708818	4.30354	0.925743	5.6099	0.458421	2.78207	0.577217	3.48716	0.789287	4.78868	0.978997	5.9321
0.451404	2.71967	0.316727	1.88631	0.452554	2.71849	0.595719	3.59732	0.710295	4.28825	0.926689	5.58411	0.460514	2.77907	0.578792	3.4771	0.790271	4.7677	0.979859	5.904
0.45357	2.71747	0.318759	1.88794	0.454726	2.71633	0.597157	3.58582	0.711777	4.27316	0.927639	5.55862	0.462608	2.77609	0.580372	3.46719	0.791259	4.74698	0.980726	5.87623
0.455747	2.71535	0.320792	1.88955	0.456908	2.71426	0.5986	3.57449	0.713263	4.25827	0.928593	5.53345	0.464701	2.77314	0.581958	3.45742	0.792252	4.72652	0.981598	5.8488
0.457934	2.71332	0.322825	1.89115	0.459101	2.71228	0.600047	3.5633	0.714754	4.24356	0.929552	5.50858	0.466793	2.77023	0.583549	3.44779	0.79325	4.70631	0.982473	5.8217
0.460131	2.71137	0.324857	1.89272	0.461303	2.71037	0.601498	3.55227	0.716249	4.22904	0.930516	5.48401	0.468884	2.76734	0.585146	3.43829	0.794252	4.68636	0.983352	5.79492
0.462337	2.7095	0.32689	1.89428	0.463514	2.70853	0.602954	3.54138	0.717749	4.21471	0.931484	5.45974	0.470976	2.76448	0.586748	3.42893	0.795259	4.66664	0.984236	5.76845
0.464553	2.7077	0.328922	1.89582	0.465734	2.70677	0.604414	3.53064	0.719252	4.20056	0.932456	5.43575	0.473066	2.76165	0.588355	3.4197	0.796271	4.64717	0.985123	5.7423
0.466777	2.70597	0.330954	1.89735	0.467963	2.70507	0.605879	3.52003	0.720761	4.18659	0.933432	5.41205	0.475156	2.75884	0.589967	3.41061	0.797287	4.62794	0.986015	5.71645
0.469009	2.7043	0.332986	1.89885	0.470199	2.70344	0.607348	3.50957	0.722273	4.17279	0.934414	5.38863	0.477245	2.75606	0.591585	3.40164	0.798308	4.60894	0.98691	5.6909
0.47125	2.7027	0.335018	1.90034	0.472444	2.70187	0.608821	3.49925	0.72379	4.15917	0.935399	5.36548	0.479333	2.75331	0.593208	3.39279	0.799333	4.59017	0.98781	5.66565
0.473497	2.70116	0.33705	1.90182	0.474695	2.70036	0.610298	3.48905	0.72531	4.14571	0.936389	5.34261	0.481421	2.75058	0.594836	3.38407	0.800363	4.57162	0.988714	5.64069
0.475752	2.69967	0.339081	1.90328	0.476954	2.69891	0.61178	3.47899	0.726835	4.13242	0.937383	5.32	0.483508	2.74788	0.596469	3.37547	0.801397	4.5533	0.989622	5.61602
0.478014	2.69824	0.341113	1.90472	0.47922	2.6975	0.613266	3.46906	0.728365	4.11929	0.938381	5.29766	0.485594	2.7452	0.598108	3.36699	0.802436	4.5352	0.990534	5.59163
0.480283	2.69687	0.343144	1.90614	0.481491	2.69615	0.614756	3.45926	0.729898	4.10633	0.939384	5.27557	0.48768	2.74254	0.599751	3.35863	0.80348	4.51731	0.99145	5.56752
0.482558	2.69554	0.345176	1.90756	0.483769	2.69485	0.61625	3.44959	0.731435	4.09352	0.940391	5.25373	0.489765	2.73991	0.6014	3.35038	0.804528	4.49963	0.99237	5.54368
0.484838	2.69426	0.347207	1.90895	0.486053	2.69359	0.617749	3.44003	0.732977	4.08087	0.941403	5.23215	0.491849	2.7373	0.603053	3.34224	0.805581	4.48216	0.993294	5.52011
0.487125	2.69302	0.349238	1.91033	0.488343	2.69238	0.619252	3.4306	0.734522	4.06837	0.942419	5.21081	0.493932	2.73472	0.604712	3.33422	0.806638	4.4649	0.994221	5.49681
0.489417	2.69182	0.351268	1.9117	0.490637	2.69121	0.620758	3.42129	0.736071	4.05602	0.943439	5.18972	0.496015	2.73215	0.606376	3.32631	0.8077	4.44784	0.995153	5.47376
0.491714	2.69067	0.353299	1.91305	0.492937	2.69007	0.622269	3.41209	0.737625	4.04382	0.944463	5.16886	0.498097	2.72961	0.608044	3.3185	0.808766	4.43097	0.996089	5.45097
0.494016	2.68956	0.35533	1.91439	0.495242	2.68898	0.623783	3.40301	0.739182	4.03176	0.945492	5.14824	0.500178	2.72709	0.609718	3.3108	0.809836	4.41431	0.997029	5.42844
0.496323	2.68848	0.35736	1.91571	0.497551	2.68792	0.625302	3.39405	0.740743	4.01985	0.946524	5.12785	0.502258	2.7246	0.611397	3.3032	0.810911	4.39783	0.997973	5.40615
0.498635	2.68744	0.35939	1.91702	0.499865	2.6869	0.626825	3.38519	0.742308	4.00808	0.947562	5.10769	0.504337	2.72212	0.61308	3.29571	0.811991	4.38155	0.99892	5.38411
0.500951	2.68643	0.36142	1.91831	0.502183	2.68591	0.628351	3.37645	0.743877	3.99644	0.948603	5.08775	0.506416	2.71966	0.614768	3.28831	0.813075	4.36545	0.999872	5.36231
0.503271	2.68545	0.36345	1.91959	0.504505	2.68495	0.629882	3.36781	0.745449	3.98494	0.949648	5.06803	0.508494	2.71722	0.616462	3.28102	0.814163	4.34953	1.00083	5.34075
0.505594	2.68451	0.365479	1.92086	0.506832	2.68402	0.631416	3.35928	0.747026	3.97358	0.950698	5.04853	0.510571	2.7148	0.61816	3.27382	0.815256	4.3338		
0.507922	2.68359	0.367509	1.92211	0.509161	2.68312	0.632954	3.35085	0.748606	3.96235	0.951752	5.02925	0.512647	2.7124	0.619862	3.26672	0.816353	4.31824		
0.510254	2.6827	0.369538	1.92335	0.511494	2.68224	0.634496	3.34253	0.75019	3.95124	0.95281	5.01017	0.514722	2.71003	0.62157	3.25971	0.817454	4.30286		
0.512588	2.68184	0.371567	1.92458	0.513831	2.68139	0.636042	3.33431	0.751777	3.94027	0.953873	4.9913	0.516796	2.70766	0.623282	3.2528	0.81856	4.28766		
0.514927	2.68101	0.373596	1.9258	0.516171	2.68057	0.637591	3.32618	0.753368	3.92942	0.954939	4.97264	0.518869	2.70532	0.624999	3.24598	0.81967	4.27262		
0.517268	2.6802	0.375625	1.927	0.518514	2.67977	0.639145	3.31816	0.754963	3.9187	0.95601	4.95418	0.520942	2.703	0.626721	3.23925	0.820785	4.25775		
0.519612	2.67941	0.377653	1.92819	0.52086	2.679	0.640702	3.31023	0.756561	3.90809	0.957084	4.93592	0.523013	2.70069	0.628447	3.2326	0.821904	4.24305		
0.52196	2.67864	0.379682	1.92937	0.523209	2.67824	0.642263	3.3024	0.758163	3.89761	0.958163	4.91785	0.525084	2.6984	0.630178	3.22604	0.823027	4.22851		
0.52431	2.6779	0.38171	1.93054	0.52556	2.67751	0.643827	3.29466	0.759768	3.88724	0.959246	4.89998	0.527153	2.69612	0.631914	3.21957	0.824155	4.21413		
0.526662	2.67717	0.383738	1.93169	0.527914	2.6768	0.645395	3.28701	0.761377	3.87699	0.960333	4.8823	0.529222	2.69387	0.633654	3.21319	0.825286	4.19991		
0.529017	2.67647	0.385766	1.93283	0.530271	2.6761	0.646967	3.27946	0.762989	3.86686	0.961425	4.8648	0.53129	2.69163	0.635398	3.20688	0.826423	4.18585		
0.531375	2.67579	0.387793	1.93396	0.532629	2.67543	0.648542	3.27199	0.764605	3.85683	0.96252	4.84749	0.533356	2.6894	0.637148	3.20066	0.827563	4.17194		
0.533735	2.67512	0.38982	1.93508	0.53499	2.67477	0.650121	3.26461	0.766224	3.84692	0.963619	4.83036	0.535422	2.6872	0.638901	3.19452	0.828708	4.15818		
0.536097	2.67447	0.391847	1.93619	0.537354	2.67413	0.651703	3.25731	0.767847	3.83712	0.964723	4.81341	0.537487	2.685	0.64066	3.18846	0.829857	4.14456		
0.538461	2.67384	0.393874	1.93729	0.539719	2.6735	0.653289	3.25011	0.769473	3.82742	0.96583	4.79664	0.539551	2.68283	0.642422	3.18247	0.83101	4.1311		
0.540828	2.67322	0.395901	1.93837	0.542086	2.6729	0.654879	3.24298	0.771102	3.81783	0.966942	4.78004	0.541614	2.68067	0.644189	3.17657	0.832167	4.11778		
0.543196	2.67261	0.397928	1.93945	0.544455	2.6723	0.656471	3.23594	0.772734	3.80835	0.968057	4.76362	0.543676	2.67852	0.645961	3.17073	0.833329	4.10461		
0.545566	2.67203	0.399954	1.94051	0.546826	2.67172	0.658068	3.22898	0.77437	3.79897	0.969177	4.74736	0.545736	2.67639	0.647737	3.16498	0.834495	4.09157		
0.547938	2.67145	0.40198	1.94156	0.549199	2.67115	0.659668	3.2221	0.776009	3.78968	0.9703	4.73127	0.547796	2.67427	0.649517	3.15929	0.835665	4.07868		
0.550311	2.67089	0.404006	1.94261	0.551573	2.6706	0.661271	3.2153	0.777651	3.7805	0.971428	4.71535	0.549855	2.67217	0.651302	3.15368	0.836839	4.06592		
0.552686	2.67034	0.406031	1.94364	0.553949	2.67006	0.662878	3.20858	0.779296	3.77142	0.972559	4.69959	0.551913	2.67008	0.653091	3.14814	0.838018	4.0533		
0.555063	2.66981	0.408057	1.94466	0.556327	2.66953	0.664488	3.20193	0.780945	3.76243	0.973695	4.68399	0.55397	2.668	0.654884	3.14267	0.8392	4.04081		
0.557441	2.66929	0.410082	1.94567	0.558706	2.66901	0.666101	3.19536	0.782597	3.75354	0.974834	4.66854	0.556025	2.66594	0.656681	3.13727	0.840387	4.02845		
0.55982	2.66877	0.412107	1.94668	0.561086	2.66851	0.667718	3.18886	0.784251	3.74474	0.975978	4.65326	0.55808	2.66389	0.658483	3.13193	0.841578	4.01622		
0.562201	2.66827	0.414132	1.94767	0.563467	2.66801	0.669338	3.18244	0.785909	3.73604	0.977125	4.63812	0.560134	2.66186	0.660288	3.12667	0.842773	4.00412		
0.564583	2.66778	0.416156	1.94865	0.56585	2.66752	0.670961	3.17609	0.78757	3.72743	0.978277	4.62314	0.562186	2.65983	0.662098	3.12147	0.843973	3.99215		
0.566967	2.6673	0.41818	1.94962	0.568234	2.66705	0.672588	3.16981	0.789234	3.7189	0.979432	4.60831	0.564238	2.65782	0.663913	3.11633	0.845176	3.9803		
0.569351	2.66683	0.420204	1.95059	0.570619	2.66658	0.674218	3.1636	0.790901	3.71047	0.980591	4.59363	0.566288	2.65583	0.665731	3.11126	0.846383	3.96857		
0.571737	2.66637	0.422228	1.95154	0.573006	2.66613	0.675851	3.15746	0.792571	3.70212	0.981754	4.57909	0.568338	2.65384	0.667553	3.10625	0.847595	3.95697		
0.574124	2.66591	0.424252	1.95249	0.575393	2.66568	0.677487	3.15138	0.794244	3.69386	0.982921	4.5647	0.570386	2.65187	0.66938	3.1013	0.84881	3.94548		
0.576511	2.66547	0.426275	1.95342	0.577781	2.66524	0.679127	3.14538	0.79592	3.68568	0.984092	4.55045	0.572433	2.64991	0.67121	3.09642	0.85003	3.93411		
0.5789	2.66503	0.428298	1.95435	0.58017	2.66481	0.680769	3.13944	0.797598	3.67759	0.985266	4.53633	0.574479	2.64796	0.673044	3.09159	0.851254	3.92286		
0.58129	2.66461	0.430321	1.95527	0.58256	2.66438	0.682415	3.13357	0.79928	3.66958	0.986445	4.52236	0.576525	2.64602	0.674883	3.08683	0.852482	3.91172		
0.58368	2.66419	0.432344	1.95618	0.584951	2.66396	0.684064	3.12776	0.800964	3.66165	0.987627	4.50852	0.578569	2.6441	0.676725	3.08212	0.853713	3.9007		
0.586071	2.66377	0.434366	1.95708	0.587343	2.66356	0.685717	3.12201	0.802652	3.6538	0.988813	4.49482	0.580612	2.64219	0.678572	3.07747	0.854949	3.88979		
0.588463	2.66337	0.436388	1.95797	0.589735	2.66315	0.687372	3.11633	0.804342	3.64603	0.990003	4.48125	0.582653	2.64028	0.680422	3.07288	0.856189	3.87899		
0.590856	2.66297	0.43841	1.95885	0.592129	2.66276	0.68903	3.11071	0.806035	3.63834	0.991197	4.46781	0.584694	2.63839	0.682276	3.06834	0.857433	3.86829		
0.59325	2.66257	0.440432	1.95973	0.594522	2.66237	0.690692	3.10515	0.80773	3.63072	0.992395	4.4545	0.586734	2.63651	0.684134	3.06386	0.858681	3.85771		
0.595644	2.66219	0.442453	1.96059	0.596917	2.66198	0.692356	3.09965	0.809429	3.62318	0.993596	4.44132	0.588773	2.63464	0.685995	3.05943	0.859933	3.84723		
0.598039	2.66181	0.444474	1.96145	0.599312	2.66161	0.694024	3.09421	0.81113	3.61572	0.994801	4.42827	0.59081	2.63278	0.687861	3.05506	0.861189	3.83685		
0.600434	2.66143	0.446495	1.9623	0.601708	2.66123	0.695695	3.08882	0.812834	3.60833	0.99601	4.41534	0.592847	2.63094	0.68973	3.05073	0.862448	3.82658		
0.60283	2.66106	0.448516	1.96314	0.604104	2.66087	0.697368	3.0835	0.81454	3.60101	0.997223	4.40253	0.594882	2.6291	0.691603	3.04646	0.863712	3.81641		
0.605226	2.6607	0.450536	1.96398	0.606501	2.66051	0.699045	3.07823	0.816249	3.59376	0.998439	4.38984	0.596917	2.62727	0.69348	3.04225	0.86498	3.80634		
0.607623	2.66034	0.452556	1.9648	0.608898	2.66015	0.700725	3.07302	0.817961	3.58659	0.99966	4.37728	0.59895	2.62545	0.695361	3.03808	0.866251	3.79638		
0.610021	2.65998	0.454576	1.96562	0.611295	2.6598	0.702407	3.06787	0.819675	3.57948	1.00088	4.36483	0.600982	2.62365	0.697245	3.03396	0.867527	3.7865		
0.612418	2.65963	0.456596	1.96643	0.613693	2.65945	0.704093	3.06276	0.821392	3.57244			0.603013	2.62185	0.699133	3.02989	0.868807	3.77673		
0.614817	2.65929	0.458615	1.96724	0.616092	2.65911	0.705781	3.05772	0.823112	3.56547			0.605043	2.62006	0.701024	3.02587	0.87009	3.76705		
0.617215	2.65895	0.460635	1.96803	0.61849	2.65877	0.707473	3.05272	0.824834	3.55857			0.607072	2.61828	0.702919	3.0219	0.871377	3.75747		
0.619614	2.65861	0.462654	1.96882	0.620889	2.65843	0.709167	3.04778	0.826558	3.55173			0.6091	2.61652	0.704817	3.01797	0.872668	3.74798		
0.622013	2.65828	0.464672	1.9696	0.623289	2.6581	0.710865	3.04289	0.828285	3.54496			0.611127	2.61476	0.706719	3.01409	0.873963	3.73858		
0.624413	2.65795	0.466691	1.97038	0.625688	2.65778	0.712565	3.03805	0.830015	3.53826			0.613152	2.61301	0.708625	3.01025	0.875262	3.72927		
0.626812	2.65762	0.468709	1.97114	0.628088	2.65745	0.714268	3.03327	0.831746	3.53161			0.615177	2.61127	0.710534	3.00646	0.876565	3.72006		
0.629212	2.6573	0.470727	1.9719	0.630488	2.65713	0.715974	3.02853	0.833481	3.52503			0.617201	2.60954	0.712446	3.00272	0.877872	3.71093		
0.631612	2.65698	0.472744	1.97266	0.632888	2.65681	0.717683	3.02384	0.835218	3.51851			0.619223	2.60782	0.714362	2.99902	0.879182	3.70189		
0.634012	2.65667	0.474762	1.9734	0.635288	2.6565	0.719395	3.0192	0.836957	3.51205			0.621245	2.6061	0.716281	2.99536	0.880496	3.69294		
0.636412	2.65635	0.476779	1.97414	0.637689	2.65619	0.72111	3.01461	0.838698	3.50566			0.623265	2.6044	0.718204	2.99174	0.881814	3.68407		
0.638813	2.65604	0.478796	1.97487	0.640089	2.65588	0.722827	3.01007	0.840442	3.49932			0.625284	2.60271	0.72013	2.98817	0.883136	3.67528		
0.641213	2.65574	0.480812	1.9756	0.642489	2.65558	0.724547	3.00557	0.842188	3.49304			0.627303	2.60102	0.722059	2.98463	0.884462	3.66658		
0.643614	2.65543	0.482829	1.97632	0.64489	2.65527	0.726271	3.00112	0.843937	3.48682			0.62932	2.59934	0.723991	2.98114	0.885791	3.65797		
0.646014	2.65513	0.484845	1.97703	0.647291	2.65497	0.727997	2.99671	0.845687	3.48065			0.631336	2.59767	0.725927	2.97769	0.887125	3.64943		
0.648415	2.65483	0.486861	1.97774	0.649691	2.65467	0.729725	2.99235	0.84744	3.47454			0.633352	2.59601	0.727866	2.97427	0.888462	3.64098		
0.650815	2.65453	0.488876	1.97844	0.652092	2.65438	0.731457	2.98804	0.849196	3.46849			0.635366	2.59436	0.729808	2.9709	0.889802	3.6326		
0.653216	2.65424	0.490891	1.97913	0.654492	2.65408	0.733191	2.98377	0.850953	3.46249			0.637379	2.59272	0.731753	2.96756	0.891147	3.62431		
0.655616	2.65394	0.492906	1.97982	0.656892	2.65379	0.734928	2.97954	0.852713	3.45655			0.639391	2.59108	0.733701	2.96426	0.892495	3.61609		
0.658016	2.65365	0.494921	1.9805	0.659292	2.6535	0.736668	2.97535	0.854474	3.45066			0.641402	2.58946	0.735653	2.961	0.893847	3.60794		
0.660417	2.65336	0.496936	1.98117	0.661692	2.65321	0.738411	2.97121	0.856238	3.44482			0.643412	2.58784	0.737607	2.95777	0.895203	3.59988		
0.662817	2.65307	0.49895	1.98184	0.664092	2.65292	0.740157	2.96711	0.858005	3.43903			0.645421	2.58623	0.739564	2.95458	0.896562	3.59189		
0.665216	2.65279	0.500964	1.98251	0.666492	2.65263	0.741905	2.96305	0.859773	3.4333			0.64743	2.58463	0.741525	2.95143	0.897925	3.58397		
0.667616	2.6525	0.502978	1.98316	0.668891	2.65235	0.743656	2.95904	0.861543	3.42762			0.649437	2.58303	0.743488	2.94831	0.899292	3.57613		
0.670015	2.65221	0.504991	1.98381	0.671291	2.65206	0.74541	2.95506	0.863316	3.42198			0.651443	2.58144	0.745455	2.94523	0.900663	3.56836		
0.672414	2.65193	0.507004	1.98446	0.67369	2.65178	0.747166	2.95112	0.86509	3.4164			0.653448	2.57987	0.747424	2.94218	0.902037	3.56066		
0.674813	2.65165	0.509017	1.9851	0.676088	2.6515	0.748925	2.94722	0.866867	3.41087			0.655452	2.57829	0.749396	2.93916	0.903415	3.55303		
0.677212	2.65137	0.51103	1.98573	0.678487	2.65122	0.750688	2.94337	0.868645	3.40538			0.657456	2.57673	0.751371	2.93618	0.904796	3.54547		
0.67961	2.65108	0.513042	1.98636	0.680885	2.65094	0.752452	2.93955	0.870426	3.39994			0.659458	2.57517	0.753349	2.93323	0.906182	3.53798		
0.682008	2.6508	0.515054	1.98698	0.683282	2.65065	0.75422	2.93577	0.872209	3.39455			0.661459	2.57363	0.75533	2.93031	0.90757	3.53056		
0.684405	2.65052	0.517066	1.9876	0.68568	2.65038	0.75599	2.93203	0.873993	3.38921			0.66346	2.57209	0.757314	2.92743	0.908963	3.52321		
0.686802	2.65024	0.519078	1.98821	0.688076	2.6501	0.757763	2.92832	0.87578	3.38391			0.665459	2.57055	0.7593	2.92457	0.910359	3.51592		
0.689199	2.64997	0.521089	1.98882	0.690473	2.64982	0.759539	2.92465	0.877568	3.37866			0.667458	2.56903	0.761289	2.92175	0.911759	3.5087		
0.691595	2.64969	0.5231	1.98942	0.692869	2.64954	0.761317	2.92102	0.879359	3.37345			0.669455	2.56751	0.76328	2.91895	0.913162	3.50155		
0.693991	2.64941	0.525111	1.99002	0.695264	2.64926	0.763099	2.91743	0.881151	3.36829			0.671452	2.566	0.765275	2.91619	0.914569	3.49446		
0.696386	2.64913	0.527122	1.99061	0.697659	2.64898	0.764883	2.91387	0.882945	3.36317			0.673448	2.56449	0.767271	2.91345	0.915979	3.48744		
0.698781	2.64885	0.529132	1.99119	0.700053	2.6487	0.76667	2.91035	0.884741	3.35809			0.675443	2.563	0.769271	2.91075	0.917393	3.48047		
0.701175	2.64857	0.531142	1.99177	0.702447	2.64842	0.768459	2.90686	0.886539	3.35306			0.677437	2.56151	0.771273	2.90807	0.918811	3.47357		
0.703568	2.64829	0.533152	1.99235	0.70484	2.64814	0.770252	2.90341	0.888339	3.34807			0.67943	2.56003	0.773277	2.90542	0.920232	3.46674		
0.705961	2.64801	0.535161	1.99292	0.707233	2.64786	0.772047	2.89999	0.89014	3.34312			0.681423	2.55855	0.775285	2.9028	0.921657	3.45996		
0.708353	2.64773	0.53717	1.99349	0.709625	2.64758	0.773845	2.8966	0.891944	3.33821			0.683414	2.55708	0.777294	2.90021	0.923085	3.45324		
0.710745	2.64745	0.539179	1.99405	0.712016	2.6473	0.775645	2.89325	0.893749	3.33334			0.685405	2.55562	0.779306	2.89764	0.924517	3.44659		
0.713136	2.64717	0.541188	1.9946	0.714406	2.64702	0.777449	2.88994	0.895556	3.32851			0.687395	2.55417	0.78132	2.89511	0.925953	3.43999		
0.715526	2.64689	0.543196	1.99515	0.716796	2.64674	0.779255	2.88665	0.897364	3.32373			0.689384	2.55272	0.783337	2.89259	0.927392	3.43345		
0.717915	2.64661	0.545205	1.9957	0.719185	2.64646	0.781064	2.8834	0.899175	3.31898			0.691372	2.55128	0.785356	2.8901	0.928834	3.42697		
0.720304	2.64632	0.547212	1.99624	0.721573	2.64617	0.782876	2.88019	0.900987	3.31427			0.693359	2.54985	0.787378	2.88764	0.93028	3.42055		
0.722691	2.64604	0.54922	1.99678	0.723961	2.64589	0.784691	2.877	0.902801	3.3096			0.695346	2.54842	0.789402	2.88521	0.93173	3.41418		
0.725078	2.64575	0.551227	1.99731	0.726347	2.6456	0.786508	2.87385	0.904616	3.30497			0.697331	2.547	0.791428	2.88279	0.933183	3.40787		
0.727464	2.64546	0.553234	1.99784	0.728733	2.64531	0.788328	2.87073	0.906433	3.30037			0.699316	2.54559	0.793456	2.88041	0.934639	3.40162		
0.72985	2.64518	0.555241	1.99836	0.731117	2.64502	0.790152	2.86764	0.908252	3.29581			0.7013	2.54418	0.795486	2.87804	0.936099	3.39542		
0.732234	2.64489	0.557248	1.99888	0.733501	2.64473	0.791978	2.86458	0.910073	3.29129			0.703284	2.54279	0.797519	2.8757	0.937563	3.38927		
0.734617	2.64459	0.559254	1.9994	0.735884	2.64444	0.793807	2.86155	0.911895	3.28681			0.705266	2.54139	0.799554	2.87339	0.93903	3.38318		
0.736999	2.6443	0.56126	1.99991	0.738265	2.64414	0.795639	2.85855	0.913718	3.28236			0.707248	2.54001	0.801591	2.8711	0.9405	3.37714		
0.73938	2.64401	0.563266	2.00041	0.740646	2.64385	0.797474	2.85559	0.915544	3.27794			0.70923	2.53863	0.80363	2.86883	0.941974	3.37115		
0.74176	2.64371	0.565271	2.00091	0.743025	2.64355	0.799311	2.85265	0.91737	3.27356			0.71121	2.53726	0.805671	2.86658	0.943451	3.36522		
0.744139	2.64341	0.567276	2.00141	0.745403	2.64325	0.801152	2.84974	0.919199	3.26922			0.71319	2.53589	0.807714	2.86435	0.944932	3.35934		
0.746517	2.64311	0.569281	2.0019	0.747781	2.64295	0.802996	2.84687	0.921029	3.26491			0.715169	2.53453	0.809759	2.86215	0.946416	3.35351		
0.748894	2.6428	0.571286	2.00239	0.750157	2.64264	0.804842	2.84402	0.92286	3.26063			0.717147	2.53318	0.811806	2.85996	0.947904	3.34773		
0.751269	2.6425	0.57329	2.00288	0.752531	2.64234	0.806692	2.8412	0.924693	3.25639			0.719125	2.53183	0.813855	2.8578	0.949395	3.342		
0.753643	2.64219	0.575294	2.00336	0.754905	2.64203	0.808545	2.83841	0.926528	3.25218			0.721102	2.53049	0.815906	2.85566	0.950889	3.33631		
0.756016	2.64188	0.577298	2.00383	0.757277	2.64171	0.8104	2.83565	0.928364	3.248			0.723078	2.52916	0.817959	2.85354	0.952387	3.33068		
0.758387	2.64157	0.579302	2.00431	0.759647	2.6414	0.812259	2.83292	0.930201	3.24386			0.725054	2.52783	0.820014	2.85144	0.953888	3.3251		
0.760757	2.64125	0.581305	2.00478	0.762017	2.64108	0.814121	2.83022	0.93204	3.23974			0.727029	2.52651	0.82207	2.84936	0.955393	3.31956		
0.763126	2.64093	0.583308	2.00524	0.764384	2.64076	0.815986	2.82754	0.93388	3.23566			0.729003	2.52519	0.824129	2.8473	0.956901	3.31407		
0.765493	2.64061	0.585311	2.0057	0.766751	2.64044	0.817855	2.8249	0.935722	3.23161			0.730977	2.52388	0.826189	2.84526	0.958413	3.30863		
0.767859	2.64028	0.587313	2.00616	0.769116	2.64011	0.819726	2.82228	0.937565	3.22759			0.73295	2.52258	0.82825	2.84324	0.959928	3.30324		
0.770223	2.63995	0.589315	2.00661	0.771479	2.63978	0.821601	2.81969	0.93941	3.2236			0.734922	2.52128	0.830314	2.84123	0.961446	3.29789		
0.772585	2.63962	0.591317	2.00706	0.77384	2.63944	0.823478	2.81713	0.941256	3.21964			0.736894	2.51999	0.832379	2.83925	0.962967	3.29258		
0.774946	2.63929	0.593319	2.00751	0.7762	2.63911	0.82536	2.81459	0.943103	3.21571			0.738865	2.51871	0.834446	2.83728	0.964492	3.28733		
0.777305	2.63895	0.595321	2.00795	0.778558	2.63876	0.827244	2.81208	0.944952	3.21181			0.740836	2.51743	0.836515	2.83533	0.966021	3.28211		
0.779662	2.6386	0.597322	2.00839	0.780915	2.63842	0.829132	2.8096	0.946802	3.20794			0.742806	2.51616	0.838585	2.8334	0.967552	3.27694		
0.782017	2.63826	0.599323	2.00882	0.783269	2.63807	0.831023	2.80715	0.948653	3.2041			0.744776	2.5149	0.840657	2.83149	0.969087	3.27182		
0.784371	2.6379	0.601323	2.00925	0.785622	2.63772	0.832917	2.80472	0.950506	3.20029			0.746745	2.51364	0.84273	2.82959	0.970626	3.26674		
0.786723	2.63755	0.603324	2.00968	0.787972	2.63736	0.834815	2.80232	0.95236	3.1965			0.748713	2.51238	0.844805	2.82771	0.972168	3.2617		
0.789073	2.63719	0.605324	2.0101	0.790321	2.637	0.836717	2.79994	0.954215	3.19274			0.750681	2.51114	0.846881	2.82585	0.973713	3.2567		
0.79142	2.63683	0.607324	2.01053	0.792668	2.63663	0.838622	2.7976	0.956072	3.18901			0.752649	2.5099	0.848959	2.824	0.975261	3.25175		
0.793766	2.63646	0.609323	2.01094	0.795012	2.63626	0.84053	2.79528	0.957929	3.18531			0.754615	2.50866	0.851038	2.82217	0.976813	3.24683		
0.796109	2.63608	0.611322	2.01136	0.797354	2.63588	0.842443	2.79298	0.959788	3.18164			0.756582	2.50743	0.853118	2.82036	0.978368	3.24196		
0.798451	2.6357	0.613321	2.01177	0.799694	2.6355	0.844358	2.79071	0.961649	3.17799			0.758548	2.50621	0.8552	2.81856	0.979926	3.23713		
0.80079	2.63532	0.61532	2.01217	0.802032	2.63511	0.846278	2.78847	0.96351	3.17437			0.760513	2.50499	0.857283	2.81678	0.981488	3.23234		
0.803127	2.63493	0.617319	2.01258	0.804368	2.63472	0.848201	2.78625	0.965373	3.17077			0.762478	2.50378	0.859368	2.81501	0.983053	3.22759		
0.805461	2.63454	0.619317	2.01298	0.806701	2.63433	0.850128	2.78406	0.967237	3.1672			0.764442	2.50257	0.861454	2.81326	0.984621	3.22288		
0.807793	2.63414	0.621315	2.01337	0.809032	2.63392	0.852059	2.7819	0.969102	3.16366			0.766406	2.50137	0.863541	2.81152	0.986192	3.21821		
0.810123	2.63373	0.623313	2.01377	0.81136	2.63351	0.853993	2.77976	0.970968	3.16014			0.76837	2.50018	0.86563	2.80979	0.987767	3.21358		
0.81245	2.63332	0.62531	2.01416	0.813686	2.6331	0.855932	2.77764	0.972836	3.15664			0.770333	2.49899	0.867719	2.80808	0.989345	3.20899		
0.814774	2.6329	0.627307	2.01455	0.816009	2.63268	0.857875	2.77556	0.974704	3.15317			0.772296	2.49781	0.86981	2.80639	0.990927	3.20443		
0.817096	2.63248	0.629304	2.01493	0.818329	2.63225	0.859821	2.77349	0.976574	3.14973			0.774258	2.49663	0.871902	2.80471	0.992511	3.19992		
0.819415	2.63205	0.631301	2.01531	0.820646	2.63182	0.861772	2.77146	0.978445	3.14631			0.77622	2.49546	0.873995	2.80304	0.994099	3.19544		
0.821731	2.63162	0.633297	2.01569	0.822961	2.63138	0.863727	2.76944	0.980317	3.14291			0.778181	2.49429	0.876089	2.80139	0.99569	3.191		
0.824044	2.63117	0.635294	2.01606	0.825273	2.63094	0.865686	2.76746	0.98219	3.13954			0.780142	2.49313	0.878185	2.79974	0.997285	3.18659		
0.826354	2.63072	0.637289	2.01644	0.827582	2.63048	0.867649	2.7655	0.984064	3.13619			0.782103	2.49198	0.880281	2.79812	0.998882	3.18222		
0.828662	2.63027	0.639285	2.0168	0.829887	2.63002	0.869616	2.76356	0.985939	3.13286			0.784063	2.49083	0.882378	2.7965	1.00048	3.17789		
0.830966	2.62981	0.64128	2.01717	0.83219	2.62956	0.871588	2.76165	0.987815	3.12956			0.786023	2.48969	0.884477	2.7949				
0.833267	2.62934	0.643275	2.01753	0.83449	2.62908	0.873564	2.75976	0.989693	3.12628			0.787983	2.48855	0.886576	2.79331				
0.835565	2.62886	0.64527	2.01789	0.836786	2.6286	0.875545	2.7579	0.991571	3.12302			0.789942	2.48742	0.888676	2.79173				
0.83786	2.62837	0.647265	2.01825	0.839079	2.62811	0.87753	2.75607	0.993451	3.11979			0.791901	2.48629	0.890778	2.79017				
0.840152	2.62788	0.649259	2.0186	0.841368	2.62762	0.879519	2.75426	0.995331	3.11657			0.793859	2.48517	0.89288	2.78861				
0.84244	2.62738	0.651253	2.01896	0.843655	2.62711	0.881513	2.75247	0.997212	3.11338			0.795817	2.48406	0.894983	2.78707				
0.844724	2.62687	0.653247	2.0193	0.845937	2.6266	0.883512	2.75071	0.999095	3.11021			0.797775	2.48295	0.897087	2.78554				
0.847005	2.62636	0.655241	2.01965	0.848217	2.62608	0.885516	2.74898	1.00098	3.10706			0.799733	2.48184	0.899191	2.78402				
0.849283	2.62583	0.657234	2.01999	0.850492	2.62555	0.887524	2.74726					0.80169	2.48075	0.901297	2.78251				
0.851557	2.6253	0.659227	2.02033	0.852764	2.62501	0.889537	2.74558					0.803647	2.47965	0.903403	2.78102				
0.853827	2.62476	0.66122	2.02067	0.855032	2.62447	0.891555	2.74392					0.805603	2.47856	0.90551	2.77953				
0.856093	2.62421	0.663212	2.021	0.857297	2.62392	0.893578	2.74228					0.80756	2.47748	0.907618	2.77806				
0.858356	2.62365	0.665204	2.02134	0.859557	2.62335	0.895606	2.74066					0.809516	2.4764	0.909726	2.77659				
0.860614	2.62309	0.667196	2.02167	0.861814	2.62278	0.897639	2.73908					0.811472	2.47533	0.911835	2.77514				
0.862869	2.62251	0.669188	2.02199	0.864066	2.6222	0.899677	2.73751					0.813427	2.47427	0.913945	2.77369				
0.86512	2.62193	0.671179	2.02232	0.866315	2.62161	0.90172	2.73597					0.815383	2.4732	0.916055	2.77226				
0.867366	2.62134	0.673171	2.02264	0.868559	2.62102	0.903768	2.73446					0.817338	2.47215	0.918166	2.77083				
0.869609	2.62073	0.675162	2.02296	0.870799	2.62041	0.905822	2.73297					0.819292	2.4711	0.920278	2.76942				
0.871847	2.62012	0.677152	2.02327	0.873036	2.61979	0.90788	2.7315					0.821247	2.47005	0.92239	2.76801				
0.874082	2.6195	0.679143	2.02359	0.875268	2.61917	0.909944	2.73006					0.823201	2.46901	0.924503	2.76662				
0.876311	2.61887	0.681133	2.0239	0.877495	2.61853	0.912013	2.72864					0.825156	2.46798	0.926616	2.76523				
0.878537	2.61823	0.683123	2.02421	0.879719	2.61789	0.914088	2.72724					0.82711	2.46694	0.928729	2.76386				
0.880758	2.61759	0.685113	2.02451	0.881938	2.61724	0.916168	2.72587					0.829063	2.46592	0.930843	2.76249				
0.882975	2.61693	0.687102	2.02482	0.884152	2.61658	0.918253	2.72452					0.831017	2.4649	0.932958	2.76113				
0.885188	2.61626	0.689091	2.02512	0.886363	2.6159	0.920344	2.7232					0.83297	2.46388	0.935072	2.75978				
0.887396	2.61559	0.69108	2.02542	0.888568	2.61522	0.92244	2.72189					0.834923	2.46287	0.937188	2.75843				
0.8896	2.6149	0.693069	2.02572	0.89077	2.61453	0.924541	2.72062					0.836876	2.46187	0.939303	2.7571				
0.891799	2.61421	0.695057	2.02601	0.892967	2.61383	0.926648	2.71936					0.838829	2.46087	0.941419	2.75577				
0.893994	2.6135	0.697045	2.0263	0.895159	2.61312	0.928761	2.71813					0.840782	2.45987	0.943535	2.75446				
0.896185	2.61279	0.699033	2.02659	0.897347	2.61241	0.930878	2.71692					0.842735	2.45888	0.945652	2.75315				
0.89837	2.61207	0.701021	2.02688	0.899531	2.61168	0.933002	2.71573					0.844687	2.4579	0.947769	2.75185				
0.900552	2.61133	0.703008	2.02717	0.90171	2.61094	0.93513	2.71456					0.846639	2.45692	0.949886	2.75055				
0.902729	2.61059	0.704995	2.02745	0.903884	2.6102	0.937265	2.71342					0.848591	2.45594	0.952003	2.74927				
0.904901	2.60984	0.706982	2.02773	0.906054	2.60944	0.939404	2.7123					0.850543	2.45497	0.95412	2.74799				
0.907069	2.60909	0.708969	2.02801	0.90822	2.60868	0.941549	2.7112					0.852495	2.45401	0.956238	2.74672				
0.909232	2.60832	0.710955	2.02829	0.910381	2.60791	0.9437	2.71012					0.854447	2.45305	0.958356	2.74545				
0.911391	2.60754	0.712942	2.02856	0.912537	2.60713	0.945856	2.70906					0.856399	2.45209	0.960474	2.74419				
0.913546	2.60676	0.714927	2.02883	0.91469	2.60634	0.948017	2.70803					0.85835	2.45114	0.962592	2.74294				
0.915696	2.60597	0.716913	2.0291	0.916837	2.60554	0.950183	2.70701					0.860302	2.45019	0.96471	2.7417				
0.917842	2.60516	0.718899	2.02937	0.918981	2.60474	0.952355	2.70601					0.862253	2.44925	0.966828	2.74046				
0.919983	2.60436	0.720884	2.02964	0.92112	2.60392	0.954532	2.70504					0.864204	2.44832	0.968946	2.73923				
0.92212	2.60354	0.722869	2.0299	0.923255	2.6031	0.956714	2.70408					0.866155	2.44738	0.971064	2.73801				
0.924253	2.60271	0.724853	2.03016	0.925385	2.60227	0.958902	2.70315					0.868106	2.44646	0.973182	2.73679				
0.926382	2.60188	0.726838	2.03042	0.927512	2.60144	0.961094	2.70223					0.870058	2.44553	0.975301	2.73558				
0.928506	2.60104	0.728822	2.03068	0.929634	2.60059	0.963292	2.70133					0.872008	2.44461	0.977419	2.73438				
0.930626	2.60019	0.730806	2.03093	0.931752	2.59974	0.965494	2.70045					0.873959	2.4437	0.979537	2.73318				
0.932742	2.59934	0.73279	2.03119	0.933866	2.59888	0.967702	2.69959					0.87591	2.44279	0.981655	2.73199				
0.934854	2.59848	0.734773	2.03144	0.935976	2.59802	0.969914	2.69875					0.877861	2.44189	0.983773	2.7308				
0.936962	2.59761	0.736756	2.03169	0.938082	2.59715	0.972131	2.69793					0.879812	2.44099	0.985891	2.72962				
0.939067	2.59674	0.738739	2.03194	0.940184	2.59627	0.974353	2.69712					0.881763	2.44009	0.988008	2.72844				
0.941167	2.59586	0.740722	2.03218	0.942282	2.59539	0.97658	2.69633					0.883713	2.4392	0.990126	2.72727				
0.943263	2.59497	0.742704	2.03243	0.944376	2.5945	0.978811	2.69555					0.885664	2.43832	0.992243	2.72611				
0.945356	2.59408	0.744687	2.03267	0.946467	2.5936	0.981047	2.6948					0.887614	2.43743	0.99436	2.72495				
0.947445	2.59318	0.746669	2.03291	0.948554	2.5927	0.983287	2.69406					0.889565	2.43656	0.996477	2.7238				
0.949531	2.59228	0.748651	2.03315	0.950638	2.5918	0.985531	2.69333					0.891516	2.43568	0.998593	2.72265				
0.951612	2.59137	0.750632	2.03338	0.952718	2.59089	0.98778	2.69262					0.893466	2.43481	1.00071	2.72151				
0.953691	2.59046	0.752613	2.03362	0.954794	2.58997	0.990033	2.69193					0.895417	2.43395						
0.955766	2.58954	0.754594	2.03385	0.956868	2.58905	0.992291	2.69125					0.897367	2.43309						
0.957837	2.58862	0.756575	2.03408	0.958937	2.58813	0.994552	2.69058					0.899318	2.43224						
0.959906	2.5877	0.758556	2.03431	0.961004	2.5872	0.996817	2.68993					0.901269	2.43138						
0.961971	2.58677	0.760536	2.03454	0.963068	2.58627	0.999087	2.68929					0.903219	2.43054						
0.964033	2.58583	0.762516	2.03476	0.965128	2.58533	1.00136	2.68867					0.90517	2.42969						
0.966092	2.5849	0.764496	2.03499	0.967186	2.5844							0.90712	2.42886						
0.968148	2.58396	0.766476	2.03521	0.96924	2.58345							0.909071	2.42802						
0.970201	2.58301	0.768455	2.03543	0.971292	2.58251							0.911022	2.42719						
0.972252	2.58207	0.770434	2.03565	0.973341	2.58156							0.912972	2.42637						
0.974299	2.58112	0.772413	2.03587	0.975387	2.58061							0.914923	2.42554						
0.976344	2.58017	0.774392	2.03608	0.97743	2.57966							0.916874	2.42473						
0.978387	2.57921	0.77637	2.03629	0.979471	2.5787							0.918825	2.42391						
0.980426	2.57826	0.778349	2.03651	0.98151	2.57775							0.920775	2.4231						
0.982464	2.5773	0.780327	2.03672	0.983546	2.57679							0.922726	2.4223						
0.984498	2.57634	0.782304	2.03693	0.985579	2.57583							0.924677	2.4215						
0.986531	2.57538	0.784282	2.03713	0.98761	2.57487							0.926628	2.4207						
0.988561	2.57442	0.786259	2.03734	0.989639	2.57391							0.92858	2.41991						
0.990589	2.57346	0.788236	2.03754	0.991666	2.57294							0.930531	2.41912						
0.992615	2.57249	0.790213	2.03774	0.993691	2.57198							0.932482	2.41833						
0.994639	2.57153	0.79219	2.03795	0.995714	2.57102							0.934433	2.41755						
0.99666	2.57056	0.794166	2.03814	0.997734	2.57005							0.936384	2.41678						
0.99868	2.5696	0.796142	2.03834	0.999753	2.56908							0.938336	2.416						
1.0007	2.56863	0.798118	2.03854	1.00177	2.56812							0.940287	2.41523						
		0.800094	2.03873									0.942239	2.41447						
		0.802069	2.03893									0.944191	2.41371						
		0.804045	2.03912									0.946143	2.41295						
		0.80602	2.03931									0.948094	2.4122						
		0.807994	2.0395									0.950046	2.41145						
		0.809969	2.03968									0.951998	2.4107						
		0.811943	2.03987									0.953951	2.40996						
		0.813917	2.04005									0.955903	2.40922						
		0.815891	2.04024									0.957855	2.40848						
		0.817865	2.04042									0.959808	2.40775						
		0.819838	2.0406									0.96176	2.40703						
		0.821812	2.04078									0.963713	2.4063						
		0.823785	2.04096									0.965666	2.40558						
		0.825758	2.04113									0.967619	2.40486						
		0.82773	2.04131									0.969572	2.40415						
		0.829702	2.04148									0.971525	2.40344						
		0.831675	2.04165									0.973478	2.40274						
		0.833647	2.04182									0.975432	2.40203						
		0.835618	2.04199									0.977385	2.40134						
		0.83759	2.04216									0.979339	2.40064						
		0.839561	2.04233									0.981293	2.39995						
		0.841532	2.04249									0.983247	2.39926						
		0.843503	2.04266									0.985201	2.39858						
		0.845474	2.04282									0.987155	2.39789						
		0.847444	2.04298									0.98911	2.39722						
		0.849414	2.04314									0.991064	2.39654						
		0.851384	2.0433									0.993019	2.39587						
		0.853354	2.04346									0.994974	2.3952						
		0.855324	2.04362									0.996929	2.39454						
		0.857293	2.04377									0.998884	2.39388						
		0.859262	2.04393									1.00084	2.39322						
		0.861231	2.04408																
		0.8632	2.04423																
		0.865168	2.04438																
		0.867137	2.04453																
		0.869105	2.04468																
		0.871073	2.04483																
		0.87304	2.04498																
		0.875008	2.04512																
		0.876975	2.04527																
		0.878942	2.04541																
		0.880909	2.04555																
		0.882876	2.04569																
		0.884842	2.04583																
		0.886808	2.04597																
		0.888774	2.04611																
		0.89074	2.04625																
		0.892706	2.04638																
		0.894671	2.04652																
		0.896637	2.04665																
		0.898602	2.04678																
		0.900567	2.04691																
		0.902531	2.04705																
		0.904496	2.04717																
		0.90646	2.0473																
		0.908424	2.04743																
		0.910388	2.04756																
		0.912352	2.04768																
		0.914315	2.04781																
		0.916279	2.04793																
		0.918242	2.04805																
		0.920205	2.04818																
		0.922167	2.0483																
		0.92413	2.04842																
		0.926092	2.04854																
		0.928054	2.04865																
		0.930016	2.04877																
		0.931978	2.04889																
		0.93394	2.049																
		0.935901	2.04912																
		0.937862	2.04923																
		0.939824	2.04935																
		0.941784	2.04946																
		0.943745	2.04957																
		0.945706	2.04968																
		0.947666	2.04979																
		0.949626	2.0499																
		0.951586	2.05001																
		0.953546	2.05011																
		0.955505	2.05022																
		0.957465	2.05032																
		0.959424	2.05043																
		0.961383	2.05053																
		0.963342	2.05064																
		0.965301	2.05074																
		0.967259	2.05084																
		0.969217	2.05094																
		0.971175	2.05104																
		0.973133	2.05114																
		0.975091	2.05124																
		0.977049	2.05133																
		0.979006	2.05143																
		0.980964	2.05153																
		0.982921	2.05162																
		0.984878	2.05172																
		0.986834	2.05181																
		0.988791	2.05191																
		0.990747	2.052																
		0.992704	2.05209																
		0.99466	2.05218																
		0.996616	2.05227																
		0.998572	2.05236																
		1.00053	2.05245																
