Sym0		Asym0		Sym1		Sym2		Sym3		Sym4		Asym1		Asym2		Asym3		Asym4	
418  Points		525  Points		417  Points		400  Points		347  Points		248  Points		450  Points		395  Points		339  Points		205  Points	
Freq (MHz)	Vph (m/ms)	Freq (MHz)	Vph (m/ms)	Freq (MHz)	Vph (m/ms)	Freq (MHz)	Vph (m/ms)	Freq (MHz)	Vph (m/ms)	Freq (MHz)	Vph (m/ms)	Freq (MHz)	Vph (m/ms)	Freq (MHz)	Vph (m/ms)	Freq (MHz)	Vph (m/ms)	Freq (MHz)	Vph (m/ms)
0.279512	399.344	0.000217903	0.0915999	0.279514	301.677	0.450155	8928.91	0.559017	5456.83	0.838526	2015.33	0.139755	878.549	0.419269	456.273	0.698771	3193.1	0.90031	2144.25
0.279526	171.318	0.000421378	0.127283	0.279531	150.429	0.450161	458.361	0.559024	540.57	0.838532	622.163	0.139801	128.167	0.419286	226.569	0.698776	607.35	0.900315	666.127
0.279552	109.059	0.000690609	0.162793	0.279559	100.203	0.450177	235.226	0.559043	284.38	0.838543	367.869	0.139914	69.1801	0.419316	150.709	0.698787	335.596	0.900325	394.315
0.279588	79.9964	0.00102475	0.19806	0.279599	75.1284	0.450205	158.216	0.559073	192.948	0.838561	261.14	0.140095	47.4231	0.419358	112.913	0.698804	231.859	0.900341	280.048
0.279637	63.1704	0.00142294	0.233054	0.27965	60.097	0.450243	119.2	0.559115	146.013	0.838585	202.417	0.140343	36.1165	0.419412	90.2801	0.698828	177.115	0.900361	217.13
0.279697	52.1978	0.00188412	0.267731	0.279713	50.0828	0.450293	95.6261	0.559168	117.45	0.838615	165.259	0.140658	29.197	0.419478	75.2107	0.698857	143.287	0.900387	177.299
0.279768	44.4775	0.00240698	0.302042	0.279787	42.9338	0.450353	79.8415	0.559233	98.2383	0.838651	139.63	0.141038	24.5315	0.419556	64.4572	0.698893	120.312	0.900419	149.819
0.27985	38.7508	0.00299017	0.335947	0.279872	37.5748	0.450424	68.5339	0.559309	84.4329	0.838692	120.885	0.141482	21.177	0.419646	56.3983	0.698936	103.689	0.900455	129.716
0.279944	34.3342	0.00363233	0.369424	0.279968	33.4087	0.450505	60.0356	0.559397	74.0335	0.83874	106.579	0.141989	18.6518	0.419748	50.1344	0.698984	91.1038	0.900497	114.372
0.280049	30.8248	0.00433183	0.402432	0.280076	30.0776	0.450598	53.4158	0.559497	65.9186	0.838794	95.3031	0.142559	16.6846	0.419862	45.1263	0.699039	81.245	0.900544	102.275
0.280165	27.9693	0.00508704	0.434946	0.280195	27.3535	0.450701	48.114	0.559608	59.4102	0.838854	86.1864	0.143189	15.1107	0.419988	41.0311	0.6991	73.3133	0.900597	92.4939
0.280293	25.6009	0.00589623	0.466936	0.280326	25.0847	0.450815	43.7725	0.559731	54.0746	0.83892	78.6631	0.143878	13.8242	0.420126	37.6203	0.699168	66.7942	0.900654	84.4217
0.280432	23.6049	0.0067577	0.498385	0.280468	23.166	0.45094	40.1522	0.559865	49.6211	0.838992	72.3492	0.144625	12.7542	0.420276	34.7358	0.699241	61.3414	0.900717	77.6466
0.280582	21.9	0.00766965	0.529274	0.280621	21.5223	0.451076	37.0876	0.56001	45.8481	0.839069	66.9749	0.145427	11.8512	0.420438	32.2646	0.699321	56.713	0.900785	71.8794
0.280744	20.4272	0.00863032	0.55959	0.280785	20.0988	0.451222	34.4598	0.560167	42.6107	0.839153	62.3451	0.146283	11.0797	0.420612	30.1241	0.699407	52.7355	0.900859	66.9107
0.280917	19.1421	0.00963794	0.589322	0.280961	18.8539	0.451379	32.182	0.560336	39.8026	0.839243	58.3152	0.147072	10.4941	0.420798	28.2522	0.6995	49.2805	0.900937	62.5855
0.281101	18.0112	0.0106906	0.618453	0.281148	17.7563	0.451547	30.1886	0.560516	37.3439	0.839339	54.7757	0.147775	10.048	0.420996	26.6015	0.699599	46.2515	0.901021	58.7866
0.281296	17.0083	0.0117866	0.646985	0.281346	16.7814	0.451726	28.4297	0.560707	35.1733	0.839441	51.6424	0.148376	9.71104	0.421205	25.135	0.699704	43.5745	0.90111	55.4233
0.281503	16.1131	0.0129241	0.674909	0.281555	15.9097	0.451915	26.8662	0.56091	33.2432	0.839549	48.8491	0.148865	9.46276	0.421427	23.8237	0.699815	41.1914	0.901205	52.425
0.281721	15.3091	0.0141014	0.702226	0.281776	15.1259	0.452115	25.4675	0.561125	31.5156	0.839663	46.3434	0.149232	9.28956	0.42166	22.6442	0.699933	39.0565	0.901305	49.7352
0.28195	14.5833	0.015317	0.728937	0.282007	14.4172	0.452326	24.2089	0.56135	29.9605	0.839783	44.0831	0.149469	9.18263	0.421905	21.5777	0.700056	37.1329	0.90141	47.3087
0.28219	13.9246	0.016569	0.755041	0.28225	13.7736	0.452547	23.0703	0.561587	28.5533	0.839909	42.034	0.149815	9.03398	0.422162	20.6089	0.700186	35.3908	0.90152	45.1088
0.282442	13.3245	0.0178558	0.780543	0.282504	13.1865	0.452779	22.0355	0.561836	27.2739	0.84004	40.1676	0.150197	8.87884	0.422431	19.7248	0.700323	33.8057	0.901635	43.105
0.282704	12.7753	0.0191761	0.805453	0.28277	12.6488	0.453022	21.091	0.562096	26.1058	0.840178	38.4608	0.150725	8.67791	0.422711	18.9151	0.700465	32.3573	0.901756	41.2725
0.282978	12.2711	0.0205282	0.829772	0.283046	12.1546	0.453276	20.2255	0.562367	25.0351	0.840322	36.8938	0.151408	8.43915	0.423004	18.1706	0.700614	31.0287	0.901882	39.59
0.283263	11.8064	0.0219106	0.853509	0.283334	11.6989	0.45354	19.4295	0.562649	24.0502	0.840472	35.4503	0.152255	8.17116	0.423308	17.4839	0.700769	29.8057	0.902013	38.04
0.283559	11.3769	0.0233221	0.876673	0.283632	11.2773	0.453814	18.6951	0.562943	23.1411	0.840628	34.1162	0.153279	7.88263	0.423624	16.8486	0.70093	28.6762	0.902149	36.6074
0.283865	10.9788	0.0247612	0.899274	0.283942	10.8864	0.4541	18.0154	0.563248	22.2996	0.840789	32.8795	0.154491	7.5817	0.423951	16.2591	0.701098	27.6299	0.902291	35.2793
0.284183	10.6089	0.0262267	0.921324	0.284262	10.5228	0.454395	17.3846	0.563564	21.5184	0.840957	31.73	0.155742	7.3089	0.42429	15.7108	0.701272	26.6579	0.902438	34.0448
0.284512	10.2641	0.0277173	0.94283	0.284551	10.2261	0.454702	16.7975	0.563891	20.7912	0.841131	30.6588	0.15703	7.06062	0.424641	15.1994	0.701452	25.7527	0.90259	32.8944
0.284852	9.94222	0.029232	0.963807	0.284803	9.98678	0.455019	16.2499	0.56423	20.1128	0.841311	29.6582	0.158353	6.83384	0.425003	14.7214	0.701638	24.9076	0.902748	31.8197
0.285203	9.64096	0.0307694	0.984263	0.285017	9.79764	0.455346	15.738	0.564579	19.4783	0.841496	28.7214	0.15971	6.62599	0.425377	14.2737	0.70183	24.1167	0.90291	30.8135
0.285565	9.35845	0.0323287	1.00421	0.285188	9.65336	0.455684	15.2583	0.56494	18.8838	0.841688	27.8425	0.1611	6.43491	0.425763	13.8535	0.702029	23.3752	0.903078	29.8695
0.285938	9.09303	0.0339088	1.02367	0.285316	9.55013	0.456033	14.808	0.565312	18.3255	0.841886	27.0164	0.162521	6.25873	0.42616	13.4585	0.702234	22.6785	0.903251	28.9821
0.286322	8.84322	0.0355087	1.04264	0.285399	9.48528	0.456392	14.3845	0.565695	17.8003	0.842089	26.2385	0.163971	6.09586	0.426568	13.0863	0.702445	22.0227	0.90343	28.1464
0.286716	8.60771	0.0371274	1.06114	0.285518	9.39368	0.456761	13.9855	0.566089	17.3054	0.842299	25.5046	0.165449	5.94491	0.426988	12.7352	0.702662	21.4043	0.903613	27.358
0.287122	8.38533	0.0387642	1.07919	0.28565	9.29623	0.457141	13.6089	0.566494	16.8382	0.842514	24.8111	0.166955	5.80468	0.42742	12.4034	0.702886	20.8202	0.903802	26.613
0.287538	8.17505	0.0404181	1.09678	0.285831	9.16711	0.457531	13.2529	0.56691	16.3964	0.842735	24.1549	0.168486	5.67411	0.427863	12.0894	0.703116	20.2676	0.903996	25.908
0.287965	7.97591	0.0420884	1.11394	0.286063	9.0092	0.457932	12.9159	0.567337	15.9782	0.842963	23.533	0.170042	5.5523	0.428317	11.7918	0.703352	19.7442	0.904195	25.2397
0.288403	7.78709	0.0437743	1.13068	0.28635	8.82585	0.458343	12.5965	0.567774	15.5817	0.843196	22.9427	0.171621	5.43842	0.428782	11.5094	0.703594	19.2476	0.9044	24.6055
0.288851	7.60781	0.0454751	1.14701	0.286694	8.62072	0.458764	12.2933	0.568223	15.2052	0.843435	22.3819	0.173223	5.33177	0.429259	11.2411	0.703842	18.7758	0.90461	24.0028
0.28931	7.4374	0.0471901	1.16294	0.287098	8.39763	0.459196	12.0051	0.568683	14.8474	0.84368	21.8482	0.174846	5.2317	0.429747	10.9858	0.704096	18.3271	0.904825	23.4293
0.28978	7.27523	0.0489187	1.17848	0.287514	8.18668	0.459638	11.731	0.569153	14.5068	0.843931	21.3398	0.17649	5.13766	0.430247	10.7427	0.704357	17.8998	0.905045	22.8829
0.290261	7.12073	0.0506602	1.19364	0.28794	7.98693	0.46009	11.4698	0.569634	14.1822	0.844188	20.855	0.178154	5.04914	0.430757	10.5109	0.704624	17.4924	0.90527	22.3619
0.290752	6.97339	0.0524141	1.20844	0.288378	7.79754	0.460552	11.2207	0.570126	13.8727	0.844451	20.3921	0.179836	4.96569	0.431211	10.3176	0.704897	17.1036	0.905501	21.8644
0.291254	6.83274	0.0541798	1.22288	0.288825	7.61774	0.461025	10.9829	0.570628	13.5771	0.844719	19.9497	0.181536	4.88691	0.431605	10.1588	0.705176	16.7321	0.905737	21.3889
0.291766	6.69835	0.0559567	1.23697	0.289284	7.44685	0.461508	10.7557	0.571141	13.2946	0.844994	19.5266	0.183253	4.81243	0.431935	10.0314	0.705461	16.3768	0.905978	20.934
0.292289	6.56982	0.0577445	1.25073	0.289753	7.28422	0.462001	10.5383	0.571665	13.0243	0.845274	19.1214	0.184986	4.74193	0.432199	9.93318	0.705752	16.0367	0.906224	20.4984
0.292822	6.4468	0.0595426	1.26417	0.290233	7.1293	0.462438	10.3565	0.572199	12.7655	0.845561	18.733	0.186736	4.67512	0.432395	9.86225	0.70605	15.7109	0.906475	20.0809
0.293366	6.32895	0.0613505	1.27729	0.290724	6.98157	0.462818	10.2068	0.572744	12.5175	0.845853	18.3605	0.1885	4.61171	0.432521	9.81744	0.706354	15.3984	0.906732	19.6804
0.29392	6.21597	0.0631678	1.2901	0.291225	6.84055	0.463135	10.0865	0.573299	12.2796	0.846151	18.0029	0.190278	4.55147	0.432703	9.7538	0.706663	15.0985	0.906994	19.2958
0.294484	6.10756	0.0649941	1.30261	0.291737	6.70582	0.463389	9.99353	0.573865	12.0512	0.846455	17.6593	0.19207	4.49418	0.432903	9.68565	0.706979	14.8104	0.907261	18.9264
0.295059	6.00348	0.0668291	1.31483	0.292259	6.57697	0.463578	9.92635	0.574441	11.8318	0.846765	17.3289	0.193875	4.43964	0.433176	9.59462	0.707301	14.5335	0.907533	18.5711
0.295645	5.90348	0.0686723	1.32678	0.292791	6.45365	0.463699	9.88388	0.575028	11.6209	0.847081	17.011	0.195693	4.38765	0.433526	9.48216	0.707629	14.2671	0.90781	18.2292
0.29624	5.80733	0.0705234	1.33845	0.293335	6.33551	0.463874	9.82351	0.575625	11.418	0.847402	16.705	0.197523	4.33806	0.433954	9.34999	0.707964	14.0107	0.908093	17.9
0.296846	5.71483	0.0723821	1.34986	0.293888	6.22226	0.464066	9.7588	0.576232	11.2226	0.84773	16.41	0.199365	4.29071	0.434464	9.20004	0.708304	13.7636	0.90838	17.5828
0.297462	5.62578	0.0742479	1.361	0.294452	6.1136	0.464328	9.67228	0.57685	11.0344	0.848063	16.1256	0.201217	4.24545	0.435059	9.0344	0.70865	13.5255	0.908673	17.2769
0.298089	5.54001	0.0761208	1.3719	0.295027	6.00928	0.464664	9.56523	0.577477	10.853	0.848402	15.8513	0.20308	4.20215	0.435666	8.87528	0.709003	13.2958	0.908972	16.9817
0.298725	5.45734	0.0780002	1.38256	0.295611	5.90905	0.465074	9.4392	0.578115	10.678	0.848747	15.5864	0.204954	4.1607	0.436283	8.7223	0.709362	13.0741	0.909275	16.6968
0.299372	5.37762	0.0798861	1.39299	0.296206	5.81269	0.465563	9.29593	0.578679	10.5305	0.849097	15.3305	0.206837	4.12099	0.436911	8.57513	0.709726	12.86	0.909583	16.4215
0.300029	5.30071	0.081778	1.40318	0.296811	5.71999	0.466133	9.13733	0.579166	10.4083	0.849454	15.0832	0.20873	4.08291	0.437549	8.43345	0.710097	12.6531	0.909897	16.1554
0.300695	5.22646	0.0836758	1.41315	0.297427	5.63075	0.466713	8.98461	0.579573	10.3095	0.849816	14.8441	0.210631	4.04636	0.438199	8.29697	0.710474	12.453	0.910216	15.8981
0.301372	5.15475	0.0855793	1.42291	0.298053	5.54479	0.467303	8.83745	0.579897	10.2329	0.850184	14.6127	0.212542	4.01126	0.438859	8.16542	0.710856	12.2595	0.91054	15.6491
0.302059	5.08546	0.0874881	1.43245	0.298689	5.46195	0.467902	8.69558	0.580137	10.1774	0.850558	14.3887	0.21446	3.97753	0.439529	8.03854	0.711245	12.0723	0.910869	15.408
0.302756	5.01847	0.0894021	1.4418	0.299335	5.38207	0.468512	8.55871	0.580291	10.1422	0.850938	14.1718	0.216387	3.9451	0.44021	7.91611	0.71164	11.8909	0.911203	15.1745
0.303463	4.95369	0.0913211	1.45094	0.299991	5.305	0.469131	8.4266	0.580514	10.0921	0.851323	13.9616	0.218321	3.91388	0.440902	7.7979	0.712041	11.7152	0.911542	14.9482
0.30418	4.891	0.0932448	1.4599	0.300657	5.2306	0.46976	8.29901	0.580757	10.0383	0.851715	13.7578	0.220263	3.88382	0.441604	7.6837	0.712448	11.545	0.911887	14.7288
0.304907	4.83033	0.0951731	1.46867	0.301334	5.15875	0.470398	8.17572	0.58109	9.96608	0.852112	13.5601	0.222212	3.85486	0.442316	7.57333	0.712861	11.3798	0.912237	14.516
0.305549	4.77902	0.0971057	1.47725	0.30202	5.08933	0.471047	8.05653	0.581514	9.87641	0.852514	13.3683	0.224168	3.82694	0.443039	7.4666	0.71328	11.2197	0.912592	14.3095
0.306102	4.7364	0.0990427	1.48566	0.302717	5.02222	0.471704	7.94123	0.582032	9.77036	0.852923	13.1821	0.226131	3.8	0.443772	7.36333	0.713705	11.0642	0.912952	14.109
0.306563	4.70189	0.100984	1.4939	0.303423	4.95731	0.472372	7.82966	0.582647	9.64917	0.853337	13.0013	0.228099	3.774	0.444516	7.26338	0.714136	10.9133	0.913317	13.9143
0.30693	4.67508	0.102929	1.50197	0.304139	4.89451	0.473049	7.72164	0.583362	9.5142	0.853757	12.8256	0.230075	3.74889	0.44527	7.1666	0.714516	10.7852	0.913687	13.7252
0.307202	4.65562	0.104877	1.50987	0.304866	4.83372	0.473735	7.617	0.584086	9.38343	0.854183	12.6549	0.232056	3.72462	0.446034	7.07283	0.714844	10.6786	0.914062	13.5413
0.307376	4.64328	0.106829	1.51762	0.305602	4.77486	0.474431	7.5156	0.58482	9.25667	0.854614	12.4889	0.234042	3.70116	0.446808	6.98195	0.715118	10.5922	0.914443	13.3625
0.307628	4.62569	0.108785	1.52522	0.306348	4.71784	0.475136	7.4173	0.585564	9.13375	0.855051	12.3275	0.236034	3.67847	0.447592	6.89384	0.715335	10.5248	0.914828	13.1886
0.307903	4.60677	0.110744	1.53266	0.307104	4.66258	0.475851	7.32196	0.586317	9.01449	0.855494	12.1704	0.238032	3.65651	0.448386	6.80837	0.715497	10.4759	0.915219	13.0193
0.308278	4.58137	0.112706	1.53996	0.30787	4.60901	0.476575	7.22946	0.58708	8.89875	0.855943	12.0175	0.240035	3.63524	0.44919	6.72544	0.7156	10.4449	0.915615	12.8546
0.308757	4.54979	0.114419	1.54621	0.308645	4.55706	0.477309	7.13968	0.587852	8.78637	0.856397	11.8686	0.242042	3.61464	0.450004	6.64493	0.715749	10.4006	0.916016	12.6942
0.30934	4.51236	0.11588	1.55145	0.309431	4.50666	0.478051	7.0525	0.588634	8.67722	0.856857	11.7236	0.244055	3.59468	0.450828	6.56676	0.715913	10.3529	0.916422	12.5379
0.310032	4.46952	0.11709	1.55572	0.310226	4.45775	0.478803	6.96782	0.589425	8.57117	0.857322	11.5823	0.246072	3.57533	0.451662	6.49082	0.716136	10.2888	0.916833	12.3857
0.310834	4.4217	0.118047	1.55907	0.311031	4.41028	0.479564	6.88554	0.590226	8.46808	0.857793	11.4446	0.248093	3.55655	0.452506	6.41702	0.71642	10.2089	0.917249	12.2372
0.311647	4.37526	0.118752	1.56151	0.311846	4.36417	0.480335	6.80556	0.591036	8.36785	0.85827	11.3104	0.250119	3.53834	0.453359	6.34529	0.716766	10.1141	0.91767	12.0926
0.312469	4.33016	0.119203	1.56306	0.31267	4.31939	0.481114	6.72779	0.591855	8.27035	0.858753	11.1795	0.252149	3.52065	0.454222	6.27553	0.717177	10.0053	0.918096	11.9514
0.3133	4.28635	0.119851	1.56528	0.313504	4.27588	0.481902	6.65215	0.592683	8.17549	0.859178	11.068	0.254183	3.50348	0.455095	6.20768	0.717653	9.88346	0.918528	11.8138
0.314142	4.24377	0.120556	1.56768	0.314348	4.23359	0.4827	6.57855	0.593521	8.08316	0.859543	10.9749	0.256221	3.48679	0.455978	6.14167	0.718136	9.76481	0.918964	11.6794
0.314993	4.20237	0.121516	1.57091	0.315201	4.19248	0.483506	6.50692	0.594368	7.99327	0.859848	10.8991	0.258263	3.47057	0.45687	6.07741	0.718624	9.64921	0.919406	11.5483
0.315854	4.16212	0.122731	1.57496	0.316065	4.1525	0.484322	6.43718	0.595224	7.90572	0.860091	10.84	0.260309	3.4548	0.457771	6.01486	0.719119	9.53655	0.919852	11.4203
0.316724	4.12297	0.124201	1.5798	0.316937	4.11361	0.485146	6.36926	0.596089	7.82043	0.86027	10.797	0.262358	3.43947	0.458682	5.95394	0.719619	9.42671	0.920304	11.2952
0.317604	4.08488	0.125927	1.58538	0.31782	4.07578	0.485979	6.3031	0.596962	7.73732	0.860385	10.7697	0.26441	3.42454	0.459602	5.8946	0.720125	9.3196	0.920702	11.1886
0.318494	4.04782	0.12791	1.59168	0.318712	4.03896	0.486821	6.23863	0.597845	7.65631	0.860551	10.7306	0.266465	3.41002	0.460532	5.83678	0.720637	9.21511	0.921044	11.0994
0.319393	4.01175	0.129895	1.59786	0.319614	4.00312	0.487672	6.1758	0.598737	7.57731	0.860731	10.6885	0.268524	3.39588	0.461471	5.78042	0.721155	9.11316	0.921329	11.0268
0.320302	3.97663	0.131883	1.60392	0.320525	3.96823	0.488531	6.11454	0.599637	7.50027	0.860979	10.6319	0.270586	3.3821	0.462419	5.72548	0.721679	9.01365	0.921555	10.9701
0.321221	3.94243	0.133873	1.60988	0.321446	3.93425	0.489399	6.0548	0.600546	7.42512	0.861293	10.5611	0.272651	3.36868	0.463377	5.6719	0.722209	8.91651	0.921723	10.9288
0.322149	3.90913	0.135864	1.61573	0.322377	3.90116	0.490276	5.99652	0.601464	7.35178	0.861677	10.4769	0.274719	3.3556	0.464343	5.61965	0.722744	8.82164	0.92183	10.9025
0.323087	3.87668	0.137858	1.62147	0.323317	3.86891	0.491161	5.93967	0.602391	7.28019	0.86213	10.3799	0.27679	3.34285	0.465319	5.56867	0.723285	8.72898	0.921985	10.865
0.324035	3.84506	0.139854	1.62712	0.324267	3.8375	0.492055	5.88418	0.603326	7.21031	0.862656	10.271	0.278863	3.33042	0.466304	5.51892	0.723832	8.63845	0.922154	10.8246
0.324992	3.81425	0.141851	1.63266	0.325227	3.80688	0.492958	5.83002	0.60427	7.14206	0.863187	10.1646	0.280939	3.31829	0.467298	5.47036	0.724385	8.54998	0.922385	10.7701
0.325959	3.78422	0.14385	1.6381	0.326196	3.77703	0.493869	5.77713	0.605222	7.0754	0.863723	10.0605	0.283017	3.30645	0.4683	5.42295	0.724943	8.4635	0.922679	10.702
0.326936	3.75495	0.145851	1.64345	0.327175	3.74794	0.494788	5.72549	0.606183	7.01028	0.864266	9.95879	0.285098	3.2949	0.469312	5.37665	0.725508	8.37895	0.923036	10.6209
0.327922	3.7264	0.147854	1.6487	0.328164	3.71957	0.495716	5.67504	0.607152	6.94664	0.864813	9.85926	0.287182	3.28362	0.470333	5.33144	0.726078	8.29626	0.92346	10.5274
0.328918	3.69856	0.149858	1.65387	0.329162	3.6919	0.496652	5.62575	0.608129	6.88444	0.865367	9.76188	0.289267	3.2726	0.471362	5.28727	0.726654	8.21539	0.92395	10.4223
0.329924	3.67141	0.151863	1.65895	0.33017	3.66491	0.497597	5.57758	0.609115	6.82362	0.865926	9.66658	0.291355	3.26184	0.4724	5.24411	0.727235	8.13626	0.924445	10.3194
0.33094	3.64492	0.15387	1.66394	0.331189	3.63858	0.498549	5.53051	0.610109	6.76416	0.86649	9.57331	0.293445	3.25133	0.473447	5.20192	0.727823	8.05883	0.924946	10.2187
0.331966	3.61908	0.155879	1.66884	0.332217	3.61289	0.49951	5.48448	0.611112	6.706	0.86706	9.482	0.295537	3.24105	0.474502	5.16069	0.728416	7.98304	0.925451	10.1201
0.333001	3.59386	0.157889	1.67366	0.333254	3.58782	0.500479	5.43947	0.612122	6.64911	0.867635	9.39259	0.297632	3.231	0.475566	5.12038	0.729015	7.90885	0.925961	10.0236
0.334046	3.56926	0.1599	1.6784	0.334302	3.56336	0.501456	5.39546	0.61314	6.59344	0.868216	9.30503	0.299728	3.22118	0.476639	5.08096	0.729619	7.8362	0.926477	9.92903
0.335102	3.54524	0.161912	1.68307	0.33536	3.53948	0.502441	5.3524	0.614167	6.53897	0.868802	9.21926	0.301826	3.21157	0.47772	5.0424	0.730229	7.76505	0.926997	9.83639
0.336167	3.52179	0.163925	1.68765	0.336428	3.51618	0.503434	5.31028	0.615202	6.48565	0.869394	9.13522	0.303926	3.20217	0.47881	5.00469	0.730845	7.69536	0.927522	9.74562
0.337242	3.49891	0.16594	1.69216	0.337505	3.49343	0.504436	5.26906	0.616244	6.43345	0.869991	9.05287	0.306027	3.19297	0.479908	4.96779	0.731467	7.62708	0.928052	9.65666
0.338328	3.47657	0.167956	1.6966	0.338593	3.47121	0.505445	5.22871	0.617294	6.38233	0.870593	8.97215	0.308131	3.18396	0.481014	4.93168	0.732094	7.56017	0.928588	9.56945
0.339424	3.45475	0.169973	1.70096	0.339692	3.44952	0.506462	5.18922	0.618353	6.33228	0.871201	8.89303	0.310236	3.17515	0.482129	4.89633	0.732727	7.4946	0.929128	9.48396
0.34053	3.43345	0.171991	1.70526	0.3408	3.42834	0.507487	5.15055	0.619419	6.28325	0.871815	8.81545	0.312342	3.16651	0.483252	4.86174	0.733365	7.43032	0.929673	9.40012
0.341646	3.41265	0.174009	1.70948	0.341919	3.40766	0.508519	5.11268	0.620492	6.23521	0.872434	8.73937	0.314451	3.15806	0.484383	4.82786	0.73401	7.3673	0.930223	9.31791
0.342773	3.39233	0.176029	1.71364	0.343048	3.38746	0.50956	5.0756	0.621574	6.18814	0.873058	8.66476	0.31656	3.14977	0.485523	4.7947	0.734659	7.30551	0.930778	9.23726
0.34391	3.37249	0.17805	1.71773	0.344188	3.36773	0.510608	5.03927	0.622663	6.14201	0.873687	8.59156	0.318671	3.14165	0.48667	4.76221	0.735315	7.2449	0.931337	9.15813
0.345058	3.35311	0.180072	1.72176	0.345339	3.34847	0.511663	5.00368	0.62376	6.0968	0.874322	8.51975	0.320784	3.1337	0.487826	4.73039	0.735976	7.18545	0.931902	9.08049
0.346217	3.33419	0.182094	1.72572	0.3465	3.32965	0.512727	4.96881	0.624864	6.05247	0.874963	8.44928	0.322898	3.12589	0.488989	4.69922	0.736642	7.12713	0.932472	9.0043
0.347387	3.3157	0.184117	1.72963	0.347673	3.31127	0.513798	4.93463	0.625976	6.00901	0.875608	8.38012	0.325013	3.11825	0.490161	4.66868	0.737314	7.0699	0.933046	8.92951
0.348567	3.29764	0.186141	1.73347	0.348856	3.29332	0.514876	4.90113	0.627095	5.96639	0.876259	8.31223	0.327129	3.11075	0.491341	4.63875	0.737992	7.01374	0.933626	8.85609
0.349759	3.28001	0.188166	1.73725	0.350051	3.27578	0.515962	4.86829	0.628221	5.92459	0.876915	8.24558	0.329247	3.10339	0.492528	4.60942	0.738675	6.95862	0.93421	8.784
0.350962	3.26278	0.190192	1.74098	0.351256	3.25865	0.517055	4.8361	0.629355	5.88359	0.877577	8.18014	0.331366	3.09617	0.493723	4.58066	0.739364	6.90451	0.934799	8.71321
0.352177	3.24596	0.192218	1.74464	0.352474	3.24192	0.518156	4.80452	0.630496	5.84336	0.878244	8.11587	0.333486	3.08909	0.494927	4.55247	0.740058	6.85138	0.935393	8.64368
0.353403	3.22952	0.194245	1.74826	0.353703	3.22559	0.519264	4.77356	0.631645	5.80389	0.878916	8.05275	0.335607	3.08213	0.496137	4.52483	0.740758	6.79921	0.935992	8.57539
0.354641	3.21348	0.196272	1.75181	0.354943	3.20963	0.520379	4.74319	0.6328	5.76515	0.879594	7.99074	0.337729	3.07531	0.497356	4.49773	0.741463	6.74798	0.936596	8.50829
0.35589	3.1978	0.1983	1.75532	0.356196	3.19405	0.521502	4.71339	0.633963	5.72713	0.880277	7.92983	0.339852	3.06861	0.498582	4.47114	0.742174	6.69766	0.937205	8.44237
0.357152	3.1825	0.200329	1.75877	0.357461	3.17883	0.522631	4.68416	0.635133	5.68981	0.880965	7.86997	0.341976	3.06203	0.499816	4.44507	0.74289	6.64822	0.937818	8.37758
0.358426	3.16756	0.202358	1.76217	0.358738	3.16397	0.523768	4.65547	0.63631	5.65317	0.881658	7.81115	0.344101	3.05556	0.501057	4.41949	0.743612	6.59965	0.938437	8.31391
0.359713	3.15297	0.204388	1.76552	0.360028	3.14947	0.524912	4.62732	0.637493	5.61719	0.882356	7.75334	0.346227	3.04921	0.502306	4.39439	0.744339	6.55193	0.93906	8.25133
0.361012	3.13872	0.206418	1.76883	0.361331	3.13531	0.526063	4.59969	0.638684	5.58186	0.88306	7.69652	0.348354	3.04298	0.503563	4.36977	0.745072	6.50503	0.939688	8.1898
0.362325	3.12482	0.208449	1.77208	0.362646	3.12149	0.527221	4.57256	0.639882	5.54716	0.883769	7.64065	0.350481	3.03684	0.504827	4.3456	0.74581	6.45893	0.940321	8.1293
0.363651	3.11126	0.21048	1.77529	0.363975	3.10801	0.528386	4.54593	0.641086	5.51307	0.884483	7.58572	0.35261	3.03082	0.506098	4.32188	0.746553	6.41362	0.940958	8.06981
0.36499	3.09802	0.212512	1.77845	0.365318	3.09485	0.529558	4.51978	0.642298	5.47958	0.885203	7.53171	0.354739	3.02489	0.507376	4.2986	0.747302	6.36908	0.941601	8.01131
0.366343	3.0851	0.214544	1.78156	0.366674	3.08201	0.530737	4.49411	0.643516	5.44668	0.885927	7.47859	0.356869	3.01907	0.508662	4.27574	0.748057	6.32528	0.942248	7.95377
0.36771	3.07251	0.216576	1.78463	0.368044	3.06949	0.531923	4.46889	0.644741	5.41435	0.886657	7.42634	0.358999	3.01334	0.509955	4.2533	0.748816	6.28221	0.9429	7.89716
0.369091	3.06023	0.218609	1.78766	0.369429	3.05729	0.533115	4.44412	0.645972	5.38258	0.887392	7.37494	0.36113	3.00771	0.511256	4.23127	0.749581	6.23986	0.943557	7.84147
0.370487	3.04825	0.220642	1.79064	0.370829	3.04539	0.534314	4.41979	0.64721	5.35135	0.888132	7.32438	0.363262	3.00217	0.512563	4.20963	0.750352	6.1982	0.944218	7.78668
0.371898	3.03658	0.222676	1.79358	0.372243	3.03379	0.53552	4.39589	0.648455	5.32065	0.888877	7.27463	0.365394	2.99671	0.513878	4.18838	0.751128	6.15722	0.944885	7.73276
0.373324	3.02521	0.22471	1.79649	0.373673	3.02249	0.536732	4.3724	0.649706	5.29048	0.889627	7.22567	0.367527	2.99135	0.5152	4.1675	0.751909	6.11691	0.945556	7.6797
0.374766	3.01414	0.226744	1.79935	0.375119	3.01149	0.537951	4.34932	0.650963	5.2608	0.890383	7.1775	0.36966	2.98607	0.516529	4.147	0.752695	6.07724	0.946231	7.62747
0.376223	3.00336	0.228779	1.80217	0.37658	3.00078	0.539177	4.32664	0.652227	5.23163	0.891143	7.13008	0.371794	2.98087	0.517864	4.12685	0.753487	6.03821	0.946912	7.57605
0.377697	2.99286	0.230814	1.80495	0.378058	2.99035	0.540409	4.30434	0.653498	5.20293	0.891909	7.0834	0.373928	2.97575	0.519207	4.10706	0.754284	5.9998	0.947597	7.52544
0.379187	2.98265	0.232849	1.80769	0.379552	2.98021	0.541648	4.28243	0.654774	5.17471	0.892679	7.03744	0.376063	2.97071	0.520557	4.08761	0.755086	5.962	0.948287	7.47561
0.380695	2.97272	0.234884	1.8104	0.381064	2.97035	0.542893	4.26089	0.656057	5.14695	0.893455	6.9922	0.378198	2.96575	0.521914	4.0685	0.755894	5.92479	0.948982	7.42654
0.382219	2.96307	0.23692	1.81307	0.382592	2.96076	0.544144	4.23971	0.657347	5.11965	0.894236	6.94765	0.380333	2.96086	0.523277	4.04972	0.756707	5.88816	0.949681	7.37821
0.383761	2.95369	0.238955	1.8157	0.384139	2.95145	0.545402	4.21888	0.658642	5.09278	0.895022	6.90379	0.382469	2.95605	0.524647	4.03125	0.757525	5.8521	0.950385	7.33062
0.385321	2.94458	0.240991	1.8183	0.385703	2.94241	0.546666	4.1984	0.659944	5.06635	0.895813	6.86058	0.384605	2.95131	0.526024	4.0131	0.758348	5.8166	0.951094	7.28374
0.386899	2.93574	0.243028	1.82086	0.387286	2.93363	0.547936	4.17826	0.661251	5.04033	0.896608	6.81803	0.386742	2.94663	0.527408	3.99526	0.759177	5.78164	0.951807	7.23756
0.388496	2.92716	0.245064	1.82339	0.388887	2.92511	0.549213	4.15845	0.662565	5.01473	0.897409	6.77611	0.388878	2.94203	0.528799	3.97772	0.760011	5.74721	0.952526	7.19207
0.390111	2.91884	0.247101	1.82589	0.390507	2.91686	0.550495	4.13896	0.663885	4.98954	0.898215	6.73481	0.391015	2.93749	0.530196	3.96047	0.76085	5.7133	0.953248	7.14725
0.391746	2.91078	0.249137	1.82835	0.392146	2.90886	0.551784	4.11979	0.66521	4.96474	0.899026	6.69413	0.393152	2.93301	0.531599	3.94351	0.761694	5.6799	0.953976	7.10308
0.3934	2.90297	0.251174	1.83078	0.393805	2.90111	0.553079	4.10093	0.666542	4.94032	0.899842	6.65404	0.395289	2.9286	0.53301	3.92684	0.762543	5.647	0.954708	7.05956
0.395074	2.89542	0.253211	1.83318	0.395483	2.89362	0.55438	4.08237	0.667879	4.91629	0.900663	6.61454	0.397426	2.92425	0.534427	3.91043	0.763398	5.61459	0.955444	7.01667
0.396767	2.88811	0.255248	1.83555	0.397182	2.88637	0.555686	4.06411	0.669223	4.89262	0.901488	6.57561	0.399564	2.91996	0.53585	3.8943	0.764258	5.58266	0.956186	6.97439
0.39848	2.88104	0.257286	1.83788	0.3989	2.87936	0.556999	4.04614	0.670572	4.86931	0.902319	6.53724	0.401701	2.91573	0.53728	3.87843	0.765122	5.5512	0.956932	6.93272
0.400214	2.87421	0.259323	1.84019	0.400638	2.87259	0.558318	4.02846	0.671927	4.84637	0.903155	6.49943	0.403839	2.91156	0.538716	3.86282	0.765992	5.52019	0.957682	6.89164
0.401967	2.86762	0.26136	1.84246	0.402397	2.86605	0.559642	4.01105	0.673287	4.82376	0.903995	6.46215	0.405977	2.90744	0.540159	3.84746	0.766867	5.48964	0.958437	6.85114
0.403741	2.86125	0.263398	1.84471	0.404176	2.85974	0.560973	3.99391	0.674654	4.8015	0.90484	6.4254	0.408114	2.90337	0.541608	3.83235	0.767748	5.45953	0.959197	6.81121
0.405535	2.85512	0.265435	1.84693	0.405975	2.85366	0.562309	3.97705	0.676025	4.77957	0.905691	6.38916	0.410252	2.89936	0.543063	3.81748	0.768633	5.42985	0.959961	6.77183
0.40735	2.8492	0.267473	1.84912	0.407794	2.8478	0.56365	3.96044	0.677403	4.75797	0.906546	6.35344	0.41239	2.89541	0.544524	3.80284	0.769523	5.40059	0.96073	6.733
0.409185	2.84351	0.269511	1.85129	0.409634	2.84215	0.564998	3.94409	0.678786	4.73669	0.907406	6.31821	0.414527	2.8915	0.545992	3.78844	0.770419	5.37175	0.961503	6.69471
0.41104	2.83802	0.271548	1.85342	0.411494	2.83672	0.566351	3.92798	0.680174	4.71571	0.908271	6.28347	0.416665	2.88764	0.547466	3.77427	0.771319	5.34332	0.962281	6.65694
0.412915	2.83275	0.273586	1.85553	0.413374	2.83149	0.56771	3.91213	0.681568	4.69505	0.90914	6.2492	0.418802	2.88384	0.548946	3.76032	0.772225	5.31529	0.963064	6.61969
0.414809	2.82767	0.275624	1.85761	0.415273	2.82647	0.569074	3.89651	0.682968	4.67469	0.910015	6.21541	0.420939	2.88008	0.550433	3.74659	0.773135	5.28764	0.963851	6.58294
0.416724	2.82279	0.277662	1.85967	0.417192	2.82163	0.570444	3.88113	0.684372	4.65462	0.910894	6.18208	0.423076	2.87636	0.551925	3.73308	0.774051	5.26039	0.964642	6.54669
0.418657	2.81811	0.2797	1.8617	0.419131	2.81699	0.571819	3.86599	0.685782	4.63484	0.911778	6.14919	0.425213	2.87269	0.553424	3.71977	0.774971	5.2335	0.965438	6.51092
0.42061	2.8136	0.281738	1.86371	0.421088	2.81254	0.5732	3.85106	0.687198	4.61534	0.912667	6.11675	0.42735	2.86907	0.554928	3.70667	0.775897	5.20699	0.966239	6.47563
0.422581	2.80928	0.283776	1.86569	0.423064	2.80826	0.574586	3.83636	0.688618	4.59612	0.913561	6.08475	0.429487	2.86549	0.556439	3.69378	0.776827	5.18084	0.967044	6.44081
0.424571	2.80513	0.285813	1.86765	0.425058	2.80415	0.575978	3.82188	0.690044	4.57718	0.914459	6.05317	0.431623	2.86195	0.557955	3.68108	0.777763	5.15505	0.967853	6.40645
0.426579	2.80115	0.287851	1.86958	0.42707	2.80021	0.577375	3.80761	0.691475	4.5585	0.915363	6.02201	0.433759	2.85846	0.559478	3.66857	0.778703	5.12961	0.968667	6.37253
0.428604	2.79734	0.289889	1.87149	0.429099	2.79643	0.578777	3.79355	0.692911	4.54008	0.916271	5.99126	0.435895	2.855	0.561006	3.65626	0.779649	5.10451	0.969486	6.33906
0.430646	2.79368	0.291927	1.87338	0.431145	2.79281	0.580184	3.77969	0.694352	4.52192	0.917183	5.96091	0.43803	2.85159	0.562541	3.64413	0.780599	5.07974	0.970309	6.30603
0.432704	2.79017	0.293964	1.87524	0.433207	2.78934	0.581597	3.76603	0.695799	4.50401	0.918101	5.93096	0.440165	2.84821	0.564081	3.63218	0.781554	5.05531	0.971136	6.27342
0.434779	2.7868	0.296002	1.87709	0.435286	2.78601	0.583015	3.75257	0.69725	4.48634	0.919023	5.9014	0.4423	2.84488	0.565627	3.62042	0.782514	5.0312	0.971968	6.24123
0.436869	2.78358	0.29804	1.87891	0.43738	2.78281	0.584438	3.73931	0.698706	4.46892	0.919949	5.87222	0.444435	2.84158	0.567178	3.60883	0.783479	5.00741	0.972804	6.20945
0.438974	2.78048	0.300077	1.8807	0.439488	2.77975	0.585866	3.72623	0.700167	4.45174	0.920881	5.84341	0.446569	2.83831	0.568736	3.59741	0.784449	4.98393	0.973645	6.17807
0.441094	2.77752	0.302115	1.88248	0.441612	2.77682	0.587299	3.71334	0.701633	4.43479	0.921817	5.81497	0.448703	2.83509	0.570299	3.58616	0.785424	4.96075	0.97449	6.14709
0.443228	2.77468	0.304152	1.88424	0.443749	2.77401	0.588737	3.70064	0.703104	4.41807	0.922758	5.7869	0.450836	2.83189	0.571868	3.57508	0.786403	4.93788	0.975339	6.1165
0.445375	2.77195	0.30619	1.88597	0.4459	2.77131	0.59018	3.68811	0.70458	4.40158	0.923703	5.75917	0.452968	2.82874	0.573442	3.56417	0.787388	4.91531	0.976193	6.0863
0.447536	2.76934	0.308227	1.88769	0.448063	2.76872	0.591628	3.67576	0.706061	4.3853	0.924653	5.7318	0.455101	2.82561	0.575023	3.55341	0.788377	4.89303	0.977051	6.05647
0.449709	2.76684	0.310264	1.88939	0.450239	2.76624	0.593081	3.66358	0.707546	4.36924	0.925608	5.70477	0.457233	2.82252	0.576608	3.54281	0.789371	4.87103	0.977913	6.027
0.451894	2.76443	0.312301	1.89106	0.452427	2.76386	0.594539	3.65157	0.709036	4.3534	0.926567	5.67808	0.459364	2.81946	0.5782	3.53237	0.79037	4.84931	0.97878	5.99791
0.45409	2.76213	0.314338	1.89272	0.454626	2.76158	0.596002	3.63972	0.710531	4.33776	0.927531	5.65172	0.461495	2.81643	0.579797	3.52208	0.791373	4.82787	0.979651	5.96916
0.456298	2.75992	0.316375	1.89436	0.456837	2.75939	0.597469	3.62804	0.71203	4.32233	0.928499	5.62568	0.463625	2.81344	0.581399	3.51194	0.792382	4.8067	0.980527	5.94077
0.458516	2.75779	0.318412	1.89598	0.459057	2.75729	0.598941	3.61652	0.713534	4.3071	0.929472	5.59996	0.465755	2.81047	0.583007	3.50194	0.793395	4.7858	0.981407	5.91273
0.460745	2.75575	0.320449	1.89758	0.461288	2.75527	0.600418	3.60516	0.715043	4.29207	0.93045	5.57456	0.467884	2.80753	0.58462	3.49209	0.794413	4.76516	0.982291	5.88502
0.462983	2.75379	0.322485	1.89916	0.463529	2.75333	0.6019	3.59395	0.716556	4.27723	0.931432	5.54947	0.470012	2.80463	0.586239	3.48238	0.795435	4.74478	0.983179	5.85765
0.465231	2.75191	0.324522	1.90072	0.465779	2.75147	0.603386	3.58289	0.718073	4.26258	0.932418	5.52468	0.47214	2.80175	0.587863	3.4728	0.796463	4.72465	0.984072	5.8306
0.467487	2.7501	0.326558	1.90227	0.468037	2.74967	0.604877	3.57198	0.719595	4.24812	0.933409	5.50019	0.474268	2.7989	0.589493	3.46337	0.797495	4.70477	0.984969	5.80387
0.469752	2.74836	0.328595	1.9038	0.470304	2.74795	0.606372	3.56122	0.721122	4.23385	0.934405	5.47599	0.476394	2.79607	0.591128	3.45407	0.798532	4.68513	0.98587	5.77747
0.472025	2.74669	0.330631	1.90531	0.472579	2.74629	0.607872	3.5506	0.722653	4.21975	0.935405	5.45208	0.47852	2.79328	0.592768	3.4449	0.799573	4.66574	0.986776	5.75137
0.474306	2.74508	0.332667	1.9068	0.474862	2.7447	0.609377	3.54012	0.724188	4.20583	0.93641	5.42846	0.480645	2.79051	0.594413	3.43586	0.800619	4.64658	0.987685	5.72558
0.476595	2.74353	0.334703	1.90828	0.477152	2.74316	0.610886	3.52978	0.725728	4.19209	0.937419	5.40511	0.48277	2.78776	0.596064	3.42694	0.80167	4.62766	0.988599	5.70009
0.47889	2.74204	0.336738	1.90975	0.479449	2.74168	0.6124	3.51958	0.727271	4.17852	0.938432	5.38204	0.484894	2.78504	0.59772	3.41815	0.802725	4.60896	0.989518	5.6749
0.481192	2.7406	0.338774	1.91119	0.481753	2.74026	0.613917	3.50951	0.72882	4.16512	0.93945	5.35925	0.487017	2.78235	0.599381	3.40949	0.803786	4.59049	0.99044	5.65
0.483501	2.73921	0.340809	1.91262	0.484063	2.73889	0.61544	3.49958	0.730372	4.15189	0.940472	5.33671	0.489139	2.77968	0.601048	3.40094	0.80485	4.57224	0.991367	5.62539
0.485816	2.73788	0.342845	1.91404	0.48638	2.73756	0.616966	3.48977	0.731929	4.13881	0.941499	5.31444	0.491261	2.77703	0.602719	3.39252	0.80592	4.55421	0.992298	5.60106
0.488137	2.73659	0.34488	1.91543	0.488702	2.73628	0.618497	3.48009	0.733489	4.1259	0.94253	5.29243	0.493382	2.77441	0.604396	3.38421	0.806993	4.5364	0.993233	5.57701
0.490463	2.73534	0.346915	1.91682	0.49103	2.73505	0.620033	3.47053	0.735054	4.11315	0.943566	5.27067	0.495502	2.77181	0.606078	3.37601	0.808072	4.51879	0.994172	5.55323
0.492795	2.73414	0.34895	1.91819	0.493363	2.73385	0.621572	3.4611	0.736623	4.10055	0.944606	5.24916	0.497621	2.76923	0.607764	3.36793	0.809155	4.5014	0.995115	5.52972
0.495132	2.73298	0.350984	1.91954	0.495701	2.7327	0.623116	3.45179	0.738196	4.0881	0.94565	5.2279	0.499739	2.76667	0.609456	3.35996	0.810243	4.4842	0.996062	5.50648
0.497473	2.73186	0.353019	1.92088	0.498044	2.73159	0.624664	3.4426	0.739773	4.07581	0.946699	5.20688	0.501857	2.76414	0.611153	3.35209	0.811335	4.46721	0.997014	5.4835
0.49982	2.73077	0.355053	1.9222	0.500391	2.73051	0.626216	3.43352	0.741354	4.06366	0.947752	5.18609	0.503974	2.76162	0.612855	3.34434	0.812431	4.45042	0.99797	5.46077
0.502171	2.72972	0.357087	1.92351	0.502743	2.72947	0.627772	3.42456	0.742939	4.05165	0.948809	5.16554	0.506089	2.75913	0.614562	3.33669	0.813533	4.43383	0.99893	5.4383
0.504526	2.7287	0.359121	1.92481	0.505099	2.72846	0.629333	3.41571	0.744528	4.03979	0.949871	5.14522	0.508204	2.75666	0.616274	3.32914	0.814638	4.41742	0.999894	5.41607
0.506885	2.72772	0.361155	1.92609	0.50746	2.72748	0.630897	3.40697	0.746121	4.02807	0.950937	5.12513	0.510318	2.75421	0.617991	3.3217	0.815749	4.40121	1.00086	5.3941
0.509248	2.72676	0.363189	1.92736	0.509824	2.72653	0.632466	3.39834	0.747718	4.01649	0.952007	5.10526	0.512431	2.75177	0.619712	3.31435	0.816863	4.38518		
0.511615	2.72584	0.365222	1.92862	0.512192	2.72562	0.634038	3.38982	0.749318	4.00504	0.953082	5.08562	0.514543	2.74936	0.621439	3.30711	0.817983	4.36933		
0.513986	2.72494	0.367255	1.92986	0.514563	2.72473	0.635615	3.38141	0.750923	3.99373	0.954161	5.06619	0.516654	2.74696	0.62317	3.29996	0.819106	4.35367		
0.51636	2.72407	0.369288	1.93109	0.516937	2.72386	0.637195	3.3731	0.752531	3.98255	0.955244	5.04697	0.518765	2.74459	0.624906	3.29291	0.820234	4.33818		
0.518737	2.72322	0.371321	1.9323	0.519315	2.72302	0.63878	3.36489	0.754143	3.9715	0.956331	5.02797	0.520874	2.74223	0.626647	3.28595	0.821367	4.32287		
0.521117	2.7224	0.373354	1.93351	0.521696	2.72221	0.640368	3.35678	0.755759	3.96058	0.957422	5.00917	0.522982	2.73989	0.628393	3.27908	0.822504	4.30773		
0.5235	2.72161	0.375387	1.9347	0.52408	2.72142	0.64196	3.34877	0.757378	3.94978	0.958518	4.99057	0.525089	2.73757	0.630144	3.27231	0.823645	4.29276		
0.525886	2.72083	0.377419	1.93588	0.526466	2.72065	0.643556	3.34086	0.759001	3.9391	0.959618	4.97218	0.527195	2.73526	0.631899	3.26562	0.824791	4.27796		
0.528274	2.72008	0.379451	1.93704	0.528856	2.7199	0.645156	3.33305	0.760628	3.92855	0.960722	4.95399	0.529301	2.73297	0.633659	3.25903	0.825941	4.26332		
0.530666	2.71934	0.381483	1.9382	0.531248	2.71917	0.646759	3.32532	0.762258	3.91811	0.961831	4.93599	0.531405	2.7307	0.635423	3.25252	0.827096	4.24885		
0.533059	2.71863	0.383515	1.93934	0.533642	2.71846	0.648367	3.3177	0.763892	3.9078	0.962943	4.91818	0.533508	2.72845	0.637193	3.24609	0.828255	4.23453		
0.535455	2.71794	0.385546	1.94047	0.536038	2.71777	0.649978	3.31016	0.765529	3.8976	0.96406	4.90057	0.53561	2.72621	0.638966	3.23975	0.829418	4.22038		
0.537853	2.71726	0.387578	1.94159	0.538437	2.7171	0.651593	3.30271	0.76717	3.88751	0.965181	4.88314	0.537711	2.72398	0.640745	3.23349	0.830585	4.20638		
0.540254	2.7166	0.389609	1.9427	0.540838	2.71644	0.653211	3.29535	0.768815	3.87754	0.966306	4.86589	0.539811	2.72177	0.642528	3.22732	0.831757	4.19253		
0.542656	2.71596	0.39164	1.94379	0.543241	2.7158	0.654834	3.28808	0.770463	3.86767	0.967435	4.84883	0.54191	2.71958	0.644315	3.22122	0.832934	4.17883		
0.545061	2.71533	0.39367	1.94488	0.545646	2.71518	0.656459	3.2809	0.772114	3.85792	0.968568	4.83195	0.544007	2.7174	0.646108	3.2152	0.834114	4.16529		
0.547467	2.71471	0.395701	1.94595	0.548053	2.71457	0.658089	3.2738	0.773769	3.84827	0.969705	4.81524	0.546104	2.71524	0.647904	3.20927	0.835299	4.15189		
0.549875	2.71412	0.397731	1.94702	0.550461	2.71397	0.659722	3.26678	0.775427	3.83873	0.970847	4.7987	0.548199	2.71309	0.649705	3.2034	0.836488	4.13863		
0.552285	2.71353	0.399761	1.94807	0.552871	2.71339	0.661359	3.25984	0.777088	3.8293	0.971992	4.78234	0.550294	2.71095	0.651511	3.19762	0.837682	4.12552		
0.554696	2.71296	0.401791	1.94911	0.555283	2.71282	0.662999	3.25299	0.778753	3.81996	0.973142	4.76615	0.552387	2.70883	0.653321	3.1919	0.838879	4.11255		
0.557109	2.7124	0.403821	1.95014	0.557697	2.71227	0.664642	3.24621	0.780421	3.81073	0.974296	4.75012	0.554479	2.70672	0.655135	3.18626	0.840081	4.09971		
0.559524	2.71186	0.40585	1.95117	0.560111	2.71173	0.66629	3.23952	0.782093	3.80159	0.975453	4.73426	0.55657	2.70463	0.656954	3.1807	0.841287	4.08702		
0.56194	2.71132	0.407879	1.95218	0.562528	2.7112	0.66794	3.2329	0.783767	3.79256	0.976615	4.71857	0.558659	2.70255	0.658777	3.1752	0.842498	4.07445		
0.564357	2.7108	0.409908	1.95318	0.564945	2.71067	0.669594	3.22636	0.785445	3.78362	0.977781	4.70303	0.560748	2.70048	0.660604	3.16977	0.843712	4.06202		
0.566776	2.71029	0.411937	1.95417	0.567364	2.71017	0.671252	3.21989	0.787126	3.77478	0.97895	4.68765	0.562835	2.69842	0.662436	3.16442	0.844931	4.04973		
0.569196	2.70979	0.413966	1.95515	0.569784	2.70967	0.672913	3.21349	0.788811	3.76603	0.980124	4.67242	0.564921	2.69638	0.664272	3.15913	0.846154	4.03756		
0.571617	2.7093	0.415994	1.95612	0.572205	2.70918	0.674577	3.20717	0.790498	3.75737	0.981302	4.65735	0.567006	2.69435	0.666112	3.1539	0.847381	4.02552		
0.574039	2.70881	0.418022	1.95709	0.574628	2.7087	0.676245	3.20092	0.792189	3.7488	0.982483	4.64243	0.56909	2.69233	0.667956	3.14874	0.848612	4.0136		
0.576462	2.70834	0.42005	1.95804	0.577051	2.70823	0.677916	3.19474	0.793882	3.74033	0.983669	4.62766	0.571173	2.69033	0.669805	3.14365	0.849848	4.00181		
0.578886	2.70788	0.422078	1.95898	0.579476	2.70776	0.67959	3.18863	0.795579	3.73194	0.984859	4.61303	0.573254	2.68833	0.671658	3.13862	0.851087	3.99014		
0.581311	2.70742	0.424105	1.95992	0.581901	2.70731	0.681268	3.18259	0.797279	3.72364	0.986052	4.59856	0.575334	2.68635	0.673515	3.13366	0.852331	3.9786		
0.583737	2.70697	0.426132	1.96084	0.584327	2.70687	0.682949	3.17662	0.798981	3.71542	0.98725	4.58422	0.577413	2.68438	0.675376	3.12875	0.853579	3.96717		
0.586164	2.70653	0.428159	1.96176	0.586754	2.70643	0.684633	3.17071	0.800687	3.70729	0.988451	4.57003	0.579491	2.68242	0.677241	3.12391	0.854831	3.95586		
0.588592	2.7061	0.430186	1.96267	0.589182	2.706	0.68632	3.16487	0.802396	3.69925	0.989656	4.55598	0.581567	2.68047	0.67911	3.11913	0.856087	3.94466		
0.59102	2.70568	0.432213	1.96357	0.591611	2.70557	0.688011	3.15909	0.804108	3.69128	0.990865	4.54206	0.583642	2.67853	0.680983	3.1144	0.857347	3.93358		
0.593449	2.70526	0.434239	1.96446	0.59404	2.70516	0.689705	3.15338	0.805822	3.6834	0.992078	4.52828	0.585716	2.67661	0.682861	3.10974	0.858612	3.92261		
0.595879	2.70485	0.436265	1.96534	0.59647	2.70475	0.691402	3.14773	0.80754	3.6756	0.993295	4.51464	0.587789	2.67469	0.684742	3.10513	0.85988	3.91176		
0.59831	2.70444	0.438291	1.96621	0.598901	2.70435	0.693102	3.14214	0.80926	3.66787	0.994516	4.50113	0.58986	2.67278	0.686627	3.10058	0.861152	3.90101		
0.600741	2.70404	0.440317	1.96708	0.601332	2.70395	0.694805	3.13662	0.810983	3.66023	0.995741	4.48775	0.59193	2.67089	0.688516	3.09609	0.862429	3.89037		
0.603173	2.70365	0.442342	1.96794	0.603764	2.70356	0.696512	3.13115	0.812709	3.65266	0.996969	4.47449	0.593999	2.669	0.690409	3.09165	0.863709	3.87984		
0.605605	2.70326	0.444367	1.96879	0.606196	2.70317	0.698222	3.12574	0.814438	3.64517	0.998201	4.46137	0.596067	2.66713	0.692306	3.08726	0.864994	3.86942		
0.608038	2.70288	0.446392	1.96963	0.608629	2.70279	0.699934	3.1204	0.81617	3.63775	0.999438	4.44837	0.598133	2.66526	0.694207	3.08293	0.866282	3.8591		
0.610471	2.70251	0.448417	1.97046	0.611063	2.70242	0.70165	3.11511	0.817904	3.6304	1.00068	4.43549	0.600198	2.66341	0.696112	3.07865	0.867575	3.84888		
0.612904	2.70213	0.450441	1.97129	0.613496	2.70204	0.703369	3.10987	0.819642	3.62313			0.602262	2.66156	0.69802	3.07442	0.868871	3.83877		
0.615338	2.70177	0.452465	1.9721	0.61593	2.70168	0.705091	3.1047	0.821381	3.61593			0.604325	2.65973	0.699933	3.07024	0.870172	3.82875		
0.617773	2.70141	0.454489	1.97291	0.618365	2.70132	0.706816	3.09958	0.823124	3.6088			0.606386	2.6579	0.701849	3.06612	0.871476	3.81884		
0.620207	2.70105	0.456513	1.97371	0.6208	2.70096	0.708544	3.09451	0.824869	3.60174			0.608446	2.65608	0.703768	3.06204	0.872784	3.80902		
0.622642	2.70069	0.458536	1.97451	0.623235	2.70061	0.710275	3.0895	0.826617	3.59474			0.610505	2.65427	0.705692	3.05801	0.874097	3.7993		
0.625078	2.70034	0.46056	1.9753	0.62567	2.70026	0.712009	3.08454	0.828368	3.58782			0.612562	2.65248	0.707619	3.05403	0.875413	3.78967		
0.627513	2.7	0.462583	1.97608	0.628106	2.69991	0.713746	3.07964	0.830121	3.58096			0.614619	2.65069	0.70955	3.0501	0.876733	3.78014		
0.629949	2.69966	0.464605	1.97685	0.630541	2.69957	0.715486	3.07479	0.831876	3.57417			0.616674	2.6489	0.711484	3.04622	0.878057	3.7707		
0.632385	2.69932	0.466628	1.97762	0.632977	2.69923	0.717229	3.06998	0.833635	3.56745			0.618727	2.64713	0.713422	3.04238	0.879385	3.76136		
0.634821	2.69898	0.46865	1.97837	0.635413	2.6989	0.718975	3.06523	0.835396	3.56078			0.62078	2.64537	0.715364	3.03859	0.880717	3.7521		
0.637257	2.69865	0.470672	1.97913	0.637849	2.69857	0.720724	3.06053	0.837159	3.55418			0.622831	2.64361	0.717309	3.03484	0.882053	3.74293		
0.639693	2.69832	0.472694	1.97987	0.640285	2.69824	0.722476	3.05588	0.838925	3.54765			0.624881	2.64187	0.719257	3.03113	0.883393	3.73386		
0.642129	2.69799	0.474716	1.98061	0.642722	2.69791	0.724231	3.05128	0.840693	3.54117			0.62693	2.64013	0.721209	3.02747	0.884736	3.72487		
0.644565	2.69767	0.476737	1.98134	0.645158	2.69759	0.725988	3.04673	0.842464	3.53476			0.628977	2.6384	0.723165	3.02385	0.886084	3.71596		
0.647002	2.69735	0.478758	1.98207	0.647594	2.69727	0.727749	3.04222	0.844237	3.52841			0.631023	2.63668	0.725124	3.02028	0.887435	3.70715		
0.649438	2.69703	0.480779	1.98278	0.65003	2.69695	0.729512	3.03776	0.846013	3.52211			0.633068	2.63496	0.727086	3.01675	0.88879	3.69841		
0.651874	2.69671	0.482799	1.9835	0.652467	2.69663	0.731279	3.03335	0.84779	3.51588			0.635111	2.63326	0.729052	3.01325	0.890149	3.68976		
0.65431	2.6964	0.48482	1.9842	0.654903	2.69632	0.733048	3.02898	0.849571	3.5097			0.637154	2.63156	0.731021	3.0098	0.891512	3.68119		
0.656746	2.69608	0.48684	1.9849	0.657339	2.69601	0.73482	3.02466	0.851354	3.50358			0.639195	2.62987	0.732993	3.00639	0.892878	3.67271		
0.659182	2.69577	0.48886	1.98559	0.659774	2.6957	0.736595	3.02038	0.853139	3.49752			0.641235	2.62819	0.734969	3.00302	0.894249	3.6643		
0.661618	2.69546	0.490879	1.98628	0.66221	2.69539	0.738373	3.01615	0.854926	3.49151			0.643273	2.62651	0.736947	2.99968	0.895623	3.65598		
0.664053	2.69515	0.492898	1.98696	0.664646	2.69508	0.740153	3.01196	0.856716	3.48555			0.645311	2.62485	0.738929	2.99639	0.897001	3.64773		
0.666489	2.69485	0.494918	1.98763	0.667081	2.69477	0.741937	3.00781	0.858508	3.47965			0.647347	2.62319	0.740915	2.99313	0.898383	3.63956		
0.668924	2.69454	0.496936	1.9883	0.669516	2.69447	0.743723	3.00371	0.860302	3.47381			0.649382	2.62154	0.742903	2.98991	0.899768	3.63146		
0.671358	2.69424	0.498955	1.98896	0.67195	2.69416	0.745512	2.99965	0.862098	3.46801			0.651416	2.61989	0.744895	2.98672	0.901157	3.62344		
0.673793	2.69394	0.500973	1.98962	0.674385	2.69386	0.747304	2.99563	0.863897	3.46227			0.653448	2.61826	0.746889	2.98358	0.90255	3.6155		
0.676227	2.69363	0.502991	1.99027	0.676819	2.69356	0.749099	2.99165	0.865698	3.45658			0.655479	2.61663	0.748887	2.98046	0.903947	3.60763		
0.678661	2.69333	0.505009	1.99091	0.679253	2.69326	0.750897	2.98771	0.867501	3.45095			0.65751	2.61501	0.750888	2.97739	0.905348	3.59983		
0.681094	2.69303	0.507027	1.99155	0.681686	2.69296	0.752697	2.98381	0.869306	3.44536			0.659539	2.61339	0.752891	2.97434	0.906752	3.59211		
0.683527	2.69273	0.509044	1.99219	0.684119	2.69266	0.754501	2.97996	0.871113	3.43982			0.661566	2.61178	0.754898	2.97133	0.90816	3.58446		
0.68596	2.69243	0.511062	1.99282	0.686551	2.69236	0.756307	2.97614	0.872923	3.43433			0.663593	2.61018	0.756908	2.96836	0.909571	3.57688		
0.688392	2.69213	0.513078	1.99344	0.688983	2.69206	0.758116	2.97236	0.874734	3.42889			0.665618	2.60859	0.758921	2.96542	0.910986	3.56936		
0.690823	2.69184	0.515095	1.99405	0.691415	2.69176	0.759927	2.96862	0.876548	3.42349			0.667642	2.607	0.760936	2.96251	0.912405	3.56192		
0.693255	2.69154	0.517112	1.99467	0.693846	2.69146	0.761742	2.96491	0.878363	3.41815			0.669665	2.60542	0.762954	2.95963	0.913828	3.55455		
0.695685	2.69124	0.519128	1.99527	0.696276	2.69117	0.763559	2.96125	0.880181	3.41285			0.671687	2.60385	0.764976	2.95678	0.915254	3.54724		
0.698115	2.69094	0.521144	1.99587	0.698706	2.69087	0.76538	2.95762	0.882001	3.40759			0.673708	2.60229	0.767	2.95397	0.916684	3.54		
0.700545	2.69064	0.523159	1.99647	0.701135	2.69057	0.767203	2.95403	0.883823	3.40238			0.675728	2.60073	0.769026	2.95118	0.918118	3.53282		
0.702973	2.69034	0.525175	1.99706	0.703564	2.69027	0.769029	2.95048	0.885646	3.39722			0.677746	2.59918	0.771056	2.94843	0.919555	3.52571		
0.705401	2.69004	0.52719	1.99765	0.705992	2.68997	0.770857	2.94696	0.887472	3.3921			0.679764	2.59763	0.773088	2.94571	0.920996	3.51867		
0.707829	2.68974	0.529205	1.99823	0.708419	2.68967	0.772689	2.94348	0.8893	3.38702			0.68178	2.59609	0.775123	2.94301	0.922441	3.51169		
0.710255	2.68944	0.531219	1.9988	0.710846	2.68937	0.774523	2.94003	0.89113	3.38199			0.683795	2.59456	0.777161	2.94035	0.923889	3.50477		
0.712681	2.68914	0.533234	1.99937	0.713271	2.68907	0.776361	2.93662	0.892961	3.377			0.685809	2.59304	0.779201	2.93771	0.92534	3.49791		
0.715107	2.68884	0.535248	1.99994	0.715696	2.68877	0.778201	2.93324	0.894795	3.37205			0.687822	2.59152	0.781244	2.9351	0.926796	3.49112		
0.717531	2.68854	0.537262	2.0005	0.71812	2.68846	0.780044	2.9299	0.89663	3.36715			0.689834	2.59001	0.783289	2.93252	0.928255	3.48439		
0.719954	2.68823	0.539276	2.00105	0.720544	2.68816	0.78189	2.92659	0.898467	3.36228			0.691845	2.5885	0.785337	2.92997	0.929717	3.47771		
0.722377	2.68793	0.541289	2.0016	0.722966	2.68785	0.783739	2.92332	0.900306	3.35746			0.693854	2.587	0.787387	2.92744	0.931183	3.4711		
0.724799	2.68762	0.543302	2.00215	0.725387	2.68755	0.78559	2.92008	0.902147	3.35268			0.695863	2.58551	0.78944	2.92494	0.932653	3.46455		
0.727219	2.68731	0.545315	2.00269	0.727808	2.68724	0.787445	2.91687	0.90399	3.34793			0.697871	2.58403	0.791496	2.92247	0.934126	3.45805		
0.729639	2.687	0.547328	2.00323	0.730227	2.68693	0.789302	2.91369	0.905835	3.34323			0.699877	2.58255	0.793553	2.92002	0.935603	3.45161		
0.732058	2.68669	0.54934	2.00376	0.732646	2.68662	0.791163	2.91055	0.907681	3.33856			0.701883	2.58107	0.795613	2.9176	0.937083	3.44523		
0.734475	2.68638	0.551353	2.00429	0.735063	2.6863	0.793026	2.90744	0.909529	3.33393			0.703888	2.57961	0.797676	2.9152	0.938567	3.43891		
0.736892	2.68607	0.553364	2.00482	0.73748	2.68599	0.794893	2.90436	0.911379	3.32934			0.705891	2.57815	0.799741	2.91283	0.940055	3.43264		
0.739308	2.68575	0.555376	2.00533	0.739895	2.68567	0.796762	2.90132	0.913231	3.32479			0.707894	2.57669	0.801808	2.91048	0.941545	3.42643		
0.741722	2.68543	0.557388	2.00585	0.742309	2.68535	0.798635	2.8983	0.915084	3.32028			0.709895	2.57524	0.803877	2.90816	0.94304	3.42027		
0.744135	2.68511	0.559399	2.00636	0.744722	2.68503	0.80051	2.89532	0.916939	3.3158			0.711896	2.5738	0.805948	2.90586	0.944538	3.41416		
0.746547	2.68479	0.56141	2.00687	0.747133	2.68471	0.802388	2.89237	0.918796	3.31136			0.713896	2.57237	0.808022	2.90358	0.946039	3.40811		
0.748957	2.68446	0.563421	2.00737	0.749543	2.68438	0.80427	2.88944	0.920654	3.30695			0.715894	2.57094	0.810098	2.90133	0.947544	3.40212		
0.751366	2.68413	0.565431	2.00787	0.751952	2.68405	0.806155	2.88655	0.922514	3.30258			0.717892	2.56952	0.812176	2.8991	0.949053	3.39617		
0.753774	2.6838	0.567441	2.00836	0.75436	2.68372	0.808042	2.88369	0.924376	3.29824			0.719889	2.5681	0.814256	2.89689	0.950565	3.39028		
0.756181	2.68347	0.569451	2.00885	0.756766	2.68339	0.809933	2.88086	0.926239	3.29394			0.721885	2.56669	0.816338	2.8947	0.95208	3.38444		
0.758586	2.68313	0.571461	2.00934	0.75917	2.68305	0.811827	2.87806	0.928105	3.28967			0.72388	2.56528	0.818422	2.89253	0.953599	3.37865		
0.760989	2.68279	0.573471	2.00982	0.761574	2.68271	0.813724	2.87529	0.929971	3.28544			0.725874	2.56388	0.820508	2.89039	0.955121	3.37291		
0.763391	2.68245	0.57548	2.0103	0.763975	2.68236	0.815625	2.87255	0.931839	3.28124			0.727867	2.56249	0.822597	2.88827	0.956647	3.36722		
0.765791	2.6821	0.577489	2.01077	0.766375	2.68202	0.817528	2.86983	0.933709	3.27707			0.729859	2.56111	0.824687	2.88616	0.958177	3.36157		
0.76819	2.68175	0.579498	2.01124	0.768773	2.68167	0.819435	2.86715	0.93558	3.27294			0.731851	2.55972	0.826779	2.88408	0.959709	3.35598		
0.770587	2.6814	0.581506	2.0117	0.77117	2.68131	0.821345	2.8645	0.937453	3.26884			0.733841	2.55835	0.828873	2.88202	0.961245	3.35044		
0.772982	2.68104	0.583514	2.01217	0.773565	2.68095	0.823259	2.86187	0.939328	3.26477			0.735831	2.55698	0.830969	2.87998	0.962785	3.34494		
0.775376	2.68068	0.585522	2.01262	0.775958	2.68059	0.825176	2.85927	0.941203	3.26073			0.73782	2.55562	0.833066	2.87795	0.964328	3.33949		
0.777767	2.68032	0.58753	2.01308	0.778349	2.68023	0.827096	2.8567	0.943081	3.25672			0.739808	2.55426	0.835166	2.87595	0.965875	3.33409		
0.780157	2.67995	0.589538	2.01353	0.780738	2.67986	0.82902	2.85416	0.94496	3.25274			0.741795	2.55291	0.837267	2.87396	0.967425	3.32874		
0.782545	2.67957	0.591545	2.01398	0.783125	2.67948	0.830947	2.85165	0.94684	3.2488			0.743781	2.55156	0.83937	2.872	0.968978	3.32343		
0.784931	2.67919	0.593552	2.01442	0.785511	2.6791	0.832878	2.84917	0.948722	3.24488			0.745767	2.55023	0.841474	2.87005	0.970535	3.31816		
0.787314	2.67881	0.595559	2.01486	0.787894	2.67872	0.834812	2.84671	0.950605	3.24099			0.747752	2.54889	0.843581	2.86812	0.972095	3.31294		
0.789696	2.67842	0.597565	2.0153	0.790275	2.67833	0.836749	2.84428	0.95249	3.23713			0.749736	2.54756	0.845689	2.86621	0.973658	3.30777		
0.792075	2.67803	0.599572	2.01573	0.792654	2.67794	0.838691	2.84188	0.954376	3.23331			0.751719	2.54624	0.847798	2.86431	0.975225	3.30264		
0.794453	2.67763	0.601578	2.01616	0.79503	2.67754	0.840636	2.83951	0.956263	3.22951			0.753702	2.54493	0.849909	2.86243	0.976795	3.29755		
0.796828	2.67723	0.603584	2.01658	0.797405	2.67713	0.842585	2.83716	0.958152	3.22574			0.755683	2.54362	0.852022	2.86057	0.978369	3.29251		
0.7992	2.67682	0.605589	2.01701	0.799777	2.67672	0.844537	2.83484	0.960042	3.22199			0.757665	2.54231	0.854136	2.85873	0.979946	3.28751		
0.80157	2.67641	0.607595	2.01742	0.802146	2.67631	0.846493	2.83255	0.961934	3.21828			0.759645	2.54101	0.856252	2.8569	0.981526	3.28255		
0.803938	2.67599	0.6096	2.01784	0.804513	2.67589	0.848454	2.83029	0.963827	3.21459			0.761624	2.53972	0.858369	2.85509	0.98311	3.27763		
0.806303	2.67557	0.611605	2.01825	0.806878	2.67546	0.850418	2.82805	0.965721	3.21093			0.763603	2.53843	0.860488	2.8533	0.984697	3.27276		
0.808666	2.67514	0.613609	2.01866	0.80924	2.67503	0.852385	2.82584	0.967617	3.2073			0.765582	2.53715	0.862608	2.85152	0.986288	3.26793		
0.811026	2.6747	0.615614	2.01907	0.811599	2.67459	0.854357	2.82365	0.969514	3.20369			0.767559	2.53587	0.864729	2.84975	0.987882	3.26313		
0.813383	2.67426	0.617618	2.01947	0.813956	2.67415	0.856333	2.82149	0.971412	3.20011			0.769536	2.5346	0.866852	2.848	0.989479	3.25838		
0.815737	2.67381	0.619622	2.01987	0.816309	2.67369	0.858313	2.81936	0.973311	3.19656			0.771512	2.53334	0.868976	2.84627	0.991079	3.25367		
0.818088	2.67335	0.621626	2.02026	0.81866	2.67324	0.860298	2.81726	0.975212	3.19303			0.773488	2.53208	0.871102	2.84455	0.992683	3.249		
0.820437	2.67289	0.623629	2.02066	0.821008	2.67277	0.862286	2.81518	0.977114	3.18953			0.775462	2.53082	0.873229	2.84285	0.994291	3.24436		
0.822783	2.67242	0.625632	2.02105	0.823353	2.6723	0.864279	2.81313	0.979017	3.18605			0.777437	2.52957	0.875357	2.84116	0.995901	3.23977		
0.825125	2.67194	0.627635	2.02143	0.825694	2.67182	0.866276	2.81111	0.980922	3.1826			0.77941	2.52833	0.877486	2.83948	0.997515	3.23521		
0.827464	2.67145	0.629638	2.02182	0.828033	2.67133	0.868277	2.80911	0.982827	3.17917			0.781383	2.52709	0.879616	2.83782	0.999132	3.2307		
0.829801	2.67096	0.63164	2.0222	0.830368	2.67084	0.870283	2.80713	0.984734	3.17577			0.783356	2.52586	0.881747	2.83617	1.00075	3.22622		
0.832133	2.67046	0.633643	2.02257	0.8327	2.67034	0.872293	2.80519	0.986642	3.17239			0.785328	2.52464	0.88388	2.83453				
0.834463	2.66996	0.635645	2.02295	0.835029	2.66983	0.874307	2.80327	0.988552	3.16904			0.787299	2.52341	0.886014	2.83291				
0.836789	2.66944	0.637646	2.02332	0.837354	2.66931	0.876327	2.80137	0.990462	3.16571			0.789269	2.5222	0.888149	2.8313				
0.839112	2.66892	0.639648	2.02369	0.839676	2.66879	0.878351	2.7995	0.992374	3.1624			0.79124	2.52099	0.890284	2.82971				
0.841431	2.66839	0.641649	2.02405	0.841994	2.66826	0.880379	2.79766	0.994286	3.15911			0.793209	2.51978	0.892421	2.82812				
0.843746	2.66785	0.64365	2.02441	0.844309	2.66771	0.882412	2.79585	0.9962	3.15585			0.795178	2.51858	0.894559	2.82655				
0.846058	2.6673	0.645651	2.02477	0.84662	2.66716	0.88445	2.79406	0.998115	3.15261			0.797147	2.51739	0.896698	2.825				
0.848366	2.66674	0.647652	2.02513	0.848927	2.66661	0.886493	2.79229	1.00003	3.1494			0.799114	2.5162	0.898837	2.82345				
0.850671	2.66618	0.649652	2.02549	0.85123	2.66604	0.888541	2.79055					0.801082	2.51502	0.900978	2.82191				
0.852971	2.6656	0.651652	2.02584	0.85353	2.66546	0.890594	2.78884					0.803049	2.51384	0.903119	2.82039				
0.855267	2.66502	0.653652	2.02618	0.855825	2.66488	0.892652	2.78715					0.805015	2.51267	0.905262	2.81888				
0.85756	2.66443	0.655652	2.02653	0.858117	2.66428	0.894715	2.78549					0.806981	2.5115	0.907405	2.81738				
0.859848	2.66383	0.657651	2.02687	0.860404	2.66368	0.896783	2.78385					0.808947	2.51034	0.909549	2.81589				
0.862133	2.66322	0.65965	2.02721	0.862688	2.66307	0.898856	2.78224					0.810912	2.50918	0.911694	2.81441				
0.864413	2.6626	0.661649	2.02755	0.864967	2.66244	0.900934	2.78065					0.812876	2.50803	0.913839	2.81294				
0.866689	2.66197	0.663648	2.02789	0.867242	2.66181	0.903018	2.77909					0.81484	2.50688	0.915985	2.81149				
0.86896	2.66133	0.665647	2.02822	0.869512	2.66117	0.905106	2.77756					0.816804	2.50574	0.918132	2.81004				
0.871228	2.66068	0.667645	2.02855	0.871778	2.66052	0.907201	2.77605					0.818767	2.50461	0.920279	2.8086				
0.873491	2.66002	0.669643	2.02888	0.87404	2.65986	0.9093	2.77456					0.82073	2.50347	0.922427	2.80718				
0.875749	2.65936	0.671641	2.0292	0.876298	2.65919	0.911405	2.7731					0.822692	2.50235	0.924576	2.80576				
0.878003	2.65868	0.673638	2.02952	0.878551	2.65851	0.913515	2.77166					0.824654	2.50123	0.926725	2.80435				
0.880253	2.65799	0.675635	2.02984	0.880799	2.65782	0.915631	2.77025					0.826615	2.50011	0.928875	2.80296				
0.882498	2.6573	0.677633	2.03016	0.883043	2.65712	0.917752	2.76886					0.828577	2.499	0.931026	2.80157				
0.884739	2.65659	0.679629	2.03048	0.885283	2.65642	0.919879	2.7675					0.830537	2.4979	0.933176	2.80019				
0.886975	2.65587	0.681626	2.03079	0.887518	2.6557	0.922011	2.76616					0.832498	2.4968	0.935328	2.79882				
0.889206	2.65515	0.683622	2.0311	0.889748	2.65497	0.924148	2.76485					0.834458	2.4957	0.93748	2.79746				
0.891433	2.65441	0.685619	2.03141	0.891974	2.65423	0.926292	2.76356					0.836417	2.49461	0.939632	2.79611				
0.893655	2.65367	0.687615	2.03171	0.894195	2.65348	0.92844	2.76229					0.838377	2.49353	0.941784	2.79477				
0.895872	2.65291	0.68961	2.03201	0.896411	2.65273	0.930594	2.76104					0.840336	2.49244	0.943937	2.79343				
0.898085	2.65215	0.691606	2.03231	0.898623	2.65196	0.932754	2.75982					0.842294	2.49137	0.946091	2.79211				
0.900294	2.65137	0.693601	2.03261	0.90083	2.65118	0.93492	2.75862					0.844252	2.4903	0.948244	2.79079				
0.902497	2.65059	0.695596	2.03291	0.903032	2.6504	0.93709	2.75745					0.84621	2.48923	0.950398	2.78948				
0.904696	2.6498	0.697591	2.0332	0.90523	2.6496	0.939267	2.7563					0.848168	2.48817	0.952552	2.78818				
0.906891	2.649	0.699585	2.03349	0.907424	2.6488	0.941448	2.75517					0.850125	2.48712	0.954707	2.78688				
0.90908	2.64819	0.70158	2.03378	0.909612	2.64799	0.943636	2.75406					0.852082	2.48607	0.956862	2.7856				
0.911266	2.64737	0.703574	2.03407	0.911796	2.64717	0.945828	2.75297					0.854039	2.48502	0.959017	2.78432				
0.913446	2.64654	0.705568	2.03435	0.913976	2.64634	0.948026	2.75191					0.855996	2.48398	0.961172	2.78305				
0.915622	2.6457	0.707562	2.03464	0.916151	2.6455	0.95023	2.75086					0.857952	2.48294	0.963327	2.78178				
0.917794	2.64486	0.709555	2.03492	0.918321	2.64465	0.952439	2.74984					0.859908	2.48191	0.965482	2.78053				
0.919961	2.644	0.711548	2.0352	0.920487	2.64379	0.954653	2.74884					0.861863	2.48088	0.967637	2.77928				
0.922123	2.64314	0.713541	2.03547	0.922649	2.64293	0.956872	2.74786					0.863819	2.47986	0.969793	2.77803				
0.924282	2.64227	0.715534	2.03575	0.924806	2.64206	0.959097	2.7469					0.865774	2.47884	0.971948	2.7768				
0.926436	2.64139	0.717527	2.03602	0.926959	2.64118	0.961326	2.74595					0.867729	2.47783	0.974104	2.77557				
0.928585	2.64051	0.719519	2.03629	0.929107	2.64029	0.963561	2.74503					0.869683	2.47682	0.97626	2.77434				
0.930731	2.63961	0.721511	2.03656	0.931252	2.63939	0.965801	2.74413					0.871638	2.47582	0.978415	2.77313				
0.932872	2.63871	0.723503	2.03682	0.933392	2.63849	0.968046	2.74325					0.873592	2.47482	0.980571	2.77192				
0.935009	2.63781	0.725494	2.03708	0.935528	2.63758	0.970295	2.74238					0.875546	2.47383	0.982726	2.77071				
0.937142	2.63689	0.727486	2.03735	0.93766	2.63667	0.97255	2.74153					0.8775	2.47284	0.984882	2.76951				
0.93927	2.63597	0.729477	2.03761	0.939788	2.63575	0.974809	2.7407					0.879453	2.47185	0.987037	2.76832				
0.941395	2.63505	0.731468	2.03786	0.941912	2.63482	0.977073	2.73989					0.881407	2.47087	0.989192	2.76714				
0.943516	2.63411	0.733459	2.03812	0.944032	2.63389	0.979342	2.7391					0.88336	2.4699	0.991347	2.76596				
0.945633	2.63317	0.735449	2.03837	0.946148	2.63295	0.981615	2.73832					0.885313	2.46893	0.993502	2.76478				
0.947747	2.63223	0.73744	2.03863	0.94826	2.632	0.983893	2.73756					0.887266	2.46796	0.995656	2.76361				
0.949857	2.63128	0.73943	2.03888	0.950369	2.63105	0.986175	2.73681					0.889218	2.467	0.997811	2.76245				
0.951963	2.63033	0.74142	2.03913	0.952474	2.63009	0.988461	2.73608					0.891171	2.46604	0.999965	2.76129				
0.954065	2.62937	0.743409	2.03937	0.954576	2.62913	0.990752	2.73537					0.893123	2.46509	1.00212	2.76013				
0.956164	2.6284	0.745399	2.03962	0.956674	2.62817	0.993047	2.73467					0.895075	2.46414						
0.95826	2.62743	0.747388	2.03986	0.958769	2.6272	0.995346	2.73399					0.897027	2.46319						
0.960352	2.62646	0.749377	2.0401	0.96086	2.62622	0.997649	2.73332					0.898979	2.46225						
0.962441	2.62548	0.751366	2.04034	0.962949	2.62525	0.999955	2.73266					0.900931	2.46132						
0.964527	2.6245	0.753355	2.04058	0.965034	2.62426	1.00227	2.73202					0.902882	2.46039						
0.966609	2.62352	0.755343	2.04081	0.967115	2.62328							0.904834	2.45946						
0.968689	2.62253	0.757331	2.04105	0.969194	2.62229							0.906785	2.45854						
0.970766	2.62154	0.759319	2.04128	0.97127	2.6213							0.908736	2.45762						
0.972839	2.62055	0.761307	2.04151	0.973343	2.62031							0.910687	2.45671						
0.97491	2.61955	0.763294	2.04174	0.975414	2.61931							0.912638	2.4558						
0.976978	2.61855	0.765282	2.04196	0.977481	2.61831							0.914589	2.45489						
0.979044	2.61755	0.767269	2.04219	0.979546	2.61731							0.91654	2.45399						
0.981107	2.61655	0.769256	2.04241	0.981608	2.61631							0.918491	2.4531						
0.983167	2.61555	0.771242	2.04263	0.983668	2.6153							0.920441	2.4522						
0.985225	2.61454	0.773229	2.04285	0.985725	2.6143							0.922392	2.45132						
0.98728	2.61353	0.775215	2.04307	0.987779	2.61329							0.924342	2.45043						
0.989333	2.61252	0.777201	2.04329	0.989832	2.61228							0.926293	2.44955						
0.991384	2.61151	0.779187	2.0435	0.991882	2.61127							0.928243	2.44868						
0.993432	2.6105	0.781172	2.04372	0.99393	2.61026							0.930193	2.4478						
0.995478	2.60949	0.783158	2.04393	0.995976	2.60925							0.932143	2.44694						
0.997523	2.60848	0.785143	2.04414	0.998019	2.60823							0.934093	2.44607						
0.999565	2.60747	0.787128	2.04435	1.00006	2.60722							0.936043	2.44521						
1.0016	2.60645	0.789113	2.04456									0.937993	2.44436						
		0.791097	2.04476									0.939943	2.44351						
		0.793082	2.04497									0.941893	2.44266						
		0.795066	2.04517									0.943843	2.44182						
		0.79705	2.04537									0.945793	2.44098						
		0.799034	2.04557									0.947743	2.44014						
		0.801017	2.04577									0.949693	2.43931						
		0.803	2.04597									0.951642	2.43848						
		0.804984	2.04616									0.953592	2.43766						
		0.806966	2.04636									0.955542	2.43684						
		0.808949	2.04655									0.957492	2.43603						
		0.810932	2.04674									0.959441	2.43521						
		0.812914	2.04693									0.961391	2.43441						
		0.814896	2.04712									0.963341	2.4336						
		0.816878	2.04731									0.965291	2.4328						
		0.81886	2.04749									0.96724	2.432						
		0.820841	2.04768									0.96919	2.43121						
		0.822822	2.04786									0.97114	2.43042						
		0.824804	2.04804									0.97309	2.42964						
		0.826784	2.04822									0.975039	2.42885						
		0.828765	2.0484									0.976989	2.42808						
		0.830746	2.04858									0.978939	2.4273						
		0.832726	2.04875									0.980889	2.42653						
		0.834706	2.04893									0.982839	2.42576						
		0.836686	2.0491									0.984789	2.425						
		0.838666	2.04927									0.986739	2.42424						
		0.840645	2.04945									0.988689	2.42348						
		0.842624	2.04962									0.990639	2.42273						
		0.844604	2.04978									0.992589	2.42198						
		0.846582	2.04995									0.99454	2.42124						
		0.848561	2.05012									0.99649	2.42049						
		0.85054	2.05028									0.99844	2.41975						
		0.852518	2.05045									1.00039	2.41902						
		0.854496	2.05061																
		0.856474	2.05077																
		0.858452	2.05093																
		0.860429	2.05109																
		0.862407	2.05125																
		0.864384	2.0514																
		0.866361	2.05156																
		0.868338	2.05171																
		0.870314	2.05187																
		0.872291	2.05202																
		0.874267	2.05217																
		0.876243	2.05232																
		0.878219	2.05247																
		0.880195	2.05262																
		0.88217	2.05276																
		0.884145	2.05291																
		0.88612	2.05305																
		0.888095	2.0532																
		0.89007	2.05334																
		0.892045	2.05348																
		0.894019	2.05362																
		0.895993	2.05376																
		0.897967	2.0539																
		0.899941	2.05404																
		0.901915	2.05417																
		0.903888	2.05431																
		0.905861	2.05444																
		0.907834	2.05458																
		0.909807	2.05471																
		0.91178	2.05484																
		0.913753	2.05497																
		0.915725	2.0551																
		0.917697	2.05523																
		0.919669	2.05536																
		0.921641	2.05548																
		0.923613	2.05561																
		0.925584	2.05574																
		0.927555	2.05586																
		0.929526	2.05598																
		0.931497	2.05611																
		0.933468	2.05623																
		0.935439	2.05635																
		0.937409	2.05647																
		0.939379	2.05659																
		0.94135	2.0567																
		0.943319	2.05682																
		0.945289	2.05694																
		0.947259	2.05705																
		0.949228	2.05717																
		0.951197	2.05728																
		0.953166	2.05739																
		0.955135	2.05751																
		0.957104	2.05762																
		0.959073	2.05773																
		0.961041	2.05784																
		0.963009	2.05795																
		0.964977	2.05805																
		0.966945	2.05816																
		0.968913	2.05827																
		0.97088	2.05837																
		0.972848	2.05848																
		0.974815	2.05858																
		0.976782	2.05869																
		0.978749	2.05879																
		0.980716	2.05889																
		0.982682	2.05899																
		0.984649	2.05909																
		0.986615	2.05919																
		0.988581	2.05929																
		0.990547	2.05939																
		0.992513	2.05949																
		0.994478	2.05958																
		0.996444	2.05968																
		0.998409	2.05978																
		1.00037	2.05987																
