Sym0		Asym0		Sym1		Sym2		Sym3		Sym4		Asym1		Asym2		Asym3		Asym4	
424  Points		527  Points		423  Points		406  Points		352  Points		252  Points		455  Points		400  Points		344  Points		207  Points	
Freq (MHz)	Vph (m/ms)	Freq (MHz)	Vph (m/ms)	Freq (MHz)	Vph (m/ms)	Freq (MHz)	Vph (m/ms)	Freq (MHz)	Vph (m/ms)	Freq (MHz)	Vph (m/ms)	Freq (MHz)	Vph (m/ms)	Freq (MHz)	Vph (m/ms)	Freq (MHz)	Vph (m/ms)	Freq (MHz)	Vph (m/ms)
0.27951	651.712	0.000192825	0.0855495	0.279514	306.76	0.449927	11411.4	0.559017	7283.55	0.838526	2147.88	0.139755	951.673	0.419268	467.286	0.698771	3598.19	0.899855	2226.97
0.27952	205.442	0.000384617	0.120734	0.27953	151.681	0.449933	463.312	0.559024	554.342	0.838531	634.246	0.139799	129.618	0.419285	229.251	0.698776	620.64	0.899859	673.665
0.279541	121.949	0.000641297	0.155755	0.279556	100.757	0.44995	236.465	0.559041	288.145	0.838543	372.059	0.13991	69.5983	0.419314	151.891	0.698786	339.614	0.89987	396.862
0.279573	86.7171	0.000962105	0.190552	0.279594	75.4383	0.449977	158.749	0.559071	194.674	0.83856	263.244	0.140086	47.617	0.419354	113.575	0.698802	233.769	0.899885	281.288
0.279616	67.2855	0.00134621	0.22509	0.279643	60.2943	0.450015	119.488	0.559111	146.998	0.838582	203.679	0.140329	36.2267	0.419406	90.7017	0.698825	178.227	0.899906	217.85
0.27967	54.9735	0.00179261	0.259331	0.279702	50.2189	0.450064	95.801	0.559163	118.086	0.838611	166.099	0.140637	29.2669	0.41947	75.5024	0.698853	144.014	0.899932	177.763
0.279734	46.4748	0.00230002	0.293216	0.279772	43.0329	0.450124	79.9566	0.559226	98.6824	0.838646	140.228	0.141009	24.5788	0.419545	64.6707	0.698888	120.824	0.899963	150.138
0.27981	40.256	0.00286722	0.326718	0.279853	37.6498	0.450194	68.6136	0.5593	84.7602	0.838686	121.333	0.141445	21.2102	0.419632	56.561	0.698929	104.068	0.899999	129.946
0.279896	35.5087	0.00349284	0.359807	0.279945	33.4672	0.450275	60.0929	0.559385	74.2845	0.838732	106.927	0.141942	18.6756	0.419731	50.2623	0.698975	91.3961	0.900041	114.543
0.279993	31.7663	0.00417525	0.39244	0.280047	30.1241	0.450367	53.4581	0.559482	66.1169	0.838784	95.5808	0.142501	16.7017	0.419841	45.2293	0.699028	81.477	0.900087	102.407
0.2801	28.7405	0.00491297	0.424597	0.28016	27.3912	0.45047	48.1458	0.55959	59.5707	0.838842	86.4131	0.143119	15.1228	0.419963	41.1156	0.699087	73.5018	0.900139	92.5972
0.280219	26.2438	0.00570441	0.456258	0.280284	25.1155	0.450583	43.7967	0.559709	54.207	0.838906	78.8516	0.143795	13.8325	0.420096	37.6907	0.699152	66.9503	0.900197	84.504
0.280348	24.1487	0.00654773	0.487389	0.280419	23.1914	0.450707	40.1708	0.559839	49.7321	0.838975	72.5083	0.144528	12.7594	0.420241	34.7952	0.699223	61.4726	0.900259	77.713
0.280488	22.3658	0.0074413	0.51798	0.280565	21.5434	0.450842	37.1019	0.559981	45.9423	0.83905	67.111	0.145315	11.8539	0.420398	32.3152	0.6993	56.8248	0.900327	71.9335
0.280639	20.8303	0.00838339	0.548017	0.280721	20.1163	0.450988	34.4709	0.560134	42.6915	0.839131	62.4627	0.146156	11.0803	0.420566	30.1676	0.699383	52.8317	0.9004	66.9552
0.280801	19.4942	0.00937215	0.57748	0.280888	18.8685	0.451144	32.1904	0.560298	39.8727	0.839218	58.4177	0.146931	10.4932	0.420746	28.2899	0.699472	49.3642	0.900478	62.6224
0.280973	18.3211	0.0104059	0.606369	0.281066	17.7684	0.451311	30.195	0.560473	37.4051	0.839311	54.8658	0.147621	10.046	0.420937	26.6342	0.699567	46.3249	0.900562	58.8172
0.281156	17.2831	0.0114828	0.634665	0.281255	16.7913	0.451488	28.4344	0.560659	35.2271	0.83941	51.7221	0.148213	9.70808	0.42114	25.1636	0.699668	43.6392	0.900651	55.4489
0.28135	16.3581	0.0126014	0.662376	0.281454	15.9178	0.451677	26.8696	0.560856	33.2907	0.839514	48.9201	0.148693	9.45915	0.421354	23.8488	0.699775	41.2489	0.900745	52.4464
0.281554	15.5288	0.0137597	0.689494	0.281664	15.1323	0.451876	25.4698	0.561065	31.5578	0.839624	46.407	0.149053	9.2855	0.42158	22.6663	0.699888	39.1078	0.900844	49.7531
0.281769	14.7811	0.0149561	0.716017	0.281885	14.4223	0.452085	24.2102	0.561285	29.9981	0.83974	44.1404	0.149287	9.17829	0.421817	21.5972	0.700007	37.1789	0.900948	47.3238
0.281995	14.1037	0.0161889	0.741947	0.282116	13.7774	0.452305	23.0709	0.561515	28.587	0.839862	42.0857	0.149626	9.02925	0.422066	20.626	0.700133	35.4322	0.901058	45.1213
0.282232	13.487	0.0174569	0.767293	0.282358	13.1891	0.452536	22.0355	0.561757	27.3042	0.83999	40.2146	0.150001	8.8737	0.422326	19.7399	0.700264	33.8431	0.901173	43.1155
0.282479	12.9234	0.0187582	0.792053	0.282611	12.6504	0.452777	21.0904	0.56201	26.133	0.840123	38.5035	0.150521	8.67224	0.422598	18.9283	0.700401	32.3912	0.901293	41.2811
0.282737	12.4064	0.0200914	0.816236	0.282875	12.1552	0.453029	20.2244	0.562274	25.0597	0.840262	36.9329	0.151192	8.43285	0.422881	18.1822	0.700545	31.0596	0.901418	39.5971
0.283005	11.9305	0.0214551	0.83985	0.283149	11.6986	0.453292	19.4281	0.562549	24.0723	0.840407	35.486	0.152025	8.16415	0.423175	17.4941	0.700694	29.8338	0.901549	38.0457
0.283285	11.4909	0.0228479	0.862902	0.283433	11.2763	0.453565	18.6933	0.562835	23.1612	0.840558	34.1489	0.153031	7.87485	0.423481	16.8574	0.70085	28.7019	0.901684	36.612
0.283574	11.0838	0.0242686	0.885401	0.283728	10.8846	0.453848	18.0133	0.563132	22.3177	0.840715	32.9096	0.154223	7.5731	0.423798	16.2668	0.701011	27.6533	0.901825	35.2829
0.283875	10.7056	0.0257158	0.907358	0.284034	10.5203	0.454142	17.3822	0.56344	21.5348	0.840877	31.7577	0.155454	7.29956	0.424127	15.7173	0.701179	26.6794	0.901972	34.0475
0.284185	10.3536	0.0271883	0.92878	0.284309	10.2231	0.454446	16.7949	0.563759	20.8061	0.841045	30.6844	0.156721	7.05059	0.424466	15.2049	0.701352	25.7723	0.902123	32.8963
0.284507	10.025	0.028685	0.949682	0.28455	9.98328	0.454761	16.2471	0.564089	20.1262	0.841219	29.6818	0.158023	6.82316	0.424817	14.726	0.701532	24.9256	0.90228	31.8209
0.284839	9.71767	0.0302046	0.970071	0.284754	9.79377	0.455087	15.735	0.564429	19.4904	0.841399	28.7432	0.159358	6.61472	0.42518	14.2775	0.701717	24.1333	0.902441	30.8141
0.285181	9.42962	0.0317462	0.98996	0.284917	9.64921	0.455422	15.2552	0.564781	18.8947	0.841584	27.8627	0.160726	6.42308	0.425553	13.8565	0.701909	23.3904	0.902608	29.8696
0.285534	9.15913	0.0333089	1.00936	0.285039	9.54577	0.455768	14.8047	0.565143	18.3353	0.841775	27.0352	0.162124	6.24639	0.425938	13.4607	0.702106	22.6924	0.902781	28.9817
0.285898	8.90466	0.0348915	1.02829	0.285118	9.48079	0.456125	14.3811	0.565516	17.8091	0.841973	26.2558	0.163551	6.08302	0.426334	13.0878	0.702309	22.0354	0.902958	28.1456
0.286272	8.66487	0.0364931	1.04675	0.285232	9.38902	0.456491	13.9819	0.5659	17.3132	0.842175	25.5207	0.165007	5.93161	0.426741	12.736	0.702519	21.416	0.903141	27.3568
0.286656	8.43853	0.038113	1.06476	0.285358	9.29137	0.456869	13.6052	0.566295	16.8451	0.842384	24.8261	0.166489	5.79094	0.427159	12.4036	0.702734	20.8309	0.903329	26.6115
0.287051	8.22457	0.0397502	1.08233	0.28553	9.162	0.457256	13.2491	0.5667	16.4026	0.842598	24.1688	0.167997	5.65996	0.427588	12.089	0.702956	20.2774	0.903522	25.9061
0.287456	8.02204	0.041404	1.09946	0.285752	9.00377	0.457653	12.9121	0.567116	15.9836	0.842818	23.5458	0.169529	5.53776	0.428028	11.7909	0.703183	19.7531	0.90372	25.2376
0.287872	7.83005	0.0430736	1.11618	0.286026	8.82005	0.458061	12.5926	0.567543	15.5863	0.843044	22.9547	0.171084	5.42351	0.428479	11.5079	0.703417	19.2557	0.903923	24.6031
0.288297	7.64782	0.0447582	1.1325	0.286354	8.6145	0.458479	12.2893	0.567981	15.2092	0.843276	22.3929	0.172662	5.3165	0.428942	11.2391	0.703656	18.7832	0.904132	24.0002
0.288734	7.47465	0.0464573	1.14842	0.286741	8.39094	0.458908	12.0011	0.568429	14.8507	0.843513	21.8584	0.174261	5.2161	0.429415	10.9834	0.703902	18.3338	0.904346	23.4265
0.28918	7.3099	0.0481702	1.16395	0.287138	8.17955	0.459346	11.7268	0.568887	14.5095	0.843756	21.3492	0.175881	5.12173	0.429899	10.7398	0.704153	17.9058	0.904565	22.8799
0.289637	7.15299	0.0498962	1.17911	0.287546	7.97938	0.459794	11.4655	0.569356	14.1844	0.844005	20.8637	0.177519	5.0329	0.430394	10.5076	0.70441	17.4978	0.904789	22.3587
0.290104	7.00338	0.0516347	1.19391	0.287963	7.78958	0.460253	11.2164	0.569836	13.8743	0.844259	20.4001	0.179177	4.94916	0.430834	10.3139	0.704673	17.1084	0.905018	21.861
0.290582	6.8606	0.0533853	1.20835	0.288392	7.60938	0.460721	10.9785	0.570326	13.5782	0.84452	19.9571	0.180852	4.8701	0.431216	10.1548	0.704943	16.7363	0.905252	21.3854
0.291069	6.72419	0.0551473	1.22245	0.28883	7.4381	0.4612	10.7512	0.570826	13.2952	0.844786	19.5334	0.182544	4.79535	0.431536	10.0272	0.705218	16.3805	0.905492	20.9304
0.291567	6.59377	0.0569202	1.23622	0.289279	7.2751	0.461688	10.5338	0.571337	13.0245	0.845057	19.1276	0.184252	4.72459	0.431792	9.92876	0.705499	16.0399	0.905737	20.4947
0.292075	6.46896	0.0587037	1.24967	0.289738	7.11982	0.462122	10.352	0.571858	12.7652	0.845335	18.7387	0.185976	4.65752	0.431982	9.8577	0.705786	15.7136	0.905987	20.0771
0.292593	6.34941	0.0604972	1.2628	0.290207	6.97174	0.462498	10.2022	0.57239	12.5168	0.845618	18.3656	0.187714	4.59387	0.432104	9.8128	0.706079	15.4007	0.906242	19.6765
0.293121	6.23482	0.0623002	1.27563	0.290687	6.83038	0.462813	10.0819	0.572932	12.2785	0.845906	18.0075	0.189467	4.5334	0.432281	9.74904	0.706378	15.1003	0.906502	19.2919
0.29366	6.12489	0.0641125	1.28816	0.291177	6.69531	0.463065	9.98889	0.573484	12.0497	0.846201	17.6635	0.191234	4.47588	0.432474	9.68075	0.706682	14.8118	0.906767	18.9223
0.294208	6.01935	0.0659335	1.30041	0.291677	6.56614	0.463251	9.9217	0.574046	11.8299	0.846501	17.3326	0.193013	4.42112	0.432739	9.58955	0.706993	14.5345	0.907038	18.567
0.294767	5.91797	0.067763	1.31238	0.292187	6.4425	0.463371	9.87921	0.574618	11.6186	0.846807	17.0143	0.194805	4.36893	0.433078	9.47687	0.70731	14.2677	0.907314	18.225
0.295335	5.82051	0.0696006	1.32407	0.292707	6.32406	0.463545	9.81882	0.575201	11.4154	0.847118	16.7078	0.196608	4.31913	0.433494	9.34443	0.707632	14.0109	0.907594	17.8958
0.295914	5.72676	0.0714459	1.33551	0.293238	6.2105	0.463734	9.75409	0.575794	11.2197	0.847436	16.4125	0.198424	4.27158	0.433988	9.19418	0.707961	13.7635	0.90788	17.5785
0.296502	5.63652	0.0732985	1.34668	0.293778	6.10155	0.463994	9.66754	0.576396	11.0312	0.847758	16.1277	0.20025	4.22613	0.434566	9.02822	0.708295	13.5251	0.908171	17.2725
0.297101	5.5496	0.0751583	1.35761	0.294329	5.99694	0.464327	9.56045	0.577009	10.8494	0.848087	15.853	0.202087	4.18265	0.435154	8.86877	0.708635	13.295	0.908468	16.9773
0.297709	5.46584	0.0770249	1.3683	0.29489	5.89643	0.464733	9.43438	0.577632	10.6741	0.848421	15.5877	0.203933	4.14102	0.435753	8.71548	0.708981	13.073	0.908769	16.6923
0.298328	5.38508	0.078898	1.37876	0.29546	5.7998	0.465217	9.29106	0.578182	10.5264	0.848761	15.3316	0.20579	4.10113	0.436362	8.568	0.709333	12.8586	0.909075	16.417
0.298956	5.30717	0.0807774	1.38899	0.296041	5.70683	0.465781	9.1324	0.578658	10.4039	0.849106	15.0839	0.207656	4.06287	0.436982	8.42602	0.709691	12.6514	0.909387	16.1509
0.299594	5.23196	0.0826628	1.39899	0.296632	5.61732	0.466355	8.97963	0.579055	10.305	0.849457	14.8445	0.20953	4.02616	0.437612	8.28926	0.710055	12.4511	0.909703	15.8935
0.300242	5.15933	0.084554	1.40879	0.297232	5.53111	0.466939	8.83241	0.579372	10.2283	0.849814	14.6128	0.211414	3.9909	0.438252	8.15742	0.710424	12.2573	0.910025	15.6445
0.3009	5.08916	0.0864507	1.41837	0.297843	5.44802	0.467532	8.69048	0.579606	10.1727	0.850176	14.3885	0.213305	3.95701	0.438903	8.03028	0.7108	12.0698	0.910352	15.4034
0.301567	5.02132	0.0883527	1.42775	0.298464	5.36789	0.468135	8.55355	0.579757	10.1374	0.850544	14.1713	0.215205	3.92442	0.439564	7.90757	0.711181	11.8881	0.910684	15.1698
0.302245	4.95572	0.0902599	1.43694	0.299094	5.29057	0.468748	8.42138	0.579974	10.0872	0.850918	13.9608	0.217112	3.89305	0.440235	7.7891	0.711568	11.7122	0.911021	14.9435
0.302932	4.89225	0.092172	1.44593	0.299734	5.21594	0.46937	8.29373	0.580212	10.0333	0.851297	13.7567	0.219026	3.86285	0.440917	7.67465	0.711961	11.5417	0.911363	14.7241
0.303629	4.83082	0.0940888	1.45474	0.300384	5.14385	0.470001	8.17038	0.580537	9.96098	0.851682	13.5588	0.220948	3.83374	0.441609	7.56402	0.712359	11.3763	0.91171	14.5113
0.304244	4.77888	0.09601	1.46336	0.301044	5.0742	0.470642	8.05112	0.580951	9.87116	0.852072	13.3667	0.222876	3.80567	0.442311	7.45704	0.712764	11.2159	0.912062	14.3048
0.304774	4.73572	0.0979358	1.47181	0.301714	5.00686	0.471292	7.93576	0.581457	9.76492	0.852468	13.1803	0.224811	3.7786	0.443023	7.35353	0.713174	11.0602	0.912419	14.1043
0.305217	4.7008	0.0998656	1.48009	0.302394	4.94173	0.471952	7.82412	0.582057	9.64351	0.852869	12.9993	0.226752	3.75246	0.443745	7.25335	0.71359	10.909	0.912782	13.9095
0.305569	4.67365	0.101799	1.4882	0.303083	4.87871	0.47262	7.71603	0.582755	9.5083	0.853276	12.8234	0.228699	3.72721	0.444477	7.15633	0.713958	10.7808	0.913149	13.7203
0.30583	4.65395	0.103737	1.49615	0.303782	4.81771	0.473298	7.61132	0.583463	9.3773	0.853689	12.6524	0.230652	3.70282	0.445219	7.06233	0.714274	10.6741	0.913522	13.5364
0.305998	4.64146	0.105679	1.50395	0.304491	4.75864	0.473986	7.50986	0.58418	9.25031	0.854107	12.4862	0.23261	3.67923	0.44597	6.97123	0.714539	10.5875	0.913899	13.3576
0.306239	4.62365	0.107624	1.51158	0.305209	4.70141	0.474682	7.41148	0.584907	9.12716	0.854531	12.3245	0.234574	3.65641	0.446732	6.88289	0.714749	10.52	0.914282	13.1837
0.306503	4.6045	0.109572	1.51907	0.305937	4.64595	0.475388	7.31607	0.585643	9.00769	0.85496	12.1672	0.236544	3.63433	0.447504	6.79721	0.714905	10.471	0.914669	13.0144
0.306864	4.57879	0.111524	1.52642	0.306675	4.59218	0.476103	7.2235	0.586388	8.89173	0.855395	12.0141	0.238518	3.61294	0.448285	6.71406	0.715005	10.4399	0.915062	12.8497
0.307323	4.54682	0.113479	1.53362	0.307422	4.54003	0.476827	7.13364	0.587143	8.77915	0.855835	11.865	0.240497	3.59222	0.449076	6.63335	0.715149	10.3956	0.915459	12.6892
0.307884	4.50894	0.115438	1.54068	0.30818	4.48944	0.47756	7.04639	0.587907	8.6698	0.856281	11.7198	0.242481	3.57214	0.449877	6.55496	0.715306	10.3478	0.915862	12.533
0.308548	4.46558	0.117146	1.54673	0.308946	4.44034	0.478301	6.96163	0.588681	8.56354	0.856732	11.5784	0.244469	3.55267	0.450687	6.47882	0.715522	10.2836	0.91627	12.3807
0.309319	4.41718	0.118605	1.55181	0.309722	4.39268	0.479052	6.87927	0.589464	8.46027	0.857189	11.4405	0.246462	3.53379	0.451507	6.40482	0.715796	10.2036	0.916682	12.2323
0.3101	4.37018	0.119812	1.55595	0.310508	4.34639	0.479812	6.79921	0.590255	8.35984	0.857651	11.3061	0.248459	3.51546	0.452337	6.33289	0.716131	10.1087	0.9171	12.0876
0.310891	4.32454	0.120767	1.55919	0.311304	4.30143	0.48058	6.72136	0.591056	8.26216	0.858119	11.175	0.25046	3.49766	0.453176	6.26294	0.716528	9.99966	0.917522	11.9464
0.311691	4.2802	0.12147	1.56156	0.312109	4.25774	0.481358	6.64564	0.591867	8.16712	0.858531	11.0634	0.252465	3.48038	0.454024	6.1949	0.716988	9.87765	0.91795	11.8087
0.3125	4.2371	0.12192	1.56306	0.312923	4.21527	0.482144	6.57195	0.592686	8.07461	0.858886	10.9701	0.254474	3.46358	0.454882	6.1287	0.717454	9.75881	0.918383	11.6744
0.313319	4.19521	0.122567	1.56521	0.313747	4.17399	0.482938	6.50024	0.593514	7.98454	0.859181	10.8942	0.256486	3.44726	0.455749	6.06426	0.717926	9.64303	0.91882	11.5432
0.314148	4.15448	0.123271	1.56754	0.314581	4.13384	0.483742	6.43041	0.594351	7.89682	0.859416	10.835	0.258502	3.43138	0.456626	6.00152	0.718404	9.53018	0.919263	11.4152
0.314986	4.11487	0.124228	1.57068	0.315424	4.09478	0.484554	6.36241	0.595197	7.81137	0.85959	10.792	0.260522	3.41594	0.457512	5.94042	0.718887	9.42016	0.91971	11.2901
0.315834	4.07632	0.12544	1.5746	0.316276	4.05678	0.485375	6.29616	0.596052	7.72809	0.859702	10.7646	0.262544	3.40092	0.458407	5.8809	0.719377	9.31288	0.920104	11.1835
0.316691	4.03882	0.126907	1.57929	0.317139	4.0198	0.486204	6.2316	0.596915	7.64691	0.859862	10.7255	0.26457	3.38629	0.459311	5.8229	0.719871	9.20822	0.920443	11.0943
0.317558	4.00232	0.128629	1.58471	0.31801	3.9838	0.487041	6.16867	0.597787	7.56776	0.860038	10.6833	0.266599	3.37205	0.460225	5.76637	0.720372	9.10609	0.920725	11.0217
0.318434	3.96678	0.130607	1.59083	0.318891	3.94875	0.487888	6.10732	0.598668	7.49056	0.860278	10.6266	0.268631	3.35818	0.461147	5.71126	0.720878	9.00642	0.92095	10.9649
0.31932	3.93218	0.132588	1.59683	0.319782	3.91462	0.488742	6.04749	0.599558	7.41525	0.860583	10.5557	0.270666	3.34466	0.462079	5.65752	0.72139	8.90911	0.921116	10.9236
0.320215	3.89847	0.134571	1.60273	0.320682	3.88137	0.489605	5.98912	0.600456	7.34176	0.860954	10.4714	0.272704	3.33149	0.463019	5.60509	0.721908	8.81409	0.921222	10.8974
0.32112	3.86564	0.136556	1.60852	0.321592	3.84898	0.490476	5.93217	0.601363	7.27003	0.861394	10.3743	0.274744	3.31864	0.463969	5.55395	0.722431	8.72126	0.921376	10.8599
0.322034	3.83365	0.138542	1.61421	0.322511	3.81741	0.491356	5.87659	0.602279	7.2	0.861904	10.2652	0.276788	3.30611	0.464927	5.50403	0.722959	8.63058	0.921543	10.8194
0.322958	3.80247	0.140531	1.61979	0.32344	3.78664	0.492243	5.82232	0.603202	7.13161	0.862419	10.1586	0.278833	3.29389	0.465895	5.45531	0.723494	8.54195	0.921772	10.7649
0.323891	3.77208	0.142522	1.62528	0.324378	3.75665	0.493139	5.76934	0.604135	7.06481	0.862939	10.0544	0.280881	3.28196	0.466871	5.40775	0.724034	8.45532	0.922063	10.6968
0.324834	3.74245	0.144514	1.63068	0.325326	3.72741	0.494043	5.7176	0.605075	6.99955	0.863465	9.95251	0.282932	3.27032	0.467855	5.3613	0.72458	8.37061	0.922417	10.6157
0.325786	3.71356	0.146508	1.63598	0.326283	3.69889	0.494956	5.66705	0.606024	6.93577	0.863997	9.85283	0.284984	3.25895	0.468849	5.31593	0.725131	8.28778	0.922836	10.5222
0.326748	3.68539	0.148504	1.64119	0.32725	3.67108	0.495876	5.61765	0.606981	6.87343	0.864533	9.7553	0.287039	3.24785	0.469851	5.2716	0.725688	8.20675	0.923321	10.4171
0.32772	3.65791	0.150502	1.64632	0.328226	3.64395	0.496804	5.56938	0.607946	6.81249	0.865075	9.65986	0.289096	3.237	0.470862	5.22829	0.72625	8.12748	0.923812	10.3142
0.328701	3.6311	0.152501	1.65135	0.329213	3.61748	0.49774	5.5222	0.60892	6.75289	0.865623	9.56645	0.291156	3.2264	0.471882	5.18596	0.726818	8.0499	0.924307	10.2135
0.329692	3.60494	0.154501	1.65631	0.330209	3.59165	0.498684	5.47607	0.609901	6.69461	0.866176	9.47499	0.293217	3.21603	0.47291	5.14458	0.727392	7.97397	0.924807	10.1148
0.330692	3.57942	0.156503	1.66117	0.331214	3.56645	0.499636	5.43096	0.610891	6.63759	0.866734	9.38545	0.29528	3.2059	0.473946	5.10412	0.727971	7.89964	0.925312	10.0183
0.331703	3.55451	0.158506	1.66596	0.33223	3.54185	0.500595	5.38684	0.611888	6.5818	0.867297	9.29774	0.297345	3.19599	0.474991	5.06456	0.728556	7.82685	0.925822	9.9237
0.332723	3.53019	0.160511	1.67067	0.333255	3.51784	0.501563	5.34367	0.612894	6.5272	0.867866	9.21183	0.299412	3.1863	0.476044	5.02586	0.729146	7.75557	0.926337	9.83104
0.333753	3.50646	0.162517	1.6753	0.33429	3.49439	0.502538	5.30144	0.613908	6.47376	0.86844	9.12766	0.30148	3.17681	0.477106	4.98801	0.729742	7.68574	0.926856	9.74024
0.334792	3.48328	0.164524	1.67986	0.335334	3.4715	0.503521	5.26011	0.614929	6.42144	0.869019	9.04517	0.303551	3.16753	0.478176	4.95097	0.730344	7.61732	0.927381	9.65126
0.335842	3.46066	0.166532	1.68434	0.336389	3.44916	0.504511	5.21965	0.615958	6.37021	0.869604	8.96433	0.305623	3.15844	0.479254	4.91472	0.73095	7.55029	0.92791	9.56403
0.336901	3.43856	0.168542	1.68876	0.337454	3.42733	0.505509	5.18004	0.616995	6.32004	0.870194	8.88507	0.307696	3.14955	0.48034	4.87924	0.731563	7.48458	0.928445	9.47851
0.337971	3.41699	0.170553	1.6931	0.338529	3.40602	0.506515	5.14126	0.618039	6.27089	0.870789	8.80736	0.309771	3.14083	0.481435	4.84451	0.732181	7.42017	0.928984	9.39466
0.339051	3.39592	0.172564	1.69737	0.339614	3.3852	0.507528	5.10328	0.619092	6.22274	0.871389	8.73116	0.311848	3.1323	0.482538	4.81051	0.732804	7.35702	0.929527	9.31241
0.34014	3.37533	0.174577	1.70157	0.340709	3.36487	0.508549	5.06608	0.620152	6.17556	0.871995	8.65642	0.313925	3.12393	0.483648	4.77721	0.733433	7.2951	0.930076	9.23174
0.341241	3.35523	0.176591	1.70571	0.341814	3.345	0.509577	5.02964	0.621219	6.12932	0.872606	8.5831	0.316005	3.11574	0.484767	4.7446	0.734067	7.23437	0.930629	9.15259
0.342351	3.33559	0.178605	1.70978	0.34293	3.3256	0.510612	4.99394	0.622294	6.084	0.873222	8.51116	0.318085	3.1077	0.485894	4.71265	0.734707	7.17479	0.931188	9.07493
0.343472	3.3164	0.180621	1.71379	0.344056	3.30665	0.511655	4.95895	0.623376	6.03957	0.873844	8.44057	0.320167	3.09983	0.487029	4.68135	0.735352	7.11635	0.931751	8.99871
0.344603	3.29766	0.182637	1.71774	0.345193	3.28813	0.512704	4.92465	0.624466	5.996	0.87447	8.37128	0.32225	3.0921	0.488171	4.65069	0.736003	7.059	0.932319	8.92389
0.345745	3.27935	0.184655	1.72163	0.34634	3.27004	0.513761	4.89104	0.625563	5.95328	0.875102	8.30327	0.324335	3.08453	0.489322	4.62063	0.736659	7.00271	0.932891	8.85045
0.346897	3.26146	0.186673	1.72545	0.347498	3.25236	0.514826	4.85808	0.626668	5.91138	0.875739	8.2365	0.32642	3.0771	0.49048	4.59118	0.73732	6.94747	0.933468	8.77833
0.348061	3.24398	0.188692	1.72922	0.348667	3.23509	0.515897	4.82576	0.62778	5.87027	0.876381	8.17094	0.328507	3.0698	0.491646	4.5623	0.737987	6.89324	0.934051	8.70751
0.349235	3.22691	0.190712	1.73294	0.349847	3.21822	0.516975	4.79407	0.628899	5.82994	0.877029	8.10656	0.330594	3.06265	0.49282	4.534	0.73866	6.83999	0.934637	8.63796
0.350421	3.21022	0.192732	1.73659	0.351039	3.20174	0.518061	4.76298	0.630025	5.79037	0.877681	8.04333	0.332683	3.05562	0.494001	4.50624	0.739337	6.7877	0.935229	8.56964
0.351617	3.19393	0.194753	1.7402	0.352241	3.18564	0.519153	4.73249	0.631158	5.75154	0.878339	7.98121	0.334772	3.04872	0.49519	4.47902	0.74002	6.73636	0.935826	8.50251
0.352825	3.178	0.196775	1.74375	0.353455	3.16991	0.520253	4.70257	0.632298	5.71342	0.879002	7.92018	0.336863	3.04195	0.496387	4.45232	0.740709	6.68592	0.936427	8.43656
0.354045	3.16245	0.198797	1.74724	0.354681	3.15454	0.521359	4.67321	0.633446	5.676	0.87967	7.86021	0.338954	3.0353	0.497591	4.42614	0.741402	6.63637	0.937032	8.37175
0.355276	3.14726	0.200821	1.75069	0.355918	3.13953	0.522472	4.64441	0.6346	5.63927	0.880343	7.80128	0.341046	3.02877	0.498803	4.40044	0.742102	6.58769	0.937643	8.30804
0.35652	3.13242	0.202844	1.75408	0.357168	3.12487	0.523592	4.61613	0.635761	5.6032	0.881021	7.74336	0.34314	3.02235	0.500022	4.37524	0.742806	6.53985	0.938258	8.24543
0.357775	3.11792	0.204869	1.75743	0.358429	3.11055	0.524719	4.58837	0.63693	5.56777	0.881704	7.68642	0.345233	3.01604	0.501249	4.3505	0.743516	6.49284	0.938878	8.18387
0.359042	3.10377	0.206893	1.76073	0.359703	3.09657	0.525853	4.56113	0.638104	5.53298	0.882393	7.63044	0.347328	3.00984	0.502482	4.32623	0.744231	6.44663	0.939503	8.12334
0.360322	3.08995	0.208919	1.76397	0.36099	3.08292	0.526993	4.53437	0.639286	5.49881	0.883086	7.57541	0.349423	3.00375	0.503724	4.3024	0.744951	6.40121	0.940132	8.06382
0.361615	3.07645	0.210945	1.76718	0.36229	3.06959	0.52814	4.5081	0.640475	5.46523	0.883785	7.52129	0.351519	2.99775	0.504972	4.27902	0.745677	6.35656	0.940766	8.00528
0.362921	3.06328	0.212971	1.77034	0.363602	3.05658	0.529293	4.4823	0.64167	5.43224	0.884488	7.46806	0.353616	2.99186	0.506228	4.25606	0.746408	6.31265	0.941404	7.94771
0.36424	3.05042	0.214998	1.77345	0.364928	3.04389	0.530453	4.45696	0.642872	5.39982	0.885197	7.41571	0.355713	2.98607	0.507491	4.23351	0.747144	6.26948	0.942048	7.89107
0.365572	3.03788	0.217025	1.77652	0.366267	3.0315	0.531619	4.43206	0.64408	5.36797	0.885911	7.36421	0.357811	2.98037	0.508761	4.21138	0.747886	6.22702	0.942696	7.83534
0.366918	3.02564	0.219053	1.77954	0.36762	3.01942	0.532792	4.4076	0.645295	5.33665	0.88663	7.31354	0.35991	2.97476	0.510039	4.18964	0.748632	6.18525	0.943348	7.78052
0.368278	3.0137	0.221081	1.78253	0.368987	3.00763	0.533971	4.38357	0.646517	5.30587	0.887353	7.26369	0.362008	2.96924	0.511323	4.16829	0.749384	6.14417	0.944005	7.72656
0.369652	3.00205	0.223109	1.78547	0.370369	2.99614	0.535157	4.35996	0.647745	5.27561	0.888082	7.21463	0.364108	2.96381	0.512614	4.14732	0.750141	6.10375	0.944667	7.67346
0.371041	2.9907	0.225138	1.78837	0.371765	2.98494	0.536349	4.33675	0.648979	5.24586	0.888816	7.16635	0.366208	2.95847	0.513913	4.12671	0.750904	6.06398	0.945333	7.6212
0.372444	2.97964	0.227167	1.79124	0.373177	2.97402	0.537547	4.31394	0.65022	5.2166	0.889555	7.11883	0.368308	2.95321	0.515218	4.10647	0.751671	6.02485	0.946004	7.56975
0.373863	2.96886	0.229197	1.79406	0.374603	2.96339	0.538752	4.29152	0.651467	5.18783	0.890298	7.07205	0.370409	2.94803	0.516531	4.08659	0.752444	5.98634	0.94668	7.5191
0.375297	2.95836	0.231227	1.79684	0.376045	2.95303	0.539963	4.26948	0.65272	5.15953	0.891047	7.026	0.37251	2.94293	0.51785	4.06705	0.753222	5.94844	0.94736	7.46923
0.376746	2.94813	0.233257	1.79959	0.377503	2.94295	0.541179	4.24781	0.65398	5.13169	0.8918	6.98066	0.374611	2.93791	0.519176	4.04784	0.754005	5.91113	0.948045	7.42012
0.378212	2.93818	0.235287	1.8023	0.378977	2.93313	0.542402	4.2265	0.655245	5.1043	0.892559	6.93601	0.376713	2.93296	0.520509	4.02897	0.754793	5.8744	0.948734	7.37176
0.379694	2.9285	0.237318	1.80497	0.380468	2.92359	0.543631	4.20554	0.656517	5.07736	0.893323	6.89204	0.378815	2.92809	0.521848	4.01041	0.755587	5.83824	0.949428	7.32413
0.381193	2.91908	0.239349	1.80761	0.381976	2.91431	0.544867	4.18493	0.657795	5.05085	0.894091	6.84874	0.380917	2.92328	0.523195	3.99218	0.756385	5.80264	0.950126	7.27721
0.382709	2.90993	0.24138	1.81021	0.383501	2.90529	0.546108	4.16466	0.659079	5.02476	0.894864	6.80609	0.38302	2.91855	0.524548	3.97425	0.757189	5.76758	0.950829	7.23099
0.384242	2.90104	0.243412	1.81278	0.385043	2.89653	0.547355	4.14472	0.660369	4.99909	0.895642	6.76408	0.385123	2.91389	0.525908	3.95662	0.757998	5.73305	0.951536	7.18546
0.385793	2.8924	0.245443	1.81532	0.386603	2.88803	0.548608	4.12511	0.661665	4.97382	0.896426	6.72269	0.387226	2.90929	0.527274	3.93929	0.758812	5.69905	0.952248	7.1406
0.387362	2.88402	0.247475	1.81782	0.388181	2.87977	0.549866	4.10581	0.662967	4.94894	0.897214	6.68191	0.389329	2.90476	0.528647	3.92224	0.759631	5.66556	0.952965	7.09639
0.388949	2.87588	0.249507	1.82029	0.389778	2.87177	0.551131	4.08682	0.664275	4.92446	0.898006	6.64173	0.391432	2.90029	0.530026	3.90548	0.760455	5.63256	0.953686	7.05283
0.390555	2.868	0.25154	1.82273	0.391393	2.86401	0.552401	4.06813	0.665588	4.90035	0.898804	6.60214	0.393535	2.89588	0.531412	3.88899	0.761284	5.60006	0.954411	7.00989
0.392179	2.86036	0.253572	1.82513	0.393027	2.85649	0.553678	4.04975	0.666908	4.87661	0.899607	6.56312	0.395639	2.89153	0.532805	3.87278	0.762118	5.56803	0.955141	6.96757
0.393823	2.85295	0.255605	1.8275	0.394681	2.84922	0.554959	4.03165	0.668233	4.85324	0.900414	6.52466	0.397742	2.88725	0.534204	3.85683	0.762957	5.53648	0.955875	6.92586
0.395485	2.84579	0.257637	1.82985	0.396353	2.84217	0.556247	4.01383	0.669564	4.83022	0.901226	6.48675	0.399846	2.88302	0.535609	3.84114	0.763802	5.50538	0.956614	6.88473
0.397167	2.83886	0.25967	1.83216	0.398045	2.83536	0.55754	3.9963	0.6709	4.80754	0.902043	6.44938	0.401949	2.87885	0.537021	3.8257	0.764651	5.47474	0.957357	6.84419
0.398868	2.83216	0.261703	1.83445	0.399757	2.82878	0.558839	3.97903	0.672242	4.78521	0.902865	6.41254	0.404053	2.87473	0.538439	3.81051	0.765505	5.44454	0.958105	6.80421
0.400589	2.82569	0.263736	1.8367	0.401488	2.82243	0.560143	3.96204	0.67359	4.76322	0.903691	6.37621	0.406156	2.87067	0.539863	3.79556	0.766365	5.41477	0.958857	6.7648
0.40233	2.81944	0.265769	1.83893	0.403239	2.81629	0.561453	3.9453	0.674943	4.74155	0.904523	6.3404	0.40826	2.86666	0.541294	3.78085	0.767229	5.38542	0.959614	6.72592
0.404091	2.81341	0.267803	1.84113	0.40501	2.81037	0.562768	3.92882	0.676302	4.7202	0.905359	6.30508	0.410363	2.8627	0.542731	3.76638	0.768098	5.35649	0.960375	6.68758
0.405871	2.80759	0.269836	1.8433	0.406801	2.80466	0.564088	3.91259	0.677666	4.69916	0.9062	6.27025	0.412466	2.85879	0.544174	3.75213	0.768972	5.32797	0.96114	6.64977
0.407672	2.80199	0.271869	1.84545	0.408611	2.79916	0.565414	3.89661	0.679035	4.67843	0.907045	6.2359	0.41457	2.85493	0.545623	3.73811	0.769852	5.29985	0.96191	6.61247
0.409491	2.79659	0.273903	1.84757	0.410441	2.79387	0.566746	3.88086	0.68041	4.658	0.907896	6.20202	0.416673	2.85112	0.547078	3.72431	0.770736	5.27212	0.962684	6.57568
0.411331	2.79139	0.275936	1.84966	0.412291	2.78877	0.568083	3.86536	0.68179	4.63787	0.908751	6.1686	0.418775	2.84736	0.548539	3.71072	0.771625	5.24478	0.963462	6.53938
0.41319	2.78638	0.27797	1.85173	0.414159	2.78387	0.569425	3.85008	0.683176	4.61803	0.90961	6.13564	0.420878	2.84364	0.550007	3.69735	0.772519	5.21781	0.964245	6.50356
0.415068	2.78157	0.280004	1.85377	0.416047	2.77915	0.570772	3.83503	0.684567	4.59847	0.910475	6.10311	0.422981	2.83997	0.55148	3.68418	0.773418	5.19121	0.965032	6.46823
0.416965	2.77695	0.282037	1.85579	0.417954	2.77462	0.572124	3.8202	0.685963	4.57919	0.911344	6.07102	0.425083	2.83634	0.55296	3.67121	0.774321	5.16498	0.965824	6.43336
0.41888	2.7725	0.284071	1.85778	0.419879	2.77027	0.573482	3.80559	0.687364	4.56018	0.912218	6.03936	0.427185	2.83276	0.554445	3.65844	0.77523	5.1391	0.966619	6.39895
0.420814	2.76823	0.286105	1.85975	0.421823	2.76609	0.574844	3.79119	0.68877	4.54143	0.913096	6.00811	0.429287	2.82921	0.555937	3.64587	0.776144	5.11358	0.96742	6.36499
0.422767	2.76413	0.288138	1.86169	0.423784	2.76207	0.576212	3.77701	0.690181	4.52295	0.913979	5.97728	0.431388	2.82571	0.557434	3.63349	0.777062	5.08839	0.968224	6.33147
0.424736	2.7602	0.290172	1.86361	0.425763	2.75822	0.577585	3.76302	0.691598	4.50473	0.914867	5.94685	0.433489	2.82225	0.558937	3.62129	0.777985	5.06354	0.969033	6.29838
0.426723	2.75642	0.292206	1.86551	0.427759	2.75453	0.578963	3.74924	0.693019	4.48676	0.915759	5.91682	0.43559	2.81883	0.560446	3.60928	0.778913	5.03903	0.969846	6.26572
0.428727	2.7528	0.294239	1.86739	0.429771	2.75098	0.580345	3.73566	0.694445	4.46904	0.916656	5.88717	0.437691	2.81545	0.561961	3.59745	0.779846	5.01484	0.970663	6.23348
0.430748	2.74932	0.296273	1.86924	0.4318	2.74758	0.581733	3.72227	0.695877	4.45156	0.917558	5.85791	0.439791	2.81211	0.563481	3.5858	0.780784	4.99096	0.971485	6.20165
0.432784	2.74599	0.298307	1.87107	0.433844	2.74432	0.583126	3.70907	0.697313	4.43432	0.918464	5.82903	0.441891	2.8088	0.565007	3.57432	0.781726	4.9674	0.972311	6.17023
0.434836	2.74279	0.30034	1.87288	0.435904	2.74119	0.584523	3.69605	0.698754	4.41731	0.919375	5.80051	0.44399	2.80553	0.566539	3.56301	0.782673	4.94415	0.973141	6.1392
0.436903	2.73973	0.302374	1.87467	0.437978	2.73819	0.585926	3.68322	0.7002	4.40053	0.92029	5.77235	0.446089	2.80229	0.568077	3.55187	0.783626	4.9212	0.973975	6.10856
0.438984	2.73679	0.304407	1.87644	0.440067	2.73532	0.587333	3.67057	0.70165	4.38398	0.92121	5.74455	0.448188	2.79909	0.56962	3.54089	0.784582	4.89855	0.974814	6.0783
0.441079	2.73397	0.306441	1.87819	0.442169	2.73256	0.588745	3.65809	0.703106	4.36765	0.922134	5.7171	0.450286	2.79593	0.571169	3.53007	0.785544	4.87619	0.975656	6.04841
0.443188	2.73127	0.308474	1.87992	0.444285	2.72992	0.590161	3.64579	0.704566	4.35153	0.923063	5.68999	0.452384	2.7928	0.572724	3.51941	0.78651	4.85411	0.976503	6.0189
0.44531	2.72868	0.310507	1.88162	0.446413	2.72738	0.591583	3.63365	0.706031	4.33563	0.923997	5.66322	0.454481	2.7897	0.574284	3.50891	0.787481	4.83232	0.977355	5.98975
0.447444	2.7262	0.312541	1.88331	0.448554	2.72495	0.593009	3.62169	0.7075	4.31994	0.924935	5.63678	0.456578	2.78663	0.575849	3.49856	0.788457	4.8108	0.97821	5.96095
0.449591	2.72381	0.314574	1.88498	0.450707	2.72262	0.594439	3.60988	0.708974	4.30445	0.925877	5.61067	0.458674	2.7836	0.57742	3.48836	0.789437	4.78956	0.979069	5.93251
0.451749	2.72153	0.316607	1.88663	0.452871	2.72038	0.595875	3.59824	0.710452	4.28916	0.926824	5.58487	0.460769	2.78059	0.578997	3.47831	0.790423	4.76858	0.979933	5.90441
0.453918	2.71933	0.31864	1.88826	0.455045	2.71823	0.597314	3.58676	0.711935	4.27408	0.927775	5.55939	0.462865	2.77762	0.580579	3.4684	0.791412	4.74786	0.980801	5.87665
0.456098	2.71722	0.320673	1.88987	0.457231	2.71617	0.598759	3.57543	0.713423	4.25918	0.928731	5.53422	0.464959	2.77468	0.582166	3.45863	0.792407	4.72741	0.981673	5.84922
0.458288	2.7152	0.322706	1.89147	0.459426	2.71419	0.600208	3.56425	0.714915	4.24448	0.929692	5.50936	0.467053	2.77176	0.583759	3.449	0.793406	4.7072	0.982549	5.82212
0.460488	2.71326	0.324738	1.89304	0.461631	2.71228	0.601661	3.55322	0.716411	4.22997	0.930656	5.48479	0.469146	2.76887	0.585357	3.43951	0.79441	4.68725	0.983429	5.79534
0.462698	2.71139	0.326771	1.8946	0.463845	2.71045	0.603119	3.54234	0.717912	4.21564	0.931626	5.46052	0.471239	2.76602	0.586961	3.43015	0.795418	4.66754	0.984314	5.76888
0.464916	2.7096	0.328804	1.89614	0.466068	2.7087	0.604581	3.5316	0.719417	4.20149	0.932599	5.43654	0.473331	2.76318	0.58857	3.42093	0.796431	4.64807	0.985202	5.74273
0.467143	2.70787	0.330836	1.89767	0.468299	2.70701	0.606048	3.521	0.720927	4.18752	0.933577	5.41284	0.475423	2.76038	0.590184	3.41184	0.797449	4.62884	0.986095	5.71688
0.469378	2.70621	0.332868	1.89918	0.470538	2.70538	0.607518	3.51055	0.72244	4.17372	0.93456	5.38943	0.477514	2.7576	0.591803	3.40287	0.798471	4.60985	0.986991	5.69134
0.471621	2.70462	0.3349	1.90067	0.472785	2.70381	0.608994	3.50023	0.723958	4.1601	0.935547	5.36628	0.479604	2.75485	0.593427	3.39403	0.799498	4.59108	0.987892	5.66609
0.473872	2.70308	0.336932	1.90214	0.47504	2.70231	0.610473	3.49004	0.725481	4.14665	0.936538	5.34341	0.481693	2.75212	0.595057	3.38531	0.800529	4.57254	0.988797	5.64114
0.476129	2.7016	0.338964	1.9036	0.477301	2.70086	0.611957	3.47999	0.727007	4.13336	0.937533	5.32081	0.483782	2.74942	0.596692	3.37671	0.801565	4.55422	0.989705	5.61647
0.478394	2.70018	0.340996	1.90504	0.479569	2.69946	0.613445	3.47006	0.728537	4.12024	0.938533	5.29847	0.48587	2.74675	0.598332	3.36823	0.802606	4.53612	0.990618	5.59208
0.480665	2.6988	0.343028	1.90647	0.481843	2.69811	0.614937	3.46027	0.730072	4.10727	0.939537	5.27638	0.487958	2.74409	0.599977	3.35987	0.803651	4.51823	0.991535	5.56797
0.482942	2.69748	0.345059	1.90788	0.484124	2.69681	0.616433	3.4506	0.731611	4.09447	0.940546	5.25455	0.490044	2.74146	0.601628	3.35163	0.804701	4.50056	0.992456	5.54414
0.485226	2.6962	0.34709	1.90928	0.48641	2.69556	0.617934	3.44105	0.733153	4.08182	0.941559	5.23297	0.49213	2.73886	0.603283	3.34349	0.805755	4.48309	0.993381	5.52057
0.487515	2.69497	0.349121	1.91066	0.488702	2.69435	0.619438	3.43162	0.7347	4.06932	0.942576	5.21164	0.494215	2.73627	0.604943	3.33547	0.806813	4.46583	0.994309	5.49727
0.489809	2.69378	0.351152	1.91202	0.490999	2.69318	0.620947	3.42232	0.736251	4.05698	0.943597	5.19055	0.4963	2.73371	0.606608	3.32756	0.807876	4.44878	0.995242	5.47423
0.492109	2.69263	0.353183	1.91337	0.493301	2.69205	0.622459	3.41313	0.737806	4.04478	0.944623	5.1697	0.498383	2.73117	0.608279	3.31976	0.808944	4.43192	0.996179	5.45144
0.494413	2.69152	0.355214	1.91471	0.495608	2.69096	0.623976	3.40405	0.739364	4.03272	0.945653	5.14908	0.500466	2.72865	0.609954	3.31206	0.810016	4.41525	0.99712	5.42891
0.496723	2.69044	0.357244	1.91603	0.49792	2.6899	0.625497	3.39509	0.740927	4.02081	0.946687	5.12869	0.502548	2.72616	0.611634	3.30446	0.811093	4.39878	0.998065	5.40663
0.499037	2.6894	0.359275	1.91734	0.500236	2.68888	0.627022	3.38624	0.742493	4.00904	0.947726	5.10853	0.504629	2.72368	0.613319	3.29697	0.812174	4.3825	0.999013	5.38459
0.501355	2.6884	0.361305	1.91864	0.502557	2.68789	0.62855	3.37751	0.744063	3.99741	0.948769	5.0886	0.506709	2.72122	0.615009	3.28958	0.813259	4.3664	0.999966	5.36279
0.503677	2.68742	0.363335	1.91992	0.504881	2.68693	0.630083	3.36887	0.745637	3.98592	0.949815	5.06888	0.508789	2.71879	0.616704	3.28229	0.814349	4.35049	1.00092	5.34124
0.506003	2.68648	0.365365	1.92118	0.507209	2.686	0.631619	3.36035	0.747215	3.97455	0.950867	5.04939	0.510867	2.71637	0.618403	3.27509	0.815443	4.33476		
0.508334	2.68557	0.367394	1.92244	0.509541	2.68511	0.633159	3.35193	0.748796	3.96332	0.951922	5.0301	0.512945	2.71397	0.620108	3.26799	0.816542	4.31921		
0.510667	2.68468	0.369424	1.92368	0.511877	2.68423	0.634703	3.34361	0.750381	3.95222	0.952982	5.01103	0.515022	2.71159	0.621817	3.26099	0.817645	4.30384		
0.513004	2.68382	0.371453	1.92491	0.514215	2.68339	0.636251	3.33539	0.75197	3.94125	0.954045	4.99217	0.517097	2.70923	0.623531	3.25408	0.818752	4.28863		
0.515345	2.68299	0.373482	1.92612	0.516557	2.68257	0.637803	3.32728	0.753563	3.93041	0.955113	4.97351	0.519172	2.70689	0.625249	3.24726	0.819864	4.2736		
0.517688	2.68218	0.375511	1.92733	0.518903	2.68177	0.639358	3.31926	0.755159	3.91968	0.956185	4.95505	0.521246	2.70457	0.626973	3.24053	0.82098	4.25873		
0.520035	2.68139	0.37754	1.92852	0.521251	2.681	0.640917	3.31134	0.756758	3.90908	0.957261	4.93679	0.52332	2.70226	0.628701	3.23389	0.8221	4.24403		
0.522384	2.68063	0.379569	1.9297	0.523601	2.68024	0.64248	3.30351	0.758361	3.8986	0.958342	4.91873	0.525392	2.69997	0.630433	3.22733	0.823225	4.2295		
0.524736	2.67989	0.381597	1.93086	0.525955	2.67951	0.644047	3.29577	0.759968	3.88824	0.959426	4.90086	0.527463	2.6977	0.63217	3.22086	0.824354	4.21512		
0.527091	2.67917	0.383625	1.93202	0.528311	2.6788	0.645617	3.28813	0.761578	3.87799	0.960515	4.88318	0.529534	2.69544	0.633912	3.21448	0.825488	4.2009		
0.529448	2.67846	0.385653	1.93316	0.53067	2.67811	0.64719	3.28058	0.763192	3.86786	0.961607	4.86569	0.531603	2.69321	0.635659	3.20818	0.826625	4.18684		
0.531808	2.67778	0.387681	1.93429	0.533031	2.67743	0.648768	3.27312	0.764809	3.85783	0.962704	4.84838	0.533671	2.69098	0.637409	3.20196	0.827767	4.17293		
0.53417	2.67711	0.389708	1.93541	0.535394	2.67678	0.650349	3.26574	0.76643	3.84793	0.963805	4.83126	0.535739	2.68878	0.639165	3.19582	0.828913	4.15918		
0.536534	2.67646	0.391736	1.93652	0.537759	2.67614	0.651933	3.25846	0.768054	3.83812	0.96491	4.81431	0.537805	2.68658	0.640925	3.18976	0.830064	4.14557		
0.538901	2.67583	0.393763	1.93761	0.540126	2.67551	0.653521	3.25125	0.769681	3.82843	0.966019	4.79754	0.539871	2.68441	0.642689	3.18377	0.831219	4.13211		
0.541269	2.67522	0.39579	1.9387	0.542496	2.6749	0.655113	3.24413	0.771311	3.81884	0.967132	4.78095	0.541935	2.68225	0.644458	3.17787	0.832378	4.1188		
0.543639	2.67461	0.397816	1.93977	0.544867	2.67431	0.656708	3.2371	0.772945	3.80936	0.968249	4.76452	0.543999	2.6801	0.646231	3.17204	0.833541	4.10562		
0.546011	2.67403	0.399843	1.94084	0.54724	2.67373	0.658307	3.23014	0.774582	3.79998	0.96937	4.74827	0.546061	2.67797	0.648008	3.16628	0.834708	4.09259		
0.548385	2.67345	0.401869	1.94189	0.549615	2.67316	0.659908	3.22327	0.776223	3.7907	0.970495	4.73219	0.548122	2.67585	0.64979	3.1606	0.83588	4.0797		
0.550761	2.67289	0.403895	1.94293	0.551991	2.67261	0.661514	3.21647	0.777866	3.78152	0.971624	4.71627	0.550183	2.67375	0.651577	3.15499	0.837056	4.06695		
0.553138	2.67235	0.405921	1.94397	0.554369	2.67207	0.663123	3.20975	0.779513	3.77244	0.972757	4.70051	0.552242	2.67166	0.653367	3.14946	0.838236	4.05433		
0.555516	2.67181	0.407946	1.94499	0.556748	2.67154	0.664735	3.20311	0.781163	3.76346	0.973894	4.68491	0.5543	2.66959	0.655162	3.14399	0.83942	4.04184		
0.557896	2.67129	0.409972	1.946	0.559129	2.67102	0.66635	3.19654	0.782816	3.75457	0.975035	4.66947	0.556358	2.66753	0.656961	3.13859	0.840609	4.02949		
0.560278	2.67078	0.411997	1.947	0.561511	2.67052	0.667969	3.19005	0.784472	3.74577	0.97618	4.65419	0.558414	2.66548	0.658764	3.13326	0.841801	4.01726		
0.562661	2.67028	0.414022	1.94799	0.563895	2.67002	0.669591	3.18363	0.786132	3.73707	0.977328	4.63906	0.560469	2.66344	0.660572	3.12799	0.842998	4.00516		
0.565045	2.66979	0.416047	1.94898	0.56628	2.66954	0.671217	3.17729	0.787794	3.72846	0.978481	4.62408	0.562523	2.66142	0.662383	3.12279	0.844198	3.99319		
0.56743	2.66931	0.418071	1.94995	0.568665	2.66906	0.672846	3.17101	0.789459	3.71994	0.979638	4.60925	0.564576	2.65941	0.664199	3.11766	0.845403	3.98134		
0.569817	2.66884	0.420095	1.95091	0.571053	2.6686	0.674478	3.16481	0.791128	3.71151	0.980799	4.59457	0.566628	2.65741	0.666019	3.11259	0.846612	3.96962		
0.572204	2.66838	0.422119	1.95187	0.573441	2.66814	0.676113	3.15867	0.792799	3.70316	0.981963	4.58004	0.568679	2.65543	0.667843	3.10758	0.847825	3.95802		
0.574593	2.66792	0.424143	1.95281	0.57583	2.66769	0.677752	3.1526	0.794473	3.6949	0.983131	4.56564	0.570729	2.65346	0.669671	3.10264	0.849043	3.94653		
0.576983	2.66748	0.426167	1.95375	0.57822	2.66725	0.679393	3.1466	0.796151	3.68673	0.984304	4.5514	0.572778	2.6515	0.671503	3.09775	0.850264	3.93517		
0.579373	2.66704	0.42819	1.95468	0.580611	2.66682	0.681038	3.14067	0.797831	3.67864	0.98548	4.53729	0.574826	2.64955	0.673339	3.09293	0.851489	3.92392		
0.581765	2.66661	0.430213	1.95559	0.583003	2.6664	0.682686	3.1348	0.799514	3.67063	0.98666	4.52332	0.576872	2.64761	0.675179	3.08817	0.852718	3.91279		
0.584157	2.66619	0.432236	1.9565	0.585396	2.66598	0.684338	3.129	0.8012	3.6627	0.987844	4.50948	0.578918	2.64569	0.677024	3.08346	0.853952	3.90176		
0.58655	2.66578	0.434258	1.9574	0.587789	2.66557	0.685992	3.12326	0.802889	3.65486	0.989031	4.49578	0.580962	2.64377	0.678872	3.07881	0.855189	3.89085		
0.588944	2.66538	0.436281	1.95829	0.590184	2.66517	0.687649	3.11758	0.80458	3.64709	0.990223	4.48222	0.583006	2.64187	0.680723	3.07422	0.856431	3.88006		
0.591339	2.66498	0.438303	1.95918	0.592579	2.66477	0.68931	3.11196	0.806275	3.6394	0.991418	4.46878	0.585048	2.63998	0.682579	3.06969	0.857676	3.86937		
0.593734	2.66458	0.440325	1.96005	0.594975	2.66438	0.690974	3.10641	0.807972	3.63178	0.992617	4.45547	0.587089	2.6381	0.684439	3.06521	0.858926	3.85878		
0.59613	2.6642	0.442346	1.96092	0.597371	2.664	0.692641	3.10091	0.809672	3.62425	0.99382	4.4423	0.589129	2.63623	0.686302	3.06078	0.860179	3.84831		
0.598527	2.66382	0.444368	1.96178	0.599768	2.66362	0.69431	3.09548	0.811374	3.61679	0.995027	4.42924	0.591168	2.63437	0.68817	3.05641	0.861437	3.83793		
0.600924	2.66344	0.446389	1.96263	0.602165	2.66325	0.695983	3.0901	0.813079	3.6094	0.996237	4.41632	0.593206	2.63252	0.690041	3.05209	0.862698	3.82767		
0.603322	2.66307	0.44841	1.96347	0.604563	2.66288	0.697659	3.08478	0.814787	3.60208	0.997452	4.40351	0.595243	2.63069	0.691915	3.04782	0.863963	3.8175		
0.60572	2.66271	0.45043	1.9643	0.606962	2.66252	0.699338	3.07952	0.816498	3.59484	0.99867	4.39083	0.597279	2.62886	0.693794	3.04361	0.865233	3.80743		
0.608119	2.66235	0.452451	1.96513	0.609361	2.66216	0.70102	3.07431	0.818211	3.58766	0.999891	4.37826	0.599314	2.62704	0.695676	3.03944	0.866506	3.79747		
0.610518	2.66199	0.454471	1.96595	0.61176	2.66181	0.702705	3.06916	0.819927	3.58056	1.00112	4.36582	0.601347	2.62523	0.697562	3.03532	0.867783	3.7876		
0.612918	2.66164	0.456491	1.96676	0.61416	2.66146	0.704392	3.06406	0.821645	3.57352			0.60338	2.62344	0.699451	3.03126	0.869064	3.77783		
0.615318	2.6613	0.45851	1.96756	0.61656	2.66112	0.706083	3.05902	0.823366	3.56656			0.605411	2.62165	0.701345	3.02724	0.870349	3.76815		
0.617718	2.66096	0.46053	1.96836	0.618961	2.66078	0.707777	3.05403	0.82509	3.55965			0.607441	2.61987	0.703241	3.02327	0.871638	3.75857		
0.620119	2.66062	0.462549	1.96915	0.621362	2.66045	0.709474	3.04909	0.826816	3.55282			0.609471	2.6181	0.705141	3.01934	0.872931	3.74908		
0.62252	2.66029	0.464568	1.96993	0.623763	2.66012	0.711173	3.04421	0.828544	3.54605			0.611499	2.61634	0.707045	3.01546	0.874227	3.73969		
0.624921	2.65996	0.466586	1.9707	0.626164	2.65979	0.712876	3.03937	0.830275	3.53935			0.613526	2.61459	0.708952	3.01163	0.875528	3.73038		
0.627322	2.65963	0.468605	1.97147	0.628566	2.65946	0.714581	3.03459	0.832009	3.53271			0.615552	2.61285	0.710863	3.00784	0.876832	3.72117		
0.629724	2.65931	0.470623	1.97223	0.630967	2.65914	0.71629	3.02986	0.833745	3.52613			0.617577	2.61112	0.712777	3.0041	0.87814	3.71204		
0.632126	2.65899	0.472641	1.97298	0.633369	2.65883	0.718001	3.02517	0.835483	3.51961			0.619601	2.6094	0.714695	3.0004	0.879452	3.70301		
0.634528	2.65867	0.474658	1.97373	0.635771	2.65851	0.719715	3.02054	0.837224	3.51315			0.621623	2.60769	0.716616	2.99674	0.880768	3.69406		
0.63693	2.65836	0.476676	1.97447	0.638173	2.6582	0.721432	3.01595	0.838967	3.50676			0.623645	2.60598	0.71854	2.99313	0.882088	3.68519		
0.639332	2.65805	0.478693	1.9752	0.640576	2.65789	0.723151	3.01141	0.840712	3.50042			0.625666	2.60429	0.720468	2.98955	0.883412	3.67641		
0.641734	2.65774	0.48071	1.97592	0.642978	2.65758	0.724874	3.00692	0.84246	3.49414			0.627685	2.6026	0.722398	2.98602	0.884739	3.66771		
0.644137	2.65744	0.482726	1.97664	0.64538	2.65728	0.726599	3.00247	0.84421	3.48792			0.629704	2.60092	0.724333	2.98253	0.88607	3.6591		
0.646539	2.65714	0.484743	1.97736	0.647782	2.65698	0.728327	2.99807	0.845962	3.48176			0.631721	2.59925	0.72627	2.97908	0.887405	3.65056		
0.648941	2.65683	0.486759	1.97806	0.650185	2.65668	0.730058	2.99371	0.847716	3.47565			0.633738	2.59759	0.728211	2.97567	0.888743	3.64211		
0.651343	2.65654	0.488774	1.97876	0.652587	2.65638	0.731792	2.9894	0.849473	3.4696			0.635753	2.59594	0.730155	2.97229	0.890086	3.63374		
0.653745	2.65624	0.49079	1.97946	0.654989	2.65609	0.733529	2.98513	0.851232	3.46361			0.637768	2.59429	0.732102	2.96896	0.891432	3.62544		
0.656148	2.65595	0.492805	1.98014	0.657391	2.65579	0.735268	2.98091	0.852993	3.45766			0.639781	2.59266	0.734052	2.96566	0.892782	3.61723		
0.65855	2.65565	0.49482	1.98082	0.659793	2.6555	0.73701	2.97673	0.854757	3.45178			0.641793	2.59103	0.736005	2.9624	0.894136	3.60909		
0.660951	2.65536	0.496835	1.9815	0.662195	2.65521	0.738755	2.97259	0.856522	3.44594			0.643805	2.58941	0.737961	2.95918	0.895493	3.60102		
0.663353	2.65507	0.49885	1.98217	0.664596	2.65492	0.740503	2.96849	0.85829	3.44016			0.645815	2.5878	0.73992	2.95599	0.896854	3.59304		
0.665755	2.65478	0.500864	1.98283	0.666998	2.65464	0.742254	2.96444	0.86006	3.43443			0.647824	2.58619	0.741883	2.95284	0.898219	3.58512		
0.668156	2.6545	0.502878	1.98349	0.669399	2.65435	0.744007	2.96043	0.861832	3.42875			0.649833	2.5846	0.743848	2.94972	0.899587	3.57728		
0.670557	2.65421	0.504891	1.98414	0.6718	2.65407	0.745763	2.95645	0.863606	3.42312			0.65184	2.58301	0.745816	2.94664	0.900959	3.56951		
0.672958	2.65393	0.506905	1.98478	0.6742	2.65378	0.747522	2.95252	0.865382	3.41753			0.653846	2.58143	0.747787	2.94359	0.902335	3.56182		
0.675358	2.65364	0.508918	1.98542	0.676601	2.6535	0.749284	2.94863	0.86716	3.412			0.655852	2.57986	0.749761	2.94058	0.903715	3.55419		
0.677758	2.65336	0.510931	1.98606	0.679001	2.65322	0.751048	2.94477	0.86894	3.40652			0.657856	2.57829	0.751738	2.9376	0.905098	3.54663		
0.680158	2.65308	0.512944	1.98669	0.6814	2.65293	0.752815	2.94096	0.870723	3.40108			0.65986	2.57674	0.753718	2.93465	0.906485	3.53915		
0.682558	2.6528	0.514956	1.98731	0.6838	2.65265	0.754585	2.93718	0.872507	3.39569			0.661862	2.57519	0.7557	2.93174	0.907875	3.53173		
0.684957	2.65252	0.516968	1.98793	0.686199	2.65237	0.756357	2.93344	0.874293	3.39035			0.663864	2.57364	0.757686	2.92885	0.909269	3.52438		
0.687355	2.65224	0.51898	1.98854	0.688597	2.65209	0.758133	2.92974	0.876081	3.38506			0.665864	2.57211	0.759674	2.926	0.910667	3.51709		
0.689754	2.65196	0.520992	1.98914	0.690995	2.65181	0.759911	2.92608	0.877871	3.37981			0.667864	2.57058	0.761664	2.92318	0.912068	3.50988		
0.692151	2.65168	0.523003	1.98975	0.693393	2.65153	0.761692	2.92245	0.879663	3.3746			0.669863	2.56906	0.763658	2.92038	0.913473	3.50273		
0.694549	2.6514	0.525014	1.99034	0.69579	2.65125	0.763475	2.91886	0.881457	3.36944			0.67186	2.56755	0.765654	2.91762	0.914882	3.49564		
0.696946	2.65112	0.527025	1.99093	0.698186	2.65097	0.765262	2.91531	0.883253	3.36432			0.673857	2.56605	0.767653	2.91489	0.916294	3.48861		
0.699342	2.65084	0.529035	1.99152	0.700582	2.65069	0.767051	2.91179	0.885051	3.35925			0.675853	2.56455	0.769654	2.91219	0.91771	3.48165		
0.701738	2.65056	0.531045	1.9921	0.702977	2.65041	0.768843	2.9083	0.88685	3.35422			0.677848	2.56306	0.771658	2.90951	0.919129	3.47476		
0.704133	2.65028	0.533055	1.99267	0.705372	2.65013	0.770637	2.90485	0.888652	3.34923			0.679843	2.56157	0.773664	2.90686	0.920552	3.46792		
0.706527	2.65	0.535065	1.99325	0.707766	2.64985	0.772435	2.90144	0.890455	3.34428			0.681836	2.5601	0.775673	2.90425	0.921978	3.46115		
0.708921	2.64972	0.537075	1.99381	0.71016	2.64957	0.774235	2.89806	0.89226	3.33937			0.683828	2.55863	0.777685	2.90165	0.923408	3.45443		
0.711314	2.64944	0.539084	1.99437	0.712552	2.64929	0.776038	2.89471	0.894067	3.33451			0.68582	2.55716	0.779699	2.89909	0.924842	3.44778		
0.713706	2.64915	0.541093	1.99493	0.714944	2.64901	0.777844	2.8914	0.895875	3.32968			0.687811	2.55571	0.781715	2.89655	0.926279	3.44118		
0.716098	2.64887	0.543101	1.99548	0.717336	2.64872	0.779652	2.88812	0.897685	3.3249			0.689801	2.55426	0.783733	2.89404	0.92772	3.43465		
0.718489	2.64859	0.54511	1.99602	0.719726	2.64844	0.781464	2.88487	0.899498	3.32015			0.69179	2.55282	0.785754	2.89156	0.929164	3.42817		
0.720879	2.6483	0.547118	1.99657	0.722116	2.64815	0.783278	2.88166	0.901311	3.31545			0.693778	2.55138	0.787778	2.8891	0.930611	3.42175		
0.723268	2.64801	0.549126	1.9971	0.724505	2.64787	0.785095	2.87848	0.903127	3.31078			0.695766	2.54996	0.789803	2.88666	0.932063	3.41538		
0.725657	2.64773	0.551133	1.99764	0.726893	2.64758	0.786915	2.87533	0.904944	3.30615			0.697752	2.54853	0.791831	2.88425	0.933517	3.40908		
0.728044	2.64744	0.553141	1.99816	0.72928	2.64729	0.788738	2.87221	0.906763	3.30155			0.699738	2.54712	0.793861	2.88187	0.934975	3.40282		
0.730431	2.64715	0.555148	1.99869	0.731666	2.647	0.790563	2.86912	0.908583	3.297			0.701723	2.54571	0.795894	2.87951	0.936437	3.39662		
0.732816	2.64686	0.557154	1.99921	0.734051	2.64671	0.792392	2.86607	0.910405	3.29248			0.703708	2.54431	0.797928	2.87717	0.937902	3.39048		
0.735201	2.64656	0.559161	1.99972	0.736435	2.64641	0.794223	2.86305	0.912229	3.288			0.705691	2.54292	0.799965	2.87485	0.939371	3.38439		
0.737585	2.64627	0.561167	2.00023	0.738818	2.64612	0.796057	2.86005	0.914054	3.28355			0.707674	2.54153	0.802004	2.87256	0.940843	3.37835		
0.739967	2.64597	0.563173	2.00074	0.7412	2.64582	0.797895	2.85709	0.915881	3.27914			0.709656	2.54015	0.804045	2.87029	0.942319	3.37237		
0.742349	2.64567	0.565179	2.00124	0.743581	2.64552	0.799735	2.85416	0.91771	3.27476			0.711637	2.53877	0.806088	2.86805	0.943798	3.36644		
0.744729	2.64537	0.567184	2.00174	0.745961	2.64522	0.801578	2.85125	0.91954	3.27042			0.713618	2.5374	0.808133	2.86582	0.94528	3.36056		
0.747108	2.64507	0.56919	2.00223	0.748339	2.64491	0.803424	2.84838	0.921372	3.26611			0.715598	2.53604	0.81018	2.86362	0.946766	3.35473		
0.749486	2.64477	0.571195	2.00272	0.750717	2.64461	0.805273	2.84554	0.923205	3.26183			0.717577	2.53469	0.812229	2.86144	0.948255	3.34895		
0.751863	2.64446	0.573199	2.0032	0.753093	2.6443	0.807125	2.84272	0.925039	3.25759			0.719555	2.53334	0.81428	2.85928	0.949748	3.34322		
0.754238	2.64415	0.575204	2.00368	0.755467	2.64399	0.808981	2.83994	0.926876	3.25338			0.721533	2.532	0.816332	2.85714	0.951244	3.33754		
0.756612	2.64384	0.577208	2.00416	0.757841	2.64367	0.810839	2.83718	0.928713	3.24921			0.72351	2.53066	0.818387	2.85502	0.952744	3.33191		
0.758985	2.64352	0.579211	2.00463	0.760213	2.64336	0.8127	2.83445	0.930553	3.24506			0.725486	2.52933	0.820444	2.85293	0.954247	3.32633		
0.761356	2.6432	0.581215	2.0051	0.762583	2.64304	0.814565	2.83175	0.932393	3.24095			0.727462	2.52801	0.822502	2.85085	0.955753	3.3208		
0.763726	2.64288	0.583218	2.00557	0.764952	2.64271	0.816432	2.82908	0.934235	3.23687			0.729437	2.52669	0.824562	2.84879	0.957263	3.31531		
0.766095	2.64256	0.585221	2.00603	0.76732	2.64239	0.818303	2.82644	0.936079	3.23283			0.731412	2.52538	0.826624	2.84675	0.958776	3.30987		
0.768461	2.64223	0.587224	2.00648	0.769686	2.64206	0.820177	2.82383	0.937924	3.22881			0.733386	2.52407	0.828688	2.84473	0.960293	3.30448		
0.770827	2.6419	0.589227	2.00694	0.77205	2.64173	0.822054	2.82124	0.93977	3.22482			0.735359	2.52278	0.830754	2.84273	0.961813	3.29913		
0.77319	2.64156	0.591229	2.00739	0.774413	2.64139	0.823934	2.81868	0.941618	3.22086			0.737331	2.52148	0.832821	2.84074	0.963336	3.29383		
0.775552	2.64123	0.593231	2.00783	0.776774	2.64105	0.825818	2.81615	0.943467	3.21694			0.739303	2.5202	0.83489	2.83878	0.964863	3.28857		
0.777912	2.64089	0.595233	2.00827	0.779133	2.64071	0.827705	2.81364	0.945317	3.21304			0.741275	2.51892	0.83696	2.83683	0.966393	3.28336		
0.780271	2.64054	0.597234	2.00871	0.781491	2.64036	0.829595	2.81117	0.947169	3.20917			0.743246	2.51764	0.839032	2.8349	0.967926	3.27819		
0.782627	2.64019	0.599235	2.00915	0.783847	2.64001	0.831489	2.80872	0.949022	3.20533			0.745216	2.51638	0.841106	2.83299	0.969463	3.27307		
0.784982	2.63984	0.601236	2.00958	0.7862	2.63965	0.833386	2.80629	0.950876	3.20152			0.747185	2.51512	0.843181	2.8311	0.971003	3.26799		
0.787335	2.63948	0.603237	2.01001	0.788552	2.63929	0.835287	2.8039	0.952732	3.19774			0.749155	2.51386	0.845258	2.82922	0.972546	3.26295		
0.789686	2.63912	0.605237	2.01043	0.790902	2.63893	0.837191	2.80153	0.954589	3.19398			0.751123	2.51261	0.847336	2.82736	0.974093	3.25796		
0.792034	2.63875	0.607237	2.01085	0.793249	2.63856	0.839099	2.79918	0.956447	3.19025			0.753091	2.51137	0.849415	2.82551	0.975643	3.25301		
0.794381	2.63838	0.609237	2.01127	0.795595	2.63818	0.84101	2.79686	0.958307	3.18655			0.755059	2.51013	0.851496	2.82368	0.977196	3.24809		
0.796726	2.638	0.611237	2.01168	0.797938	2.63781	0.842925	2.79457	0.960168	3.18288			0.757026	2.5089	0.853579	2.82187	0.978753	3.24323		
0.799068	2.63762	0.613236	2.01209	0.80028	2.63742	0.844843	2.79231	0.96203	3.17923			0.758992	2.50767	0.855663	2.82007	0.980313	3.2384		
0.801408	2.63723	0.615235	2.0125	0.802618	2.63703	0.846765	2.79007	0.963893	3.17561			0.760958	2.50645	0.857748	2.81829	0.981877	3.23361		
0.803746	2.63684	0.617234	2.0129	0.804955	2.63664	0.848691	2.78786	0.965758	3.17202			0.762924	2.50524	0.859835	2.81653	0.983443	3.22886		
0.806081	2.63645	0.619233	2.0133	0.807289	2.63624	0.850621	2.78567	0.967623	3.16845			0.764889	2.50403	0.861922	2.81477	0.985013	3.22415		
0.808414	2.63604	0.621231	2.0137	0.809621	2.63583	0.852555	2.78351	0.96949	3.16491			0.766853	2.50283	0.864011	2.81304	0.986586	3.21948		
0.810744	2.63563	0.623229	2.01409	0.81195	2.63542	0.854492	2.78138	0.971358	3.16139			0.768818	2.50163	0.866102	2.81132	0.988163	3.21486		
0.813072	2.63522	0.625227	2.01449	0.814276	2.635	0.856433	2.77927	0.973228	3.1579			0.770781	2.50044	0.868193	2.80961	0.989743	3.21026		
0.815397	2.6348	0.627224	2.01487	0.8166	2.63458	0.858379	2.77718	0.975098	3.15443			0.772744	2.49925	0.870286	2.80791	0.991326	3.20571		
0.81772	2.63437	0.629222	2.01526	0.818921	2.63415	0.860328	2.77512	0.97697	3.15099			0.774707	2.49807	0.87238	2.80623	0.992912	3.2012		
0.82004	2.63394	0.631218	2.01564	0.821239	2.63372	0.862282	2.77309	0.978842	3.14757			0.77667	2.4969	0.874475	2.80457	0.994502	3.19672		
0.822356	2.6335	0.633215	2.01602	0.823555	2.63327	0.864239	2.77108	0.980716	3.14418			0.778632	2.49573	0.876571	2.80292	0.996095	3.19228		
0.824671	2.63306	0.635212	2.01639	0.825867	2.63282	0.866201	2.7691	0.982591	3.14081			0.780593	2.49457	0.878668	2.80128	0.997691	3.18788		
0.826982	2.6326	0.637208	2.01676	0.828177	2.63237	0.868167	2.76715	0.984467	3.13746			0.782554	2.49341	0.880767	2.79965	0.999291	3.18351		
0.82929	2.63215	0.639204	2.01713	0.830483	2.6319	0.870138	2.76521	0.986344	3.13413			0.784515	2.49226	0.882866	2.79804	1.00089	3.17918		
0.831595	2.63168	0.641199	2.0175	0.832787	2.63143	0.872112	2.76331	0.988222	3.13083			0.786475	2.49112	0.884966	2.79644				
0.833896	2.63121	0.643195	2.01786	0.835087	2.63096	0.874091	2.76143	0.990101	3.12755			0.788435	2.48998	0.887068	2.79485				
0.836195	2.63072	0.64519	2.01822	0.837384	2.63047	0.876075	2.75957	0.991981	3.1243			0.790395	2.48884	0.88917	2.79327				
0.83849	2.63024	0.647185	2.01858	0.839677	2.62998	0.878063	2.75774	0.993863	3.12107			0.792354	2.48771	0.891273	2.79171				
0.840782	2.62974	0.64918	2.01893	0.841967	2.62948	0.880056	2.75593	0.995745	3.11785			0.794313	2.48659	0.893377	2.79015				
0.843071	2.62924	0.651174	2.01928	0.844254	2.62897	0.882053	2.75415	0.997628	3.11466			0.796272	2.48547	0.895482	2.78861				
0.845356	2.62872	0.653168	2.01963	0.846537	2.62846	0.884055	2.7524	0.999512	3.1115			0.79823	2.48436	0.897588	2.78709				
0.847637	2.6282	0.655162	2.01998	0.848817	2.62793	0.886062	2.75066	1.0014	3.10835			0.800188	2.48325	0.899694	2.78557				
0.849915	2.62768	0.657155	2.02032	0.851093	2.6274	0.888073	2.74896					0.802146	2.48215	0.901802	2.78406				
0.85219	2.62714	0.659149	2.02066	0.853365	2.62686	0.890089	2.74728					0.804103	2.48106	0.90391	2.78257				
0.85446	2.6266	0.661142	2.021	0.855634	2.62631	0.892111	2.74562					0.80606	2.47997	0.906019	2.78108				
0.856727	2.62604	0.663135	2.02134	0.857899	2.62575	0.894137	2.74399					0.808017	2.47888	0.908129	2.77961				
0.85899	2.62548	0.665127	2.02167	0.860159	2.62519	0.896168	2.74238					0.809974	2.4778	0.910239	2.77814				
0.861249	2.62491	0.66712	2.022	0.862416	2.62461	0.898204	2.74079					0.81193	2.47672	0.91235	2.77669				
0.863504	2.62433	0.669112	2.02232	0.864669	2.62403	0.900245	2.73924					0.813886	2.47566	0.914461	2.77525				
0.865754	2.62374	0.671103	2.02265	0.866918	2.62343	0.902291	2.7377					0.815841	2.47459	0.916574	2.77382				
0.868001	2.62314	0.673095	2.02297	0.869163	2.62283	0.904343	2.73619					0.817797	2.47353	0.918687	2.77239				
0.870244	2.62254	0.675086	2.02329	0.871403	2.62222	0.9064	2.7347					0.819752	2.47248	0.9208	2.77098				
0.872483	2.62192	0.677077	2.02361	0.87364	2.6216	0.908461	2.73324					0.821707	2.47143	0.922914	2.76958				
0.874717	2.6213	0.679068	2.02392	0.875872	2.62097	0.910529	2.7318					0.823662	2.47039	0.925028	2.76818				
0.876947	2.62066	0.681059	2.02423	0.8781	2.62033	0.912601	2.73039					0.825616	2.46935	0.927143	2.7668				
0.879173	2.62002	0.683049	2.02454	0.880323	2.61968	0.914679	2.729					0.82757	2.46831	0.929259	2.76542				
0.881394	2.61937	0.685039	2.02485	0.882542	2.61903	0.916762	2.72763					0.829524	2.46729	0.931375	2.76405				
0.883611	2.61871	0.687029	2.02515	0.884757	2.61836	0.918851	2.72629					0.831478	2.46626	0.933491	2.7627				
0.885824	2.61803	0.689018	2.02545	0.886968	2.61768	0.920945	2.72497					0.833432	2.46525	0.935608	2.76135				
0.888032	2.61735	0.691007	2.02575	0.889174	2.617	0.923044	2.72367					0.835386	2.46423	0.937725	2.76001				
0.890236	2.61666	0.692996	2.02605	0.891375	2.6163	0.925149	2.7224					0.837339	2.46322	0.939842	2.75867				
0.892435	2.61596	0.694985	2.02634	0.893572	2.6156	0.927259	2.72115					0.839292	2.46222	0.94196	2.75735				
0.89463	2.61525	0.696974	2.02664	0.895765	2.61488	0.929375	2.71992					0.841245	2.46122	0.944078	2.75603				
0.896821	2.61454	0.698962	2.02693	0.897953	2.61416	0.931497	2.71872					0.843198	2.46023	0.946197	2.75472				
0.899006	2.61381	0.70095	2.02722	0.900136	2.61343	0.933623	2.71753					0.84515	2.45924	0.948315	2.75342				
0.901188	2.61307	0.702938	2.0275	0.902315	2.61269	0.935755	2.71637					0.847103	2.45826	0.950434	2.75213				
0.903365	2.61233	0.704925	2.02778	0.90449	2.61194	0.937893	2.71523					0.849055	2.45728	0.952553	2.75085				
0.905537	2.61157	0.706913	2.02807	0.90666	2.61118	0.940036	2.71412					0.851008	2.45631	0.954673	2.74957				
0.907705	2.61081	0.7089	2.02834	0.908825	2.61041	0.942185	2.71302					0.85296	2.45534	0.956792	2.7483				
0.909868	2.61004	0.710886	2.02862	0.910986	2.60964	0.944338	2.71195					0.854912	2.45438	0.958912	2.74703				
0.912027	2.60926	0.712873	2.0289	0.913143	2.60885	0.946498	2.7109					0.856863	2.45342	0.961032	2.74578				
0.914182	2.60847	0.714859	2.02917	0.915295	2.60806	0.948662	2.70987					0.858815	2.45246	0.963151	2.74453				
0.916332	2.60767	0.716845	2.02944	0.917443	2.60726	0.950832	2.70885					0.860767	2.45151	0.965271	2.74329				
0.918478	2.60687	0.718831	2.02971	0.919587	2.60645	0.953007	2.70786					0.862718	2.45057	0.967391	2.74205				
0.920619	2.60605	0.720817	2.02997	0.921726	2.60563	0.955188	2.70689					0.86467	2.44963	0.969511	2.74082				
0.922756	2.60523	0.722802	2.03024	0.923861	2.6048	0.957373	2.70594					0.866621	2.4487	0.971631	2.7396				
0.924889	2.6044	0.724787	2.0305	0.925991	2.60397	0.959564	2.70501					0.868572	2.44776	0.973751	2.73838				
0.927017	2.60357	0.726772	2.03076	0.928117	2.60313	0.96176	2.7041					0.870524	2.44684	0.975871	2.73717				
0.929142	2.60272	0.728756	2.03102	0.93024	2.60228	0.96396	2.7032					0.872475	2.44592	0.977991	2.73597				
0.931262	2.60187	0.730741	2.03127	0.932358	2.60143	0.966166	2.70233					0.874426	2.445	0.980111	2.73477				
0.933378	2.60101	0.732725	2.03153	0.934472	2.60056	0.968377	2.70147					0.876377	2.44409	0.982231	2.73358				
0.93549	2.60015	0.734709	2.03178	0.936582	2.5997	0.970593	2.70064					0.878328	2.44318	0.984351	2.7324				
0.937598	2.59927	0.736692	2.03203	0.938688	2.59882	0.972813	2.69981					0.880279	2.44228	0.98647	2.73122				
0.939702	2.5984	0.738675	2.03228	0.94079	2.59794	0.975038	2.69901					0.88223	2.44138	0.98859	2.73004				
0.941803	2.59751	0.740659	2.03252	0.942888	2.59705	0.977268	2.69822					0.88418	2.44049	0.990709	2.72887				
0.943899	2.59662	0.742641	2.03277	0.944983	2.59616	0.979502	2.69745					0.886131	2.4396	0.992828	2.72771				
0.945992	2.59573	0.744624	2.03301	0.947074	2.59526	0.981741	2.6967					0.888082	2.43871	0.994947	2.72655				
0.948081	2.59483	0.746606	2.03325	0.949161	2.59436	0.983985	2.69596					0.890033	2.43783	0.997066	2.7254				
0.950167	2.59392	0.748589	2.03349	0.951245	2.59345	0.986232	2.69524					0.891983	2.43696	0.999184	2.72425				
0.952249	2.59301	0.750571	2.03372	0.953325	2.59253	0.988484	2.69454					0.893934	2.43608	1.0013	2.72311				
0.954327	2.59209	0.752552	2.03396	0.955402	2.59161	0.990741	2.69384					0.895885	2.43522						
0.956402	2.59117	0.754534	2.03419	0.957475	2.59069	0.993001	2.69317					0.897835	2.43435						
0.958474	2.59025	0.756515	2.03442	0.959546	2.58976	0.995265	2.69251					0.899786	2.4335						
0.960543	2.58932	0.758496	2.03465	0.961613	2.58883	0.997534	2.69186					0.901737	2.43264						
0.962608	2.58838	0.760477	2.03488	0.963676	2.5879	0.999806	2.69122					0.903687	2.43179						
0.964671	2.58745	0.762457	2.0351	0.965737	2.58696	1.00208	2.6906					0.905638	2.43095						
0.96673	2.58651	0.764437	2.03533	0.967795	2.58602							0.907589	2.43011						
0.968786	2.58556	0.766417	2.03555	0.96985	2.58507							0.909539	2.42927						
0.97084	2.58462	0.768397	2.03577	0.971902	2.58413							0.91149	2.42844						
0.972891	2.58367	0.770377	2.03599	0.973951	2.58317							0.913441	2.42761						
0.974938	2.58272	0.772356	2.03621	0.975997	2.58222							0.915391	2.42678						
0.976984	2.58176	0.774335	2.03642	0.978041	2.58127							0.917342	2.42596						
0.979026	2.5808	0.776314	2.03664	0.980083	2.58031							0.919293	2.42515						
0.981066	2.57985	0.778293	2.03685	0.982121	2.57935							0.921244	2.42433						
0.983104	2.57889	0.780271	2.03706	0.984158	2.57839							0.923195	2.42352						
0.985139	2.57792	0.782249	2.03727	0.986192	2.57743							0.925146	2.42272						
0.987172	2.57696	0.784227	2.03748	0.988224	2.57646							0.927097	2.42192						
0.989203	2.576	0.786205	2.03768	0.990253	2.5755							0.929048	2.42112						
0.991231	2.57503	0.788182	2.03789	0.992281	2.57453							0.930999	2.42033						
0.993258	2.57407	0.790159	2.03809	0.994306	2.57357							0.93295	2.41955						
0.995282	2.5731	0.792136	2.03829	0.996329	2.5726							0.934901	2.41876						
0.997304	2.57213	0.794113	2.03849	0.99835	2.57163							0.936853	2.41798						
0.999324	2.57116	0.79609	2.03869	1.00037	2.57066							0.938804	2.4172						
1.00134	2.5702	0.798066	2.03888									0.940756	2.41643						
		0.800042	2.03908									0.942707	2.41566						
		0.802018	2.03927									0.944659	2.4149						
		0.803994	2.03946									0.94661	2.41414						
		0.805969	2.03966									0.948562	2.41338						
		0.807945	2.03984									0.950514	2.41263						
		0.809919	2.04003									0.952466	2.41188						
		0.811894	2.04022									0.954418	2.41113						
		0.813869	2.0404									0.95637	2.41039						
		0.815843	2.04059									0.958323	2.40966						
		0.817817	2.04077									0.960275	2.40892						
		0.819791	2.04095									0.962227	2.40819						
		0.821765	2.04113									0.96418	2.40746						
		0.823738	2.04131									0.966133	2.40674						
		0.825711	2.04148									0.968086	2.40602						
		0.827684	2.04166									0.970039	2.40531						
		0.829657	2.04183									0.971992	2.40459						
		0.83163	2.042									0.973945	2.40388						
		0.833602	2.04217									0.975898	2.40318						
		0.835574	2.04234									0.977852	2.40248						
		0.837546	2.04251									0.979805	2.40178						
		0.839518	2.04268									0.981759	2.40108						
		0.841489	2.04285									0.983713	2.40039						
		0.843461	2.04301									0.985667	2.39971						
		0.845432	2.04317									0.987621	2.39902						
		0.847403	2.04334									0.989575	2.39834						
		0.849373	2.0435									0.99153	2.39766						
		0.851344	2.04366									0.993484	2.39699						
		0.853314	2.04381									0.995439	2.39632						
		0.855284	2.04397									0.997394	2.39565						
		0.857254	2.04413									0.999349	2.39499						
		0.859223	2.04428									1.0013	2.39433						
		0.861193	2.04444																
		0.863162	2.04459																
		0.865131	2.04474																
		0.8671	2.04489																
		0.869068	2.04504																
		0.871037	2.04519																
		0.873005	2.04533																
		0.874973	2.04548																
		0.87694	2.04562																
		0.878908	2.04577																
		0.880875	2.04591																
		0.882842	2.04605																
		0.884809	2.04619																
		0.886776	2.04633																
		0.888743	2.04647																
		0.890709	2.04661																
		0.892675	2.04674																
		0.894641	2.04688																
		0.896607	2.04701																
		0.898572	2.04714																
		0.900537	2.04728																
		0.902503	2.04741																
		0.904468	2.04754																
		0.906432	2.04767																
		0.908397	2.04779																
		0.910361	2.04792																
		0.912325	2.04805																
		0.914289	2.04817																
		0.916253	2.0483																
		0.918217	2.04842																
		0.92018	2.04854																
		0.922143	2.04866																
		0.924106	2.04878																
		0.926069	2.0489																
		0.928032	2.04902																
		0.929994	2.04914																
		0.931956	2.04925																
		0.933919	2.04937																
		0.93588	2.04949																
		0.937842	2.0496																
		0.939804	2.04971																
		0.941765	2.04983																
		0.943726	2.04994																
		0.945687	2.05005																
		0.947648	2.05016																
		0.949609	2.05027																
		0.951569	2.05037																
		0.953529	2.05048																
		0.955489	2.05059																
		0.957449	2.05069																
		0.959409	2.0508																
		0.961368	2.0509																
		0.963328	2.05101																
		0.965287	2.05111																
		0.967246	2.05121																
		0.969205	2.05131																
		0.971163	2.05141																
		0.973122	2.05151																
		0.97508	2.05161																
		0.977038	2.05171																
		0.978996	2.05181																
		0.980954	2.0519																
		0.982911	2.052																
		0.984869	2.05209																
		0.986826	2.05219																
		0.988783	2.05228																
		0.99074	2.05237																
		0.992697	2.05247																
		0.994654	2.05256																
		0.99661	2.05265																
		0.998566	2.05274																
		1.00052	2.05283																
