Sym0		Asym0		Sym1		Sym2		Sym3		Sym4		Asym1		Asym2		Asym3		Asym4	
423  Points		527  Points		423  Points		405  Points		352  Points		251  Points		455  Points		400  Points		344  Points		206  Points	
Freq (MHz)	Vph (m/ms)	Freq (MHz)	Vph (m/ms)	Freq (MHz)	Vph (m/ms)	Freq (MHz)	Vph (m/ms)	Freq (MHz)	Vph (m/ms)	Freq (MHz)	Vph (m/ms)	Freq (MHz)	Vph (m/ms)	Freq (MHz)	Vph (m/ms)	Freq (MHz)	Vph (m/ms)	Freq (MHz)	Vph (m/ms)
0.27951	628.929	0.000175792	0.0817171	0.279514	306.445	0.449939	11232.5	0.559017	7136.54	0.838526	2138.99	0.139755	946.998	0.419268	466.599	0.698771	3569.92	0.899879	2222.01
0.27952	203.123	0.000360581	0.116961	0.27953	151.604	0.449945	463.025	0.559024	553.474	0.838531	633.468	0.139799	129.531	0.419285	229.085	0.698776	619.793	0.899884	673.224
0.279542	121.128	0.000610338	0.152029	0.279557	100.723	0.449962	236.393	0.559042	287.91	0.838543	371.792	0.13991	69.5734	0.419314	151.818	0.698786	339.36	0.899894	396.713
0.279574	86.3014	0.000924383	0.186883	0.279594	75.4193	0.449989	158.718	0.559071	194.567	0.83856	263.11	0.140087	47.6055	0.419355	113.534	0.698802	233.649	0.899909	281.216
0.279617	67.0352	0.0013019	0.221487	0.279643	60.2822	0.450027	119.471	0.559111	146.937	0.838583	203.599	0.14033	36.2202	0.419407	90.6758	0.698825	178.157	0.89993	217.808
0.279671	54.8064	0.00174183	0.255786	0.279702	50.2105	0.450076	95.7908	0.559163	118.046	0.838611	166.045	0.140638	29.2627	0.41947	75.4845	0.698854	143.968	0.899956	177.735
0.279736	46.3554	0.00224294	0.289734	0.279773	43.0268	0.450136	79.9499	0.559226	98.655	0.838646	140.19	0.141011	24.576	0.419546	64.6576	0.698888	120.791	0.899987	150.119
0.279812	40.1666	0.00280409	0.323309	0.279854	37.6452	0.450206	68.6089	0.5593	84.7399	0.838686	121.305	0.141447	21.2082	0.419633	56.5511	0.698929	104.044	0.900023	129.933
0.279898	35.4392	0.00342387	0.356476	0.279946	33.4636	0.450288	60.0895	0.559386	74.269	0.838733	106.905	0.141945	18.6742	0.419732	50.2545	0.698976	91.3778	0.900065	114.533
0.279996	31.7108	0.00410061	0.389182	0.280049	30.1213	0.45038	53.4555	0.559483	66.1047	0.838785	95.5632	0.142504	16.7007	0.419842	45.223	0.699029	81.4624	0.900112	102.399
0.280104	28.6951	0.00483297	0.421424	0.280162	27.3888	0.450482	48.1438	0.559591	59.5608	0.838843	86.3987	0.143123	15.122	0.419964	41.1104	0.699088	73.49	0.900164	92.591
0.280223	26.206	0.00561912	0.45316	0.280287	25.1136	0.450596	43.7952	0.55971	54.1988	0.838906	78.8397	0.1438	13.8319	0.420098	37.6864	0.699153	66.9405	0.900221	84.499
0.280353	24.1169	0.00645746	0.484373	0.280422	23.1898	0.45072	40.1697	0.559841	49.7253	0.838976	72.4983	0.144533	12.759	0.420243	34.7915	0.699224	61.4644	0.900284	77.709
0.280493	22.3386	0.00734624	0.515046	0.280568	21.5421	0.450855	37.101	0.559982	45.9365	0.839051	67.1023	0.145322	11.8537	0.4204	32.3121	0.699301	56.8178	0.900352	71.9302
0.280645	20.8068	0.00828378	0.545166	0.280725	20.1152	0.451	34.4702	0.560135	42.6865	0.839133	62.4552	0.146164	11.0803	0.420569	30.165	0.699384	52.8257	0.900425	66.9525
0.280807	19.4736	0.00926821	0.574714	0.280893	18.8676	0.451157	32.1899	0.5603	39.8683	0.83922	58.4112	0.146939	10.4932	0.420749	28.2876	0.699473	49.3589	0.900503	62.6201
0.28098	18.3031	0.0102978	0.603683	0.281071	17.7677	0.451324	30.1946	0.560475	37.4013	0.839313	54.8601	0.14763	10.0461	0.42094	26.6322	0.699569	46.3203	0.900586	58.8153
0.281164	17.2671	0.0113709	0.632066	0.28126	16.7907	0.451501	28.4341	0.560662	35.2238	0.839411	51.7171	0.148222	9.70824	0.421144	25.1619	0.69967	43.6351	0.900675	55.4473
0.281358	16.3439	0.0124857	0.659858	0.28146	15.9173	0.451689	26.8694	0.560859	33.2877	0.839516	48.9156	0.148703	9.45934	0.421358	23.8472	0.699777	41.2453	0.900769	52.445
0.281564	15.516	0.0136404	0.687055	0.281671	15.1319	0.451888	25.4696	0.561068	31.5552	0.839626	46.403	0.149063	9.28572	0.421585	22.6649	0.699891	39.1045	0.900868	49.752
0.28178	14.7696	0.0148335	0.713659	0.281892	14.422	0.452098	24.2101	0.561288	29.9958	0.839743	44.1368	0.149297	9.17852	0.421822	21.596	0.70001	37.176	0.900973	47.3228
0.282006	14.0933	0.0160633	0.739672	0.282124	13.7771	0.452318	23.0708	0.56152	28.5849	0.839865	42.0824	0.149637	9.02951	0.422071	20.6249	0.700136	35.4296	0.901083	45.1205
0.282244	13.4776	0.0173283	0.765095	0.282367	13.1889	0.452549	22.0354	0.561762	27.3023	0.839992	40.2116	0.150013	8.87398	0.422332	19.739	0.700267	33.8407	0.901197	43.1148
0.282492	12.9148	0.0186268	0.789935	0.28262	12.6502	0.45279	21.0904	0.562015	26.1313	0.840126	38.5008	0.150532	8.67256	0.422604	18.9275	0.700405	32.3891	0.901318	41.2805
0.28275	12.3986	0.0199574	0.814193	0.282884	12.1552	0.453042	20.2244	0.562279	25.0581	0.840266	36.9304	0.151204	8.4332	0.422888	18.1815	0.700549	31.0576	0.901443	39.5966
0.28302	11.9233	0.0213187	0.83788	0.283159	11.6986	0.453305	19.4281	0.562555	24.0709	0.840411	35.4837	0.152038	8.16454	0.423183	17.4934	0.700699	29.832	0.901574	38.0453
0.2833	11.4843	0.0227093	0.861006	0.283445	11.2764	0.453578	18.6934	0.562841	23.1599	0.840562	34.1469	0.153046	7.87528	0.423489	16.8569	0.700854	28.7002	0.901709	36.6116
0.283591	11.0777	0.0241278	0.883575	0.283741	10.8847	0.453862	18.0134	0.563139	22.3166	0.840719	32.9077	0.154239	7.57359	0.423807	16.2663	0.701016	27.6519	0.90185	35.2826
0.283892	10.7	0.025573	0.905601	0.284047	10.5204	0.454156	17.3823	0.563447	21.5337	0.840882	31.756	0.15547	7.30008	0.424136	15.7169	0.701184	26.678	0.901997	34.0473
0.284204	10.3484	0.0270436	0.92709	0.284323	10.2232	0.45446	16.795	0.563767	20.8051	0.84105	30.6827	0.156738	7.05116	0.424476	15.2046	0.701358	25.7711	0.902148	32.8961
0.284526	10.0202	0.0285385	0.948057	0.284565	9.98346	0.454775	16.2472	0.564097	20.1253	0.841224	29.6803	0.158042	6.82377	0.424828	14.7257	0.701538	24.9244	0.902305	31.8208
0.284859	9.71322	0.0300565	0.96851	0.284769	9.79397	0.455101	15.7351	0.564438	19.4897	0.841404	28.7418	0.159378	6.61536	0.425191	14.2772	0.701724	24.1322	0.902467	30.814
0.285203	9.4255	0.0315967	0.988464	0.284933	9.64943	0.455436	15.2553	0.56479	18.894	0.84159	27.8614	0.160747	6.42376	0.425565	13.8563	0.701915	23.3894	0.902634	29.8695
0.285557	9.1553	0.0331579	1.00793	0.285055	9.546	0.455783	14.8049	0.565153	18.3347	0.841782	27.0339	0.162146	6.24709	0.425951	13.4605	0.702113	22.6915	0.902806	28.9817
0.285922	8.90111	0.0347392	1.02691	0.285134	9.48103	0.456139	14.3812	0.565527	17.8085	0.841979	26.2547	0.163575	6.08376	0.426347	13.0877	0.702317	22.0346	0.902983	28.1456
0.286297	8.66155	0.0363397	1.04543	0.285249	9.38926	0.456506	13.9821	0.565911	17.3127	0.842182	25.5196	0.165032	5.93237	0.426755	12.736	0.702527	21.4152	0.903166	27.3568
0.286682	8.43545	0.0379584	1.06349	0.285374	9.29163	0.456883	13.6054	0.566306	16.8447	0.842391	24.8251	0.166516	5.79172	0.427174	12.4036	0.702743	20.8302	0.903354	26.6115
0.287078	8.2217	0.0395945	1.08111	0.285548	9.16227	0.457271	13.2493	0.566712	16.4022	0.842606	24.1679	0.168025	5.66077	0.427604	12.089	0.702965	20.2768	0.903547	25.9062
0.287485	8.01936	0.0412474	1.0983	0.28577	9.00406	0.457669	12.9123	0.567129	15.9832	0.842827	23.545	0.169558	5.53859	0.428045	11.7909	0.703193	19.7525	0.903745	25.2377
0.287902	7.82756	0.0429161	1.11507	0.286045	8.82036	0.458077	12.5928	0.567556	15.586	0.843053	22.9539	0.171115	5.42436	0.428497	11.508	0.703427	19.2552	0.903949	24.6032
0.288329	7.6455	0.0446	1.13143	0.286374	8.61484	0.458495	12.2895	0.567994	15.2089	0.843285	22.3922	0.172694	5.31737	0.42896	11.2392	0.703667	18.7827	0.904157	24.0003
0.288766	7.47249	0.0462983	1.1474	0.286761	8.39131	0.458923	12.0013	0.568443	14.8505	0.843523	21.8577	0.174295	5.21699	0.429434	10.9835	0.703913	18.3333	0.904371	23.4266
0.289214	7.30789	0.0480105	1.16298	0.28716	8.17995	0.459362	11.727	0.568902	14.5093	0.843766	21.3486	0.175916	5.12264	0.429919	10.74	0.704165	17.9054	0.90459	22.8801
0.289672	7.15112	0.0497359	1.17818	0.287568	7.9798	0.45981	11.4658	0.569372	14.1842	0.844015	20.8631	0.177556	5.03383	0.430415	10.5078	0.704422	17.4974	0.904814	22.3588
0.290141	7.00164	0.0514739	1.19302	0.287987	7.79002	0.460269	11.2166	0.569852	13.8742	0.84427	20.3996	0.179214	4.95011	0.430856	10.3141	0.704686	17.1081	0.905044	21.8612
0.29062	6.85898	0.0532239	1.20751	0.288416	7.60985	0.460738	10.9787	0.570343	13.5781	0.844531	19.9566	0.180891	4.87106	0.431238	10.155	0.704956	16.736	0.905278	21.3856
0.291109	6.72269	0.0549854	1.22165	0.288856	7.43859	0.461217	10.7515	0.570844	13.2951	0.844797	19.5329	0.182584	4.79633	0.431559	10.0274	0.705232	16.3803	0.905518	20.9306
0.291608	6.59238	0.056758	1.23546	0.289306	7.27561	0.461705	10.5341	0.571356	13.0244	0.84507	19.1271	0.184294	4.72558	0.431815	9.92899	0.705513	16.0397	0.905763	20.4949
0.292117	6.46767	0.0585411	1.24894	0.289766	7.12035	0.46214	10.3522	0.571878	12.7652	0.845348	18.7383	0.186019	4.65852	0.432005	9.85794	0.705801	15.7134	0.906013	20.0773
0.292637	6.34822	0.0603343	1.26211	0.290237	6.97229	0.462516	10.2025	0.57241	12.5168	0.845631	18.3653	0.187759	4.59489	0.432128	9.81305	0.706095	15.4005	0.906268	19.6767
0.293167	6.23372	0.0621371	1.27497	0.290718	6.83095	0.462831	10.0821	0.572953	12.2785	0.84592	18.0072	0.189514	4.53443	0.432305	9.7493	0.706394	15.1002	0.906528	19.2921
0.293706	6.12388	0.0639491	1.28754	0.291209	6.6959	0.463082	9.98914	0.573505	12.0498	0.846215	17.6632	0.191281	4.47693	0.432499	9.68102	0.706699	14.8117	0.906794	18.9225
0.294256	6.01843	0.0657699	1.29982	0.29171	6.56675	0.463269	9.92194	0.574069	11.83	0.846516	17.3324	0.193062	4.42218	0.432764	9.58982	0.707011	14.5344	0.907065	18.5672
0.294817	5.91713	0.0675992	1.31182	0.292222	6.44313	0.463389	9.87946	0.574642	11.6187	0.846823	17.0141	0.194856	4.37	0.433104	9.47715	0.707328	14.2677	0.90734	18.2252
0.295387	5.81974	0.0694366	1.32354	0.292743	6.3247	0.463563	9.81907	0.575225	11.4155	0.847135	16.7076	0.196661	4.32021	0.43352	9.34473	0.707651	14.0109	0.907621	17.896
0.295967	5.72606	0.0712818	1.335	0.293275	6.21117	0.463752	9.75434	0.575819	11.2198	0.847452	16.4123	0.198478	4.27267	0.434016	9.1945	0.70798	13.7635	0.907907	17.5787
0.296557	5.63589	0.0731344	1.34621	0.293817	6.10223	0.464013	9.66779	0.576422	11.0313	0.847776	16.1275	0.200305	4.22723	0.434594	9.02856	0.708315	13.525	0.908198	17.2727
0.297157	5.54904	0.0749941	1.35717	0.294369	5.99764	0.464345	9.56071	0.577036	10.8496	0.848105	15.8528	0.202144	4.18376	0.435183	8.86913	0.708656	13.295	0.908495	16.9775
0.297767	5.46535	0.0768607	1.36788	0.294931	5.89715	0.464752	9.43464	0.577659	10.6743	0.84844	15.5876	0.203992	4.14214	0.435783	8.71586	0.709003	13.073	0.908796	16.6925
0.298387	5.38464	0.0787338	1.37836	0.295503	5.80053	0.465236	9.29133	0.578211	10.5266	0.84878	15.3314	0.20585	4.10226	0.436394	8.5684	0.709356	12.8586	0.909103	16.4172
0.299017	5.30679	0.0806132	1.38862	0.296085	5.70757	0.465801	9.13267	0.578687	10.4042	0.849126	15.0839	0.207717	4.06402	0.437014	8.42644	0.709714	12.6515	0.909414	16.1511
0.299657	5.23164	0.0824987	1.39865	0.296677	5.61809	0.466375	8.97989	0.579085	10.3053	0.849478	14.8444	0.209593	4.02731	0.437645	8.28968	0.710079	12.4512	0.909731	15.8937
0.300306	5.15906	0.0843899	1.40846	0.297279	5.53189	0.466959	8.83269	0.579402	10.2286	0.849835	14.6127	0.211478	3.99206	0.438287	8.15787	0.710449	12.2574	0.910053	15.6447
0.300966	5.08894	0.0862867	1.41807	0.297891	5.44881	0.467553	8.69076	0.579636	10.1729	0.850198	14.3885	0.213371	3.95819	0.438939	8.03074	0.710825	12.0699	0.91038	15.4036
0.301635	5.02115	0.0881888	1.42747	0.298513	5.36869	0.468156	8.55383	0.579787	10.1377	0.850567	14.1713	0.215272	3.9256	0.439601	7.90805	0.711207	11.8883	0.910712	15.1701
0.302314	4.9556	0.0900961	1.43668	0.299145	5.29139	0.468769	8.42166	0.580005	10.0875	0.850941	13.9608	0.217181	3.89425	0.440274	7.78959	0.711595	11.7124	0.911049	14.9438
0.303003	4.89217	0.0920083	1.44569	0.299787	5.21677	0.469391	8.29402	0.580243	10.0336	0.851321	13.7567	0.219097	3.86405	0.440956	7.67515	0.711989	11.5418	0.911391	14.7244
0.303702	4.83078	0.0939252	1.45452	0.300439	5.1447	0.470023	8.17067	0.580568	9.96125	0.851706	13.5588	0.22102	3.83495	0.441649	7.56454	0.712388	11.3765	0.911738	14.5115
0.304318	4.77888	0.0958466	1.46316	0.3011	5.07506	0.470664	8.05141	0.580983	9.87144	0.852097	13.3668	0.22295	3.80689	0.442352	7.45758	0.712794	11.2161	0.912091	14.305
0.30485	4.73575	0.0977725	1.47163	0.301771	5.00773	0.471315	7.93606	0.58149	9.76521	0.852494	13.1804	0.224886	3.77982	0.443066	7.35409	0.713205	11.0604	0.912448	14.1045
0.305294	4.70085	0.0997025	1.47993	0.302452	4.94262	0.471975	7.82442	0.582091	9.64382	0.852896	12.9994	0.226829	3.75369	0.443789	7.25391	0.713622	10.9092	0.912811	13.9098
0.305647	4.67372	0.101637	1.48806	0.303143	4.87961	0.472644	7.71633	0.58279	9.50862	0.853304	12.8235	0.228778	3.72845	0.444522	7.15691	0.71399	10.7811	0.913178	13.7206
0.305908	4.65404	0.103575	1.49602	0.303844	4.81862	0.473323	7.61163	0.583499	9.37763	0.853717	12.6525	0.230732	3.70407	0.445265	7.06292	0.714307	10.6743	0.913551	13.5367
0.306076	4.64155	0.105516	1.50383	0.304554	4.75956	0.474011	7.51017	0.584217	9.25066	0.854136	12.4863	0.232692	3.68048	0.446018	6.97183	0.714572	10.5877	0.913929	13.3579
0.306318	4.62376	0.107462	1.51149	0.305274	4.70235	0.474708	7.4118	0.584944	9.12752	0.854561	12.3247	0.234658	3.65767	0.446781	6.88351	0.714783	10.5203	0.914311	13.1839
0.306583	4.60463	0.10941	1.51899	0.306004	4.6469	0.475414	7.3164	0.585681	9.00806	0.854991	12.1674	0.236629	3.63559	0.447554	6.79784	0.714939	10.4713	0.914699	13.0147
0.306944	4.57894	0.111362	1.52635	0.306743	4.59314	0.476129	7.22383	0.586428	8.89212	0.855426	12.0143	0.238605	3.61422	0.448337	6.71471	0.715039	10.4402	0.915092	12.8499
0.307405	4.54699	0.113318	1.53356	0.307493	4.541	0.476853	7.13398	0.587184	8.77955	0.855867	11.8652	0.240586	3.5935	0.449129	6.634	0.715183	10.3958	0.91549	12.6895
0.307967	4.50913	0.115276	1.54064	0.308251	4.49042	0.477587	7.04673	0.587949	8.67021	0.856314	11.72	0.242571	3.57343	0.449931	6.55563	0.715341	10.3481	0.915892	12.5332
0.308633	4.46579	0.116985	1.5467	0.309019	4.44134	0.478329	6.96197	0.588724	8.56397	0.856766	11.5786	0.244561	3.55397	0.450743	6.4795	0.715557	10.2839	0.9163	12.3809
0.309406	4.41743	0.118444	1.55179	0.309797	4.39368	0.479081	6.87962	0.589507	8.4607	0.857224	11.4407	0.246555	3.53509	0.451564	6.40552	0.715832	10.2039	0.916713	12.2325
0.310188	4.37047	0.119651	1.55594	0.310585	4.34741	0.479841	6.79956	0.5903	8.36029	0.857687	11.3063	0.248554	3.51676	0.452395	6.3336	0.716167	10.109	0.917131	12.0878
0.310981	4.32486	0.120607	1.55918	0.311382	4.30245	0.48061	6.72172	0.591102	8.26262	0.858155	11.1752	0.250557	3.49898	0.453236	6.26366	0.716565	9.99996	0.917554	11.9467
0.311783	4.28054	0.121309	1.56155	0.312189	4.25877	0.481388	6.646	0.591913	8.16759	0.858568	11.0636	0.252563	3.4817	0.454086	6.19563	0.717026	9.87797	0.917981	11.809
0.312594	4.23748	0.121759	1.56306	0.313005	4.21632	0.482175	6.57232	0.592734	8.07509	0.858923	10.9703	0.254574	3.46491	0.454945	6.12944	0.717493	9.75914	0.918414	11.6747
0.313415	4.19562	0.122407	1.56522	0.313831	4.17504	0.48297	6.50061	0.593563	7.98503	0.859219	10.8945	0.256588	3.44859	0.455814	6.06501	0.717966	9.64337	0.918852	11.5435
0.314245	4.15491	0.12311	1.56755	0.314666	4.1349	0.483774	6.43079	0.594401	7.89732	0.859455	10.8353	0.258606	3.43272	0.456692	6.00228	0.718445	9.53053	0.919295	11.4155
0.315085	4.11532	0.124068	1.57069	0.315511	4.09586	0.484587	6.36279	0.595248	7.81188	0.859629	10.7922	0.260627	3.41729	0.457579	5.94119	0.718929	9.42052	0.919743	11.2904
0.315935	4.07681	0.12528	1.57462	0.316365	4.05787	0.485408	6.29654	0.596104	7.72861	0.859741	10.7648	0.262651	3.40227	0.458475	5.88168	0.719419	9.31325	0.920137	11.1838
0.316794	4.03933	0.126747	1.57932	0.317229	4.0209	0.486238	6.23199	0.596968	7.64744	0.859902	10.7257	0.264679	3.38765	0.459381	5.82369	0.719915	9.2086	0.920476	11.0946
0.317662	4.00285	0.128469	1.58475	0.318102	3.98491	0.487077	6.16907	0.597842	7.5683	0.860078	10.6836	0.266709	3.37342	0.460296	5.76717	0.720417	9.10648	0.920758	11.0219
0.318541	3.96734	0.130448	1.59088	0.318985	3.94987	0.487924	6.10772	0.598724	7.49111	0.860318	10.6268	0.268743	3.35955	0.46122	5.71207	0.720924	9.00682	0.920983	10.9652
0.319428	3.93276	0.132429	1.59689	0.319877	3.91574	0.488779	6.0479	0.599615	7.41581	0.860623	10.556	0.27078	3.34604	0.462153	5.65834	0.721437	8.90952	0.921149	10.9239
0.320325	3.89908	0.134412	1.6028	0.320779	3.8825	0.489643	5.98953	0.600514	7.34233	0.860996	10.4717	0.272819	3.33287	0.463095	5.60592	0.721955	8.8145	0.921255	10.8977
0.321232	3.86627	0.136397	1.6086	0.321691	3.85012	0.490515	5.93259	0.601422	7.2706	0.861436	10.3746	0.274861	3.32003	0.464046	5.55479	0.72248	8.72169	0.921409	10.8601
0.322148	3.8343	0.138384	1.61429	0.322612	3.81856	0.491395	5.87701	0.602339	7.20058	0.861947	10.2655	0.276906	3.3075	0.465006	5.50488	0.723009	8.63101	0.921576	10.8197
0.323074	3.80314	0.140373	1.61989	0.323542	3.7878	0.492284	5.82275	0.603263	7.1322	0.862463	10.159	0.278954	3.29529	0.465975	5.45617	0.723545	8.5424	0.921805	10.7652
0.324009	3.77277	0.142364	1.62539	0.324482	3.75782	0.49318	5.76978	0.604197	7.06541	0.862984	10.0548	0.281003	3.28336	0.466953	5.40861	0.724086	8.45577	0.922096	10.6971
0.324954	3.74317	0.144357	1.63079	0.325432	3.72858	0.494085	5.71804	0.605138	7.00015	0.863511	9.95286	0.283056	3.27173	0.467939	5.36217	0.724633	8.37108	0.922451	10.616
0.325908	3.7143	0.146351	1.63611	0.326391	3.70007	0.494998	5.66749	0.606088	6.93638	0.864043	9.85318	0.28511	3.26036	0.468934	5.31681	0.725185	8.28825	0.92287	10.5225
0.326872	3.68614	0.148347	1.64133	0.32736	3.67227	0.495919	5.61811	0.607047	6.87405	0.864581	9.75566	0.287167	3.24926	0.469938	5.2725	0.725743	8.20723	0.923356	10.4173
0.327846	3.65868	0.150345	1.64646	0.328338	3.64515	0.496848	5.56984	0.608013	6.81312	0.865124	9.66023	0.289226	3.23842	0.47095	5.22919	0.726307	8.12797	0.923846	10.3144
0.328829	3.63189	0.152344	1.6515	0.329326	3.61869	0.497785	5.52267	0.608988	6.75353	0.865672	9.56682	0.291287	3.22782	0.471971	5.18687	0.726876	8.0504	0.924342	10.2137
0.329822	3.60575	0.154345	1.65646	0.330324	3.59287	0.49873	5.47654	0.609971	6.69525	0.866226	9.47538	0.29335	3.21746	0.473001	5.1455	0.727451	7.97448	0.924842	10.1151
0.330824	3.58024	0.156347	1.66134	0.331331	3.56767	0.499683	5.43144	0.610961	6.63824	0.866785	9.38584	0.295415	3.20734	0.474039	5.10505	0.728031	7.90015	0.925348	10.0186
0.331837	3.55535	0.158351	1.66613	0.332348	3.54308	0.500644	5.38732	0.61196	6.58246	0.86735	9.29815	0.297481	3.19743	0.475085	5.06549	0.728617	7.82738	0.925858	9.92399
0.332859	3.53105	0.160356	1.67085	0.333375	3.51907	0.501612	5.34416	0.612967	6.52787	0.867919	9.21224	0.29955	3.18774	0.47614	5.02681	0.729208	7.7561	0.926373	9.83133
0.33389	3.50733	0.162362	1.67548	0.334412	3.49564	0.502589	5.30193	0.613982	6.47443	0.868494	9.12808	0.30162	3.17826	0.477204	4.98896	0.729805	7.68628	0.926893	9.74053
0.334932	3.48418	0.16437	1.68005	0.335459	3.47276	0.503572	5.26061	0.615004	6.42212	0.869075	9.0456	0.303692	3.16899	0.478275	4.95193	0.730408	7.61787	0.927418	9.65155
0.335984	3.46157	0.166378	1.68454	0.336516	3.45042	0.504564	5.22016	0.616035	6.3709	0.869661	8.96476	0.305766	3.1599	0.479355	4.91569	0.731016	7.55084	0.927948	9.56432
0.337045	3.43949	0.168388	1.68895	0.337582	3.4286	0.505563	5.18056	0.617073	6.32073	0.870251	8.88551	0.307841	3.15101	0.480443	4.88022	0.731629	7.48514	0.928482	9.47881
0.338117	3.41793	0.170399	1.6933	0.338659	3.4073	0.50657	5.14179	0.618118	6.27159	0.870848	8.80781	0.309918	3.1423	0.481539	4.8455	0.732249	7.42074	0.929021	9.39495
0.339199	3.39687	0.172411	1.69758	0.339746	3.38649	0.507584	5.10381	0.619172	6.22345	0.871449	8.73162	0.311996	3.13377	0.482644	4.8115	0.732873	7.3576	0.929566	9.31271
0.340291	3.3763	0.174424	1.70178	0.340843	3.36616	0.508606	5.06662	0.620233	6.17627	0.872056	8.65688	0.314076	3.12541	0.483756	4.77821	0.733503	7.29569	0.930115	9.23204
0.341393	3.35621	0.176438	1.70593	0.34195	3.34631	0.509635	5.03019	0.621302	6.13004	0.872668	8.58357	0.316157	3.11722	0.484876	4.7456	0.734139	7.23496	0.930668	9.15289
0.342506	3.33659	0.178453	1.71001	0.343068	3.32691	0.510671	4.99449	0.622378	6.08473	0.873285	8.51164	0.31824	3.10919	0.486005	4.71366	0.73478	7.17539	0.931227	9.07523
0.343628	3.31742	0.180469	1.71402	0.344196	3.30796	0.511715	4.9595	0.623462	6.0403	0.873908	8.44105	0.320323	3.10132	0.487141	4.68237	0.735426	7.11695	0.93179	8.99901
0.344762	3.29869	0.182486	1.71797	0.345335	3.28945	0.512766	4.92522	0.624553	5.99674	0.874535	8.37178	0.322408	3.0936	0.488285	4.65172	0.736078	7.05961	0.932359	8.9242
0.345906	3.2804	0.184503	1.72186	0.346484	3.27137	0.513824	4.89161	0.625651	5.95403	0.875168	8.30377	0.324495	3.08603	0.489438	4.62167	0.736735	7.00334	0.932932	8.85076
0.347061	3.26252	0.186522	1.7257	0.347645	3.2537	0.51489	4.85865	0.626757	5.91213	0.875807	8.23701	0.326582	3.0786	0.490598	4.59222	0.737398	6.9481	0.933509	8.77864
0.348226	3.24506	0.188541	1.72947	0.348816	3.23644	0.515963	4.82634	0.62787	5.87103	0.87645	8.17146	0.32867	3.07131	0.491765	4.56335	0.738066	6.89387	0.934092	8.70783
0.349403	3.228	0.190561	1.73319	0.349998	3.21958	0.517042	4.79466	0.62899	5.83071	0.877098	8.10708	0.33076	3.06416	0.492941	4.53505	0.73874	6.84064	0.934679	8.63827
0.350591	3.21133	0.192582	1.73685	0.351191	3.20311	0.518129	4.76358	0.630117	5.79114	0.877752	8.04385	0.33285	3.05714	0.494124	4.5073	0.739419	6.78836	0.935271	8.56995
0.35179	3.19504	0.194603	1.74046	0.352396	3.18701	0.519223	4.73309	0.631252	5.75231	0.878411	7.98174	0.334941	3.05024	0.495315	4.48009	0.740103	6.73701	0.935868	8.50283
0.353	3.17914	0.196625	1.74401	0.353612	3.17129	0.520323	4.70318	0.632394	5.7142	0.879075	7.92072	0.337034	3.04348	0.496513	4.4534	0.740793	6.68658	0.93647	8.43688
0.354222	3.1636	0.198648	1.74751	0.35484	3.15593	0.521431	4.67383	0.633542	5.67679	0.879744	7.86076	0.339127	3.03683	0.497719	4.42722	0.741488	6.63704	0.937076	8.37206
0.355456	3.14842	0.200672	1.75096	0.35608	3.14093	0.522546	4.64503	0.634698	5.64006	0.880418	7.80183	0.341221	3.0303	0.498932	4.40153	0.742188	6.58837	0.937687	8.30836
0.356702	3.13359	0.202696	1.75436	0.357332	3.12628	0.523667	4.61676	0.635861	5.60399	0.881098	7.74392	0.343316	3.02388	0.500153	4.37633	0.742894	6.54054	0.938302	8.24575
0.35796	3.11911	0.20472	1.7577	0.358596	3.11197	0.524795	4.58901	0.63703	5.56857	0.881782	7.68699	0.345412	3.01758	0.501381	4.3516	0.743605	6.49353	0.938923	8.18419
0.35923	3.10497	0.206745	1.76101	0.359872	3.098	0.52593	4.56177	0.638206	5.53379	0.882472	7.63102	0.347508	3.01138	0.502617	4.32734	0.744321	6.44733	0.939548	8.12367
0.360512	3.09116	0.208771	1.76426	0.361161	3.08436	0.527072	4.53503	0.639389	5.49962	0.883166	7.57599	0.349606	3.00529	0.50386	4.30352	0.745043	6.40192	0.940178	8.06415
0.361808	3.07768	0.210797	1.76746	0.362463	3.07104	0.52822	4.50876	0.640579	5.46605	0.883866	7.52188	0.351704	2.99931	0.50511	4.28014	0.74577	6.35727	0.940812	8.00561
0.363116	3.06453	0.212824	1.77063	0.363778	3.05804	0.529375	4.48297	0.641776	5.43306	0.884571	7.46866	0.353802	2.99342	0.506368	4.25718	0.746502	6.31337	0.941451	7.94804
0.364438	3.05168	0.214851	1.77374	0.365106	3.04535	0.530536	4.45763	0.642979	5.40065	0.885281	7.41631	0.355901	2.98763	0.507632	4.23465	0.74724	6.2702	0.942095	7.8914
0.365773	3.03915	0.216878	1.77681	0.366448	3.03298	0.531704	4.43274	0.644188	5.3688	0.885996	7.36481	0.358001	2.98193	0.508904	4.21252	0.747983	6.22775	0.942743	7.83568
0.367121	3.02693	0.218906	1.77984	0.367804	3.0209	0.532878	4.40829	0.645405	5.33749	0.886716	7.31415	0.360101	2.97633	0.510183	4.19078	0.748731	6.18599	0.943396	7.78086
0.368484	3.015	0.220935	1.78283	0.369174	3.00913	0.534059	4.38427	0.646628	5.30671	0.887441	7.26431	0.362202	2.97082	0.511469	4.16944	0.749484	6.14491	0.944054	7.7269
0.369861	3.00337	0.222964	1.78577	0.370558	2.99765	0.535246	4.36066	0.647857	5.27646	0.888171	7.21525	0.364304	2.96539	0.512763	4.14847	0.750243	6.1045	0.944716	7.67381
0.371253	2.99204	0.224993	1.78868	0.371957	2.98645	0.53644	4.33746	0.649092	5.24671	0.888906	7.16698	0.366405	2.96005	0.514063	4.12788	0.751006	6.06474	0.945383	7.62154
0.372659	2.98099	0.227022	1.79154	0.373371	2.97555	0.53764	4.31466	0.650335	5.21745	0.889646	7.11946	0.368508	2.95479	0.51537	4.10764	0.751775	6.02561	0.946055	7.5701
0.374081	2.97022	0.229052	1.79437	0.374801	2.96493	0.538846	4.29225	0.651583	5.18869	0.89039	7.07269	0.37061	2.94962	0.516684	4.08776	0.752549	5.9871	0.946731	7.51945
0.375518	2.95974	0.231082	1.79715	0.376246	2.95458	0.540058	4.27021	0.652838	5.16039	0.89114	7.02665	0.372713	2.94452	0.518005	4.06822	0.753329	5.94921	0.947411	7.46958
0.376971	2.94953	0.233113	1.7999	0.377707	2.94451	0.541277	4.24855	0.654098	5.13256	0.891895	6.98131	0.374817	2.9395	0.519333	4.04902	0.754113	5.9119	0.948097	7.42047
0.37844	2.9396	0.235143	1.80262	0.379184	2.93471	0.542501	4.22725	0.655365	5.10518	0.892655	6.93667	0.37692	2.93456	0.520668	4.03015	0.754903	5.87518	0.948787	7.37211
0.379926	2.92993	0.237174	1.80529	0.380678	2.92518	0.543732	4.2063	0.656639	5.07824	0.89342	6.89271	0.379024	2.92969	0.522009	4.01161	0.755698	5.83903	0.949481	7.32449
0.381428	2.92053	0.239206	1.80793	0.382189	2.91592	0.544969	4.1857	0.657918	5.05173	0.89419	6.84941	0.381128	2.92489	0.523357	3.99337	0.756498	5.80343	0.95018	7.27757
0.382948	2.9114	0.241237	1.81054	0.383717	2.90691	0.546211	4.16543	0.659203	5.02565	0.894964	6.80677	0.383233	2.92016	0.524712	3.97545	0.757303	5.76838	0.950883	7.23136
0.384484	2.90252	0.243269	1.81311	0.385263	2.89816	0.54746	4.1455	0.660495	4.99998	0.895744	6.76476	0.385338	2.9155	0.526074	3.95783	0.758113	5.73386	0.951591	7.18583
0.386039	2.8939	0.245301	1.81564	0.386826	2.88967	0.548715	4.12589	0.661792	4.97471	0.896528	6.72338	0.387442	2.9109	0.527442	3.9405	0.758929	5.69986	0.952304	7.14097
0.387612	2.88554	0.247333	1.81815	0.388408	2.88143	0.549975	4.1066	0.663095	4.94984	0.897317	6.6826	0.389547	2.90637	0.528816	3.92346	0.759749	5.66637	0.953021	7.09676
0.389202	2.87742	0.249365	1.82062	0.390008	2.87344	0.551241	4.08762	0.664404	4.92536	0.898112	6.64243	0.391653	2.90191	0.530198	3.9067	0.760575	5.63339	0.953743	7.0532
0.390812	2.86956	0.251398	1.82305	0.391627	2.8657	0.552514	4.06894	0.665719	4.90126	0.898911	6.60284	0.393758	2.8975	0.531585	3.89022	0.761405	5.60089	0.954469	7.01027
0.39244	2.86193	0.25343	1.82546	0.393265	2.8582	0.553792	4.05056	0.66704	4.87752	0.899714	6.56382	0.395863	2.89316	0.53298	3.87401	0.762241	5.56887	0.955199	6.96795
0.394087	2.85455	0.255463	1.82784	0.394922	2.85094	0.555075	4.03247	0.668367	4.85415	0.900523	6.52537	0.397969	2.88888	0.53438	3.85807	0.763082	5.53732	0.955934	6.92624
0.395754	2.84741	0.257496	1.83018	0.396598	2.84391	0.556364	4.01466	0.669699	4.83114	0.901337	6.48747	0.400074	2.88465	0.535787	3.84238	0.763927	5.50623	0.956674	6.88512
0.39744	2.8405	0.259529	1.8325	0.398294	2.83711	0.557659	3.99713	0.671037	4.80847	0.902155	6.4501	0.40218	2.88048	0.537201	3.82694	0.764778	5.47559	0.957418	6.84458
0.399145	2.83382	0.261563	1.83478	0.400009	2.83055	0.55896	3.97988	0.67238	4.78614	0.902978	6.41327	0.404285	2.87637	0.538621	3.81176	0.765634	5.44539	0.958166	6.8046
0.400871	2.82736	0.263596	1.83704	0.401744	2.82421	0.560266	3.96289	0.673729	4.76415	0.903806	6.37695	0.406391	2.87231	0.540047	3.79682	0.766495	5.41563	0.958919	6.76519
0.402616	2.82113	0.265629	1.83927	0.403499	2.81809	0.561577	3.94616	0.675084	4.74248	0.904639	6.34114	0.408496	2.8683	0.541479	3.78211	0.76736	5.38629	0.959676	6.72632
0.404381	2.81512	0.267663	1.84147	0.405274	2.81218	0.562895	3.92969	0.676444	4.72114	0.905476	6.30583	0.410602	2.86435	0.542918	3.76764	0.768231	5.35736	0.960438	6.68798
0.406165	2.80932	0.269696	1.84364	0.407069	2.80649	0.564217	3.91346	0.677809	4.7001	0.906318	6.271	0.412707	2.86044	0.544362	3.7534	0.769107	5.32885	0.961204	6.65017
0.40797	2.80374	0.27173	1.84579	0.408883	2.80101	0.565545	3.89749	0.67918	4.67938	0.907165	6.23666	0.414812	2.85659	0.545813	3.73938	0.769988	5.30073	0.961974	6.61287
0.409794	2.79835	0.273764	1.84791	0.410717	2.79573	0.566878	3.88175	0.680556	4.65895	0.908017	6.20278	0.416917	2.85278	0.54727	3.72559	0.770873	5.27301	0.962749	6.57608
0.411638	2.79317	0.275798	1.85	0.412571	2.79065	0.568217	3.86625	0.681938	4.63883	0.908874	6.16937	0.419022	2.84902	0.548734	3.712	0.771764	5.24567	0.963528	6.53979
0.413501	2.78819	0.277832	1.85207	0.414443	2.78576	0.569561	3.85098	0.683325	4.61899	0.909735	6.13641	0.421126	2.8453	0.550203	3.69863	0.772659	5.21871	0.964312	6.50398
0.415383	2.7834	0.279865	1.85411	0.416335	2.78106	0.57091	3.83594	0.684717	4.59943	0.9106	6.10389	0.423231	2.84163	0.551678	3.68546	0.77356	5.19211	0.9651	6.46864
0.417284	2.77879	0.281899	1.85613	0.418246	2.77654	0.572264	3.82112	0.686115	4.58015	0.911471	6.0718	0.425335	2.83801	0.553159	3.6725	0.774465	5.16589	0.965892	6.43377
0.419204	2.77436	0.283933	1.85813	0.420175	2.7722	0.573623	3.80652	0.687517	4.56115	0.912346	6.04014	0.427439	2.83443	0.554646	3.65974	0.775375	5.14001	0.966689	6.39937
0.421143	2.77011	0.285967	1.86009	0.422123	2.76804	0.574988	3.79213	0.688925	4.54241	0.913226	6.0089	0.429543	2.83089	0.55614	3.64717	0.77629	5.11449	0.96749	6.36541
0.423099	2.76602	0.288001	1.86204	0.424088	2.76404	0.576358	3.77795	0.690337	4.52393	0.914111	5.97808	0.431646	2.82739	0.557639	3.63479	0.77721	5.08931	0.968295	6.33189
0.425073	2.76211	0.290035	1.86396	0.426071	2.7602	0.577733	3.76397	0.691755	4.50571	0.915	5.94765	0.43375	2.82393	0.559144	3.6226	0.778135	5.06447	0.969104	6.29881
0.427064	2.75835	0.292069	1.86586	0.42807	2.75652	0.579112	3.7502	0.693178	4.48775	0.915893	5.91762	0.435852	2.82051	0.560654	3.61059	0.779064	5.03996	0.969918	6.26615
0.429072	2.75474	0.294103	1.86774	0.430087	2.75298	0.580497	3.73662	0.694606	4.47003	0.916792	5.88798	0.437955	2.81713	0.562171	3.59877	0.779999	5.01577	0.970736	6.23392
0.431097	2.75128	0.296137	1.86959	0.432119	2.7496	0.581887	3.72324	0.696039	4.45255	0.917695	5.85873	0.440057	2.81379	0.563693	3.58712	0.780938	4.9919	0.971559	6.20209
0.433137	2.74796	0.298171	1.87143	0.434167	2.74635	0.583282	3.71004	0.697476	4.43531	0.918603	5.82984	0.442159	2.81049	0.565221	3.57564	0.781882	4.96835	0.972386	6.17067
0.435193	2.74478	0.300205	1.87324	0.436231	2.74323	0.584681	3.69703	0.698919	4.41831	0.919515	5.80133	0.44426	2.80722	0.566755	3.56433	0.782831	4.9451	0.973217	6.13964
0.437264	2.74173	0.302238	1.87503	0.438309	2.74024	0.586086	3.68421	0.700366	4.40153	0.920431	5.77318	0.446361	2.80399	0.568294	3.5532	0.783785	4.92216	0.974052	6.109
0.439349	2.7388	0.304272	1.87679	0.440401	2.73738	0.587495	3.67157	0.701818	4.38498	0.921353	5.74538	0.448462	2.80079	0.569839	3.54222	0.784743	4.89951	0.974891	6.07875
0.441448	2.736	0.306306	1.87854	0.442507	2.73463	0.588909	3.6591	0.703275	4.36865	0.922279	5.71794	0.450562	2.79763	0.57139	3.53141	0.785706	4.87715	0.975735	6.04887
0.443561	2.73331	0.308339	1.88027	0.444626	2.732	0.590327	3.6468	0.704736	4.35254	0.923209	5.69083	0.452662	2.7945	0.572946	3.52075	0.786674	4.85508	0.976583	6.01936
0.445686	2.73073	0.310373	1.88198	0.446758	2.72947	0.591751	3.63467	0.706202	4.33664	0.924144	5.66407	0.454761	2.7914	0.574508	3.51025	0.787647	4.83329	0.977435	5.99021
0.447824	2.72825	0.312406	1.88367	0.448902	2.72705	0.593179	3.62271	0.707673	4.32095	0.925083	5.63763	0.45686	2.78834	0.576076	3.49991	0.788624	4.81178	0.978291	5.96142
0.449975	2.72588	0.31444	1.88534	0.451058	2.72473	0.594612	3.61092	0.709149	4.30547	0.926027	5.61152	0.458958	2.78531	0.577649	3.48971	0.789606	4.79054	0.979151	5.93298
0.452136	2.7236	0.316473	1.88699	0.453226	2.7225	0.596049	3.59928	0.710629	4.29019	0.926976	5.58573	0.461055	2.78231	0.579227	3.47966	0.790593	4.76956	0.980016	5.90488
0.454309	2.72142	0.318506	1.88862	0.455404	2.72035	0.597491	3.5878	0.712113	4.2751	0.927929	5.56026	0.463152	2.77933	0.580811	3.46975	0.791584	4.74885	0.980885	5.87712
0.456492	2.71932	0.32054	1.89023	0.457592	2.7183	0.598938	3.57648	0.713602	4.26021	0.928886	5.53509	0.465249	2.77639	0.5824	3.45999	0.79258	4.7284	0.981758	5.8497
0.458686	2.71731	0.322573	1.89183	0.459791	2.71632	0.600389	3.56531	0.715096	4.24551	0.929848	5.51023	0.467345	2.77348	0.583995	3.45037	0.793581	4.7082	0.982635	5.8226
0.460889	2.71537	0.324606	1.8934	0.461999	2.71443	0.601844	3.55429	0.716593	4.231	0.930814	5.48567	0.46944	2.7706	0.585594	3.44088	0.794587	4.68825	0.983516	5.79582
0.463102	2.71351	0.326638	1.89496	0.464216	2.71261	0.603304	3.54341	0.718096	4.21668	0.931785	5.4614	0.471535	2.76774	0.5872	3.43152	0.795597	4.66855	0.984401	5.76936
0.465323	2.71173	0.328671	1.89651	0.466442	2.71085	0.604768	3.53268	0.719602	4.20253	0.93276	5.43743	0.473629	2.76491	0.58881	3.4223	0.796611	4.64908	0.985291	5.74321
0.467554	2.71001	0.330704	1.89803	0.468676	2.70917	0.606237	3.52209	0.721113	4.18856	0.93374	5.41373	0.475722	2.76211	0.590426	3.41321	0.797631	4.62986	0.986184	5.71737
0.469792	2.70836	0.332736	1.89954	0.470918	2.70755	0.60771	3.51164	0.722628	4.17477	0.934724	5.39032	0.477815	2.75933	0.592047	3.40425	0.798655	4.61086	0.987082	5.69183
0.472038	2.70677	0.334769	1.90103	0.473168	2.70599	0.609188	3.50133	0.724148	4.16115	0.935712	5.36718	0.479907	2.75658	0.593674	3.39541	0.799683	4.5921	0.987984	5.66659
0.474291	2.70523	0.336801	1.9025	0.475425	2.70449	0.610669	3.49115	0.725671	4.1477	0.936705	5.34432	0.481999	2.75386	0.595305	3.38669	0.800716	4.57356	0.988889	5.64164
0.476552	2.70376	0.338833	1.90396	0.477689	2.70304	0.612155	3.4811	0.727199	4.13442	0.937702	5.32172	0.48409	2.75116	0.596942	3.3781	0.801754	4.55525	0.989799	5.61697
0.47882	2.70234	0.340865	1.9054	0.47996	2.70165	0.613645	3.47119	0.728731	4.1213	0.938703	5.29938	0.48618	2.74848	0.598584	3.36962	0.802796	4.53715	0.990713	5.59259
0.481094	2.70097	0.342897	1.90683	0.482237	2.7003	0.61514	3.4614	0.730267	4.10834	0.939709	5.2773	0.488269	2.74583	0.600231	3.36127	0.803843	4.51927	0.991631	5.56848
0.483374	2.69965	0.344928	1.90824	0.484521	2.69901	0.616638	3.45173	0.731808	4.09553	0.940719	5.25547	0.490357	2.7432	0.601883	3.35302	0.804894	4.5016	0.992553	5.54465
0.48566	2.69838	0.34696	1.90964	0.48681	2.69776	0.618141	3.44219	0.733352	4.08289	0.941733	5.2339	0.492445	2.7406	0.60354	3.34489	0.80595	4.48414	0.993479	5.52109
0.487952	2.69715	0.348991	1.91102	0.489104	2.69655	0.619648	3.43277	0.7349	4.07039	0.942752	5.21257	0.494532	2.73802	0.605202	3.33687	0.80701	4.46688	0.994409	5.49779
0.490249	2.69597	0.351023	1.91239	0.491404	2.69539	0.621159	3.42347	0.736452	4.05805	0.943775	5.19148	0.496619	2.73546	0.606869	3.32897	0.808075	4.44983	0.995342	5.47475
0.492551	2.69482	0.353054	1.91374	0.493709	2.69426	0.622674	3.41429	0.738008	4.04585	0.944802	5.17063	0.498704	2.73292	0.608541	3.32116	0.809144	4.43297	0.99628	5.45197
0.494859	2.69371	0.355085	1.91507	0.496019	2.69317	0.624192	3.40522	0.739569	4.0338	0.945834	5.15002	0.500789	2.7304	0.610218	3.31347	0.810218	4.41631	0.997222	5.42944
0.497171	2.69264	0.357115	1.9164	0.498333	2.69212	0.625715	3.39627	0.741132	4.0219	0.94687	5.12964	0.502873	2.72791	0.6119	3.30588	0.811296	4.39985	0.998168	5.40716
0.499487	2.69161	0.359146	1.9177	0.500652	2.6911	0.627242	3.38743	0.7427	4.01013	0.94791	5.10948	0.504955	2.72543	0.613587	3.29839	0.812379	4.38357	0.999118	5.38513
0.501808	2.6906	0.361176	1.919	0.502975	2.69011	0.628773	3.37869	0.744272	3.9985	0.948954	5.08955	0.507038	2.72298	0.615279	3.291	0.813466	4.36748	1.00007	5.36333
0.504133	2.68963	0.363207	1.92028	0.505302	2.68916	0.630308	3.37007	0.745847	3.98701	0.950003	5.06984	0.509119	2.72054	0.616975	3.28371	0.814557	4.35157		
0.506462	2.68869	0.365237	1.92155	0.507632	2.68823	0.631847	3.36155	0.747427	3.97565	0.951055	5.05035	0.511199	2.71813	0.618677	3.27652	0.815653	4.33584		
0.508794	2.68778	0.367267	1.9228	0.509967	2.68734	0.633389	3.35314	0.74901	3.96442	0.952112	5.03107	0.513279	2.71573	0.620383	3.26942	0.816753	4.3203		
0.511131	2.6869	0.369296	1.92404	0.512305	2.68647	0.634936	3.34482	0.750596	3.95332	0.953174	5.012	0.515358	2.71335	0.622094	3.26242	0.817858	4.30492		
0.51347	2.68604	0.371326	1.92527	0.514646	2.68562	0.636486	3.33661	0.752187	3.94235	0.954239	4.99314	0.517435	2.71099	0.62381	3.25551	0.818967	4.28972		
0.515813	2.68521	0.373355	1.92649	0.51699	2.6848	0.63804	3.3285	0.753781	3.93151	0.955308	4.97448	0.519512	2.70865	0.62553	3.24869	0.820081	4.2747		
0.518159	2.6844	0.375384	1.92769	0.519338	2.68401	0.639597	3.32049	0.755378	3.92079	0.956382	4.95603	0.521588	2.70633	0.627255	3.24197	0.821198	4.25983		
0.520508	2.68362	0.377413	1.92888	0.521688	2.68323	0.641159	3.31257	0.756979	3.91019	0.95746	4.93778	0.523663	2.70403	0.628985	3.23533	0.822321	4.24514		
0.52286	2.68286	0.379442	1.93006	0.524042	2.68248	0.642724	3.30475	0.758584	3.89971	0.958542	4.91972	0.525737	2.70174	0.630719	3.22877	0.823447	4.23061		
0.525215	2.68212	0.38147	1.93123	0.526398	2.68175	0.644293	3.29702	0.760192	3.88935	0.959628	4.90185	0.52781	2.69947	0.632458	3.22231	0.824578	4.21623		
0.527572	2.6814	0.383499	1.93238	0.528756	2.68104	0.645865	3.28939	0.761804	3.87911	0.960718	4.88418	0.529883	2.69721	0.634202	3.21593	0.825713	4.20202		
0.529931	2.6807	0.385527	1.93352	0.531117	2.68035	0.647441	3.28184	0.763419	3.86898	0.961812	4.86669	0.531954	2.69497	0.63595	3.20963	0.826852	4.18796		
0.532294	2.68001	0.387555	1.93465	0.53348	2.67968	0.649021	3.27439	0.765038	3.85896	0.962911	4.84938	0.534024	2.69275	0.637703	3.20341	0.827996	4.17406		
0.534658	2.67935	0.389583	1.93577	0.535846	2.67902	0.650605	3.26702	0.76666	3.84905	0.964013	4.83226	0.536093	2.69055	0.63946	3.19727	0.829144	4.1603		
0.537024	2.6787	0.39161	1.93688	0.538213	2.67838	0.652191	3.25974	0.768286	3.83925	0.96512	4.81532	0.538162	2.68836	0.641222	3.19121	0.830296	4.1467		
0.539393	2.67807	0.393638	1.93798	0.540583	2.67776	0.653782	3.25254	0.769914	3.82956	0.96623	4.79855	0.540229	2.68618	0.642988	3.18523	0.831453	4.13324		
0.541764	2.67746	0.395665	1.93906	0.542954	2.67715	0.655376	3.24542	0.771546	3.81998	0.967345	4.78196	0.542295	2.68402	0.644759	3.17933	0.832613	4.11993		
0.544136	2.67686	0.397692	1.94014	0.545328	2.67656	0.656973	3.23839	0.773182	3.8105	0.968463	4.76554	0.54436	2.68187	0.646534	3.17351	0.833778	4.10676		
0.546511	2.67627	0.399718	1.9412	0.547703	2.67598	0.658574	3.23145	0.774821	3.80112	0.969586	4.74929	0.546425	2.67974	0.648313	3.16775	0.834948	4.09373		
0.548887	2.6757	0.401745	1.94225	0.55008	2.67542	0.660179	3.22458	0.776463	3.79184	0.970713	4.73321	0.548488	2.67763	0.650097	3.16207	0.836121	4.08085		
0.551264	2.67514	0.403771	1.9433	0.552459	2.67486	0.661786	3.21779	0.778108	3.78267	0.971843	4.71729	0.55055	2.67553	0.651885	3.15647	0.837299	4.06809		
0.553644	2.67459	0.405797	1.94433	0.554839	2.67432	0.663398	3.21107	0.779756	3.77359	0.972978	4.70154	0.552611	2.67344	0.653677	3.15093	0.83848	4.05548		
0.556025	2.67406	0.407823	1.94535	0.55722	2.67379	0.665012	3.20444	0.781408	3.76461	0.974117	4.68595	0.554671	2.67136	0.655474	3.14546	0.839666	4.043		
0.558407	2.67354	0.409849	1.94636	0.559603	2.67328	0.66663	3.19788	0.783062	3.75572	0.975259	4.67051	0.55673	2.6693	0.657275	3.14007	0.840856	4.03064		
0.560791	2.67303	0.411874	1.94737	0.561988	2.67277	0.668251	3.19139	0.78472	3.74693	0.976406	4.65523	0.558788	2.66725	0.65908	3.13474	0.842051	4.01842		
0.563176	2.67252	0.413899	1.94836	0.564374	2.67228	0.669876	3.18498	0.786381	3.73823	0.977556	4.6401	0.560845	2.66522	0.660889	3.12948	0.843249	4.00633		
0.565562	2.67204	0.415924	1.94934	0.56676	2.67179	0.671504	3.17864	0.788045	3.72962	0.978711	4.62513	0.562901	2.6632	0.662703	3.12428	0.844452	3.99436		
0.56795	2.67156	0.417949	1.95031	0.569149	2.67132	0.673135	3.17237	0.789712	3.7211	0.979869	4.6103	0.564956	2.66119	0.66452	3.11915	0.845658	3.98252		
0.570338	2.67109	0.419973	1.95128	0.571538	2.67085	0.67477	3.16617	0.791382	3.71267	0.981031	4.59563	0.56701	2.65919	0.666342	3.11408	0.846869	3.9708		
0.572728	2.67062	0.421998	1.95223	0.573928	2.6704	0.676407	3.16004	0.793055	3.70433	0.982198	4.58109	0.569062	2.65721	0.668168	3.10908	0.848084	3.9592		
0.575119	2.67017	0.424022	1.95318	0.576319	2.66995	0.678048	3.15398	0.794731	3.69607	0.983368	4.56671	0.571114	2.65524	0.669998	3.10413	0.849303	3.94772		
0.577511	2.66973	0.426045	1.95411	0.578712	2.66951	0.679692	3.14798	0.79641	3.6879	0.984541	4.55246	0.573164	2.65328	0.671832	3.09925	0.850526	3.93635		
0.579903	2.66929	0.428069	1.95504	0.581105	2.66908	0.68134	3.14205	0.798092	3.67981	0.985719	4.53836	0.575214	2.65133	0.67367	3.09443	0.851753	3.92511		
0.582297	2.66887	0.430092	1.95596	0.583499	2.66865	0.68299	3.13619	0.799776	3.67181	0.986901	4.52439	0.577262	2.64939	0.675512	3.08967	0.852984	3.91398		
0.584692	2.66844	0.432115	1.95687	0.585894	2.66824	0.684644	3.13039	0.801464	3.66388	0.988087	4.51056	0.579309	2.64747	0.677358	3.08497	0.854219	3.90296		
0.587087	2.66803	0.434138	1.95777	0.58829	2.66783	0.686301	3.12465	0.803154	3.65604	0.989276	4.49686	0.581355	2.64555	0.679208	3.08032	0.855458	3.89205		
0.589483	2.66763	0.436161	1.95866	0.590686	2.66742	0.687961	3.11898	0.804848	3.64827	0.990469	4.4833	0.5834	2.64365	0.681062	3.07573	0.856702	3.88126		
0.59188	2.66723	0.438183	1.95954	0.593083	2.66703	0.689624	3.11337	0.806544	3.64059	0.991666	4.46987	0.585444	2.64176	0.682919	3.0712	0.857949	3.87057		
0.594277	2.66683	0.440205	1.96042	0.595481	2.66664	0.69129	3.10782	0.808242	3.63298	0.992867	4.45656	0.587487	2.63988	0.684781	3.06672	0.8592	3.85999		
0.596675	2.66645	0.442227	1.96128	0.59788	2.66626	0.692959	3.10233	0.809944	3.62544	0.994071	4.44339	0.589529	2.63801	0.686646	3.0623	0.860455	3.84952		
0.599074	2.66607	0.444249	1.96214	0.600279	2.66588	0.694631	3.0969	0.811648	3.61798	0.99528	4.43034	0.59157	2.63615	0.688515	3.05793	0.861715	3.83915		
0.601473	2.66569	0.44627	1.96299	0.602678	2.6655	0.696307	3.09153	0.813355	3.61059	0.996492	4.41741	0.593609	2.6343	0.690388	3.05361	0.862978	3.82888		
0.603873	2.66532	0.448291	1.96383	0.605078	2.66514	0.697985	3.08621	0.815065	3.60328	0.997708	4.40461	0.595648	2.63246	0.692265	3.04934	0.864245	3.81872		
0.606274	2.66496	0.450312	1.96467	0.607479	2.66478	0.699666	3.08095	0.816777	3.59604	0.998928	4.39193	0.597685	2.63064	0.694146	3.04513	0.865516	3.80865		
0.608675	2.6646	0.452333	1.96549	0.60988	2.66442	0.701351	3.07575	0.818492	3.58887	1.00015	4.37937	0.599721	2.62882	0.69603	3.04097	0.866791	3.79869		
0.611076	2.66424	0.454353	1.96631	0.612281	2.66407	0.703038	3.07061	0.820209	3.58177			0.601756	2.62701	0.697917	3.03685	0.86807	3.78883		
0.613477	2.66389	0.456373	1.96712	0.614683	2.66372	0.704729	3.06551	0.821929	3.57473			0.60379	2.62521	0.699809	3.03279	0.869353	3.77906		
0.61588	2.66355	0.458393	1.96793	0.617085	2.66338	0.706422	3.06048	0.823652	3.56777			0.605823	2.62342	0.701704	3.02877	0.87064	3.76938		
0.618282	2.66321	0.460413	1.96872	0.619488	2.66304	0.708118	3.05549	0.825377	3.56087			0.607855	2.62165	0.703602	3.0248	0.87193	3.75981		
0.620685	2.66287	0.462432	1.96951	0.621891	2.6627	0.709817	3.05056	0.827105	3.55404			0.609886	2.61988	0.705505	3.02088	0.873225	3.75032		
0.623088	2.66254	0.464451	1.97029	0.624294	2.66237	0.711519	3.04568	0.828835	3.54727			0.611916	2.61812	0.70741	3.017	0.874523	3.74093		
0.625491	2.66221	0.46647	1.97107	0.626697	2.66204	0.713224	3.04085	0.830568	3.54057			0.613944	2.61637	0.70932	3.01317	0.875826	3.73163		
0.627894	2.66188	0.468489	1.97183	0.629101	2.66172	0.714932	3.03607	0.832303	3.53393			0.615972	2.61463	0.711232	3.00939	0.877132	3.72242		
0.630298	2.66156	0.470507	1.97259	0.631505	2.6614	0.716643	3.03134	0.834041	3.52735			0.617998	2.61289	0.713148	3.00565	0.878442	3.71329		
0.632702	2.66124	0.472525	1.97334	0.633908	2.66108	0.718357	3.02666	0.835781	3.52084			0.620023	2.61117	0.715068	3.00195	0.879756	3.70426		
0.635106	2.66092	0.474543	1.97409	0.636312	2.66076	0.720073	3.02203	0.837523	3.51439			0.622048	2.60946	0.716991	2.99829	0.881073	3.69531		
0.63751	2.66061	0.476561	1.97483	0.638716	2.66045	0.721793	3.01745	0.839268	3.50799			0.624071	2.60775	0.718917	2.99468	0.882395	3.68645		
0.639914	2.6603	0.478578	1.97556	0.641121	2.66014	0.723515	3.01291	0.841015	3.50166			0.626093	2.60606	0.720847	2.99111	0.88372	3.67767		
0.642318	2.65999	0.480595	1.97629	0.643525	2.65984	0.72524	3.00843	0.842764	3.49538			0.628114	2.60437	0.722779	2.98758	0.885049	3.66897		
0.644722	2.65968	0.482612	1.97701	0.645929	2.65953	0.726968	3.00398	0.844516	3.48917			0.630134	2.60269	0.724716	2.98409	0.886382	3.66036		
0.647127	2.65938	0.484628	1.97772	0.648333	2.65923	0.728698	2.99959	0.84627	3.483			0.632153	2.60102	0.726655	2.98064	0.887719	3.65183		
0.649531	2.65908	0.486645	1.97843	0.650738	2.65893	0.730432	2.99524	0.848026	3.4769			0.634171	2.59936	0.728598	2.97723	0.889059	3.64338		
0.651935	2.65878	0.488661	1.97912	0.653142	2.65863	0.732168	2.99093	0.849785	3.47085			0.636187	2.5977	0.730543	2.97386	0.890404	3.63501		
0.654339	2.65848	0.490677	1.97982	0.655546	2.65834	0.733907	2.98667	0.851545	3.46486			0.638203	2.59606	0.732492	2.97053	0.891752	3.62672		
0.656743	2.65819	0.492692	1.98051	0.65795	2.65804	0.735649	2.98245	0.853309	3.45892			0.640218	2.59442	0.734444	2.96723	0.893103	3.61851		
0.659147	2.6579	0.494707	1.98119	0.660354	2.65775	0.737394	2.97827	0.855074	3.45303			0.642232	2.59279	0.7364	2.96398	0.894459	3.61037		
0.661551	2.6576	0.496722	1.98186	0.662757	2.65746	0.739142	2.97414	0.856841	3.4472			0.644244	2.59117	0.738358	2.96076	0.895818	3.60231		
0.663954	2.65731	0.498737	1.98253	0.665161	2.65717	0.740892	2.97005	0.85861	3.44142			0.646256	2.58956	0.740319	2.95757	0.897181	3.59432		
0.666358	2.65703	0.500752	1.98319	0.667564	2.65688	0.742645	2.96599	0.860382	3.43569			0.648267	2.58795	0.742284	2.95442	0.898547	3.58641		
0.668761	2.65674	0.502766	1.98385	0.669967	2.65659	0.744401	2.96199	0.862156	3.43001			0.650276	2.58636	0.744251	2.95131	0.899918	3.57857		
0.671164	2.65645	0.50478	1.9845	0.67237	2.65631	0.74616	2.95802	0.863932	3.42438			0.652285	2.58477	0.746221	2.94823	0.901292	3.57081		
0.673566	2.65617	0.506794	1.98515	0.674772	2.65602	0.747921	2.95409	0.865709	3.41881			0.654292	2.58318	0.748194	2.94518	0.902669	3.56311		
0.675969	2.65588	0.508807	1.98579	0.677175	2.65574	0.749685	2.9502	0.867489	3.41328			0.656299	2.58161	0.75017	2.94217	0.904051	3.55549		
0.678371	2.6556	0.51082	1.98642	0.679576	2.65546	0.751452	2.94635	0.869271	3.40779			0.658305	2.58004	0.752149	2.93919	0.905436	3.54794		
0.680773	2.65532	0.512833	1.98705	0.681978	2.65517	0.753222	2.94254	0.871055	3.40236			0.660309	2.57849	0.754131	2.93625	0.906824	3.54045		
0.683174	2.65503	0.514846	1.98767	0.684379	2.65489	0.754994	2.93877	0.872841	3.39698			0.662313	2.57693	0.756116	2.93333	0.908217	3.53304		
0.685575	2.65475	0.516858	1.98829	0.68678	2.65461	0.756769	2.93503	0.874629	3.39164			0.664316	2.57539	0.758103	2.93045	0.909613	3.52569		
0.687975	2.65447	0.51887	1.9889	0.68918	2.65433	0.758547	2.93134	0.876419	3.38634			0.666318	2.57385	0.760093	2.9276	0.911012	3.51841		
0.690375	2.65419	0.520882	1.98951	0.69158	2.65405	0.760328	2.92768	0.878211	3.38109			0.668319	2.57233	0.762086	2.92478	0.912415	3.51119		
0.692775	2.65391	0.522894	1.99011	0.693979	2.65377	0.762111	2.92405	0.880005	3.37589			0.670318	2.5708	0.764081	2.92199	0.913822	3.50404		
0.695174	2.65363	0.524905	1.9907	0.696378	2.65349	0.763897	2.92047	0.881801	3.37073			0.672317	2.56929	0.766079	2.91923	0.915233	3.49696		
0.697573	2.65335	0.526916	1.9913	0.698777	2.65321	0.765686	2.91692	0.883598	3.36562			0.674316	2.56778	0.76808	2.9165	0.916647	3.48994		
0.699971	2.65307	0.528927	1.99188	0.701174	2.65293	0.767478	2.9134	0.885398	3.36055			0.676313	2.56628	0.770084	2.9138	0.918064	3.48298		
0.702368	2.65279	0.530937	1.99246	0.703571	2.65264	0.769273	2.90992	0.887199	3.35552			0.678309	2.56479	0.77209	2.91112	0.919485	3.47608		
0.704765	2.6525	0.532948	1.99304	0.705968	2.65236	0.77107	2.90648	0.889003	3.35053			0.680304	2.56331	0.774098	2.90848	0.92091	3.46925		
0.707161	2.65222	0.534958	1.99361	0.708364	2.65208	0.77287	2.90307	0.890808	3.34559			0.682299	2.56183	0.776109	2.90586	0.922338	3.46248		
0.709557	2.65194	0.536967	1.99417	0.710759	2.6518	0.774673	2.89969	0.892614	3.34068			0.684292	2.56036	0.778123	2.90327	0.92377	3.45577		
0.711952	2.65166	0.538977	1.99473	0.713153	2.65151	0.776478	2.89635	0.894423	3.33582			0.686285	2.55889	0.780139	2.90071	0.925206	3.44912		
0.714346	2.65137	0.540986	1.99529	0.715547	2.65123	0.778287	2.89304	0.896233	3.331			0.688277	2.55743	0.782157	2.89818	0.926645	3.44252		
0.716739	2.65109	0.542995	1.99584	0.71794	2.65095	0.780098	2.88976	0.898046	3.32621			0.690268	2.55598	0.784178	2.89567	0.928087	3.43599		
0.719132	2.6508	0.545004	1.99639	0.720332	2.65066	0.781912	2.88652	0.899859	3.32147			0.692258	2.55454	0.786201	2.89318	0.929533	3.42951		
0.721523	2.65052	0.547012	1.99693	0.722724	2.65037	0.783729	2.88331	0.901675	3.31677			0.694247	2.5531	0.788226	2.89073	0.930983	3.42309		
0.723914	2.65023	0.54902	1.99747	0.725114	2.65009	0.785549	2.88013	0.903492	3.3121			0.696236	2.55167	0.790254	2.88829	0.932436	3.41673		
0.726304	2.64994	0.551028	1.998	0.727504	2.6498	0.787371	2.87699	0.905312	3.30747			0.698224	2.55025	0.792284	2.88589	0.933892	3.41043		
0.728694	2.64965	0.553036	1.99853	0.729893	2.6495	0.789197	2.87388	0.907132	3.30288			0.70021	2.54883	0.794316	2.8835	0.935352	3.40418		
0.731082	2.64936	0.555043	1.99905	0.73228	2.64921	0.791025	2.87079	0.908955	3.29833			0.702197	2.54742	0.796351	2.88114	0.936816	3.39798		
0.733469	2.64907	0.55705	1.99957	0.734667	2.64892	0.792856	2.86774	0.910779	3.29381			0.704182	2.54602	0.798387	2.87881	0.938283	3.39184		
0.735855	2.64877	0.559057	2.00008	0.737053	2.64862	0.79469	2.86472	0.912604	3.28933			0.706166	2.54462	0.800426	2.8765	0.939754	3.38575		
0.738241	2.64848	0.561064	2.00059	0.739438	2.64833	0.796527	2.86173	0.914431	3.28488			0.70815	2.54323	0.802467	2.87421	0.941227	3.37972		
0.740625	2.64818	0.56307	2.0011	0.741821	2.64803	0.798367	2.85877	0.91626	3.28047			0.710133	2.54185	0.80451	2.87194	0.942705	3.37373		
0.743008	2.64788	0.565076	2.0016	0.744204	2.64773	0.80021	2.85585	0.918091	3.2761			0.712115	2.54047	0.806555	2.8697	0.944186	3.36781		
0.74539	2.64757	0.567082	2.0021	0.746585	2.64742	0.802056	2.85295	0.919923	3.27176			0.714097	2.5391	0.808602	2.86748	0.94567	3.36193		
0.74777	2.64727	0.569087	2.00259	0.748965	2.64712	0.803905	2.85008	0.921756	3.26745			0.716078	2.53774	0.810651	2.86528	0.947158	3.3561		
0.75015	2.64696	0.571092	2.00308	0.751344	2.64681	0.805757	2.84724	0.923591	3.26318			0.718058	2.53638	0.812702	2.8631	0.948649	3.35032		
0.752528	2.64665	0.573097	2.00357	0.753721	2.6465	0.807611	2.84443	0.925428	3.25894			0.720037	2.53503	0.814755	2.86094	0.950144	3.3446		
0.754905	2.64634	0.575102	2.00405	0.756098	2.64618	0.809469	2.84165	0.927266	3.25474			0.722016	2.53368	0.81681	2.8588	0.951642	3.33892		
0.75728	2.64603	0.577106	2.00452	0.758472	2.64587	0.81133	2.83889	0.929106	3.25056			0.723994	2.53235	0.818867	2.85669	0.953143	3.33329		
0.759655	2.64571	0.579111	2.005	0.760846	2.64555	0.813194	2.83617	0.930947	3.24642			0.725971	2.53101	0.820926	2.85459	0.954648	3.32771		
0.762027	2.64539	0.581114	2.00546	0.763218	2.64523	0.815062	2.83348	0.932789	3.24231			0.727948	2.52969	0.822987	2.85251	0.956157	3.32218		
0.764399	2.64507	0.583118	2.00593	0.765588	2.6449	0.816932	2.83081	0.934633	3.23824			0.729924	2.52837	0.825049	2.85046	0.957668	3.3167		
0.766768	2.64474	0.585121	2.00639	0.767957	2.64457	0.818806	2.82817	0.936479	3.23419			0.731899	2.52706	0.827113	2.84842	0.959183	3.31126		
0.769137	2.64441	0.587125	2.00685	0.770325	2.64424	0.820682	2.82556	0.938326	3.23017			0.733873	2.52575	0.829179	2.8464	0.960702	3.30587		
0.771503	2.64408	0.589127	2.0073	0.772691	2.64391	0.822562	2.82298	0.940174	3.22619			0.735847	2.52445	0.831247	2.8444	0.962224	3.30052		
0.773868	2.64374	0.59113	2.00775	0.775055	2.64357	0.824446	2.82042	0.942024	3.22223			0.737821	2.52315	0.833316	2.84242	0.963749	3.29522		
0.776231	2.6434	0.593132	2.0082	0.777417	2.64323	0.826332	2.8179	0.943875	3.21831			0.739794	2.52186	0.835387	2.84046	0.965277	3.28997		
0.778593	2.64306	0.595134	2.00864	0.779778	2.64288	0.828222	2.8154	0.945727	3.21441			0.741766	2.52058	0.837459	2.83851	0.966809	3.28476		
0.780953	2.64271	0.597136	2.00908	0.782136	2.64253	0.830115	2.81292	0.947581	3.21055			0.743737	2.5193	0.839534	2.83658	0.968345	3.27959		
0.78331	2.64236	0.599138	2.00951	0.784493	2.64218	0.832012	2.81048	0.949436	3.20671			0.745708	2.51803	0.841609	2.83467	0.969883	3.27447		
0.785666	2.642	0.601139	2.00994	0.786848	2.64182	0.833912	2.80806	0.951292	3.2029			0.747679	2.51677	0.843687	2.83278	0.971425	3.2694		
0.78802	2.64164	0.60314	2.01037	0.789201	2.64146	0.835816	2.80566	0.95315	3.19912			0.749649	2.51551	0.845766	2.83091	0.972971	3.26436		
0.790372	2.64127	0.605141	2.0108	0.791552	2.64109	0.837723	2.8033	0.955009	3.19537			0.751618	2.51426	0.847846	2.82905	0.974519	3.25937		
0.792722	2.6409	0.607141	2.01122	0.793901	2.64072	0.839633	2.80096	0.956869	3.19164			0.753587	2.51301	0.849928	2.8272	0.976071	3.25442		
0.79507	2.64053	0.609141	2.01163	0.796248	2.64034	0.841548	2.79865	0.958731	3.18794			0.755555	2.51177	0.852011	2.82538	0.977627	3.24951		
0.797416	2.64015	0.611141	2.01205	0.798592	2.63996	0.843465	2.79636	0.960594	3.18427			0.757523	2.51054	0.854096	2.82357	0.979185	3.24464		
0.799759	2.63977	0.613141	2.01246	0.800935	2.63957	0.845387	2.7941	0.962458	3.18063			0.75949	2.50931	0.856182	2.82177	0.980747	3.23981		
0.8021	2.63938	0.61514	2.01287	0.803275	2.63918	0.847312	2.79187	0.964323	3.17701			0.761457	2.50809	0.858269	2.81999	0.982313	3.23503		
0.804439	2.63898	0.617139	2.01327	0.805612	2.63878	0.849241	2.78966	0.966189	3.17342			0.763423	2.50687	0.860358	2.81823	0.983881	3.23028		
0.806775	2.63858	0.619138	2.01367	0.807947	2.63838	0.851174	2.78748	0.968057	3.16985			0.765389	2.50566	0.862448	2.81648	0.985453	3.22558		
0.809109	2.63818	0.621137	2.01407	0.81028	2.63797	0.853111	2.78532	0.969926	3.16631			0.767354	2.50445	0.864539	2.81474	0.987028	3.22091		
0.811441	2.63777	0.623135	2.01446	0.81261	2.63756	0.855051	2.78319	0.971796	3.1628			0.769319	2.50325	0.866631	2.81302	0.988607	3.21628		
0.813769	2.63735	0.625133	2.01485	0.814937	2.63714	0.856996	2.78108	0.973667	3.15931			0.771283	2.50206	0.868725	2.81132	0.990189	3.21169		
0.816095	2.63692	0.627131	2.01524	0.817262	2.63671	0.858944	2.77901	0.97554	3.15584			0.773247	2.50087	0.87082	2.80962	0.991774	3.20714		
0.818419	2.63649	0.629129	2.01562	0.819584	2.63628	0.860897	2.77695	0.977413	3.1524			0.77521	2.49969	0.872916	2.80795	0.993362	3.20263		
0.820739	2.63606	0.631126	2.016	0.821903	2.63584	0.862854	2.77492	0.979288	3.14899			0.777173	2.49851	0.875013	2.80628	0.994954	3.19816		
0.823057	2.63562	0.633123	2.01638	0.82422	2.63539	0.864814	2.77292	0.981164	3.1456			0.779136	2.49734	0.877112	2.80463	0.996548	3.19372		
0.825372	2.63517	0.63512	2.01676	0.826533	2.63494	0.86678	2.77095	0.983041	3.14223			0.781098	2.49618	0.879211	2.80299	0.998147	3.18932		
0.827684	2.63471	0.637116	2.01713	0.828843	2.63448	0.868749	2.76899	0.984919	3.13888			0.783059	2.49502	0.881311	2.80137	0.999748	3.18495		
0.829993	2.63425	0.639113	2.0175	0.83115	2.63401	0.870723	2.76707	0.986798	3.13556			0.785021	2.49386	0.883413	2.79976	1.00135	3.18062		
0.832298	2.63378	0.641109	2.01787	0.833454	2.63354	0.872701	2.76517	0.988678	3.13226			0.786982	2.49272	0.885515	2.79816				
0.834601	2.6333	0.643105	2.01823	0.835755	2.63306	0.874683	2.76329	0.990559	3.12899			0.788942	2.49157	0.887619	2.79657				
0.8369	2.63281	0.6451	2.01859	0.838053	2.63257	0.87667	2.76144	0.992441	3.12573			0.790902	2.49043	0.889723	2.795				
0.839196	2.63232	0.647095	2.01895	0.840347	2.63207	0.878661	2.75961	0.994325	3.1225			0.792862	2.4893	0.891828	2.79343				
0.841489	2.63182	0.64909	2.0193	0.842638	2.63157	0.880657	2.75781	0.996209	3.11929			0.794822	2.48818	0.893935	2.79188				
0.843778	2.63131	0.651085	2.01965	0.844925	2.63105	0.882658	2.75604	0.998094	3.1161			0.796781	2.48706	0.896042	2.79035				
0.846063	2.6308	0.653079	2.02	0.847209	2.63053	0.884664	2.75429	0.999981	3.11294			0.79874	2.48594	0.89815	2.78882				
0.848345	2.63027	0.655074	2.02035	0.849489	2.63001	0.886674	2.75256	1.00187	3.1098			0.800698	2.48483	0.900258	2.7873				
0.850624	2.62974	0.657068	2.02069	0.851766	2.62947	0.888689	2.75086					0.802656	2.48373	0.902368	2.7858				
0.852898	2.6292	0.659061	2.02103	0.854039	2.62892	0.890708	2.74918					0.804614	2.48263	0.904478	2.7843				
0.855169	2.62865	0.661055	2.02137	0.856308	2.62837	0.892733	2.74753					0.806571	2.48153	0.906589	2.78282				
0.857436	2.62809	0.663048	2.0217	0.858573	2.62781	0.894763	2.7459					0.808529	2.48044	0.908701	2.78135				
0.859699	2.62752	0.665041	2.02204	0.860834	2.62724	0.896798	2.7443					0.810486	2.47936	0.910814	2.77989				
0.861959	2.62695	0.667034	2.02237	0.863091	2.62666	0.898837	2.74272					0.812442	2.47828	0.912927	2.77844				
0.864214	2.62636	0.669026	2.02269	0.865344	2.62607	0.900882	2.74117					0.814399	2.47721	0.91504	2.777				
0.866465	2.62577	0.671018	2.02302	0.867594	2.62547	0.902932	2.73964					0.816355	2.47614	0.917155	2.77556				
0.868712	2.62517	0.67301	2.02334	0.869839	2.62486	0.904987	2.73813					0.818311	2.47508	0.91927	2.77414				
0.870955	2.62456	0.675002	2.02366	0.872079	2.62425	0.907048	2.73665					0.820266	2.47402	0.921385	2.77273				
0.873194	2.62394	0.676993	2.02398	0.874316	2.62362	0.909113	2.7352					0.822221	2.47297	0.923501	2.77133				
0.875428	2.62331	0.678984	2.02429	0.876548	2.62299	0.911184	2.73377					0.824177	2.47192	0.925618	2.76994				
0.877659	2.62267	0.680975	2.0246	0.878776	2.62234	0.91326	2.73236					0.826131	2.47088	0.927735	2.76855				
0.879884	2.62202	0.682966	2.02491	0.881	2.62169	0.915342	2.73097					0.828086	2.46985	0.929853	2.76718				
0.882106	2.62136	0.684956	2.02522	0.883219	2.62103	0.917429	2.72961					0.83004	2.46882	0.931971	2.76581				
0.884323	2.62069	0.686947	2.02552	0.885434	2.62036	0.919521	2.72827					0.831995	2.46779	0.934089	2.76446				
0.886536	2.62002	0.688936	2.02582	0.887645	2.61967	0.921619	2.72696					0.833949	2.46677	0.936208	2.76311				
0.888744	2.61933	0.690926	2.02612	0.889851	2.61898	0.923722	2.72567					0.835903	2.46575	0.938327	2.76177				
0.890948	2.61864	0.692916	2.02642	0.892052	2.61828	0.925831	2.7244					0.837856	2.46474	0.940447	2.76044				
0.893147	2.61793	0.694905	2.02672	0.89425	2.61757	0.927945	2.72316					0.83981	2.46374	0.942567	2.75911				
0.895342	2.61722	0.696894	2.02701	0.896442	2.61686	0.930065	2.72193					0.841763	2.46273	0.944687	2.7578				
0.897532	2.61649	0.698882	2.0273	0.89863	2.61613	0.93219	2.72073					0.843716	2.46174	0.946807	2.75649				
0.899718	2.61576	0.700871	2.02759	0.900814	2.61539	0.93432	2.71956					0.845669	2.46075	0.948928	2.75519				
0.9019	2.61502	0.702859	2.02787	0.902993	2.61464	0.936456	2.7184					0.847622	2.45976	0.951049	2.7539				
0.904076	2.61427	0.704847	2.02816	0.905167	2.61389	0.938598	2.71727					0.849574	2.45878	0.95317	2.75262				
0.906249	2.61351	0.706834	2.02844	0.907338	2.61313	0.940745	2.71616					0.851527	2.4578	0.955292	2.75134				
0.908417	2.61274	0.708822	2.02872	0.909503	2.61235	0.942897	2.71507					0.853479	2.45683	0.957413	2.75007				
0.91058	2.61196	0.710809	2.029	0.911664	2.61157	0.945054	2.714					0.855431	2.45586	0.959535	2.74881				
0.912739	2.61118	0.712796	2.02927	0.913821	2.61078	0.947217	2.71295					0.857384	2.4549	0.961657	2.74755				
0.914893	2.61038	0.714783	2.02954	0.915973	2.60998	0.949386	2.71193					0.859336	2.45394	0.963779	2.74631				
0.917043	2.60958	0.716769	2.02981	0.918121	2.60918	0.951559	2.71092					0.861287	2.45299	0.965901	2.74507				
0.919189	2.60877	0.718755	2.03008	0.920265	2.60836	0.953738	2.70994					0.863239	2.45204	0.968023	2.74383				
0.92133	2.60795	0.720741	2.03035	0.922404	2.60754	0.955923	2.70897					0.865191	2.4511	0.970145	2.7426				
0.923467	2.60713	0.722727	2.03061	0.924539	2.60671	0.958112	2.70803					0.867142	2.45016	0.972267	2.74138				
0.9256	2.60629	0.724712	2.03087	0.926669	2.60587	0.960306	2.7071					0.869094	2.44923	0.974389	2.74017				
0.927729	2.60545	0.726698	2.03113	0.928796	2.60502	0.962506	2.70619					0.871045	2.4483	0.976511	2.73896				
0.929853	2.6046	0.728683	2.03139	0.930918	2.60417	0.96471	2.7053					0.872996	2.44738	0.978633	2.73776				
0.931973	2.60374	0.730667	2.03165	0.933036	2.60331	0.96692	2.70443					0.874948	2.44646	0.980755	2.73656				
0.934089	2.60288	0.732652	2.0319	0.93515	2.60245	0.969134	2.70358					0.876899	2.44554	0.982877	2.73537				
0.936202	2.60201	0.734636	2.03215	0.93726	2.60157	0.971354	2.70275					0.87885	2.44463	0.984999	2.73418				
0.93831	2.60113	0.73662	2.0324	0.939366	2.60069	0.973578	2.70193					0.880801	2.44372	0.98712	2.733				
0.940414	2.60025	0.738604	2.03265	0.941469	2.59981	0.975806	2.70113					0.882752	2.44282	0.989242	2.73183				
0.942514	2.59936	0.740587	2.0329	0.943567	2.59892	0.97804	2.70035					0.884703	2.44192	0.991363	2.73066				
0.944611	2.59847	0.742571	2.03314	0.945662	2.59802	0.980278	2.69959					0.886654	2.44103	0.993484	2.7295				
0.946704	2.59757	0.744554	2.03339	0.947753	2.59712	0.98252	2.69884					0.888605	2.44014	0.995605	2.72834				
0.948793	2.59666	0.746537	2.03363	0.949841	2.59621	0.984767	2.6981					0.890556	2.43926	0.997726	2.72719				
0.950879	2.59575	0.748519	2.03387	0.951925	2.59529	0.987018	2.69739					0.892506	2.43838	0.999846	2.72605				
0.952961	2.59484	0.750501	2.0341	0.954005	2.59438	0.989274	2.69668					0.894457	2.43751	1.00197	2.7249				
0.95504	2.59392	0.752484	2.03434	0.956082	2.59345	0.991533	2.696					0.896408	2.43664						
0.957115	2.59299	0.754465	2.03457	0.958156	2.59253	0.993797	2.69532					0.898359	2.43577						
0.959187	2.59206	0.756447	2.0348	0.960226	2.5916	0.996065	2.69466					0.900309	2.43491						
0.961256	2.59113	0.758429	2.03503	0.962293	2.59066	0.998337	2.69402					0.90226	2.43405						
0.963322	2.59019	0.76041	2.03526	0.964358	2.58972	1.00061	2.69339					0.904211	2.4332						
0.965384	2.58925	0.762391	2.03549	0.966419	2.58878							0.906161	2.43235						
0.967444	2.58831	0.764371	2.03571	0.968477	2.58783							0.908112	2.4315						
0.969501	2.58736	0.766352	2.03593	0.970532	2.58689							0.910063	2.43066						
0.971555	2.58641	0.768332	2.03615	0.972584	2.58593							0.912014	2.42983						
0.973606	2.58546	0.770312	2.03637	0.974634	2.58498							0.913964	2.42899						
0.975654	2.5845	0.772292	2.03659	0.976681	2.58402							0.915915	2.42817						
0.977699	2.58355	0.774271	2.03681	0.978725	2.58307							0.917866	2.42734						
0.979743	2.58259	0.776251	2.03702	0.980767	2.5821							0.919817	2.42652						
0.981783	2.58163	0.77823	2.03723	0.982807	2.58114							0.921768	2.42571						
0.983821	2.58066	0.780209	2.03744	0.984843	2.58018							0.923718	2.4249						
0.985857	2.5797	0.782187	2.03765	0.986878	2.57921							0.925669	2.42409						
0.98789	2.57873	0.784165	2.03786	0.98891	2.57825							0.92762	2.42328						
0.989922	2.57776	0.786144	2.03807	0.99094	2.57728							0.929571	2.42249						
0.991951	2.5768	0.788122	2.03827	0.992968	2.57631							0.931523	2.42169						
0.993977	2.57583	0.790099	2.03847	0.994994	2.57534							0.933474	2.4209						
0.996002	2.57486	0.792077	2.03868	0.997018	2.57437							0.935425	2.42011						
0.998025	2.57389	0.794054	2.03888	0.99904	2.5734							0.937376	2.41933						
1.00005	2.57292	0.796031	2.03907	1.00106	2.57243							0.939328	2.41855						
		0.798008	2.03927									0.941279	2.41777						
		0.799984	2.03947									0.94323	2.417						
		0.801961	2.03966									0.945182	2.41623						
		0.803937	2.03985									0.947134	2.41547						
		0.805913	2.04004									0.949085	2.41471						
		0.807888	2.04023									0.951037	2.41395						
		0.809864	2.04042									0.952989	2.4132						
		0.811839	2.04061									0.954941	2.41245						
		0.813814	2.04079									0.956893	2.41171						
		0.815789	2.04098									0.958845	2.41097						
		0.817764	2.04116									0.960798	2.41023						
		0.819738	2.04134									0.96275	2.40949						
		0.821712	2.04152									0.964702	2.40876						
		0.823686	2.0417									0.966655	2.40804						
		0.82566	2.04187									0.968608	2.40731						
		0.827633	2.04205									0.970561	2.4066						
		0.829606	2.04222									0.972513	2.40588						
		0.831579	2.04239									0.974466	2.40517						
		0.833552	2.04257									0.97642	2.40446						
		0.835525	2.04274									0.978373	2.40375						
		0.837497	2.0429									0.980326	2.40305						
		0.839469	2.04307									0.98228	2.40235						
		0.841442	2.04324									0.984234	2.40166						
		0.843413	2.0434									0.986187	2.40097						
		0.845385	2.04357									0.988141	2.40028						
		0.847356	2.04373									0.990095	2.3996						
		0.849327	2.04389									0.99205	2.39892						
		0.851298	2.04405									0.994004	2.39824						
		0.853269	2.04421									0.995958	2.39757						
		0.855239	2.04437									0.997913	2.3969						
		0.85721	2.04452									0.999868	2.39623						
		0.85918	2.04468									1.00182	2.39556						
		0.86115	2.04483																
		0.863119	2.04499																
		0.865089	2.04514																
		0.867058	2.04529																
		0.869027	2.04544																
		0.870996	2.04559																
		0.872965	2.04573																
		0.874933	2.04588																
		0.876901	2.04602																
		0.878869	2.04617																
		0.880837	2.04631																
		0.882805	2.04645																
		0.884772	2.04659																
		0.886739	2.04673																
		0.888706	2.04687																
		0.890673	2.04701																
		0.89264	2.04714																
		0.894606	2.04728																
		0.896573	2.04741																
		0.898539	2.04755																
		0.900505	2.04768																
		0.90247	2.04781																
		0.904436	2.04794																
		0.906401	2.04807																
		0.908366	2.0482																
		0.910331	2.04833																
		0.912295	2.04845																
		0.91426	2.04858																
		0.916224	2.0487																
		0.918188	2.04883																
		0.920152	2.04895																
		0.922116	2.04907																
		0.92408	2.04919																
		0.926043	2.04931																
		0.928006	2.04943																
		0.929969	2.04955																
		0.931932	2.04966																
		0.933894	2.04978																
		0.935857	2.0499																
		0.937819	2.05001																
		0.939781	2.05012																
		0.941743	2.05024																
		0.943705	2.05035																
		0.945666	2.05046																
		0.947627	2.05057																
		0.949589	2.05068																
		0.951549	2.05079																
		0.95351	2.05089																
		0.955471	2.051																
		0.957431	2.05111																
		0.959391	2.05121																
		0.961352	2.05132																
		0.963311	2.05142																
		0.965271	2.05152																
		0.967231	2.05163																
		0.96919	2.05173																
		0.971149	2.05183																
		0.973108	2.05193																
		0.975067	2.05203																
		0.977026	2.05212																
		0.978984	2.05222																
		0.980942	2.05232																
		0.982901	2.05241																
		0.984859	2.05251																
		0.986816	2.0526																
		0.988774	2.0527																
		0.990731	2.05279																
		0.992689	2.05288																
		0.994646	2.05298																
		0.996603	2.05307																
		0.99856	2.05316																
		1.00052	2.05325																
