Sym0		Asym0		Sym1		Sym2		Sym3		Sym4		Asym1		Asym2		Asym3		Asym4	
425  Points		527  Points		424  Points		407  Points		351  Points		252  Points		456  Points		401  Points		345  Points		207  Points	
Freq (MHz)	Vph (m/ms)	Freq (MHz)	Vph (m/ms)	Freq (MHz)	Vph (m/ms)	Freq (MHz)	Vph (m/ms)	Freq (MHz)	Vph (m/ms)	Freq (MHz)	Vph (m/ms)	Freq (MHz)	Vph (m/ms)	Freq (MHz)	Vph (m/ms)	Freq (MHz)	Vph (m/ms)	Freq (MHz)	Vph (m/ms)
0.279509	723.95	0.000243909	0.0960861	0.279514	307.652	0.449895	11938	0.559017	7736.82	0.838526	2173.96	0.139755	965.279	0.419268	469.258	0.698771	3682.08	0.89979	2240.8
0.279519	212.113	0.000455032	0.131128	0.279529	151.899	0.449901	464.112	0.559023	556.825	0.838531	636.5	0.139799	129.867	0.419285	229.724	0.698776	623.088	0.899795	674.892
0.27954	124.269	0.000730779	0.166017	0.279556	100.853	0.449917	236.665	0.559041	288.814	0.838542	372.834	0.139909	69.6697	0.419314	152.098	0.698786	340.345	0.899805	397.276
0.279571	87.883	0.00107026	0.200667	0.279593	75.4918	0.449945	158.836	0.55907	194.979	0.838559	263.632	0.140085	47.6501	0.419354	113.69	0.698802	234.115	0.899821	281.49
0.279613	67.9849	0.00147254	0.235034	0.279641	60.3284	0.449983	119.534	0.55911	147.172	0.838582	203.911	0.140327	36.2455	0.419405	90.7755	0.698824	178.428	0.899841	217.968
0.279666	55.4391	0.00193665	0.269094	0.2797	50.2424	0.450032	95.8297	0.559162	118.198	0.838611	166.253	0.140634	29.2788	0.419469	75.5535	0.698853	144.145	0.899867	177.839
0.279729	46.8068	0.00246124	0.302787	0.27977	43.05	0.450091	79.9756	0.559224	98.7606	0.838645	140.338	0.141005	24.5869	0.419544	64.708	0.698887	120.916	0.899898	150.19
0.279804	40.5045	0.00304511	0.336094	0.27985	37.6628	0.450162	68.6269	0.559298	84.8177	0.838685	121.415	0.141439	21.2158	0.41963	56.5895	0.698927	104.137	0.899935	129.984
0.279889	35.7017	0.00368681	0.368976	0.279941	33.4773	0.450243	60.1025	0.559383	74.3286	0.838731	106.991	0.141935	18.6797	0.419728	50.2847	0.698974	91.4488	0.899976	114.572
0.279984	31.9203	0.00438479	0.401402	0.280042	30.1322	0.450335	53.4652	0.559479	66.1518	0.838782	95.6317	0.142492	16.7047	0.419838	45.2473	0.699026	81.5188	0.900023	102.429
0.28009	28.8663	0.00513748	0.433345	0.280155	27.3977	0.450437	48.1512	0.559587	59.599	0.83884	86.4546	0.143108	15.1249	0.419959	41.1304	0.699085	73.5358	0.900075	92.6146
0.280208	26.3483	0.0059432	0.464781	0.280278	25.1208	0.45055	43.8009	0.559705	54.2303	0.838903	78.8861	0.143782	13.8339	0.420091	37.703	0.699149	66.9784	0.900132	84.5179
0.280335	24.237	0.00680026	0.49569	0.280412	23.1958	0.450674	40.1741	0.559835	49.7517	0.838972	72.5375	0.144513	12.7604	0.420236	34.8056	0.69922	61.4963	0.900195	77.7244
0.280474	22.4413	0.00770693	0.526054	0.280556	21.5471	0.450809	37.1045	0.559976	45.9589	0.839047	67.1359	0.145298	11.8545	0.420391	32.3241	0.699296	56.845	0.900263	71.9428
0.280623	20.8955	0.00866149	0.555859	0.280711	20.1194	0.450955	34.4729	0.560128	42.7058	0.839128	62.4842	0.146136	11.0806	0.420559	30.1753	0.699379	52.8491	0.900336	66.963
0.280783	19.5511	0.00966214	0.585093	0.280877	18.8711	0.451111	32.192	0.560291	39.885	0.839214	58.4365	0.146909	10.4932	0.420737	28.2965	0.699467	49.3793	0.900414	62.6289
0.280953	18.3711	0.0107072	0.61375	0.281054	17.7706	0.451277	30.1963	0.560466	37.4158	0.839307	54.8823	0.147597	10.0457	0.420928	26.64	0.699562	46.3381	0.900497	58.8227
0.281134	17.3273	0.0117949	0.641819	0.281241	16.7931	0.451455	28.4354	0.560651	35.2366	0.839405	51.7368	0.148187	9.7077	0.421129	25.1687	0.699662	43.6509	0.900586	55.4536
0.281326	16.3975	0.0129235	0.6693	0.281438	15.9193	0.451643	26.8704	0.560848	33.299	0.839508	48.9332	0.148666	9.45866	0.421343	23.8532	0.699769	41.2592	0.90068	52.4503
0.281529	15.5641	0.0140914	0.696193	0.281647	15.1336	0.451842	25.4704	0.561056	31.5653	0.839618	46.4187	0.149025	9.28494	0.421567	22.6702	0.699881	39.117	0.900779	49.7565
0.281742	14.8129	0.0152968	0.722492	0.281866	14.4233	0.452051	24.2106	0.561274	30.0048	0.839733	44.1509	0.149258	9.17768	0.421803	21.6006	0.7	37.1872	0.900883	47.3266
0.281965	14.1324	0.0165383	0.748205	0.282095	13.7781	0.452271	23.0712	0.561504	28.5929	0.839855	42.0952	0.149597	9.02858	0.422051	20.629	0.700124	35.4397	0.900993	45.1238
0.282199	13.5131	0.0178143	0.773332	0.282335	13.1897	0.452501	22.0356	0.561745	27.3095	0.839981	40.2232	0.149971	8.87296	0.42231	19.7426	0.700255	33.8499	0.901108	43.1176
0.282444	12.9472	0.0191231	0.79788	0.282586	12.6507	0.452742	21.0905	0.561997	26.1379	0.840114	38.5114	0.150488	8.67142	0.42258	18.9307	0.700391	32.3974	0.901227	41.2829
0.2827	12.4281	0.0204635	0.821857	0.282848	12.1554	0.452994	20.2244	0.56226	25.064	0.840253	36.94	0.151158	8.43192	0.422862	18.1843	0.700534	31.0652	0.901353	39.5986
0.282966	11.9503	0.0218339	0.845265	0.283119	11.6987	0.453256	19.428	0.562533	24.0763	0.840397	35.4926	0.151989	8.16311	0.423154	17.496	0.700682	29.8389	0.901483	38.047
0.283242	11.5092	0.023233	0.868116	0.283402	11.2763	0.453529	18.6932	0.562818	23.1647	0.840547	34.155	0.152992	7.87367	0.423459	16.8591	0.700837	28.7065	0.901619	36.613
0.283529	11.1006	0.0246595	0.89042	0.283695	10.8844	0.453812	18.0131	0.563114	22.321	0.840703	32.9152	0.154181	7.5718	0.423774	16.2682	0.700997	27.6576	0.90176	35.2838
0.283827	10.7211	0.0261122	0.912186	0.283998	10.52	0.454106	17.3819	0.563421	21.5377	0.840864	31.7629	0.155408	7.29813	0.424101	15.7185	0.701164	26.6833	0.901906	34.0483
0.284135	10.3679	0.0275898	0.933424	0.284271	10.2227	0.45441	16.7946	0.563738	20.8087	0.841031	30.6891	0.156672	7.04905	0.424439	15.206	0.701336	25.776	0.902057	32.8969
0.284453	10.0383	0.0290912	0.954144	0.28451	9.98281	0.454724	16.2468	0.564066	20.1286	0.841204	29.6862	0.15797	6.82152	0.424788	14.7269	0.701515	24.9289	0.902213	31.8214
0.284782	9.72995	0.0306153	0.974358	0.284712	9.79323	0.455049	15.7346	0.564406	19.4926	0.841383	28.7473	0.159302	6.61298	0.425149	14.2782	0.701699	24.1363	0.902375	30.8145
0.285122	9.44102	0.0321611	0.994079	0.284875	9.64863	0.455385	15.2548	0.564756	18.8967	0.841568	27.8665	0.160666	6.42125	0.42552	13.8571	0.701889	23.3932	0.902542	29.8699
0.285472	9.16972	0.0337276	1.01332	0.284996	9.54516	0.45573	14.8043	0.565117	18.3371	0.841758	27.0387	0.162061	6.24447	0.425903	13.4612	0.702086	22.695	0.902714	28.9819
0.285832	8.9145	0.0353137	1.03208	0.285074	9.48016	0.456086	14.3806	0.565488	17.8107	0.841954	26.2591	0.163485	6.08103	0.426297	13.0882	0.702288	22.0378	0.902891	28.1457
0.286203	8.67402	0.0369187	1.05039	0.285187	9.38835	0.456453	13.9815	0.565871	17.3147	0.842156	25.5237	0.164937	5.92954	0.426702	12.7363	0.702496	21.4182	0.903074	27.3569
0.286584	8.44705	0.0385416	1.06824	0.285312	9.29068	0.456829	13.6047	0.566264	16.8464	0.842363	24.8289	0.166415	5.7888	0.427118	12.4038	0.702711	20.8329	0.903262	26.6115
0.286975	8.2325	0.0401817	1.08566	0.285483	9.16126	0.457216	13.2486	0.566667	16.4038	0.842577	24.1714	0.16792	5.65776	0.427545	12.0891	0.702931	20.2793	0.903454	25.906
0.287377	8.02942	0.041838	1.10266	0.285704	9.00298	0.457613	12.9116	0.567082	15.9846	0.842796	23.5483	0.169448	5.53549	0.427983	11.7908	0.703157	19.7548	0.903652	25.2375
0.287789	7.83693	0.04351	1.11924	0.285975	8.81919	0.458021	12.592	0.567507	15.5873	0.84302	22.9569	0.171	5.42118	0.428432	11.5078	0.703389	19.2573	0.903856	24.603
0.288211	7.65423	0.0451969	1.13542	0.286301	8.61358	0.458438	12.2888	0.567942	15.21	0.843251	22.395	0.172574	5.31411	0.428892	11.2389	0.703627	18.7846	0.904064	24
0.288644	7.48062	0.046898	1.15121	0.286685	8.38995	0.458866	12.0005	0.568388	14.8514	0.843487	21.8604	0.174169	5.21365	0.429362	10.9831	0.703871	18.3351	0.904278	23.4262
0.289087	7.31546	0.0486127	1.16662	0.287079	8.17848	0.459303	11.7262	0.568845	14.5101	0.843728	21.3511	0.175784	5.11924	0.429844	10.7395	0.704121	17.907	0.904496	22.8797
0.28954	7.15816	0.0503403	1.18166	0.287483	7.97824	0.459751	11.465	0.569312	14.1849	0.843976	20.8654	0.177419	5.03036	0.430337	10.5072	0.704376	17.4989	0.90472	22.3584
0.290004	7.00819	0.0520804	1.19634	0.287898	7.78837	0.460209	11.2158	0.56979	13.8747	0.844229	20.4017	0.179073	4.94657	0.430775	10.3134	0.704638	17.1094	0.904949	21.8607
0.290477	6.86507	0.0538322	1.21067	0.288323	7.60811	0.460677	10.9779	0.570278	13.5785	0.844488	19.9586	0.180744	4.86746	0.431154	10.1543	0.704906	16.7372	0.905183	21.3851
0.290961	6.72834	0.0555955	1.22467	0.288759	7.43677	0.461155	10.7506	0.570777	13.2954	0.844753	19.5347	0.182432	4.79267	0.431473	10.0266	0.705179	16.3813	0.905423	20.93
0.291455	6.59762	0.0573696	1.23833	0.289204	7.27371	0.461643	10.5332	0.571285	13.0246	0.845023	19.1288	0.184136	4.72187	0.431728	9.92814	0.705459	16.0407	0.905667	20.4943
0.291959	6.47252	0.059154	1.25168	0.28966	7.11837	0.462076	10.3513	0.571805	12.7653	0.845299	18.7398	0.185856	4.65476	0.431917	9.85706	0.705744	15.7142	0.905917	20.0767
0.292473	6.3527	0.0609483	1.26471	0.290126	6.97023	0.462451	10.2016	0.572334	12.5168	0.84558	18.3667	0.187591	4.59107	0.432038	9.81215	0.706036	15.4012	0.906172	19.676
0.292997	6.23785	0.0627521	1.27744	0.290602	6.82881	0.462766	10.0812	0.572874	12.2784	0.845868	18.0085	0.189339	4.53056	0.432214	9.74837	0.706333	15.1008	0.906432	19.2914
0.293531	6.12768	0.0645651	1.28989	0.291089	6.69369	0.463017	9.98824	0.573424	12.0496	0.846161	17.6644	0.191102	4.47301	0.432407	9.68006	0.706636	14.8122	0.906697	18.9218
0.294076	6.02191	0.0663867	1.30204	0.291585	6.56447	0.463203	9.92104	0.573984	11.8297	0.846459	17.3335	0.192877	4.41821	0.43267	9.58882	0.706945	14.5348	0.906967	18.5665
0.29463	5.92031	0.0682166	1.31392	0.292092	6.44078	0.463323	9.87855	0.574554	11.6184	0.846764	17.0151	0.194665	4.36599	0.433008	9.47611	0.707259	14.268	0.907243	18.2245
0.295194	5.82264	0.0700545	1.32554	0.292609	6.32229	0.463496	9.81816	0.575134	11.4151	0.847074	16.7085	0.196464	4.31616	0.433421	9.34363	0.70758	14.0111	0.907523	17.8952
0.295768	5.72869	0.0719001	1.33689	0.293135	6.20868	0.463686	9.75342	0.575724	11.2193	0.847389	16.4131	0.198275	4.26857	0.433913	9.19333	0.707907	13.7637	0.907809	17.5779
0.296353	5.63826	0.073753	1.34799	0.293672	6.09968	0.463945	9.66687	0.576325	11.0307	0.84771	16.1282	0.200097	4.22309	0.434488	9.02731	0.708239	13.5251	0.9081	17.272
0.296947	5.55116	0.0756129	1.35884	0.294219	5.99503	0.464277	9.55977	0.576935	10.849	0.848037	15.8534	0.20193	4.17958	0.435073	8.86781	0.708577	13.295	0.908395	16.9768
0.297551	5.46723	0.0774796	1.36946	0.294776	5.89448	0.464683	9.43369	0.577555	10.6736	0.84837	15.5881	0.203773	4.13793	0.435669	8.71447	0.708921	13.073	0.908696	16.6917
0.298165	5.3863	0.0793527	1.37984	0.295343	5.79779	0.465166	9.29037	0.578104	10.5258	0.848708	15.3319	0.205625	4.09801	0.436276	8.56694	0.709271	12.8585	0.909002	16.4164
0.298788	5.30823	0.0812321	1.39	0.29592	5.70478	0.46573	9.1317	0.578578	10.4033	0.849051	15.0842	0.207486	4.05973	0.436892	8.42491	0.709627	12.6512	0.909314	16.1503
0.299422	5.23287	0.0831174	1.39995	0.296507	5.61523	0.466303	8.97891	0.578973	10.3044	0.849401	14.8447	0.209357	4.02299	0.437519	8.2881	0.709989	12.4509	0.90963	15.8929
0.300066	5.16009	0.0850084	1.40968	0.297103	5.52898	0.466885	8.83169	0.579289	10.2277	0.849756	14.613	0.211236	3.9877	0.438157	8.15622	0.710356	12.2571	0.909951	15.6439
0.300719	5.08978	0.0869049	1.4192	0.29771	5.44585	0.467478	8.68974	0.579522	10.172	0.850116	14.3886	0.213123	3.95379	0.438804	8.02902	0.710729	12.0695	0.910278	15.4028
0.301382	5.02181	0.0888067	1.42852	0.298326	5.36568	0.468079	8.55281	0.579672	10.1368	0.850482	14.1713	0.215018	3.92117	0.439462	7.90628	0.711108	11.8878	0.910609	15.1692
0.302054	4.95608	0.0907136	1.43765	0.298953	5.28832	0.468691	8.42062	0.579889	10.0866	0.850854	13.9608	0.216921	3.88978	0.44013	7.78776	0.711493	11.7118	0.910946	14.9429
0.302737	4.89248	0.0926253	1.44659	0.299589	5.21365	0.469312	8.29296	0.580126	10.0326	0.851231	13.7567	0.218831	3.85955	0.440809	7.67327	0.711884	11.5413	0.911287	14.7235
0.303429	4.83093	0.0945417	1.45534	0.300235	5.14153	0.469942	8.1696	0.580449	9.96025	0.851614	13.5587	0.220748	3.83042	0.441497	7.5626	0.71228	11.3759	0.911634	14.5107
0.30404	4.77889	0.0964626	1.46391	0.300891	5.07183	0.470582	8.05033	0.580862	9.8704	0.852002	13.3666	0.222672	3.80233	0.442196	7.45558	0.712683	11.2154	0.911986	14.3041
0.304567	4.73565	0.0983879	1.47231	0.301556	5.00446	0.471231	7.93496	0.581366	9.76413	0.852396	13.1802	0.224603	3.77523	0.442904	7.35203	0.713091	11.0597	0.912343	14.1036
0.305007	4.70065	0.100317	1.48054	0.302232	4.93929	0.471889	7.82331	0.581965	9.64269	0.852796	12.9991	0.22654	3.74907	0.443623	7.25181	0.713505	10.9084	0.912705	13.9089
0.305357	4.67346	0.102251	1.48861	0.302916	4.87624	0.472556	7.7152	0.58266	9.50744	0.853201	12.8231	0.228482	3.72381	0.444352	7.15475	0.71387	10.7802	0.913072	13.7197
0.305616	4.65372	0.104188	1.49651	0.303611	4.81521	0.473233	7.61048	0.583365	9.3764	0.853611	12.6521	0.230431	3.69939	0.44509	7.06072	0.714185	10.6734	0.913444	13.5358
0.305782	4.6412	0.106129	1.50426	0.304316	4.7561	0.473919	7.50901	0.584079	9.24937	0.854027	12.4859	0.232385	3.67578	0.445838	6.96958	0.714447	10.5868	0.913821	13.357
0.306022	4.62336	0.108073	1.51186	0.30503	4.69884	0.474614	7.41062	0.584803	9.12619	0.854449	12.3242	0.234344	3.65294	0.446597	6.88121	0.714657	10.5194	0.914203	13.183
0.306284	4.60418	0.110021	1.51931	0.305753	4.64334	0.475319	7.3152	0.585537	9.00668	0.854876	12.1668	0.236309	3.63084	0.447365	6.79549	0.714811	10.4704	0.91459	13.0138
0.306643	4.57842	0.111973	1.52661	0.306487	4.58954	0.476032	7.22262	0.586279	8.89069	0.855308	12.0137	0.238279	3.60943	0.448142	6.7123	0.714911	10.4392	0.914982	12.849
0.307099	4.54638	0.113927	1.53377	0.30723	4.53736	0.476754	7.13274	0.587032	8.77807	0.855747	11.8646	0.240254	3.5887	0.44893	6.63155	0.715054	10.3949	0.915379	12.6886
0.307656	4.50843	0.115885	1.5408	0.307982	4.48674	0.477485	7.04548	0.587793	8.66868	0.85619	11.7193	0.242233	3.5686	0.449727	6.55314	0.715211	10.3471	0.915781	12.5323
0.308316	4.46498	0.117593	1.54681	0.308745	4.43761	0.478226	6.96071	0.588564	8.5624	0.856639	11.5778	0.244217	3.54911	0.450533	6.47696	0.715425	10.2829	0.916188	12.38
0.309082	4.41649	0.119051	1.55186	0.309516	4.38992	0.478975	6.87833	0.589344	8.45909	0.857094	11.4399	0.246205	3.53021	0.45135	6.40293	0.715698	10.2029	0.9166	12.2316
0.309858	4.36941	0.120257	1.55599	0.310298	4.3436	0.479733	6.79826	0.590133	8.35863	0.857554	11.3055	0.248197	3.51186	0.452175	6.33097	0.716031	10.1079	0.917017	12.0869
0.310644	4.32368	0.121212	1.55921	0.311088	4.29861	0.4805	6.7204	0.590931	8.26092	0.858019	11.1744	0.250194	3.49405	0.453011	6.26099	0.716425	9.99885	0.917439	11.9457
0.311439	4.27925	0.121915	1.56156	0.311889	4.25489	0.481275	6.64466	0.591738	8.16585	0.858429	11.0627	0.252194	3.47674	0.453855	6.19292	0.716883	9.87681	0.917866	11.8081
0.312243	4.23608	0.122365	1.56306	0.312699	4.2124	0.482059	6.57096	0.592554	8.07331	0.858782	10.9694	0.254199	3.45993	0.454709	6.12668	0.717347	9.75794	0.918298	11.6737
0.313057	4.19411	0.123012	1.5652	0.313518	4.17108	0.482852	6.49923	0.593379	7.98322	0.859076	10.8935	0.256206	3.44359	0.455573	6.06221	0.717816	9.64212	0.918735	11.5425
0.313881	4.1533	0.123715	1.56752	0.314347	4.13091	0.483654	6.42939	0.594213	7.89547	0.85931	10.8343	0.258218	3.4277	0.456445	5.99945	0.718291	9.52925	0.919177	11.4145
0.314714	4.11361	0.124672	1.57064	0.315185	4.09183	0.484464	6.36137	0.595056	7.80999	0.859483	10.7912	0.260232	3.41225	0.457327	5.93832	0.718772	9.4192	0.919624	11.2894
0.315557	4.075	0.125883	1.57455	0.316033	4.0538	0.485283	6.29511	0.595908	7.72668	0.859594	10.7639	0.262251	3.39721	0.458218	5.87877	0.719259	9.31188	0.920017	11.1828
0.316409	4.03742	0.127349	1.57921	0.316891	4.01679	0.48611	6.23054	0.596769	7.64548	0.859754	10.7247	0.264272	3.38256	0.459119	5.82074	0.719751	9.20719	0.920355	11.0936
0.31727	4.00085	0.129071	1.58461	0.317757	3.98077	0.486946	6.1676	0.597638	7.5663	0.859929	10.6826	0.266296	3.36831	0.460028	5.76418	0.720249	9.10504	0.920637	11.0209
0.318141	3.96525	0.131049	1.59069	0.318634	3.94569	0.48779	6.10623	0.598516	7.48908	0.860167	10.6258	0.268324	3.35442	0.460947	5.70904	0.720752	9.00534	0.920861	10.9642
0.319022	3.93058	0.133028	1.59667	0.31952	3.91153	0.488642	6.04638	0.599403	7.41374	0.860471	10.5549	0.270354	3.34089	0.461874	5.65527	0.721261	8.90801	0.921027	10.9229
0.319912	3.89681	0.13501	1.60253	0.320415	3.87826	0.489503	5.988	0.600298	7.34023	0.86084	10.4706	0.272387	3.3277	0.462811	5.60282	0.721776	8.81295	0.921133	10.8967
0.320811	3.86392	0.136995	1.6083	0.32132	3.84584	0.490372	5.93103	0.601201	7.26847	0.861278	10.3735	0.274423	3.31484	0.463756	5.55165	0.722296	8.72011	0.921286	10.8591
0.32172	3.83187	0.138981	1.61396	0.322234	3.81425	0.491249	5.87543	0.603034	7.13	0.861785	10.2644	0.276461	3.30229	0.46471	5.50171	0.722822	8.62939	0.921454	10.8187
0.322639	3.80063	0.140969	1.61952	0.323158	3.78346	0.492134	5.82115	0.603963	7.06318	0.862298	10.1578	0.278502	3.29006	0.465673	5.45296	0.723354	8.54074	0.921682	10.7642
0.323567	3.77018	0.142958	1.62499	0.324091	3.75344	0.493028	5.76815	0.604901	6.99789	0.862816	10.0535	0.280545	3.27811	0.466645	5.40537	0.723891	8.45408	0.921972	10.6961
0.324504	3.7405	0.14495	1.63036	0.325034	3.72418	0.493929	5.71639	0.605846	6.9341	0.863339	9.9516	0.282591	3.26646	0.467626	5.3589	0.724434	8.36935	0.922326	10.6149
0.325451	3.71156	0.146943	1.63564	0.325986	3.69564	0.494839	5.66583	0.6068	6.87174	0.863868	9.85189	0.284639	3.25507	0.468615	5.3135	0.724982	8.28649	0.922745	10.5214
0.326408	3.68333	0.148938	1.64083	0.326948	3.6678	0.495757	5.61642	0.607762	6.81077	0.864402	9.75433	0.286689	3.24395	0.469613	5.26915	0.725536	8.20544	0.923229	10.4163
0.327374	3.65579	0.150935	1.64594	0.32792	3.64065	0.496682	5.56813	0.608732	6.75115	0.864941	9.65887	0.288741	3.23309	0.47062	5.22582	0.726095	8.12614	0.923719	10.3134
0.32835	3.62894	0.152933	1.65095	0.328901	3.61416	0.497616	5.52093	0.609711	6.69285	0.865486	9.56543	0.290795	3.22248	0.471635	5.18346	0.72666	8.04854	0.924213	10.2127
0.329335	3.60273	0.154933	1.65588	0.329892	3.58831	0.498557	5.47478	0.610697	6.63581	0.866036	9.47395	0.292852	3.2121	0.472658	5.14206	0.727231	7.97259	0.924713	10.1141
0.33033	3.57715	0.156934	1.66073	0.330892	3.56308	0.499506	5.42966	0.611691	6.58	0.866592	9.38438	0.29491	3.20196	0.47369	5.10158	0.727807	7.89823	0.925217	10.0175
0.331335	3.5522	0.158936	1.6655	0.331903	3.53846	0.500463	5.38552	0.612694	6.52538	0.867152	9.29666	0.29697	3.19203	0.474731	5.06199	0.728389	7.82542	0.925726	9.92293
0.332349	3.52783	0.16094	1.67019	0.332923	3.51443	0.501428	5.34233	0.613704	6.47192	0.867718	9.21072	0.299032	3.18233	0.47578	5.02327	0.728976	7.75412	0.92624	9.83027
0.333374	3.50405	0.162945	1.67481	0.333952	3.49096	0.5024	5.30008	0.614722	6.41958	0.868289	9.12653	0.301096	3.17283	0.476837	4.98539	0.729568	7.68427	0.926759	9.73947
0.334408	3.48083	0.164951	1.67935	0.334992	3.46805	0.50338	5.25873	0.615748	6.36833	0.868866	9.04402	0.303161	3.16353	0.477903	4.94833	0.730167	7.61583	0.927282	9.65048
0.335452	3.45816	0.166959	1.68381	0.336041	3.44568	0.504368	5.21826	0.616781	6.31814	0.869448	8.96315	0.305228	3.15443	0.478976	4.91206	0.73077	7.54877	0.927811	9.56325
0.336506	3.43602	0.168968	1.68821	0.337101	3.42384	0.505363	5.17863	0.617822	6.26897	0.870035	8.88387	0.307296	3.14552	0.480058	4.87656	0.73138	7.48304	0.928344	9.47773
0.337569	3.4144	0.170977	1.69253	0.33817	3.4025	0.506366	5.13984	0.618871	6.22081	0.870627	8.80614	0.309366	3.1368	0.481148	4.84181	0.731994	7.41861	0.928882	9.39387
0.338643	3.39329	0.172988	1.69679	0.33925	3.38166	0.507376	5.10184	0.619928	6.17361	0.871225	8.72992	0.311438	3.12825	0.482246	4.80779	0.732614	7.35544	0.929425	9.31162
0.339727	3.37266	0.175	1.70098	0.34034	3.36131	0.508393	5.06462	0.620992	6.12735	0.871828	8.65516	0.313511	3.11987	0.483353	4.77447	0.73324	7.2935	0.929972	9.23094
0.340821	3.35252	0.177013	1.7051	0.34144	3.34143	0.509418	5.02816	0.622063	6.08201	0.872436	8.58182	0.315585	3.11166	0.484467	4.74183	0.733871	7.23275	0.930525	9.15179
0.341926	3.33284	0.179027	1.70916	0.34255	3.322	0.51045	4.99244	0.623142	6.03756	0.873049	8.50986	0.317661	3.10362	0.485589	4.70987	0.734507	7.17315	0.931082	9.07412
0.343041	3.31361	0.181042	1.71316	0.34367	3.30302	0.511489	4.95743	0.624229	5.99398	0.873667	8.43924	0.319737	3.09573	0.486719	4.67855	0.735149	7.11468	0.931644	8.9979
0.344166	3.29483	0.183057	1.71709	0.344802	3.28449	0.512536	4.92311	0.625322	5.95124	0.874291	8.36994	0.321816	3.08799	0.487857	4.64786	0.735796	7.05731	0.932211	8.92308
0.345302	3.27648	0.185074	1.72097	0.345943	3.26637	0.513589	4.88948	0.626423	5.90932	0.87492	8.30191	0.323895	3.08041	0.489003	4.61779	0.736449	7.00101	0.932782	8.84963
0.346448	3.25855	0.187091	1.72478	0.347096	3.24867	0.51465	4.8565	0.627532	5.8682	0.875554	8.23512	0.325975	3.07296	0.490157	4.58832	0.737107	6.94575	0.933358	8.77751
0.347605	3.24103	0.189109	1.72854	0.348259	3.23138	0.515718	4.82416	0.628647	5.82786	0.876193	8.16954	0.328057	3.06566	0.491318	4.55942	0.73777	6.8915	0.933939	8.70668
0.348774	3.22392	0.191128	1.73224	0.349433	3.21449	0.516793	4.79245	0.62977	5.78827	0.876837	8.10514	0.330139	3.05849	0.492487	4.5311	0.738439	6.83823	0.934525	8.63712
0.349953	3.20719	0.193148	1.73589	0.350619	3.19799	0.517875	4.76135	0.6309	5.74942	0.877487	8.04189	0.332223	3.05145	0.493664	4.50332	0.739113	6.78593	0.935116	8.56879
0.351143	3.19086	0.195168	1.73948	0.351815	3.18186	0.518964	4.73083	0.632036	5.71129	0.878141	7.97975	0.334307	3.04454	0.494849	4.47608	0.739793	6.73456	0.935711	8.50167
0.352344	3.1749	0.197189	1.74302	0.353023	3.16611	0.52006	4.7009	0.63318	5.67385	0.878801	7.9187	0.336392	3.03776	0.496041	4.44937	0.740478	6.6841	0.936311	8.43571
0.353558	3.1593	0.199211	1.74651	0.354243	3.15072	0.521162	4.67152	0.634331	5.6371	0.879466	7.85871	0.338479	3.0311	0.49724	4.42316	0.741168	6.63453	0.936915	8.37089
0.354782	3.14407	0.201233	1.74994	0.355474	3.13568	0.522272	4.64269	0.635489	5.60102	0.880136	7.79976	0.340566	3.02455	0.498447	4.39745	0.741864	6.58583	0.937524	8.30718
0.356019	3.12919	0.203256	1.75333	0.356717	3.121	0.523388	4.6144	0.636653	5.56558	0.880811	7.74182	0.342654	3.01812	0.499661	4.37223	0.742564	6.53798	0.938138	8.24456
0.357267	3.11466	0.205279	1.75666	0.357972	3.10666	0.524511	4.58662	0.637825	5.53077	0.881491	7.68487	0.344742	3.0118	0.500883	4.34748	0.743271	6.49095	0.938757	8.18299
0.358528	3.10046	0.207303	1.75995	0.35924	3.09265	0.525641	4.55936	0.639003	5.49658	0.882176	7.62888	0.346832	3.00559	0.502113	4.32318	0.743982	6.44473	0.93938	8.12246
0.359801	3.0866	0.209328	1.76319	0.36052	3.07897	0.526777	4.53258	0.640188	5.46299	0.882866	7.57382	0.348922	2.99949	0.503349	4.29934	0.744699	6.39929	0.940008	8.06293
0.361086	3.07307	0.211353	1.76639	0.361813	3.06562	0.52792	4.50629	0.64138	5.42999	0.883561	7.51969	0.351013	2.99349	0.504593	4.27594	0.745421	6.35462	0.940641	8.00439
0.362385	3.05986	0.213378	1.76954	0.363118	3.05259	0.529069	4.48047	0.642578	5.39756	0.884262	7.46644	0.353104	2.98758	0.505844	4.25296	0.746148	6.31069	0.941278	7.94681
0.363696	3.04696	0.215404	1.77264	0.364437	3.03986	0.530225	4.45511	0.643783	5.36569	0.884967	7.41407	0.355196	2.98178	0.507102	4.2304	0.746881	6.2675	0.94192	7.89016
0.365021	3.03437	0.217431	1.7757	0.365769	3.02745	0.531387	4.43019	0.644994	5.33436	0.885677	7.36255	0.357289	2.97607	0.508368	4.20825	0.747618	6.22502	0.942566	7.83444
0.366359	3.02209	0.219458	1.77872	0.367115	3.01534	0.532556	4.40571	0.646212	5.30357	0.886393	7.31187	0.359382	2.97045	0.50964	4.1865	0.748361	6.18324	0.943217	7.7796
0.367711	3.01011	0.221485	1.7817	0.368475	3.00352	0.533731	4.38166	0.647436	5.27329	0.887113	7.262	0.361476	2.96492	0.51092	4.16513	0.749109	6.14214	0.943873	7.72564
0.369077	2.99842	0.223513	1.78464	0.369849	2.992	0.534913	4.35803	0.648667	5.24352	0.887838	7.21292	0.36357	2.95948	0.512206	4.14414	0.749863	6.1017	0.944533	7.67254
0.370457	2.98703	0.225541	1.78753	0.371238	2.98077	0.5361	4.3348	0.649904	5.21425	0.888569	7.16463	0.365664	2.95413	0.5135	4.12352	0.750621	6.06192	0.945198	7.62026
0.371853	2.97592	0.227569	1.79039	0.372641	2.96982	0.537294	4.31197	0.651147	5.18547	0.889304	7.11709	0.367759	2.94886	0.514801	4.10327	0.751385	6.02277	0.945868	7.56881
0.373263	2.9651	0.229598	1.7932	0.37406	2.95915	0.538495	4.28953	0.652397	5.15715	0.890044	7.07029	0.369855	2.94367	0.516108	4.08337	0.752154	5.98424	0.946542	7.51815
0.374688	2.95455	0.231627	1.79598	0.375494	2.94876	0.539701	4.26747	0.653653	5.1293	0.890789	7.02423	0.37195	2.93856	0.517423	4.06381	0.752928	5.94632	0.94722	7.46827
0.376129	2.94428	0.233656	1.79872	0.376944	2.93865	0.540913	4.24577	0.654915	5.10191	0.89154	6.97887	0.374047	2.93353	0.518744	4.04459	0.753708	5.909	0.947903	7.41916
0.377586	2.93429	0.235686	1.80143	0.378409	2.9288	0.542132	4.22445	0.656183	5.07495	0.892295	6.93421	0.376143	2.92857	0.520072	4.0257	0.754492	5.87226	0.948591	7.37079
0.379058	2.92456	0.237716	1.8041	0.379892	2.91922	0.543356	4.20347	0.657457	5.04843	0.893055	6.89023	0.37824	2.92369	0.521407	4.00714	0.755282	5.83608	0.949283	7.32315
0.380548	2.9151	0.239746	1.80673	0.381391	2.9099	0.544587	4.18284	0.658737	5.02233	0.893819	6.84691	0.380337	2.91887	0.522748	3.98888	0.756076	5.80046	0.94998	7.27623
0.382054	2.9059	0.241777	1.80933	0.382906	2.90085	0.545823	4.16255	0.660024	4.99664	0.894589	6.80424	0.382434	2.91413	0.524096	3.97094	0.756876	5.76539	0.950681	7.23001
0.383578	2.89695	0.243807	1.81189	0.38444	2.89205	0.547066	4.14259	0.661316	4.97136	0.895364	6.76222	0.384531	2.90946	0.525451	3.9533	0.757681	5.73085	0.951387	7.18447
0.385119	2.88827	0.245838	1.81442	0.38599	2.88351	0.548314	4.12296	0.662614	4.94647	0.896143	6.72081	0.386629	2.90485	0.526813	3.93595	0.758491	5.69683	0.952097	7.1396
0.386677	2.87983	0.247869	1.81692	0.387559	2.87522	0.549568	4.10364	0.663918	4.92198	0.896928	6.68002	0.388727	2.90031	0.528181	3.91889	0.759306	5.66332	0.952812	7.09539
0.388254	2.87165	0.249901	1.81938	0.389146	2.86717	0.550828	4.08463	0.665228	4.89786	0.897717	6.63982	0.390824	2.89583	0.529556	3.90212	0.760126	5.63031	0.953531	7.05181
0.389849	2.86371	0.251932	1.82181	0.390752	2.85937	0.552094	4.06592	0.666544	4.87411	0.898511	6.60021	0.392922	2.89142	0.530937	3.88562	0.760951	5.59779	0.954254	7.00887
0.391463	2.85602	0.253964	1.82422	0.392376	2.85181	0.553365	4.04751	0.667865	4.85072	0.89931	6.56118	0.39502	2.88706	0.532324	3.86939	0.761781	5.56575	0.954983	6.96655
0.393095	2.84857	0.255996	1.82659	0.394019	2.84449	0.554642	4.02939	0.669192	4.82769	0.900114	6.5227	0.397119	2.88276	0.533718	3.85343	0.762616	5.53418	0.955715	6.92482
0.394747	2.84135	0.258028	1.82893	0.395681	2.83741	0.555924	4.01156	0.670525	4.80501	0.900922	6.48478	0.399217	2.87853	0.535119	3.83772	0.763457	5.50307	0.956452	6.88369
0.396417	2.83437	0.26006	1.83124	0.397363	2.83056	0.557213	3.994	0.671863	4.78267	0.901735	6.44739	0.401315	2.87435	0.536526	3.82227	0.764302	5.47241	0.957193	6.84314
0.398108	2.82762	0.262092	1.83352	0.399064	2.82393	0.558506	3.97672	0.673207	4.76066	0.902553	6.41054	0.403413	2.87022	0.537939	3.80707	0.765152	5.44219	0.957939	6.80316
0.399817	2.82109	0.264124	1.83577	0.400784	2.81753	0.559806	3.9597	0.674556	4.73898	0.903376	6.3742	0.405511	2.86615	0.539358	3.79211	0.766007	5.41241	0.958689	6.76373
0.401547	2.81479	0.266157	1.83799	0.402525	2.81135	0.56111	3.94294	0.675911	4.71762	0.904204	6.33837	0.407609	2.86213	0.540784	3.77739	0.766867	5.38305	0.959444	6.72485
0.403295	2.80871	0.268189	1.84019	0.404285	2.80539	0.562421	3.92644	0.677271	4.69657	0.905036	6.30304	0.409707	2.85816	0.542216	3.7629	0.767732	5.35411	0.960203	6.68651
0.405064	2.80284	0.270222	1.84236	0.406065	2.79964	0.563736	3.91019	0.678637	4.67583	0.905873	6.2682	0.411805	2.85425	0.543654	3.74865	0.768603	5.32557	0.960966	6.64869
0.406852	2.79718	0.272255	1.8445	0.407864	2.7941	0.565057	3.89419	0.680008	4.65539	0.906715	6.23383	0.413903	2.85038	0.545098	3.73461	0.769478	5.29744	0.961734	6.61138
0.408661	2.79173	0.274288	1.84662	0.409683	2.78876	0.566383	3.87842	0.681384	4.63525	0.907561	6.19994	0.416	2.84656	0.546548	3.7208	0.770358	5.26969	0.962506	6.57458
0.410488	2.78648	0.27632	1.84871	0.411521	2.78362	0.567715	3.8629	0.682766	4.6154	0.908413	6.16651	0.418098	2.84279	0.548005	3.7072	0.771242	5.24234	0.963282	6.53827
0.412335	2.78142	0.278353	1.85077	0.413379	2.77867	0.569051	3.8476	0.684153	4.59583	0.909268	6.13352	0.420195	2.83906	0.549468	3.69381	0.772132	5.21536	0.964063	6.50245
0.414201	2.77656	0.280386	1.85281	0.415256	2.77392	0.570393	3.83253	0.685545	4.57654	0.910129	6.10098	0.422292	2.83538	0.550936	3.68063	0.773027	5.18875	0.964848	6.4671
0.416086	2.77189	0.282419	1.85483	0.417152	2.76934	0.57174	3.81768	0.686942	4.55752	0.910994	6.06888	0.424389	2.83175	0.552411	3.66765	0.773926	5.1625	0.965638	6.43223
0.41799	2.76739	0.284452	1.85682	0.419066	2.76495	0.573092	3.80305	0.688345	4.53877	0.911864	6.0372	0.426486	2.82816	0.553891	3.65488	0.774831	5.13661	0.966431	6.39781
0.419912	2.76307	0.286485	1.85878	0.420998	2.76073	0.57445	3.78863	0.689752	4.52028	0.912739	6.00595	0.428582	2.82461	0.555377	3.64229	0.77574	5.11107	0.967229	6.36384
0.421853	2.75893	0.288518	1.86072	0.422949	2.75668	0.575812	3.77443	0.691165	4.50204	0.913618	5.9751	0.430678	2.8211	0.55687	3.6299	0.776654	5.08587	0.968031	6.33031
0.423811	2.75495	0.290551	1.86264	0.424917	2.75279	0.577179	3.76042	0.692582	4.48406	0.914502	5.94466	0.432774	2.81763	0.558368	3.61769	0.777573	5.06101	0.968838	6.29722
0.425787	2.75113	0.292584	1.86454	0.426902	2.74905	0.578552	3.74662	0.694005	4.46633	0.91539	5.91461	0.434869	2.8142	0.559872	3.60567	0.778497	5.03648	0.969649	6.26455
0.427779	2.74746	0.294617	1.86641	0.428904	2.74547	0.579929	3.73302	0.695432	4.44884	0.916283	5.88495	0.436964	2.81081	0.561382	3.59383	0.779425	5.01227	0.970464	6.2323
0.429788	2.74395	0.29665	1.86827	0.430922	2.74204	0.581311	3.71961	0.696864	4.43159	0.917181	5.85568	0.439059	2.80746	0.562897	3.58217	0.780359	4.98839	0.971283	6.20047
0.431813	2.74057	0.298683	1.8701	0.432956	2.73874	0.582698	3.70639	0.698301	4.41457	0.918083	5.82678	0.441153	2.80415	0.564419	3.57068	0.781297	4.96482	0.972107	6.16903
0.433854	2.73734	0.300716	1.8719	0.435005	2.73559	0.58409	3.69335	0.699743	4.39779	0.91899	5.79825	0.443247	2.80087	0.565946	3.55936	0.78224	4.94155	0.972934	6.13799
0.43591	2.73424	0.302749	1.87369	0.437069	2.73256	0.585487	3.6805	0.70119	4.38122	0.919901	5.77008	0.445341	2.79763	0.567478	3.54821	0.783188	4.91859	0.973766	6.10734
0.43798	2.73126	0.304782	1.87546	0.439148	2.72965	0.586888	3.66783	0.702641	4.36488	0.920817	5.74227	0.447434	2.79442	0.569017	3.53722	0.78414	4.89592	0.974602	6.07708
0.440065	2.72841	0.306814	1.8772	0.44124	2.72687	0.588295	3.65533	0.704097	4.34876	0.921737	5.7148	0.449527	2.79125	0.570561	3.5264	0.785097	4.87355	0.975443	6.04718
0.442164	2.72568	0.308847	1.87893	0.443346	2.72419	0.589706	3.64301	0.705558	4.33285	0.922662	5.68768	0.451619	2.78811	0.57211	3.51573	0.786059	4.85146	0.976287	6.01766
0.444275	2.72306	0.31088	1.88064	0.445465	2.72163	0.591121	3.63086	0.707024	4.31715	0.923591	5.6609	0.453711	2.78501	0.573666	3.50522	0.787026	4.82966	0.977136	5.9885
0.4464	2.72054	0.312912	1.88232	0.447596	2.71918	0.592541	3.61887	0.708494	4.30165	0.924525	5.63444	0.455802	2.78193	0.575226	3.49486	0.787997	4.80813	0.977989	5.9597
0.448536	2.71813	0.314945	1.88399	0.449739	2.71682	0.593966	3.60705	0.709968	4.28636	0.925464	5.60832	0.457893	2.77889	0.576792	3.48465	0.788973	4.78687	0.978846	5.93125
0.450685	2.71581	0.316977	1.88564	0.451894	2.71456	0.595396	3.59539	0.711447	4.27126	0.926406	5.58251	0.459983	2.77588	0.578364	3.47458	0.789954	4.76588	0.979707	5.90314
0.452844	2.71359	0.31901	1.88727	0.45406	2.71239	0.59683	3.58388	0.712931	4.25636	0.927354	5.55702	0.462073	2.7729	0.579941	3.46466	0.790939	4.74515	0.980572	5.87537
0.455015	2.71146	0.321042	1.88888	0.456236	2.7103	0.598268	3.57253	0.714419	4.24165	0.928305	5.53184	0.464162	2.76995	0.581523	3.45489	0.791929	4.72468	0.981441	5.84793
0.457195	2.70941	0.323074	1.89047	0.458423	2.7083	0.599711	3.56134	0.715911	4.22712	0.929262	5.50696	0.46625	2.76703	0.583111	3.44525	0.792924	4.70447	0.982315	5.82082
0.459386	2.70745	0.325106	1.89205	0.460619	2.70638	0.601159	3.55029	0.717408	4.21279	0.930222	5.48239	0.468338	2.76414	0.584705	3.43575	0.793923	4.6845	0.983193	5.79403
0.461587	2.70556	0.327138	1.89361	0.462824	2.70453	0.60261	3.53939	0.718909	4.19863	0.931187	5.4581	0.470426	2.76127	0.586303	3.42639	0.794927	4.66478	0.984074	5.76756
0.463796	2.70374	0.32917	1.89515	0.465039	2.70276	0.604067	3.52863	0.720414	4.18465	0.932157	5.43411	0.472513	2.75844	0.587907	3.41715	0.795936	4.6453	0.98496	5.7414
0.466014	2.702	0.331202	1.89667	0.467262	2.70105	0.605527	3.51802	0.721924	4.17085	0.933131	5.4104	0.474599	2.75563	0.589516	3.40805	0.796949	4.62606	0.98585	5.71555
0.468241	2.70032	0.333233	1.89818	0.469493	2.69941	0.606992	3.50754	0.723438	4.15722	0.934109	5.38697	0.476684	2.75285	0.59113	3.39907	0.797967	4.60705	0.986744	5.68999
0.470475	2.69871	0.335265	1.89967	0.471732	2.69783	0.608461	3.4972	0.724956	4.14376	0.935091	5.36382	0.478769	2.75009	0.59275	3.39022	0.798989	4.58827	0.987641	5.66474
0.472717	2.69715	0.337296	1.90114	0.473978	2.69631	0.609935	3.487	0.726478	4.13046	0.936078	5.34094	0.480853	2.74736	0.594375	3.3815	0.800016	4.56972	0.988543	5.63977
0.474967	2.69566	0.339327	1.9026	0.476231	2.69484	0.611412	3.47693	0.728005	4.11733	0.93707	5.31832	0.482937	2.74465	0.596005	3.37289	0.801047	4.55139	0.989449	5.61509
0.477223	2.69422	0.341358	1.90404	0.478491	2.69343	0.612894	3.46698	0.729535	4.10436	0.938065	5.29597	0.485019	2.74197	0.59764	3.36441	0.802083	4.53328	0.990359	5.5907
0.479486	2.69283	0.343389	1.90547	0.480758	2.69207	0.61438	3.45717	0.73107	4.09154	0.939065	5.27387	0.487101	2.73931	0.59928	3.35604	0.803124	4.51538	0.991273	5.56658
0.481755	2.69149	0.34542	1.90688	0.483031	2.69076	0.61587	3.44748	0.732608	4.07889	0.94007	5.25203	0.489183	2.73667	0.600925	3.34778	0.804169	4.4977	0.992191	5.54274
0.484031	2.6902	0.347451	1.90827	0.485309	2.6895	0.617365	3.43791	0.734151	4.06638	0.941078	5.23044	0.491263	2.73406	0.602576	3.33964	0.805218	4.48022	0.993113	5.51916
0.486312	2.68896	0.349481	1.90965	0.487594	2.68828	0.618863	3.42847	0.735698	4.05403	0.942091	5.20909	0.493343	2.73147	0.604231	3.33161	0.806272	4.46295	0.994039	5.49585
0.488599	2.68775	0.351512	1.91102	0.489884	2.6871	0.620365	3.41915	0.737248	4.04182	0.943108	5.18799	0.495422	2.72891	0.605891	3.32369	0.807331	4.44588	0.994969	5.4728
0.490891	2.68659	0.353542	1.91237	0.492179	2.68596	0.621872	3.40994	0.738803	4.02976	0.94413	5.16713	0.4975	2.72636	0.607557	3.31588	0.808394	4.42901	0.995903	5.45
0.493188	2.68547	0.355572	1.91371	0.494478	2.68486	0.623382	3.40085	0.740361	4.01784	0.945155	5.1465	0.499578	2.72384	0.609227	3.30818	0.809461	4.41234	0.99684	5.42746
0.49549	2.68439	0.357602	1.91503	0.496783	2.6838	0.624897	3.39187	0.741923	4.00606	0.946185	5.1261	0.501654	2.72134	0.610902	3.30057	0.810533	4.39585	0.997782	5.40517
0.497797	2.68334	0.359632	1.91634	0.499092	2.68277	0.626415	3.383	0.743489	3.99442	0.947219	5.10593	0.50373	2.71886	0.612582	3.29308	0.81161	4.37956	0.998727	5.38312
0.500108	2.68232	0.361661	1.91763	0.501405	2.68177	0.627937	3.37424	0.745059	3.98292	0.948258	5.08599	0.505805	2.7164	0.614267	3.28568	0.81269	4.36346	0.999677	5.36132
0.502423	2.68134	0.36369	1.91891	0.503723	2.68081	0.629464	3.3656	0.746632	3.97155	0.9493	5.06626	0.507879	2.71396	0.615957	3.27838	0.813775	4.34753	1.00063	5.33975
0.504742	2.68039	0.36572	1.92018	0.506044	2.67987	0.630994	3.35705	0.748209	3.96031	0.950347	5.04675	0.509953	2.71154	0.617651	3.27118	0.814865	4.33179		
0.507065	2.67947	0.367749	1.92143	0.508369	2.67897	0.632527	3.34861	0.74979	3.94921	0.951398	5.02746	0.512025	2.70914	0.619351	3.26407	0.815959	4.31623		
0.509392	2.67858	0.369777	1.92267	0.510698	2.67809	0.634065	3.34028	0.751375	3.93823	0.952453	5.00838	0.514097	2.70675	0.621055	3.25706	0.817057	4.30084		
0.511722	2.67771	0.371806	1.9239	0.51303	2.67724	0.635607	3.33205	0.752963	3.92737	0.953513	4.9895	0.516167	2.70439	0.622764	3.25014	0.81816	4.28563		
0.514055	2.67687	0.373835	1.92512	0.515365	2.67641	0.637152	3.32391	0.754555	3.91664	0.954576	4.97083	0.518237	2.70204	0.624477	3.24331	0.819267	4.27059		
0.516392	2.67606	0.375863	1.92632	0.517704	2.67561	0.638701	3.31588	0.75615	3.90603	0.955644	4.95237	0.520306	2.69972	0.626196	3.23657	0.820379	4.25571		
0.518732	2.67527	0.377891	1.92751	0.520045	2.67483	0.640254	3.30794	0.757749	3.89554	0.956716	4.9341	0.522374	2.69741	0.627919	3.22993	0.821494	4.241		
0.521074	2.6745	0.379919	1.92869	0.522389	2.67408	0.64181	3.30009	0.759352	3.88517	0.957791	4.91603	0.524441	2.69511	0.629646	3.22336	0.822614	4.22646		
0.52342	2.67375	0.381947	1.92985	0.524736	2.67334	0.64337	3.29234	0.760958	3.87492	0.958871	4.89814	0.526507	2.69284	0.631378	3.21689	0.823739	4.21207		
0.525768	2.67302	0.383974	1.93101	0.527086	2.67262	0.644934	3.28468	0.762567	3.86478	0.959956	4.88046	0.528572	2.69058	0.633115	3.2105	0.824867	4.19784		
0.528119	2.67232	0.386001	1.93215	0.529438	2.67193	0.646501	3.27711	0.76418	3.85475	0.961044	4.86295	0.530637	2.68834	0.634856	3.20419	0.826	4.18377		
0.530472	2.67163	0.388028	1.93328	0.531793	2.67125	0.648072	3.26964	0.765796	3.84483	0.962136	4.84564	0.5327	2.68611	0.636602	3.19796	0.827138	4.16985		
0.532828	2.67096	0.390055	1.9344	0.534149	2.67059	0.649646	3.26224	0.767416	3.83502	0.963232	4.8285	0.534762	2.6839	0.638352	3.19182	0.828279	4.15609		
0.535185	2.67031	0.392082	1.93551	0.536508	2.66995	0.651224	3.25494	0.769039	3.82532	0.964333	4.81154	0.536824	2.68171	0.640107	3.18575	0.829425	4.14247		
0.537545	2.66967	0.394109	1.9366	0.538869	2.66932	0.652806	3.24772	0.770665	3.81573	0.965437	4.79477	0.538884	2.67953	0.641866	3.17976	0.830575	4.129		
0.539907	2.66905	0.396135	1.93769	0.541232	2.66871	0.654391	3.24058	0.772294	3.80624	0.966546	4.77816	0.540944	2.67737	0.64363	3.17385	0.831729	4.11568		
0.542271	2.66845	0.398161	1.93876	0.543597	2.66811	0.655979	3.23353	0.773927	3.79685	0.967658	4.76173	0.543002	2.67522	0.645398	3.16801	0.832888	4.10249		
0.544637	2.66785	0.400187	1.93983	0.545964	2.66753	0.657571	3.22656	0.775563	3.78757	0.968775	4.74547	0.54506	2.67309	0.647171	3.16225	0.83405	4.08945		
0.547004	2.66728	0.402212	1.94088	0.548333	2.66696	0.659167	3.21967	0.777203	3.77838	0.969895	4.72937	0.547116	2.67097	0.648948	3.15656	0.835217	4.07655		
0.549373	2.66672	0.404238	1.94192	0.550703	2.66641	0.660765	3.21286	0.778845	3.76929	0.97102	4.71344	0.549172	2.66886	0.650729	3.15095	0.836388	4.06379		
0.551744	2.66617	0.406263	1.94296	0.553075	2.66587	0.662368	3.20612	0.780491	3.7603	0.972148	4.69767	0.551226	2.66677	0.652514	3.1454	0.837563	4.05116		
0.554117	2.66563	0.408288	1.94398	0.555448	2.66534	0.663973	3.19947	0.782139	3.7514	0.973281	4.68207	0.55328	2.6647	0.654304	3.13993	0.838743	4.03866		
0.556491	2.66511	0.410313	1.94499	0.557823	2.66482	0.665582	3.19289	0.783791	3.7426	0.974417	4.66662	0.555332	2.66263	0.656098	3.13452	0.839926	4.0263		
0.558866	2.66459	0.412337	1.94599	0.560199	2.66431	0.667194	3.18638	0.785446	3.73389	0.975557	4.65132	0.557383	2.66058	0.657896	3.12918	0.841114	4.01407		
0.561243	2.66409	0.414361	1.94699	0.562576	2.66381	0.66881	3.17994	0.787104	3.72527	0.976702	4.63618	0.559434	2.65855	0.659698	3.12391	0.842306	4.00196		
0.563621	2.6636	0.416385	1.94797	0.564955	2.66333	0.670429	3.17358	0.788765	3.71675	0.97785	4.6212	0.561483	2.65652	0.661505	3.11871	0.843502	3.98998		
0.566	2.66312	0.418409	1.94894	0.567335	2.66285	0.672051	3.16729	0.790429	3.70831	0.979002	4.60636	0.563531	2.65451	0.663315	3.11357	0.844702	3.97812		
0.568381	2.66264	0.420433	1.9499	0.569716	2.66238	0.673676	3.16107	0.792096	3.69995	0.980158	4.59167	0.565579	2.65252	0.66513	3.10849	0.845906	3.96639		
0.570762	2.66218	0.422456	1.95086	0.572098	2.66193	0.675305	3.15492	0.793766	3.69169	0.981318	4.57713	0.567625	2.65053	0.666949	3.10348	0.847114	3.95478		
0.573145	2.66173	0.424479	1.9518	0.574481	2.66148	0.676937	3.14884	0.795438	3.68351	0.982482	4.56273	0.56967	2.64856	0.668772	3.09853	0.848327	3.94329		
0.575529	2.66128	0.426502	1.95274	0.576866	2.66104	0.678572	3.14282	0.797114	3.67541	0.983649	4.54847	0.571714	2.6466	0.670599	3.09364	0.849543	3.93191		
0.577913	2.66085	0.428525	1.95367	0.579251	2.6606	0.68021	3.13688	0.798793	3.66739	0.984821	4.53435	0.573757	2.64465	0.67243	3.08881	0.850763	3.92066		
0.580299	2.66042	0.430547	1.95458	0.581637	2.66018	0.681851	3.13099	0.800474	3.65946	0.985996	4.52037	0.575799	2.64271	0.674265	3.08404	0.851988	3.90951		
0.582685	2.66	0.432569	1.95549	0.584024	2.65976	0.683496	3.12517	0.802158	3.65161	0.987176	4.50653	0.57784	2.64079	0.676103	3.07932	0.853216	3.89848		
0.585073	2.65958	0.434591	1.95639	0.586412	2.65935	0.685143	3.11942	0.803845	3.64383	0.988359	4.49282	0.57988	2.63887	0.677946	3.07467	0.854449	3.88756		
0.587461	2.65918	0.436613	1.95729	0.5888	2.65895	0.686794	3.11373	0.805535	3.63613	0.989546	4.47925	0.581919	2.63697	0.679793	3.07007	0.855686	3.87676		
0.58985	2.65878	0.438634	1.95817	0.591189	2.65856	0.688448	3.10809	0.807228	3.62851	0.990736	4.4658	0.583957	2.63508	0.681644	3.06553	0.856926	3.86606		
0.592239	2.65838	0.440656	1.95904	0.593579	2.65817	0.690105	3.10252	0.808923	3.62097	0.991931	4.45249	0.585993	2.6332	0.683498	3.06105	0.858171	3.85547		
0.594629	2.658	0.442677	1.95991	0.59597	2.65778	0.691765	3.09702	0.810621	3.6135	0.993129	4.4393	0.588029	2.63133	0.685356	3.05661	0.859419	3.84498		
0.59702	2.65762	0.444697	1.96077	0.598361	2.6574	0.693428	3.09157	0.812322	3.60611	0.994331	4.42624	0.590063	2.62947	0.687218	3.05223	0.860672	3.8346		
0.599412	2.65724	0.446718	1.96162	0.600753	2.65703	0.695094	3.08617	0.814025	3.59878	0.995537	4.4133	0.592097	2.62762	0.689084	3.04791	0.861928	3.82433		
0.601804	2.65687	0.448738	1.96246	0.603145	2.65667	0.696763	3.08084	0.815731	3.59153	0.996746	4.40049	0.594129	2.62579	0.690953	3.04363	0.863189	3.81415		
0.604196	2.65651	0.450758	1.9633	0.605538	2.6563	0.698435	3.07556	0.81744	3.58435	0.99796	4.3878	0.596161	2.62396	0.692827	3.03941	0.864453	3.80408		
0.606589	2.65615	0.452778	1.96412	0.607932	2.65595	0.70011	3.07034	0.819151	3.57724	0.999177	4.37523	0.598191	2.62214	0.694703	3.03524	0.865721	3.7941		
0.608983	2.65579	0.454797	1.96494	0.610325	2.6556	0.701788	3.06518	0.820865	3.5702	1.0004	4.36277	0.60022	2.62034	0.696584	3.03112	0.866994	3.78423		
0.611377	2.65544	0.456816	1.96575	0.612719	2.65525	0.703469	3.06007	0.822581	3.56322			0.602248	2.61854	0.698468	3.02704	0.86827	3.77445		
0.613771	2.6551	0.458835	1.96656	0.615114	2.65491	0.705153	3.05501	0.8243	3.55632			0.604276	2.61675	0.700356	3.02302	0.86955	3.76476		
0.616166	2.65476	0.460854	1.96735	0.617509	2.65457	0.70684	3.05001	0.826021	3.54947			0.606302	2.61498	0.702247	3.01904	0.870834	3.75517		
0.618561	2.65442	0.462872	1.96814	0.619904	2.65424	0.70853	3.04506	0.827745	3.5427			0.608327	2.61321	0.704142	3.01511	0.872122	3.74568		
0.620956	2.65409	0.464891	1.96892	0.6223	2.65391	0.710223	3.04016	0.829471	3.53599			0.610351	2.61145	0.706041	3.01123	0.873413	3.73628		
0.623352	2.65376	0.466909	1.9697	0.624695	2.65358	0.711918	3.03531	0.8312	3.52934			0.612374	2.6097	0.707942	3.00739	0.874709	3.72696		
0.625748	2.65344	0.468926	1.97046	0.627091	2.65326	0.713617	3.03052	0.832931	3.52275			0.614395	2.60797	0.709848	3.00359	0.876008	3.71774		
0.628144	2.65312	0.470944	1.97122	0.629488	2.65294	0.715318	3.02577	0.834665	3.51623			0.616416	2.60624	0.711756	2.99984	0.877311	3.70861		
0.63054	2.6528	0.472961	1.97198	0.631884	2.65262	0.717022	3.02107	0.836401	3.50977			0.618436	2.60452	0.713669	2.99614	0.878618	3.69956		
0.632937	2.65248	0.474978	1.97272	0.634281	2.65231	0.718729	3.01642	0.838139	3.50336			0.620455	2.60281	0.715584	2.99247	0.879929	3.6906		
0.635333	2.65217	0.476994	1.97346	0.636677	2.652	0.720439	3.01182	0.83988	3.49702			0.622472	2.6011	0.717503	2.98885	0.881244	3.68173		
0.63773	2.65186	0.479011	1.97419	0.639074	2.65169	0.722152	3.00727	0.841623	3.49074			0.624489	2.59941	0.719425	2.98528	0.882563	3.67294		
0.640127	2.65156	0.481027	1.97492	0.641471	2.65138	0.723868	3.00276	0.843368	3.48451			0.626505	2.59773	0.721351	2.98174	0.883885	3.66424		
0.642524	2.65125	0.483043	1.97564	0.643868	2.65108	0.725586	2.9983	0.845115	3.47834			0.628519	2.59605	0.723279	2.97824	0.885211	3.65562		
0.64492	2.65095	0.485058	1.97635	0.646264	2.65078	0.727308	2.99389	0.846865	3.47223			0.630533	2.59438	0.725211	2.97478	0.886541	3.64708		
0.647317	2.65065	0.487074	1.97706	0.648661	2.65048	0.729032	2.98952	0.848617	3.46617			0.632546	2.59273	0.727147	2.97136	0.887874	3.63862		
0.649714	2.65035	0.489089	1.97776	0.651058	2.65019	0.730759	2.9852	0.850371	3.46017			0.634557	2.59108	0.729085	2.96799	0.889212	3.63024		
0.652111	2.65006	0.491104	1.97845	0.653455	2.6499	0.732488	2.98092	0.852128	3.45422			0.636568	2.58943	0.731026	2.96464	0.890553	3.62193		
0.654508	2.64977	0.493118	1.97914	0.655852	2.6496	0.734221	2.97668	0.853886	3.44832			0.638577	2.5878	0.732971	2.96134	0.891898	3.61371		
0.656904	2.64948	0.495133	1.97982	0.658248	2.64931	0.735956	2.97249	0.855647	3.44248			0.640586	2.58618	0.734919	2.95808	0.893246	3.60556		
0.659301	2.64919	0.497147	1.98049	0.660645	2.64903	0.737694	2.96834	0.85741	3.43669			0.642594	2.58456	0.736869	2.95485	0.894599	3.59749		
0.661697	2.6489	0.49916	1.98116	0.663041	2.64874	0.739435	2.96423	0.859175	3.43095			0.6446	2.58295	0.738823	2.95165	0.895955	3.5895		
0.664094	2.64861	0.501174	1.98183	0.665437	2.64845	0.741178	2.96016	0.860942	3.42527			0.646606	2.58135	0.74078	2.9485	0.897314	3.58158		
0.66649	2.64833	0.503187	1.98248	0.667833	2.64817	0.742924	2.95614	0.862711	3.41963			0.648611	2.57976	0.74274	2.94537	0.898678	3.57373		
0.668885	2.64805	0.5052	1.98313	0.670229	2.64789	0.744673	2.95215	0.864482	3.41404			0.650614	2.57817	0.744702	2.94229	0.900045	3.56595		
0.671281	2.64776	0.507213	1.98378	0.672624	2.64761	0.746425	2.94821	0.866256	3.4085			0.652617	2.5766	0.746668	2.93923	0.901416	3.55825		
0.673676	2.64748	0.509225	1.98442	0.675019	2.64732	0.74818	2.9443	0.868031	3.40301			0.654619	2.57503	0.748636	2.93621	0.90279	3.55062		
0.676071	2.6472	0.511237	1.98505	0.677414	2.64704	0.749937	2.94044	0.869808	3.39757			0.65662	2.57347	0.750608	2.93322	0.904168	3.54305		
0.678466	2.64692	0.513249	1.98568	0.679809	2.64677	0.751697	2.93661	0.871587	3.39218			0.65862	2.57192	0.752582	2.93027	0.90555	3.53556		
0.680861	2.64664	0.515261	1.9863	0.682203	2.64649	0.75346	2.93282	0.873369	3.38683			0.660619	2.57037	0.754559	2.92735	0.906935	3.52813		
0.683254	2.64636	0.517272	1.98692	0.684597	2.64621	0.755225	2.92907	0.875152	3.38152			0.662617	2.56883	0.756538	2.92446	0.908324	3.52078		
0.685648	2.64609	0.519283	1.98753	0.68699	2.64593	0.756994	2.92536	0.876937	3.37627			0.664614	2.5673	0.758521	2.9216	0.909717	3.51349		
0.688041	2.64581	0.521294	1.98814	0.689383	2.64565	0.758765	2.92168	0.878724	3.37106			0.666611	2.56578	0.760506	2.91877	0.911113	3.50626		
0.690434	2.64553	0.523305	1.98874	0.691776	2.64538	0.760538	2.91805	0.880513	3.36589			0.668606	2.56426	0.762494	2.91597	0.912513	3.4991		
0.692826	2.64526	0.525315	1.98934	0.694168	2.6451	0.762315	2.91444	0.882304	3.36076			0.670601	2.56276	0.764484	2.91321	0.913917	3.49201		
0.695218	2.64498	0.527325	1.98993	0.696559	2.64482	0.764094	2.91088	0.884096	3.35568			0.672594	2.56126	0.766477	2.91047	0.915324	3.48498		
0.69761	2.6447	0.529335	1.99051	0.69895	2.64455	0.765876	2.90735	0.885891	3.35064			0.674587	2.55976	0.768473	2.90776	0.916734	3.47801		
0.7	2.64443	0.531344	1.99109	0.701341	2.64427	0.767661	2.90385	0.887687	3.34565			0.676579	2.55828	0.770471	2.90508	0.918148	3.47111		
0.702391	2.64415	0.533353	1.99167	0.703731	2.64399	0.769448	2.90039	0.889485	3.3407			0.67857	2.5568	0.772472	2.90242	0.919566	3.46427		
0.70478	2.64387	0.535362	1.99224	0.70612	2.64372	0.771239	2.89696	0.891285	3.33578			0.68056	2.55533	0.774475	2.8998	0.920988	3.45748		
0.707169	2.64359	0.537371	1.99281	0.708509	2.64344	0.773032	2.89357	0.893087	3.33091			0.68255	2.55386	0.77648	2.8972	0.922412	3.45076		
0.709558	2.64331	0.539379	1.99337	0.710896	2.64316	0.774827	2.89022	0.89489	3.32608			0.684538	2.5524	0.778489	2.89463	0.923841	3.4441		
0.711945	2.64304	0.541387	1.99392	0.713284	2.64288	0.776626	2.88689	0.896696	3.32129			0.686526	2.55095	0.780499	2.89209	0.925273	3.4375		
0.714332	2.64276	0.543395	1.99447	0.71567	2.6426	0.778427	2.8836	0.898502	3.31654			0.688513	2.54951	0.782512	2.88957	0.926708	3.43096		
0.716718	2.64248	0.545403	1.99502	0.718056	2.64232	0.780231	2.88034	0.900311	3.31182			0.690499	2.54807	0.784527	2.88708	0.928147	3.42447		
0.719104	2.64219	0.54741	1.99556	0.720441	2.64204	0.782038	2.87712	0.902121	3.30715			0.692484	2.54665	0.786545	2.88462	0.92959	3.41805		
0.721488	2.64191	0.549417	1.9961	0.722825	2.64175	0.783848	2.87393	0.903933	3.30251			0.694469	2.54522	0.788565	2.88217	0.931036	3.41168		
0.723872	2.64163	0.551424	1.99663	0.725209	2.64147	0.785661	2.87076	0.905747	3.29791			0.696453	2.54381	0.790587	2.87976	0.932485	3.40536		
0.726255	2.64134	0.553431	1.99716	0.727591	2.64118	0.787476	2.86764	0.907562	3.29335			0.698436	2.5424	0.792611	2.87737	0.933938	3.3991		
0.728637	2.64106	0.555437	1.99768	0.729973	2.6409	0.789294	2.86454	0.909379	3.28882			0.700418	2.541	0.794638	2.875	0.935395	3.3929		
0.731018	2.64077	0.557443	1.9982	0.732353	2.64061	0.791116	2.86147	0.911198	3.28433			0.7024	2.5396	0.796666	2.87266	0.936855	3.38675		
0.733399	2.64048	0.559448	1.99872	0.734733	2.64032	0.79294	2.85844	0.913018	3.27988			0.70438	2.53821	0.798697	2.87034	0.938318	3.38065		
0.735778	2.64019	0.561454	1.99923	0.737111	2.64003	0.794766	2.85543	0.91484	3.27546			0.70636	2.53683	0.80073	2.86804	0.939785	3.37461		
0.738156	2.6399	0.563459	1.99973	0.739489	2.63974	0.796596	2.85246	0.916663	3.27108			0.70834	2.53546	0.802765	2.86577	0.941256	3.36862		
0.740533	2.63961	0.565464	2.00023	0.741866	2.63944	0.798429	2.84951	0.918488	3.26673			0.710318	2.53409	0.804803	2.86351	0.942729	3.36268		
0.742909	2.63931	0.567468	2.00073	0.744241	2.63914	0.800265	2.8466	0.920314	3.26241			0.712296	2.53272	0.806842	2.86128	0.944207	3.3568		
0.745284	2.63901	0.569473	2.00122	0.746615	2.63884	0.802103	2.84371	0.922142	3.25813			0.714274	2.53137	0.808883	2.85908	0.945687	3.35096		
0.747658	2.63871	0.571477	2.00171	0.748988	2.63854	0.803945	2.84086	0.923972	3.25388			0.71625	2.53002	0.810926	2.85689	0.947171	3.34517		
0.75003	2.63841	0.573481	2.0022	0.75136	2.63824	0.805789	2.83803	0.925803	3.24967			0.718226	2.52868	0.812971	2.85472	0.948659	3.33944		
0.752401	2.63811	0.575484	2.00268	0.753731	2.63793	0.807637	2.83524	0.927635	3.24549			0.720201	2.52734	0.815018	2.85258	0.95015	3.33375		
0.754771	2.6378	0.577487	2.00315	0.7561	2.63762	0.809488	2.83247	0.929469	3.24134			0.722176	2.52601	0.817067	2.85046	0.951644	3.32812		
0.75714	2.63749	0.57949	2.00363	0.758468	2.63731	0.811341	2.82973	0.931304	3.23722			0.72415	2.52469	0.819118	2.84835	0.953142	3.32253		
0.759507	2.63718	0.581493	2.00409	0.760834	2.637	0.813198	2.82702	0.933141	3.23313			0.726123	2.52337	0.82117	2.84627	0.954643	3.31699		
0.761873	2.63686	0.583496	2.00456	0.763199	2.63668	0.815058	2.82434	0.934979	3.22908			0.728096	2.52206	0.823225	2.8442	0.956148	3.3115		
0.764238	2.63654	0.585498	2.00502	0.765563	2.63636	0.816921	2.82168	0.936819	3.22505			0.730068	2.52076	0.825281	2.84216	0.957656	3.30605		
0.766601	2.63622	0.5875	2.00548	0.767925	2.63604	0.818787	2.81906	0.93866	3.22106			0.73204	2.51946	0.827339	2.84013	0.959167	3.30065		
0.768962	2.6359	0.589501	2.00593	0.770286	2.63571	0.820656	2.81646	0.940502	3.2171			0.734011	2.51817	0.829398	2.83813	0.960682	3.2953		
0.771322	2.63557	0.591503	2.00638	0.772645	2.63538	0.822529	2.81389	0.942346	3.21316			0.735981	2.51688	0.83146	2.83614	0.9622	3.28999		
0.77368	2.63524	0.593504	2.00682	0.775002	2.63505	0.824405	2.81135	0.944191	3.20926			0.737951	2.51561	0.833522	2.83417	0.963721	3.28473		
0.776037	2.6349	0.595505	2.00727	0.777358	2.63471	0.826284	2.80883	0.946037	3.20538			0.73992	2.51433	0.835587	2.83221	0.965246	3.27951		
0.778392	2.63456	0.597505	2.0077	0.779712	2.63437	0.828166	2.80634	0.947885	3.20154			0.741889	2.51307	0.837653	2.83028	0.966774	3.27434		
0.780745	2.63422	0.599505	2.00814	0.782064	2.63403	0.830052	2.80388	0.949734	3.19772			0.743857	2.51181	0.839721	2.82836	0.968305	3.26921		
0.783096	2.63387	0.601505	2.00857	0.784414	2.63368	0.831941	2.80144	0.951584	3.19393			0.745824	2.51055	0.84179	2.82646	0.96984	3.26413		
0.785446	2.63352	0.603505	2.009	0.786762	2.63332	0.833834	2.79903	0.953436	3.19017			0.747791	2.5093	0.843861	2.82458	0.971378	3.25908		
0.787793	2.63317	0.605505	2.00942	0.789109	2.63297	0.83573	2.79665	0.955288	3.18643			0.749758	2.50806	0.845933	2.82271	0.97292	3.25408		
0.790139	2.63281	0.607504	2.00984	0.791453	2.63261	0.837629	2.7943	0.957143	3.18273			0.751724	2.50682	0.848007	2.82086	0.974465	3.24912		
0.792482	2.63245	0.609503	2.01026	0.793795	2.63224	0.839532	2.79197	0.958998	3.17905			0.75369	2.50559	0.850082	2.81903	0.976013	3.24421		
0.794823	2.63208	0.611502	2.01067	0.796135	2.63187	0.841439	2.78966	0.960855	3.1754			0.755655	2.50437	0.852159	2.81721	0.977564	3.23933		
0.797163	2.6317	0.6135	2.01108	0.798473	2.63149	0.843349	2.78739	0.962712	3.17177			0.757619	2.50315	0.854236	2.81541	0.979119	3.2345		
0.7995	2.63133	0.615498	2.01149	0.800809	2.63111	0.845263	2.78513	0.964571	3.16817			0.759583	2.50194	0.856316	2.81362	0.980677	3.22971		
0.801835	2.63094	0.617496	2.01189	0.803143	2.63073	0.84718	2.78291	0.966431	3.16459			0.761547	2.50073	0.858396	2.81185	0.982238	3.22495		
0.804167	2.63055	0.619494	2.01229	0.805474	2.63033	0.849101	2.78071	0.968293	3.16105			0.76351	2.49953	0.860478	2.81009	0.983803	3.22024		
0.806497	2.63016	0.621491	2.01269	0.807803	2.62994	0.851026	2.77854	0.970155	3.15752			0.765473	2.49834	0.862561	2.80835	0.985371	3.21556		
0.808825	2.62976	0.623488	2.01308	0.810129	2.62953	0.852955	2.77639	0.972019	3.15402			0.767435	2.49715	0.864646	2.80662	0.986942	3.21093		
0.81115	2.62936	0.625485	2.01347	0.812453	2.62913	0.854888	2.77427	0.973884	3.15055			0.769397	2.49597	0.866731	2.80491	0.988517	3.20633		
0.813473	2.62895	0.627481	2.01386	0.814774	2.62871	0.856825	2.77217	0.97575	3.1471			0.771359	2.49479	0.868818	2.80321	0.990094	3.20177		
0.815793	2.62853	0.629478	2.01424	0.817093	2.62829	0.858765	2.7701	0.977617	3.14368			0.77332	2.49362	0.870906	2.80153	0.991675	3.19725		
0.81811	2.62811	0.631474	2.01462	0.819408	2.62787	0.86071	2.76805	0.979485	3.14028			0.77528	2.49245	0.872995	2.79986	0.99326	3.19277		
0.820425	2.62768	0.633469	2.015	0.821721	2.62743	0.862659	2.76603	0.981354	3.1369			0.777241	2.49129	0.875086	2.7982	0.994847	3.18833		
0.822737	2.62724	0.635465	2.01538	0.824032	2.62699	0.864612	2.76404	0.983225	3.13354			0.779201	2.49014	0.877177	2.79655	0.996438	3.18392		
0.825045	2.6268	0.63746	2.01575	0.826339	2.62655	0.866569	2.76207	0.985096	3.13021			0.78116	2.48899	0.879269	2.79492	0.998032	3.17954		
0.827351	2.62635	0.639455	2.01612	0.828643	2.6261	0.86853	2.76012	0.986969	3.12691			0.783119	2.48784	0.881363	2.7933	0.999629	3.17521		
0.829654	2.62589	0.64145	2.01648	0.830944	2.62564	0.870496	2.7582	0.988842	3.12362			0.785078	2.48671	0.883457	2.7917	1.00123	3.17091		
0.831954	2.62543	0.643444	2.01684	0.833243	2.62517	0.872466	2.75631	0.990717	3.12036			0.787037	2.48558	0.885552	2.79011				
0.834251	2.62496	0.645438	2.0172	0.835538	2.6247	0.87444	2.75444	0.992592	3.11712			0.788995	2.48445	0.887649	2.78852				
0.836545	2.62448	0.647432	2.01756	0.837829	2.62421	0.876419	2.75259	0.994469	3.1139			0.790953	2.48333	0.889746	2.78696				
0.838835	2.624	0.649426	2.01791	0.840118	2.62373	0.878402	2.75077	0.996347	3.11071			0.79291	2.48221	0.891844	2.7854				
0.841122	2.62351	0.651419	2.01826	0.842403	2.62323	0.88039	2.74897	0.998225	3.10753			0.794867	2.4811	0.893943	2.78385				
0.843406	2.62301	0.653412	2.01861	0.844685	2.62272	0.882382	2.7472	1.0001	3.10438			0.796824	2.48	0.896043	2.78232				
0.845686	2.6225	0.655405	2.01896	0.846963	2.62221	0.88438	2.74546					0.798781	2.4789	0.898144	2.7808				
0.847962	2.62198	0.657398	2.0193	0.849237	2.62169	0.886381	2.74374					0.800737	2.47781	0.900245	2.77929				
0.850235	2.62146	0.65939	2.01964	0.851508	2.62116	0.888388	2.74204					0.802693	2.47672	0.902347	2.77779				
0.852505	2.62093	0.661382	2.01998	0.853776	2.62063	0.890399	2.74037					0.804649	2.47564	0.90445	2.7763				
0.85477	2.62039	0.663374	2.02031	0.856039	2.62008	0.892416	2.73872					0.806604	2.47456	0.906554	2.77482				
0.857032	2.61984	0.665365	2.02064	0.858299	2.61953	0.894437	2.7371					0.80856	2.47349	0.908658	2.77335				
0.85929	2.61928	0.667357	2.02097	0.860555	2.61897	0.896463	2.7355					0.810515	2.47242	0.910764	2.7719				
0.861544	2.61872	0.669348	2.0213	0.862807	2.61839	0.898494	2.73392					0.812469	2.47136	0.912869	2.77045				
0.863794	2.61814	0.671339	2.02162	0.865054	2.61781	0.900531	2.73237					0.814424	2.47031	0.914976	2.76901				
0.866041	2.61756	0.673329	2.02194	0.867298	2.61723	0.902572	2.73085					0.816378	2.46926	0.917083	2.76758				
0.868283	2.61696	0.675319	2.02226	0.869538	2.61663	0.904619	2.72935					0.818332	2.46821	0.91919	2.76617				
0.870521	2.61636	0.677309	2.02258	0.871774	2.61602	0.906671	2.72787					0.820286	2.46717	0.921298	2.76476				
0.872755	2.61575	0.679299	2.02289	0.874005	2.61541	0.908728	2.72641					0.82224	2.46614	0.923407	2.76336				
0.874984	2.61513	0.681288	2.0232	0.876233	2.61478	0.91079	2.72498					0.824193	2.46511	0.925516	2.76197				
0.87721	2.6145	0.683278	2.02351	0.878456	2.61415	0.912857	2.72358					0.826146	2.46408	0.927626	2.76059				
0.879431	2.61386	0.685267	2.02382	0.880674	2.6135	0.91493	2.7222					0.8281	2.46306	0.929736	2.75922				
0.881648	2.61322	0.687255	2.02412	0.882889	2.61285	0.917008	2.72084					0.830052	2.46205	0.931846	2.75786				
0.88386	2.61256	0.689244	2.02442	0.885099	2.61219	0.919092	2.7195					0.832005	2.46104	0.933957	2.75651				
0.886068	2.61189	0.691232	2.02472	0.887304	2.61152	0.921181	2.71819					0.833958	2.46004	0.936068	2.75516				
0.888272	2.61122	0.69322	2.02502	0.889506	2.61084	0.923275	2.7169					0.83591	2.45904	0.93818	2.75382				
0.890471	2.61053	0.695207	2.02531	0.891702	2.61015	0.925375	2.71563					0.837862	2.45804	0.940292	2.7525				
0.892666	2.60984	0.697195	2.0256	0.893895	2.60945	0.927481	2.71439					0.839815	2.45705	0.942404	2.75118				
0.894856	2.60914	0.699182	2.02589	0.896083	2.60874	0.929591	2.71317					0.841767	2.45607	0.944517	2.74986				
0.897042	2.60842	0.701169	2.02618	0.898266	2.60802	0.931708	2.71197					0.843718	2.45509	0.94663	2.74856				
0.899224	2.6077	0.703156	2.02647	0.900445	2.60729	0.933829	2.7108					0.84567	2.45412	0.948743	2.74726				
0.901401	2.60697	0.705142	2.02675	0.902619	2.60656	0.935956	2.70964					0.847622	2.45315	0.950856	2.74597				
0.903573	2.60623	0.707128	2.02703	0.904789	2.60581	0.938089	2.70851					0.849573	2.45218	0.95297	2.74469				
0.905741	2.60548	0.709114	2.02731	0.906955	2.60506	0.940227	2.7074					0.851525	2.45122	0.955084	2.74342				
0.907904	2.60473	0.7111	2.02758	0.909116	2.6043	0.94237	2.70631					0.853476	2.45027	0.957197	2.74215				
0.910064	2.60396	0.713085	2.02786	0.911272	2.60353	0.944519	2.70524					0.855427	2.44932	0.959311	2.74089				
0.912218	2.60318	0.71507	2.02813	0.913424	2.60275	0.946673	2.7042					0.857378	2.44837	0.961426	2.73964				
0.914368	2.6024	0.717055	2.0284	0.915572	2.60196	0.948832	2.70317					0.859329	2.44743	0.96354	2.73839				
0.916514	2.60161	0.71904	2.02867	0.917716	2.60116	0.950997	2.70217					0.86128	2.4465	0.965654	2.73716				
0.918656	2.60081	0.721024	2.02893	0.919855	2.60036	0.953167	2.70118					0.863231	2.44557	0.967768	2.73592				
0.920793	2.6	0.723008	2.0292	0.921989	2.59955	0.955342	2.70022					0.865182	2.44464	0.969883	2.7347				
0.922926	2.59919	0.724992	2.02946	0.92412	2.59873	0.957523	2.69927					0.867132	2.44372	0.971997	2.73348				
0.925054	2.59836	0.726976	2.02972	0.926246	2.5979	0.959708	2.69834					0.869083	2.4428	0.974111	2.73227				
0.927179	2.59753	0.728959	2.02997	0.928368	2.59706	0.961899	2.69744					0.871034	2.44189	0.976226	2.73106				
0.929299	2.5967	0.730943	2.03023	0.930486	2.59622	0.964094	2.69655					0.872984	2.44098	0.97834	2.72986				
0.931415	2.59585	0.732925	2.03048	0.9326	2.59537	0.966295	2.69568					0.874935	2.44008	0.980454	2.72866				
0.933527	2.595	0.734908	2.03073	0.93471	2.59452	0.9685	2.69483					0.876885	2.43918	0.982568	2.72748				
0.935635	2.59414	0.736891	2.03098	0.936815	2.59366	0.970711	2.69399					0.878836	2.43829	0.984682	2.72629				
0.937739	2.59327	0.738873	2.03123	0.938917	2.59279	0.972926	2.69318					0.880786	2.4374	0.986796	2.72512				
0.939839	2.5924	0.740855	2.03147	0.941015	2.59191	0.975146	2.69238					0.882737	2.43652	0.98891	2.72394				
0.941935	2.59153	0.742836	2.03172	0.943109	2.59103	0.97737	2.6916					0.884687	2.43564	0.991023	2.72278				
0.944028	2.59064	0.744818	2.03196	0.9452	2.59014	0.979599	2.69083					0.886637	2.43476	0.993137	2.72162				
0.946117	2.58975	0.746799	2.0322	0.947287	2.58925	0.981833	2.69008					0.888588	2.43389	0.99525	2.72046				
0.948202	2.58886	0.74878	2.03244	0.94937	2.58835	0.984071	2.68935					0.890538	2.43302	0.997363	2.71931				
0.950284	2.58796	0.750761	2.03267	0.951449	2.58745	0.986313	2.68863					0.892489	2.43216	0.999475	2.71817				
0.952362	2.58705	0.752741	2.03291	0.953525	2.58654	0.98856	2.68793					0.894439	2.4313	1.00159	2.71703				
0.954436	2.58614	0.754721	2.03314	0.955598	2.58563	0.990811	2.68724					0.896389	2.43045						
0.956508	2.58523	0.756701	2.03337	0.957668	2.58471	0.993066	2.68657					0.89834	2.4296						
0.958576	2.58431	0.758681	2.0336	0.959734	2.58379	0.995325	2.68591					0.90029	2.42875						
0.96064	2.58339	0.760661	2.03382	0.961797	2.58287	0.997588	2.68527					0.902241	2.42791						
0.962702	2.58246	0.76264	2.03405	0.963857	2.58194	0.999855	2.68463					0.904191	2.42708						
0.96476	2.58153	0.764619	2.03427	0.965913	2.58101	1.00213	2.68402					0.906142	2.42624						
0.966816	2.5806	0.766598	2.03449	0.967967	2.58007							0.908092	2.42542						
0.968868	2.57966	0.768576	2.03471	0.970018	2.57914							0.910043	2.42459						
0.970918	2.57872	0.770555	2.03493	0.972066	2.57819							0.911993	2.42377						
0.972965	2.57778	0.772533	2.03515	0.974112	2.57725							0.913944	2.42296						
0.975009	2.57683	0.774511	2.03536	0.976154	2.5763							0.915895	2.42215						
0.977051	2.57589	0.776488	2.03558	0.978194	2.57536							0.917845	2.42134						
0.97909	2.57494	0.778466	2.03579	0.980232	2.5744							0.919796	2.42054						
0.981126	2.57399	0.780443	2.036	0.982267	2.57345							0.921747	2.41974						
0.98316	2.57303	0.78242	2.0362	0.9843	2.5725							0.923698	2.41894						
0.985192	2.57208	0.784396	2.03641	0.98633	2.57154							0.925649	2.41815						
0.987221	2.57112	0.786373	2.03662	0.988358	2.57059							0.9276	2.41737						
0.989248	2.57017	0.788349	2.03682	0.990384	2.56963							0.929551	2.41658						
0.991273	2.56921	0.790325	2.03702	0.992407	2.56867							0.931503	2.4158						
0.993296	2.56825	0.792301	2.03722	0.994429	2.56771							0.933454	2.41503						
0.995316	2.56729	0.794276	2.03742	0.996448	2.56675							0.935405	2.41426						
0.997335	2.56633	0.796252	2.03762	0.998466	2.56579							0.937357	2.41349						
0.999352	2.56537	0.798227	2.03781	1.00048	2.56483							0.939309	2.41273						
1.00137	2.56441	0.800201	2.03801									0.94126	2.41197						
		0.802176	2.0382									0.943212	2.41121						
		0.80415	2.03839									0.945164	2.41046						
		0.806125	2.03858									0.947116	2.40972						
		0.808099	2.03877									0.949068	2.40897						
		0.810072	2.03896									0.95102	2.40823						
		0.812046	2.03914									0.952973	2.4075						
		0.814019	2.03932									0.954925	2.40676						
		0.815992	2.03951									0.956878	2.40603						
		0.817965	2.03969									0.95883	2.40531						
		0.819937	2.03987									0.960783	2.40459						
		0.82191	2.04005									0.962736	2.40387						
		0.823882	2.04022									0.964689	2.40316						
		0.825854	2.0404									0.966642	2.40245						
		0.827825	2.04057									0.968596	2.40174						
		0.829797	2.04075									0.970549	2.40104						
		0.831768	2.04092									0.972503	2.40034						
		0.833739	2.04109									0.974456	2.39964						
		0.83571	2.04126									0.97641	2.39895						
		0.83768	2.04142									0.978364	2.39826						
		0.839651	2.04159									0.980318	2.39757						
		0.841621	2.04175									0.982273	2.39689						
		0.843591	2.04192									0.984227	2.39621						
		0.845561	2.04208									0.986182	2.39554						
		0.84753	2.04224									0.988137	2.39487						
		0.849499	2.0424									0.990091	2.3942						
		0.851468	2.04256									0.992047	2.39353						
		0.853437	2.04272									0.994002	2.39287						
		0.855406	2.04287									0.995957	2.39221						
		0.857374	2.04303									0.997913	2.39156						
		0.859343	2.04318									0.999869	2.39091						
		0.861311	2.04334									1.00182	2.39026						
		0.863278	2.04349																
		0.865246	2.04364																
		0.867213	2.04379																
		0.869181	2.04394																
		0.871147	2.04408																
		0.873114	2.04423																
		0.875081	2.04437																
		0.877047	2.04452																
		0.879013	2.04466																
		0.880979	2.0448																
		0.882945	2.04494																
		0.88491	2.04508																
		0.886876	2.04522																
		0.888841	2.04536																
		0.890806	2.04549																
		0.89277	2.04563																
		0.894735	2.04576																
		0.896699	2.04589																
		0.898663	2.04603																
		0.900627	2.04616																
		0.902591	2.04629																
		0.904555	2.04642																
		0.906518	2.04654																
		0.908481	2.04667																
		0.910444	2.0468																
		0.912407	2.04692																
		0.914369	2.04705																
		0.916331	2.04717																
		0.918294	2.04729																
		0.920256	2.04741																
		0.922217	2.04753																
		0.924179	2.04765																
		0.92614	2.04777																
		0.928101	2.04789																
		0.930062	2.048																
		0.932023	2.04812																
		0.933984	2.04824																
		0.935944	2.04835																
		0.937904	2.04846																
		0.939865	2.04857																
		0.941824	2.04869																
		0.943784	2.0488																
		0.945744	2.04891																
		0.947703	2.04902																
		0.949662	2.04912																
		0.951621	2.04923																
		0.95358	2.04934																
		0.955538	2.04944																
		0.957497	2.04955																
		0.959455	2.04965																
		0.961413	2.04975																
		0.963371	2.04986																
		0.965329	2.04996																
		0.967286	2.05006																
		0.969243	2.05016																
		0.9712	2.05026																
		0.973157	2.05036																
		0.975114	2.05045																
		0.977071	2.05055																
		0.979027	2.05065																
		0.980984	2.05074																
		0.98294	2.05084																
		0.984896	2.05093																
		0.986851	2.05103																
		0.988807	2.05112																
		0.990762	2.05121																
		0.992718	2.0513																
		0.994673	2.05139																
		0.996627	2.05148																
		0.998582	2.05157																
		1.00054	2.05166																
