Sym0		Asym0		Sym1		Sym2		Sym3		Sym4		Asym1		Asym2		Asym3		Asym4	
424  Points		528  Points		423  Points		406  Points		352  Points		252  Points		455  Points		400  Points		344  Points		207  Points	
Freq (MHz)	Vph (m/ms)	Freq (MHz)	Vph (m/ms)	Freq (MHz)	Vph (m/ms)	Freq (MHz)	Vph (m/ms)	Freq (MHz)	Vph (m/ms)	Freq (MHz)	Vph (m/ms)	Freq (MHz)	Vph (m/ms)	Freq (MHz)	Vph (m/ms)	Freq (MHz)	Vph (m/ms)	Freq (MHz)	Vph (m/ms)
0.27951	662.706	7.12128e-005	0.0520017	0.279514	306.904	0.449922	11494.1	0.559017	7353.97	0.838526	2152.03	0.139755	953.905	0.419268	467.61	0.698771	3611.42	0.899844	2229.25
0.27952	206.522	0.000200898	0.0873043	0.27953	151.716	0.449927	463.442	0.559024	554.746	0.838531	634.607	0.139799	129.659	0.419285	229.329	0.698776	621.032	0.899849	673.868
0.279541	122.329	0.000395887	0.122459	0.279556	100.772	0.449944	236.497	0.559041	288.254	0.838543	372.184	0.139909	69.6102	0.419314	151.925	0.698786	339.731	0.899859	396.931
0.279573	86.9088	0.000655701	0.157449	0.279594	75.4469	0.449971	158.763	0.55907	194.723	0.83856	263.306	0.140086	47.6225	0.419354	113.594	0.698802	233.825	0.899874	281.322
0.279616	67.4008	0.000979654	0.192232	0.279642	60.2998	0.450009	119.495	0.559111	147.026	0.838582	203.716	0.140329	36.2299	0.419406	90.7138	0.698825	178.259	0.899895	217.869
0.279669	55.0503	0.00136679	0.226743	0.279702	50.2227	0.450058	95.8057	0.559162	118.104	0.838611	166.123	0.140636	29.2688	0.41947	75.5108	0.698853	144.035	0.89992	177.775
0.279733	46.5297	0.00181613	0.260953	0.279772	43.0357	0.450118	79.9597	0.559225	98.6952	0.838645	140.246	0.141008	24.5801	0.419545	64.6768	0.698888	120.838	0.899952	150.147
0.279809	40.2971	0.00232644	0.29481	0.279852	37.6519	0.450189	68.6158	0.559299	84.7696	0.838686	121.346	0.141444	21.2111	0.419632	56.5657	0.698928	104.079	0.899988	129.952
0.279895	35.5407	0.00289643	0.328282	0.279944	33.4689	0.45027	60.0944	0.559385	74.2917	0.838732	106.937	0.141941	18.6763	0.41973	50.266	0.698975	91.4045	0.90003	114.548
0.279991	31.7918	0.00352467	0.361331	0.280046	30.1254	0.450362	53.4592	0.559481	66.1226	0.838784	95.589	0.142499	16.7022	0.41984	45.2323	0.699028	81.4837	0.900076	102.41
0.280099	28.7613	0.00420973	0.393934	0.280159	27.3922	0.450464	48.1466	0.559589	59.5754	0.838842	86.4198	0.143117	15.1231	0.419962	41.1181	0.699086	73.5073	0.900128	92.6001
0.280217	26.2611	0.00494992	0.426053	0.280283	25.1163	0.450578	43.7973	0.559708	54.2108	0.838905	78.8571	0.143793	13.8327	0.420095	37.6927	0.699151	66.9548	0.900186	84.5063
0.280346	24.1634	0.00574369	0.457673	0.280418	23.1921	0.450702	40.1713	0.559839	49.7353	0.838975	72.513	0.144525	12.7595	0.42024	34.7969	0.699222	61.4764	0.900248	77.7149
0.280486	22.3783	0.00658939	0.488774	0.280563	21.544	0.450837	37.1023	0.55998	45.945	0.83905	67.115	0.145313	11.854	0.420397	32.3167	0.699299	56.8281	0.900316	71.935
0.280636	20.8411	0.00748514	0.519327	0.28072	20.1168	0.450982	34.4712	0.560133	42.6939	0.839131	62.4661	0.146153	11.0804	0.420565	30.1689	0.699382	52.8345	0.900389	66.9565
0.280798	19.5036	0.00842929	0.549324	0.280887	18.8689	0.451138	32.1907	0.560297	39.8747	0.839218	58.4207	0.146927	10.4932	0.420744	28.291	0.699471	49.3666	0.900467	62.6234
0.28097	18.3294	0.00942	0.578747	0.281064	17.7688	0.451305	30.1952	0.560471	37.4068	0.83931	54.8685	0.147617	10.0459	0.420935	26.6352	0.699566	46.327	0.900551	58.8181
0.281152	17.2904	0.0104557	0.607596	0.281252	16.7916	0.451483	28.4346	0.560658	35.2286	0.839409	51.7245	0.148208	9.70802	0.421138	25.1645	0.699667	43.6411	0.90064	55.4497
0.281346	16.3647	0.0115344	0.635858	0.281452	15.9181	0.451671	26.8697	0.560855	33.292	0.839513	48.9222	0.148688	9.45907	0.421352	23.8495	0.699774	41.2505	0.900734	52.447
0.28155	15.5347	0.0126546	0.663529	0.281661	15.1325	0.45187	25.4699	0.561063	31.559	0.839623	46.4089	0.149048	9.28541	0.421578	22.6669	0.699887	39.1092	0.900833	49.7537
0.281765	14.7864	0.0138144	0.690607	0.281882	14.4224	0.452079	24.2103	0.561283	29.9992	0.839739	44.1421	0.149282	9.17819	0.421815	21.5977	0.700006	37.1802	0.900937	47.3242
0.28199	14.1084	0.0150124	0.717093	0.282113	13.7775	0.452299	23.0709	0.561514	28.588	0.839861	42.0872	0.149621	9.02914	0.422063	20.6265	0.700131	35.4334	0.901047	45.1217
0.282226	13.4914	0.0162468	0.742991	0.282355	13.1892	0.45253	22.0355	0.561755	27.3051	0.839988	40.216	0.149996	8.87357	0.422323	19.7404	0.700263	33.8442	0.901162	43.1158
0.282473	12.9274	0.017516	0.768299	0.282607	12.6504	0.452771	21.0904	0.562008	26.1338	0.840121	38.5048	0.150515	8.67211	0.422595	18.9287	0.7004	32.3922	0.901282	41.2814
0.282731	12.41	0.0188186	0.793024	0.28287	12.1552	0.453023	20.2244	0.562272	25.0604	0.840261	36.934	0.151186	8.43269	0.422878	18.1826	0.700543	31.0605	0.901407	39.5973
0.282999	11.9338	0.0201529	0.817172	0.283144	11.6986	0.453286	19.428	0.562547	24.073	0.840405	35.4871	0.152019	8.16398	0.423172	17.4944	0.700692	29.8346	0.901537	38.0459
0.283277	11.4939	0.0215178	0.840752	0.283428	11.2763	0.453558	18.6933	0.562832	23.1617	0.840556	34.1499	0.153025	7.87465	0.423477	16.8577	0.700847	28.7026	0.901673	36.6121
0.283567	11.0866	0.0229117	0.863772	0.283723	10.8846	0.453842	18.0132	0.563129	22.3182	0.840713	32.9105	0.154216	7.57289	0.423794	16.267	0.701009	27.654	0.901814	35.283
0.283867	10.7082	0.0243333	0.886237	0.284028	10.5203	0.454136	17.3821	0.563437	21.5352	0.840875	31.7586	0.155446	7.29932	0.424122	15.7175	0.701176	26.68	0.90196	34.0477
0.284177	10.356	0.0257814	0.908161	0.284303	10.223	0.45444	16.7949	0.563755	20.8065	0.841043	30.6851	0.156713	7.05033	0.424462	15.2051	0.701349	25.7729	0.902112	32.8964
0.284498	10.0272	0.0272548	0.929553	0.284543	9.9832	0.454755	16.2471	0.564085	20.1266	0.841217	29.6825	0.158014	6.82289	0.424813	14.7262	0.701529	24.9261	0.902268	31.821
0.284829	9.71971	0.0287522	0.950424	0.284747	9.79367	0.45508	15.7349	0.564425	19.4908	0.841396	28.7439	0.159349	6.61443	0.425175	14.2776	0.701714	24.1338	0.90243	30.8142
0.285171	9.43152	0.0302726	0.970785	0.28491	9.64911	0.455416	15.2551	0.564777	18.895	0.841582	27.8634	0.160716	6.42278	0.425548	13.8566	0.701905	23.3908	0.902597	29.8696
0.285524	9.16089	0.031815	0.990647	0.285032	9.54566	0.455762	14.8046	0.565139	18.3356	0.841773	27.0357	0.162113	6.24607	0.425932	13.4607	0.702103	22.6928	0.902769	28.9817
0.285887	8.9063	0.0333783	1.01002	0.285111	9.48068	0.456118	14.381	0.565512	17.8093	0.841969	26.2563	0.16354	6.08269	0.426328	13.0879	0.702306	22.0358	0.902947	28.1456
0.28626	8.66638	0.0349614	1.02892	0.285225	9.3889	0.456485	13.9818	0.565895	17.3134	0.842172	25.5212	0.164995	5.93127	0.426734	12.7361	0.702515	21.4163	0.903129	27.3568
0.286644	8.43994	0.0365637	1.04736	0.28535	9.29125	0.456862	13.6051	0.56629	16.8453	0.84238	24.8265	0.166477	5.79058	0.427152	12.4036	0.70273	20.8312	0.903317	26.6115
0.287038	8.22589	0.038184	1.06534	0.285523	9.16187	0.457249	13.249	0.566695	16.4028	0.842595	24.1692	0.167984	5.6596	0.427581	12.089	0.702952	20.2777	0.90351	25.9061
0.287443	8.02326	0.0398217	1.08288	0.285744	9.00363	0.457647	12.912	0.567111	15.9838	0.842815	23.5462	0.169515	5.53738	0.428021	11.7909	0.703179	19.7534	0.903708	25.2376
0.287858	7.83119	0.0414759	1.1	0.286018	8.8199	0.458054	12.5925	0.567537	15.5865	0.84304	22.955	0.17107	5.42312	0.428471	11.5079	0.703412	19.256	0.903912	24.6031
0.288283	7.64888	0.0431459	1.11669	0.286346	8.61434	0.458472	12.2892	0.567974	15.2093	0.843272	22.3932	0.172647	5.3161	0.428933	11.2391	0.703651	18.7834	0.90412	24.0001
0.288719	7.47564	0.044831	1.13298	0.286732	8.39077	0.4589	12.001	0.568422	14.8508	0.843509	21.8587	0.174246	5.21569	0.429406	10.9833	0.703896	18.334	0.904334	23.4264
0.289165	7.31082	0.0465304	1.14888	0.287128	8.17937	0.459339	11.7267	0.56888	14.5096	0.843751	21.3495	0.175865	5.12132	0.42989	10.7398	0.704147	17.906	0.904553	22.8799
0.289621	7.15385	0.0482436	1.16439	0.287535	7.97919	0.459787	11.4654	0.569349	14.1845	0.844	20.864	0.177503	5.03248	0.430384	10.5076	0.704405	17.498	0.904777	22.3586
0.290087	7.00418	0.0499698	1.17953	0.287953	7.78937	0.460245	11.2163	0.569828	13.8744	0.844254	20.4004	0.179159	4.94873	0.430824	10.3139	0.704668	17.1085	0.905006	21.861
0.290564	6.86134	0.0517086	1.19431	0.28838	7.60917	0.460714	10.9784	0.570318	13.5783	0.844514	19.9574	0.180834	4.86966	0.431205	10.1547	0.704937	16.7365	0.905241	21.3854
0.291051	6.72488	0.0534593	1.20874	0.288818	7.43787	0.461192	10.7511	0.570818	13.2952	0.84478	19.5336	0.182525	4.7949	0.431525	10.0271	0.705211	16.3807	0.90548	20.9303
0.291548	6.59441	0.0552215	1.22282	0.289266	7.27487	0.461681	10.5337	0.571328	13.0245	0.845051	19.1278	0.184233	4.72414	0.431781	9.92865	0.705492	16.0401	0.905725	20.4946
0.292056	6.46955	0.0569947	1.23657	0.289725	7.11958	0.462115	10.3519	0.571849	12.7652	0.845329	18.7389	0.185956	4.65706	0.431971	9.85759	0.705779	15.7137	0.905975	20.077
0.292573	6.34995	0.0587783	1.25	0.290194	6.97148	0.46249	10.2021	0.57238	12.5168	0.845611	18.3658	0.187694	4.5934	0.432093	9.81269	0.706072	15.4008	0.90623	19.6764
0.293101	6.23532	0.0605719	1.26312	0.290673	6.83012	0.462805	10.0818	0.572922	12.2785	0.8459	18.0077	0.189446	4.53293	0.43227	9.74893	0.70637	15.1004	0.90649	19.2918
0.293638	6.12535	0.0623751	1.27593	0.291162	6.69504	0.463057	9.98877	0.573474	12.0497	0.846194	17.6636	0.191212	4.4754	0.432463	9.68064	0.706675	14.8119	0.906755	18.9222
0.294186	6.01978	0.0641875	1.28845	0.291661	6.56586	0.463243	9.92158	0.574036	11.8299	0.846494	17.3328	0.19299	4.42064	0.432728	9.58943	0.706985	14.5346	0.907026	18.5669
0.294744	5.91836	0.0660086	1.30068	0.292171	6.44221	0.463363	9.87909	0.574608	11.6186	0.8468	17.0144	0.194781	4.36844	0.433066	9.47674	0.707301	14.2678	0.907301	18.2249
0.295312	5.82086	0.0678382	1.31263	0.292691	6.32376	0.463536	9.81871	0.57519	11.4153	0.847111	16.7079	0.196584	4.31863	0.433481	9.3443	0.707624	14.011	0.907582	17.8957
0.295889	5.72708	0.0696758	1.32432	0.293221	6.2102	0.463726	9.75397	0.575782	11.2196	0.847428	16.4126	0.198399	4.27108	0.433976	9.19404	0.707952	13.7635	0.907868	17.5784
0.296477	5.63681	0.0715211	1.33574	0.293761	6.10124	0.463986	9.66742	0.576384	11.0311	0.84775	16.1278	0.200225	4.22562	0.434553	9.02807	0.708286	13.5251	0.908159	17.2724
0.297075	5.54986	0.0733739	1.3469	0.294311	5.99662	0.464318	9.56033	0.576997	10.8493	0.848079	15.853	0.202061	4.18214	0.435141	8.86861	0.708626	13.295	0.908455	16.9772
0.297683	5.46607	0.0752337	1.35782	0.294871	5.89611	0.464725	9.43426	0.577619	10.674	0.848412	15.5878	0.203907	4.1405	0.435739	8.71531	0.708971	13.073	0.908756	16.6922
0.2983	5.38528	0.0771003	1.3685	0.295441	5.79946	0.465208	9.29094	0.578169	10.5263	0.848752	15.3316	0.205762	4.10061	0.436348	8.56782	0.709323	12.8586	0.909063	16.4169
0.298928	5.30734	0.0789734	1.37894	0.296021	5.70648	0.465773	9.13228	0.578644	10.4038	0.849097	15.084	0.207627	4.06235	0.436967	8.42584	0.70968	12.6514	0.909374	16.1508
0.299565	5.23211	0.0808528	1.38916	0.296611	5.61697	0.466346	8.9795	0.579041	10.3049	0.849448	14.8445	0.209502	4.02563	0.437596	8.28906	0.710044	12.451	0.909691	15.8934
0.300213	5.15946	0.0827382	1.39915	0.297211	5.53075	0.46693	8.83229	0.579358	10.2282	0.849804	14.6128	0.211384	3.99037	0.438236	8.15722	0.710413	12.2573	0.910012	15.6444
0.30087	5.08926	0.0846294	1.40893	0.297821	5.44765	0.467523	8.69035	0.579592	10.1726	0.850166	14.3885	0.213275	3.95647	0.438887	8.03007	0.710788	12.0697	0.910339	15.4033
0.301536	5.0214	0.086526	1.41851	0.298441	5.36752	0.468126	8.55343	0.579743	10.1373	0.850534	14.1713	0.215174	3.92388	0.439547	7.90736	0.711169	11.8881	0.910671	15.1697
0.302213	4.95578	0.088428	1.42788	0.29907	5.2902	0.468738	8.42125	0.57996	10.0871	0.850907	13.9608	0.21708	3.89251	0.440218	7.78888	0.711555	11.7121	0.911008	14.9434
0.302899	4.89229	0.0903351	1.43705	0.29971	5.21555	0.46936	8.2936	0.580197	10.0332	0.851286	13.7567	0.218994	3.8623	0.440899	7.67442	0.711948	11.5416	0.91135	14.724
0.303596	4.83084	0.0922471	1.44604	0.300359	5.14346	0.469991	8.17024	0.580522	9.96086	0.85167	13.5588	0.220914	3.83319	0.44159	7.56378	0.712346	11.3762	0.911697	14.5112
0.30421	4.77888	0.0941639	1.45484	0.301019	5.0738	0.470632	8.05098	0.580936	9.87103	0.85206	13.3667	0.222842	3.80512	0.442291	7.45679	0.71275	11.2158	0.912049	14.3047
0.30474	4.73571	0.0960851	1.46345	0.301688	5.00646	0.471282	7.93562	0.581442	9.76479	0.852456	13.1803	0.224776	3.77804	0.443003	7.35328	0.71316	11.0601	0.912406	14.1042
0.305182	4.70077	0.0980107	1.4719	0.302367	4.94132	0.471941	7.82398	0.582042	9.64337	0.852857	12.9992	0.226716	3.7519	0.443724	7.25309	0.713576	10.9089	0.912769	13.9094
0.305534	4.67362	0.0999404	1.48017	0.303055	4.8783	0.47261	7.71589	0.58274	9.50816	0.853264	12.8233	0.228663	3.72665	0.444456	7.15606	0.713943	10.7807	0.913136	13.7202
0.305794	4.65391	0.101874	1.48827	0.303753	4.81729	0.473288	7.61118	0.583447	9.37714	0.853676	12.6524	0.230615	3.70225	0.445197	7.06206	0.714259	10.6739	0.913508	13.5363
0.305962	4.64141	0.103812	1.49621	0.304461	4.75821	0.473975	7.50971	0.584163	9.25015	0.854094	12.4861	0.232573	3.67866	0.445948	6.97095	0.714523	10.5873	0.913886	13.3575
0.306203	4.6236	0.105753	1.504	0.305179	4.70098	0.474671	7.41134	0.58489	9.127	0.854517	12.3245	0.234536	3.65583	0.446709	6.88261	0.714734	10.5199	0.914268	13.1836
0.306467	4.60445	0.107698	1.51163	0.305907	4.64551	0.475376	7.31593	0.585625	9.00752	0.854946	12.1671	0.236505	3.63374	0.44748	6.79692	0.714889	10.4709	0.914656	13.0143
0.306827	4.57873	0.109647	1.51911	0.306644	4.59174	0.476091	7.22335	0.58637	8.89156	0.85538	12.014	0.238478	3.61236	0.448261	6.71377	0.714989	10.4398	0.915048	12.8495
0.307286	4.54675	0.111599	1.52645	0.30739	4.53959	0.476814	7.13349	0.587125	8.77897	0.85582	11.8649	0.240457	3.59164	0.449052	6.63305	0.715133	10.3955	0.915446	12.6891
0.307846	4.50886	0.113554	1.53365	0.308147	4.48899	0.477547	7.04623	0.587888	8.66961	0.856266	11.7197	0.24244	3.57155	0.449852	6.55466	0.715291	10.3477	0.915848	12.5328
0.308509	4.46548	0.115512	1.5407	0.308913	4.43989	0.478289	6.96148	0.588661	8.56335	0.856717	11.5783	0.244427	3.55208	0.450661	6.47851	0.715506	10.2835	0.916256	12.3806
0.30928	4.41706	0.11722	1.54674	0.309688	4.39222	0.479039	6.87911	0.589444	8.46007	0.857173	11.4404	0.246419	3.53319	0.451481	6.40451	0.71578	10.2035	0.916668	12.2322
0.31006	4.37005	0.118679	1.55182	0.310473	4.34592	0.479798	6.79905	0.590235	8.35964	0.857635	11.306	0.248415	3.51486	0.45231	6.33257	0.716114	10.1085	0.917086	12.0874
0.31085	4.3244	0.119886	1.55596	0.311268	4.30096	0.480567	6.7212	0.591036	8.26195	0.858102	11.1749	0.250416	3.49706	0.453148	6.26262	0.71651	9.99952	0.917508	11.9463
0.311649	4.28004	0.120841	1.55919	0.312072	4.25726	0.481344	6.64547	0.591845	8.16691	0.858514	11.0633	0.25242	3.47977	0.453996	6.19457	0.716971	9.87751	0.917936	11.8086
0.312457	4.23693	0.121544	1.56156	0.312886	4.21479	0.482129	6.57179	0.592664	8.07439	0.858869	10.97	0.254428	3.46297	0.454853	6.12836	0.717436	9.75866	0.918368	11.6743
0.313276	4.19503	0.121994	1.56306	0.313709	4.1735	0.482924	6.50007	0.593491	7.98432	0.859164	10.8941	0.25644	3.44665	0.45572	6.06392	0.717908	9.64288	0.918806	11.5431
0.314104	4.15428	0.122641	1.56521	0.314542	4.13335	0.483727	6.43024	0.594328	7.8966	0.859399	10.8349	0.258455	3.43077	0.456596	6.00118	0.718385	9.53002	0.919248	11.4151
0.314941	4.11465	0.123344	1.56754	0.315384	4.09429	0.484539	6.36223	0.595173	7.81114	0.859572	10.7918	0.260473	3.41533	0.457481	5.94007	0.718868	9.42	0.919696	11.29
0.315788	4.0761	0.124302	1.57067	0.316236	4.05629	0.485359	6.29598	0.596028	7.72785	0.859684	10.7644	0.262495	3.4003	0.458376	5.88055	0.719357	9.31271	0.920089	11.1834
0.316644	4.03859	0.125514	1.57459	0.317097	4.0193	0.486188	6.23142	0.596891	7.64667	0.859844	10.7253	0.26452	3.38567	0.459279	5.82254	0.719851	9.20804	0.920428	11.0942
0.31751	4.00207	0.12698	1.57928	0.317968	3.9833	0.487025	6.16849	0.597763	7.56752	0.86002	10.6832	0.266549	3.37143	0.460192	5.76601	0.720351	9.10592	0.92071	11.0215
0.318385	3.96653	0.128702	1.5847	0.318848	3.94824	0.487871	6.10714	0.598643	7.49032	0.860259	10.6264	0.26858	3.35755	0.461114	5.71089	0.720857	9.00624	0.920935	10.9648
0.31927	3.93191	0.13068	1.5908	0.319738	3.9141	0.488725	6.0473	0.599532	7.415	0.860564	10.5556	0.270614	3.34403	0.462045	5.65714	0.721368	8.90892	0.921101	10.9235
0.320164	3.8982	0.132661	1.5968	0.320638	3.88085	0.489588	5.98893	0.60043	7.34151	0.860935	10.4712	0.272651	3.33086	0.462985	5.60471	0.721886	8.81389	0.921207	10.8973
0.321068	3.86535	0.134644	1.60269	0.321546	3.84845	0.490459	5.93198	0.601336	7.26977	0.861375	10.3741	0.274691	3.31801	0.463933	5.55356	0.722408	8.72107	0.92136	10.8597
0.321982	3.83335	0.136628	1.60848	0.322465	3.81688	0.491338	5.87639	0.602251	7.19974	0.861884	10.2651	0.276733	3.30548	0.464891	5.50365	0.722937	8.63037	0.921528	10.8193
0.322904	3.80216	0.138615	1.61416	0.323393	3.78611	0.492225	5.82213	0.603174	7.13134	0.862399	10.1585	0.278778	3.29325	0.465858	5.45492	0.723471	8.54174	0.921756	10.7648
0.323837	3.77176	0.140604	1.61975	0.32433	3.75612	0.493121	5.76914	0.604106	7.06454	0.862919	10.0543	0.280825	3.28132	0.466833	5.40735	0.72401	8.45511	0.922047	10.6967
0.324779	3.74213	0.142594	1.62524	0.325277	3.72687	0.494024	5.71739	0.605046	6.99927	0.863444	9.95236	0.282875	3.26968	0.467817	5.3609	0.724555	8.3704	0.922401	10.6155
0.32573	3.71323	0.144587	1.63063	0.326233	3.69835	0.494936	5.66684	0.605994	6.93549	0.863975	9.85267	0.284927	3.25831	0.46881	5.31552	0.725106	8.28756	0.92282	10.5221
0.326691	3.68505	0.146581	1.63593	0.3272	3.67053	0.495856	5.61745	0.606951	6.87315	0.864511	9.75514	0.286981	3.2472	0.469812	5.27119	0.725663	8.20653	0.923306	10.4169
0.327662	3.65756	0.148576	1.64113	0.328175	3.6434	0.496783	5.56917	0.607916	6.8122	0.865053	9.65969	0.289037	3.23635	0.470822	5.22788	0.726225	8.12725	0.923796	10.314
0.328642	3.63074	0.150574	1.64625	0.329161	3.61693	0.497719	5.52199	0.608888	6.7526	0.8656	9.56627	0.291096	3.22574	0.47184	5.18554	0.726792	8.04967	0.924291	10.2133
0.329632	3.60457	0.152572	1.65129	0.330156	3.5911	0.498663	5.47585	0.609869	6.69431	0.866152	9.47482	0.293156	3.21538	0.472868	5.14416	0.727365	7.97374	0.924791	10.1147
0.330632	3.57904	0.154573	1.65624	0.331161	3.56589	0.499614	5.43074	0.610859	6.63729	0.86671	9.38527	0.295218	3.20524	0.473903	5.1037	0.727944	7.8994	0.925296	10.0182
0.331641	3.55412	0.156574	1.6611	0.332175	3.54128	0.500573	5.38661	0.611856	6.5815	0.867273	9.29756	0.297283	3.19533	0.474948	5.06413	0.728528	7.82661	0.925806	9.92357
0.33266	3.5298	0.158578	1.66589	0.333199	3.51727	0.50154	5.34345	0.612861	6.5269	0.867841	9.21164	0.299349	3.18564	0.476	5.02543	0.729118	7.75532	0.92632	9.83091
0.333689	3.50606	0.160582	1.67059	0.334233	3.49382	0.502515	5.30121	0.613874	6.47345	0.868415	9.12747	0.301416	3.17615	0.477061	4.98757	0.729713	7.68549	0.92684	9.74011
0.334728	3.48288	0.162588	1.67522	0.335277	3.47093	0.503497	5.25987	0.614894	6.42113	0.868994	9.04498	0.303486	3.16686	0.47813	4.95053	0.730314	7.61707	0.927364	9.65112
0.335777	3.46024	0.164595	1.67978	0.336331	3.44858	0.504487	5.21942	0.615923	6.3699	0.869578	8.96413	0.305557	3.15778	0.479208	4.91428	0.73092	7.55003	0.927893	9.5639
0.336835	3.43814	0.166603	1.68426	0.337395	3.42675	0.505485	5.17981	0.616959	6.31972	0.870167	8.88487	0.307629	3.14888	0.480293	4.87879	0.731532	7.48432	0.928427	9.47838
0.337904	3.41656	0.168612	1.68866	0.338469	3.40543	0.50649	5.14102	0.618003	6.27057	0.870762	8.80716	0.309704	3.14016	0.481387	4.84406	0.73215	7.41991	0.928966	9.39452
0.338983	3.39548	0.170623	1.693	0.339553	3.38461	0.507503	5.10304	0.619055	6.22242	0.871362	8.73095	0.311779	3.13162	0.482489	4.81005	0.732772	7.35676	0.92951	9.31228
0.340072	3.37489	0.172634	1.69727	0.340647	3.36427	0.508523	5.06584	0.620114	6.17523	0.871967	8.6562	0.313856	3.12326	0.483599	4.77675	0.733401	7.29483	0.930058	9.23161
0.341171	3.35478	0.174647	1.70147	0.341752	3.34441	0.50955	5.02939	0.621181	6.12899	0.872578	8.58288	0.315935	3.11506	0.484717	4.74414	0.734034	7.2341	0.930612	9.15246
0.34228	3.33513	0.176661	1.70561	0.342866	3.325	0.510585	4.99369	0.622256	6.08367	0.873193	8.51094	0.318015	3.10702	0.485843	4.71219	0.734674	7.17452	0.93117	9.07479
0.3434	3.31594	0.178675	1.70968	0.343992	3.30604	0.511627	4.95869	0.623337	6.03923	0.873814	8.44034	0.320096	3.09914	0.486977	4.68089	0.735318	7.11607	0.931733	8.99857
0.34453	3.29719	0.180691	1.71369	0.345127	3.28752	0.512676	4.9244	0.624427	5.99567	0.87444	8.37106	0.322178	3.09142	0.488119	4.65022	0.735968	7.05871	0.9323	8.92376
0.345671	3.27887	0.182707	1.71763	0.346274	3.26943	0.513733	4.89077	0.625523	5.95294	0.875072	8.30304	0.324261	3.08384	0.489269	4.62016	0.736624	7.00243	0.932873	8.85031
0.346823	3.26097	0.184724	1.72152	0.347431	3.25175	0.514796	4.85781	0.626627	5.91103	0.875708	8.23627	0.326346	3.07641	0.490426	4.5907	0.737285	6.94718	0.93345	8.77819
0.347985	3.24349	0.186742	1.72534	0.348599	3.23448	0.515867	4.82549	0.627738	5.86993	0.87635	8.17071	0.328432	3.06911	0.491591	4.56182	0.737951	6.89295	0.934032	8.70737
0.349158	3.22641	0.188761	1.72911	0.349778	3.2176	0.516945	4.7938	0.628857	5.8296	0.876997	8.10632	0.330518	3.06195	0.492764	4.53351	0.738623	6.8397	0.934618	8.63782
0.350343	3.20972	0.190781	1.73282	0.350969	3.20111	0.51803	4.76271	0.629982	5.79002	0.877649	8.04308	0.332606	3.05493	0.493945	4.50575	0.7393	6.78741	0.93521	8.56949
0.351538	3.19341	0.192801	1.73648	0.35217	3.18501	0.519122	4.73221	0.631115	5.75118	0.878306	7.98096	0.334695	3.04803	0.495133	4.47853	0.739982	6.73605	0.935806	8.50237
0.352745	3.17749	0.194822	1.74008	0.353383	3.16927	0.520221	4.70229	0.632255	5.71307	0.878968	7.91993	0.336784	3.04125	0.496329	4.45183	0.74067	6.68561	0.936407	8.43641
0.353964	3.16192	0.196844	1.74362	0.354608	3.1539	0.521326	4.67293	0.633402	5.67565	0.879636	7.85996	0.338875	3.0346	0.497533	4.42564	0.741363	6.63606	0.937013	8.3716
0.355194	3.14672	0.198866	1.74712	0.355844	3.13889	0.522439	4.64412	0.634555	5.63891	0.880308	7.80102	0.340966	3.02806	0.498744	4.39995	0.742062	6.58738	0.937623	8.3079
0.356436	3.13188	0.200889	1.75056	0.357093	3.12422	0.523558	4.61584	0.635716	5.60283	0.880986	7.7431	0.343059	3.02164	0.499962	4.37474	0.742766	6.53954	0.938238	8.24528
0.35769	3.11738	0.202912	1.75396	0.358353	3.1099	0.524684	4.58808	0.636883	5.56741	0.881669	7.68616	0.345152	3.01533	0.501188	4.35	0.743475	6.49252	0.938858	8.18372
0.358957	3.10322	0.204937	1.7573	0.359626	3.09592	0.525817	4.56083	0.638058	5.53261	0.882357	7.63018	0.347245	3.00913	0.502421	4.32572	0.744189	6.44631	0.939482	8.12319
0.360235	3.08939	0.206961	1.7606	0.360912	3.08226	0.526957	4.53407	0.639239	5.49843	0.88305	7.57514	0.34934	3.00304	0.503661	4.30189	0.744909	6.40089	0.940111	8.06367
0.361527	3.07589	0.208986	1.76384	0.36221	3.06893	0.528103	4.5078	0.640427	5.46486	0.883748	7.52102	0.351435	2.99704	0.504909	4.2785	0.745634	6.35623	0.940745	8.00513
0.362831	3.06271	0.211012	1.76705	0.363521	3.05592	0.529256	4.48199	0.641622	5.43187	0.884451	7.46779	0.353531	2.99115	0.506164	4.25554	0.746365	6.31233	0.941383	7.94755
0.364149	3.04984	0.213038	1.7702	0.364846	3.04322	0.530415	4.45665	0.642823	5.39945	0.885159	7.41543	0.355627	2.98535	0.507426	4.23299	0.7471	6.26915	0.942026	7.89091
0.36548	3.03729	0.215065	1.77332	0.366184	3.03083	0.53158	4.43175	0.644031	5.36759	0.885872	7.36393	0.357724	2.97965	0.508696	4.21086	0.747841	6.22668	0.942674	7.83519
0.366825	3.02504	0.217092	1.77638	0.367536	3.01874	0.532753	4.40729	0.645245	5.33627	0.88659	7.31326	0.359822	2.97404	0.509972	4.18911	0.748587	6.18492	0.943326	7.78036
0.368183	3.0131	0.21912	1.77941	0.368902	3.00695	0.533931	4.38325	0.646466	5.30549	0.887313	7.2634	0.36192	2.96852	0.511256	4.16776	0.749338	6.14383	0.943983	7.72641
0.369556	3.00145	0.221148	1.78239	0.370282	2.99545	0.535116	4.35963	0.647693	5.27522	0.888041	7.21434	0.364018	2.96309	0.512546	4.14679	0.750095	6.10341	0.944644	7.67331
0.370943	2.99009	0.223176	1.78533	0.371677	2.98424	0.536308	4.33642	0.648927	5.24547	0.888775	7.16606	0.366117	2.95775	0.513844	4.12618	0.750857	6.06364	0.945311	7.62104
0.372345	2.97902	0.225205	1.78823	0.373087	2.97332	0.537505	4.31361	0.650167	5.21621	0.889513	7.11854	0.368217	2.95249	0.515149	4.10594	0.751624	6.0245	0.945981	7.56959
0.373763	2.96823	0.227234	1.79109	0.374512	2.96268	0.538709	4.29119	0.651413	5.18743	0.890256	7.07175	0.370316	2.9473	0.51646	4.08605	0.752396	5.98599	0.946657	7.51894
0.375195	2.95772	0.229263	1.79392	0.375953	2.95232	0.539919	4.26914	0.652666	5.15913	0.891004	7.0257	0.372417	2.9422	0.517779	4.06651	0.753173	5.94808	0.947336	7.46907
0.376643	2.94749	0.231293	1.7967	0.37741	2.94223	0.541135	4.24747	0.653925	5.13129	0.891757	6.98036	0.374517	2.93718	0.519104	4.0473	0.753956	5.91077	0.948021	7.41996
0.378108	2.93753	0.233323	1.79945	0.378883	2.93241	0.542357	4.22615	0.65519	5.1039	0.892515	6.93571	0.376618	2.93223	0.520436	4.02842	0.754743	5.87404	0.94871	7.37159
0.379588	2.92784	0.235353	1.80216	0.380372	2.92286	0.543586	4.20519	0.656461	5.07696	0.893278	6.89174	0.378719	2.92735	0.521775	4.00987	0.755536	5.83788	0.949403	7.32396
0.381086	2.91842	0.237384	1.80483	0.381878	2.91358	0.54482	4.18458	0.657739	5.05045	0.894046	6.84844	0.380821	2.92255	0.52312	3.99163	0.756334	5.80227	0.950102	7.27705
0.3826	2.90926	0.239415	1.80746	0.383402	2.90455	0.54606	4.16431	0.659022	5.02436	0.894818	6.80578	0.382922	2.91781	0.524473	3.9737	0.757137	5.76721	0.950804	7.23083
0.384132	2.90035	0.241446	1.81007	0.384942	2.89579	0.547306	4.14437	0.660312	4.99868	0.895596	6.76377	0.385024	2.91315	0.525832	3.95607	0.757945	5.73269	0.951511	7.18529
0.385681	2.89171	0.243477	1.81263	0.386501	2.88727	0.548559	4.12475	0.661607	4.97341	0.896379	6.72238	0.387126	2.90855	0.527197	3.93873	0.758758	5.69868	0.952223	7.14043
0.387248	2.88332	0.245509	1.81517	0.388078	2.87901	0.549817	4.10545	0.662908	4.94853	0.897166	6.68159	0.389228	2.90401	0.528569	3.92168	0.759577	5.66518	0.952939	7.09622
0.388833	2.87518	0.247541	1.81767	0.389673	2.871	0.55108	4.08645	0.664215	4.92404	0.897958	6.64141	0.391331	2.89954	0.529948	3.90492	0.7604	5.63219	0.95366	7.05266
0.390437	2.86728	0.249573	1.82014	0.391286	2.86324	0.55235	4.06776	0.665528	4.89993	0.898755	6.60181	0.393433	2.89514	0.531333	3.88843	0.761229	5.59968	0.954385	7.00972
0.39206	2.85963	0.251605	1.82257	0.392919	2.85571	0.553625	4.04937	0.666847	4.87619	0.899557	6.56279	0.395536	2.89079	0.532725	3.87221	0.762062	5.56765	0.955114	6.9674
0.393701	2.85222	0.253637	1.82498	0.39457	2.84843	0.554906	4.03127	0.668171	4.85282	0.900364	6.52433	0.397638	2.8865	0.534123	3.85626	0.762901	5.53609	0.955848	6.92568
0.395362	2.84505	0.255669	1.82735	0.396241	2.84138	0.556193	4.01345	0.669502	4.82979	0.901175	6.48642	0.399741	2.88227	0.535527	3.84057	0.763744	5.505	0.956587	6.88456
0.397042	2.83811	0.257702	1.8297	0.397931	2.83456	0.557485	3.99591	0.670837	4.80712	0.901992	6.44905	0.401843	2.8781	0.536938	3.82513	0.764593	5.47435	0.95733	6.84401
0.398741	2.8314	0.259735	1.83201	0.399641	2.82797	0.558783	3.97865	0.672179	4.78479	0.902813	6.4122	0.403946	2.87398	0.538356	3.80994	0.765447	5.44415	0.958077	6.80404
0.400461	2.82492	0.261768	1.83429	0.401371	2.82161	0.560087	3.96165	0.673526	4.76279	0.903639	6.37588	0.406049	2.86991	0.539779	3.79499	0.766305	5.41437	0.958829	6.76462
0.4022	2.81866	0.263801	1.83655	0.40312	2.81547	0.561395	3.94491	0.674878	4.74112	0.90447	6.34006	0.408151	2.8659	0.541209	3.78028	0.767169	5.38503	0.959585	6.72574
0.403958	2.81262	0.265834	1.83878	0.404889	2.80954	0.56271	3.92842	0.676237	4.71977	0.905305	6.30474	0.410254	2.86194	0.542645	3.7658	0.768037	5.35609	0.960346	6.6874
0.405737	2.8068	0.267867	1.84097	0.406678	2.80383	0.56403	3.91219	0.6776	4.69873	0.906145	6.26991	0.412356	2.85803	0.544087	3.75155	0.768911	5.32757	0.961111	6.64959
0.407535	2.80118	0.2699	1.84315	0.408487	2.79832	0.565355	3.8962	0.678969	4.678	0.90699	6.23556	0.414458	2.85417	0.545535	3.73753	0.769789	5.29945	0.96188	6.61229
0.409353	2.79577	0.271933	1.84529	0.410315	2.79302	0.566685	3.88046	0.680343	4.65757	0.90784	6.20167	0.416561	2.85036	0.54699	3.72372	0.770673	5.27172	0.962654	6.57549
0.41119	2.79057	0.273967	1.84741	0.412162	2.78791	0.568021	3.86495	0.681723	4.63743	0.908694	6.16825	0.418663	2.8466	0.54845	3.71013	0.771561	5.24437	0.963432	6.53919
0.413047	2.78556	0.276	1.8495	0.414029	2.783	0.569362	3.84967	0.683108	4.61759	0.909553	6.13528	0.420764	2.84288	0.549917	3.69676	0.772454	5.2174	0.964214	6.50338
0.414923	2.78074	0.278034	1.85157	0.415915	2.77828	0.570709	3.83461	0.684498	4.59803	0.910417	6.10276	0.422866	2.8392	0.55139	3.68358	0.773353	5.1908	0.965001	6.46804
0.416818	2.7761	0.280067	1.85361	0.41782	2.77374	0.57206	3.81978	0.685893	4.57874	0.911286	6.07066	0.424967	2.83557	0.552868	3.67062	0.774256	5.16457	0.965792	6.43317
0.418732	2.77165	0.282101	1.85563	0.419744	2.76938	0.573417	3.80517	0.687294	4.55973	0.912159	6.039	0.427068	2.83199	0.554353	3.65785	0.775163	5.13869	0.966588	6.39876
0.420664	2.76737	0.284134	1.85762	0.421685	2.76519	0.574778	3.79077	0.688699	4.54099	0.913037	6.00775	0.429169	2.82845	0.555843	3.64527	0.776076	5.11316	0.967388	6.36479
0.422614	2.76326	0.286168	1.85959	0.423645	2.76117	0.576145	3.77657	0.69011	4.52251	0.913919	5.97692	0.43127	2.82494	0.55734	3.63289	0.776994	5.08797	0.968192	6.33127
0.424582	2.75932	0.288201	1.86153	0.425622	2.75732	0.577517	3.76259	0.691526	4.50428	0.914806	5.94648	0.43337	2.82148	0.558842	3.62069	0.777916	5.06312	0.969	6.29819
0.426567	2.75554	0.290235	1.86345	0.427616	2.75361	0.578894	3.7488	0.692946	4.48631	0.915698	5.91645	0.43547	2.81806	0.56035	3.60868	0.778844	5.0386	0.969813	6.26553
0.428569	2.75191	0.292269	1.86535	0.429627	2.75006	0.580276	3.73522	0.694372	4.46859	0.916594	5.8868	0.43757	2.81468	0.561864	3.59685	0.779776	5.01441	0.97063	6.23329
0.430588	2.74843	0.294302	1.86723	0.431653	2.74666	0.581663	3.72182	0.695803	4.45111	0.917495	5.85754	0.439669	2.81133	0.563384	3.58519	0.780713	4.99053	0.971451	6.20145
0.432622	2.74509	0.296336	1.86908	0.433696	2.74339	0.583054	3.70862	0.697238	4.43386	0.9184	5.82865	0.441768	2.80802	0.564909	3.57371	0.781655	4.96697	0.972276	6.17003
0.434672	2.74188	0.298369	1.87091	0.435754	2.74026	0.584451	3.6956	0.698678	4.41685	0.919311	5.80013	0.443866	2.80475	0.56644	3.5624	0.782601	4.94372	0.973106	6.13899
0.436737	2.73881	0.300403	1.87272	0.437827	2.73725	0.585852	3.68277	0.700124	4.40007	0.920225	5.77197	0.445965	2.80152	0.567977	3.55126	0.783553	4.92077	0.97394	6.10835
0.438817	2.73587	0.302436	1.87451	0.439914	2.73437	0.587259	3.67011	0.701574	4.38352	0.921144	5.74417	0.448062	2.79832	0.56952	3.54028	0.784509	4.89811	0.974778	6.07809
0.44091	2.73305	0.304469	1.87628	0.442014	2.73161	0.58867	3.65763	0.703028	4.36719	0.922068	5.71671	0.45016	2.79515	0.571068	3.52946	0.785469	4.87575	0.975621	6.04821
0.443017	2.73034	0.306503	1.87802	0.444128	2.72896	0.590085	3.64532	0.704488	4.35107	0.922996	5.6896	0.452256	2.79202	0.572621	3.5188	0.786435	4.85367	0.976467	6.01869
0.445137	2.72774	0.308536	1.87975	0.446255	2.72642	0.591506	3.63319	0.705952	4.33517	0.923929	5.66283	0.454353	2.78892	0.574181	3.5083	0.787405	4.83188	0.977318	5.98954
0.44727	2.72525	0.310569	1.88146	0.448394	2.72399	0.592931	3.62122	0.707421	4.31947	0.924866	5.63639	0.456448	2.78585	0.575745	3.49794	0.78838	4.81036	0.978173	5.96074
0.449415	2.72287	0.312602	1.88315	0.450546	2.72165	0.594361	3.60941	0.708894	4.30398	0.925808	5.61027	0.458544	2.78281	0.577316	3.48774	0.78936	4.78911	0.979032	5.9323
0.451572	2.72057	0.314635	1.88482	0.452708	2.71941	0.595795	3.59777	0.710372	4.28869	0.926754	5.58448	0.460638	2.77981	0.578891	3.47769	0.790344	4.76813	0.979895	5.9042
0.453739	2.71837	0.316668	1.88647	0.454881	2.71726	0.597234	3.58628	0.711854	4.27361	0.927705	5.559	0.462733	2.77683	0.580473	3.46777	0.791334	4.74741	0.980763	5.87643
0.455918	2.71626	0.318701	1.8881	0.457065	2.71519	0.598677	3.57494	0.713341	4.25871	0.92866	5.53383	0.464826	2.77389	0.582059	3.45801	0.792327	4.72695	0.981634	5.84901
0.458106	2.71424	0.320734	1.88971	0.459259	2.71321	0.600125	3.56376	0.714832	4.24401	0.92962	5.50896	0.466919	2.77097	0.583651	3.44838	0.793326	4.70675	0.98251	5.8219
0.460305	2.71229	0.322767	1.8913	0.461462	2.7113	0.601577	3.55273	0.716328	4.22949	0.930584	5.48439	0.469012	2.76809	0.585249	3.43888	0.794329	4.68679	0.98339	5.79512
0.462513	2.71042	0.324799	1.89288	0.463675	2.70947	0.603034	3.54185	0.717828	4.21516	0.931553	5.46012	0.471104	2.76523	0.586851	3.42953	0.795336	4.66708	0.984273	5.76866
0.464729	2.70862	0.326832	1.89444	0.465896	2.70771	0.604495	3.5311	0.719333	4.20101	0.932526	5.43613	0.473195	2.76239	0.588459	3.4203	0.796349	4.64761	0.985161	5.74251
0.466955	2.70689	0.328864	1.89598	0.468126	2.70601	0.605961	3.52051	0.720841	4.18704	0.933503	5.41244	0.475286	2.75959	0.590072	3.4112	0.797366	4.62838	0.986054	5.71666
0.469189	2.70523	0.330897	1.8975	0.470364	2.70438	0.607431	3.51005	0.722354	4.17324	0.934485	5.38902	0.477376	2.75681	0.591691	3.40224	0.798387	4.60938	0.98695	5.69111
0.47143	2.70363	0.332929	1.89901	0.47261	2.70282	0.608905	3.49972	0.723872	4.15962	0.935471	5.36587	0.479465	2.75406	0.593315	3.39339	0.799413	4.59061	0.98785	5.66586
0.473679	2.70209	0.334961	1.9005	0.474863	2.70131	0.610383	3.48953	0.725393	4.14617	0.936461	5.343	0.481553	2.75133	0.594943	3.38467	0.800444	4.57207	0.988754	5.64091
0.475936	2.70061	0.336993	1.90198	0.477123	2.69985	0.611866	3.47948	0.726919	4.13288	0.937456	5.32039	0.483641	2.74863	0.596578	3.37607	0.801479	4.55375	0.989662	5.61624
0.478199	2.69918	0.339024	1.90343	0.479389	2.69845	0.613353	3.46955	0.728449	4.11975	0.938455	5.29805	0.485729	2.74595	0.598217	3.3676	0.802519	4.53564	0.990575	5.59185
0.480469	2.69781	0.341056	1.90488	0.481662	2.6971	0.614844	3.45975	0.729983	4.10679	0.939459	5.27596	0.487815	2.7433	0.599861	3.35923	0.803563	4.51776	0.991491	5.56774
0.482745	2.69648	0.343087	1.9063	0.483942	2.6958	0.616339	3.45008	0.731521	4.09398	0.940467	5.25413	0.489901	2.74067	0.601511	3.35099	0.804612	4.50008	0.992411	5.5439
0.485027	2.6952	0.345119	1.90771	0.486227	2.69455	0.617839	3.44053	0.733063	4.08133	0.941479	5.23255	0.491986	2.73806	0.603165	3.34285	0.805665	4.48261	0.993336	5.52033
0.487314	2.69397	0.34715	1.90911	0.488517	2.69333	0.619342	3.4311	0.734609	4.06883	0.942495	5.21122	0.49407	2.73547	0.604824	3.33483	0.806723	4.46535	0.994264	5.49703
0.489608	2.69277	0.349181	1.91049	0.490813	2.69216	0.62085	3.42179	0.736159	4.05648	0.943516	5.19012	0.496153	2.73291	0.606489	3.32692	0.807786	4.44829	0.995196	5.47399
0.491906	2.69162	0.351212	1.91186	0.493114	2.69103	0.622361	3.4126	0.737713	4.04428	0.944541	5.16927	0.498236	2.73037	0.608158	3.31911	0.808852	4.43143	0.996133	5.4512
0.494209	2.69051	0.353243	1.91321	0.49542	2.68994	0.623877	3.40352	0.739271	4.03223	0.94557	5.14865	0.500318	2.72785	0.609833	3.31141	0.809924	4.41477	0.997073	5.42867
0.496517	2.68943	0.355273	1.91454	0.497731	2.68888	0.625397	3.39456	0.740832	4.02032	0.946604	5.12826	0.502399	2.72535	0.611512	3.30382	0.810999	4.39829	0.998017	5.40638
0.49883	2.68839	0.357304	1.91587	0.500046	2.68786	0.62692	3.3857	0.742398	4.00855	0.947641	5.1081	0.504479	2.72288	0.613196	3.29632	0.81208	4.38201	0.998965	5.38435
0.501147	2.68739	0.359334	1.91717	0.502365	2.68687	0.628448	3.37696	0.743967	3.99691	0.948683	5.08816	0.506559	2.72042	0.614885	3.28893	0.813164	4.36591	0.999917	5.36255
0.503468	2.68641	0.361364	1.91847	0.504688	2.68591	0.629979	3.36833	0.745541	3.98542	0.94973	5.06845	0.508637	2.71798	0.616579	3.28164	0.814253	4.35	1.00087	5.34099
0.505793	2.68547	0.363394	1.91975	0.507015	2.68498	0.631515	3.3598	0.747118	3.97405	0.95078	5.04895	0.510715	2.71557	0.618278	3.27444	0.815347	4.33427		
0.508122	2.68455	0.365424	1.92102	0.509346	2.68408	0.633054	3.35138	0.748698	3.96282	0.951835	5.02966	0.512792	2.71317	0.619982	3.26734	0.816445	4.31871		
0.510455	2.68367	0.367453	1.92227	0.51168	2.68321	0.634597	3.34305	0.750283	3.95172	0.952894	5.01059	0.514867	2.71079	0.62169	3.26033	0.817547	4.30334		
0.512791	2.68281	0.369483	1.92351	0.514018	2.68236	0.636144	3.33484	0.751871	3.94075	0.953957	4.99172	0.516942	2.70843	0.623403	3.25342	0.818653	4.28813		
0.51513	2.68197	0.371512	1.92474	0.516359	2.68154	0.637694	3.32672	0.753463	3.9299	0.955024	4.97306	0.519017	2.70608	0.625121	3.2466	0.819764	4.2731		
0.517472	2.68116	0.373541	1.92596	0.518703	2.68074	0.639248	3.31869	0.755058	3.91918	0.956095	4.9546	0.52109	2.70376	0.626843	3.23987	0.82088	4.25823		
0.519818	2.68037	0.37557	1.92716	0.52105	2.67997	0.640806	3.31077	0.756657	3.90857	0.95717	4.93634	0.523162	2.70145	0.62857	3.23323	0.821999	4.24353		
0.522166	2.67961	0.377598	1.92835	0.5234	2.67922	0.642368	3.30294	0.758259	3.89809	0.95825	4.91828	0.525233	2.69916	0.630302	3.22667	0.823123	4.22899		
0.524517	2.67887	0.379627	1.92953	0.525752	2.67848	0.643934	3.2952	0.759865	3.88772	0.959334	4.90041	0.527304	2.69689	0.632038	3.2202	0.824252	4.21461		
0.526871	2.67814	0.381655	1.93069	0.528107	2.67777	0.645503	3.28756	0.761475	3.87748	0.960422	4.88273	0.529373	2.69463	0.633779	3.21381	0.825384	4.20039		
0.529227	2.67744	0.383683	1.93185	0.530465	2.67708	0.647075	3.28	0.763088	3.86734	0.961513	4.86523	0.531442	2.69239	0.635525	3.20751	0.826521	4.18633		
0.531586	2.67675	0.385711	1.93299	0.532824	2.6764	0.648652	3.27254	0.764704	3.85732	0.962609	4.84792	0.53351	2.69017	0.637275	3.20129	0.827662	4.17242		
0.533947	2.67609	0.387738	1.93412	0.535187	2.67575	0.650232	3.26516	0.766324	3.84741	0.96371	4.8308	0.535576	2.68796	0.63903	3.19515	0.828808	4.15866		
0.53631	2.67544	0.389766	1.93524	0.537551	2.6751	0.651815	3.25787	0.767947	3.83761	0.964814	4.81385	0.537642	2.68577	0.640789	3.18909	0.829958	4.14505		
0.538675	2.67481	0.391793	1.93635	0.539917	2.67448	0.653402	3.25066	0.769574	3.82791	0.965922	4.79708	0.539706	2.6836	0.642552	3.18311	0.831111	4.13159		
0.541042	2.67419	0.39382	1.93744	0.542285	2.67387	0.654993	3.24354	0.771204	3.81832	0.967034	4.78048	0.54177	2.68143	0.64432	3.1772	0.83227	4.11828		
0.543411	2.67359	0.395847	1.93853	0.544655	2.67328	0.656586	3.2365	0.772837	3.80884	0.96815	4.76406	0.543833	2.67929	0.646092	3.17137	0.833432	4.1051		
0.545782	2.673	0.397873	1.93961	0.547027	2.6727	0.658184	3.22954	0.774473	3.79946	0.969271	4.7478	0.545894	2.67716	0.647869	3.16561	0.834599	4.09207		
0.548155	2.67243	0.3999	1.94067	0.549401	2.67213	0.659785	3.22267	0.776113	3.79018	0.970395	4.73172	0.547955	2.67504	0.64965	3.15993	0.83577	4.07918		
0.55053	2.67187	0.401926	1.94172	0.551776	2.67158	0.661389	3.21587	0.777756	3.781	0.971523	4.71579	0.550014	2.67294	0.651435	3.15432	0.836945	4.06642		
0.552906	2.67132	0.403952	1.94277	0.554153	2.67104	0.662997	3.20915	0.779402	3.77192	0.972655	4.70003	0.552073	2.67085	0.653225	3.14878	0.838124	4.0538		
0.555283	2.67078	0.405978	1.9438	0.556532	2.67051	0.664608	3.2025	0.781051	3.76293	0.973792	4.68444	0.55413	2.66877	0.655019	3.14331	0.839307	4.04131		
0.557662	2.67026	0.408003	1.94482	0.558912	2.66999	0.666222	3.19593	0.782703	3.75404	0.974932	4.66899	0.556187	2.66671	0.656817	3.13791	0.840495	4.02895		
0.560043	2.66975	0.410028	1.94583	0.561293	2.66948	0.66784	3.18944	0.784359	3.74525	0.976076	4.65371	0.558242	2.66466	0.65862	3.13258	0.841687	4.01673		
0.562425	2.66925	0.412053	1.94683	0.563675	2.66899	0.669461	3.18302	0.786017	3.73654	0.977224	4.63858	0.560297	2.66263	0.660426	3.12731	0.842882	4.00463		
0.564808	2.66876	0.414078	1.94783	0.566059	2.6685	0.671086	3.17667	0.787679	3.72793	0.978376	4.6236	0.56235	2.6606	0.662237	3.12211	0.844082	3.99266		
0.567192	2.66828	0.416103	1.94881	0.568444	2.66803	0.672713	3.17039	0.789344	3.71941	0.979532	4.60877	0.564402	2.6586	0.664052	3.11698	0.845286	3.98081		
0.569578	2.66781	0.418127	1.94978	0.57083	2.66756	0.674344	3.16419	0.791011	3.71097	0.980692	4.59409	0.566454	2.6566	0.665871	3.11191	0.846495	3.96908		
0.571964	2.66734	0.420151	1.95075	0.573217	2.6671	0.675978	3.15805	0.792682	3.70263	0.981856	4.57955	0.568504	2.65461	0.667694	3.1069	0.847707	3.95748		
0.574352	2.66689	0.422175	1.9517	0.575605	2.66666	0.677616	3.15198	0.794355	3.69437	0.983023	4.56516	0.570553	2.65264	0.669521	3.10195	0.848923	3.94599		
0.57674	2.66645	0.424199	1.95265	0.577994	2.66622	0.679256	3.14597	0.796032	3.68619	0.984195	4.55091	0.572601	2.65068	0.671353	3.09707	0.850144	3.93463		
0.57913	2.66601	0.426222	1.95358	0.580385	2.66579	0.6809	3.14004	0.797711	3.6781	0.98537	4.5368	0.574648	2.64873	0.673188	3.09224	0.851368	3.92338		
0.581521	2.66558	0.428246	1.95451	0.582776	2.66536	0.682547	3.13417	0.799394	3.67009	0.986549	4.52283	0.576694	2.6468	0.675027	3.08748	0.852597	3.91224		
0.583912	2.66516	0.430268	1.95543	0.585167	2.66494	0.684197	3.12836	0.801079	3.66216	0.987732	4.50899	0.578738	2.64487	0.67687	3.08277	0.853829	3.90122		
0.586304	2.66475	0.432291	1.95633	0.58756	2.66454	0.68585	3.12262	0.802767	3.65431	0.988919	4.49529	0.580782	2.64296	0.678717	3.07812	0.855066	3.89031		
0.588697	2.66434	0.434314	1.95724	0.589953	2.66413	0.687507	3.11694	0.804458	3.64654	0.99011	4.48172	0.582825	2.64106	0.680568	3.07353	0.856307	3.87951		
0.591091	2.66394	0.436336	1.95813	0.592347	2.66374	0.689166	3.11132	0.806151	3.63885	0.991305	4.46828	0.584866	2.63916	0.682423	3.06899	0.857551	3.86881		
0.593485	2.66355	0.438358	1.95901	0.594742	2.66335	0.690829	3.10576	0.807848	3.63124	0.992503	4.45498	0.586907	2.63728	0.684282	3.06451	0.8588	3.85823		
0.59588	2.66316	0.44038	1.95988	0.597138	2.66296	0.692494	3.10026	0.809547	3.6237	0.993705	4.4418	0.588946	2.63541	0.686145	3.06009	0.860053	3.84775		
0.598276	2.66278	0.442401	1.96075	0.599534	2.66259	0.694163	3.09482	0.811249	3.61624	0.994911	4.42874	0.590984	2.63356	0.688011	3.05571	0.861309	3.83738		
0.600672	2.66241	0.444422	1.96161	0.60193	2.66221	0.695835	3.08944	0.812953	3.60885	0.996121	4.41581	0.593022	2.63171	0.689881	3.05139	0.86257	3.82711		
0.603069	2.66204	0.446443	1.96246	0.604327	2.66185	0.69751	3.08412	0.81466	3.60153	0.997334	4.40301	0.595058	2.62987	0.691755	3.04712	0.863834	3.81694		
0.605467	2.66167	0.448464	1.9633	0.606725	2.66148	0.699187	3.07886	0.81637	3.59428	0.998551	4.39032	0.597093	2.62804	0.693633	3.04291	0.865103	3.80687		
0.607864	2.66131	0.450485	1.96414	0.609123	2.66113	0.700868	3.07365	0.818083	3.58711	0.999772	4.37776	0.599127	2.62622	0.695514	3.03874	0.866375	3.79691		
0.610263	2.66096	0.452505	1.96496	0.611521	2.66078	0.702552	3.06849	0.819798	3.58	1.001	4.36531	0.601159	2.62442	0.697399	3.03462	0.867651	3.78704		
0.612661	2.66061	0.454525	1.96578	0.61392	2.66043	0.704239	3.06339	0.821515	3.57297			0.603191	2.62262	0.699288	3.03055	0.868932	3.77726		
0.61506	2.66027	0.456545	1.96659	0.61632	2.66009	0.705928	3.05835	0.823235	3.566			0.605222	2.62083	0.70118	3.02653	0.870216	3.76759		
0.61746	2.65992	0.458564	1.9674	0.618719	2.65975	0.707621	3.05336	0.824958	3.5591			0.607252	2.61905	0.703075	3.02256	0.871504	3.758		
0.619859	2.65959	0.460584	1.96819	0.621119	2.65941	0.709316	3.04842	0.826683	3.55226			0.60928	2.61729	0.704975	3.01864	0.872796	3.74852		
0.622259	2.65925	0.462603	1.96898	0.623519	2.65908	0.711015	3.04353	0.828411	3.54549			0.611308	2.61553	0.706878	3.01476	0.874092	3.73912		
0.62466	2.65893	0.464621	1.96976	0.62592	2.65875	0.712716	3.0387	0.830141	3.53879			0.613334	2.61378	0.708784	3.01092	0.875391	3.72981		
0.62706	2.6586	0.46664	1.97053	0.62832	2.65843	0.71442	3.03391	0.831874	3.53214			0.615359	2.61204	0.710694	3.00713	0.876695	3.7206		
0.629461	2.65828	0.468658	1.9713	0.630721	2.65811	0.716128	3.02917	0.833609	3.52556			0.617384	2.61031	0.712607	3.00339	0.878002	3.71147		
0.631862	2.65796	0.470676	1.97206	0.633122	2.65779	0.717838	3.02449	0.835347	3.51905			0.619407	2.60859	0.714524	2.99969	0.879314	3.70243		
0.634263	2.65764	0.472694	1.97281	0.635523	2.65748	0.71955	3.01985	0.837086	3.51259			0.621429	2.60687	0.716444	2.99603	0.880629	3.69348		
0.636664	2.65733	0.474711	1.97356	0.637924	2.65717	0.721266	3.01526	0.838829	3.50619			0.62345	2.60517	0.718367	2.99241	0.881947	3.68461		
0.639065	2.65702	0.476729	1.9743	0.640326	2.65686	0.722985	3.01072	0.840573	3.49985			0.62547	2.60347	0.720294	2.98884	0.88327	3.67583		
0.641467	2.65671	0.478746	1.97503	0.642727	2.65655	0.724706	3.00622	0.84232	3.49357			0.627489	2.60179	0.722224	2.98531	0.884597	3.66713		
0.643868	2.65641	0.480762	1.97576	0.645128	2.65625	0.72643	3.00177	0.844069	3.48735			0.629507	2.60011	0.724157	2.98182	0.885927	3.65852		
0.646269	2.65611	0.482779	1.97648	0.64753	2.65595	0.728157	2.99737	0.845821	3.48119			0.631524	2.59844	0.726094	2.97836	0.887261	3.64998		
0.648671	2.65581	0.484795	1.97719	0.649931	2.65565	0.729887	2.99301	0.847575	3.47508			0.633539	2.59678	0.728033	2.97495	0.888599	3.64153		
0.651072	2.65551	0.486811	1.9779	0.652332	2.65535	0.73162	2.9887	0.849331	3.46903			0.635554	2.59513	0.729976	2.97158	0.88994	3.63315		
0.653473	2.65521	0.488827	1.9786	0.654734	2.65506	0.733355	2.98443	0.851089	3.46303			0.637568	2.59348	0.731922	2.96824	0.891286	3.62486		
0.655875	2.65492	0.490842	1.97929	0.657135	2.65476	0.735094	2.9802	0.852849	3.45709			0.639581	2.59185	0.733871	2.96494	0.892635	3.61664		
0.658276	2.65462	0.492857	1.97998	0.659536	2.65447	0.736835	2.97602	0.854612	3.4512			0.641592	2.59022	0.735824	2.96168	0.893987	3.6085		
0.660677	2.65433	0.494872	1.98066	0.661937	2.65418	0.738578	2.97188	0.856377	3.44536			0.643603	2.5886	0.737779	2.95846	0.895344	3.60044		
0.663077	2.65404	0.496887	1.98133	0.664337	2.65389	0.740325	2.96778	0.858143	3.43958			0.645613	2.58699	0.739737	2.95527	0.896704	3.59245		
0.665478	2.65376	0.498901	1.982	0.666738	2.65361	0.742074	2.96373	0.859912	3.43385			0.647622	2.58539	0.741699	2.95212	0.898068	3.58453		
0.667878	2.65347	0.500915	1.98266	0.669138	2.65332	0.743827	2.95971	0.861684	3.42817			0.649629	2.58379	0.743663	2.949	0.899436	3.57669		
0.670279	2.65319	0.502929	1.98332	0.671538	2.65304	0.745581	2.95574	0.863457	3.42253			0.651636	2.58221	0.74563	2.94592	0.900807	3.56892		
0.672678	2.6529	0.504943	1.98397	0.673938	2.65275	0.747339	2.9518	0.865232	3.41695			0.653642	2.58063	0.747601	2.94287	0.902182	3.56122		
0.675078	2.65262	0.506956	1.98462	0.676337	2.65247	0.7491	2.94791	0.867009	3.41142			0.655647	2.57905	0.749574	2.93985	0.903561	3.55359		
0.677477	2.65234	0.508969	1.98526	0.678737	2.65219	0.750863	2.94405	0.868789	3.40593			0.65765	2.57749	0.75155	2.93687	0.904943	3.54604		
0.679876	2.65205	0.510982	1.98589	0.681135	2.65191	0.752629	2.94023	0.87057	3.4005			0.659653	2.57593	0.753529	2.93392	0.906329	3.53855		
0.682275	2.65177	0.512994	1.98652	0.683534	2.65163	0.754397	2.93646	0.872354	3.39511			0.661655	2.57439	0.75551	2.931	0.907719	3.53113		
0.684673	2.65149	0.515007	1.98714	0.685932	2.65135	0.756169	2.93271	0.874139	3.38976			0.663656	2.57284	0.757494	2.92812	0.909112	3.52378		
0.687071	2.65121	0.517019	1.98776	0.688329	2.65107	0.757943	2.92901	0.875926	3.38447			0.665656	2.57131	0.759482	2.92526	0.910509	3.51649		
0.689469	2.65093	0.51903	1.98837	0.690727	2.65079	0.75972	2.92535	0.877716	3.37922			0.667655	2.56978	0.761471	2.92244	0.911909	3.50927		
0.691866	2.65065	0.521042	1.98898	0.693123	2.65051	0.761499	2.92172	0.879507	3.37401			0.669653	2.56826	0.763464	2.91965	0.913313	3.50212		
0.694262	2.65038	0.523053	1.98958	0.69552	2.65023	0.763282	2.91812	0.8813	3.36885			0.671651	2.56675	0.765459	2.91689	0.914721	3.49503		
0.696658	2.6501	0.525064	1.99018	0.697915	2.64995	0.765067	2.91457	0.883095	3.36373			0.673647	2.56525	0.767457	2.91415	0.916132	3.48801		
0.699053	2.64982	0.527074	1.99077	0.70031	2.64967	0.766855	2.91105	0.884892	3.35865			0.675642	2.56375	0.769457	2.91145	0.917547	3.48105		
0.701448	2.64954	0.529085	1.99135	0.702705	2.64939	0.768646	2.90756	0.88669	3.35362			0.677637	2.56226	0.77146	2.90877	0.918966	3.47415		
0.703843	2.64926	0.531095	1.99193	0.705099	2.64911	0.770439	2.90411	0.888491	3.34863			0.679631	2.56078	0.773466	2.90612	0.920388	3.46731		
0.706236	2.64898	0.533105	1.99251	0.707492	2.64883	0.772235	2.90069	0.890293	3.34368			0.681624	2.5593	0.775474	2.9035	0.921813	3.46054		
0.708629	2.6487	0.535114	1.99308	0.709885	2.64855	0.774034	2.89731	0.892097	3.33878			0.683616	2.55783	0.777484	2.90091	0.923242	3.45382		
0.711021	2.64842	0.537124	1.99364	0.712277	2.64827	0.775836	2.89396	0.893903	3.33391			0.685607	2.55637	0.779497	2.89835	0.924675	3.44717		
0.713413	2.64813	0.539133	1.9942	0.714668	2.64799	0.777641	2.89065	0.895711	3.32908			0.687597	2.55492	0.781512	2.89581	0.926111	3.44057		
0.715804	2.64785	0.541142	1.99476	0.717059	2.6477	0.779448	2.88737	0.89752	3.3243			0.689586	2.55347	0.78353	2.8933	0.927551	3.43403		
0.718194	2.64757	0.54315	1.99531	0.719448	2.64742	0.781258	2.88412	0.899332	3.31955			0.691575	2.55203	0.78555	2.89081	0.928994	3.42755		
0.720583	2.64728	0.545158	1.99586	0.721837	2.64713	0.783071	2.8809	0.901145	3.31484			0.693563	2.5506	0.787572	2.88835	0.930441	3.42113		
0.722972	2.647	0.547166	1.9964	0.724225	2.64685	0.784887	2.87772	0.902959	3.31017			0.69555	2.54917	0.789597	2.88591	0.931892	3.41477		
0.72536	2.64671	0.549174	1.99694	0.726612	2.64656	0.786706	2.87457	0.904775	3.30554			0.697536	2.54775	0.791624	2.8835	0.933345	3.40846		
0.727746	2.64642	0.551182	1.99747	0.728999	2.64627	0.788527	2.87145	0.906593	3.30095			0.699521	2.54633	0.793653	2.88112	0.934803	3.4022		
0.730132	2.64614	0.553189	1.998	0.731384	2.64598	0.790352	2.86836	0.908413	3.29639			0.701506	2.54493	0.795684	2.87875	0.936263	3.396		
0.732517	2.64584	0.555196	1.99852	0.733768	2.64569	0.792179	2.8653	0.910234	3.29187			0.70349	2.54353	0.797718	2.87642	0.937728	3.38986		
0.734901	2.64555	0.557202	1.99904	0.736152	2.6454	0.794009	2.86228	0.912057	3.28738			0.705473	2.54213	0.799754	2.8741	0.939196	3.38377		
0.737284	2.64526	0.559209	1.99955	0.738534	2.6451	0.795842	2.85928	0.913882	3.28294			0.707455	2.54075	0.801792	2.87181	0.940667	3.37773		
0.739666	2.64496	0.561215	2.00006	0.740915	2.64481	0.797678	2.85632	0.915708	3.27852			0.709437	2.53937	0.803832	2.86954	0.942141	3.37175		
0.742046	2.64466	0.563221	2.00057	0.743295	2.64451	0.799517	2.85338	0.917535	3.27414			0.711418	2.53799	0.805874	2.86729	0.94362	3.36581		
0.744426	2.64436	0.565226	2.00107	0.745674	2.64421	0.801359	2.85048	0.919365	3.2698			0.713398	2.53663	0.807918	2.86507	0.945101	3.35993		
0.746804	2.64406	0.567232	2.00157	0.748052	2.6439	0.803204	2.8476	0.921195	3.26549			0.715377	2.53527	0.809964	2.86286	0.946586	3.3541		
0.749182	2.64376	0.569237	2.00206	0.750429	2.6436	0.805052	2.84476	0.923028	3.26122			0.717356	2.53391	0.812012	2.86068	0.948075	3.34832		
0.751558	2.64345	0.571241	2.00255	0.752804	2.64329	0.806903	2.84194	0.924861	3.25697			0.719334	2.53256	0.814062	2.85852	0.949566	3.34259		
0.753932	2.64314	0.573246	2.00304	0.755178	2.64298	0.808757	2.83915	0.926697	3.25276			0.721311	2.53122	0.816113	2.85638	0.951062	3.33691		
0.756306	2.64283	0.57525	2.00352	0.757551	2.64267	0.810614	2.8364	0.928534	3.24859			0.723288	2.52989	0.818167	2.85426	0.952561	3.33128		
0.758678	2.64252	0.577254	2.00399	0.759922	2.64235	0.812474	2.83367	0.930372	3.24444			0.725264	2.52856	0.820223	2.85216	0.954063	3.3257		
0.761049	2.6422	0.579258	2.00447	0.762292	2.64203	0.814337	2.83097	0.932212	3.24033			0.727239	2.52724	0.82228	2.85008	0.955568	3.32016		
0.763418	2.64188	0.581261	2.00493	0.764661	2.64171	0.816203	2.82829	0.934053	3.23625			0.729214	2.52592	0.824339	2.84802	0.957077	3.31467		
0.765785	2.64156	0.583264	2.0054	0.767028	2.64138	0.818072	2.82565	0.935895	3.2322			0.731188	2.52461	0.826401	2.84598	0.958589	3.30923		
0.768152	2.64123	0.585267	2.00586	0.769393	2.64106	0.819945	2.82303	0.937739	3.22818			0.733162	2.52331	0.828463	2.84396	0.960105	3.30384		
0.770516	2.6409	0.58727	2.00632	0.771757	2.64073	0.821821	2.82044	0.939585	3.22419			0.735135	2.52201	0.830528	2.84196	0.961624	3.29849		
0.772879	2.64057	0.589272	2.00677	0.774119	2.64039	0.8237	2.81788	0.941432	3.22023			0.737107	2.52072	0.832594	2.83998	0.963147	3.29319		
0.775241	2.64023	0.591274	2.00722	0.776479	2.64005	0.825582	2.81535	0.94328	3.21631			0.739078	2.51943	0.834662	2.83801	0.964672	3.28793		
0.7776	2.63989	0.593276	2.00767	0.778838	2.63971	0.827468	2.81284	0.945129	3.21241			0.741049	2.51816	0.836731	2.83606	0.966202	3.28272		
0.779958	2.63954	0.595278	2.00811	0.781195	2.63936	0.829357	2.81036	0.94698	3.20854			0.74302	2.51688	0.838802	2.83413	0.967734	3.27755		
0.782314	2.6392	0.597279	2.00855	0.78355	2.63901	0.83125	2.80791	0.948832	3.2047			0.74499	2.51562	0.840875	2.83222	0.96927	3.27243		
0.784668	2.63884	0.59928	2.00898	0.785903	2.63866	0.833145	2.80548	0.950686	3.20088			0.746959	2.51436	0.842949	2.83032	0.970809	3.26735		
0.78702	2.63849	0.601281	2.00941	0.788254	2.6383	0.835045	2.80308	0.952541	3.1971			0.748928	2.5131	0.845025	2.82844	0.972352	3.26231		
0.789371	2.63813	0.603281	2.00984	0.790603	2.63794	0.836947	2.80071	0.954397	3.19334			0.750896	2.51185	0.847102	2.82658	0.973898	3.25731		
0.791719	2.63776	0.605282	2.01026	0.79295	2.63757	0.838854	2.79837	0.956254	3.18962			0.752864	2.51061	0.849181	2.82474	0.975447	3.25236		
0.794065	2.63739	0.607282	2.01068	0.795295	2.63719	0.840763	2.79605	0.958113	3.18591			0.754831	2.50937	0.851261	2.82291	0.976999	3.24745		
0.796409	2.63702	0.609281	2.0111	0.797638	2.63682	0.842677	2.79375	0.959973	3.18224			0.756798	2.50814	0.853342	2.82109	0.978555	3.24258		
0.798751	2.63664	0.611281	2.01151	0.799979	2.63643	0.844594	2.79149	0.961834	3.17859			0.758764	2.50692	0.855425	2.8193	0.980114	3.23775		
0.80109	2.63625	0.61328	2.01193	0.802317	2.63605	0.846515	2.78925	0.963696	3.17497			0.76073	2.5057	0.857509	2.81751	0.981677	3.23296		
0.803428	2.63586	0.615279	2.01233	0.804653	2.63565	0.848439	2.78703	0.96556	3.17138			0.762695	2.50449	0.859595	2.81575	0.983242	3.22821		
0.805762	2.63547	0.617278	2.01274	0.806987	2.63526	0.850368	2.78484	0.967425	3.16781			0.76466	2.50328	0.861682	2.81399	0.984812	3.2235		
0.808095	2.63506	0.619276	2.01314	0.809318	2.63485	0.8523	2.78268	0.969291	3.16426			0.766624	2.50208	0.86377	2.81226	0.986384	3.21883		
0.810425	2.63466	0.621274	2.01353	0.811647	2.63444	0.854236	2.78054	0.971158	3.16075			0.768588	2.50088	0.865859	2.81053	0.98796	3.2142		
0.812752	2.63424	0.623272	2.01393	0.813973	2.63403	0.856176	2.77843	0.973026	3.15725			0.770551	2.49969	0.86795	2.80882	0.989538	3.20961		
0.815077	2.63383	0.62527	2.01432	0.816296	2.6336	0.85812	2.77635	0.974896	3.15378			0.772514	2.49851	0.870041	2.80713	0.991121	3.20506		
0.817399	2.6334	0.627267	2.0147	0.818617	2.63318	0.860068	2.77429	0.976766	3.15034			0.774476	2.49733	0.872134	2.80545	0.992706	3.20054		
0.819719	2.63297	0.629264	2.01509	0.820935	2.63274	0.86202	2.77225	0.978638	3.14692			0.776439	2.49616	0.874228	2.80378	0.994295	3.19606		
0.822035	2.63253	0.631261	2.01547	0.82325	2.6323	0.863976	2.77024	0.980511	3.14353			0.7784	2.49499	0.876324	2.80213	0.995887	3.19162		
0.824349	2.63209	0.633257	2.01585	0.825562	2.63185	0.865936	2.76826	0.982385	3.14015			0.780362	2.49383	0.87842	2.80049	0.997482	3.18722		
0.826659	2.63164	0.635254	2.01622	0.827871	2.6314	0.867901	2.7663	0.98426	3.13681			0.782322	2.49268	0.880517	2.79886	0.999081	3.18285		
0.828967	2.63118	0.63725	2.01659	0.830177	2.63094	0.86987	2.76436	0.986136	3.13348			0.784283	2.49153	0.882615	2.79725	1.00068	3.17852		
0.831272	2.63072	0.639245	2.01696	0.83248	2.63047	0.871843	2.76246	0.988013	3.13018			0.786243	2.49038	0.884715	2.79565				
0.833573	2.63024	0.641241	2.01733	0.83478	2.62999	0.87382	2.76057	0.989891	3.1269			0.788203	2.48925	0.886815	2.79406				
0.835872	2.62977	0.643236	2.01769	0.837077	2.62951	0.875802	2.75871	0.99177	3.12364			0.790162	2.48811	0.888916	2.79248				
0.838167	2.62928	0.645231	2.01805	0.83937	2.62902	0.877789	2.75688	0.993651	3.12041			0.792121	2.48698	0.891018	2.79091				
0.840458	2.62878	0.647226	2.01841	0.84166	2.62852	0.87978	2.75507	0.995532	3.1172			0.79408	2.48586	0.893122	2.78936				
0.842747	2.62828	0.64922	2.01876	0.843946	2.62802	0.881776	2.75329	0.997414	3.114			0.796038	2.48475	0.895226	2.78782				
0.845031	2.62777	0.651215	2.01912	0.846229	2.6275	0.883776	2.75153	0.999298	3.11084			0.797996	2.48364	0.89733	2.78629				
0.847313	2.62726	0.653209	2.01946	0.848509	2.62698	0.885781	2.7498	1.00118	3.10769			0.799954	2.48253	0.899436	2.78477				
0.84959	2.62673	0.655202	2.01981	0.850784	2.62645	0.887791	2.74809					0.801912	2.48143	0.901542	2.78327				
0.851865	2.6262	0.657196	2.02015	0.853057	2.62591	0.889806	2.7464					0.803869	2.48033	0.90365	2.78177				
0.854135	2.62565	0.659189	2.02049	0.855325	2.62536	0.891825	2.74474					0.805826	2.47925	0.905757	2.78028				
0.856401	2.6251	0.661182	2.02083	0.857589	2.62481	0.89385	2.74311					0.807782	2.47816	0.907866	2.77881				
0.858664	2.62454	0.663174	2.02117	0.85985	2.62424	0.895879	2.7415					0.809738	2.47708	0.909975	2.77735				
0.860923	2.62397	0.665167	2.0215	0.862107	2.62367	0.897914	2.73991					0.811694	2.47601	0.912085	2.77589				
0.863178	2.6234	0.667159	2.02183	0.864359	2.62309	0.899953	2.73835					0.81365	2.47494	0.914196	2.77445				
0.865428	2.62281	0.669151	2.02215	0.866608	2.6225	0.901998	2.73681					0.815606	2.47388	0.916307	2.77302				
0.867675	2.62222	0.671142	2.02248	0.868853	2.6219	0.904048	2.7353					0.817561	2.47282	0.918419	2.77159				
0.869918	2.62161	0.673134	2.0228	0.871093	2.62129	0.906103	2.73381					0.819516	2.47177	0.920532	2.77018				
0.872156	2.621	0.675125	2.02312	0.873329	2.62067	0.908163	2.73235					0.821471	2.47072	0.922645	2.76877				
0.874391	2.62038	0.677116	2.02344	0.875561	2.62004	0.910228	2.73091					0.823425	2.46968	0.924758	2.76738				
0.876621	2.61974	0.679106	2.02375	0.877789	2.61941	0.912299	2.72949					0.82538	2.46864	0.926872	2.76599				
0.878846	2.6191	0.681097	2.02406	0.880013	2.61876	0.914375	2.7281					0.827334	2.46761	0.928987	2.76462				
0.881068	2.61845	0.683087	2.02437	0.882232	2.61811	0.916457	2.72673					0.829288	2.46658	0.931102	2.76325				
0.883285	2.61779	0.685077	2.02468	0.884446	2.61744	0.918544	2.72538					0.831241	2.46556	0.933217	2.76189				
0.885497	2.61712	0.687066	2.02498	0.886657	2.61677	0.920636	2.72406					0.833195	2.46455	0.935333	2.76054				
0.887706	2.61645	0.689056	2.02528	0.888863	2.61609	0.922734	2.72276					0.835148	2.46354	0.937449	2.7592				
0.889909	2.61576	0.691045	2.02558	0.891064	2.61539	0.924837	2.72148					0.837101	2.46253	0.939565	2.75786				
0.892109	2.61506	0.693034	2.02588	0.893261	2.61469	0.926945	2.72023					0.839054	2.46153	0.941682	2.75654				
0.894303	2.61435	0.695022	2.02617	0.895454	2.61398	0.929059	2.719					0.841007	2.46053	0.943799	2.75522				
0.896494	2.61364	0.69701	2.02647	0.897642	2.61326	0.931179	2.71779					0.84296	2.45954	0.945917	2.75391				
0.89868	2.61291	0.698999	2.02676	0.899825	2.61253	0.933304	2.71661					0.844912	2.45855	0.948034	2.75261				
0.900861	2.61218	0.700986	2.02704	0.902004	2.61179	0.935434	2.71544					0.846865	2.45757	0.950152	2.75132				
0.903038	2.61144	0.702974	2.02733	0.904179	2.61104	0.93757	2.7143					0.848817	2.45659	0.952271	2.75003				
0.90521	2.61069	0.704961	2.02761	0.906349	2.61029	0.939711	2.71318					0.850769	2.45562	0.954389	2.74876				
0.907378	2.60992	0.706948	2.02789	0.908514	2.60952	0.941858	2.71209					0.852721	2.45466	0.956507	2.74748				
0.909542	2.60916	0.708935	2.02817	0.910675	2.60875	0.94401	2.71101					0.854673	2.45369	0.958626	2.74622				
0.911701	2.60838	0.710922	2.02845	0.912832	2.60797	0.946168	2.70995					0.856625	2.45274	0.960745	2.74496				
0.913855	2.60759	0.712908	2.02872	0.914984	2.60717	0.94833	2.70892					0.858576	2.45178	0.962864	2.74371				
0.916005	2.6068	0.714894	2.029	0.917132	2.60638	0.950499	2.70791					0.860528	2.45084	0.964983	2.74247				
0.918151	2.60599	0.71688	2.02927	0.919275	2.60557	0.952672	2.70691					0.862479	2.44989	0.967102	2.74124				
0.920292	2.60518	0.718866	2.02953	0.921415	2.60475	0.954851	2.70594					0.864431	2.44895	0.969221	2.74001				
0.922429	2.60436	0.720851	2.0298	0.923549	2.60393	0.957035	2.70499					0.866382	2.44802	0.97134	2.73878				
0.924562	2.60353	0.722836	2.03006	0.92568	2.6031	0.959224	2.70405					0.868333	2.44709	0.973459	2.73757				
0.926691	2.6027	0.724821	2.03033	0.927806	2.60226	0.961418	2.70314					0.870284	2.44617	0.975578	2.73636				
0.928815	2.60186	0.726806	2.03059	0.929928	2.60141	0.963617	2.70224					0.872235	2.44525	0.977697	2.73515				
0.930935	2.60101	0.72879	2.03084	0.932046	2.60056	0.965821	2.70137					0.874186	2.44433	0.979816	2.73395				
0.933051	2.60015	0.730774	2.0311	0.93416	2.5997	0.96803	2.70051					0.876137	2.44342	0.981935	2.73276				
0.935164	2.59929	0.732758	2.03135	0.93627	2.59883	0.970244	2.69967					0.878088	2.44252	0.984054	2.73158				
0.937272	2.59842	0.734742	2.0316	0.938376	2.59796	0.972463	2.69884					0.880039	2.44162	0.986172	2.73039				
0.939376	2.59754	0.736725	2.03185	0.940479	2.59708	0.974686	2.69804					0.88199	2.44072	0.988291	2.72922				
0.941476	2.59666	0.738708	2.0321	0.942577	2.5962	0.976914	2.69725					0.88394	2.43983	0.990409	2.72805				
0.943573	2.59577	0.740691	2.03235	0.944671	2.59531	0.979147	2.69648					0.885891	2.43894	0.992527	2.72689				
0.945665	2.59488	0.742674	2.03259	0.946762	2.59441	0.981384	2.69572					0.887842	2.43806	0.994645	2.72573				
0.947754	2.59398	0.744656	2.03283	0.948849	2.59351	0.983626	2.69498					0.889792	2.43718	0.996763	2.72458				
0.94984	2.59308	0.746638	2.03307	0.950933	2.5926	0.985872	2.69426					0.891743	2.4363	0.99888	2.72343				
0.951922	2.59217	0.74862	2.03331	0.953013	2.59169	0.988123	2.69355					0.893694	2.43543	1.001	2.72228				
0.954	2.59125	0.750602	2.03355	0.95509	2.59077	0.990377	2.69286					0.895644	2.43457						
0.956075	2.59033	0.752584	2.03378	0.957163	2.58985	0.992636	2.69218					0.897595	2.43371						
0.958147	2.58941	0.754565	2.03402	0.959233	2.58892	0.994899	2.69152					0.899546	2.43285						
0.960216	2.58848	0.756546	2.03425	0.9613	2.588	0.997166	2.69087					0.901496	2.432						
0.962281	2.58755	0.758527	2.03448	0.963364	2.58706	0.999436	2.69023					0.903447	2.43115						
0.964343	2.58662	0.760507	2.0347	0.965424	2.58612	1.00171	2.68961					0.905397	2.4303						
0.966402	2.58568	0.762487	2.03493	0.967482	2.58518							0.907348	2.42946						
0.968459	2.58474	0.764467	2.03515	0.969537	2.58424							0.909299	2.42863						
0.970512	2.58379	0.766447	2.03538	0.971588	2.5833							0.911249	2.4278						
0.972562	2.58284	0.768427	2.0356	0.973637	2.58235							0.9132	2.42697						
0.97461	2.58189	0.770406	2.03582	0.975684	2.58139							0.915151	2.42615						
0.976655	2.58094	0.772385	2.03603	0.977727	2.58044							0.917102	2.42533						
0.978698	2.57999	0.774364	2.03625	0.979769	2.57948							0.919052	2.42451						
0.980738	2.57903	0.776343	2.03646	0.981807	2.57853							0.921003	2.4237						
0.982775	2.57807	0.778321	2.03667	0.983843	2.57757							0.922954	2.4229						
0.98481	2.57711	0.780299	2.03688	0.985877	2.57661							0.924905	2.42209						
0.986843	2.57615	0.782277	2.03709	0.987909	2.57564							0.926856	2.42129						
0.988873	2.57519	0.784255	2.0373	0.989938	2.57468							0.928807	2.4205						
0.990901	2.57422	0.786233	2.03751	0.991965	2.57372							0.930758	2.41971						
0.992927	2.57326	0.78821	2.03771	0.99399	2.57275							0.93271	2.41892						
0.994951	2.57229	0.790187	2.03791	0.996013	2.57179							0.934661	2.41814						
0.996973	2.57133	0.792164	2.03811	0.998034	2.57082							0.936612	2.41736						
0.998993	2.57036	0.79414	2.03831	1.00005	2.56985							0.938564	2.41659						
1.00101	2.56939	0.796117	2.03851									0.940515	2.41582						
		0.798093	2.03871									0.942467	2.41505						
		0.800069	2.0389									0.944418	2.41429						
		0.802044	2.0391									0.94637	2.41353						
		0.80402	2.03929									0.948322	2.41277						
		0.805995	2.03948									0.950274	2.41202						
		0.80797	2.03967									0.952226	2.41127						
		0.809945	2.03985									0.954178	2.41053						
		0.811919	2.04004									0.95613	2.40979						
		0.813894	2.04022									0.958083	2.40905						
		0.815868	2.04041									0.960035	2.40832						
		0.817842	2.04059									0.961988	2.40759						
		0.819815	2.04077									0.96394	2.40687						
		0.821789	2.04095									0.965893	2.40615						
		0.823762	2.04113									0.967846	2.40543						
		0.825735	2.0413									0.969799	2.40471						
		0.827708	2.04148									0.971752	2.404						
		0.82968	2.04165									0.973705	2.40329						
		0.831653	2.04182									0.975659	2.40259						
		0.833625	2.04199									0.977612	2.40189						
		0.835597	2.04216									0.979566	2.40119						
		0.837569	2.04233									0.98152	2.4005						
		0.83954	2.0425									0.983474	2.39981						
		0.841511	2.04266									0.985428	2.39913						
		0.843482	2.04283									0.987382	2.39844						
		0.845453	2.04299									0.989336	2.39776						
		0.847424	2.04315									0.991291	2.39709						
		0.849394	2.04332									0.993245	2.39642						
		0.851365	2.04347									0.9952	2.39575						
		0.853334	2.04363									0.997155	2.39508						
		0.855304	2.04379									0.99911	2.39442						
		0.857274	2.04395									1.00107	2.39376						
		0.859243	2.0441																
		0.861212	2.04425																
		0.863181	2.04441																
		0.86515	2.04456																
		0.867119	2.04471																
		0.869087	2.04486																
		0.871055	2.045																
		0.873023	2.04515																
		0.874991	2.0453																
		0.876958	2.04544																
		0.878925	2.04558																
		0.880893	2.04573																
		0.882859	2.04587																
		0.884826	2.04601																
		0.886793	2.04615																
		0.888759	2.04628																
		0.890725	2.04642																
		0.892691	2.04656																
		0.894657	2.04669																
		0.896622	2.04683																
		0.898587	2.04696																
		0.900552	2.04709																
		0.902517	2.04722																
		0.904482	2.04735																
		0.906447	2.04748																
		0.908411	2.04761																
		0.910375	2.04773																
		0.912339	2.04786																
		0.914303	2.04799																
		0.916266	2.04811																
		0.91823	2.04823																
		0.920193	2.04835																
		0.922156	2.04847																
		0.924118	2.0486																
		0.926081	2.04871																
		0.928043	2.04883																
		0.930006	2.04895																
		0.931968	2.04907																
		0.933929	2.04918																
		0.935891	2.0493																
		0.937853	2.04941																
		0.939814	2.04952																
		0.941775	2.04964																
		0.943736	2.04975																
		0.945697	2.04986																
		0.947657	2.04997																
		0.949618	2.05008																
		0.951578	2.05018																
		0.953538	2.05029																
		0.955497	2.0504																
		0.957457	2.0505																
		0.959417	2.05061																
		0.961376	2.05071																
		0.963335	2.05082																
		0.965294	2.05092																
		0.967253	2.05102																
		0.969211	2.05112																
		0.97117	2.05122																
		0.973128	2.05132																
		0.975086	2.05142																
		0.977044	2.05152																
		0.979001	2.05161																
		0.980959	2.05171																
		0.982916	2.05181																
		0.984873	2.0519																
		0.98683	2.05199																
		0.988787	2.05209																
		0.990744	2.05218																
		0.9927	2.05227																
		0.994657	2.05236																
		0.996613	2.05245																
		0.998569	2.05254																
		1.00052	2.05263																
