Sym0		Asym0		Sym1		Sym2		Sym3		Sym4		Asym1		Asym2		Asym3	
463  Points		494  Points		210  Points		177  Points		164  Points		115  Points		322  Points		189  Points		153  Points	
Freq (MHz)	Vph (m/ms)	Freq (MHz)	Vph (m/ms)	Freq (MHz)	Vph (m/ms)	Freq (MHz)	Vph (m/ms)	Freq (MHz)	Vph (m/ms)	Freq (MHz)	Vph (m/ms)	Freq (MHz)	Vph (m/ms)	Freq (MHz)	Vph (m/ms)	Freq (MHz)	Vph (m/ms)
0.00424854	5.79748	0.000373304	0.176838	0.279512	1094.78	0.485635	1373.1	0.559027	968.013	0.838533	1285.49	0.139794	253.456	0.41927	919.901	0.698788	761.892
0.00964982	5.79736	0.000772171	0.253779	0.279575	235.529	0.485656	377.832	0.559084	370.452	0.838569	529.399	0.140044	94.4172	0.41933	302.226	0.69884	377.982
0.0150505	5.79708	0.00130954	0.329494	0.27972	132.024	0.4857	219.073	0.559192	229.094	0.838635	333.361	0.140521	58.188	0.419449	180.862	0.698927	251.362
0.0204501	5.79667	0.00198073	0.403729	0.279947	91.7738	0.485768	154.272	0.559351	165.852	0.838732	243.295	0.141221	42.1979	0.419629	129.083	0.699049	188.308
0.0258485	5.79614	0.00277983	0.476179	0.280254	70.3787	0.485859	119.07	0.559561	130.001	0.838858	191.56	0.14214	33.2233	0.41987	100.386	0.699206	150.563
0.0312453	5.7955	0.0037003	0.546615	0.280643	57.1134	0.485975	96.9592	0.559822	106.918	0.839015	157.983	0.143273	27.4995	0.42017	82.1566	0.699398	125.438
0.03664	5.79472	0.00473496	0.614836	0.281113	48.0906	0.486114	81.7844	0.560133	90.8176	0.839202	134.434	0.144612	23.5458	0.42053	69.5556	0.699625	107.513
0.0420323	5.79382	0.00587638	0.6807	0.281662	41.5603	0.486278	70.7257	0.560495	78.95	0.839419	117.006	0.14615	20.6618	0.420949	60.3283	0.699886	94.0829
0.047422	5.79278	0.00711699	0.7441	0.28229	36.6189	0.486466	62.3096	0.560907	69.8422	0.839666	103.587	0.147878	18.4729	0.421428	53.2823	0.700182	83.6465
0.0528084	5.79162	0.00844907	0.804961	0.282997	32.7522	0.486679	55.6909	0.561368	62.6335	0.839943	92.9391	0.149787	16.7607	0.421966	47.7282	0.700514	75.3044
0.0581915	5.79032	0.00986518	0.86325	0.283782	29.6463	0.486918	50.3502	0.56188	56.7874	0.840249	84.2841	0.151869	15.3893	0.422563	43.239	0.700879	68.4846
0.0635706	5.7889	0.0113579	0.918949	0.284644	27.0987	0.487182	45.9505	0.562441	51.9521	0.840586	77.1113	0.154115	14.2696	0.423219	39.5368	0.70128	62.8059
0.0689455	5.78733	0.0129204	0.972091	0.285582	24.9729	0.487472	42.2638	0.563052	47.8873	0.840953	71.0706	0.156515	13.341	0.423933	36.4325	0.701715	58.0049
0.0743156	5.78563	0.0145459	1.0227	0.286594	23.1735	0.487788	39.1304	0.563711	44.4233	0.841349	65.914	0.159061	12.5605	0.424705	33.7931	0.702184	53.8931
0.0796807	5.78379	0.0162285	1.07086	0.287681	21.6317	0.488132	36.4348	0.564419	41.4367	0.841776	61.4613	0.161744	11.8971	0.425534	31.5222	0.702688	50.3326
0.0850401	5.7818	0.0179623	1.11661	0.28884	20.2969	0.488503	34.0916	0.565175	38.8358	0.842232	57.5777	0.164556	11.3276	0.426421	29.5486	0.703226	47.2199
0.0903936	5.77966	0.0197419	1.16005	0.290071	19.1309	0.488901	32.0364	0.565979	36.551	0.842718	54.1612	0.167106	10.8943	0.427365	27.818	0.703799	44.4758
0.0957405	5.77737	0.0215626	1.20127	0.291372	18.1043	0.489329	30.2195	0.56683	34.5285	0.843233	51.1325	0.169348	10.5638	0.428365	26.2888	0.704405	42.039
0.10108	5.77493	0.0234198	1.24036	0.292742	17.194	0.489785	28.6019	0.567729	32.7259	0.843778	48.4295	0.171248	10.3141	0.429421	24.9282	0.705046	39.8608
0.106413	5.77232	0.0253097	1.27742	0.29418	16.382	0.490271	27.153	0.568674	31.1096	0.844352	46.0024	0.172779	10.1302	0.430532	23.7103	0.70572	37.9024
0.111737	5.76955	0.0272284	1.31253	0.295684	15.6536	0.490788	25.8478	0.569666	29.6525	0.844956	43.8114	0.17392	10.0019	0.431698	22.6142	0.706428	36.1324
0.117053	5.76661	0.0291727	1.34581	0.297253	14.9969	0.491335	24.6663	0.570704	28.3325	0.845589	41.8238	0.174657	9.92278	0.432918	21.6228	0.70717	34.5251
0.12236	5.7635	0.0311396	1.37735	0.298885	14.4023	0.491915	23.5919	0.571787	27.1313	0.846252	40.0127	0.175725	9.8128	0.434193	20.7222	0.707945	33.0592
0.127656	5.7602	0.0331264	1.40724	0.300579	13.8616	0.492527	22.6109	0.572915	26.0339	0.846943	38.3557	0.176897	9.69808	0.43552	19.9006	0.708753	31.717
0.132943	5.75671	0.0351307	1.43557	0.302334	13.3682	0.493172	21.7119	0.574088	25.0276	0.847664	36.8342	0.178511	9.54965	0.436901	19.1485	0.709595	30.4837
0.138218	5.75304	0.0371505	1.46242	0.304148	12.9163	0.493851	20.8851	0.575305	24.1017	0.848414	35.4322	0.180583	9.3735	0.438333	18.4576	0.71047	29.3467
0.143481	5.74916	0.0391837	1.48789	0.30602	12.5011	0.494564	20.1224	0.576566	23.2471	0.849193	34.1365	0.183133	9.1762	0.439817	17.8209	0.711378	28.2953
0.148732	5.74508	0.0409652	1.50901	0.307948	12.1186	0.495313	19.4169	0.57787	22.4561	0.85	32.9354	0.186183	8.96431	0.441352	17.2325	0.712318	27.3202
0.153969	5.74078	0.0424901	1.52628	0.309931	11.7653	0.496099	18.7624	0.579217	21.722	0.850836	31.8191	0.189756	8.74411	0.442937	16.6874	0.713292	26.4137
0.159192	5.73625	0.0437552	1.54006	0.311967	11.4381	0.496922	18.1538	0.580606	21.039	0.851701	30.7791	0.193403	8.5453	0.444572	16.181	0.714297	25.5688
0.1644	5.73149	0.0447576	1.55064	0.314055	11.1343	0.497782	17.5867	0.582037	20.4021	0.852595	29.8077	0.19712	8.36516	0.446256	15.7096	0.715335	24.7795
0.169592	5.72648	0.045496	1.55826	0.315917	10.8869	0.498682	17.057	0.58351	19.8068	0.853517	28.8986	0.200902	8.2014	0.447988	15.2697	0.716405	24.0407
0.174767	5.72123	0.0459691	1.56306	0.317533	10.6877	0.499621	16.5613	0.585023	19.2494	0.854467	28.0461	0.204746	8.05204	0.449768	14.8585	0.717507	23.3477
0.179923	5.7157	0.0466498	1.56987	0.31889	10.5305	0.5006	16.0967	0.586578	18.7265	0.855445	27.245	0.208647	7.91543	0.451595	14.4734	0.718641	22.6965
0.185061	5.7099	0.0473906	1.57714	0.319976	10.4108	0.501621	15.6603	0.588172	18.235	0.856452	26.491	0.212602	7.79013	0.453468	14.1121	0.719806	22.0835
0.190177	5.70382	0.0483994	1.58681	0.320782	10.3252	0.502685	15.25	0.589806	17.7723	0.857486	25.78	0.216608	7.6749	0.455387	13.7724	0.721003	21.5055
0.195273	5.69743	0.0496774	1.59871	0.3213	10.2715	0.503791	14.8634	0.591479	17.336	0.858549	25.1087	0.220662	7.56868	0.457351	13.4528	0.72223	20.9596
0.200345	5.69072	0.0512257	1.61262	0.32205	10.1957	0.504942	14.4988	0.593191	16.924	0.859639	24.4737	0.224761	7.47054	0.45936	13.1514	0.723489	20.4434
0.205393	5.68368	0.0530455	1.62829	0.322871	10.1151	0.506137	14.1545	0.594942	16.5345	0.860756	23.8723	0.228902	7.37965	0.461411	12.867	0.724779	19.9545
0.210414	5.6763	0.0551379	1.64546	0.323997	10.0085	0.507378	13.8289	0.59673	16.1656	0.861902	23.3019	0.233083	7.2953	0.463506	12.5981	0.726099	19.4909
0.215409	5.66856	0.057234	1.66181	0.325436	9.87831	0.508666	13.5206	0.598556	15.8158	0.863074	22.7603	0.237301	7.21688	0.465643	12.3436	0.727449	19.0507
0.220374	5.66043	0.0593333	1.67739	0.327199	9.72745	0.510002	13.2285	0.600418	15.4839	0.864274	22.2454	0.241554	7.14381	0.467822	12.1024	0.72883	18.6322
0.225308	5.65191	0.0614352	1.69223	0.329297	9.55912	0.511386	12.9514	0.602318	15.1684	0.865501	21.7553	0.245841	7.07562	0.470042	11.8736	0.73024	18.234
0.230209	5.64298	0.0635393	1.7064	0.331746	9.37661	0.512819	12.6883	0.604253	14.8683	0.866754	21.2882	0.250158	7.01186	0.472301	11.6564	0.731681	17.8546
0.235076	5.63361	0.0656453	1.71992	0.334238	9.20464	0.514302	12.4383	0.606224	14.5825	0.868035	20.8427	0.254505	6.95215	0.474601	11.4499	0.73315	17.4927
0.239905	5.62378	0.0677526	1.73284	0.336772	9.0424	0.515836	12.2005	0.608231	14.31	0.869342	20.4174	0.258879	6.89612	0.476939	11.2533	0.73465	17.1473
0.244696	5.61348	0.0698611	1.74518	0.339346	8.88916	0.517422	11.9741	0.610272	14.0501	0.870676	20.0108	0.263279	6.84349	0.479007	11.0897	0.736178	16.8173
0.249445	5.60268	0.0719705	1.75698	0.341962	8.74426	0.51906	11.7585	0.612348	13.8018	0.872036	19.6219	0.267704	6.79395	0.480793	10.9555	0.737735	16.5016
0.254151	5.59137	0.0740804	1.76827	0.344618	8.60712	0.520752	11.553	0.614458	13.5645	0.873423	19.2496	0.272151	6.74727	0.482286	10.848	0.73932	16.1995
0.258811	5.57952	0.0761909	1.77908	0.347314	8.4772	0.522497	11.357	0.616602	13.3375	0.874835	18.8927	0.276619	6.70321	0.483475	10.7652	0.740934	15.91
0.263422	5.56711	0.0783016	1.78943	0.35005	8.35401	0.524062	11.1935	0.618779	13.1202	0.876274	18.5506	0.281107	6.66156	0.484356	10.7055	0.742576	15.6326
0.267982	5.55411	0.0804125	1.79936	0.352827	8.23712	0.525429	11.0592	0.620989	12.912	0.877738	18.2222	0.285613	6.62214	0.484922	10.6678	0.744246	15.3663
0.272488	5.54052	0.0825233	1.80888	0.355644	8.12613	0.526583	10.9515	0.623231	12.7124	0.879228	17.9067	0.290137	6.58479	0.485738	10.6143	0.745944	15.1107
0.276938	5.5263	0.0846339	1.81802	0.358501	8.02068	0.52751	10.8685	0.625506	12.5208	0.880744	17.6036	0.294677	6.54934	0.48663	10.557	0.747669	14.8651
0.281328	5.51144	0.0867445	1.82679	0.3614	7.92043	0.5282	10.8086	0.627812	12.3369	0.882285	17.312	0.299232	6.51565	0.487851	10.4806	0.749421	14.6289
0.285656	5.49593	0.0888546	1.83522	0.364341	7.8251	0.528646	10.7708	0.63015	12.1602	0.883851	17.0313	0.303801	6.4836	0.489406	10.3863	0.751201	14.4017
0.28992	5.47973	0.0909644	1.84333	0.367325	7.73441	0.529291	10.7171	0.632519	11.9903	0.885442	16.7611	0.308383	6.45307	0.491305	10.2757	0.753007	14.183
0.294117	5.46286	0.0930738	1.85112	0.370352	7.64811	0.53	10.6596	0.634918	11.8269	0.887058	16.5007	0.312976	6.42395	0.493556	10.1504	0.754839	13.9724
0.298244	5.44528	0.0951828	1.85863	0.373423	7.56596	0.530975	10.5829	0.637348	11.6697	0.888698	16.2496	0.317581	6.39614	0.496171	10.0123	0.756698	13.7693
0.302299	5.427	0.0972912	1.86585	0.37654	7.48777	0.532228	10.4883	0.639808	11.5182	0.890363	16.0073	0.322195	6.36956	0.498819	9.88	0.758583	13.5735
0.30628	5.40801	0.0993991	1.87281	0.379704	7.41334	0.533771	10.3771	0.641976	11.3907	0.892053	15.7735	0.326818	6.3441	0.5015	9.75311	0.760494	13.3845
0.310185	5.38832	0.101506	1.87952	0.382916	7.34249	0.535622	10.2513	0.643841	11.2853	0.893766	15.5476	0.33145	6.31971	0.504213	9.63136	0.76243	13.2021
0.314012	5.36791	0.103613	1.886	0.386178	7.27506	0.5378	10.1127	0.645396	11.2002	0.895504	15.3294	0.336088	6.29631	0.506957	9.51445	0.764391	13.0259
0.317759	5.34681	0.105719	1.89225	0.38949	7.21089	0.540035	9.97987	0.646633	11.1342	0.897266	15.1184	0.340734	6.27383	0.509732	9.40212	0.766377	12.8557
0.321426	5.32503	0.107825	1.89828	0.392854	7.14985	0.542329	9.85262	0.647547	11.0864	0.899051	14.9144	0.345385	6.2522	0.512537	9.29414	0.768389	12.6911
0.325011	5.30258	0.10993	1.9041	0.396272	7.0918	0.544681	9.73064	0.648134	11.0561	0.90086	14.7169	0.35004	6.23139	0.515372	9.19028	0.770424	12.5318
0.328514	5.27948	0.112034	1.90973	0.399744	7.0366	0.547091	9.61368	0.64898	11.0131	0.902693	14.5258	0.3547	6.21132	0.518236	9.09032	0.772485	12.3778
0.331935	5.25576	0.114138	1.91518	0.403271	6.98415	0.549559	9.50149	0.649903	10.9668	0.904548	14.3406	0.359363	6.19195	0.521129	8.99407	0.774569	12.2286
0.335274	5.23145	0.116241	1.92044	0.406854	6.93432	0.552086	9.39385	0.651165	10.9048	0.906427	14.1612	0.364029	6.17324	0.524049	8.90135	0.776677	12.0841
0.338531	5.20658	0.118344	1.92554	0.410495	6.887	0.55467	9.29054	0.652769	10.8279	0.908328	13.9874	0.368696	6.15515	0.526998	8.81197	0.778808	11.9442
0.341707	5.18118	0.120446	1.93048	0.414192	6.84208	0.557312	9.19135	0.654724	10.7371	0.910252	13.8187	0.373365	6.13762	0.529973	8.72578	0.780963	11.8085
0.344803	5.1553	0.122547	1.93526	0.417947	6.79947	0.560011	9.09611	0.657037	10.6334	0.912199	13.6551	0.378035	6.12064	0.532975	8.64263	0.78286	11.6936
0.34782	5.12897	0.124648	1.93989	0.42176	6.75905	0.562768	9.00461	0.659716	10.5182	0.914168	13.4964	0.382704	6.10415	0.536003	8.56237	0.784491	11.5981
0.350761	5.10223	0.126748	1.94438	0.42563	6.72072	0.565581	8.9167	0.662423	10.4067	0.91616	13.3423	0.387372	6.08814	0.539057	8.48487	0.785849	11.5207
0.353626	5.07512	0.128848	1.94874	0.429557	6.68438	0.568451	8.8322	0.665156	10.2989	0.918173	13.1926	0.392038	6.07256	0.542136	8.41	0.786929	11.4605
0.356418	5.0477	0.130947	1.95297	0.433539	6.64994	0.571376	8.75098	0.667917	10.1946	0.920208	13.0471	0.396703	6.05739	0.545239	8.33764	0.787726	11.4167
0.359139	5.02	0.133045	1.95707	0.437576	6.61729	0.574356	8.67287	0.670703	10.0936	0.922265	12.9058	0.401364	6.0426	0.548367	8.26768	0.788238	11.389
0.361454	4.99566	0.135143	1.96106	0.441666	6.58635	0.577391	8.59774	0.673515	9.99577	0.924343	12.7684	0.406022	6.02817	0.551519	8.20002	0.788976	11.3495
0.363387	4.97479	0.137241	1.96493	0.445809	6.55702	0.58048	8.52545	0.676354	9.90099	0.926443	12.6348	0.410675	6.01407	0.554695	8.13455	0.78978	11.3069
0.364958	4.95746	0.139338	1.96869	0.450002	6.52922	0.583622	8.45589	0.679217	9.80913	0.928564	12.5049	0.415324	6.00028	0.557894	8.07118	0.790879	11.2498
0.366184	4.94372	0.141435	1.97235	0.454243	6.50285	0.586816	8.38893	0.682106	9.72006	0.930706	12.3784	0.419967	5.98678	0.561116	8.00983	0.792276	11.1786
0.367076	4.93359	0.143531	1.97591	0.45853	6.47783	0.590062	8.32445	0.68502	9.63368	0.932868	12.2553	0.424604	5.97354	0.56436	7.9504	0.793977	11.0943
0.367642	4.92711	0.145626	1.97937	0.462862	6.45407	0.593359	8.26236	0.687959	9.54988	0.935052	12.1354	0.429234	5.96055	0.567627	7.89283	0.795988	10.9976
0.368451	4.91777	0.147722	1.98274	0.467237	6.43151	0.596705	8.20254	0.690923	9.46856	0.936971	12.0336	0.433857	5.94779	0.570915	7.83702	0.798315	10.8896
0.369323	4.90761	0.149816	1.98602	0.471651	6.41007	0.600101	8.1449	0.69391	9.38961	0.938619	11.9485	0.438472	5.93524	0.574225	7.78292	0.800663	10.7846
0.370497	4.89378	0.151911	1.98922	0.476103	6.38966	0.603544	8.08934	0.696922	9.31296	0.939991	11.8794	0.443077	5.92289	0.577557	7.73046	0.803033	10.6824
0.371962	4.87627	0.154005	1.99233	0.48059	6.37024	0.607034	8.03578	0.699958	9.2385	0.941081	11.8256	0.447674	5.91072	0.58091	7.67957	0.805424	10.5831
0.373705	4.85507	0.156098	1.99536	0.485111	6.35172	0.610571	7.98412	0.703017	9.16616	0.941885	11.7864	0.45226	5.89871	0.584283	7.63018	0.807835	10.4864
0.375711	4.83019	0.158191	1.99832	0.489663	6.33405	0.614152	7.93429	0.7061	9.09587	0.942401	11.7615	0.456835	5.88685	0.587678	7.58226	0.810267	10.3923
0.377964	4.80164	0.160284	2.0012	0.494244	6.31718	0.617778	7.88621	0.709206	9.02753	0.943145	11.726	0.461399	5.87512	0.591092	7.53573	0.81272	10.3006
0.380168	4.77313	0.162376	2.00401	0.498852	6.30104	0.621447	7.8398	0.712336	8.96109	0.943956	11.6877	0.465951	5.86352	0.594527	7.49055	0.815192	10.2114
0.382323	4.74469	0.164468	2.00676	0.503485	6.28558	0.625158	7.79499	0.715488	8.89648	0.945063	11.6362	0.47049	5.85203	0.597982	7.44666	0.817684	10.1244
0.384433	4.71634	0.16656	2.00944	0.508141	6.27077	0.62891	7.75172	0.718663	8.83362	0.946469	11.572	0.475016	5.84063	0.601457	7.40403	0.820196	10.0397
0.386499	4.68811	0.168651	2.01205	0.512817	6.25654	0.632702	7.70993	0.721861	8.77246	0.94818	11.4956	0.479527	5.82933	0.604952	7.36261	0.822728	9.95715
0.388524	4.66001	0.170742	2.0146	0.517513	6.24287	0.636533	7.66954	0.725082	8.71295	0.9502	11.4078	0.484024	5.8181	0.608467	7.32235	0.825279	9.87666
0.39051	4.63207	0.172833	2.0171	0.522227	6.22971	0.640403	7.6305	0.728324	8.65502	0.952537	11.3094	0.488505	5.80693	0.612001	7.28322	0.827849	9.79816
0.392459	4.6043	0.174924	2.01954	0.526956	6.21703	0.644309	7.59275	0.73159	8.59862	0.954893	11.2133	0.492971	5.79582	0.615554	7.24518	0.830438	9.7216
0.394372	4.57672	0.177014	2.02192	0.531699	6.20479	0.648251	7.55624	0.734877	8.5437	0.957268	11.1195	0.497419	5.78475	0.619127	7.20818	0.833045	9.64691
0.396252	4.54935	0.179103	2.02425	0.536455	6.19295	0.652228	7.52092	0.738187	8.49021	0.959661	11.028	0.50185	5.77372	0.622719	7.17221	0.835672	9.57403
0.3981	4.52219	0.181193	2.02652	0.541222	6.1815	0.656239	7.48674	0.741518	8.43811	0.962074	10.9386	0.506262	5.76271	0.62633	7.13721	0.838316	9.50289
0.399918	4.49527	0.183282	2.02875	0.545999	6.1704	0.660283	7.45365	0.744872	8.38734	0.964505	10.8513	0.510656	5.75173	0.62996	7.10317	0.840979	9.43344
0.401708	4.46858	0.185371	2.03093	0.550785	6.15962	0.664359	7.4216	0.748247	8.33788	0.966954	10.766	0.51503	5.74075	0.63361	7.07004	0.84366	9.36564
0.40347	4.44215	0.18746	2.03306	0.555577	6.14915	0.668466	7.39056	0.751644	8.28967	0.969422	10.6827	0.519384	5.72978	0.637279	7.03781	0.846359	9.29941
0.405207	4.41597	0.189548	2.03514	0.560376	6.13896	0.672603	7.36048	0.755063	8.24268	0.971907	10.6012	0.523717	5.7188	0.640966	7.00644	0.849076	9.23473
0.40692	4.39006	0.191637	2.03719	0.56518	6.12903	0.676768	7.33132	0.758504	8.19687	0.97441	10.5216	0.528028	5.70781	0.644673	6.97591	0.85181	9.17153
0.40861	4.36442	0.193725	2.03919	0.569988	6.11934	0.680962	7.30304	0.761967	8.15221	0.976931	10.4437	0.532317	5.6968	0.648398	6.94619	0.854561	9.10977
0.410278	4.33906	0.195812	2.04114	0.574798	6.10987	0.685183	7.27561	0.765451	8.10866	0.97947	10.3676	0.536584	5.68576	0.652142	6.91727	0.85733	9.04941
0.411926	4.31398	0.1979	2.04306	0.579611	6.10061	0.689431	7.249	0.768957	8.06619	0.982026	10.2932	0.540826	5.67469	0.655906	6.8891	0.860116	8.9904
0.413554	4.28918	0.199987	2.04494	0.584425	6.09154	0.693703	7.22316	0.772485	8.02477	0.984599	10.2203	0.545045	5.66359	0.659688	6.86168	0.862919	8.9327
0.415164	4.26468	0.202074	2.04678	0.589238	6.08264	0.698	7.19807	0.776035	7.98437	0.987189	10.1491	0.549239	5.65244	0.663489	6.83498	0.865739	8.87629
0.416758	4.24046	0.204161	2.04859	0.594051	6.07391	0.70232	7.17369	0.779607	7.94496	0.989797	10.0793	0.553407	5.64125	0.667309	6.80898	0.868576	8.8211
0.418334	4.21653	0.206248	2.05036	0.598863	6.06532	0.706662	7.15	0.783201	7.90651	0.99242	10.0111	0.557549	5.63001	0.671147	6.78366	0.871429	8.76712
0.419896	4.19289	0.208334	2.05209	0.603672	6.05688	0.711026	7.12697	0.786816	7.869	0.995061	9.94423	0.561665	5.6187	0.675005	6.759	0.874298	8.71431
0.421443	4.16955	0.210421	2.0538	0.608478	6.04856	0.715411	7.10457	0.790454	7.8324	0.997718	9.8788	0.565753	5.60734	0.678881	6.73498	0.877184	8.66263
0.422977	4.14651	0.212507	2.05547	0.613281	6.04035	0.719815	7.08278	0.794114	7.79669	1.00039	9.81473	0.569814	5.59592	0.682776	6.71158	0.880086	8.61205
0.424498	4.12375	0.214593	2.0571	0.618079	6.03226	0.724238	7.06156	0.797797	7.76185			0.573847	5.58442	0.68669	6.68879	0.883005	8.56254
0.426007	4.10129	0.216679	2.05871	0.622872	6.02426	0.72868	7.04091	0.801502	7.72784			0.577851	5.57286	0.690622	6.66659	0.885939	8.51407
0.427505	4.07912	0.218764	2.06029	0.627659	6.01635	0.733138	7.02078	0.80523	7.69466			0.581825	5.56122	0.694572	6.64497	0.888889	8.46662
0.428992	4.05724	0.22085	2.06184	0.632441	6.00852	0.737612	7.00116	0.80898	7.66228			0.58577	5.54951	0.698541	6.62389	0.891855	8.42014
0.430469	4.03565	0.222935	2.06336	0.637215	6.00076	0.742102	6.98203	0.812754	7.63069			0.589685	5.53772	0.702529	6.60337	0.894836	8.37462
0.431937	4.01435	0.22502	2.06485	0.641982	5.99307	0.746606	6.96337	0.81655	7.59985			0.59357	5.52585	0.706534	6.58336	0.897833	8.33004
0.433397	3.99334	0.227105	2.06632	0.646742	5.98544	0.751124	6.94515	0.82037	7.56977			0.597423	5.5139	0.710558	6.56387	0.900846	8.28636
0.434848	3.97261	0.22919	2.06776	0.651493	5.97787	0.755654	6.92737	0.824214	7.54041			0.601246	5.50187	0.714599	6.54487	0.903873	8.24356
0.436292	3.95216	0.231275	2.06917	0.656235	5.97034	0.760197	6.90999	0.828082	7.51176			0.605037	5.48975	0.718658	6.52635	0.906916	8.20162
0.437728	3.93198	0.233359	2.07056	0.660968	5.96286	0.76475	6.893	0.831973	7.48381			0.608796	5.47755	0.722734	6.50831	0.909975	8.16052
0.439158	3.91209	0.235444	2.07193	0.665691	5.95541	0.769314	6.87639	0.835889	7.45654			0.612523	5.46527	0.726828	6.49072	0.913048	8.12024
0.440582	3.89247	0.237528	2.07327	0.670404	5.94799	0.773887	6.86014	0.839829	7.42994			0.616218	5.45291	0.730939	6.47356	0.916137	8.08075
0.442	3.87312	0.239612	2.07459	0.675106	5.9406	0.778469	6.84423	0.843794	7.40399			0.61988	5.44047	0.735066	6.45684	0.91924	8.04203
0.443413	3.85403	0.241696	2.07589	0.679797	5.93324	0.783058	6.82864	0.847785	7.37868			0.62351	5.42794	0.73921	6.44053	0.922358	8.00407
0.444822	3.83521	0.24378	2.07717	0.684476	5.9259	0.787655	6.81337	0.8518	7.354			0.627107	5.41533	0.743371	6.42463	0.925491	7.96684
0.446225	3.81666	0.245864	2.07842	0.689144	5.91857	0.792257	6.79839	0.855841	7.32993			0.630671	5.40264	0.747547	6.40911	0.928639	7.93034
0.447625	3.79836	0.247947	2.07966	0.6938	5.91125	0.796865	6.78369	0.859908	7.30646			0.634203	5.38987	0.751738	6.39397	0.931801	7.89453
0.449021	3.78032	0.250031	2.08087	0.698443	5.90394	0.801478	6.76927	0.864001	7.28357			0.637701	5.37703	0.755945	6.3792	0.934978	7.8594
0.450413	3.76253	0.252114	2.08207	0.703073	5.89664	0.806094	6.7551	0.868121	7.26127			0.641167	5.36411	0.760167	6.36479	0.938169	7.82495
0.451803	3.74499	0.254198	2.08324	0.707689	5.88934	0.810713	6.74118	0.872267	7.23953			0.644599	5.35112	0.764403	6.35072	0.941375	7.79114
0.453189	3.72769	0.256281	2.0844	0.712292	5.88204	0.815335	6.72749	0.87644	7.21835			0.647999	5.33805	0.768654	6.33698	0.944595	7.75797
0.454573	3.71064	0.258364	2.08554	0.716881	5.87473	0.819959	6.71403	0.88064	7.19771			0.651366	5.32492	0.772918	6.32356	0.947829	7.72542
0.455955	3.69383	0.260447	2.08666	0.721455	5.86742	0.824583	6.70077	0.884868	7.17761			0.6547	5.31172	0.777195	6.31045	0.951078	7.69347
0.457335	3.67725	0.26253	2.08776	0.726015	5.8601	0.829208	6.68772	0.889123	7.15803			0.658001	5.29845	0.781485	6.29764	0.95434	7.66212
0.458713	3.6609	0.264613	2.08885	0.73056	5.85277	0.833832	6.67486	0.893406	7.13896			0.66127	5.28512	0.785788	6.28512	0.957617	7.63134
0.46009	3.64479	0.266695	2.08992	0.73509	5.84543	0.838456	6.66219	0.897717	7.1204			0.664507	5.27173	0.790102	6.27289	0.960908	7.60113
0.461465	3.6289	0.268778	2.09097	0.739604	5.83807	0.843078	6.64969	0.902056	7.10233			0.667711	5.25829	0.794428	6.26092	0.964212	7.57147
0.462839	3.61323	0.270861	2.09201	0.744102	5.83069	0.847699	6.63735	0.906424	7.08475			0.670884	5.24479	0.798765	6.24921	0.967531	7.54234
0.464213	3.59779	0.272943	2.09304	0.748584	5.8233	0.852316	6.62518	0.910819	7.06763			0.674025	5.23124	0.803112	6.23775	0.970863	7.51375
0.465585	3.58256	0.275025	2.09404	0.753049	5.81589	0.856931	6.61316	0.915243	7.05099			0.677134	5.21765	0.807469	6.22654	0.97421	7.48567
0.466958	3.56754	0.277108	2.09503	0.757498	5.80845	0.861543	6.60128	0.919696	7.03479			0.680212	5.20401	0.811836	6.21556	0.977569	7.45809
0.46833	3.55273	0.27919	2.09601	0.76193	5.80099	0.866151	6.58954	0.924177	7.01905			0.68326	5.19032	0.816212	6.2048	0.980943	7.43101
0.469702	3.53813	0.281272	2.09698	0.766344	5.7935	0.870754	6.57794	0.928686	7.00373			0.686276	5.1766	0.820597	6.19426	0.98433	7.40441
0.471073	3.52374	0.283354	2.09793	0.770741	5.78599	0.875353	6.56647	0.933224	6.98885			0.689262	5.16284	0.824989	6.18393	0.987731	7.37828
0.472446	3.50954	0.285436	2.09886	0.775121	5.77845	0.879948	6.55512	0.937789	6.97438			0.692219	5.14905	0.829389	6.17379	0.991145	7.35261
0.473818	3.49555	0.287518	2.09978	0.779482	5.77088	0.884538	6.54389	0.942383	6.96031			0.695145	5.13523	0.833796	6.16385	0.994572	7.32739
0.475191	3.48174	0.289599	2.10069	0.783825	5.76328	0.889122	6.53278	0.947005	6.94665			0.698042	5.12138	0.83821	6.15409	0.998013	7.30261
0.476564	3.46813	0.291681	2.10159	0.78815	5.75565	0.893702	6.52178	0.951654	6.93336			0.70091	5.10751	0.84263	6.14451	1.00147	7.27827
0.477939	3.45471	0.293763	2.10248	0.792456	5.74799	0.898276	6.51089	0.956331	6.92046			0.703749	5.09362	0.847055	6.1351		
0.479314	3.44147	0.295844	2.10335	0.796744	5.7403	0.902845	6.50011	0.961034	6.90792			0.70656	5.07971	0.851486	6.12585		
0.48069	3.42841	0.297926	2.10421	0.801012	5.73257	0.907408	6.48944	0.965765	6.89575			0.709342	5.06578	0.855921	6.11675		
0.482067	3.41554	0.300007	2.10506	0.805261	5.72481	0.911966	6.47886	0.970521	6.88392			0.712097	5.05184	0.86036	6.10781		
0.483445	3.40284	0.302089	2.10589	0.809491	5.71701	0.916518	6.46839	0.975304	6.87242			0.714825	5.03789	0.864802	6.09901		
0.484825	3.39032	0.30417	2.10672	0.813701	5.70918	0.921065	6.45802	0.980113	6.86126			0.717526	5.02394	0.869248	6.09035		
0.486205	3.37797	0.306251	2.10753	0.817891	5.70131	0.925607	6.44775	0.984946	6.85041			0.7202	5.00998	0.873697	6.08181		
0.487588	3.36578	0.308332	2.10834	0.822062	5.6934	0.930144	6.43757	0.989804	6.83988			0.722847	4.99602	0.878147	6.0734		
0.488972	3.35377	0.310413	2.10913	0.826212	5.68546	0.934676	6.42749	0.994686	6.82965			0.725469	4.98206	0.8826	6.06512		
0.490357	3.34191	0.312494	2.10991	0.830343	5.67748	0.939203	6.4175	0.999592	6.8197			0.728066	4.9681	0.887053	6.05694		
0.491744	3.33022	0.314575	2.11069	0.834453	5.66947	0.943726	6.40761	1.00452	6.81004			0.730637	4.95415	0.891508	6.04888		
0.493133	3.31869	0.316656	2.11145	0.838542	5.66142	0.948244	6.39782					0.733184	4.94021	0.895963	6.04091		
0.494524	3.30731	0.318737	2.1122	0.842611	5.65333	0.952758	6.38811					0.735706	4.92628	0.900417	6.03305		
0.495916	3.29609	0.320818	2.11295	0.84666	5.6452	0.957267	6.37851					0.738205	4.91236	0.904872	6.02528		
0.497311	3.28501	0.322899	2.11368	0.850687	5.63703	0.961773	6.36899					0.740679	4.89846	0.909325	6.0176		
0.498708	3.27409	0.324979	2.1144	0.854694	5.62883	0.966275	6.35957					0.743131	4.88457	0.913777	6.01001		
0.500106	3.26331	0.32706	2.11512	0.858679	5.62059	0.970774	6.35024					0.74556	4.87071	0.918227	6.00249		
0.501507	3.25268	0.329141	2.11583	0.862644	5.61232	0.97527	6.341					0.747966	4.85687	0.922675	5.99506		
0.50291	3.24218	0.331221	2.11652	0.866587	5.604	0.979762	6.33185					0.75035	4.84305	0.92712	5.98769		
0.504315	3.23183	0.333301	2.11721	0.87051	5.59565	0.984252	6.3228					0.752713	4.82926	0.931562	5.98039		
0.505723	3.22161	0.335382	2.11789	0.874411	5.58727	0.988739	6.31383					0.755054	4.81549	0.936001	5.97316		
0.507133	3.21153	0.337462	2.11857	0.87829	5.57885	0.993224	6.30496					0.757374	4.80176	0.940436	5.96599		
0.508545	3.20159	0.339543	2.11923	0.882149	5.57039	0.997706	6.29617					0.759674	4.78806	0.944867	5.95888		
0.509959	3.19177	0.341623	2.11989	0.885986	5.5619	1.00219	6.28748					0.761954	4.77439	0.949293	5.95182		
0.511376	3.18208	0.343703	2.12054	0.889802	5.55337							0.764213	4.76075	0.953714	5.94482		
0.512795	3.17252	0.345783	2.12118	0.893596	5.54481							0.766453	4.74716	0.95813	5.93786		
0.514217	3.16308	0.347863	2.12181	0.897369	5.53622							0.768674	4.7336	0.96254	5.93095		
0.515641	3.15377	0.349944	2.12244	0.901121	5.52759							0.770877	4.72008	0.966945	5.92408		
0.517068	3.14458	0.352024	2.12306	0.904851	5.51893							0.773061	4.7066	0.971343	5.91724		
0.518498	3.13551	0.354104	2.12367	0.90856	5.51024							0.775226	4.69316	0.975734	5.91045		
0.51993	3.12655	0.356184	2.12427	0.912248	5.50151							0.777374	4.67977	0.980118	5.90369		
0.521364	3.11771	0.358263	2.12487	0.915914	5.49276							0.779505	4.66642	0.984495	5.89696		
0.522801	3.10898	0.360343	2.12546	0.919559	5.48398							0.781618	4.65312	0.988865	5.89026		
0.524241	3.10037	0.362423	2.12604	0.923182	5.47517							0.783715	4.63987	0.993226	5.88358		
0.525684	3.09186	0.364503	2.12662	0.926784	5.46633							0.785796	4.62667	0.997579	5.87693		
0.527129	3.08346	0.366583	2.12719	0.930366	5.45746							0.78786	4.61351	1.00192	5.87031		
0.528577	3.07517	0.368662	2.12776	0.933926	5.44856							0.789909	4.60041				
0.530027	3.06699	0.370742	2.12832	0.937465	5.43964							0.791942	4.58736				
0.531481	3.05891	0.372822	2.12887	0.940983	5.4307							0.79396	4.57436				
0.532937	3.05093	0.374901	2.12941	0.94448	5.42173							0.795963	4.56142				
0.534395	3.04305	0.376981	2.12995	0.947956	5.41273							0.797952	4.54853				
0.535857	3.03527	0.37906	2.13049	0.951411	5.40371							0.799926	4.5357				
0.537321	3.02758	0.38114	2.13102	0.954846	5.39467							0.801887	4.52292				
0.538788	3.01999	0.383219	2.13154	0.95826	5.38561							0.803834	4.5102				
0.540258	3.0125	0.385299	2.13206	0.961653	5.37653							0.805768	4.49754				
0.54173	3.0051	0.387378	2.13257	0.965026	5.36743							0.807688	4.48493				
0.543206	2.99779	0.389458	2.13308	0.968378	5.35831							0.809596	4.47239				
0.544684	2.99057	0.391537	2.13358	0.97171	5.34917							0.811491	4.45991				
0.546165	2.98344	0.393616	2.13407	0.975022	5.34001							0.813375	4.44748				
0.547648	2.97639	0.395696	2.13456	0.978314	5.33084							0.815246	4.43512				
0.549135	2.96944	0.397775	2.13505	0.981586	5.32165							0.817106	4.42282				
0.550624	2.96256	0.399854	2.13553	0.984838	5.31245							0.818954	4.41058				
0.552116	2.95577	0.401933	2.13601	0.98807	5.30323							0.820791	4.3984				
0.553611	2.94907	0.404012	2.13648	0.991282	5.294							0.822617	4.38629				
0.555108	2.94244	0.406091	2.13694	0.994475	5.28475							0.824432	4.37424				
0.556608	2.93589	0.40817	2.1374	0.997648	5.2755							0.826237	4.36225				
0.558112	2.92943	0.410249	2.13786	1.0008	5.26623							0.828032	4.35033				
0.559617	2.92304	0.412329	2.13831									0.829817	4.33847				
0.561126	2.91672	0.414408	2.13876									0.831592	4.32668				
0.562637	2.91048	0.416486	2.1392									0.833358	4.31495				
0.564152	2.90432	0.418565	2.13964									0.835115	4.30328				
0.565669	2.89822	0.420644	2.14008									0.836862	4.29168				
0.567188	2.8922	0.422723	2.14051									0.838601	4.28015				
0.568711	2.88626	0.424802	2.14093									0.840331	4.26868				
0.570236	2.88038	0.426881	2.14135									0.842052	4.25727				
0.571764	2.87457	0.42896	2.14177									0.843766	4.24594				
0.573294	2.86882	0.431038	2.14219									0.845471	4.23466				
0.574828	2.86315	0.433117	2.1426									0.847169	4.22346				
0.576364	2.85754	0.435196	2.143									0.848858	4.21232				
0.577902	2.85199	0.437275	2.14341									0.850541	4.20124				
0.579444	2.84651	0.439353	2.1438									0.852216	4.19023				
0.580988	2.84109	0.441432	2.1442									0.853884	4.17929				
0.582535	2.83574	0.443511	2.14459									0.855546	4.16841				
0.584084	2.83044	0.445589	2.14498									0.8572	4.1576				
0.585636	2.82521	0.447668	2.14536									0.858848	4.14686				
0.587191	2.82003	0.449746	2.14574									0.86049	4.13618				
0.588748	2.81492	0.451825	2.14612									0.862126	4.12556				
0.590308	2.80986	0.453903	2.14649									0.863755	4.11501				
0.591871	2.80486	0.455982	2.14686									0.865379	4.10453				
0.593436	2.79991	0.45806	2.14723									0.866996	4.09411				
0.595004	2.79502	0.460139	2.14759									0.868609	4.08376				
0.596574	2.79019	0.462217	2.14795									0.870216	4.07347				
0.598147	2.78541	0.464296	2.14831									0.871817	4.06324				
0.599723	2.78068	0.466374	2.14866									0.873414	4.05308				
0.601301	2.77601	0.468452	2.14901									0.875005	4.04299				
0.602882	2.77138	0.470531	2.14936									0.876592	4.03296				
0.604465	2.76681	0.472609	2.14971									0.878173	4.02299				
0.606051	2.76229	0.474687	2.15005									0.879751	4.01309				
0.607639	2.75782	0.476766	2.15039									0.881323	4.00325				
0.60923	2.75339	0.478844	2.15072									0.882892	3.99347				
0.610823	2.74902	0.480922	2.15106									0.884456	3.98376				
0.612419	2.74469	0.483	2.15139									0.886016	3.97411				
0.614017	2.74041	0.485078	2.15171									0.887572	3.96452				
0.615617	2.73618	0.487157	2.15204									0.889125	3.955				
0.61722	2.73199	0.489235	2.15236									0.890673	3.94553				
0.618826	2.72784	0.491313	2.15268									0.892218	3.93613				
0.620434	2.72375	0.493391	2.15299									0.89376	3.92679				
0.622044	2.71969	0.495469	2.15331									0.895298	3.91751				
0.623657	2.71568	0.497547	2.15362									0.896832	3.90829				
0.625272	2.71171	0.499625	2.15393									0.898364	3.89914				
0.626889	2.70778	0.501703	2.15423									0.899892	3.89004				
0.628509	2.7039	0.503781	2.15454									0.901417	3.881				
0.630131	2.70006	0.505859	2.15484									0.90294	3.87202				
0.631755	2.69625	0.507937	2.15514									0.90446	3.86311				
0.633382	2.69249	0.510015	2.15543									0.905976	3.85425				
0.635011	2.68876	0.512093	2.15573									0.907491	3.84545				
0.636642	2.68508	0.514171	2.15602									0.909002	3.83671				
0.638276	2.68143	0.516249	2.15631									0.910512	3.82802				
0.639912	2.67782	0.518327	2.15659									0.912019	3.8194				
0.64155	2.67425	0.520405	2.15688									0.913523	3.81083				
0.64319	2.67072	0.522483	2.15716									0.915026	3.80232				
0.644833	2.66722	0.524561	2.15744									0.916526	3.79386				
0.646478	2.66376	0.526639	2.15772									0.918024	3.78547				
0.648125	2.66033	0.528717	2.15799									0.91952	3.77713				
0.649774	2.65694	0.530794	2.15827									0.921015	3.76884				
0.651426	2.65358	0.532872	2.15854									0.922507	3.76061				
0.653079	2.65026	0.53495	2.15881									0.923998	3.75243				
0.654735	2.64697	0.537028	2.15907									0.925487	3.74431				
0.656393	2.64372	0.539105	2.15934									0.926974	3.73625				
0.658053	2.64049	0.541183	2.1596									0.92846	3.72824				
0.659715	2.6373	0.543261	2.15986									0.929944	3.72028				
0.661379	2.63414	0.545339	2.16012									0.931427	3.71237				
0.663045	2.63102	0.547416	2.16038									0.932909	3.70452				
0.664714	2.62792	0.549494	2.16063									0.934389	3.69672				
0.666384	2.62486	0.551572	2.16089									0.935868	3.68898				
0.668057	2.62182	0.553649	2.16114									0.937346	3.68128				
0.669731	2.61882	0.555727	2.16139									0.938823	3.67364				
0.671408	2.61585	0.557805	2.16163									0.940298	3.66605				
0.673086	2.6129	0.559882	2.16188									0.941773	3.65851				
0.674767	2.60999	0.56196	2.16212									0.943247	3.65102				
0.67645	2.6071	0.564037	2.16237									0.94472	3.64358				
0.678134	2.60424	0.566115	2.16261									0.946191	3.63619				
0.679821	2.60141	0.568192	2.16284									0.947662	3.62885				
0.681509	2.59861	0.57027	2.16308									0.949133	3.62156				
0.6832	2.59583	0.572348	2.16332									0.950602	3.61432				
0.684892	2.59308	0.574425	2.16355									0.952071	3.60713				
0.686587	2.59036	0.576503	2.16378									0.95354	3.59998				
0.688283	2.58766	0.57858	2.16401									0.955008	3.59289				
0.689981	2.58499	0.580658	2.16424									0.956475	3.58584				
0.691681	2.58235	0.582735	2.16447									0.957941	3.57884				
0.693383	2.57973	0.584813	2.16469									0.959408	3.57188				
0.695087	2.57713	0.58689	2.16492									0.960874	3.56497				
0.696793	2.57456	0.588967	2.16514									0.962339	3.55811				
0.6985	2.57202	0.591045	2.16536									0.963804	3.55129				
0.70021	2.5695	0.593122	2.16558									0.965269	3.54452				
0.701921	2.567	0.5952	2.16579									0.966734	3.5378				
0.703634	2.56453	0.597277	2.16601									0.968199	3.53112				
0.705349	2.56208	0.599354	2.16622									0.969663	3.52448				
0.707065	2.55965	0.601432	2.16644									0.971127	3.51789				
0.708783	2.55725	0.603509	2.16665									0.972591	3.51134				
0.710504	2.55486	0.605586	2.16686									0.974055	3.50484				
0.712226	2.5525	0.607664	2.16707									0.975519	3.49838				
0.713949	2.55017	0.609741	2.16727									0.976983	3.49196				
0.715675	2.54785	0.611818	2.16748									0.978447	3.48559				
0.717402	2.54556	0.613895	2.16768									0.979911	3.47925				
0.71913	2.54328	0.615973	2.16789									0.981375	3.47296				
0.720861	2.54103	0.61805	2.16809									0.982839	3.46672				
0.722593	2.5388	0.620127	2.16829									0.984303	3.46051				
0.724327	2.53659	0.622205	2.16849									0.985768	3.45434				
0.726063	2.53439	0.624282	2.16869									0.987233	3.44822				
0.7278	2.53222	0.626359	2.16888									0.988698	3.44213				
0.729539	2.53007	0.628436	2.16908									0.990163	3.43609				
0.731279	2.52794	0.630513	2.16927									0.991628	3.43008				
0.733021	2.52583	0.63259	2.16946									0.993094	3.42412				
0.734765	2.52373	0.634668	2.16965									0.99456	3.41819				
0.736511	2.52166	0.636745	2.16984									0.996027	3.41231				
0.738258	2.5196	0.638822	2.17003									0.997493	3.40646				
0.740006	2.51757	0.640899	2.17022									0.998961	3.40065				
0.741756	2.51555	0.642976	2.17041									1.00043	3.39488				
0.743508	2.51354	0.645053	2.17059														
0.745261	2.51156	0.64713	2.17077														
0.747016	2.5096	0.649208	2.17096														
0.748773	2.50765	0.651285	2.17114														
0.750531	2.50572	0.653362	2.17132														
0.75229	2.5038	0.655439	2.1715														
0.754051	2.5019	0.657516	2.17168														
0.755814	2.50002	0.659593	2.17185														
0.757578	2.49816	0.66167	2.17203														
0.759343	2.49631	0.663747	2.1722														
0.76111	2.49448	0.665824	2.17238														
0.762878	2.49267	0.667901	2.17255														
0.764648	2.49087	0.669978	2.17272														
0.76642	2.48908	0.672055	2.17289														
0.768192	2.48731	0.674132	2.17306														
0.769967	2.48556	0.676209	2.17323														
0.771742	2.48382	0.678286	2.17339														
0.773519	2.4821	0.680363	2.17356														
0.775298	2.48039	0.68244	2.17373														
0.777077	2.47869	0.684517	2.17389														
0.778859	2.47701	0.686594	2.17405														
0.780641	2.47535	0.68867	2.17422														
0.782425	2.4737	0.690747	2.17438														
0.78421	2.47206	0.692824	2.17454														
0.785997	2.47044	0.694901	2.1747														
0.787785	2.46883	0.696978	2.17485														
0.789575	2.46723	0.699055	2.17501														
0.791365	2.46565	0.701132	2.17517														
0.793157	2.46408	0.703208	2.17532														
0.794951	2.46252	0.705285	2.17548														
0.796745	2.46098	0.707362	2.17563														
0.798541	2.45945	0.709439	2.17578														
0.800339	2.45793	0.711516	2.17594														
0.802137	2.45642	0.713593	2.17609														
0.803937	2.45493	0.715669	2.17624														
0.805738	2.45345	0.717746	2.17639														
0.80754	2.45198	0.719823	2.17653														
0.809344	2.45053	0.7219	2.17668														
0.811149	2.44908	0.723976	2.17683														
0.812955	2.44765	0.726053	2.17697														
0.814762	2.44623	0.72813	2.17712														
0.81657	2.44482	0.730207	2.17726														
0.81838	2.44342	0.732283	2.17741														
0.820191	2.44204	0.73436	2.17755														
0.822003	2.44066	0.736437	2.17769														
0.823816	2.4393	0.738513	2.17783														
0.825631	2.43794	0.74059	2.17797														
0.827446	2.4366	0.742667	2.17811														
0.829263	2.43527	0.744743	2.17825														
0.831081	2.43395	0.74682	2.17839														
0.8329	2.43264	0.748897	2.17852														
0.834721	2.43134	0.750973	2.17866														
0.836542	2.43005	0.75305	2.17879														
0.838365	2.42877	0.755127	2.17893														
0.840188	2.4275	0.757203	2.17906														
0.842013	2.42624	0.75928	2.1792														
0.843839	2.42499	0.761356	2.17933														
0.845666	2.42376	0.763433	2.17946														
0.847494	2.42253	0.76551	2.17959														
0.849323	2.42131	0.767586	2.17972														
0.851154	2.4201	0.769663	2.17985														
0.852985	2.4189	0.771739	2.17998														
0.854817	2.4177	0.773816	2.18011														
0.856651	2.41652	0.775892	2.18023														
0.858485	2.41535	0.777969	2.18036														
0.860321	2.41419	0.780045	2.18049														
0.862158	2.41303	0.782122	2.18061														
0.863995	2.41188	0.784198	2.18074														
0.865834	2.41075	0.786275	2.18086														
0.867674	2.40962	0.788351	2.18099														
0.869515	2.4085	0.790428	2.18111														
0.871357	2.40739	0.792504	2.18123														
0.873199	2.40629	0.794581	2.18135														
0.875043	2.40519	0.796657	2.18147														
0.876888	2.40411	0.798734	2.18159														
0.878734	2.40303	0.80081	2.18171														
0.880581	2.40196	0.802887	2.18183														
0.882428	2.4009	0.804963	2.18195														
0.884277	2.39984	0.80704	2.18207														
0.886127	2.3988	0.809116	2.18218														
0.887978	2.39776	0.811192	2.1823														
0.889829	2.39673	0.813269	2.18242														
0.891682	2.39571	0.815345	2.18253														
0.893536	2.39469	0.817422	2.18265														
0.89539	2.39369	0.819498	2.18276														
0.897245	2.39269	0.821574	2.18287														
0.899102	2.3917	0.823651	2.18299														
0.900959	2.39071	0.825727	2.1831														
0.902817	2.38973	0.827803	2.18321														
0.904676	2.38876	0.82988	2.18332														
0.906536	2.3878	0.831956	2.18343														
0.908397	2.38685	0.834032	2.18354														
0.910259	2.3859	0.836109	2.18365														
0.912122	2.38496	0.838185	2.18376														
0.913986	2.38402	0.840261	2.18387														
0.91585	2.38309	0.842338	2.18398														
0.917715	2.38217	0.844414	2.18408														
0.919582	2.38126	0.84649	2.18419														
0.921449	2.38035	0.848566	2.1843														
0.923317	2.37945	0.850643	2.1844														
0.925186	2.37855	0.852719	2.18451														
0.927055	2.37766	0.854795	2.18461														
0.928926	2.37678	0.856871	2.18472														
0.930797	2.37591	0.858948	2.18482														
0.932669	2.37504	0.861024	2.18492														
0.934542	2.37417	0.8631	2.18503														
0.936416	2.37332	0.865176	2.18513														
0.938291	2.37247	0.867253	2.18523														
0.940166	2.37162	0.869329	2.18533														
0.942043	2.37078	0.871405	2.18543														
0.94392	2.36995	0.873481	2.18553														
0.945798	2.36912	0.875557	2.18563														
0.947677	2.3683	0.877633	2.18573														
0.949556	2.36749	0.87971	2.18583														
0.951437	2.36668	0.881786	2.18593														
0.953318	2.36587	0.883862	2.18603														
0.955199	2.36507	0.885938	2.18612														
0.957082	2.36428	0.888014	2.18622														
0.958966	2.36349	0.89009	2.18632														
0.96085	2.36271	0.892167	2.18641														
0.962735	2.36194	0.894243	2.18651														
0.964621	2.36117	0.896319	2.1866														
0.966507	2.3604	0.898395	2.1867														
0.968394	2.35964	0.900471	2.18679														
0.970282	2.35889	0.902547	2.18689														
0.972171	2.35814	0.904623	2.18698														
0.97406	2.35739	0.906699	2.18707														
0.975951	2.35665	0.908775	2.18716														
0.977842	2.35592	0.910851	2.18726														
0.979733	2.35519	0.912927	2.18735														
0.981626	2.35446	0.915004	2.18744														
0.983519	2.35375	0.91708	2.18753														
0.985413	2.35303	0.919156	2.18762														
0.987307	2.35232	0.921232	2.18771														
0.989202	2.35162	0.923308	2.1878														
0.991098	2.35092	0.925384	2.18789														
0.992995	2.35022	0.92746	2.18798														
0.994892	2.34953	0.929536	2.18806														
0.99679	2.34885	0.931612	2.18815														
0.998689	2.34816	0.933688	2.18824														
1.00059	2.34749	0.935764	2.18833														
		0.93784	2.18841														
		0.939916	2.1885														
		0.941992	2.18859														
		0.944068	2.18867														
		0.946144	2.18876														
		0.94822	2.18884														
		0.950295	2.18893														
		0.952371	2.18901														
		0.954447	2.18909														
		0.956523	2.18918														
		0.958599	2.18926														
		0.960675	2.18934														
		0.962751	2.18942														
		0.964827	2.18951														
		0.966903	2.18959														
		0.968979	2.18967														
		0.971055	2.18975														
		0.97313	2.18983														
		0.975206	2.18991														
		0.977282	2.18999														
		0.979358	2.19007														
		0.981434	2.19015														
		0.98351	2.19022														
		0.985586	2.1903														
		0.987661	2.19038														
		0.989737	2.19046														
		0.991813	2.19054														
		0.993889	2.19061														
		0.995965	2.19069														
		0.99804	2.19077														
		1.00012	2.19084														
