Sym0		Asym0		Sym1		Sym2		Sym3		Sym4		Asym1		Asym2		Asym3		Asym4	
467  Points		496  Points		231  Points		199  Points		185  Points		128  Points		331  Points		210  Points		172  Points		99  Points	
Freq (MHz)	Vph (m/ms)	Freq (MHz)	Vph (m/ms)	Freq (MHz)	Vph (m/ms)	Freq (MHz)	Vph (m/ms)	Freq (MHz)	Vph (m/ms)	Freq (MHz)	Vph (m/ms)	Freq (MHz)	Vph (m/ms)	Freq (MHz)	Vph (m/ms)	Freq (MHz)	Vph (m/ms)	Freq (MHz)	Vph (m/ms)
0.000202739	5.17658	0.000377992	0.168171	0.279508	19725.1	0.47573	998.804	0.55902	1604.77	0.838535	1000.74	0.13976	598.748	0.419264	1751.75	0.698785	751.334	0.951455	1797.35
0.00502501	5.17583	0.000753343	0.236948	0.279541	295.54	0.475749	337.891	0.559055	436.747	0.838569	473.871	0.139901	120.075	0.419301	358.06	0.698827	375.359	0.951462	651.214
0.00984715	5.17575	0.00125314	0.304821	0.279638	148.937	0.475787	203.355	0.559131	252.802	0.838626	310.452	0.140229	66.8771	0.419385	199.448	0.698896	250.191	0.951476	397.649
0.0146689	5.17559	0.00187367	0.371556	0.279799	99.5988	0.475845	145.457	0.559248	177.91	0.838708	230.858	0.140741	46.4721	0.419517	138.253	0.698993	187.642	0.951497	286.212
0.01949	5.17533	0.00261038	0.436924	0.280023	74.8533	0.475921	113.232	0.559405	137.273	0.838814	183.761	0.141435	35.7142	0.419697	105.821	0.699117	150.127	0.951524	223.565
0.0243104	5.17502	0.00345826	0.500752	0.28031	59.9896	0.476017	92.7045	0.559603	111.768	0.838943	152.635	0.142308	29.0905	0.419925	85.7373	0.699269	125.126	0.951558	183.421
0.0291297	5.17463	0.0044118	0.562885	0.280661	50.0791	0.476132	78.4859	0.559841	94.2728	0.839097	130.536	0.143353	24.616	0.420201	72.0817	0.699449	107.274	0.951599	155.502
0.0339479	5.17417	0.00546514	0.623196	0.281074	43.0037	0.476267	68.056	0.560119	81.5286	0.839274	114.035	0.144567	21.4005	0.420524	62.1966	0.699657	93.8894	0.951647	134.962
0.0387647	5.17364	0.00661218	0.681582	0.28155	37.7022	0.476421	60.0794	0.560438	71.8334	0.839475	101.246	0.145942	18.9856	0.420895	54.7121	0.699892	83.4832	0.951702	119.217
0.0435799	5.17304	0.00784685	0.737977	0.282087	33.5841	0.476595	53.7824	0.560796	64.2113	0.839701	91.0425	0.147473	17.1109	0.421313	48.8502	0.700154	75.1616	0.951764	106.764
0.0483933	5.17237	0.00916303	0.792333	0.282686	30.295	0.47679	48.6855	0.561194	58.0628	0.83995	82.714	0.149153	15.6175	0.421779	44.1362	0.700444	68.3559	0.951834	96.669
0.0532046	5.17162	0.0105546	0.844617	0.283346	27.609	0.477004	44.4762	0.561632	52.9992	0.840223	75.7875	0.150974	14.4031	0.422291	40.2642	0.700761	62.6872	0.951911	88.3198
0.0580137	5.17079	0.0120159	0.894837	0.284067	25.3755	0.477239	40.9414	0.56211	48.7575	0.84052	69.9369	0.152931	13.3988	0.42285	37.0282	0.701106	57.8929	0.951996	81.2998
0.0628204	5.16989	0.0135411	0.942993	0.284847	23.4902	0.477495	37.9316	0.562627	45.1533	0.840841	64.93	0.155016	12.5566	0.423456	34.2841	0.701479	53.7857	0.95209	75.3152
0.0676243	5.16891	0.015125	0.989121	0.285686	21.8784	0.477772	35.3381	0.563183	42.0534	0.841185	60.5969	0.157223	11.8416	0.424108	31.9284	0.701878	50.2282	0.952191	70.1528
0.0724253	5.16785	0.0167625	1.03325	0.286583	20.4855	0.478071	33.0806	0.563778	39.3596	0.841553	56.8105	0.159545	11.2285	0.424806	29.8848	0.702305	47.1172	0.9523	65.6542
0.0772232	5.16671	0.018449	1.07544	0.287538	19.2703	0.478391	31.0979	0.564412	36.9973	0.841945	53.4737	0.161657	10.7622	0.42555	28.0957	0.702759	44.374	0.952418	61.6992
0.0820176	5.16549	0.0201798	1.11574	0.28855	18.2016	0.478734	29.343	0.565084	34.9094	0.842361	50.5111	0.163519	10.4067	0.426339	26.5167	0.70324	41.9372	0.952545	58.1949
0.0868083	5.16419	0.0219509	1.15421	0.289617	17.2549	0.479098	27.779	0.565795	33.051	0.8428	47.8634	0.165101	10.1381	0.427174	25.1133	0.703748	39.7585	0.95268	55.0686
0.0915951	5.1628	0.0237586	1.19092	0.29074	16.4108	0.479486	26.3765	0.566543	31.3865	0.843263	45.4831	0.166376	9.94021	0.428054	23.8583	0.704283	37.7991	0.952825	52.2624
0.0963777	5.16132	0.0255993	1.22593	0.291916	15.654	0.479897	25.1121	0.567329	29.8874	0.843749	43.3318	0.167329	9.80223	0.428978	22.7294	0.704845	36.0277	0.952979	49.7295
0.101156	5.15975	0.0274698	1.25932	0.293146	14.9719	0.480332	23.9664	0.568153	28.5304	0.844259	41.3781	0.167944	9.71706	0.429947	21.7091	0.705434	34.4187	0.953143	47.4319
0.105929	5.15809	0.0293671	1.29115	0.294428	14.3543	0.48079	22.9236	0.569014	27.2965	0.844792	39.5961	0.168837	9.59872	0.43096	20.7825	0.706049	32.9509	0.953316	45.3384
0.110697	5.15634	0.0312886	1.32149	0.295761	13.7928	0.481273	21.9707	0.569911	26.1699	0.845349	37.9644	0.169819	9.47527	0.432016	19.9377	0.706692	31.6065	0.953499	43.4231
0.11546	5.15449	0.0332317	1.35042	0.297144	13.2803	0.481782	21.0966	0.570845	25.1374	0.845929	36.4646	0.171171	9.31551	0.433115	19.1644	0.70736	30.3709	0.953692	41.6641
0.120216	5.15253	0.0351943	1.37801	0.298577	12.8109	0.482315	20.2921	0.571816	24.1878	0.846532	35.0817	0.17291	9.12587	0.434258	18.4541	0.708056	29.2314	0.953896	40.0431
0.124967	5.15047	0.0371744	1.4043	0.300057	12.3795	0.482875	19.5493	0.572822	23.3116	0.847158	33.8025	0.175052	8.91338	0.435442	17.7997	0.708777	28.1774	0.95411	38.5446
0.129711	5.14831	0.03917	1.42938	0.301585	11.982	0.483461	18.8616	0.573865	22.5009	0.847808	32.6159	0.17762	8.68509	0.436669	17.195	0.709525	27.1996	0.954335	37.1552
0.134449	5.14604	0.0411796	1.45331	0.303159	11.6146	0.484074	18.2231	0.574942	21.7486	0.84848	31.5123	0.180636	8.44767	0.437937	16.6347	0.710299	26.2903	0.954571	35.8635
0.139178	5.14365	0.0432016	1.47613	0.304779	11.2742	0.484714	17.6289	0.576055	21.0489	0.849176	30.4833	0.18372	8.23319	0.439247	16.1141	0.711099	25.4425	0.954818	34.6595
0.143901	5.14114	0.0452348	1.49791	0.306442	10.958	0.485383	17.0746	0.577202	20.3964	0.849895	29.5218	0.18687	8.03871	0.440597	15.6294	0.711925	24.6504	0.955076	33.5347
0.148614	5.13851	0.0470145	1.51609	0.307926	10.7005	0.48608	16.5565	0.578384	19.7867	0.850636	28.6212	0.190081	7.86175	0.441988	15.1772	0.712777	23.9086	0.955346	32.4816
0.15332	5.13575	0.048537	1.53101	0.309217	10.493	0.486806	16.0712	0.579599	19.2158	0.851401	27.7762	0.193351	7.70025	0.443418	14.7543	0.713655	23.2126	0.955628	31.4935
0.158016	5.13286	0.0497994	1.54298	0.310302	10.3292	0.487562	15.6159	0.580849	18.6802	0.852188	26.9818	0.196675	7.55242	0.444888	14.3581	0.714558	22.5583	0.955921	30.5647
0.162702	5.12984	0.0507996	1.5522	0.311171	10.2044	0.488349	15.1878	0.582132	18.1769	0.852998	26.2335	0.200051	7.41671	0.446397	13.9862	0.715487	21.9423	0.956226	29.69
0.167378	5.12667	0.0515361	1.55886	0.311815	10.1151	0.489166	14.7848	0.583448	17.7029	0.85383	25.5277	0.203477	7.29183	0.447945	13.6366	0.716441	21.3612	0.956543	28.8649
0.172043	5.12335	0.0520079	1.56306	0.312231	10.0591	0.490014	14.4048	0.584797	17.2561	0.854685	24.8607	0.206948	7.17662	0.44953	13.3074	0.71742	20.8122	0.956873	28.0852
0.176697	5.11988	0.0526868	1.56903	0.312831	9.98003	0.490894	14.046	0.586178	16.834	0.855563	24.2296	0.210464	7.0701	0.451153	12.997	0.718424	20.2929	0.957215	27.3474
0.181338	5.11625	0.0534254	1.57541	0.313489	9.89596	0.491808	13.7067	0.587591	16.4349	0.856462	23.6316	0.214021	6.9714	0.452813	12.7039	0.719454	19.8009	0.95757	26.6482
0.185967	5.11245	0.0544312	1.58394	0.314391	9.78467	0.492754	13.3855	0.589037	16.0568	0.857385	23.0641	0.217617	6.87975	0.45451	12.4266	0.720508	19.3341	0.957938	25.9847
0.190582	5.10848	0.0557051	1.59445	0.315546	9.64873	0.493734	13.0811	0.590513	15.6984	0.858329	22.5249	0.221251	6.79449	0.456243	12.1642	0.721587	18.8908	0.958318	25.3542
0.195182	5.10432	0.0572483	1.60679	0.316961	9.49114	0.494748	12.7922	0.592021	15.3581	0.859295	22.0121	0.224919	6.71503	0.458012	11.9153	0.72269	18.4692	0.958712	24.7545
0.199768	5.09997	0.059062	1.62076	0.318648	9.31517	0.495798	12.5178	0.59356	15.0346	0.860284	21.5237	0.228622	6.64083	0.459815	11.6792	0.723818	18.0678	0.959118	24.1832
0.204337	5.09542	0.0611471	1.63615	0.320617	9.12424	0.496883	12.2569	0.595129	14.7268	0.861294	21.0581	0.232355	6.57145	0.461654	11.4548	0.72497	17.6852	0.959539	23.6385
0.208889	5.09067	0.063236	1.65089	0.322623	8.94416	0.498004	12.0085	0.596728	14.4336	0.862326	20.6138	0.236119	6.50645	0.463526	11.2414	0.726146	17.3203	0.959972	23.1185
0.213423	5.08569	0.065328	1.665	0.324663	8.77409	0.499162	11.772	0.598357	14.1541	0.86338	20.1893	0.239911	6.44547	0.465433	11.0382	0.727347	16.9717	0.960419	22.6217
0.217938	5.08049	0.0674228	1.67853	0.326737	8.61328	0.500358	11.5465	0.600016	13.8872	0.864456	19.7835	0.243731	6.38818	0.467121	10.869	0.728571	16.6386	0.96088	22.1466
0.222433	5.07504	0.06952	1.69151	0.328846	8.46104	0.501591	11.3313	0.601704	13.6323	0.865553	19.395	0.247576	6.33427	0.46858	10.7301	0.729818	16.3198	0.961355	21.6917
0.226907	5.06935	0.0716192	1.70396	0.330987	8.31676	0.502863	11.1259	0.603421	13.3886	0.866671	19.0229	0.251445	6.28348	0.4698	10.6189	0.73109	16.0146	0.961843	21.2559
0.231358	5.06339	0.0737202	1.71591	0.33316	8.17987	0.504003	10.9543	0.605166	13.1554	0.867811	18.6662	0.255337	6.23556	0.470773	10.5331	0.732384	15.7221	0.962346	20.8379
0.235784	5.05716	0.0758225	1.72738	0.335365	8.04986	0.504999	10.8133	0.60694	12.932	0.868973	18.324	0.259251	6.19029	0.471493	10.4713	0.733702	15.4415	0.962863	20.4368
0.240186	5.05064	0.0779262	1.73841	0.337601	7.92628	0.505839	10.7001	0.608742	12.718	0.870155	17.9954	0.263185	6.14748	0.471957	10.4322	0.735043	15.1723	0.963395	20.0516
0.244561	5.04381	0.0800307	1.74901	0.339868	7.8087	0.506513	10.6128	0.610572	12.5126	0.871359	17.6796	0.267139	6.10694	0.472625	10.3768	0.736407	14.9136	0.96394	19.6813
0.248907	5.03667	0.0821361	1.7592	0.342166	7.69674	0.507016	10.5498	0.612429	12.3155	0.872583	17.376	0.271112	6.0685	0.473356	10.3175	0.737793	14.665	0.964501	19.3251
0.253224	5.0292	0.0842421	1.769	0.344495	7.59004	0.50734	10.51	0.614313	12.1262	0.873829	17.0838	0.275102	6.03202	0.474356	10.2383	0.739202	14.4258	0.965076	18.9823
0.257509	5.02139	0.0863486	1.77844	0.346853	7.48829	0.50781	10.4534	0.616223	11.9443	0.875095	16.8025	0.279109	5.99736	0.475632	10.1405	0.740634	14.1956	0.965666	18.6521
0.26176	5.01321	0.0884553	1.78753	0.349242	7.3912	0.508326	10.3928	0.618161	11.7693	0.876382	16.5315	0.283132	5.96439	0.47719	10.0258	0.742087	13.974	0.966271	18.3338
0.265976	5.00466	0.0905623	1.79629	0.351662	7.29849	0.509035	10.3119	0.620124	11.6009	0.877689	16.2702	0.287169	5.933	0.479038	9.89586	0.743563	13.7603	0.96689	18.0269
0.270155	4.99571	0.0926694	1.80473	0.354111	7.20991	0.509947	10.212	0.622114	11.4387	0.879017	16.0182	0.291221	5.90307	0.481188	9.75256	0.745061	13.5544	0.967525	17.7307
0.274295	4.98636	0.0947765	1.81287	0.356592	7.12526	0.51107	10.0946	0.624129	11.2825	0.880365	15.7749	0.295285	5.87452	0.483368	9.61517	0.74658	13.3556	0.968175	17.4448
0.278394	4.97658	0.0968835	1.82073	0.359104	7.0443	0.512418	9.96146	0.625906	11.151	0.881733	15.54	0.299362	5.84725	0.485576	9.48334	0.748121	13.1638	0.968841	17.1686
0.28245	4.96636	0.0989904	1.82831	0.361647	6.96687	0.514004	9.81453	0.627435	11.042	0.883122	15.313	0.303451	5.82118	0.487813	9.35677	0.749683	12.9785	0.969522	16.9016
0.28646	4.95568	0.101097	1.83563	0.364223	6.89278	0.515633	9.67354	0.628711	10.9542	0.88453	15.0936	0.307551	5.79623	0.490078	9.23518	0.751267	12.7995	0.970219	16.6434
0.290422	4.94454	0.103203	1.8427	0.366832	6.82187	0.517304	9.53818	0.629726	10.886	0.885959	14.8814	0.311661	5.77233	0.492371	9.11829	0.752872	12.6264	0.970931	16.3936
0.294335	4.93291	0.105309	1.84954	0.369475	6.75399	0.51902	9.40819	0.630476	10.8366	0.887407	14.676	0.315781	5.74942	0.494691	9.00587	0.754497	12.459	0.971659	16.1518
0.298196	4.92079	0.107415	1.85615	0.372152	6.68901	0.520779	9.2833	0.630958	10.8054	0.888875	14.4772	0.31991	5.72744	0.497038	8.89768	0.756144	12.297	0.972403	15.9177
0.302004	4.90816	0.109521	1.86255	0.374866	6.62681	0.522582	9.16326	0.631652	10.7609	0.890362	14.2847	0.324047	5.70632	0.499411	8.7935	0.75781	12.1401	0.973163	15.6908
0.305755	4.89501	0.111626	1.86873	0.377616	6.56726	0.52443	9.04785	0.63241	10.713	0.891869	14.0981	0.328191	5.68602	0.50181	8.69313	0.759498	11.9882	0.973939	15.4709
0.308978	4.88312	0.11373	1.87473	0.380405	6.51027	0.526323	8.93684	0.633446	10.649	0.893395	13.9173	0.332343	5.66649	0.504235	8.59639	0.761205	11.841	0.974731	15.2577
0.311689	4.87267	0.115834	1.88053	0.383232	6.45573	0.52826	8.83004	0.634764	10.5694	0.89494	13.7419	0.336502	5.64768	0.506685	8.50309	0.762933	11.6984	0.97554	15.0508
0.313905	4.8638	0.117938	1.88615	0.386101	6.40355	0.530242	8.72726	0.636371	10.4754	0.896505	13.5718	0.340667	5.62955	0.50916	8.41308	0.76468	11.56	0.976365	14.8501
0.315642	4.85665	0.120041	1.8916	0.389011	6.35364	0.532269	8.62831	0.638272	10.3682	0.898088	13.4066	0.344837	5.61205	0.511658	8.32619	0.766218	11.4428	0.977207	14.6552
0.316909	4.85131	0.122144	1.89688	0.391965	6.30592	0.534341	8.53302	0.640475	10.2489	0.89969	13.2463	0.349012	5.59516	0.514181	8.24227	0.767542	11.3453	0.978066	14.466
0.317716	4.84786	0.124246	1.90201	0.394963	6.26032	0.536458	8.44124	0.642702	10.1334	0.901311	13.0906	0.353192	5.57884	0.516727	8.1612	0.768644	11.2663	0.978941	14.2821
0.31887	4.84285	0.126348	1.90699	0.398007	6.21676	0.538621	8.35281	0.644952	10.0217	0.902951	12.9393	0.357376	5.56306	0.519296	8.08284	0.769521	11.2048	0.979833	14.1034
0.320116	4.83733	0.128449	1.91181	0.401098	6.17517	0.540828	8.26759	0.647225	9.91346	0.904609	12.7923	0.361563	5.54777	0.521888	8.00706	0.770169	11.1602	0.980742	13.9297
0.321798	4.82972	0.130549	1.9165	0.404236	6.13548	0.54308	8.18544	0.64952	9.80864	0.906286	12.6494	0.365753	5.53297	0.524503	7.93376	0.770585	11.1319	0.981668	13.7608
0.323904	4.81992	0.13265	1.92106	0.407423	6.09763	0.545378	8.10623	0.651838	9.70707	0.90798	12.5103	0.369945	5.51861	0.527139	7.86283	0.771184	11.0915	0.982612	13.5964
0.326417	4.80781	0.134749	1.92549	0.41066	6.06155	0.547719	8.02984	0.654178	9.6086	0.909693	12.3751	0.37414	5.50467	0.529797	7.79416	0.771838	11.048	0.983572	13.4365
0.329319	4.79323	0.136849	1.92979	0.413947	6.02718	0.550105	7.95614	0.65654	9.5131	0.911424	12.2434	0.378336	5.49114	0.532476	7.72765	0.772731	10.9896	0.984551	13.2808
0.332586	4.77602	0.138947	1.93398	0.417285	5.99445	0.552536	7.88504	0.658923	9.42045	0.913173	12.1153	0.382533	5.47798	0.535176	7.66322	0.773867	10.9169	0.985547	13.1292
0.335787	4.75831	0.141045	1.93805	0.420673	5.96331	0.55501	7.81642	0.661327	9.33055	0.914939	11.9905	0.386731	5.46518	0.537897	7.60078	0.77525	10.8307	0.98656	12.9816
0.338919	4.74012	0.143143	1.94201	0.424112	5.93369	0.557527	7.75018	0.663753	9.24327	0.916724	11.869	0.390929	5.45271	0.540638	7.54024	0.776886	10.7318	0.987591	12.8378
0.341985	4.72147	0.145241	1.94587	0.427601	5.90553	0.560088	7.68623	0.6662	9.15851	0.918293	11.7656	0.395127	5.44056	0.543399	7.48153	0.77878	10.6213	0.988641	12.6977
0.344983	4.70238	0.147337	1.94963	0.43114	5.87876	0.562691	7.62447	0.668667	9.07618	0.919641	11.6793	0.399324	5.42871	0.546179	7.42458	0.780693	10.5138	0.989708	12.5611
0.347915	4.68287	0.149434	1.95329	0.434729	5.85334	0.565337	7.56482	0.671155	8.99619	0.920763	11.6092	0.40352	5.41713	0.54898	7.36931	0.782624	10.4092	0.990793	12.4279
0.350781	4.66297	0.15153	1.95685	0.438366	5.82918	0.568024	7.50718	0.673664	8.91843	0.921655	11.5545	0.407714	5.40583	0.551799	7.31565	0.784573	10.3073	0.991897	12.298
0.353582	4.64271	0.153625	1.96033	0.44205	5.80624	0.570753	7.45149	0.676192	8.84283	0.922313	11.5147	0.411906	5.39477	0.554637	7.26356	0.78654	10.2082	0.993019	12.1713
0.35632	4.62211	0.15572	1.96371	0.445781	5.78445	0.573522	7.39767	0.67874	8.76931	0.922735	11.4895	0.416096	5.38395	0.557493	7.21296	0.788525	10.1117	0.99416	12.0477
0.358995	4.6012	0.157815	1.96702	0.449556	5.76376	0.576332	7.34563	0.681308	8.69778	0.923344	11.4534	0.420283	5.37334	0.560368	7.1638	0.790527	10.0177	0.995169	11.9424
0.36161	4.58002	0.159909	1.97024	0.453375	5.7441	0.579182	7.29532	0.683895	8.62819	0.924008	11.4145	0.424467	5.36295	0.563261	7.11602	0.792546	9.92611	0.99604	11.8544
0.364166	4.5586	0.162003	1.97339	0.457235	5.72543	0.58207	7.24666	0.686502	8.56045	0.924914	11.3622	0.428647	5.35275	0.566172	7.06958	0.794583	9.83683	0.996769	11.7829
0.366664	4.53696	0.164096	1.97646	0.461136	5.70768	0.584998	7.19959	0.689128	8.4945	0.926066	11.2969	0.432822	5.34273	0.5691	7.02443	0.796637	9.7498	0.99735	11.727
0.369108	4.51514	0.16619	1.97945	0.465074	5.69081	0.587963	7.15405	0.691772	8.43028	0.927468	11.2193	0.436993	5.33289	0.572046	6.98051	0.798708	9.66494	0.99778	11.6863
0.371497	4.49317	0.168282	1.98238	0.46905	5.67475	0.590965	7.10998	0.694436	8.36773	0.929124	11.13	0.441159	5.32321	0.575009	6.93779	0.800795	9.58217	0.998056	11.6605
0.373836	4.47106	0.170375	1.98524	0.47306	5.65948	0.594004	7.06732	0.697117	8.30679	0.93104	11.0299	0.44532	5.31367	0.577989	6.89622	0.802899	9.50142	0.998456	11.6236
0.376124	4.44886	0.172466	1.98803	0.477103	5.64492	0.597079	7.02603	0.699818	8.2474	0.932973	10.9321	0.449474	5.30427	0.580985	6.85576	0.80502	9.42262	0.998892	11.5838
0.378366	4.42659	0.174558	1.99076	0.481177	5.63105	0.600189	6.98603	0.702536	8.18952	0.934922	10.8366	0.453623	5.29501	0.583999	6.81638	0.807156	9.34571	0.999489	11.5302
0.380561	4.40427	0.176649	1.99343	0.48528	5.61782	0.603334	6.9473	0.705272	8.13309	0.936888	10.7434	0.457764	5.28586	0.587028	6.77804	0.809309	9.27063	1.00025	11.4633
0.382714	4.38193	0.17874	1.99604	0.489411	5.60518	0.606513	6.90977	0.708027	8.07806	0.93887	10.6523	0.461898	5.27683	0.590075	6.74069	0.811478	9.19732		
0.384824	4.35959	0.180831	1.99859	0.493568	5.59311	0.609725	6.87341	0.710799	8.02438	0.940867	10.5633	0.466025	5.2679	0.593137	6.70432	0.813663	9.12571		
0.386895	4.33727	0.182921	2.00109	0.497748	5.58155	0.61297	6.83817	0.713588	7.97202	0.942881	10.4763	0.470143	5.25907	0.596215	6.66888	0.815863	9.05576		
0.388928	4.31499	0.185011	2.00353	0.501952	5.57049	0.616247	6.80401	0.716395	7.92093	0.944911	10.3913	0.474252	5.25032	0.599309	6.63435	0.818079	8.98742		
0.390925	4.29277	0.187101	2.00592	0.506176	5.55988	0.619555	6.77088	0.719219	7.87108	0.946957	10.3082	0.478353	5.24165	0.602419	6.6007	0.820311	8.92062		
0.392887	4.27063	0.18919	2.00826	0.51042	5.5497	0.622894	6.73876	0.72206	7.82241	0.949018	10.2269	0.482444	5.23305	0.605545	6.5679	0.822557	8.85533		
0.394817	4.24858	0.191279	2.01055	0.514682	5.53992	0.626263	6.70759	0.724919	7.7749	0.951094	10.1474	0.486525	5.22452	0.608686	6.53592	0.824819	8.7915		
0.396715	4.22663	0.193368	2.0128	0.51896	5.53051	0.629661	6.67735	0.727794	7.7285	0.953186	10.0696	0.490596	5.21605	0.611843	6.50475	0.827096	8.72909		
0.398585	4.20481	0.195456	2.01499	0.523254	5.52145	0.633088	6.64801	0.730685	7.6832	0.955294	9.99352	0.494655	5.20762	0.615015	6.47434	0.829388	8.66804		
0.400426	4.18312	0.197545	2.01715	0.527562	5.5127	0.636543	6.61953	0.733593	7.63894	0.957416	9.91905	0.498704	5.19924	0.618203	6.44469	0.831694	8.60832		
0.40224	4.16157	0.199633	2.01926	0.531882	5.50426	0.640025	6.59187	0.736518	7.5957	0.959554	9.84615	0.50274	5.1909	0.621406	6.41576	0.834015	8.5499		
0.40403	4.14017	0.20172	2.02133	0.536214	5.4961	0.643534	6.56501	0.739459	7.55345	0.961706	9.77479	0.506764	5.1826	0.624624	6.38754	0.836351	8.49272		
0.405795	4.11894	0.203808	2.02335	0.540557	5.4882	0.647069	6.53893	0.742416	7.51217	0.963874	9.70492	0.510775	5.17432	0.627857	6.36001	0.838701	8.43677		
0.407538	4.09787	0.205895	2.02534	0.544909	5.48055	0.65063	6.51358	0.745389	7.47181	0.966056	9.63649	0.514773	5.16606	0.631106	6.33315	0.841065	8.38199		
0.409259	4.07699	0.207982	2.02729	0.54927	5.47312	0.654215	6.48895	0.748379	7.43236	0.968252	9.56946	0.518758	5.15782	0.63437	6.30694	0.843443	8.32836		
0.41096	4.05628	0.210069	2.0292	0.553638	5.4659	0.657825	6.46501	0.751384	7.39379	0.970463	9.5038	0.522728	5.14959	0.637649	6.28135	0.845836	8.27585		
0.412642	4.03577	0.212155	2.03108	0.558013	5.45888	0.661459	6.44174	0.754405	7.35608	0.972689	9.43947	0.526683	5.14136	0.640943	6.25638	0.848242	8.22442		
0.414305	4.01545	0.214242	2.03292	0.562393	5.45204	0.665115	6.41911	0.757441	7.3192	0.974928	9.37642	0.530623	5.13314	0.644252	6.232	0.850662	8.17405		
0.415952	3.99533	0.216328	2.03472	0.566778	5.44537	0.668795	6.3971	0.760494	7.28312	0.977182	9.31463	0.534547	5.12491	0.647576	6.20821	0.853096	8.1247		
0.417582	3.97541	0.218414	2.0365	0.571168	5.43885	0.672496	6.37568	0.763562	7.24783	0.979449	9.25406	0.538456	5.11667	0.650916	6.18498	0.855544	8.07634		
0.419197	3.9557	0.2205	2.03824	0.575561	5.43249	0.676219	6.35484	0.766645	7.2133	0.981731	9.19468	0.542347	5.10843	0.65427	6.1623	0.858005	8.02896		
0.420797	3.93619	0.222585	2.03995	0.579956	5.42626	0.679963	6.33456	0.769744	7.17952	0.984026	9.13645	0.546222	5.10017	0.65764	6.14016	0.860479	7.98252		
0.422384	3.9169	0.22467	2.04163	0.584353	5.42015	0.683727	6.31482	0.772858	7.14646	0.986335	9.07935	0.550079	5.09188	0.661025	6.11853	0.862967	7.93699		
0.423957	3.89781	0.226756	2.04328	0.588752	5.41416	0.687511	6.29559	0.775987	7.11411	0.988658	9.02334	0.553918	5.08358	0.664425	6.09742	0.865468	7.89237		
0.425519	3.87894	0.22884	2.04489	0.593151	5.40828	0.691315	6.27687	0.779131	7.08244	0.990994	8.9684	0.557738	5.07524	0.66784	6.07681	0.867982	7.84861		
0.427069	3.86029	0.230925	2.04649	0.597551	5.4025	0.695137	6.25863	0.782291	7.05144	0.993343	8.9145	0.56154	5.06688	0.67127	6.05667	0.870509	7.8057		
0.428608	3.84185	0.23301	2.04805	0.601949	5.39681	0.698978	6.24086	0.785466	7.0211	0.995706	8.8616	0.565322	5.05848	0.674716	6.03701	0.873049	7.76362		
0.430137	3.82362	0.235094	2.04959	0.606347	5.3912	0.702837	6.22354	0.788656	6.99138	0.998082	8.8097	0.569085	5.05005	0.678177	6.01781	0.875603	7.72234		
0.431657	3.80561	0.237178	2.0511	0.610743	5.38567	0.706713	6.20666	0.79186	6.96229	1.00047	8.75875	0.572827	5.04158	0.681653	5.99906	0.878169	7.68185		
0.433168	3.78782	0.239263	2.05258	0.615137	5.38021	0.710606	6.1902	0.79508	6.9338			0.576549	5.03306	0.685144	5.98074	0.880747	7.64212		
0.43467	3.77024	0.241346	2.05404	0.619528	5.37482	0.714516	6.17415	0.798315	6.9059			0.58025	5.0245	0.68865	5.96285	0.883339	7.60314		
0.436164	3.75287	0.24343	2.05548	0.623915	5.36948	0.718441	6.15849	0.801565	6.87857			0.583929	5.01589	0.692171	5.94538	0.885943	7.56489		
0.437651	3.73572	0.245514	2.05689	0.6283	5.3642	0.722383	6.14322	0.80483	6.85181			0.587587	5.00724	0.695708	5.92832	0.888559	7.52735		
0.439132	3.71878	0.247597	2.05828	0.63268	5.35897	0.72634	6.12831	0.80811	6.82559			0.591222	4.99853	0.69926	5.91165	0.891188	7.4905		
0.440605	3.70205	0.249681	2.05964	0.637055	5.35378	0.730311	6.11376	0.811404	6.79991			0.594835	4.98978	0.702827	5.89537	0.89383	7.45433		
0.442073	3.68553	0.251764	2.06099	0.641426	5.34863	0.734297	6.09955	0.814714	6.77475			0.598426	4.98096	0.706408	5.87946	0.896484	7.41882		
0.443535	3.66922	0.253847	2.06231	0.645791	5.34352	0.738297	6.08567	0.818039	6.7501			0.601993	4.9721	0.710005	5.86393	0.89915	7.38395		
0.444992	3.65311	0.25593	2.06361	0.65015	5.33844	0.74231	6.07212	0.821378	6.72594			0.605537	4.96317	0.713617	5.84875	0.901829	7.34971		
0.446444	3.63722	0.258012	2.06489	0.654504	5.33338	0.746336	6.05888	0.824733	6.70228			0.609057	4.95419	0.717244	5.83393	0.904519	7.31609		
0.447892	3.62152	0.260095	2.06616	0.65885	5.32835	0.750375	6.04594	0.828103	6.67909			0.612553	4.94515	0.720885	5.81944	0.907222	7.28306		
0.449336	3.60603	0.262178	2.0674	0.66319	5.32333	0.754427	6.0333	0.831487	6.65637			0.616025	4.93606	0.724541	5.80529	0.909937	7.25063		
0.450775	3.59074	0.26426	2.06862	0.667523	5.31834	0.75849	6.02093	0.834887	6.63411			0.619472	4.9269	0.728212	5.79147	0.912664	7.21877		
0.452212	3.57564	0.266342	2.06982	0.671848	5.31335	0.762565	6.00884	0.838302	6.61229			0.622895	4.91768	0.731896	5.77796	0.915403	7.18747		
0.453645	3.56074	0.268424	2.07101	0.676165	5.30838	0.766651	5.99701	0.841732	6.59091			0.626294	4.90841	0.735596	5.76476	0.918155	7.15671		
0.455075	3.54604	0.270506	2.07218	0.680473	5.30341	0.770748	5.98543	0.845177	6.56995			0.629667	4.89907	0.739309	5.75187	0.920918	7.1265		
0.456503	3.53152	0.272588	2.07333	0.684773	5.29845	0.774856	5.97411	0.848637	6.54942			0.633015	4.88968	0.743036	5.73926	0.923693	7.0968		
0.457928	3.5172	0.27467	2.07446	0.689065	5.29349	0.778973	5.96302	0.852113	6.52929			0.636338	4.88022	0.746777	5.72695	0.926479	7.06762		
0.459352	3.50306	0.276752	2.07558	0.693346	5.28854	0.7831	5.95216	0.855604	6.50957			0.639636	4.87071	0.750532	5.71491	0.929278	7.03894		
0.460773	3.48911	0.278833	2.07668	0.697619	5.28358	0.787237	5.94152	0.859111	6.49024			0.642908	4.86114	0.7543	5.70314	0.932089	7.01076		
0.462193	3.47534	0.280915	2.07776	0.701881	5.27861	0.791382	5.9311	0.862633	6.4713			0.646155	4.85151	0.758081	5.69163	0.934911	6.98305		
0.463611	3.46175	0.282996	2.07883	0.706134	5.27364	0.795536	5.92089	0.86617	6.45274			0.649376	4.84183	0.761876	5.68039	0.937745	6.95581		
0.465028	3.44835	0.285077	2.07989	0.710376	5.26866	0.799698	5.91088	0.869724	6.43455			0.652572	4.83209	0.765682	5.66939	0.940591	6.92904		
0.466444	3.43511	0.287159	2.08093	0.714608	5.26367	0.803868	5.90107	0.873293	6.41673			0.655742	4.82229	0.769502	5.65863	0.943449	6.90271		
0.467859	3.42206	0.28924	2.08195	0.718828	5.25867	0.808046	5.89144	0.876878	6.39926			0.658887	4.81245	0.773333	5.64811	0.946318	6.87682		
0.469274	3.40917	0.291321	2.08296	0.723037	5.25366	0.812231	5.88199	0.880478	6.38214			0.662007	4.80255	0.777176	5.63781	0.949199	6.85137		
0.470688	3.39645	0.293402	2.08395	0.727235	5.24863	0.816422	5.87272	0.884095	6.36537			0.6651	4.7926	0.781031	5.62774	0.952091	6.82634		
0.472102	3.3839	0.295482	2.08494	0.731422	5.24358	0.82062	5.86362	0.887728	6.34894			0.668169	4.78261	0.784898	5.61789	0.954995	6.80173		
0.473515	3.37152	0.297563	2.08591	0.735596	5.23852	0.824824	5.85469	0.891377	6.33284			0.671212	4.77256	0.788775	5.60824	0.957911	6.77752		
0.474929	3.3593	0.299644	2.08686	0.739758	5.23344	0.829034	5.84591	0.895042	6.31706			0.67423	4.76247	0.792663	5.59879	0.960838	6.75371		
0.476342	3.34724	0.301724	2.0878	0.743908	5.22833	0.833249	5.83728	0.898724	6.30161			0.677223	4.75234	0.796561	5.58955	0.963777	6.73029		
0.477756	3.33534	0.303805	2.08873	0.748045	5.22321	0.83747	5.8288	0.902422	6.28647			0.680192	4.74216	0.80047	5.58049	0.966727	6.70725		
0.47917	3.32359	0.305885	2.08965	0.75217	5.21806	0.841695	5.82047	0.906137	6.27164			0.683135	4.73194	0.804388	5.57161	0.969689	6.68459		
0.480585	3.312	0.307965	2.09056	0.756281	5.21289	0.845924	5.81227	0.909868	6.25712			0.686053	4.72169	0.808316	5.56292	0.972662	6.6623		
0.482	3.30056	0.310045	2.09145	0.76038	5.20769	0.850158	5.8042	0.913616	6.2429			0.688948	4.7114	0.812252	5.5544	0.975646	6.64036		
0.483416	3.28927	0.312125	2.09233	0.764464	5.20247	0.854395	5.79626	0.917381	6.22897			0.691817	4.70107	0.816198	5.54604	0.978642	6.61878		
0.484833	3.27813	0.314206	2.0932	0.768536	5.19723	0.858636	5.78844	0.921163	6.21533			0.694663	4.69071	0.820151	5.53785	0.981649	6.59755		
0.48625	3.26713	0.316286	2.09406	0.772593	5.19195	0.86288	5.78074	0.924962	6.20197			0.697485	4.68032	0.824113	5.52981	0.984668	6.57665		
0.487669	3.25628	0.318365	2.09491	0.776636	5.18665	0.867126	5.77316	0.928778	6.18889			0.700283	4.6699	0.828083	5.52192	0.987698	6.55609		
0.489089	3.24557	0.320445	2.09575	0.780666	5.18132	0.871376	5.76568	0.932611	6.17609			0.703057	4.65945	0.832059	5.51418	0.990739	6.53586		
0.49051	3.235	0.322525	2.09657	0.784681	5.17596	0.875627	5.75831	0.936461	6.16356			0.705808	4.64897	0.836043	5.50658	0.993792	6.51595		
0.491932	3.22457	0.324605	2.09739	0.788681	5.17057	0.87988	5.75105	0.940329	6.1513			0.708536	4.63848	0.840033	5.49912	0.996855	6.49635		
0.493356	3.21427	0.326684	2.09819	0.792667	5.16515	0.884135	5.74388	0.944214	6.13929			0.711241	4.62796	0.84403	5.49178	0.99993	6.47706		
0.494781	3.2041	0.328764	2.09899	0.796638	5.1597	0.888391	5.73681	0.948116	6.12755			0.713924	4.61742	0.848032	5.48458	1.00302	6.45808		
0.496207	3.19407	0.330843	2.09978	0.800594	5.15422	0.892648	5.72982	0.952036	6.11605			0.716584	4.60686	0.85204	5.47749				
0.497635	3.18417	0.332923	2.10055	0.804535	5.14871	0.896906	5.72293	0.955974	6.10481			0.719222	4.59629	0.856053	5.47052				
0.499065	3.17439	0.335002	2.10132	0.808461	5.14317	0.901164	5.71612	0.959929	6.09381			0.721838	4.58571	0.86007	5.46367				
0.500497	3.16474	0.337081	2.10208	0.812371	5.1376	0.905423	5.70939	0.963902	6.08305			0.724432	4.57511	0.864093	5.45692				
0.50193	3.15521	0.33916	2.10282	0.816266	5.13199	0.909681	5.70274	0.967892	6.07253			0.727005	4.5645	0.868119	5.45028				
0.503365	3.14581	0.34124	2.10356	0.820145	5.12635	0.91394	5.69616	0.9719	6.06223			0.729557	4.55389	0.872149	5.44374				
0.504802	3.13653	0.343319	2.10429	0.824009	5.12068	0.918198	5.68966	0.975925	6.05217			0.732088	4.54326	0.876183	5.4373				
0.50624	3.12736	0.345398	2.10502	0.827857	5.11498	0.922455	5.68323	0.979968	6.04233			0.734599	4.53263	0.880219	5.43094				
0.507681	3.11831	0.347477	2.10573	0.831689	5.10924	0.926711	5.67686	0.984029	6.03271			0.737089	4.522	0.884258	5.42468				
0.509124	3.10938	0.349556	2.10644	0.835505	5.10347	0.930966	5.67057	0.988107	6.02331			0.739559	4.51137	0.8883	5.41851				
0.510568	3.10056	0.351634	2.10713	0.839305	5.09767	0.935219	5.66433	0.992202	6.01412			0.742009	4.50074	0.892344	5.41241				
0.512015	3.09185	0.353713	2.10782	0.843088	5.09184	0.939471	5.65815	0.996315	6.00514			0.74444	4.49011	0.896389	5.4064				
0.513464	3.08326	0.355792	2.1085	0.846856	5.08597	0.943722	5.65204	1.00045	5.99636			0.746852	4.47948	0.900436	5.40046				
0.514915	3.07477	0.357871	2.10918	0.850607	5.08008	0.947971	5.64598					0.749244	4.46886	0.904483	5.39459				
0.516369	3.06639	0.359949	2.10984	0.854342	5.07415	0.952217	5.63998					0.751618	4.45824	0.908532	5.38879				
0.517824	3.05811	0.362028	2.1105	0.85806	5.06819	0.956462	5.63402					0.753974	4.44763	0.912581	5.38306				
0.519282	3.04994	0.364106	2.11115	0.861762	5.06219	0.960704	5.62813					0.756311	4.43704	0.91663	5.37739				
0.520742	3.04187	0.366185	2.11179	0.865447	5.05617	0.964944	5.62228					0.75863	4.42645	0.920679	5.37178				
0.522204	3.0339	0.368263	2.11243	0.869116	5.05012	0.969181	5.61648					0.760932	4.41587	0.924727	5.36623				
0.523669	3.02603	0.370342	2.11306	0.872768	5.04403	0.973416	5.61072					0.763217	4.40531	0.928774	5.36073				
0.525136	3.01825	0.37242	2.11368	0.876403	5.03791	0.977648	5.60502					0.765484	4.39477	0.932821	5.35529				
0.526605	3.01058	0.374498	2.11429	0.880022	5.03177	0.981877	5.59935					0.767735	4.38424	0.936865	5.34989				
0.528077	3.003	0.376577	2.1149	0.883624	5.02559	0.986104	5.59374					0.769969	4.37372	0.940909	5.34455				
0.529551	2.99551	0.378655	2.11551	0.88721	5.01938	0.990327	5.58816					0.772187	4.36323	0.94495	5.33925				
0.531028	2.98811	0.380733	2.1161	0.890778	5.01315	0.994548	5.58263					0.774389	4.35276	0.948988	5.33399				
0.532507	2.98081	0.382811	2.11669	0.89433	5.00688	0.998766	5.57713					0.776575	4.34231	0.953025	5.32877				
0.533988	2.97359	0.384889	2.11727	0.897865	5.00059	1.00298	5.57168					0.778746	4.33188	0.957058	5.32359				
0.535472	2.96646	0.386967	2.11785	0.901383	4.99427							0.780901	4.32147	0.961088	5.31844				
0.536958	2.95942	0.389045	2.11842	0.904885	4.98792							0.783042	4.31109	0.965115	5.31333				
0.538447	2.95247	0.391123	2.11898	0.90837	4.98155							0.785168	4.30073	0.969139	5.30825				
0.539939	2.9456	0.393201	2.11954	0.911838	4.97515							0.787279	4.2904	0.973158	5.3032				
0.541433	2.93881	0.395279	2.1201	0.915289	4.96872							0.789377	4.2801	0.977173	5.29818				
0.542929	2.93211	0.397356	2.12064	0.918724	4.96227							0.79146	4.26983	0.981184	5.29319				
0.544428	2.92548	0.399434	2.12118	0.922142	4.95579							0.79353	4.25958	0.98519	5.28822				
0.54593	2.91894	0.401512	2.12172	0.925544	4.94929							0.795586	4.24937	0.989191	5.28328				
0.547434	2.91247	0.403589	2.12225	0.928928	4.94276							0.797629	4.23918	0.993187	5.27835				
0.54894	2.90608	0.405667	2.12278	0.932297	4.93621							0.799659	4.22903	0.997177	5.27345				
0.550449	2.89977	0.407745	2.12329	0.935648	4.92964							0.801676	4.21891	1.00116	5.26856				
0.551961	2.89353	0.409822	2.12381	0.938983	4.92305							0.803681	4.20883						
0.553475	2.88736	0.4119	2.12432	0.942302	4.91643							0.805674	4.19878						
0.554992	2.88127	0.413977	2.12482	0.945604	4.90979							0.807655	4.18876						
0.556512	2.87525	0.416055	2.12532	0.94889	4.90314							0.809624	4.17878						
0.558034	2.8693	0.418132	2.12582	0.95216	4.89646							0.811581	4.16883						
0.559558	2.86343	0.420209	2.12631	0.955413	4.88976							0.813527	4.15893						
0.561085	2.85762	0.422287	2.12679	0.958651	4.88304							0.815462	4.14906						
0.562615	2.85187	0.424364	2.12727	0.961872	4.87631							0.817386	4.13922						
0.564147	2.8462	0.426441	2.12775	0.965077	4.86956							0.819299	4.12943						
0.565682	2.84059	0.428519	2.12822	0.968265	4.86279							0.821202	4.11967						
0.567219	2.83504	0.430596	2.12868	0.971438	4.856							0.823095	4.10996						
0.568759	2.82956	0.432673	2.12915	0.974595	4.8492							0.824977	4.10028						
0.570301	2.82415	0.43475	2.1296	0.977737	4.84238							0.82685	4.09065						
0.571846	2.81879	0.436827	2.13006	0.980862	4.83554							0.828713	4.08105						
0.573393	2.8135	0.438904	2.13051	0.983972	4.8287							0.830566	4.0715						
0.574943	2.80827	0.440981	2.13095	0.987066	4.82183							0.832411	4.06199						
0.576496	2.80309	0.443058	2.13139	0.990144	4.81496							0.834246	4.05252						
0.578051	2.79798	0.445135	2.13183	0.993207	4.80807							0.836073	4.0431						
0.579608	2.79292	0.447212	2.13226	0.996255	4.80117							0.83789	4.03371						
0.581168	2.78792	0.449289	2.13269	0.999287	4.79425							0.8397	4.02437						
0.582731	2.78298	0.451366	2.13311	1.0023	4.78733							0.841501	4.01507						
0.584296	2.77809	0.453443	2.13354									0.843293	4.00582						
0.585864	2.77326	0.45552	2.13395									0.845078	3.99661						
0.587434	2.76848	0.457597	2.13437									0.846855	3.98745						
0.589006	2.76376	0.459673	2.13478									0.848625	3.97833						
0.590581	2.75909	0.46175	2.13518									0.850387	3.96925						
0.592159	2.75447	0.463827	2.13558									0.852142	3.96022						
0.593739	2.7499	0.465903	2.13598									0.853889	3.95123						
0.595321	2.74538	0.46798	2.13638									0.85563	3.94229						
0.596906	2.74091	0.470057	2.13677									0.857364	3.93339						
0.598493	2.73649	0.472133	2.13716									0.859091	3.92454						
0.600082	2.73212	0.47421	2.13754									0.860812	3.91574						
0.601674	2.7278	0.476286	2.13792									0.862527	3.90698						
0.603269	2.72352	0.478363	2.1383									0.864235	3.89827						
0.604866	2.71929	0.480439	2.13868									0.865937	3.8896						
0.606465	2.71511	0.482516	2.13905									0.867634	3.88098						
0.608066	2.71097	0.484592	2.13942									0.869324	3.8724						
0.60967	2.70688	0.486669	2.13978									0.871009	3.86387						
0.611277	2.70283	0.488745	2.14015									0.872689	3.85538						
0.612885	2.69883	0.490821	2.1405									0.874363	3.84695						
0.614496	2.69486	0.492898	2.14086									0.876032	3.83855						
0.616109	2.69094	0.494974	2.14121									0.877696	3.83021						
0.617725	2.68707	0.49705	2.14156									0.879354	3.82191						
0.619343	2.68323	0.499127	2.14191									0.881008	3.81365						
0.620963	2.67943	0.501203	2.14226									0.882658	3.80545						
0.622585	2.67568	0.503279	2.1426									0.884302	3.79728						
0.62421	2.67196	0.505355	2.14294									0.885943	3.78917						
0.625837	2.66828	0.507431	2.14327									0.887578	3.7811						
0.627466	2.66464	0.509508	2.14361									0.88921	3.77307						
0.629098	2.66104	0.511584	2.14394									0.890837	3.76509						
0.630731	2.65748	0.51366	2.14427									0.892461	3.75716						
0.632367	2.65395	0.515736	2.14459									0.89408	3.74927						
0.634005	2.65047	0.517812	2.14491									0.895696	3.74143						
0.635646	2.64701	0.519888	2.14524									0.897308	3.73363						
0.637288	2.6436	0.521964	2.14555									0.898916	3.72588						
0.638933	2.64021	0.52404	2.14587									0.900521	3.71817						
0.640579	2.63687	0.526116	2.14618									0.902122	3.71051						
0.642228	2.63355	0.528192	2.14649									0.90372	3.70289						
0.643879	2.63028	0.530268	2.1468									0.905315	3.69532						
0.645533	2.62703	0.532344	2.1471									0.906907	3.68779						
0.647188	2.62382	0.53442	2.14741									0.908496	3.68031						
0.648845	2.62064	0.536496	2.14771									0.910081	3.67287						
0.650505	2.61749	0.538571	2.14801									0.911664	3.66547						
0.652166	2.61438	0.540647	2.1483									0.913244	3.65812						
0.65383	2.61129	0.542723	2.1486									0.914821	3.65082						
0.655496	2.60824	0.544799	2.14889									0.916396	3.64355						
0.657163	2.60522	0.546875	2.14918									0.917968	3.63633						
0.658833	2.60223	0.54895	2.14947									0.919537	3.62916						
0.660505	2.59926	0.551026	2.14975									0.921105	3.62202						
0.662179	2.59633	0.553102	2.15003									0.92267	3.61493						
0.663855	2.59343	0.555177	2.15031									0.924232	3.60789						
0.665532	2.59055	0.557253	2.15059									0.925793	3.60088						
0.667212	2.58771	0.559329	2.15087									0.927351	3.59392						
0.668894	2.58489	0.561404	2.15114									0.928907	3.587						
0.670578	2.5821	0.56348	2.15142									0.930462	3.58012						
0.672263	2.57934	0.565556	2.15169									0.932014	3.57328						
0.673951	2.5766	0.567631	2.15196									0.933565	3.56649						
0.67564	2.57389	0.569707	2.15222									0.935114	3.55974						
0.677332	2.57121	0.571782	2.15249									0.936661	3.55302						
0.679025	2.56855	0.573858	2.15275									0.938206	3.54635						
0.68072	2.56592	0.575933	2.15301									0.93975	3.53972						
0.682417	2.56332	0.578009	2.15327									0.941293	3.53313						
0.684116	2.56074	0.580084	2.15353									0.942834	3.52658						
0.685817	2.55818	0.58216	2.15378									0.944373	3.52008						
0.68752	2.55565	0.584235	2.15404									0.945912	3.51361						
0.689224	2.55314	0.58631	2.15429									0.947449	3.50718						
0.69093	2.55066	0.588386	2.15454									0.948984	3.50079						
0.692638	2.5482	0.590461	2.15479									0.950519	3.49444						
0.694348	2.54577	0.592537	2.15503									0.952052	3.48813						
0.69606	2.54335	0.594612	2.15528									0.953584	3.48186						
0.697774	2.54096	0.596687	2.15552									0.955115	3.47563						
0.699489	2.5386	0.598763	2.15576									0.956646	3.46943						
0.701206	2.53625	0.600838	2.156									0.958175	3.46327						
0.702925	2.53393	0.602913	2.15624									0.959703	3.45716						
0.704645	2.53163	0.604989	2.15648									0.961231	3.45108						
0.706367	2.52935	0.607064	2.15671									0.962758	3.44503						
0.708091	2.52709	0.609139	2.15694									0.964284	3.43903						
0.709817	2.52486	0.611214	2.15718									0.965809	3.43306						
0.711544	2.52264	0.613289	2.15741									0.967333	3.42713						
0.713273	2.52045	0.615365	2.15763									0.968857	3.42124						
0.715004	2.51827	0.61744	2.15786									0.97038	3.41538						
0.716737	2.51612	0.619515	2.15809									0.971903	3.40956						
0.718471	2.51398	0.62159	2.15831									0.973425	3.40377						
0.720206	2.51187	0.623665	2.15853									0.974947	3.39802						
0.721944	2.50977	0.62574	2.15875									0.976468	3.39231						
0.723683	2.50769	0.627815	2.15897									0.977989	3.38663						
0.725423	2.50563	0.62989	2.15919									0.97951	3.38099						
0.727166	2.5036	0.631966	2.15941									0.98103	3.37538						
0.728909	2.50157	0.634041	2.15962									0.98255	3.36981						
0.730655	2.49957	0.636116	2.15984									0.984069	3.36427						
0.732402	2.49759	0.638191	2.16005									0.985589	3.35877						
0.73415	2.49562	0.640266	2.16026									0.987108	3.3533						
0.7359	2.49367	0.642341	2.16047									0.988627	3.34786						
0.737652	2.49174	0.644416	2.16068									0.990146	3.34246						
0.739405	2.48983	0.646491	2.16088									0.991664	3.33709						
0.74116	2.48793	0.648565	2.16109									0.993183	3.33175						
0.742916	2.48605	0.65064	2.16129									0.994701	3.32645						
0.744674	2.48419	0.652715	2.1615									0.99622	3.32118						
0.746433	2.48234	0.65479	2.1617									0.997738	3.31594						
0.748194	2.48051	0.656865	2.1619									0.999257	3.31074						
0.749956	2.4787	0.65894	2.1621									1.00078	3.30556						
0.75172	2.4769	0.661015	2.16229																
0.753485	2.47512	0.66309	2.16249																
0.755252	2.47335	0.665165	2.16269																
0.75702	2.4716	0.667239	2.16288																
0.75879	2.46987	0.669314	2.16307																
0.760561	2.46814	0.671389	2.16326																
0.762333	2.46644	0.673464	2.16345																
0.764107	2.46475	0.675539	2.16364																
0.765882	2.46307	0.677613	2.16383																
0.767659	2.46141	0.679688	2.16402																
0.769437	2.45976	0.681763	2.1642																
0.771216	2.45813	0.683837	2.16439																
0.772997	2.45651	0.685912	2.16457																
0.774779	2.45491	0.687987	2.16476																
0.776563	2.45332	0.690062	2.16494																
0.778347	2.45174	0.692136	2.16512																
0.780134	2.45017	0.694211	2.1653																
0.781921	2.44862	0.696285	2.16547																
0.78371	2.44708	0.69836	2.16565																
0.7855	2.44556	0.700435	2.16583																
0.787292	2.44405	0.702509	2.166																
0.789084	2.44255	0.704584	2.16618																
0.790878	2.44106	0.706658	2.16635																
0.792674	2.43959	0.708733	2.16652																
0.79447	2.43813	0.710807	2.16669																
0.796268	2.43668	0.712882	2.16686																
0.798067	2.43524	0.714957	2.16703																
0.799868	2.43381	0.717031	2.1672																
0.801669	2.4324	0.719106	2.16736																
0.803472	2.431	0.72118	2.16753																
0.805276	2.42961	0.723255	2.16769																
0.807082	2.42823	0.725329	2.16786																
0.808888	2.42686	0.727403	2.16802																
0.810696	2.4255	0.729478	2.16818																
0.812505	2.42416	0.731552	2.16834																
0.814315	2.42282	0.733627	2.1685																
0.816126	2.4215	0.735701	2.16866																
0.817939	2.42019	0.737775	2.16882																
0.819753	2.41889	0.73985	2.16898																
0.821567	2.4176	0.741924	2.16914																
0.823383	2.41631	0.743999	2.16929																
0.825201	2.41504	0.746073	2.16945																
0.827019	2.41378	0.748147	2.1696																
0.828838	2.41253	0.750221	2.16975																
0.830659	2.41129	0.752296	2.1699																
0.832481	2.41006	0.75437	2.17006																
0.834303	2.40884	0.756444	2.17021																
0.836127	2.40763	0.758519	2.17036																
0.837952	2.40643	0.760593	2.1705																
0.839778	2.40524	0.762667	2.17065																
0.841606	2.40406	0.764741	2.1708																
0.843434	2.40289	0.766816	2.17095																
0.845263	2.40172	0.76889	2.17109																
0.847094	2.40057	0.770964	2.17124																
0.848925	2.39942	0.773038	2.17138																
0.850758	2.39829	0.775112	2.17152																
0.852591	2.39716	0.777187	2.17167																
0.854426	2.39604	0.779261	2.17181																
0.856262	2.39493	0.781335	2.17195																
0.858098	2.39383	0.783409	2.17209																
0.859936	2.39274	0.785483	2.17223																
0.861775	2.39166	0.787557	2.17237																
0.863615	2.39058	0.789631	2.1725																
0.865455	2.38951	0.791705	2.17264																
0.867297	2.38845	0.793779	2.17278																
0.86914	2.3874	0.795853	2.17291																
0.870984	2.38636	0.797928	2.17305																
0.872828	2.38533	0.800002	2.17318																
0.874674	2.3843	0.802076	2.17332																
0.876521	2.38328	0.80415	2.17345																
0.878369	2.38227	0.806224	2.17358																
0.880217	2.38127	0.808298	2.17371																
0.882067	2.38027	0.810372	2.17384																
0.883917	2.37928	0.812446	2.17397																
0.885769	2.3783	0.81452	2.1741																
0.887621	2.37733	0.816593	2.17423																
0.889475	2.37636	0.818667	2.17436																
0.891329	2.3754	0.820741	2.17449																
0.893184	2.37445	0.822815	2.17461																
0.89504	2.37351	0.824889	2.17474																
0.896897	2.37257	0.826963	2.17487																
0.898755	2.37164	0.829037	2.17499																
0.900614	2.37072	0.831111	2.17511																
0.902474	2.3698	0.833185	2.17524																
0.904334	2.36889	0.835259	2.17536																
0.906196	2.36799	0.837332	2.17548																
0.908058	2.36709	0.839406	2.17561																
0.909922	2.3662	0.84148	2.17573																
0.911786	2.36532	0.843554	2.17585																
0.913651	2.36444	0.845628	2.17597																
0.915517	2.36357	0.847702	2.17609																
0.917383	2.36271	0.849775	2.1762																
0.919251	2.36185	0.851849	2.17632																
0.921119	2.361	0.853923	2.17644																
0.922989	2.36015	0.855997	2.17656																
0.924859	2.35931	0.85807	2.17667																
0.92673	2.35848	0.860144	2.17679																
0.928601	2.35765	0.862218	2.1769																
0.930474	2.35683	0.864292	2.17702																
0.932347	2.35602	0.866365	2.17713																
0.934222	2.35521	0.868439	2.17725																
0.936097	2.35441	0.870513	2.17736																
0.937972	2.35361	0.872586	2.17747																
0.939849	2.35282	0.87466	2.17758																
0.941726	2.35203	0.876734	2.1777																
0.943605	2.35125	0.878807	2.17781																
0.945484	2.35048	0.880881	2.17792																
0.947363	2.34971	0.882955	2.17803																
0.949244	2.34894	0.885028	2.17814																
0.951125	2.34818	0.887102	2.17824																
0.953007	2.34743	0.889175	2.17835																
0.95489	2.34668	0.891249	2.17846																
0.956774	2.34594	0.893323	2.17857																
0.958658	2.3452	0.895396	2.17867																
0.960543	2.34447	0.89747	2.17878																
0.962429	2.34375	0.899543	2.17888																
0.964316	2.34302	0.901617	2.17899																
0.966203	2.34231	0.90369	2.17909																
0.968091	2.3416	0.905764	2.1792																
0.96998	2.34089	0.907837	2.1793																
0.971869	2.34019	0.909911	2.17941																
0.973759	2.33949	0.911984	2.17951																
0.97565	2.3388	0.914058	2.17961																
0.977542	2.33811	0.916131	2.17971																
0.979434	2.33743	0.918205	2.17981																
0.981327	2.33675	0.920278	2.17991																
0.983221	2.33608	0.922352	2.18001																
0.985116	2.33541	0.924425	2.18011																
0.987011	2.33474	0.926498	2.18021																
0.988907	2.33408	0.928572	2.18031																
0.990803	2.33343	0.930645	2.18041																
0.992701	2.33278	0.932719	2.18051																
0.994598	2.33213	0.934792	2.18061																
0.996497	2.33149	0.936865	2.1807																
0.998396	2.33085	0.938939	2.1808																
1.0003	2.33022	0.941012	2.1809																
		0.943085	2.18099																
		0.945159	2.18109																
		0.947232	2.18118																
		0.949305	2.18128																
		0.951379	2.18137																
		0.953452	2.18146																
		0.955525	2.18156																
		0.957599	2.18165																
		0.959672	2.18174																
		0.961745	2.18183																
		0.963818	2.18193																
		0.965892	2.18202																
		0.967965	2.18211																
		0.970038	2.1822																
		0.972111	2.18229																
		0.974185	2.18238																
		0.976258	2.18247																
		0.978331	2.18256																
		0.980404	2.18264																
		0.982477	2.18273																
		0.98455	2.18282																
		0.986624	2.18291																
		0.988697	2.18299																
		0.99077	2.18308																
		0.992843	2.18317																
		0.994916	2.18325																
		0.996989	2.18334																
		0.999062	2.18342																
		1.00114	2.18351																
