Sym0		Asym0		Sym1		Sym2		Sym3		Sym4		Asym1		Asym2		Asym3		Asym4	
469  Points		498  Points		243  Points		213  Points		198  Points		137  Points		337  Points		224  Points		183  Points		113  Points	
Freq (MHz)	Vph (m/ms)	Freq (MHz)	Vph (m/ms)	Freq (MHz)	Vph (m/ms)	Freq (MHz)	Vph (m/ms)	Freq (MHz)	Vph (m/ms)	Freq (MHz)	Vph (m/ms)	Freq (MHz)	Vph (m/ms)	Freq (MHz)	Vph (m/ms)	Freq (MHz)	Vph (m/ms)	Freq (MHz)	Vph (m/ms)
0.00318504	4.84862	7.25088e-005	0.0713834	0.279531	334.303	0.471175	3930.56	0.559018	2431.14	0.838534	972.891	0.139755	1919.21	0.419263	4334.49	0.698783	768.485	0.942349	3959.09
0.00770247	4.84862	0.000266108	0.136644	0.279608	158.162	0.471185	448.078	0.559045	481.256	0.838564	467.533	0.139852	139.223	0.419288	407.701	0.698818	379.588	0.942354	805.626
0.0122196	4.84848	0.000579912	0.201417	0.27974	103.625	0.471213	237.595	0.559107	267.09	0.838615	307.716	0.140116	72.3662	0.419356	213.944	0.698878	252.058	0.942367	448.445
0.0167364	4.84834	0.0010117	0.26548	0.279927	77.0885	0.471259	161.669	0.559205	184.86	0.838688	229.339	0.140546	49.0066	0.419465	145.053	0.698962	188.685	0.942386	310.7
0.0212526	4.84813	0.00155855	0.328631	0.280169	61.4011	0.471321	122.527	0.559339	141.364	0.838781	182.793	0.14114	37.146	0.419617	109.747	0.69907	150.789	0.942412	237.695
0.0257682	4.84786	0.00221691	0.390696	0.280466	51.0436	0.471401	98.6534	0.559508	114.456	0.838895	151.963	0.141894	29.9905	0.41981	88.2844	0.699203	125.58	0.942445	192.473
0.030283	4.84755	0.00298255	0.451495	0.280817	43.6979	0.471498	82.5734	0.559713	96.1688	0.83903	130.04	0.142804	25.2171	0.420045	73.862	0.699359	107.602	0.942485	161.711
0.0347967	4.84718	0.00385084	0.510883	0.281222	38.2198	0.471612	71.0073	0.559953	82.9338	0.839186	113.653	0.143867	21.8156	0.420322	63.5063	0.699539	94.1359	0.942533	139.43
0.0393095	4.84676	0.00481691	0.568748	0.281681	33.9796	0.471744	62.2894	0.560229	72.9132	0.839363	100.94	0.145077	19.2758	0.420641	55.7119	0.699744	83.6728	0.942587	122.548
0.043821	4.8463	0.00587548	0.624983	0.282194	30.602	0.471894	55.4835	0.56054	65.0641	0.839561	90.7913	0.146429	17.3123	0.421002	49.6348	0.699972	75.31	0.942649	109.314
0.048331	4.84577	0.0070212	0.679511	0.282759	27.8495	0.472062	50.0234	0.560886	58.7506	0.83978	82.5024	0.147917	15.753	0.421403	44.765	0.700225	68.4733	0.942718	98.6626
0.0528395	4.8452	0.00824866	0.732276	0.283377	25.5645	0.472248	45.5463	0.561267	53.5632	0.84002	75.6056	0.149536	14.4879	0.421846	40.7763	0.700502	62.7805	0.942794	89.9041
0.0573463	4.84457	0.00955257	0.783247	0.284047	23.6381	0.472452	41.8091	0.561683	49.226	0.84028	69.7778	0.151279	13.4433	0.422331	37.4504	0.700802	57.9672	0.942878	82.5756
0.0618512	4.84388	0.0109275	0.832391	0.284769	21.993	0.472675	38.6427	0.562133	45.5465	0.840562	64.7885	0.153141	12.5681	0.422856	34.6355	0.701126	53.8444	0.94297	76.3535
0.0663541	4.84314	0.0123683	0.879712	0.285542	20.5723	0.472916	35.926	0.562619	42.3861	0.840865	60.4694	0.155116	11.8259	0.423422	32.2228	0.701475	50.274	0.943069	71.0049
0.0708548	4.84235	0.0138701	0.925215	0.286365	19.3338	0.473176	33.5697	0.563138	39.6427	0.841188	56.6941	0.157197	11.1898	0.424029	30.1325	0.701847	47.1522	0.943176	66.358
0.0753531	4.84149	0.0154281	0.968925	0.287238	18.2451	0.473455	31.5069	0.563692	37.2392	0.841532	53.3662	0.159094	10.7061	0.424676	28.3045	0.702243	44.3996	0.94329	62.2834
0.0798488	4.84058	0.0170378	1.01087	0.28816	17.281	0.473753	29.6862	0.564281	35.1166	0.841897	50.4109	0.160769	10.3374	0.425363	26.6927	0.702662	41.9547	0.943413	58.6815
0.0843418	4.8396	0.018695	1.05109	0.28913	16.4216	0.474071	28.0675	0.564903	33.2287	0.842283	47.769	0.162193	10.0588	0.426091	25.2614	0.703105	39.7688	0.943543	55.4747
0.0888317	4.83857	0.0203956	1.08963	0.290148	15.6512	0.474409	26.6192	0.565558	31.5388	0.842689	45.3935	0.163344	9.85355	0.426858	23.9822	0.703572	37.8031	0.943682	52.6015
0.0933186	4.83747	0.0221361	1.12654	0.291214	14.957	0.474767	25.3158	0.566247	30.0176	0.843116	43.2461	0.164202	9.71044	0.427664	22.8324	0.704063	36.026	0.943829	50.0124
0.0978021	4.8363	0.0239128	1.16187	0.292325	14.3284	0.475146	24.1369	0.56697	28.6413	0.843564	41.2955	0.164758	9.6221	0.42851	21.7935	0.704576	34.4117	0.943985	47.6673
0.102282	4.83507	0.0257226	1.19567	0.293483	13.7569	0.475545	23.0655	0.567725	27.3903	0.844032	39.5161	0.165564	9.49934	0.429395	20.8505	0.705114	32.9391	0.944149	45.5334
0.106758	4.83378	0.0275625	1.22801	0.294684	13.2352	0.475966	22.0878	0.568514	26.2485	0.844521	37.8864	0.16645	9.37128	0.430319	19.9909	0.705675	31.5904	0.944322	43.5834
0.11123	4.83241	0.0294297	1.25895	0.29593	12.7573	0.476408	21.192	0.569334	25.2022	0.845031	36.3883	0.167672	9.20553	0.431281	19.2044	0.706258	30.3506	0.944503	41.7946
0.115698	4.83097	0.0313218	1.28853	0.297219	12.3182	0.476872	20.3685	0.570188	24.2403	0.845561	35.0067	0.169244	9.00877	0.432281	18.4821	0.706866	29.2073	0.944694	40.1478
0.120162	4.82946	0.0332364	1.31682	0.29855	11.9133	0.477359	19.6089	0.571073	23.3529	0.846111	33.7284	0.171183	8.78824	0.433319	17.8168	0.707496	28.1497	0.944893	38.6268
0.12462	4.82788	0.0351714	1.34388	0.299923	11.5391	0.477868	18.9063	0.57199	22.532	0.846682	32.5426	0.17351	8.55124	0.434394	17.202	0.708149	27.1685	0.945102	37.2178
0.129074	4.82621	0.0371249	1.36976	0.301336	11.1923	0.4784	18.2544	0.572939	21.7704	0.847273	31.4394	0.176245	8.30469	0.435507	16.6324	0.708826	26.256	0.94532	35.9089
0.133522	4.82446	0.0390951	1.39451	0.302789	10.8701	0.478955	17.6482	0.573919	21.062	0.847884	30.4108	0.179045	8.08186	0.436656	16.1033	0.709525	25.4051	0.945547	34.6898
0.137965	4.82264	0.0410803	1.41819	0.304088	10.6075	0.479534	17.0831	0.57493	20.4015	0.848515	29.4493	0.181908	7.8797	0.437842	15.6107	0.710247	24.61	0.945784	33.5517
0.142401	4.82072	0.0430791	1.44085	0.305217	10.3959	0.480137	16.5551	0.575973	19.7844	0.849167	28.5488	0.18483	7.69568	0.439064	15.151	0.710992	23.8653	0.946031	32.4867
0.146832	4.81872	0.0450901	1.46254	0.306167	10.2289	0.480765	16.0608	0.577045	19.2066	0.849839	27.7036	0.187808	7.52764	0.440322	14.7211	0.71176	23.1666	0.946287	31.4881
0.150687	4.8169	0.0471121	1.4833	0.306928	10.1016	0.481418	15.5971	0.578148	18.6645	0.850531	26.9089	0.190838	7.37374	0.441615	14.3183	0.71255	22.5097	0.946554	30.5498
0.15397	4.81529	0.0491441	1.50318	0.307493	10.0105	0.482097	15.1615	0.579281	18.155	0.851243	26.1603	0.193918	7.23239	0.442943	13.9403	0.713362	21.8911	0.94683	29.6666
0.156681	4.81392	0.050922	1.51982	0.307857	9.95336	0.482801	14.7514	0.580444	17.6753	0.851975	25.4539	0.197046	7.10225	0.444306	13.5848	0.714197	21.3075	0.947117	28.8339
0.158823	4.81281	0.0524425	1.53352	0.308383	9.87267	0.483532	14.3648	0.581636	17.223	0.852726	24.7865	0.200218	6.98212	0.445704	13.2501	0.715054	20.7561	0.947414	28.0474
0.160396	4.81198	0.053703	1.54453	0.30896	9.78688	0.48429	13.9998	0.582858	16.7958	0.853498	24.1547	0.203433	6.87099	0.447135	12.9344	0.715933	20.2344	0.947721	27.3034
0.161403	4.81144	0.0547015	1.55304	0.309752	9.67329	0.485075	13.6547	0.584108	16.3917	0.854289	23.556	0.206688	6.76796	0.4486	12.6362	0.716835	19.7401	0.948039	26.5986
0.16285	4.81065	0.0554367	1.55918	0.310765	9.53452	0.485887	13.3281	0.585387	16.009	0.8551	22.9878	0.209982	6.67225	0.450098	12.3542	0.717758	19.2711	0.948368	25.93
0.164421	4.80979	0.0559076	1.56306	0.312008	9.3736	0.486728	13.0184	0.586695	15.6461	0.855931	22.4479	0.213312	6.58317	0.451629	12.0871	0.718703	18.8255	0.948707	25.2949
0.166556	4.80859	0.0565851	1.56858	0.313489	9.19387	0.487598	12.7246	0.588031	15.3016	0.856782	21.9342	0.216676	6.5001	0.453192	11.8339	0.71967	18.4017	0.949058	24.6909
0.169253	4.80704	0.0573223	1.57449	0.315221	8.99877	0.488496	12.4454	0.589394	14.974	0.857651	21.445	0.220074	6.4225	0.454787	11.5935	0.720659	17.9982	0.949419	24.1158
0.172511	4.8051	0.058326	1.58239	0.316986	8.81469	0.489425	12.18	0.590786	14.6623	0.858541	20.9785	0.223502	6.3499	0.456414	11.365	0.721669	17.6136	0.949792	23.5675
0.176326	4.80275	0.0595972	1.59216	0.318782	8.64077	0.490383	11.9273	0.592204	14.3653	0.859449	20.5332	0.22696	6.28187	0.458072	11.1477	0.7227	17.2466	0.950175	23.0443
0.180695	4.79994	0.0611369	1.60364	0.320609	8.47625	0.491372	11.6865	0.59365	14.0821	0.860377	20.1078	0.230447	6.21802	0.459761	10.9407	0.723753	16.8961	0.950571	22.5444
0.185054	4.79701	0.0629464	1.61667	0.322468	8.32042	0.492392	11.4569	0.595122	13.8118	0.861324	19.701	0.23396	6.158	0.461258	10.7683	0.724827	16.5609	0.950977	22.0665
0.189402	4.79395	0.0650267	1.63107	0.324356	8.17267	0.493443	11.2377	0.596621	13.5535	0.862291	19.3115	0.237499	6.10152	0.462552	10.6268	0.725922	16.2402	0.951395	21.609
0.19374	4.79076	0.0671106	1.6449	0.326273	8.03242	0.494526	11.0284	0.598146	13.3065	0.863276	18.9384	0.241062	6.04829	0.463635	10.5134	0.727037	15.9331	0.951825	21.1708
0.198065	4.78742	0.0691977	1.65819	0.328219	7.89914	0.495497	10.8535	0.599698	13.0701	0.86428	18.5807	0.244648	5.99806	0.464498	10.426	0.728174	15.6387	0.952267	20.7506
0.202378	4.78394	0.0712876	1.67097	0.330193	7.77238	0.496344	10.7097	0.601275	12.8437	0.865304	18.2374	0.248257	5.9506	0.465138	10.363	0.729331	15.3563	0.952721	20.3474
0.206678	4.78031	0.0733801	1.68325	0.332195	7.65169	0.497058	10.5943	0.602877	12.6267	0.866346	17.9077	0.251886	5.90571	0.465549	10.3231	0.730509	15.0851	0.953187	19.9602
0.210964	4.77651	0.0754746	1.69507	0.334224	7.53668	0.497631	10.5052	0.604505	12.4184	0.867407	17.5909	0.255536	5.8632	0.466143	10.2666	0.731707	14.8247	0.953665	19.588
0.215236	4.77255	0.077571	1.70645	0.33628	7.42701	0.498058	10.4408	0.606157	12.2185	0.868486	17.2862	0.259204	5.82289	0.466792	10.2061	0.732926	14.5742	0.954155	19.2301
0.219492	4.76841	0.079669	1.7174	0.338363	7.32233	0.498334	10.4002	0.607834	12.0265	0.869584	16.9929	0.262891	5.78464	0.467681	10.1254	0.734165	14.3333	0.954657	18.8856
0.223732	4.7641	0.0817683	1.72795	0.340471	7.22234	0.498733	10.3424	0.609536	11.8418	0.870701	16.7105	0.266595	5.74829	0.468814	10.0257	0.735424	14.1014	0.955172	18.5538
0.227955	4.75958	0.0838689	1.73812	0.342606	7.12677	0.49917	10.2806	0.611262	11.6642	0.871836	16.4383	0.270315	5.71373	0.470199	9.90864	0.736702	13.878	0.955699	18.234
0.232159	4.75487	0.0859704	1.74792	0.344767	7.03536	0.499773	10.1979	0.613012	11.4933	0.87299	16.1759	0.274051	5.68082	0.471844	9.77604	0.738001	13.6627	0.956239	17.9257
0.236344	4.74995	0.0880727	1.75737	0.346953	6.94788	0.500546	10.0958	0.614786	11.3286	0.874161	15.9227	0.277802	5.64946	0.473757	9.62979	0.739319	13.455	0.956792	17.6282
0.240509	4.74481	0.0901756	1.76649	0.349165	6.86412	0.501499	9.97578	0.616583	11.17	0.875351	15.6783	0.281567	5.61956	0.475698	9.48952	0.740657	13.2546	0.957358	17.3409
0.244652	4.73943	0.0922791	1.7753	0.351404	6.78387	0.502642	9.83959	0.618168	11.0364	0.876559	15.4423	0.285345	5.591	0.477666	9.3549	0.742013	13.0611	0.957936	17.0634
0.248773	4.73382	0.094383	1.7838	0.353668	6.70695	0.503985	9.68918	0.619533	10.9257	0.877785	15.2142	0.289137	5.56372	0.47966	9.22562	0.74339	12.8742	0.958527	16.7952
0.25287	4.72795	0.0964871	1.79201	0.355959	6.63319	0.505365	9.54473	0.620671	10.8364	0.879029	14.9936	0.29294	5.53763	0.48168	9.10139	0.744785	12.6935	0.959132	16.5359
0.256941	4.72182	0.0985914	1.79995	0.358277	6.56245	0.50678	9.40595	0.621577	10.7672	0.880291	14.7802	0.296755	5.51265	0.483727	8.98193	0.746199	12.5188	0.95975	16.2849
0.260985	4.71541	0.100696	1.80762	0.360621	6.49456	0.508232	9.27255	0.622247	10.717	0.88157	14.5737	0.300581	5.48873	0.485799	8.867	0.747632	12.3498	0.960381	16.042
0.265002	4.70871	0.1028	1.81504	0.362994	6.42942	0.50972	9.14427	0.622677	10.6852	0.882868	14.3738	0.304417	5.46579	0.487895	8.75637	0.749084	12.1863	0.961025	15.8068
0.268988	4.70171	0.104905	1.82222	0.365395	6.36688	0.511246	9.02085	0.623297	10.64	0.884182	14.1801	0.308263	5.44377	0.490017	8.64981	0.750554	12.0279	0.961683	15.5789
0.272943	4.69439	0.107009	1.82917	0.367826	6.30684	0.512808	8.90208	0.623974	10.5914	0.885515	13.9924	0.312118	5.42263	0.492163	8.54712	0.752043	11.8745	0.962355	15.358
0.276865	4.68674	0.109113	1.8359	0.370286	6.24919	0.514408	8.78772	0.624899	10.5262	0.886864	13.8104	0.315982	5.40231	0.494333	8.44811	0.75355	11.7258	0.96304	15.1437
0.280753	4.67876	0.111217	1.84242	0.372777	6.19384	0.516046	8.67758	0.626077	10.4454	0.888231	13.6339	0.319854	5.38277	0.496527	8.35261	0.755075	11.5816	0.963739	14.9359
0.284604	4.67041	0.113321	1.84874	0.3753	6.1407	0.517722	8.57147	0.627512	10.3498	0.889615	13.4626	0.323733	5.36395	0.498743	8.26043	0.756618	11.4417	0.964452	14.7342
0.288416	4.6617	0.115424	1.85486	0.377856	6.08969	0.519436	8.46921	0.629211	10.2407	0.891016	13.2963	0.32762	5.34583	0.500983	8.17143	0.757978	11.3233	0.965179	14.5384
0.292189	4.65261	0.117527	1.86079	0.380447	6.04073	0.521188	8.37062	0.631181	10.1193	0.892434	13.1349	0.331514	5.32836	0.503245	8.08546	0.759147	11.2247	0.96592	14.3482
0.295919	4.64313	0.11963	1.86655	0.383072	5.99375	0.522978	8.27555	0.633172	10.0018	0.893869	12.978	0.335413	5.3115	0.50553	8.00237	0.760121	11.1448	0.966675	14.1634
0.299605	4.63324	0.121733	1.87214	0.385734	5.94868	0.524807	8.18383	0.635184	9.88808	0.895321	12.8256	0.339319	5.29522	0.507836	7.92205	0.760896	11.0826	0.967444	13.9837
0.303246	4.62293	0.123835	1.87757	0.388434	5.90547	0.526675	8.09535	0.637218	9.77791	0.89679	12.6774	0.34323	5.27949	0.510164	7.84435	0.761469	11.0374	0.968227	13.8091
0.306839	4.6122	0.125936	1.88283	0.391172	5.86404	0.528582	8.00994	0.639272	9.67117	0.898275	12.5334	0.347146	5.26428	0.512513	7.76917	0.761836	11.0088	0.969025	13.6392
0.310383	4.60103	0.128038	1.88795	0.393951	5.82435	0.530527	7.92749	0.641346	9.5677	0.899777	12.3932	0.351067	5.24957	0.514883	7.69639	0.762366	10.9679	0.969838	13.474
0.313876	4.58942	0.130139	1.89292	0.396772	5.78634	0.532511	7.84788	0.643441	9.46736	0.901295	12.2568	0.354991	5.23532	0.517273	7.62592	0.762944	10.924	0.970665	13.3132
0.317316	4.57737	0.132239	1.89776	0.399634	5.74996	0.534533	7.77098	0.645557	9.37003	0.902829	12.1241	0.35892	5.22151	0.519684	7.55765	0.763734	10.8649	0.971507	13.1566
0.320702	4.56486	0.134339	1.90246	0.402541	5.71517	0.536595	7.6967	0.647692	9.27559	0.90438	11.9948	0.362851	5.20811	0.522115	7.49149	0.764739	10.7913	0.972363	13.0041
0.324033	4.5519	0.136438	1.90703	0.405492	5.6819	0.538694	7.62492	0.649846	9.1839	0.905947	11.8689	0.366786	5.19512	0.524565	7.42736	0.765963	10.704	0.973235	12.8556
0.327307	4.53849	0.138538	1.91148	0.408488	5.65012	0.540832	7.55554	0.65202	9.09488	0.90753	11.7463	0.370724	5.18249	0.527035	7.36517	0.76741	10.6039	0.974121	12.7108
0.330523	4.52463	0.140636	1.9158	0.41153	5.61978	0.543008	7.48847	0.654214	9.0084	0.908922	11.642	0.374663	5.17023	0.529523	7.30483	0.769087	10.492	0.975023	12.5698
0.33368	4.51033	0.142735	1.92002	0.414619	5.59083	0.545223	7.42362	0.656427	8.92438	0.910118	11.5549	0.378605	5.1583	0.532031	7.24629	0.770781	10.3832	0.975939	12.4323
0.336779	4.4956	0.144832	1.92412	0.417755	5.56323	0.547475	7.36091	0.658658	8.84271	0.911114	11.4841	0.382548	5.14669	0.534556	7.18946	0.772491	10.2772	0.976871	12.2982
0.339817	4.48044	0.14693	1.92812	0.420938	5.53692	0.549764	7.30024	0.660909	8.7633	0.911906	11.4289	0.386492	5.13538	0.5371	7.13428	0.774217	10.1741	0.977818	12.1674
0.342796	4.46487	0.149027	1.93202	0.424169	5.51186	0.552091	7.24155	0.663177	8.68608	0.91249	11.3887	0.390436	5.12436	0.539662	7.08068	0.77596	10.0736	0.978781	12.0398
0.345715	4.4489	0.151123	1.93581	0.427446	5.488	0.554455	7.18475	0.665464	8.61096	0.912866	11.3632	0.394382	5.11361	0.542242	7.0286	0.77772	9.97582	0.979759	11.9153
0.348575	4.43255	0.153219	1.93952	0.430769	5.4653	0.556855	7.12978	0.66777	8.53786	0.913406	11.3267	0.398327	5.10311	0.544839	6.978	0.779495	9.88051	0.980624	11.8092
0.351375	4.41585	0.155315	1.94313	0.434139	5.4437	0.559292	7.07656	0.670093	8.4667	0.913996	11.2875	0.402272	5.09286	0.547453	6.9288	0.781286	9.78762	0.981371	11.7205
0.354117	4.3988	0.15741	1.94665	0.437554	5.42316	0.561765	7.02504	0.672434	8.39742	0.914801	11.2346	0.406216	5.08285	0.550084	6.88096	0.783093	9.69708	0.981996	11.6483
0.356802	4.38144	0.159505	1.95009	0.441013	5.40363	0.564274	6.97514	0.674792	8.32996	0.915824	11.1687	0.41016	5.07305	0.552732	6.83443	0.784915	9.60879	0.982493	11.592
0.35943	4.36378	0.161599	1.95344	0.444515	5.38507	0.566817	6.9268	0.677168	8.26424	0.917069	11.0903	0.414102	5.06346	0.555397	6.78916	0.786753	9.52268	0.982862	11.551
0.362002	4.34586	0.163693	1.95672	0.448059	5.36742	0.569395	6.87998	0.679562	8.20021	0.918541	11.0001	0.418043	5.05406	0.558077	6.74511	0.788607	9.43867	0.983099	11.5249
0.364521	4.32769	0.165787	1.95992	0.451644	5.35065	0.572008	6.83461	0.681972	8.1378	0.920244	10.8989	0.421981	5.04485	0.560774	6.70223	0.790476	9.3567	0.98344	11.4877
0.366987	4.3093	0.16788	1.96304	0.455268	5.3347	0.574654	6.79063	0.684399	8.07697	0.921962	10.8	0.425917	5.03582	0.563486	6.66048	0.792359	9.27669	0.983814	11.4476
0.369402	4.29071	0.169973	1.96609	0.45893	5.31954	0.577334	6.748	0.686844	8.01766	0.923696	10.7035	0.429851	5.02695	0.566215	6.61983	0.794258	9.19858	0.984326	11.3936
0.371767	4.27196	0.172066	1.96908	0.462628	5.30511	0.580047	6.70668	0.689304	7.95981	0.925444	10.6092	0.433781	5.01824	0.568958	6.58023	0.796172	9.12231	0.984978	11.3261
0.374085	4.25306	0.174158	1.97199	0.466361	5.29138	0.582792	6.6666	0.691781	7.90338	0.927207	10.5171	0.437709	5.00968	0.571717	6.54165	0.7981	9.04782	0.985774	11.2457
0.376357	4.23404	0.17625	1.97485	0.470127	5.27832	0.585569	6.62773	0.694275	7.84833	0.928985	10.4271	0.441632	5.00125	0.574491	6.50405	0.800043	8.97505	0.986721	11.1532
0.378584	4.21492	0.178341	1.97763	0.473925	5.26587	0.588377	6.59002	0.696784	7.7946	0.930778	10.3391	0.445551	4.99295	0.57728	6.46741	0.802	8.90394	0.987821	11.0493
0.38077	4.19572	0.180432	1.98036	0.477752	5.254	0.591217	6.55343	0.699309	7.74216	0.932585	10.2531	0.449466	4.98478	0.580084	6.43169	0.803972	8.83445	0.988939	10.9477
0.382914	4.17648	0.182523	1.98303	0.481607	5.24268	0.594086	6.51793	0.701851	7.69096	0.934407	10.1689	0.453377	4.97672	0.582903	6.39685	0.805958	8.76652	0.990072	10.8484
0.385019	4.15719	0.184613	1.98564	0.485489	5.23188	0.596985	6.48346	0.704408	7.64097	0.936243	10.0866	0.457282	4.96877	0.585736	6.36289	0.807958	8.70011	0.991222	10.7512
0.387087	4.13789	0.186703	1.9882	0.489397	5.22156	0.599914	6.45	0.70698	7.59214	0.938093	10.0061	0.461182	4.96093	0.588583	6.32975	0.809972	8.63516	0.992389	10.6562
0.38912	4.1186	0.188793	1.9907	0.493328	5.21169	0.602871	6.41751	0.709568	7.54445	0.939958	9.92736	0.465076	4.95317	0.591445	6.29743	0.812	8.57164	0.993572	10.5632
0.391118	4.09933	0.190883	1.99315	0.497281	5.20225	0.605857	6.38596	0.712171	7.49785	0.941836	9.85027	0.468963	4.94551	0.594321	6.26589	0.814041	8.5095	0.994772	10.4722
0.393084	4.08009	0.192972	1.99555	0.501254	5.1932	0.60887	6.35531	0.714789	7.45232	0.943729	9.77482	0.472845	4.93792	0.59721	6.23511	0.816097	8.4487	0.995989	10.3832
0.395019	4.0609	0.195061	1.99791	0.505248	5.18453	0.61191	6.32553	0.717422	7.40781	0.945635	9.70095	0.476719	4.93041	0.600114	6.20507	0.818165	8.38919	0.997223	10.2961
0.396925	4.04178	0.197149	2.00021	0.509259	5.1762	0.614977	6.29659	0.72007	7.36431	0.947556	9.62862	0.480587	4.92297	0.603032	6.17575	0.820247	8.33095	0.998474	10.2108
0.398802	4.02274	0.199237	2.00247	0.513287	5.16821	0.61807	6.26846	0.722733	7.32177	0.94949	9.55778	0.484446	4.91559	0.605963	6.14711	0.822343	8.27394	0.999743	10.1272
0.400654	4.00378	0.201325	2.00468	0.517331	5.16051	0.621189	6.24111	0.72541	7.28018	0.951437	9.4884	0.488298	4.90827	0.608908	6.11915	0.824451	8.21812	1.00103	10.0455
0.40248	3.98493	0.203413	2.00685	0.521389	5.1531	0.624333	6.21453	0.728102	7.23951	0.953398	9.42043	0.492141	4.90101	0.611867	6.09185	0.826572	8.16345		
0.404282	3.96619	0.205501	2.00898	0.525461	5.14596	0.627501	6.18867	0.730809	7.19972	0.955373	9.35383	0.495976	4.89379	0.614839	6.06518	0.828707	8.1099		
0.406061	3.94756	0.207588	2.01107	0.529545	5.13906	0.630693	6.16351	0.733529	7.16079	0.957361	9.28856	0.499802	4.88662	0.617825	6.03913	0.830854	8.05745		
0.407819	3.92906	0.209675	2.01312	0.533641	5.1324	0.633908	6.13904	0.736264	7.1227	0.959362	9.22459	0.503618	4.87948	0.620824	6.01368	0.833014	8.00606		
0.409556	3.9107	0.211762	2.01512	0.537746	5.12596	0.637147	6.11523	0.739012	7.08543	0.961376	9.16188	0.507424	4.87237	0.623837	5.98881	0.835187	7.9557		
0.411274	3.89247	0.213848	2.0171	0.541862	5.11972	0.640408	6.09205	0.741775	7.04895	0.963403	9.10039	0.511221	4.8653	0.626863	5.96451	0.837372	7.90635		
0.412974	3.8744	0.215934	2.01903	0.545986	5.11367	0.643692	6.06949	0.744551	7.01324	0.965443	9.0401	0.515006	4.85825	0.629902	5.94077	0.83957	7.85798		
0.414657	3.85647	0.21802	2.02093	0.550117	5.10779	0.646996	6.04753	0.747341	6.97828	0.967496	8.98097	0.518781	4.85122	0.632955	5.91756	0.84178	7.81055		
0.416323	3.8387	0.220106	2.02279	0.554256	5.10208	0.650322	6.02613	0.750145	6.94405	0.969562	8.92298	0.522544	4.84421	0.636021	5.89488	0.844002	7.76405		
0.417973	3.8211	0.222192	2.02462	0.558401	5.09653	0.653669	6.0053	0.752962	6.91053	0.97164	8.86608	0.526296	4.83721	0.6391	5.8727	0.846237	7.71845		
0.419609	3.80365	0.224277	2.02642	0.562551	5.09112	0.657036	5.985	0.755793	6.87769	0.973731	8.81026	0.530036	4.83022	0.642192	5.85103	0.848483	7.67373		
0.421231	3.78638	0.226362	2.02819	0.566707	5.08584	0.660422	5.96522	0.758637	6.84554	0.975834	8.75548	0.533763	4.82323	0.645298	5.82984	0.850742	7.62987		
0.42284	3.76927	0.228447	2.02992	0.570866	5.08068	0.663828	5.94595	0.761494	6.81403	0.97795	8.70172	0.537477	4.81624	0.648417	5.80912	0.853012	7.58684		
0.424436	3.75234	0.230532	2.03163	0.575029	5.07565	0.667253	5.92716	0.764365	6.78317	0.980078	8.64895	0.541178	4.80926	0.65155	5.78886	0.855294	7.54462		
0.426021	3.73558	0.232616	2.0333	0.579195	5.07072	0.670696	5.90884	0.767248	6.75292	0.982218	8.59715	0.544865	4.80226	0.654696	5.76906	0.857589	7.50319		
0.427595	3.719	0.2347	2.03495	0.583363	5.06589	0.674157	5.89098	0.770145	6.72328	0.98437	8.5463	0.548538	4.79526	0.657855	5.74969	0.859894	7.46253		
0.429158	3.70259	0.236785	2.03657	0.587533	5.06115	0.677637	5.87357	0.773054	6.69424	0.986534	8.49636	0.552197	4.78825	0.661027	5.73075	0.862212	7.42262		
0.430712	3.68636	0.238868	2.03816	0.591705	5.05651	0.681133	5.85658	0.775977	6.66576	0.98871	8.44732	0.555841	4.78122	0.664213	5.71223	0.864541	7.38345		
0.432256	3.67031	0.240952	2.03972	0.595877	5.05194	0.684646	5.84	0.778912	6.63785	0.990898	8.39915	0.55947	4.77417	0.667412	5.69412	0.866881	7.345		
0.433792	3.65444	0.243036	2.04126	0.600049	5.04744	0.688176	5.82383	0.78186	6.61049	0.993098	8.35184	0.563084	4.76711	0.670624	5.6764	0.869233	7.30724		
0.43532	3.63875	0.245119	2.04278	0.604222	5.04301	0.691722	5.80804	0.784821	6.58366	0.995309	8.30536	0.566681	4.76002	0.67385	5.65908	0.871596	7.27016		
0.43684	3.62324	0.247202	2.04426	0.608393	5.03865	0.695284	5.79264	0.787794	6.55735	0.997531	8.25969	0.570263	4.7529	0.677089	5.64214	0.87397	7.23375		
0.438353	3.60791	0.249286	2.04573	0.612564	5.03434	0.698862	5.77759	0.79078	6.53155	0.999766	8.21482	0.573827	4.74576	0.680342	5.62557	0.876356	7.19799		
0.439859	3.59276	0.251369	2.04717	0.616732	5.03009	0.702454	5.76291	0.793779	6.50625	1.00201	8.17072	0.577375	4.73859	0.683608	5.60936	0.878753	7.16286		
0.441359	3.57778	0.253451	2.04859	0.620899	5.02588	0.706062	5.74856	0.79679	6.48143			0.580906	4.73139	0.686888	5.59351	0.881161	7.12835		
0.442854	3.56299	0.255534	2.04998	0.625064	5.02172	0.709684	5.73455	0.799813	6.45709			0.584419	4.72415	0.690181	5.578	0.88358	7.09445		
0.444342	3.54837	0.257616	2.05136	0.629226	5.0176	0.71332	5.72086	0.802849	6.43321			0.587914	4.71688	0.693488	5.56284	0.88601	7.06114		
0.445826	3.53392	0.259699	2.05271	0.633385	5.01351	0.71697	5.70749	0.805897	6.40978			0.59139	4.70957	0.696808	5.54801	0.888451	7.02841		
0.447305	3.51965	0.261781	2.05404	0.63754	5.00946	0.720634	5.69442	0.808958	6.38679			0.594849	4.70222	0.700141	5.5335	0.890903	6.99624		
0.44878	3.50555	0.263863	2.05535	0.641691	5.00543	0.724311	5.68165	0.81203	6.36424			0.598288	4.69483	0.703488	5.51931	0.893366	6.96462		
0.45025	3.49163	0.265945	2.05664	0.645838	5.00144	0.728001	5.66916	0.815115	6.34211			0.601708	4.6874	0.706848	5.50543	0.89584	6.93354		
0.451717	3.47788	0.268026	2.05791	0.649981	4.99746	0.731704	5.65695	0.818213	6.32039			0.605109	4.67993	0.710222	5.49185	0.898324	6.90299		
0.45318	3.46429	0.270108	2.05916	0.654118	4.9935	0.735419	5.64501	0.821322	6.29908			0.608491	4.67241	0.713609	5.47857	0.900819	6.87296		
0.454641	3.45088	0.272189	2.0604	0.658251	4.98956	0.739147	5.63334	0.824444	6.27816			0.611852	4.66485	0.717009	5.46558	0.903325	6.84343		
0.456098	3.43763	0.274271	2.06161	0.662378	4.98563	0.742886	5.62192	0.827578	6.25763			0.615193	4.65724	0.720423	5.45288	0.905842	6.8144		
0.457553	3.42455	0.276352	2.06281	0.666499	4.98172	0.746637	5.61074	0.830724	6.23747			0.618514	4.64959	0.723849	5.44045	0.908369	6.78585		
0.459005	3.41163	0.278433	2.06399	0.670614	4.97781	0.750399	5.59981	0.833882	6.21769			0.621815	4.64189	0.727289	5.42829	0.910907	6.75778		
0.460455	3.39887	0.280514	2.06515	0.674722	4.97391	0.754173	5.58911	0.837053	6.19827			0.625095	4.63414	0.730742	5.41639	0.913455	6.73016		
0.461904	3.38627	0.282595	2.0663	0.678824	4.97001	0.757958	5.57864	0.840236	6.17921			0.628354	4.62634	0.734208	5.40476	0.916014	6.70301		
0.46335	3.37383	0.284676	2.06743	0.682919	4.96611	0.761753	5.56839	0.84343	6.16049			0.631591	4.6185	0.737686	5.39337	0.918584	6.67629		
0.464796	3.36155	0.286756	2.06854	0.687006	4.96222	0.765559	5.55835	0.846637	6.14212			0.634808	4.61061	0.741178	5.38224	0.921164	6.65001		
0.466239	3.34942	0.288837	2.06964	0.691086	4.95832	0.769374	5.54852	0.849856	6.12408			0.638004	4.60267	0.744682	5.37134	0.923755	6.62416		
0.467682	3.33745	0.290917	2.07072	0.695158	4.95441	0.7732	5.5389	0.853088	6.10636			0.641178	4.59469	0.748198	5.36068	0.926356	6.59873		
0.469124	3.32563	0.292997	2.07179	0.699222	4.95051	0.777036	5.52947	0.856331	6.08897			0.64433	4.58666	0.751727	5.35025	0.928967	6.5737		
0.470565	3.31395	0.295078	2.07285	0.703278	4.94659	0.780881	5.52023	0.859587	6.0719			0.647461	4.57858	0.755267	5.34004	0.931589	6.54908		
0.472005	3.30243	0.297158	2.07388	0.707325	4.94266	0.784736	5.51118	0.862854	6.05513			0.65057	4.57045	0.75882	5.33005	0.934222	6.52485		
0.473445	3.29105	0.299238	2.07491	0.711363	4.93873	0.788599	5.50231	0.866134	6.03866			0.653658	4.56228	0.762385	5.32027	0.936865	6.501		
0.474885	3.27982	0.301318	2.07592	0.715392	4.93478	0.792472	5.49362	0.869427	6.0225			0.656724	4.55407	0.765961	5.3107	0.939518	6.47753		
0.476325	3.26873	0.303397	2.07692	0.719411	4.93082	0.796353	5.4851	0.872731	6.00662			0.659768	4.54581	0.769549	5.30133	0.942181	6.45444		
0.477764	3.25778	0.305477	2.0779	0.723421	4.92684	0.800242	5.47674	0.876048	5.99103			0.66279	4.5375	0.773148	5.29215	0.944855	6.4317		
0.479204	3.24696	0.307557	2.07887	0.727422	4.92285	0.80414	5.46855	0.879377	5.97572			0.665791	4.52916	0.776758	5.28317	0.94754	6.40933		
0.480644	3.23629	0.309636	2.07983	0.731412	4.91884	0.808046	5.46051	0.882719	5.96069			0.66877	4.52077	0.780379	5.27437	0.950234	6.3873		
0.482084	3.22575	0.311716	2.08077	0.735392	4.91481	0.811959	5.45263	0.886072	5.94593			0.671727	4.51234	0.78401	5.26576	0.952939	6.36562		
0.483525	3.21535	0.313795	2.08171	0.739362	4.91076	0.815881	5.44489	0.889439	5.93144			0.674663	4.50387	0.787652	5.25732	0.955654	6.34427		
0.484966	3.20507	0.315874	2.08263	0.74332	4.90669	0.819809	5.4373	0.892817	5.9172			0.677577	4.49537	0.791304	5.24905	0.95838	6.32325		
0.486408	3.19493	0.317953	2.08354	0.747269	4.9026	0.823745	5.42985	0.896208	5.90323			0.68047	4.48682	0.794966	5.24095	0.961116	6.30256		
0.487851	3.18492	0.320032	2.08444	0.751206	4.89849	0.827687	5.42254	0.899612	5.8895			0.683341	4.47825	0.798637	5.23301	0.963862	6.28219		
0.489294	3.17503	0.322111	2.08532	0.755131	4.89435	0.831637	5.41536	0.903028	5.87603			0.686191	4.46963	0.802318	5.22523	0.966618	6.26212		
0.490739	3.16527	0.32419	2.0862	0.759046	4.89019	0.835593	5.40831	0.906457	5.86279			0.68902	4.46099	0.806007	5.2176	0.969384	6.24237		
0.492184	3.15563	0.326269	2.08706	0.762948	4.88601	0.839555	5.40138	0.909898	5.8498			0.691828	4.45231	0.809706	5.21012	0.972161	6.22291		
0.493631	3.14611	0.328348	2.08792	0.766839	4.8818	0.843524	5.39458	0.913352	5.83704			0.694615	4.4436	0.813413	5.20278	0.974948	6.20375		
0.495079	3.13671	0.330426	2.08876	0.770718	4.87756	0.847498	5.38789	0.916819	5.82452			0.697381	4.43486	0.817128	5.19558	0.977745	6.18489		
0.496528	3.12743	0.332505	2.08959	0.774585	4.8733	0.851478	5.38132	0.920298	5.81222			0.700126	4.42609	0.820851	5.18852	0.980553	6.1663		
0.497979	3.11827	0.334583	2.09041	0.77844	4.86901	0.855463	5.37486	0.923791	5.80014			0.702851	4.4173	0.824582	5.18158	0.98337	6.148		
0.499431	3.10922	0.336662	2.09123	0.782282	4.86469	0.859454	5.3685	0.927295	5.78829			0.705555	4.40848	0.82832	5.17478	0.986198	6.12997		
0.500884	3.10029	0.33874	2.09203	0.786111	4.86034	0.86345	5.36226	0.930813	5.77665			0.708239	4.39964	0.832065	5.16809	0.989036	6.11222		
0.502339	3.09147	0.340819	2.09282	0.789928	4.85597	0.867451	5.35611	0.934344	5.76523			0.710904	4.39078	0.835818	5.16153	0.991884	6.09472		
0.503796	3.08275	0.342897	2.09361	0.793732	4.85157	0.871456	5.35007	0.937888	5.75402			0.713548	4.3819	0.839576	5.15508	0.994742	6.07749		
0.505254	3.07415	0.344975	2.09438	0.797523	4.84714	0.875466	5.34412	0.941444	5.74301			0.716173	4.373	0.843341	5.14874	0.997611	6.06052		
0.506714	3.06565	0.347053	2.09515	0.801301	4.84268	0.87948	5.33826	0.945014	5.7322			0.718778	4.36408	0.847112	5.14251	1.00049	6.0438		
0.508176	3.05726	0.349131	2.0959	0.805066	4.83819	0.883498	5.33249	0.948597	5.7216			0.721364	4.35514	0.850888	5.13639				
0.509639	3.04898	0.351209	2.09665	0.808817	4.83367	0.88752	5.32681	0.952192	5.71119			0.723931	4.34619	0.85467	5.13036				
0.511104	3.04079	0.353287	2.09739	0.812555	4.82911	0.891545	5.32122	0.955801	5.70098			0.726479	4.33723	0.858456	5.12443				
0.512571	3.03271	0.355365	2.09812	0.81628	4.82453	0.895574	5.3157	0.959423	5.69096			0.729008	4.32825	0.862248	5.11859				
0.514041	3.02473	0.357442	2.09884	0.81999	4.81992	0.899606	5.31027	0.963058	5.68112			0.731519	4.31927	0.866044	5.11285				
0.515512	3.01685	0.35952	2.09955	0.823687	4.81528	0.903641	5.30491	0.966706	5.67147			0.734011	4.31027	0.869844	5.10719				
0.516985	3.00906	0.361598	2.10026	0.82737	4.81061	0.907679	5.29963	0.970368	5.66201			0.736486	4.30127	0.873648	5.10162				
0.51846	3.00137	0.363675	2.10096	0.83104	4.80591	0.911719	5.29442	0.974042	5.65272			0.738943	4.29226	0.877455	5.09613				
0.519937	2.99377	0.365753	2.10165	0.834695	4.80118	0.915762	5.28927	0.97773	5.6436			0.741382	4.28325	0.881266	5.09071				
0.521416	2.98627	0.36783	2.10233	0.838336	4.79642	0.919807	5.2842	0.981431	5.63467			0.743803	4.27423	0.88508	5.08537				
0.522897	2.97886	0.369908	2.103	0.841963	4.79163	0.923853	5.27919	0.985146	5.6259			0.746208	4.26522	0.888896	5.08011				
0.524381	2.97154	0.371985	2.10367	0.845576	4.78681	0.927902	5.27424	0.988873	5.6173			0.748595	4.2562	0.892715	5.07491				
0.525866	2.96431	0.374062	2.10433	0.849175	4.78196	0.931952	5.26936	0.992614	5.60886			0.750966	4.24718	0.896536	5.06978				
0.527354	2.95716	0.376139	2.10498	0.852759	4.77708	0.936003	5.26453	0.996369	5.60059			0.75332	4.23816	0.900359	5.06471				
0.528844	2.9501	0.378217	2.10563	0.856329	4.77217	0.940055	5.25976	1.00014	5.59248			0.755658	4.22914	0.904184	5.05971				
0.530336	2.94313	0.380294	2.10627	0.859885	4.76724	0.944108	5.25505					0.75798	4.22013	0.90801	5.05477				
0.531831	2.93624	0.382371	2.1069	0.863426	4.76227	0.948162	5.25038					0.760286	4.21113	0.911837	5.04988				
0.533327	2.92944	0.384448	2.10752	0.866953	4.75728	0.952217	5.24577					0.762576	4.20213	0.915665	5.04505				
0.534826	2.92271	0.386525	2.10814	0.870465	4.75225	0.956272	5.24121					0.764851	4.19314	0.919493	5.04027				
0.536328	2.91607	0.388602	2.10875	0.873963	4.7472	0.960327	5.23669					0.767111	4.18415	0.923322	5.03554				
0.537831	2.90951	0.390678	2.10936	0.877446	4.74213	0.964382	5.23222					0.769356	4.17518	0.927151	5.03086				
0.539337	2.90302	0.392755	2.10996	0.880915	4.73702	0.968437	5.2278					0.771586	4.16622	0.930979	5.02622				
0.540846	2.89662	0.394832	2.11055	0.884369	4.73189	0.972491	5.22341					0.773801	4.15726	0.934807	5.02163				
0.542356	2.89028	0.396909	2.11114	0.887809	4.72673	0.976545	5.21907					0.776002	4.14833	0.938635	5.01708				
0.543869	2.88403	0.398985	2.11172	0.891234	4.72154	0.980599	5.21476					0.778189	4.1394	0.942461	5.01257				
0.545385	2.87785	0.401062	2.11229	0.894645	4.71633	0.984651	5.2105					0.780363	4.13049	0.946287	5.0081				
0.546902	2.87174	0.403138	2.11286	0.898041	4.7111	0.988703	5.20627					0.782522	4.12159	0.95011	5.00366				
0.548423	2.8657	0.405215	2.11343	0.901422	4.70584	0.992753	5.20208					0.784668	4.11271	0.953933	4.99926				
0.549945	2.85973	0.407291	2.11398	0.904789	4.70055	0.996802	5.19792					0.786801	4.10385	0.957753	4.99489				
0.55147	2.85383	0.409368	2.11453	0.908142	4.69524	1.00085	5.19379					0.78892	4.09501	0.961571	4.99056				
0.552997	2.84801	0.411444	2.11508	0.91148	4.68991							0.791027	4.08618	0.965387	4.98625				
0.554527	2.84225	0.413521	2.11562	0.914804	4.68455							0.793122	4.07738	0.9692	4.98197				
0.556059	2.83655	0.415597	2.11616	0.918113	4.67917							0.795204	4.06859	0.97301	4.97772				
0.557594	2.83093	0.417673	2.11669	0.921408	4.67377							0.797273	4.05983	0.976818	4.97349				
0.559131	2.82537	0.419749	2.11721	0.924688	4.66835							0.799331	4.05109	0.980622	4.96929				
0.56067	2.81987	0.421826	2.11773	0.927954	4.6629							0.801377	4.04237	0.984422	4.9651				
0.562212	2.81444	0.423902	2.11825	0.931206	4.65744							0.803412	4.03368	0.988219	4.96094				
0.563756	2.80906	0.425978	2.11876	0.934443	4.65195							0.805435	4.025	0.992012	4.9568				
0.565303	2.80375	0.428054	2.11926	0.937666	4.64645							0.807446	4.01636	0.995801	4.95267				
0.566852	2.79851	0.43013	2.11976	0.940875	4.64092							0.809447	4.00774	0.999586	4.94857				
0.568403	2.79332	0.432206	2.12026	0.94407	4.63538							0.811437	3.99914	1.00337	4.94447				
0.569957	2.78819	0.434282	2.12075	0.947251	4.62982							0.813417	3.99057						
0.571514	2.78312	0.436358	2.12124	0.950417	4.62424							0.815386	3.98203						
0.573072	2.7781	0.438433	2.12172	0.95357	4.61864							0.817345	3.97352						
0.574634	2.77314	0.440509	2.12219	0.956709	4.61302							0.819293	3.96503						
0.576197	2.76824	0.442585	2.12267	0.959833	4.60739							0.821232	3.95658						
0.577763	2.7634	0.444661	2.12313	0.962944	4.60174							0.823161	3.94815						
0.579331	2.75861	0.446736	2.1236	0.966041	4.59608							0.825081	3.93975						
0.580902	2.75387	0.448812	2.12406	0.969124	4.5904							0.826992	3.93138						
0.582475	2.74918	0.450888	2.12451	0.972194	4.58471							0.828893	3.92305						
0.584051	2.74455	0.452963	2.12496	0.97525	4.579							0.830785	3.91474						
0.585629	2.73997	0.455039	2.12541	0.978292	4.57328							0.832669	3.90647						
0.587209	2.73544	0.457114	2.12586	0.981321	4.56754							0.834544	3.89822						
0.588791	2.73096	0.45919	2.12629	0.984336	4.5618							0.83641	3.89001						
0.590376	2.72653	0.461265	2.12673	0.987338	4.55604							0.838268	3.88183						
0.591964	2.72214	0.463341	2.12716	0.990326	4.55026							0.840118	3.87369						
0.593553	2.71781	0.465416	2.12759	0.993302	4.54448							0.841961	3.86557						
0.595145	2.71352	0.467491	2.12801	0.996264	4.53868							0.843795	3.8575						
0.59674	2.70928	0.469567	2.12843	0.999212	4.53288							0.845621	3.84945						
0.598336	2.70509	0.471642	2.12885	1.00215	4.52706							0.847441	3.84144						
0.599935	2.70094	0.473717	2.12926									0.849252	3.83346						
0.601537	2.69684	0.475793	2.12967									0.851057	3.82552						
0.60314	2.69278	0.477868	2.13008									0.852855	3.81761						
0.604746	2.68877	0.479943	2.13048									0.854645	3.80974						
0.606354	2.68479	0.482018	2.13088									0.856429	3.8019						
0.607965	2.68087	0.484093	2.13127									0.858207	3.7941						
0.609578	2.67698	0.486168	2.13166									0.859978	3.78633						
0.611193	2.67313	0.488243	2.13205									0.861742	3.7786						
0.61281	2.66933	0.490318	2.13244									0.8635	3.7709						
0.614429	2.66557	0.492393	2.13282									0.865253	3.76325						
0.616051	2.66184	0.494468	2.1332									0.866999	3.75562						
0.617675	2.65816	0.496543	2.13357									0.86874	3.74804						
0.619301	2.65451	0.498618	2.13395									0.870475	3.74048						
0.620929	2.65091	0.500693	2.13432									0.872204	3.73297						
0.62256	2.64734	0.502768	2.13468									0.873928	3.72549						
0.624193	2.64381	0.504843	2.13505									0.875647	3.71805						
0.625827	2.64031	0.506917	2.13541									0.87736	3.71065						
0.627464	2.63685	0.508992	2.13576									0.879069	3.70328						
0.629104	2.63343	0.511067	2.13612									0.880772	3.69595						
0.630745	2.63004	0.513142	2.13647									0.882471	3.68866						
0.632388	2.62669	0.515216	2.13682									0.884165	3.6814						
0.634034	2.62338	0.517291	2.13717									0.885854	3.67418						
0.635682	2.62009	0.519366	2.13751									0.887539	3.667						
0.637332	2.61684	0.52144	2.13785									0.88922	3.65986						
0.638984	2.61363	0.523515	2.13819									0.890896	3.65275						
0.640638	2.61044	0.525589	2.13852									0.892568	3.64568						
0.642294	2.60729	0.527664	2.13886									0.894236	3.63864						
0.643952	2.60418	0.529738	2.13919									0.8959	3.63165						
0.645612	2.60109	0.531813	2.13951									0.89756	3.62469						
0.647274	2.59803	0.533887	2.13984									0.899216	3.61776						
0.648938	2.59501	0.535962	2.14016									0.900869	3.61088						
0.650605	2.59202	0.538036	2.14048									0.902518	3.60403						
0.652273	2.58905	0.54011	2.1408									0.904164	3.59722						
0.653943	2.58612	0.542185	2.14111									0.905806	3.59044						
0.655616	2.58321	0.544259	2.14143									0.907445	3.5837						
0.65729	2.58034	0.546334	2.14174									0.90908	3.577						
0.658966	2.57749	0.548408	2.14204									0.910713	3.57033						
0.660644	2.57467	0.550482	2.14235									0.912342	3.5637						
0.662324	2.57188	0.552556	2.14265									0.913968	3.55711						
0.664006	2.56912	0.554631	2.14295									0.915592	3.55056						
0.66569	2.56638	0.556705	2.14325									0.917213	3.54404						
0.667376	2.56367	0.558779	2.14355									0.918831	3.53755						
0.669064	2.56099	0.560853	2.14384									0.920446	3.53111						
0.670754	2.55834	0.562927	2.14414									0.922059	3.52469						
0.672446	2.55571	0.565001	2.14443									0.923669	3.51832						
0.674139	2.5531	0.567075	2.14471									0.925276	3.51198						
0.675834	2.55052	0.569149	2.145									0.926882	3.50567						
0.677531	2.54797	0.571223	2.14528									0.928485	3.49941						
0.679231	2.54544	0.573297	2.14557									0.930086	3.49317						
0.680931	2.54293	0.575371	2.14585									0.931684	3.48698						
0.682634	2.54045	0.577445	2.14612									0.933281	3.48081						
0.684339	2.538	0.579519	2.1464									0.934875	3.47469						
0.686045	2.53556	0.581593	2.14667									0.936468	3.46859						
0.687753	2.53315	0.583667	2.14694									0.938059	3.46254						
0.689463	2.53077	0.585741	2.14721									0.939647	3.45651						
0.691174	2.5284	0.587815	2.14748									0.941234	3.45053						
0.692888	2.52606	0.589889	2.14775									0.94282	3.44457						
0.694603	2.52374	0.591963	2.14801									0.944403	3.43865						
0.69632	2.52144	0.594036	2.14827									0.945985	3.43277						
0.698039	2.51917	0.59611	2.14853									0.947566	3.42692						
0.699759	2.51691	0.598184	2.14879									0.949144	3.4211						
0.701481	2.51468	0.600258	2.14905									0.950722	3.41532						
0.703205	2.51247	0.602331	2.1493									0.952298	3.40957						
0.70493	2.51028	0.604405	2.14956									0.953873	3.40385						
0.706657	2.50811	0.606479	2.14981									0.955446	3.39817						
0.708386	2.50596	0.608552	2.15006									0.957018	3.39252						
0.710117	2.50383	0.610626	2.15031									0.958589	3.3869						
0.711849	2.50171	0.6127	2.15055									0.960159	3.38131						
0.713582	2.49962	0.614773	2.1508									0.961728	3.37576						
0.715318	2.49755	0.616847	2.15104									0.963295	3.37024						
0.717055	2.4955	0.618921	2.15128									0.964862	3.36476						
0.718793	2.49346	0.620994	2.15152									0.966427	3.3593						
0.720534	2.49145	0.623068	2.15176									0.967992	3.35388						
0.722275	2.48945	0.625141	2.152									0.969556	3.34849						
0.724019	2.48747	0.627215	2.15223									0.971119	3.34313						
0.725764	2.48551	0.629288	2.15247									0.972681	3.3378						
0.72751	2.48357	0.631362	2.1527									0.974243	3.3325						
0.729259	2.48164	0.633435	2.15293									0.975803	3.32724						
0.731008	2.47973	0.635508	2.15316									0.977363	3.322						
0.732759	2.47784	0.637582	2.15338									0.978923	3.3168						
0.734512	2.47597	0.639655	2.15361									0.980481	3.31163						
0.736266	2.47411	0.641729	2.15384									0.98204	3.30649						
0.738022	2.47227	0.643802	2.15406									0.983597	3.30137						
0.739779	2.47045	0.645875	2.15428									0.985154	3.29629						
0.741538	2.46864	0.647949	2.1545									0.986711	3.29124						
0.743298	2.46685	0.650022	2.15472									0.988267	3.28622						
0.74506	2.46507	0.652095	2.15494									0.989823	3.28123						
0.746823	2.46331	0.654168	2.15515									0.991379	3.27626						
0.748588	2.46157	0.656242	2.15537									0.992934	3.27133						
0.750354	2.45984	0.658315	2.15558									0.994488	3.26643						
0.752121	2.45813	0.660388	2.15579									0.996043	3.26155						
0.75389	2.45643	0.662461	2.156									0.997597	3.25671						
0.75566	2.45474	0.664535	2.15621									0.999151	3.25189						
0.757432	2.45308	0.666608	2.15642									1.00071	3.2471						
0.759205	2.45142	0.668681	2.15662																
0.76098	2.44978	0.670754	2.15683																
0.762756	2.44816	0.672827	2.15703																
0.764533	2.44654	0.6749	2.15724																
0.766312	2.44495	0.676973	2.15744																
0.768092	2.44336	0.679046	2.15764																
0.769874	2.44179	0.681119	2.15784																
0.771656	2.44024	0.683192	2.15803																
0.77344	2.43869	0.685265	2.15823																
0.775226	2.43716	0.687338	2.15843																
0.777013	2.43565	0.689411	2.15862																
0.778801	2.43414	0.691484	2.15881																
0.78059	2.43265	0.693557	2.159																
0.782381	2.43117	0.69563	2.1592																
0.784173	2.42971	0.697703	2.15938																
0.785966	2.42825	0.699776	2.15957																
0.78776	2.42681	0.701849	2.15976																
0.789556	2.42538	0.703922	2.15995																
0.791353	2.42396	0.705995	2.16013																
0.793152	2.42256	0.708068	2.16032																
0.794951	2.42117	0.71014	2.1605																
0.796752	2.41978	0.712213	2.16068																
0.798554	2.41841	0.714286	2.16086																
0.800357	2.41705	0.716359	2.16104																
0.802162	2.41571	0.718432	2.16122																
0.803967	2.41437	0.720504	2.1614																
0.805774	2.41305	0.722577	2.16157																
0.807582	2.41173	0.72465	2.16175																
0.809392	2.41043	0.726722	2.16192																
0.811202	2.40913	0.728795	2.1621																
0.813014	2.40785	0.730868	2.16227																
0.814826	2.40658	0.73294	2.16244																
0.81664	2.40532	0.735013	2.16261																
0.818455	2.40407	0.737086	2.16278																
0.820271	2.40283	0.739158	2.16295																
0.822089	2.4016	0.741231	2.16311																
0.823907	2.40037	0.743304	2.16328																
0.825727	2.39916	0.745376	2.16345																
0.827548	2.39796	0.747449	2.16361																
0.829369	2.39677	0.749521	2.16378																
0.831192	2.39559	0.751594	2.16394																
0.833016	2.39442	0.753666	2.1641																
0.834842	2.39325	0.755739	2.16426																
0.836668	2.3921	0.757811	2.16442																
0.838495	2.39095	0.759884	2.16458																
0.840323	2.38982	0.761956	2.16474																
0.842153	2.38869	0.764029	2.1649																
0.843983	2.38757	0.766101	2.16505																
0.845815	2.38647	0.768173	2.16521																
0.847647	2.38537	0.770246	2.16536																
0.849481	2.38427	0.772318	2.16552																
0.851316	2.38319	0.774391	2.16567																
0.853151	2.38212	0.776463	2.16582																
0.854988	2.38105	0.778535	2.16597																
0.856826	2.37999	0.780608	2.16613																
0.858664	2.37895	0.78268	2.16628																
0.860504	2.3779	0.784752	2.16642																
0.862345	2.37687	0.786825	2.16657																
0.864187	2.37585	0.788897	2.16672																
0.866029	2.37483	0.790969	2.16687																
0.867873	2.37382	0.793041	2.16701																
0.869718	2.37282	0.795114	2.16716																
0.871563	2.37183	0.797186	2.1673																
0.87341	2.37084	0.799258	2.16745																
0.875257	2.36986	0.80133	2.16759																
0.877106	2.36889	0.803402	2.16773																
0.878955	2.36793	0.805475	2.16787																
0.880806	2.36697	0.807547	2.16801																
0.882657	2.36602	0.809619	2.16815																
0.884509	2.36508	0.811691	2.16829																
0.886362	2.36414	0.813763	2.16843																
0.888216	2.36322	0.815835	2.16857																
0.890071	2.3623	0.817907	2.1687																
0.891927	2.36138	0.819979	2.16884																
0.893784	2.36048	0.822051	2.16898																
0.895642	2.35958	0.824123	2.16911																
0.8975	2.35868	0.826196	2.16924																
0.89936	2.3578	0.828268	2.16938																
0.90122	2.35692	0.83034	2.16951																
0.903081	2.35604	0.832412	2.16964																
0.904944	2.35518	0.834484	2.16977																
0.906806	2.35432	0.836556	2.16991																
0.90867	2.35346	0.838627	2.17004																
0.910535	2.35262	0.840699	2.17016																
0.9124	2.35177	0.842771	2.17029																
0.914267	2.35094	0.844843	2.17042																
0.916134	2.35011	0.846915	2.17055																
0.918002	2.34929	0.848987	2.17068																
0.919871	2.34847	0.851059	2.1708																
0.921741	2.34766	0.853131	2.17093																
0.923611	2.34686	0.855203	2.17105																
0.925483	2.34606	0.857275	2.17118																
0.927355	2.34526	0.859346	2.1713																
0.929228	2.34448	0.861418	2.17142																
0.931102	2.34369	0.86349	2.17155																
0.932976	2.34292	0.865562	2.17167																
0.934852	2.34215	0.867634	2.17179																
0.936728	2.34138	0.869705	2.17191																
0.938605	2.34062	0.871777	2.17203																
0.940482	2.33987	0.873849	2.17215																
0.942361	2.33912	0.875921	2.17227																
0.94424	2.33838	0.877992	2.17239																
0.94612	2.33764	0.880064	2.1725																
0.948001	2.33691	0.882136	2.17262																
0.949883	2.33618	0.884207	2.17274																
0.951765	2.33546	0.886279	2.17285																
0.953648	2.33474	0.888351	2.17297																
0.955532	2.33403	0.890422	2.17308																
0.957417	2.33332	0.892494	2.1732																
0.959302	2.33262	0.894566	2.17331																
0.961188	2.33192	0.896637	2.17343																
0.963075	2.33123	0.898709	2.17354																
0.964962	2.33055	0.90078	2.17365																
0.96685	2.32986	0.902852	2.17376																
0.968739	2.32919	0.904923	2.17387																
0.970629	2.32851	0.906995	2.17398																
0.972519	2.32784	0.909067	2.17409																
0.97441	2.32718	0.911138	2.1742																
0.976302	2.32652	0.91321	2.17431																
0.978195	2.32587	0.915281	2.17442																
0.980088	2.32522	0.917353	2.17453																
0.981982	2.32457	0.919424	2.17464																
0.983876	2.32393	0.921496	2.17474																
0.985771	2.3233	0.923567	2.17485																
0.987667	2.32266	0.925638	2.17496																
0.989564	2.32204	0.92771	2.17506																
0.991461	2.32141	0.929781	2.17517																
0.993359	2.32079	0.931853	2.17527																
0.995258	2.32018	0.933924	2.17538																
0.997157	2.31957	0.935995	2.17548																
0.999057	2.31896	0.938067	2.17558																
1.00096	2.31836	0.940138	2.17569																
		0.942209	2.17579																
		0.944281	2.17589																
		0.946352	2.17599																
		0.948423	2.17609																
		0.950495	2.17619																
		0.952566	2.17629																
		0.954637	2.17639																
		0.956709	2.17649																
		0.95878	2.17659																
		0.960851	2.17669																
		0.962922	2.17679																
		0.964993	2.17688																
		0.967065	2.17698																
		0.969136	2.17708																
		0.971207	2.17717																
		0.973278	2.17727																
		0.975349	2.17736																
		0.97742	2.17746																
		0.979492	2.17755																
		0.981563	2.17765																
		0.983634	2.17774																
		0.985705	2.17783																
		0.987776	2.17792																
		0.989847	2.17802																
		0.991918	2.17811																
		0.993989	2.1782																
		0.99606	2.17829																
		0.998131	2.17838																
		1.0002	2.17847																
