Sym0		Asym0		Sym1		Sym2		Sym3		Sym4		Asym1		Asym2		Asym3	
458  Points		493  Points		178  Points		142  Points		124  Points		94  Points		311  Points		155  Points		124  Points	
Freq (MHz)	Vph (m/ms)	Freq (MHz)	Vph (m/ms)	Freq (MHz)	Vph (m/ms)	Freq (MHz)	Vph (m/ms)	Freq (MHz)	Vph (m/ms)	Freq (MHz)	Vph (m/ms)	Freq (MHz)	Vph (m/ms)	Freq (MHz)	Vph (m/ms)	Freq (MHz)	Vph (m/ms)
0.00433815	7.23597	0.00024598	0.160455	0.279524	613.324	0.516431	584.493	0.559049	681.749	0.838526	9497.66	0.139768	526.137	0.419272	997.316	0.698794	826.699
0.0110793	7.23557	0.000632444	0.2566	0.279653	201.56	0.516487	284.527	0.559164	319.209	0.838554	822.125	0.140037	116.956	0.419361	310.157	0.698871	393.292
0.0178187	7.23478	0.00119212	0.350994	0.279913	120.697	0.51658	188.056	0.559363	208.452	0.838628	429.696	0.140644	66.0599	0.419544	183.705	0.699003	258.061
0.0245553	7.23362	0.00191725	0.442976	0.280302	86.2247	0.516713	140.463	0.559644	154.807	0.83875	290.892	0.141586	46.2587	0.41982	130.562	0.69919	192.066
0.0312882	7.23208	0.00279858	0.53207	0.280821	67.1414	0.516885	112.114	0.560008	123.165	0.838918	219.896	0.142852	35.7808	0.420189	101.319	0.699431	152.979
0.0380161	7.23015	0.0038257	0.617895	0.281468	55.0363	0.517097	93.3046	0.560454	102.301	0.839133	176.78	0.144433	29.3318	0.420651	82.8237	0.699728	127.136
0.0447382	7.22785	0.004987	0.700108	0.282242	46.6831	0.517349	79.9152	0.560982	87.5141	0.839395	147.821	0.146316	24.9864	0.421206	70.0775	0.700078	108.785
0.0514531	7.22515	0.00627081	0.77851	0.283142	40.5786	0.517643	69.9006	0.561591	76.4914	0.839704	127.032	0.148485	21.8762	0.421852	60.7658	0.700484	95.0821
0.0581599	7.22207	0.00766531	0.852973	0.284166	35.9281	0.517979	62.1293	0.56228	67.9609	0.840059	111.386	0.150927	19.5521	0.422591	53.6694	0.700943	84.4628
0.0648574	7.21858	0.00915891	0.923438	0.285313	32.2715	0.518359	55.9251	0.563049	61.1659	0.840461	99.1865	0.153624	17.7582	0.42342	48.085	0.701457	75.9931
0.0715443	7.21469	0.0107407	0.989932	0.28658	29.3245	0.518784	50.8586	0.563896	55.6277	0.840909	89.4086	0.156562	16.3381	0.424339	43.5785	0.702025	69.0818
0.0782195	7.21039	0.0124003	1.05251	0.287966	26.9016	0.519254	46.6444	0.564822	51.0289	0.841404	81.3978	0.159724	15.1911	0.425349	39.8676	0.702647	63.3362
0.0848816	7.20565	0.0141281	1.11128	0.289468	24.8767	0.519772	43.0849	0.565824	47.1506	0.841945	74.7158	0.163095	14.2491	0.426447	36.7603	0.703323	58.4854
0.0915295	7.20049	0.0159155	1.1664	0.291084	23.1611	0.520338	40.0396	0.566902	43.837	0.842532	69.0582	0.16666	13.4646	0.427633	34.1221	0.704052	54.3363
0.0981616	7.19488	0.0177546	1.21801	0.292811	21.6905	0.520954	37.4053	0.568055	40.9741	0.843165	64.2068	0.170406	12.8035	0.428907	31.8555	0.704835	50.7477
0.104777	7.18882	0.0196383	1.2663	0.294648	20.4174	0.521622	35.1048	0.569283	38.4769	0.843844	60.0015	0.174319	12.2406	0.430267	29.8883	0.705671	47.6138
0.111373	7.18228	0.0215605	1.31145	0.29659	19.3057	0.522343	33.0792	0.570583	36.2801	0.844569	56.3219	0.178387	11.757	0.431712	28.1658	0.70656	44.8541
0.117949	7.17526	0.0235154	1.35365	0.298637	18.3274	0.523118	31.2825	0.571956	34.3335	0.84534	53.0755	0.182048	11.3889	0.433242	26.6459	0.707501	42.4057
0.124504	7.16773	0.0254985	1.39309	0.300785	17.4608	0.52395	29.6787	0.573399	32.597	0.846156	50.1908	0.18525	11.1082	0.434855	25.2956	0.708495	40.2193
0.131035	7.15969	0.0275054	1.42995	0.303031	16.6886	0.524839	28.2388	0.574913	31.0391	0.847017	47.6107	0.18795	10.8962	0.43655	24.0887	0.709541	38.2554
0.13754	7.15111	0.0295324	1.4644	0.305373	15.9968	0.525788	26.9394	0.576496	29.6339	0.847924	45.2898	0.190117	10.7401	0.438326	23.004	0.710639	36.482
0.144019	7.14198	0.0313128	1.49259	0.307807	15.374	0.526797	25.7613	0.578147	28.3606	0.848876	43.1912	0.191728	10.6312	0.440181	22.0245	0.711788	34.873
0.150468	7.13227	0.0328393	1.51536	0.310333	14.8109	0.52787	24.6889	0.579866	27.2016	0.849872	41.2848	0.192767	10.5641	0.442116	21.136	0.712989	33.4069
0.156886	7.12197	0.0341069	1.53336	0.312946	14.2997	0.529007	23.7089	0.581651	26.1428	0.850913	39.5456	0.19427	10.4708	0.444128	20.3268	0.714241	32.0657
0.163271	7.11103	0.0351123	1.54708	0.315644	13.8341	0.53021	22.8104	0.583502	25.1719	0.851999	37.9527	0.195916	10.3735	0.446216	19.5871	0.715543	30.8344
0.169619	7.09946	0.0358531	1.5569	0.318426	13.4084	0.531481	21.9839	0.585417	24.2787	0.853129	36.4887	0.198177	10.2477	0.448379	18.9087	0.716896	29.7003
0.17593	7.0872	0.0363279	1.56306	0.321288	13.0182	0.532821	21.2215	0.587395	23.4545	0.854303	35.1386	0.20107	10.0984	0.450615	18.2846	0.718298	28.6524
0.182199	7.07424	0.0370112	1.57176	0.324229	12.6595	0.534232	20.5164	0.589437	22.6918	0.855521	33.89	0.204617	9.93132	0.452924	17.7088	0.71975	27.6816
0.188425	7.06055	0.0377551	1.58101	0.327247	12.3288	0.535716	19.8627	0.591541	21.9843	0.856782	32.7319	0.208841	9.75203	0.455304	17.1762	0.721252	26.7797
0.194604	7.04609	0.0387684	1.59325	0.330341	12.0234	0.537274	19.2553	0.593706	21.3263	0.858087	31.655	0.213766	9.56585	0.457753	16.6822	0.722802	25.9399
0.200733	7.03084	0.0400523	1.60819	0.333508	11.7405	0.538908	18.6898	0.595932	20.713	0.859435	30.6513	0.218769	9.3979	0.460271	16.2231	0.724401	25.1562
0.206809	7.01475	0.0416083	1.62549	0.336326	11.5107	0.54062	18.1623	0.598218	20.1403	0.860826	29.7135	0.223844	9.24585	0.462855	15.7955	0.726047	24.4232
0.212829	6.9978	0.0434373	1.64478	0.338772	11.3261	0.542411	17.6694	0.600562	19.6043	0.862259	28.8357	0.228984	9.10768	0.465505	15.3964	0.727742	23.7362
0.218789	6.97994	0.0455406	1.66566	0.340824	11.1808	0.544281	17.208	0.602965	19.1018	0.863735	28.0122	0.234186	8.98173	0.46822	15.0232	0.729484	23.0913
0.224686	6.96115	0.0476476	1.68529	0.342465	11.0703	0.546234	16.7756	0.605426	18.6298	0.865253	27.2384	0.239443	8.86654	0.470997	14.6737	0.731272	22.4848
0.230515	6.94138	0.0497573	1.70376	0.343682	10.9914	0.54827	16.3698	0.607943	18.1859	0.866813	26.51	0.244753	8.76088	0.473836	14.3457	0.733107	21.9135
0.236273	6.92059	0.0518694	1.72117	0.344466	10.942	0.55039	15.9883	0.610517	17.7677	0.868414	25.8231	0.250109	8.66368	0.476735	14.0375	0.734988	21.3744
0.241955	6.89877	0.0539829	1.73759	0.345599	10.8722	0.552596	15.6294	0.613147	17.3732	0.870057	25.1745	0.255509	8.57402	0.479693	13.7475	0.736915	20.8651
0.247558	6.87586	0.0560976	1.75308	0.346839	10.7982	0.554888	15.2912	0.615832	17.0005	0.871741	24.5611	0.260949	8.4911	0.482708	13.4741	0.738886	20.3832
0.253077	6.85184	0.0582131	1.76772	0.34854	10.7004	0.557268	14.9724	0.618571	16.6479	0.873466	23.9802	0.266426	8.41421	0.485781	13.2162	0.740903	19.9267
0.258508	6.82668	0.060329	1.78157	0.350714	10.5812	0.559736	14.6714	0.621365	16.314	0.875231	23.4294	0.271935	8.34273	0.488908	12.9724	0.742963	19.4937
0.263847	6.80036	0.0624449	1.79468	0.353378	10.4435	0.562293	14.3871	0.624212	15.9974	0.877036	22.9064	0.277475	8.27613	0.492089	12.7418	0.745068	19.0824
0.26909	6.77285	0.0645608	1.8071	0.356552	10.2904	0.564939	14.1183	0.627112	15.6969	0.878881	22.4093	0.283042	8.21392	0.495323	12.5235	0.747216	18.6914
0.274233	6.74415	0.0666764	1.81888	0.360259	10.1251	0.567676	13.8639	0.630065	15.4114	0.880766	21.9362	0.288635	8.15569	0.498608	12.3164	0.749406	18.3192
0.279273	6.71424	0.0687916	1.83007	0.364037	9.97023	0.570503	13.6229	0.63307	15.1399	0.88269	21.4856	0.294249	8.10106	0.501943	12.1198	0.751639	17.9647
0.284205	6.68312	0.0709062	1.8407	0.367884	9.82491	0.57342	13.3946	0.636126	14.8814	0.884653	21.0559	0.299883	8.04969	0.505328	11.9331	0.753915	17.6265
0.289027	6.6508	0.0730201	1.85081	0.371803	9.6885	0.576428	13.1781	0.639234	14.6352	0.886654	20.6457	0.305534	8.00129	0.508317	11.7779	0.756231	17.3038
0.293736	6.61729	0.0751334	1.86044	0.375794	9.56039	0.579526	12.9726	0.642394	14.4003	0.888694	20.2538	0.311201	7.95558	0.510893	11.6507	0.758589	16.9954
0.29833	6.58262	0.0772459	1.86962	0.379858	9.44002	0.582714	12.7774	0.645604	14.1762	0.890772	19.879	0.316881	7.91232	0.513042	11.549	0.760987	16.7005
0.302807	6.54682	0.0793576	1.87837	0.383996	9.3269	0.585992	12.5921	0.648864	13.9621	0.892888	19.5204	0.322572	7.87131	0.514754	11.4707	0.763425	16.4183
0.307166	6.50993	0.0814685	1.88673	0.388209	9.22055	0.589358	12.4158	0.652175	13.7576	0.895041	19.1768	0.328272	7.83234	0.516019	11.4143	0.765903	16.1481
0.311406	6.47199	0.0835785	1.89471	0.392496	9.12056	0.592812	12.2482	0.655535	13.5619	0.897231	18.8475	0.33398	7.79524	0.516832	11.3786	0.768421	15.889
0.315527	6.43307	0.0856877	1.90235	0.39686	9.02653	0.596352	12.0886	0.658946	13.3747	0.899458	18.5316	0.339693	7.75984	0.518005	11.3281	0.770977	15.6406
0.31953	6.39323	0.087796	1.90965	0.401299	8.9381	0.599507	11.9558	0.662407	13.1954	0.901721	18.2283	0.34541	7.72601	0.519285	11.2741	0.773571	15.4021
0.323414	6.35254	0.0899035	1.91665	0.405815	8.85493	0.602247	11.8469	0.665917	13.0236	0.904021	17.937	0.35113	7.6936	0.521034	11.202	0.776203	15.173
0.327183	6.31107	0.0920101	1.92336	0.410407	8.77669	0.604548	11.7598	0.669477	12.8589	0.906356	17.6569	0.35685	7.66251	0.523262	11.1131	0.778872	14.9529
0.330837	6.26889	0.0941159	1.92979	0.415073	8.70308	0.606389	11.6927	0.673087	12.701	0.908727	17.3875	0.362569	7.63261	0.525977	11.009	0.781578	14.7411
0.334379	6.22609	0.0962209	1.93597	0.419814	8.63382	0.607755	11.6443	0.676747	12.5494	0.911132	17.1282	0.368285	7.60381	0.529192	10.8912	0.784321	14.5374
0.337812	6.18275	0.0983251	1.9419	0.424628	8.56863	0.608634	11.6138	0.680457	12.4039	0.913573	16.8784	0.373997	7.57601	0.53292	10.7615	0.7871	14.3413
0.341138	6.13895	0.100429	1.94761	0.429513	8.50726	0.609906	11.5704	0.684217	12.2641	0.916048	16.6378	0.379703	7.54912	0.536688	10.6375	0.789914	14.1523
0.344361	6.09476	0.102531	1.9531	0.434466	8.44945	0.611298	11.5241	0.687535	12.1468	0.918557	16.4057	0.385403	7.52308	0.540496	10.5187	0.792763	13.9701
0.347485	6.05027	0.104633	1.95838	0.439486	8.39497	0.613208	11.4623	0.690394	12.05	0.9211	16.1819	0.391093	7.4978	0.544342	10.4049	0.795647	13.7945
0.350512	6.00555	0.106734	1.96347	0.444571	8.34359	0.615649	11.3861	0.692779	11.9721	0.923676	15.9658	0.396774	7.47322	0.548227	10.2958	0.798566	13.625
0.353446	5.96068	0.108835	1.96837	0.449716	8.29511	0.61864	11.2968	0.694679	11.9117	0.926285	15.7571	0.402443	7.44928	0.552149	10.1912	0.801518	13.4614
0.356292	5.91572	0.110935	1.9731	0.454919	8.24931	0.622201	11.1959	0.696084	11.8681	0.928927	15.5556	0.408099	7.42591	0.556107	10.0907	0.804503	13.3033
0.359052	5.87074	0.113034	1.97767	0.460177	8.20602	0.626356	11.0848	0.696986	11.8405	0.931602	15.3607	0.413742	7.40307	0.560102	9.99422	0.807521	13.1506
0.361732	5.82579	0.115133	1.98208	0.465486	8.16503	0.630581	10.9786	0.698288	11.8012	0.934309	15.1722	0.419368	7.3807	0.564132	9.90152	0.810572	13.003
0.364333	5.78094	0.117231	1.98634	0.470843	8.1262	0.634875	10.8769	0.69971	11.7591	0.937047	14.9899	0.424977	7.35875	0.568197	9.8124	0.813655	12.8603
0.36686	5.73624	0.119328	1.99045	0.476244	8.08935	0.639235	10.7795	0.701654	11.7028	0.939817	14.8134	0.430568	7.33719	0.572296	9.72669	0.816769	12.7222
0.369317	5.69173	0.121425	1.99444	0.481687	8.05433	0.643657	10.6862	0.704131	11.6331	0.942618	14.6426	0.436139	7.31597	0.576428	9.64421	0.819915	12.5885
0.371706	5.64747	0.123522	1.99829	0.487167	8.02101	0.648139	10.5967	0.707153	11.5509	0.94545	14.477	0.441689	7.29506	0.580594	9.56482	0.822682	12.4754
0.374031	5.60348	0.125617	2.00202	0.492682	7.98926	0.652678	10.5108	0.710735	11.4575	0.948312	14.3166	0.447216	7.27441	0.584793	9.48835	0.825059	12.3815
0.376296	5.5598	0.127713	2.00563	0.498229	7.95895	0.65727	10.4283	0.714897	11.354	0.951205	14.1611	0.45272	7.25399	0.589025	9.41468	0.827037	12.3055
0.378504	5.51648	0.129808	2.00914	0.503803	7.92998	0.661914	10.349	0.719113	11.2545	0.954127	14.0103	0.458198	7.23378	0.593288	9.34368	0.828609	12.2465
0.380656	5.47353	0.131902	2.01253	0.509403	7.90223	0.666605	10.2727	0.723385	11.1586	0.957079	13.8639	0.463649	7.21374	0.597583	9.27523	0.829769	12.2036
0.382757	5.43098	0.133996	2.01583	0.515025	7.87562	0.671341	10.1992	0.727714	11.0663	0.96006	13.7219	0.469073	7.19384	0.60191	9.20921	0.830514	12.1764
0.384809	5.38885	0.13609	2.01902	0.520667	7.85005	0.676118	10.1284	0.7321	10.9775	0.96307	13.5841	0.474467	7.17406	0.606267	9.14551	0.831587	12.1377
0.386815	5.34717	0.138183	2.02213	0.526326	7.82544	0.680933	10.0602	0.736544	10.892	0.966108	13.4502	0.479831	7.15437	0.610656	9.08404	0.832757	12.096
0.388776	5.30595	0.140276	2.02514	0.531999	7.80172	0.685782	9.99423	0.741048	10.8097	0.969175	13.3201	0.485163	7.13476	0.615075	9.0247	0.834354	12.04
0.390452	5.27042	0.142368	2.02807	0.537685	7.77882	0.690662	9.93051	0.745613	10.7304	0.97227	13.1937	0.490461	7.11519	0.619524	8.96739	0.836384	11.9705
0.391856	5.24042	0.144461	2.03092	0.543381	7.75668	0.69557	9.86888	0.750238	10.6541	0.975392	13.0708	0.495725	7.09565	0.624004	8.91205	0.838854	11.8881
0.393002	5.21581	0.146552	2.03369	0.549085	7.73522	0.700504	9.80921	0.754927	10.5807	0.978542	12.9513	0.500954	7.07613	0.628513	8.85857	0.841771	11.7937
0.393897	5.19649	0.148644	2.03638	0.554795	7.71441	0.705459	9.75137	0.759678	10.5101	0.981309	12.8498	0.506146	7.05659	0.633053	8.8069	0.845144	11.6884
0.394551	5.18236	0.150735	2.039	0.560509	7.69419	0.710432	9.69525	0.764495	10.4421	0.983684	12.7652	0.511299	7.03703	0.637621	8.75696	0.848546	11.5862
0.394967	5.17335	0.152826	2.04156	0.566226	7.67451	0.715421	9.64076	0.769376	10.3767	0.985658	12.6966	0.516413	7.01744	0.64222	8.70868	0.851976	11.4869
0.395561	5.16045	0.154916	2.04404	0.571944	7.65533	0.720423	9.58779	0.774323	10.3138	0.987227	12.6431	0.521487	6.99779	0.646847	8.66199	0.855433	11.3904
0.396203	5.14649	0.157006	2.04646	0.57766	7.63661	0.725435	9.53625	0.779337	10.2534	0.988384	12.6042	0.52652	6.97808	0.651503	8.61683	0.858917	11.2966
0.39707	5.1276	0.159096	2.04882	0.583375	7.61832	0.730455	9.48605	0.784418	10.1953	0.989127	12.5795	0.53151	6.95829	0.656188	8.57315	0.862428	11.2055
0.398155	5.10389	0.161186	2.05112	0.589085	7.60042	0.73548	9.43713	0.789566	10.1394	0.990196	12.5442	0.536456	6.93841	0.660901	8.53089	0.865965	11.1169
0.399451	5.07548	0.163275	2.05337	0.594791	7.58289	0.740509	9.3894	0.794782	10.0857	0.991362	12.5063	0.541358	6.91844	0.665643	8.48999	0.869528	11.0307
0.400951	5.04252	0.165365	2.05556	0.600491	7.56568	0.745539	9.34281	0.800066	10.0341	0.992953	12.4553	0.546214	6.89837	0.670412	8.4504	0.873117	10.9468
0.402646	5.00518	0.167453	2.05769	0.606183	7.54878	0.750569	9.29729	0.805417	9.98456	0.994973	12.3916	0.551025	6.87819	0.67521	8.41208	0.876731	10.8652
0.404314	4.96837	0.169542	2.05978	0.611866	7.53217	0.755597	9.25279	0.810836	9.93696	0.99743	12.3161	0.555788	6.85789	0.680034	8.37497	0.880371	10.7858
0.405956	4.93209	0.171631	2.06181	0.61754	7.51581	0.760622	9.20926	0.816322	9.89125	1.00033	12.2293	0.560504	6.83747	0.684885	8.33903	0.884035	10.7084
0.407575	4.89634	0.173719	2.0638	0.623203	7.49969	0.765644	9.16666	0.821873	9.84735			0.565171	6.81692	0.689763	8.30422	0.887724	10.6331
0.409172	4.8611	0.175807	2.06574	0.628854	7.48379	0.770662	9.12494	0.82749	9.80519			0.569789	6.79625	0.694667	8.27049	0.891437	10.5598
0.410747	4.82639	0.177895	2.06764	0.634492	7.46809	0.775674	9.08408	0.833171	9.7647			0.574358	6.77545	0.699596	8.2378	0.895174	10.4883
0.412302	4.79221	0.179982	2.06949	0.640117	7.45257	0.780681	9.04404	0.838915	9.72582			0.578876	6.75452	0.704551	8.20611	0.898935	10.4186
0.413839	4.75853	0.18207	2.0713	0.645728	7.43721	0.785683	9.00479	0.844721	9.68848			0.583345	6.73346	0.70953	8.17539	0.90272	10.3507
0.415358	4.72538	0.184157	2.07308	0.651323	7.42201	0.79068	8.96632	0.850587	9.65262			0.587762	6.71226	0.714533	8.14559	0.906527	10.2845
0.41686	4.69273	0.186244	2.07481	0.656902	7.40694	0.795671	8.92858	0.856512	9.61816			0.592129	6.69094	0.71956	8.11669	0.910358	10.2199
0.418347	4.66058	0.188331	2.07651	0.662464	7.392	0.800658	8.89158	0.862494	9.58505			0.596445	6.66949	0.724609	8.08863	0.914211	10.1569
0.419819	4.62894	0.190418	2.07817	0.668008	7.37717	0.80564	8.85528	0.868531	9.55323			0.600709	6.64791	0.72968	8.0614	0.918087	10.0955
0.421277	4.59779	0.192505	2.07979	0.673533	7.36244	0.810618	8.81968	0.874622	9.52263			0.604922	6.62621	0.734773	8.03496	0.921985	10.0356
0.422723	4.56712	0.194591	2.08138	0.67904	7.3478	0.815592	8.78475	0.880764	9.49321			0.609083	6.6044	0.739886	8.00927	0.925906	9.97705
0.424157	4.53694	0.196677	2.08294	0.684527	7.33324	0.820564	8.75049	0.886957	9.46491			0.613194	6.58246	0.745019	7.98431	0.929847	9.91993
0.425579	4.50724	0.198764	2.08447	0.689993	7.31874	0.825534	8.71688	0.893198	9.43768			0.617253	6.56042	0.750171	7.96004	0.933811	9.86417
0.426991	4.478	0.20085	2.08596	0.695437	7.30431	0.830502	8.68391	0.899485	9.41146			0.621261	6.53828	0.755341	7.93644	0.937795	9.80971
0.428393	4.44923	0.202936	2.08743	0.70086	7.28993	0.83547	8.65156	0.905817	9.38621			0.625218	6.51603	0.760528	7.91347	0.941801	9.75653
0.429786	4.42092	0.205021	2.08886	0.70626	7.2756	0.840437	8.61984	0.912192	9.36188			0.629125	6.49369	0.765732	7.89112	0.945828	9.70458
0.43117	4.39306	0.207107	2.09027	0.711637	7.26129	0.845405	8.58872	0.918608	9.33843			0.632981	6.47126	0.770951	7.86934	0.949875	9.65382
0.432546	4.36564	0.209192	2.09165	0.716991	7.24702	0.850374	8.5582	0.925063	9.31582			0.636787	6.44875	0.776184	7.84813	0.953943	9.60422
0.433915	4.33866	0.211278	2.093	0.72232	7.23277	0.855345	8.52826	0.931555	9.294			0.640544	6.42617	0.781432	7.82745	0.958031	9.55574
0.435277	4.31211	0.213363	2.09433	0.727624	7.21854	0.860319	8.4989	0.938084	9.27294			0.644252	6.40351	0.786692	7.80728	0.962139	9.50835
0.436633	4.28598	0.215448	2.09563	0.732903	7.20432	0.865296	8.47011	0.944646	9.2526			0.647912	6.38079	0.791964	7.78759	0.966267	9.46202
0.437983	4.26027	0.217533	2.09691	0.738155	7.1901	0.870277	8.44187	0.951242	9.23294			0.651523	6.35802	0.797247	7.76837	0.970414	9.41672
0.439328	4.23497	0.219618	2.09816	0.743381	7.17588	0.875262	8.41419	0.957868	9.21393			0.655086	6.33519	0.80254	7.74959	0.974581	9.37242
0.440667	4.21007	0.221703	2.0994	0.74858	7.16166	0.880252	8.38704	0.964524	9.19555			0.658603	6.31232	0.807842	7.73123	0.978768	9.32909
0.442003	4.18557	0.223788	2.1006	0.753752	7.14743	0.885247	8.36041	0.971209	9.17775			0.662072	6.28942	0.813151	7.71327	0.982973	9.28671
0.443334	4.16146	0.225873	2.10179	0.758895	7.13318	0.890248	8.33431	0.97792	9.16052			0.665496	6.26648	0.818469	7.69569	0.987197	9.24523
0.444661	4.13773	0.227957	2.10296	0.764011	7.11892	0.895256	8.30872	0.984656	9.14382			0.668875	6.24352	0.823792	7.67848	0.99144	9.20465
0.445985	4.11438	0.230042	2.1041	0.769097	7.10463	0.900269	8.28362	0.991416	9.12762			0.672209	6.22054	0.82912	7.66161	0.995701	9.16494
0.447306	4.0914	0.232126	2.10522	0.774154	7.09032	0.90529	8.25901	0.998199	9.11191			0.675498	6.19755	0.834453	7.64507	0.99998	9.12607
0.448624	4.06878	0.23421	2.10633	0.779181	7.07599	0.910318	8.23489	1.005	9.09665			0.678744	6.17455	0.839789	7.62884	1.00428	9.08802
0.44994	4.04652	0.236294	2.10742	0.784178	7.06162	0.915353	8.21123					0.681948	6.15155	0.845128	7.6129		
0.451254	4.02461	0.238378	2.10848	0.789145	7.04722	0.920395	8.18803					0.685109	6.12856	0.850469	7.59725		
0.452565	4.00305	0.240462	2.10953	0.794081	7.03279	0.925446	8.16528					0.688228	6.10558	0.85581	7.58186		
0.453876	3.98183	0.242546	2.11056	0.798986	7.01832	0.930504	8.14297					0.691307	6.08262	0.861151	7.56672		
0.455185	3.96094	0.24463	2.11158	0.80386	7.00381	0.935571	8.12109					0.694346	6.05967	0.866492	7.55183		
0.456493	3.94037	0.246714	2.11257	0.808702	6.98926	0.940645	8.09964					0.697344	6.03676	0.87183	7.53715		
0.4578	3.92013	0.248798	2.11355	0.813512	6.97467	0.945727	8.07859					0.700305	6.01388	0.877167	7.52269		
0.459107	3.9002	0.250881	2.11452	0.81829	6.96004	0.950818	8.05794					0.703227	5.99104	0.882499	7.50843		
0.460413	3.88058	0.252965	2.11547	0.823036	6.94536	0.955917	8.03769					0.706111	5.96824	0.887828	7.49436		
0.461719	3.86127	0.255048	2.1164	0.827749	6.93064	0.961024	8.01782					0.708959	5.94549	0.893152	7.48047		
0.463025	3.84225	0.257132	2.11732	0.832429	6.91588	0.966138	7.99832					0.71177	5.92279	0.89847	7.46674		
0.464331	3.82353	0.259215	2.11822	0.837077	6.90107	0.971261	7.97918					0.714546	5.90014	0.903781	7.45317		
0.465637	3.80509	0.261299	2.11911	0.841691	6.88622	0.976391	7.9604					0.717287	5.87756	0.909086	7.43976		
0.466944	3.78694	0.263382	2.11999	0.846272	6.87133	0.981529	7.94196					0.719994	5.85504	0.914382	7.42648		
0.468251	3.76906	0.265465	2.12085	0.85082	6.85639	0.986674	7.92385					0.722667	5.83259	0.91967	7.41333		
0.46956	3.75146	0.267548	2.1217	0.855335	6.8414	0.991826	7.90607					0.725307	5.81021	0.924949	7.4003		
0.470869	3.73413	0.269631	2.12254	0.859817	6.82638	0.996985	7.88861					0.727915	5.7879	0.930218	7.38739		
0.472179	3.71705	0.271714	2.12336	0.864265	6.81131	1.00215	7.87146					0.730492	5.76568	0.935476	7.37458		
0.473491	3.70024	0.273797	2.12418	0.86868	6.7962							0.733037	5.74353	0.940724	7.36188		
0.474804	3.68368	0.27588	2.12497	0.873061	6.78105							0.735553	5.72147	0.945959	7.34926		
0.476118	3.66736	0.277963	2.12576	0.877409	6.76586							0.738038	5.6995	0.951182	7.33674		
0.477434	3.6513	0.280046	2.12654	0.881724	6.75063							0.740494	5.67762	0.956392	7.32429		
0.478751	3.63547	0.282128	2.1273	0.886005	6.73536							0.742922	5.65583	0.961588	7.31191		
0.48007	3.61987	0.284211	2.12806	0.890253	6.72006							0.745322	5.63414	0.966771	7.2996		
0.481391	3.60451	0.286294	2.1288	0.894468	6.70472							0.747694	5.61254	0.971938	7.28736		
0.482714	3.58938	0.288376	2.12953	0.89865	6.68935							0.75004	5.59105	0.977091	7.27517		
0.484039	3.57446	0.290459	2.13025	0.902799	6.67395							0.75236	5.56966	0.982228	7.26303		
0.485366	3.55977	0.292541	2.13097	0.906915	6.65852							0.754654	5.54837	0.987348	7.25094		
0.486695	3.54529	0.294624	2.13167	0.910998	6.64305							0.756923	5.52719	0.992452	7.23889		
0.488026	3.53102	0.296706	2.13236	0.915049	6.62756							0.759167	5.50612	0.997539	7.22688		
0.489359	3.51696	0.298788	2.13304	0.919067	6.61205							0.761388	5.48516	1.00261	7.21491		
0.490695	3.50311	0.300871	2.13372	0.923053	6.59651							0.763585	5.46431				
0.492033	3.48945	0.302953	2.13438	0.927006	6.58095							0.765759	5.44358				
0.493374	3.47599	0.305035	2.13504	0.930928	6.56536							0.767911	5.42296				
0.494717	3.46273	0.307117	2.13568	0.934818	6.54976							0.770041	5.40245				
0.496063	3.44965	0.3092	2.13632	0.938676	6.53414							0.77215	5.38207				
0.497411	3.43676	0.311282	2.13695	0.942503	6.5185							0.774237	5.3618				
0.498763	3.42405	0.313364	2.13757	0.946299	6.50285							0.776305	5.34165				
0.500116	3.41152	0.315446	2.13819	0.950064	6.48719							0.778352	5.32162				
0.501473	3.39917	0.317528	2.13879	0.953797	6.47151							0.78038	5.30171				
0.502832	3.387	0.31961	2.13939	0.957501	6.45583							0.782389	5.28193				
0.504194	3.37499	0.321692	2.13998	0.961173	6.44013							0.78438	5.26227				
0.505559	3.36315	0.323774	2.14056	0.964816	6.42443							0.786352	5.24273				
0.506926	3.35148	0.325855	2.14114	0.968429	6.40873							0.788307	5.22332				
0.508297	3.33996	0.327937	2.1417	0.972012	6.39302							0.790245	5.20403				
0.50967	3.32861	0.330019	2.14226	0.975565	6.37732							0.792165	5.18487				
0.511047	3.31741	0.332101	2.14282	0.979089	6.36161							0.79407	5.16583				
0.512426	3.30637	0.334182	2.14336	0.982584	6.3459							0.795958	5.14692				
0.513808	3.29548	0.336264	2.14391	0.986051	6.3302							0.797831	5.12813				
0.515194	3.28474	0.338346	2.14444	0.989488	6.3145							0.799689	5.10948				
0.516582	3.27414	0.340427	2.14497	0.992898	6.29881							0.801531	5.09094				
0.517974	3.26369	0.342509	2.14549	0.996279	6.28312							0.80336	5.07254				
0.519368	3.25337	0.344591	2.146	0.999633	6.26744							0.805174	5.05426				
0.520766	3.2432	0.346672	2.14651	1.00296	6.25178							0.806974	5.03611				
0.522166	3.23316	0.348754	2.14701									0.808761	5.01808				
0.52357	3.22326	0.350835	2.14751									0.810535	5.00018				
0.524977	3.21349	0.352917	2.148									0.812296	4.98241				
0.526387	3.20385	0.354998	2.14849									0.814045	4.96477				
0.527799	3.19433	0.35708	2.14896									0.815782	4.94725				
0.529216	3.18494	0.359161	2.14944									0.817507	4.92985				
0.530635	3.17568	0.361242	2.14991									0.819221	4.91259				
0.532057	3.16653	0.363324	2.15037									0.820923	4.89544				
0.533483	3.15751	0.365405	2.15083									0.822615	4.87843				
0.534911	3.1486	0.367486	2.15128									0.824296	4.86153				
0.536343	3.13981	0.369567	2.15173									0.825966	4.84477				
0.537778	3.13113	0.371649	2.15217									0.827627	4.82812				
0.539216	3.12256	0.37373	2.15261									0.829278	4.8116				
0.540657	3.11411	0.375811	2.15304									0.83092	4.7952				
0.542101	3.10576	0.377892	2.15347									0.832552	4.77893				
0.543548	3.09752	0.379973	2.1539									0.834175	4.76277				
0.544999	3.08938	0.382055	2.15432									0.83579	4.74674				
0.546452	3.08135	0.384136	2.15473									0.837396	4.73083				
0.547909	3.07341	0.386217	2.15514									0.838994	4.71504				
0.549369	3.06558	0.388298	2.15555									0.840584	4.69937				
0.550832	3.05785	0.390379	2.15595									0.842166	4.68382				
0.552298	3.05021	0.39246	2.15635									0.84374	4.66838				
0.553767	3.04267	0.394541	2.15674									0.845307	4.65307				
0.555239	3.03522	0.396622	2.15713									0.846867	4.63787				
0.556715	3.02786	0.398703	2.15751									0.84842	4.62279				
0.558193	3.0206	0.400784	2.15789									0.849966	4.60782				
0.559674	3.01342	0.402865	2.15827									0.851506	4.59297				
0.561159	3.00633	0.404946	2.15865									0.853039	4.57823				
0.562646	2.99933	0.407027	2.15901									0.854567	4.56361				
0.564137	2.99241	0.409107	2.15938									0.856088	4.5491				
0.56563	2.98558	0.411188	2.15974									0.857603	4.5347				
0.567127	2.97883	0.413269	2.1601									0.859113	4.52041				
0.568627	2.97216	0.41535	2.16046									0.860617	4.50624				
0.570129	2.96557	0.417431	2.16081									0.862116	4.49217				
0.571635	2.95907	0.419512	2.16116									0.86361	4.47821				
0.573143	2.95263	0.421592	2.1615									0.865099	4.46436				
0.574655	2.94628	0.423673	2.16184									0.866583	4.45062				
0.576169	2.94	0.425754	2.16218									0.868062	4.43699				
0.577687	2.9338	0.427835	2.16252									0.869537	4.42346				
0.579207	2.92766	0.429915	2.16285									0.871007	4.41004				
0.58073	2.9216	0.431996	2.16318									0.872473	4.39672				
0.582257	2.91562	0.434077	2.1635									0.873936	4.38351				
0.583786	2.9097	0.436157	2.16382									0.875394	4.3704				
0.585318	2.90385	0.438238	2.16414									0.876848	4.35739				
0.586852	2.89807	0.440319	2.16446									0.878298	4.34449				
0.58839	2.89235	0.442399	2.16477									0.879745	4.33168				
0.589931	2.88671	0.44448	2.16508									0.881189	4.31897				
0.591474	2.88112	0.44656	2.16539									0.882629	4.30637				
0.59302	2.8756	0.448641	2.16569									0.884066	4.29386				
0.594569	2.87015	0.450722	2.166									0.8855	4.28145				
0.596121	2.86475	0.452802	2.16629									0.886931	4.26914				
0.597675	2.85942	0.454883	2.16659									0.888359	4.25692				
0.599233	2.85415	0.456963	2.16688									0.889784	4.2448				
0.600793	2.84894	0.459044	2.16718									0.891206	4.23277				
0.602355	2.84378	0.461124	2.16746									0.892626	4.22084				
0.603921	2.83869	0.463205	2.16775									0.894043	4.20899				
0.605489	2.83365	0.465285	2.16803									0.895459	4.19725				
0.60706	2.82867	0.467366	2.16831									0.896871	4.18559				
0.608633	2.82374	0.469446	2.16859									0.898282	4.17402				
0.61021	2.81887	0.471526	2.16887									0.89969	4.16255				
0.611789	2.81405	0.473607	2.16914									0.901097	4.15116				
0.61337	2.80929	0.475687	2.16941									0.902501	4.13986				
0.614954	2.80457	0.477768	2.16968									0.903904	4.12865				
0.616541	2.79991	0.479848	2.16995									0.905304	4.11753				
0.61813	2.7953	0.481928	2.17021									0.906704	4.10649				
0.619722	2.79074	0.484009	2.17047									0.908101	4.09554				
0.621317	2.78623	0.486089	2.17073									0.909497	4.08467				
0.622914	2.78177	0.488169	2.17099									0.910892	4.07388				
0.624513	2.77736	0.49025	2.17124									0.912285	4.06318				
0.626115	2.773	0.49233	2.1715									0.913677	4.05257				
0.62772	2.76868	0.49441	2.17175									0.915067	4.04203				
0.629327	2.76441	0.496491	2.172									0.916457	4.03158				
0.630936	2.76018	0.498571	2.17224									0.917845	4.0212				
0.632549	2.756	0.500651	2.17249									0.919232	4.01091				
0.634163	2.75186	0.502731	2.17273									0.920619	4.00069				
0.63578	2.74777	0.504812	2.17297									0.922004	3.99056				
0.637399	2.74372	0.506892	2.17321									0.923388	3.9805				
0.639021	2.73971	0.508972	2.17345									0.924772	3.97052				
0.640645	2.73575	0.511052	2.17368									0.926155	3.96061				
0.642272	2.73183	0.513133	2.17392									0.927537	3.95078				
0.643901	2.72794	0.515213	2.17415									0.928919	3.94102				
0.645532	2.7241	0.517293	2.17438									0.9303	3.93134				
0.647165	2.7203	0.519373	2.1746									0.931681	3.92174				
0.648801	2.71654	0.521453	2.17483									0.933061	3.9122				
0.650439	2.71281	0.523534	2.17505									0.93444	3.90274				
0.65208	2.70913	0.525614	2.17528									0.935819	3.89335				
0.653723	2.70548	0.527694	2.1755									0.937198	3.88403				
0.655368	2.70187	0.529774	2.17571									0.938577	3.87479				
0.657015	2.6983	0.531854	2.17593									0.939955	3.86561				
0.658665	2.69476	0.533934	2.17615									0.941334	3.8565				
0.660317	2.69126	0.536014	2.17636									0.942712	3.84746				
0.661971	2.6878	0.538094	2.17657									0.94409	3.83849				
0.663627	2.68437	0.540175	2.17678									0.945467	3.82958				
0.665285	2.68097	0.542255	2.17699									0.946845	3.82074				
0.666946	2.67761	0.544335	2.1772									0.948223	3.81197				
0.668608	2.67428	0.546415	2.1774									0.949601	3.80327				
0.670273	2.67099	0.548495	2.17761									0.950979	3.79462				
0.67194	2.66773	0.550575	2.17781									0.952357	3.78605				
0.67361	2.6645	0.552655	2.17801									0.953735	3.77754				
0.675281	2.6613	0.554735	2.17821									0.955114	3.76909				
0.676954	2.65813	0.556815	2.17841									0.956492	3.7607				
0.678629	2.655	0.558895	2.17861									0.957871	3.75238				
0.680307	2.6519	0.560975	2.1788									0.95925	3.74411				
0.681987	2.64882	0.563055	2.17899									0.96063	3.73591				
0.683668	2.64578	0.565135	2.17919									0.96201	3.72777				
0.685352	2.64277	0.567215	2.17938									0.96339	3.71969				
0.687037	2.63978	0.569295	2.17957									0.964771	3.71167				
0.688725	2.63683	0.571375	2.17975									0.966152	3.70371				
0.690415	2.6339	0.573455	2.17994									0.967534	3.6958				
0.692106	2.631	0.575535	2.18013									0.968916	3.68796				
0.6938	2.62813	0.577615	2.18031									0.970298	3.68017				
0.695495	2.62529	0.579695	2.18049									0.971682	3.67244				
0.697193	2.62247	0.581774	2.18067									0.973065	3.66476				
0.698892	2.61969	0.583854	2.18085									0.97445	3.65715				
0.700594	2.61692	0.585934	2.18103									0.975835	3.64958				
0.702297	2.61419	0.588014	2.18121									0.97722	3.64207				
0.704002	2.61148	0.590094	2.18139									0.978607	3.63462				
0.705709	2.60879	0.592174	2.18156									0.979994	3.62722				
0.707418	2.60614	0.594254	2.18173									0.981381	3.61987				
0.709129	2.6035	0.596334	2.18191									0.98277	3.61258				
0.710841	2.60089	0.598414	2.18208									0.984159	3.60534				
0.712556	2.59831	0.600494	2.18225									0.985549	3.59815				
0.714272	2.59575	0.602573	2.18242									0.98694	3.59101				
0.71599	2.59321	0.604653	2.18259									0.988331	3.58393				
0.71771	2.5907	0.606733	2.18275									0.989724	3.57689				
0.719432	2.58821	0.608813	2.18292									0.991117	3.5699				
0.721155	2.58574	0.610893	2.18308									0.992511	3.56297				
0.72288	2.5833	0.612973	2.18325									0.993906	3.55608				
0.724607	2.58088	0.615052	2.18341									0.995302	3.54925				
0.726336	2.57848	0.617132	2.18357									0.996699	3.54246				
0.728066	2.5761	0.619212	2.18373									0.998097	3.53572				
0.729798	2.57374	0.621292	2.18389									0.999496	3.52903				
0.731532	2.57141	0.623372	2.18405									1.0009	3.52238				
0.733268	2.5691	0.625451	2.1842														
0.735005	2.5668	0.627531	2.18436														
0.736744	2.56453	0.629611	2.18451														
0.738485	2.56228	0.631691	2.18467														
0.740227	2.56005	0.63377	2.18482														
0.741971	2.55784	0.63585	2.18497														
0.743716	2.55565	0.63793	2.18512														
0.745464	2.55348	0.64001	2.18527														
0.747212	2.55133	0.642089	2.18542														
0.748963	2.54919	0.644169	2.18557														
0.750715	2.54708	0.646249	2.18572														
0.752468	2.54498	0.648328	2.18586														
0.754224	2.54291	0.650408	2.18601														
0.75598	2.54085	0.652488	2.18615														
0.757739	2.53881	0.654568	2.18629														
0.759498	2.53678	0.656647	2.18644														
0.76126	2.53478	0.658727	2.18658														
0.763023	2.53279	0.660807	2.18672														
0.764787	2.53082	0.662886	2.18686														
0.766553	2.52887	0.664966	2.187														
0.76832	2.52693	0.667046	2.18713														
0.770089	2.52501	0.669125	2.18727														
0.77186	2.52311	0.671205	2.18741														
0.773632	2.52122	0.673285	2.18754														
0.775405	2.51935	0.675364	2.18768														
0.77718	2.5175	0.677444	2.18781														
0.778956	2.51566	0.679524	2.18794														
0.780733	2.51384	0.681603	2.18808														
0.782513	2.51203	0.683683	2.18821														
0.784293	2.51024	0.685762	2.18834														
0.786075	2.50846	0.687842	2.18847														
0.787858	2.5067	0.689922	2.1886														
0.789643	2.50495	0.692001	2.18872														
0.791429	2.50322	0.694081	2.18885														
0.793216	2.5015	0.69616	2.18898														
0.795005	2.4998	0.69824	2.1891														
0.796795	2.49811	0.70032	2.18923														
0.798587	2.49643	0.702399	2.18935														
0.800379	2.49477	0.704479	2.18948														
0.802174	2.49312	0.706558	2.1896														
0.803969	2.49149	0.708638	2.18972														
0.805766	2.48987	0.710717	2.18984														
0.807564	2.48826	0.712797	2.18996														
0.809363	2.48666	0.714876	2.19008														
0.811164	2.48508	0.716956	2.1902														
0.812966	2.48351	0.719036	2.19032														
0.814769	2.48196	0.721115	2.19044														
0.816574	2.48042	0.723195	2.19056														
0.818379	2.47889	0.725274	2.19067														
0.820186	2.47737	0.727354	2.19079														
0.821995	2.47586	0.729433	2.1909														
0.823804	2.47437	0.731513	2.19102														
0.825615	2.47289	0.733592	2.19113														
0.827427	2.47142	0.735672	2.19125														
0.82924	2.46996	0.737751	2.19136														
0.831054	2.46851	0.739831	2.19147														
0.83287	2.46708	0.74191	2.19158														
0.834686	2.46565	0.74399	2.19169														
0.836504	2.46424	0.746069	2.1918														
0.838323	2.46284	0.748148	2.19191														
0.840144	2.46145	0.750228	2.19202														
0.841965	2.46007	0.752307	2.19213														
0.843787	2.4587	0.754387	2.19224														
0.845611	2.45735	0.756466	2.19234														
0.847436	2.456	0.758546	2.19245														
0.849262	2.45466	0.760625	2.19256														
0.851089	2.45334	0.762705	2.19266														
0.852917	2.45202	0.764784	2.19277														
0.854746	2.45072	0.766863	2.19287														
0.856577	2.44942	0.768943	2.19298														
0.858408	2.44814	0.771022	2.19308														
0.860241	2.44686	0.773102	2.19318														
0.862075	2.4456	0.775181	2.19328														
0.863909	2.44434	0.777261	2.19338														
0.865745	2.4431	0.77934	2.19348														
0.867582	2.44186	0.781419	2.19359														
0.86942	2.44063	0.783499	2.19369														
0.871259	2.43941	0.785578	2.19378														
0.873099	2.43821	0.787658	2.19388														
0.87494	2.43701	0.789737	2.19398														
0.876782	2.43582	0.791816	2.19408														
0.878625	2.43463	0.793896	2.19418														
0.88047	2.43346	0.795975	2.19427														
0.882315	2.4323	0.798054	2.19437														
0.884161	2.43114	0.800134	2.19446														
0.886008	2.43	0.802213	2.19456														
0.887856	2.42886	0.804292	2.19465														
0.889706	2.42773	0.806372	2.19475														
0.891556	2.42661	0.808451	2.19484														
0.893407	2.4255	0.81053	2.19494														
0.895259	2.42439	0.81261	2.19503														
0.897112	2.4233	0.814689	2.19512														
0.898966	2.42221	0.816768	2.19521														
0.900821	2.42113	0.818848	2.1953														
0.902677	2.42006	0.820927	2.19539														
0.904534	2.41899	0.823006	2.19548														
0.906392	2.41794	0.825086	2.19557														
0.908251	2.41689	0.827165	2.19566														
0.91011	2.41585	0.829244	2.19575														
0.911971	2.41482	0.831324	2.19584														
0.913832	2.41379	0.833403	2.19593														
0.915695	2.41277	0.835482	2.19602														
0.917558	2.41176	0.837562	2.1961														
0.919422	2.41076	0.839641	2.19619														
0.921288	2.40976	0.84172	2.19628														
0.923154	2.40877	0.843799	2.19636														
0.925021	2.40779	0.845879	2.19645														
0.926888	2.40681	0.847958	2.19653														
0.928757	2.40585	0.850037	2.19662														
0.930627	2.40488	0.852116	2.1967														
0.932497	2.40393	0.854196	2.19679														
0.934368	2.40298	0.856275	2.19687														
0.93624	2.40204	0.858354	2.19695														
0.938113	2.40111	0.860433	2.19704														
0.939987	2.40018	0.862513	2.19712														
0.941862	2.39926	0.864592	2.1972														
0.943737	2.39834	0.866671	2.19728														
0.945614	2.39744	0.86875	2.19736														
0.947491	2.39653	0.87083	2.19744														
0.949369	2.39564	0.872909	2.19752														
0.951248	2.39475	0.874988	2.1976														
0.953127	2.39387	0.877067	2.19768														
0.955008	2.39299	0.879147	2.19776														
0.956889	2.39212	0.881226	2.19784														
0.958771	2.39125	0.883305	2.19792														
0.960654	2.3904	0.885384	2.198														
0.962537	2.38954	0.887463	2.19807														
0.964422	2.3887	0.889543	2.19815														
0.966307	2.38785	0.891622	2.19823														
0.968193	2.38702	0.893701	2.19831														
0.970079	2.38619	0.89578	2.19838														
0.971967	2.38537	0.897859	2.19846														
0.973855	2.38455	0.899939	2.19853														
0.975744	2.38374	0.902018	2.19861														
0.977634	2.38293	0.904097	2.19868														
0.979524	2.38213	0.906176	2.19876														
0.981416	2.38133	0.908255	2.19883														
0.983308	2.38054	0.910334	2.19891														
0.9852	2.37975	0.912414	2.19898														
0.987094	2.37897	0.914493	2.19905														
0.988988	2.3782	0.916572	2.19912														
0.990883	2.37743	0.918651	2.1992														
0.992778	2.37666	0.92073	2.19927														
0.994675	2.3759	0.922809	2.19934														
0.996572	2.37515	0.924888	2.19941														
0.99847	2.3744	0.926968	2.19948														
1.00037	2.37366	0.929047	2.19955														
		0.931126	2.19962														
		0.933205	2.19969														
		0.935284	2.19976														
		0.937363	2.19983														
		0.939442	2.1999														
		0.941521	2.19997														
		0.9436	2.20004														
		0.94568	2.20011														
		0.947759	2.20018														
		0.949838	2.20024														
		0.951917	2.20031														
		0.953996	2.20038														
		0.956075	2.20045														
		0.958154	2.20051														
		0.960233	2.20058														
		0.962312	2.20064														
		0.964391	2.20071														
		0.96647	2.20077														
		0.96855	2.20084														
		0.970629	2.2009														
		0.972708	2.20097														
		0.974787	2.20103														
		0.976866	2.2011														
		0.978945	2.20116														
		0.981024	2.20122														
		0.983103	2.20129														
		0.985182	2.20135														
		0.987261	2.20141														
		0.98934	2.20147														
		0.991419	2.20154														
		0.993498	2.2016														
		0.995577	2.20166														
		0.997656	2.20172														
		0.999735	2.20178														
		1.00181	2.20184														
