Sym0		Asym0		Sym1		Sym2		Sym3		Sym4		Asym1		Asym2		Asym3	
461  Points		493  Points		195  Points		161  Points		146  Points		106  Points		316  Points		173  Points		139  Points	
Freq (MHz)	Vph (m/ms)	Freq (MHz)	Vph (m/ms)	Freq (MHz)	Vph (m/ms)	Freq (MHz)	Vph (m/ms)	Freq (MHz)	Vph (m/ms)	Freq (MHz)	Vph (m/ms)	Freq (MHz)	Vph (m/ms)	Freq (MHz)	Vph (m/ms)	Freq (MHz)	Vph (m/ms)
0.00575634	6.38774	0.000371738	0.185212	0.279518	699.625	0.496785	920.97	0.559036	767.983	0.838528	2681.94	0.139868	163.941	0.419276	761.191	0.698784	973.805
0.0117073	6.38747	0.000792924	0.269813	0.279611	210.041	0.496816	337.715	0.559116	336.894	0.838558	673.891	0.140253	78.5795	0.419355	282.868	0.698838	423.724
0.0176571	6.38699	0.00136593	0.35291	0.279805	123.648	0.496876	206.79	0.559259	215.82	0.838625	385.389	0.140906	51.8695	0.419508	173.767	0.698935	270.803
0.0236053	6.38631	0.00208468	0.434112	0.280099	87.6787	0.496966	149.038	0.559464	158.803	0.838729	269.884	0.141823	38.8743	0.419734	125.447	0.699074	199.015
0.0295513	6.38541	0.00294178	0.513053	0.280493	67.9768	0.497085	116.517	0.55973	125.649	0.838869	207.67	0.142996	31.2223	0.420033	98.1937	0.699256	157.336
0.0354944	6.38431	0.00392914	0.589469	0.280986	55.5528	0.497233	95.6606	0.56006	103.977	0.839046	168.784	0.144418	26.2023	0.420404	80.7028	0.699481	130.11
0.0414342	6.38302	0.00503782	0.66311	0.281578	47.0104	0.497412	81.1494	0.56045	88.7055	0.839259	142.179	0.146078	22.6712	0.420848	68.531	0.699748	110.935
0.0473701	6.38151	0.00625866	0.733812	0.282267	40.7819	0.497621	70.4717	0.560902	77.3681	0.839509	122.834	0.147967	20.0633	0.421364	59.5763	0.700058	96.7005
0.0533013	6.37979	0.00758247	0.801474	0.283053	36.0436	0.49786	62.2872	0.561416	68.6203	0.839796	108.134	0.150073	18.0665	0.421952	52.7151	0.70041	85.7175
0.0592274	6.37785	0.00900007	0.866028	0.283935	32.3213	0.498131	55.8151	0.56199	61.6678	0.840118	96.5885	0.152385	16.4948	0.422611	47.2927	0.700804	76.9874
0.0651476	6.37571	0.0105026	0.927459	0.284912	29.3225	0.498434	50.5698	0.562625	56.0111	0.840477	87.2805	0.154892	15.2301	0.423341	42.9014	0.701241	69.8827
0.0710614	6.37334	0.0120815	0.985781	0.285981	26.8573	0.498769	46.2334	0.563319	51.3201	0.840873	79.6183	0.157581	14.1942	0.424142	39.2744	0.701719	63.9891
0.0769681	6.37075	0.0137289	1.04106	0.287143	24.7967	0.499137	42.5894	0.564073	47.3682	0.841304	73.2015	0.160443	13.333	0.425014	36.2295	0.70224	59.0221
0.0828669	6.36792	0.0154373	1.09336	0.288394	23.0502	0.49954	39.4848	0.564886	43.9944	0.841772	67.7499	0.163465	12.608	0.425955	33.6381	0.702802	54.7797
0.0887572	6.36486	0.0172	1.14279	0.289735	21.5524	0.499976	36.8086	0.565758	41.0813	0.842276	63.0616	0.166638	11.991	0.426965	31.4071	0.703407	51.1148
0.0946383	6.36156	0.0190105	1.18945	0.291163	20.2549	0.500448	34.4784	0.566688	38.5414	0.842815	58.9873	0.169951	11.461	0.428044	29.4669	0.704053	47.9175
0.100509	6.35801	0.0208633	1.23348	0.292676	19.1208	0.500957	32.4317	0.567675	36.3079	0.843391	55.4142	0.172946	11.0576	0.42919	27.765	0.70474	45.1042
0.106369	6.35421	0.0227532	1.27498	0.294273	18.1221	0.501502	30.62	0.56872	34.329	0.844003	52.2555	0.175573	10.7498	0.430404	26.2608	0.705469	42.61
0.112218	6.35014	0.0246756	1.3141	0.295951	17.2365	0.502085	29.0056	0.56982	32.5641	0.84465	49.4434	0.177795	10.5173	0.431685	24.9222	0.706239	40.384
0.118053	6.3458	0.0266264	1.35096	0.29771	16.4465	0.502708	27.5583	0.570977	30.9806	0.845333	46.9242	0.179582	10.3461	0.433032	23.7238	0.70705	38.3853
0.123875	6.34119	0.0286018	1.38568	0.299546	15.7379	0.50337	26.2537	0.572189	29.5524	0.846052	44.6546	0.180912	10.2267	0.434443	22.6453	0.707902	36.5813
0.129683	6.33628	0.0305988	1.41841	0.301459	15.0993	0.504073	25.072	0.573455	28.258	0.846806	42.5996	0.18177	10.153	0.43592	21.6699	0.708794	34.9449
0.135475	6.33108	0.0326144	1.44925	0.303446	14.5212	0.504818	23.997	0.574775	27.0798	0.847595	40.7303	0.183014	10.0506	0.43746	20.7838	0.709728	33.4542
0.141251	6.32557	0.0346459	1.47832	0.305506	13.9957	0.505606	23.0151	0.576149	26.0031	0.848419	39.0228	0.184378	9.94378	0.439063	19.9757	0.710701	32.0908
0.147009	6.31973	0.0364277	1.5023	0.307636	13.5164	0.506438	22.1151	0.577575	25.0156	0.849279	37.4572	0.186254	9.80562	0.440728	19.2361	0.711714	30.8392
0.152747	6.31356	0.0379537	1.5218	0.309835	13.0777	0.507315	21.2873	0.579054	24.1069	0.850174	36.0166	0.188658	9.64169	0.442454	18.5568	0.712768	29.6863
0.158466	6.30704	0.0392202	1.5373	0.3121	12.6748	0.508239	20.5237	0.580585	23.2681	0.851103	34.6869	0.191612	9.45812	0.444241	17.9311	0.713861	28.6212
0.164163	6.30017	0.0402243	1.54917	0.314431	12.3039	0.50921	19.8173	0.582166	22.4916	0.852067	33.4558	0.195139	9.26105	0.446087	17.353	0.714993	27.6344
0.169837	6.29291	0.0409639	1.5577	0.316825	11.9615	0.51023	19.1622	0.583797	21.771	0.853066	32.313	0.199263	9.05632	0.447992	16.8176	0.716165	26.7176
0.175487	6.28526	0.0414378	1.56306	0.31928	11.6446	0.511299	18.5532	0.585479	21.1006	0.854099	31.2493	0.203464	8.87158	0.449955	16.3205	0.717376	25.8637
0.18111	6.27721	0.0421198	1.57065	0.321796	11.3507	0.51242	17.9858	0.587209	20.4754	0.855167	30.2569	0.207736	8.70426	0.451974	15.8578	0.718625	25.0668
0.186706	6.26872	0.0428621	1.57874	0.324036	11.1115	0.513592	17.4561	0.588988	19.8912	0.856268	29.3291	0.212076	8.55222	0.45405	15.4264	0.719913	24.3213
0.192272	6.25979	0.0438731	1.58948	0.32598	10.919	0.514818	16.9607	0.590815	19.3443	0.857404	28.4597	0.216477	8.41361	0.456181	15.0232	0.721239	23.6225
0.197807	6.25039	0.0451539	1.60266	0.327611	10.7672	0.516099	16.4965	0.59269	18.8312	0.858573	27.6437	0.220937	8.28687	0.458365	14.6458	0.722604	22.9664
0.203308	6.2405	0.0467058	1.61799	0.328916	10.6517	0.517435	16.0609	0.594611	18.349	0.859776	26.8762	0.225452	8.17067	0.460604	14.2918	0.724005	22.3491
0.208774	6.2301	0.0485301	1.6352	0.329883	10.5691	0.518828	15.6515	0.596578	17.8952	0.861012	26.1531	0.230017	8.06383	0.462894	13.9594	0.725445	21.7675
0.214201	6.21916	0.0506277	1.65395	0.330506	10.5173	0.520279	15.2662	0.598591	17.4675	0.862282	25.4709	0.234629	7.96536	0.465236	13.6465	0.726921	21.2186
0.219589	6.20767	0.052729	1.67172	0.331406	10.4442	0.521789	14.9031	0.600649	17.0636	0.863585	24.8261	0.239286	7.87438	0.467628	13.3518	0.728435	20.6999
0.224934	6.19559	0.0548335	1.68856	0.332392	10.3666	0.52336	14.5605	0.602752	16.6818	0.864921	24.2159	0.243983	7.79012	0.47007	13.0738	0.729984	20.2089
0.230234	6.1829	0.0569403	1.70453	0.333743	10.2638	0.524992	14.2369	0.604899	16.3204	0.866289	23.6376	0.248719	7.71192	0.47256	12.8111	0.731571	19.7435
0.235486	6.16957	0.0590492	1.7197	0.335469	10.1385	0.526687	13.9309	0.607089	15.9778	0.867691	23.0889	0.253491	7.6392	0.475099	12.5626	0.733193	19.302
0.240687	6.15558	0.0611596	1.73411	0.337584	9.99336	0.528445	13.6412	0.609322	15.6528	0.869124	22.5675	0.258296	7.57142	0.477684	12.3272	0.734851	18.8825
0.245835	6.1409	0.0632711	1.74781	0.340102	9.83159	0.530267	13.3668	0.611597	15.344	0.87059	22.0716	0.263132	7.50812	0.480315	12.1041	0.736545	18.4835
0.250925	6.1255	0.0653835	1.76084	0.343039	9.65643	0.532156	13.1065	0.613914	15.0503	0.872088	21.5994	0.267997	7.4489	0.482991	11.8923	0.738273	18.1036
0.255956	6.10935	0.0674964	1.77325	0.346028	9.49163	0.53411	12.8596	0.616273	14.7708	0.873617	21.1493	0.272888	7.3934	0.485711	11.6911	0.740037	17.7415
0.260923	6.09244	0.0696096	1.78507	0.349068	9.33641	0.536132	12.6251	0.618672	14.5044	0.875179	20.7197	0.277805	7.34128	0.488474	11.4997	0.741835	17.3961
0.265825	6.07472	0.071723	1.79635	0.352159	9.19008	0.538222	12.4022	0.621112	14.2503	0.876771	20.3094	0.282743	7.29225	0.490917	11.3405	0.743667	17.0662
0.270656	6.05619	0.0738364	1.80711	0.355302	9.052	0.54038	12.1902	0.623592	14.0078	0.878395	19.9172	0.287703	7.24605	0.493024	11.2099	0.745533	16.7508
0.275414	6.03681	0.0759495	1.81739	0.358496	8.9216	0.542608	11.9885	0.626111	13.776	0.88005	19.5419	0.292682	7.20245	0.494784	11.1054	0.747433	16.4492
0.280097	6.01657	0.0780624	1.82721	0.361742	8.79838	0.544906	11.7964	0.628669	13.5545	0.881736	19.1825	0.297679	7.16122	0.496186	11.0249	0.749366	16.1603
0.2847	5.99546	0.0801749	1.8366	0.365041	8.68187	0.547274	11.6134	0.631266	13.3424	0.883452	18.838	0.302692	7.12219	0.497224	10.9669	0.751332	15.8836
0.289221	5.97346	0.0822869	1.8456	0.368393	8.57166	0.549395	11.461	0.6339	13.1394	0.885199	18.5075	0.30772	7.08517	0.49789	10.9302	0.75333	15.6182
0.293656	5.95057	0.0843984	1.85421	0.371799	8.46736	0.551246	11.3359	0.636572	12.9448	0.886976	18.1903	0.312761	7.05	0.498852	10.8782	0.755361	15.3636
0.298004	5.92678	0.0865092	1.86246	0.375261	8.36863	0.552807	11.2358	0.639282	12.7581	0.888783	17.8857	0.317814	7.01654	0.499902	10.8226	0.757424	15.119
0.302262	5.90209	0.0886195	1.87037	0.378779	8.27515	0.55406	11.1586	0.642028	12.5791	0.890619	17.5928	0.322878	6.98466	0.501338	10.7484	0.759519	14.884
0.306427	5.87652	0.0907291	1.87797	0.382355	8.18664	0.554992	11.103	0.644811	12.4071	0.892485	17.311	0.327951	6.95424	0.503167	10.6568	0.761644	14.6581
0.310499	5.85008	0.092838	1.88526	0.38599	8.10283	0.555593	11.0679	0.647629	12.2419	0.894381	17.0399	0.333032	6.92517	0.505398	10.5495	0.763801	14.4406
0.314475	5.82278	0.0949462	1.89227	0.389685	8.02347	0.556464	11.018	0.650483	12.083	0.896305	16.7787	0.33812	6.89735	0.508043	10.4279	0.765989	14.2313
0.318355	5.79466	0.0970537	1.89901	0.393441	7.94833	0.557419	10.9647	0.653372	11.9302	0.898259	16.527	0.343214	6.87067	0.511111	10.2941	0.768207	14.0297
0.322139	5.76574	0.0991605	1.9055	0.39726	7.87721	0.558733	10.8936	0.656297	11.7831	0.90024	16.2843	0.348313	6.84507	0.514216	10.1658	0.770455	13.8353
0.325825	5.73607	0.101267	1.91174	0.401141	7.80989	0.560419	10.8059	0.658873	11.6594	0.902251	16.0502	0.353415	6.82046	0.517357	10.0429	0.772733	13.6479
0.329415	5.70567	0.103372	1.91776	0.405087	7.7462	0.562493	10.703	0.66109	11.5571	0.904289	15.8242	0.35852	6.79677	0.520532	9.92507	0.775041	13.467
0.332908	5.67461	0.105477	1.92356	0.409097	7.68594	0.564977	10.5867	0.662937	11.4746	0.906356	15.6059	0.363626	6.77393	0.523742	9.81195	0.777377	13.2924
0.336307	5.64293	0.107581	1.92915	0.413171	7.62894	0.567894	10.4588	0.664406	11.4107	0.90845	15.395	0.368733	6.75187	0.526984	9.70334	0.779742	13.1238
0.339612	5.61068	0.109684	1.93455	0.417309	7.57505	0.570881	10.3364	0.665492	11.3644	0.910572	15.1911	0.373839	6.73055	0.53026	9.59898	0.782136	12.9609
0.342826	5.57791	0.111787	1.93975	0.421512	7.52409	0.573938	10.2194	0.666189	11.335	0.912721	14.9939	0.378944	6.70991	0.533568	9.49865	0.784558	12.8033
0.34595	5.54468	0.113889	1.94479	0.425778	7.47591	0.577066	10.1074	0.667194	11.2933	0.914897	14.8031	0.384047	6.68989	0.536907	9.40215	0.787008	12.6509
0.348986	5.51105	0.11599	1.94965	0.430107	7.43036	0.580262	10.0002	0.668291	11.2485	0.9171	14.6183	0.389146	6.67046	0.540277	9.30928	0.789486	12.5035
0.351937	5.47708	0.118091	1.95436	0.434497	7.38729	0.583526	9.89754	0.669789	11.1885	0.919329	14.4394	0.394241	6.65156	0.543678	9.21986	0.79199	12.3608
0.354807	5.44281	0.120191	1.95891	0.438946	7.34656	0.586859	9.79921	0.671695	11.1141	0.921585	14.2661	0.39933	6.63316	0.547108	9.13372	0.794522	12.2226
0.357596	5.40831	0.12229	1.96331	0.443453	7.30804	0.590257	9.70498	0.674016	11.0262	0.923867	14.0981	0.404414	6.61522	0.550568	9.0507	0.79708	12.0887
0.360309	5.37362	0.124389	1.96758	0.448017	7.27159	0.593722	9.61465	0.676762	10.926	0.926175	13.9352	0.40949	6.5977	0.554056	8.97065	0.799331	11.9753
0.362949	5.3388	0.126488	1.97171	0.452633	7.23709	0.597251	9.52805	0.679944	10.8147	0.928508	13.7772	0.414558	6.58057	0.557573	8.89343	0.801266	11.8811
0.365517	5.30389	0.128586	1.97572	0.457301	7.2044	0.600844	9.44498	0.683158	10.7072	0.930867	13.6238	0.419617	6.56381	0.561117	8.81891	0.802876	11.8048
0.368018	5.26895	0.130683	1.97961	0.462018	7.17342	0.604499	9.36527	0.686404	10.6032	0.933251	13.475	0.424666	6.54737	0.564689	8.74697	0.804156	11.7455
0.370454	5.234	0.13278	1.98338	0.466781	7.14403	0.608215	9.28876	0.689682	10.5027	0.93566	13.3304	0.429705	6.53123	0.568288	8.67748	0.805101	11.7024
0.372828	5.19911	0.134876	1.98704	0.471588	7.11612	0.611991	9.21531	0.692991	10.4055	0.938094	13.19	0.434732	6.51537	0.571913	8.61035	0.805708	11.6751
0.375142	5.16429	0.136972	1.99059	0.476435	7.08959	0.615825	9.14475	0.696332	10.3114	0.940553	13.0536	0.439746	6.49976	0.575565	8.54546	0.806582	11.6361
0.377401	5.12959	0.139067	1.99404	0.481321	7.06435	0.619717	9.07696	0.699704	10.2203	0.943035	12.921	0.444747	6.48438	0.579243	8.48272	0.807536	11.5942
0.379325	5.09947	0.141162	1.99739	0.486242	7.04031	0.623665	9.0118	0.703108	10.1321	0.945542	12.792	0.449733	6.4692	0.582946	8.42204	0.808838	11.538
0.380935	5.0739	0.143256	2.00066	0.491196	7.01738	0.627666	8.94914	0.706542	10.0467	0.948073	12.6666	0.454704	6.45421	0.586674	8.36333	0.810493	11.468
0.382245	5.05283	0.14535	2.00383	0.496181	6.99547	0.631721	8.88887	0.710007	9.964	0.950627	12.5446	0.459658	6.43937	0.590428	8.30651	0.812507	11.385
0.383268	5.03623	0.147444	2.00691	0.501193	6.97452	0.635827	8.83087	0.713503	9.88383	0.953204	12.4258	0.464596	6.42469	0.594206	8.25151	0.814886	11.2899
0.384014	5.02406	0.149537	2.00992	0.506231	6.95446	0.639982	8.77504	0.71703	9.80613	0.955469	12.3249	0.469515	6.41013	0.598009	8.19825	0.81764	11.1837
0.384488	5.01628	0.15163	2.01284	0.511292	6.93522	0.644186	8.72126	0.720588	9.73079	0.957414	12.2407	0.474415	6.39567	0.601836	8.14666	0.820418	11.0804
0.385165	5.00513	0.153723	2.01569	0.516373	6.91674	0.648436	8.66945	0.724176	9.65774	0.959032	12.1723	0.479296	6.38132	0.605687	8.09668	0.82322	10.9801
0.385895	4.99303	0.155815	2.01846	0.521474	6.89896	0.652731	8.61951	0.727796	9.58689	0.960317	12.119	0.484155	6.36703	0.609563	8.04824	0.826046	10.8826
0.38688	4.97663	0.157906	2.02116	0.526591	6.88184	0.65707	8.57135	0.731446	9.51816	0.961265	12.0802	0.488993	6.35282	0.613462	8.0013	0.828895	10.7877
0.388111	4.95598	0.159998	2.0238	0.531723	6.86531	0.661451	8.52488	0.735127	9.45147	0.961873	12.0556	0.493808	6.33865	0.617384	7.95578	0.831767	10.6954
0.389579	4.93114	0.162089	2.02637	0.536868	6.84935	0.665871	8.48003	0.738839	9.38675	0.96275	12.0205	0.498599	6.32451	0.62133	7.91164	0.834662	10.6056
0.391273	4.9022	0.16418	2.02887	0.542024	6.83389	0.67033	8.43671	0.742582	9.32394	0.963706	11.9826	0.503366	6.3104	0.6253	7.86884	0.83758	10.5181
0.393182	4.86928	0.16627	2.03132	0.54719	6.81892	0.674827	8.39486	0.746357	9.26297	0.96501	11.9317	0.508108	6.2963	0.629293	7.82731	0.84052	10.433
0.395055	4.83667	0.168361	2.03371	0.552363	6.80439	0.679358	8.3544	0.750163	9.20378	0.966667	11.8682	0.512823	6.2822	0.633309	7.78702	0.843482	10.35
0.396894	4.80438	0.170451	2.03604	0.557543	6.79026	0.683923	8.31527	0.754	9.14632	0.968682	11.7928	0.517511	6.26809	0.637348	7.74793	0.846466	10.2693
0.3987	4.77243	0.17254	2.03832	0.562728	6.77652	0.68852	8.27739	0.75787	9.09052	0.971061	11.706	0.522171	6.25395	0.641411	7.70999	0.849472	10.1905
0.400477	4.74082	0.17463	2.04054	0.567916	6.76312	0.693147	8.24072	0.761772	9.03633	0.973811	11.6088	0.526802	6.23979	0.645496	7.67316	0.852499	10.1138
0.402225	4.70957	0.176719	2.04271	0.573107	6.75004	0.697803	8.20518	0.765706	8.98371	0.976582	11.5139	0.531403	6.22558	0.649604	7.63741	0.855548	10.039
0.403945	4.67867	0.178808	2.04483	0.578299	6.73726	0.702485	8.17073	0.769673	8.93261	0.979375	11.4214	0.535973	6.21133	0.653735	7.6027	0.858618	9.96608
0.40564	4.64814	0.180896	2.04691	0.583491	6.72475	0.707194	8.13731	0.773673	8.88299	0.982189	11.3311	0.540513	6.19703	0.657889	7.569	0.861709	9.89495
0.407311	4.61799	0.182985	2.04894	0.588682	6.7125	0.711925	8.10487	0.777707	8.8348	0.985024	11.243	0.54502	6.18266	0.662066	7.53627	0.86482	9.82555
0.408959	4.58821	0.185073	2.05093	0.59387	6.70048	0.716679	8.07335	0.781775	8.78799	0.98788	11.1569	0.549494	6.16822	0.666265	7.50448	0.867951	9.75784
0.410585	4.5588	0.187161	2.05287	0.599056	6.68867	0.721453	8.04272	0.785877	8.74255	0.990756	11.0729	0.553934	6.15371	0.670486	7.4736	0.871104	9.69176
0.412191	4.52977	0.189249	2.05477	0.604238	6.67707	0.726246	8.01292	0.790015	8.69842	0.993652	10.9908	0.55834	6.13911	0.67473	7.4436	0.874276	9.62726
0.413778	4.50112	0.191336	2.05663	0.609414	6.66564	0.731055	7.98391	0.794187	8.65557	0.996568	10.9106	0.562712	6.12443	0.678997	7.41446	0.877468	9.56429
0.415347	4.47285	0.193423	2.05845	0.614585	6.65439	0.73588	7.95566	0.798396	8.61397	0.999504	10.8323	0.567047	6.10967	0.683285	7.38614	0.880679	9.50279
0.416898	4.44496	0.195511	2.06024	0.619749	6.64329	0.740719	7.92812	0.802641	8.57358	1.00246	10.7557	0.571346	6.09481	0.687595	7.35862	0.883911	9.44272
0.418434	4.41746	0.197598	2.06199	0.624906	6.63233	0.74557	7.90125	0.806923	8.53438			0.575609	6.07985	0.691928	7.33188	0.887161	9.38405
0.419954	4.39032	0.199684	2.0637	0.630054	6.6215	0.750432	7.87501	0.811242	8.49635			0.579834	6.06479	0.696281	7.30588	0.890431	9.32672
0.421461	4.36357	0.201771	2.06538	0.635194	6.61078	0.755303	7.84938	0.8156	8.45944			0.584021	6.04964	0.700657	7.28062	0.89372	9.2707
0.422954	4.33719	0.203857	2.06702	0.640325	6.60018	0.760181	7.82432	0.819995	8.42363			0.58817	6.03438	0.705053	7.25605	0.897027	9.21594
0.424434	4.31118	0.205944	2.06863	0.645445	6.58967	0.765066	7.7998	0.82443	8.3889			0.59228	6.01901	0.70947	7.23216	0.900354	9.16241
0.425903	4.28554	0.20803	2.07021	0.650554	6.57925	0.769954	7.77578	0.828905	8.35522			0.596352	6.00354	0.713908	7.20893	0.903699	9.11007
0.427361	4.26027	0.210116	2.07176	0.655652	6.56891	0.774847	7.75224	0.833419	8.32256			0.600384	5.98797	0.718366	7.18634	0.907062	9.0589
0.428808	4.23536	0.212202	2.07328	0.660738	6.55864	0.779741	7.72916	0.837975	8.29091			0.604376	5.97229	0.722843	7.16436	0.910444	9.00884
0.430246	4.21082	0.214287	2.07477	0.665811	6.54844	0.784635	7.70651	0.84257	8.26024			0.608329	5.95651	0.727341	7.14297	0.913844	8.95988
0.431675	4.18662	0.216373	2.07623	0.670871	6.5383	0.789529	7.68426	0.847208	8.23052			0.612242	5.94063	0.731858	7.12216	0.917261	8.91198
0.433095	4.16278	0.218458	2.07767	0.675918	6.5282	0.794422	7.66239	0.851886	8.20174			0.616114	5.92464	0.736393	7.10191	0.920697	8.86511
0.434508	4.13929	0.220543	2.07908	0.68095	6.51815	0.799311	7.64088	0.856607	8.17387			0.619946	5.90856	0.740946	7.08219	0.92415	8.81925
0.435913	4.11615	0.222628	2.08046	0.685968	6.50814	0.804197	7.61972	0.86137	8.14688			0.623738	5.89238	0.745518	7.06298	0.927621	8.77435
0.437312	4.09334	0.224713	2.08182	0.69097	6.49816	0.809078	7.59889	0.866174	8.12077			0.62749	5.8761	0.750107	7.04428	0.93111	8.73041
0.438704	4.07087	0.226798	2.08315	0.695957	6.48821	0.813953	7.57837	0.871021	8.09549			0.631202	5.85973	0.754712	7.02605	0.934615	8.68739
0.44009	4.04873	0.228883	2.08446	0.700928	6.47828	0.818823	7.55814	0.87591	8.07104			0.634873	5.84327	0.759334	7.00829	0.938138	8.64526
0.441471	4.02692	0.230967	2.08575	0.705882	6.46837	0.823685	7.5382	0.880841	8.04739			0.638504	5.82672	0.763972	6.99098	0.941678	8.60401
0.442847	4.00543	0.233052	2.08702	0.710819	6.45847	0.828541	7.51852	0.885814	8.02452			0.642095	5.8101	0.768625	6.9741	0.945235	8.56361
0.444219	3.98426	0.235136	2.08826	0.715739	6.44858	0.833388	7.49911	0.890828	8.0024			0.645646	5.79339	0.773292	6.95763	0.948809	8.52404
0.445586	3.96341	0.237221	2.08948	0.72064	6.43869	0.838228	7.47995	0.895883	7.98101			0.649158	5.7766	0.777973	6.94156	0.952399	8.48527
0.44695	3.94286	0.239305	2.09068	0.725524	6.42881	0.84306	7.46104	0.900979	7.96034			0.65263	5.75975	0.782668	6.92587	0.956006	8.44729
0.44831	3.92262	0.241389	2.09186	0.730389	6.41892	0.847884	7.44237	0.906115	7.94036			0.656063	5.74283	0.787376	6.91056	0.95963	8.41007
0.449667	3.90268	0.243473	2.09302	0.735234	6.40903	0.8527	7.42392	0.911291	7.92104			0.659457	5.72584	0.792095	6.89559	0.96327	8.3736
0.451022	3.88304	0.245557	2.09416	0.740061	6.39913	0.857507	7.4057	0.916506	7.90237			0.662813	5.70879	0.796826	6.88097	0.966926	8.33785
0.452374	3.86368	0.24764	2.09528	0.744867	6.38922	0.862307	7.38771	0.921758	7.88432			0.66613	5.69169	0.801568	6.86667	0.970598	8.30281
0.453723	3.84462	0.249724	2.09639	0.749653	6.37929	0.867098	7.36993	0.927048	7.86687			0.66941	5.67454	0.80632	6.85268	0.974286	8.26846
0.455071	3.82583	0.251808	2.09747	0.754419	6.36934	0.871883	7.35238	0.932374	7.85001			0.672652	5.65734	0.811082	6.839	0.977991	8.23479
0.456417	3.80732	0.253891	2.09854	0.759163	6.35938	0.87666	7.33503	0.937736	7.8337			0.675856	5.6401	0.815852	6.8256	0.981711	8.20177
0.457761	3.78909	0.255974	2.09959	0.763887	6.34939	0.88143	7.3179	0.943132	7.81793			0.679024	5.62282	0.820631	6.81248	0.985446	8.16939
0.459105	3.77113	0.258058	2.10063	0.768589	6.33938	0.886194	7.30098	0.948562	7.80268			0.682156	5.6055	0.825417	6.79962	0.989198	8.13763
0.460447	3.75343	0.260141	2.10164	0.773269	6.32934	0.890953	7.28426	0.954025	7.78793			0.685252	5.58816	0.83021	6.78702	0.992965	8.10649
0.461789	3.73599	0.262224	2.10265	0.777927	6.31928	0.895705	7.26776	0.95952	7.77366			0.688312	5.57079	0.83501	6.77465	0.996747	8.07594
0.46313	3.71881	0.264307	2.10363	0.782562	6.30918	0.900453	7.25147	0.965045	7.75985			0.691337	5.55339	0.839815	6.76252	1.00054	8.04597
0.46447	3.70188	0.26639	2.10461	0.787175	6.29905	0.905197	7.23538	0.9706	7.74648			0.694328	5.53598	0.844625	6.7506		
0.465811	3.6852	0.268473	2.10556	0.791764	6.28889	0.909936	7.21949	0.976183	7.73354			0.697284	5.51856	0.849439	6.7389		
0.467151	3.66876	0.270556	2.10651	0.79633	6.2787	0.914672	7.20382	0.981794	7.721			0.700207	5.50113	0.854257	6.72739		
0.468492	3.65256	0.272638	2.10743	0.800873	6.26846	0.919405	7.18835	0.987432	7.70885			0.703096	5.48369	0.859078	6.71608		
0.469833	3.6366	0.274721	2.10835	0.805392	6.25819	0.924135	7.17308	0.993095	7.69708			0.705953	5.46625	0.863901	6.70495		
0.471174	3.62087	0.276804	2.10925	0.809886	6.24789	0.928863	7.15801	0.998783	7.68567			0.708778	5.44882	0.868726	6.694		
0.472516	3.60537	0.278886	2.11014	0.814357	6.23754	0.93359	7.14315	1.0045	7.6746			0.711571	5.43138	0.873552	6.6832		
0.473859	3.5901	0.280969	2.11101	0.818803	6.22716	0.938316	7.12849					0.714332	5.41396	0.878379	6.67257		
0.475203	3.57504	0.283051	2.11188	0.823224	6.21673	0.94304	7.11403					0.717063	5.39655	0.883206	6.66208		
0.476548	3.5602	0.285133	2.11272	0.827621	6.20627	0.947764	7.09977					0.719764	5.37916	0.888032	6.65174		
0.477893	3.54558	0.287216	2.11356	0.831992	6.19576	0.952489	7.0857					0.722435	5.36179	0.892857	6.64153		
0.47924	3.53116	0.289298	2.11439	0.836339	6.18521	0.957213	7.07184					0.725076	5.34443	0.89768	6.63145		
0.480589	3.51695	0.29138	2.1152	0.84066	6.17462	0.961938	7.05816					0.727689	5.32711	0.902501	6.62149		
0.481938	3.50295	0.293462	2.11601	0.844955	6.16399	0.966664	7.04468					0.730274	5.30981	0.907319	6.61165		
0.48329	3.48914	0.295544	2.1168	0.849225	6.15332	0.971391	7.03138					0.73283	5.29255	0.912134	6.60191		
0.484643	3.47553	0.297626	2.11758	0.853469	6.14261	0.976119	7.01827					0.73536	5.27532	0.916945	6.59227		
0.485997	3.46211	0.299708	2.11835	0.857688	6.13185	0.980848	7.00535					0.737862	5.25813	0.921751	6.58273		
0.487354	3.44888	0.30179	2.11911	0.861881	6.12105	0.98558	6.99261					0.740338	5.24098	0.926552	6.57329		
0.488712	3.43584	0.303871	2.11986	0.866047	6.11021	0.990313	6.98005					0.742788	5.22387	0.931348	6.56392		
0.490072	3.42298	0.305953	2.1206	0.870188	6.09933	0.995047	6.96767					0.745213	5.2068	0.936138	6.55464		
0.491434	3.41031	0.308035	2.12133	0.874303	6.08841	0.999784	6.95546					0.747613	5.18979	0.940921	6.54543		
0.492799	3.39781	0.310117	2.12205	0.878391	6.07745	1.00452	6.94342					0.749989	5.17282	0.945698	6.5363		
0.494165	3.38548	0.312198	2.12276	0.882454	6.06646							0.75234	5.15591	0.950467	6.52723		
0.495534	3.37332	0.31428	2.12346	0.88649	6.05542							0.754668	5.13905	0.955228	6.51822		
0.496904	3.36134	0.316361	2.12415	0.8905	6.04434							0.756973	5.12224	0.959981	6.50927		
0.498278	3.34951	0.318443	2.12483	0.894484	6.03323							0.759255	5.1055	0.964725	6.50037		
0.499653	3.33786	0.320524	2.12551	0.898442	6.02208							0.761515	5.08881	0.96946	6.49152		
0.501031	3.32636	0.322605	2.12617	0.902374	6.0109							0.763753	5.07219	0.974186	6.48272		
0.502411	3.31502	0.324687	2.12683	0.906279	5.99968							0.76597	5.05563	0.978901	6.47396		
0.503794	3.30383	0.326768	2.12748	0.910159	5.98843							0.768166	5.03914	0.983606	6.46524		
0.505179	3.2928	0.328849	2.12812	0.914013	5.97714							0.770342	5.02271	0.988301	6.45656		
0.506567	3.28191	0.33093	2.12875	0.917841	5.96583							0.772498	5.00636	0.992984	6.4479		
0.507958	3.27117	0.333012	2.12938	0.921643	5.95448							0.774634	4.99007	0.997655	6.43928		
0.509351	3.26058	0.335093	2.13	0.925419	5.9431							0.77675	4.97385	1.00231	6.43069		
0.510747	3.25013	0.337174	2.13061	0.929169	5.9317							0.778849	4.95771				
0.512145	3.23982	0.339255	2.13121	0.932894	5.92026							0.780928	4.94164				
0.513546	3.22965	0.341336	2.13181	0.936593	5.9088							0.78299	4.92565				
0.51495	3.21962	0.343417	2.13239	0.940267	5.89732							0.785034	4.90973				
0.516357	3.20972	0.345498	2.13298	0.943916	5.88581							0.787061	4.89389				
0.517767	3.19994	0.347578	2.13355	0.947539	5.87427							0.789071	4.87813				
0.519179	3.1903	0.349659	2.13412	0.951137	5.86272							0.791065	4.86245				
0.520594	3.18079	0.35174	2.13468	0.954711	5.85114							0.793042	4.84684				
0.522012	3.1714	0.353821	2.13523	0.958259	5.83954							0.795004	4.83132				
0.523433	3.16213	0.355901	2.13578	0.961783	5.82793							0.79695	4.81588				
0.524856	3.15298	0.357982	2.13632	0.965282	5.81629							0.798881	4.80053				
0.526283	3.14396	0.360063	2.13686	0.968756	5.80464							0.800798	4.78525				
0.527712	3.13505	0.362143	2.13739	0.972207	5.79297							0.8027	4.77006				
0.529145	3.12625	0.364224	2.13791	0.975633	5.78129							0.804588	4.75496				
0.53058	3.11757	0.366305	2.13843	0.979035	5.7696							0.806463	4.73994				
0.532018	3.109	0.368385	2.13894	0.982413	5.75789							0.808324	4.725				
0.533459	3.10054	0.370466	2.13945	0.985767	5.74617							0.810172	4.71015				
0.534903	3.09219	0.372546	2.13995	0.989098	5.73445							0.812007	4.69539				
0.53635	3.08394	0.374627	2.14044	0.992405	5.72271							0.81383	4.68071				
0.5378	3.0758	0.376707	2.14093	0.995689	5.71096							0.815641	4.66612				
0.539253	3.06777	0.378787	2.14142	0.99895	5.69921							0.81744	4.65162				
0.540709	3.05983	0.380868	2.1419	1.00219	5.68745							0.819227	4.6372				
0.542167	3.05199	0.382948	2.14237									0.821003	4.62288				
0.543629	3.04425	0.385028	2.14284									0.822768	4.60864				
0.545094	3.03661	0.387109	2.1433									0.824522	4.59448				
0.546561	3.02907	0.389189	2.14376									0.826266	4.58042				
0.548032	3.02161	0.391269	2.14422									0.827999	4.56645				
0.549505	3.01425	0.393349	2.14467									0.829723	4.55256				
0.550982	3.00699	0.395429	2.14511									0.831436	4.53876				
0.552461	2.99981	0.397509	2.14555									0.833141	4.52505				
0.553943	2.99271	0.39959	2.14599									0.834836	4.51142				
0.555428	2.98571	0.40167	2.14642									0.836522	4.49789				
0.556917	2.97879	0.40375	2.14684									0.838199	4.48444				
0.558408	2.97196	0.40583	2.14727									0.839868	4.47108				
0.559902	2.9652	0.40791	2.14769									0.841528	4.45781				
0.561399	2.95853	0.40999	2.1481									0.84318	4.44463				
0.562898	2.95194	0.41207	2.14851									0.844825	4.43153				
0.564401	2.94543	0.41415	2.14891									0.846461	4.41852				
0.565907	2.939	0.41623	2.14932									0.848091	4.4056				
0.567415	2.93264	0.418309	2.14971									0.849713	4.39277				
0.568927	2.92636	0.420389	2.15011									0.851328	4.38002				
0.570441	2.92016	0.422469	2.1505									0.852936	4.36736				
0.571958	2.91402	0.424549	2.15088									0.854537	4.35478				
0.573478	2.90796	0.426629	2.15127									0.856132	4.34229				
0.575	2.90198	0.428709	2.15165									0.85772	4.32989				
0.576526	2.89606	0.430788	2.15202									0.859302	4.31757				
0.578054	2.89021	0.432868	2.15239									0.860878	4.30533				
0.579586	2.88443	0.434948	2.15276									0.862449	4.29318				
0.58112	2.87871	0.437028	2.15312									0.864013	4.28111				
0.582657	2.87307	0.439107	2.15349									0.865573	4.26913				
0.584196	2.86749	0.441187	2.15384									0.867126	4.25723				
0.585738	2.86197	0.443267	2.1542									0.868675	4.24542				
0.587284	2.85651	0.445346	2.15455									0.870219	4.23368				
0.588831	2.85112	0.447426	2.1549									0.871758	4.22203				
0.590382	2.84579	0.449505	2.15524									0.873291	4.21046				
0.591935	2.84052	0.451585	2.15558									0.874821	4.19897				
0.593491	2.83531	0.453665	2.15592									0.876346	4.18757				
0.59505	2.83016	0.455744	2.15626									0.877866	4.17624				
0.596611	2.82507	0.457824	2.15659									0.879383	4.16499				
0.598176	2.82003	0.459903	2.15692									0.880895	4.15382				
0.599742	2.81506	0.461983	2.15724									0.882403	4.14274				
0.601312	2.81013	0.464062	2.15757									0.883908	4.13173				
0.602884	2.80527	0.466142	2.15789									0.885408	4.1208				
0.604458	2.80045	0.468221	2.15821									0.886906	4.10994				
0.606036	2.79569	0.4703	2.15852									0.888399	4.09917				
0.607615	2.79098	0.47238	2.15883									0.88989	4.08847				
0.609198	2.78633	0.474459	2.15914									0.891377	4.07784				
0.610783	2.78172	0.476539	2.15945									0.892861	4.0673				
0.612371	2.77717	0.478618	2.15975									0.894342	4.05682				
0.613961	2.77267	0.480697	2.16006									0.89582	4.04643				
0.615553	2.76821	0.482777	2.16035									0.897295	4.0361				
0.617148	2.7638	0.484856	2.16065									0.898767	4.02586				
0.618746	2.75945	0.486935	2.16095									0.900237	4.01568				
0.620346	2.75513	0.489014	2.16124									0.901704	4.00558				
0.621949	2.75087	0.491094	2.16153									0.903169	3.99555				
0.623554	2.74665	0.493173	2.16181									0.904632	3.98559				
0.625162	2.74248	0.495252	2.1621									0.906092	3.9757				
0.626772	2.73835	0.497331	2.16238									0.90755	3.96589				
0.628384	2.73426	0.499411	2.16266									0.909006	3.95614				
0.629999	2.73022	0.50149	2.16293									0.91046	3.94647				
0.631617	2.72622	0.503569	2.16321									0.911912	3.93686				
0.633236	2.72227	0.505648	2.16348									0.913362	3.92733				
0.634858	2.71835	0.507727	2.16375									0.91481	3.91786				
0.636483	2.71448	0.509806	2.16402									0.916257	3.90846				
0.638109	2.71064	0.511886	2.16429									0.917701	3.89913				
0.639739	2.70685	0.513965	2.16455									0.919145	3.88986				
0.64137	2.7031	0.516044	2.16481									0.920587	3.88066				
0.643004	2.69938	0.518123	2.16507									0.922027	3.87153				
0.64464	2.69571	0.520202	2.16533									0.923466	3.86246				
0.646278	2.69207	0.522281	2.16558									0.924904	3.85346				
0.647919	2.68847	0.52436	2.16584									0.926341	3.84452				
0.649561	2.68491	0.526439	2.16609									0.927776	3.83565				
0.651207	2.68138	0.528518	2.16634									0.92921	3.82683				
0.652854	2.67789	0.530597	2.16659									0.930644	3.81809				
0.654503	2.67444	0.532676	2.16683									0.932076	3.8094				
0.656155	2.67102	0.534755	2.16708									0.933507	3.80078				
0.657809	2.66763	0.536834	2.16732									0.934938	3.79222				
0.659465	2.66428	0.538913	2.16756									0.936367	3.78372				
0.661123	2.66097	0.540992	2.1678									0.937796	3.77528				
0.662784	2.65768	0.543071	2.16803									0.939225	3.7669				
0.664446	2.65443	0.54515	2.16827									0.940652	3.75858				
0.666111	2.65121	0.547229	2.1685									0.942079	3.75032				
0.667778	2.64803	0.549308	2.16873									0.943505	3.74212				
0.669447	2.64487	0.551386	2.16896									0.944931	3.73398				
0.671118	2.64175	0.553465	2.16919									0.946357	3.72589				
0.672791	2.63866	0.555544	2.16941									0.947782	3.71786				
0.674466	2.6356	0.557623	2.16964									0.949206	3.70989				
0.676143	2.63257	0.559702	2.16986									0.95063	3.70198				
0.677822	2.62957	0.561781	2.17008									0.952054	3.69412				
0.679504	2.6266	0.56386	2.1703									0.953478	3.68632				
0.681187	2.62365	0.565938	2.17052									0.954902	3.67857				
0.682872	2.62074	0.568017	2.17073									0.956325	3.67088				
0.68456	2.61786	0.570096	2.17095									0.957748	3.66324				
0.686249	2.615	0.572175	2.17116									0.959171	3.65566				
0.68794	2.61217	0.574254	2.17137									0.960594	3.64813				
0.689633	2.60937	0.576332	2.17158									0.962017	3.64065				
0.691328	2.60659	0.578411	2.17179									0.96344	3.63322				
0.693025	2.60384	0.58049	2.172									0.964863	3.62585				
0.694724	2.60112	0.582568	2.1722									0.966287	3.61853				
0.696425	2.59843	0.584647	2.17241									0.96771	3.61126				
0.698128	2.59576	0.586726	2.17261									0.969133	3.60404				
0.699832	2.59311	0.588805	2.17281									0.970557	3.59687				
0.701539	2.59049	0.590883	2.17301									0.971981	3.58976				
0.703247	2.5879	0.592962	2.17321									0.973405	3.58269				
0.704957	2.58532	0.595041	2.17341									0.974829	3.57567				
0.70667	2.58278	0.597119	2.1736									0.976254	3.5687				
0.708383	2.58026	0.599198	2.1738									0.977679	3.56177				
0.710099	2.57776	0.601277	2.17399									0.979104	3.5549				
0.711817	2.57528	0.603355	2.17418									0.98053	3.54808				
0.713536	2.57283	0.605434	2.17437									0.981956	3.5413				
0.715257	2.5704	0.607512	2.17456									0.983382	3.53456				
0.71698	2.56799	0.609591	2.17475									0.984809	3.52788				
0.718704	2.56561	0.61167	2.17493									0.986237	3.52124				
0.720431	2.56325	0.613748	2.17512									0.987665	3.51465				
0.722159	2.5609	0.615827	2.1753									0.989093	3.5081				
0.723888	2.55859	0.617905	2.17548									0.990522	3.5016				
0.72562	2.55629	0.619984	2.17567									0.991952	3.49514				
0.727353	2.55401	0.622063	2.17585									0.993382	3.48872				
0.729088	2.55175	0.624141	2.17602									0.994813	3.48236				
0.730824	2.54952	0.62622	2.1762									0.996244	3.47603				
0.732563	2.5473	0.628298	2.17638									0.997676	3.46975				
0.734303	2.54511	0.630377	2.17655									0.999109	3.46351				
0.736044	2.54293	0.632455	2.17673									1.00054	3.45731				
0.737787	2.54078	0.634534	2.1769														
0.739532	2.53864	0.636612	2.17707														
0.741279	2.53652	0.638691	2.17724														
0.743027	2.53442	0.640769	2.17741														
0.744776	2.53234	0.642848	2.17758														
0.746528	2.53028	0.644926	2.17775														
0.74828	2.52824	0.647004	2.17792														
0.750035	2.52621	0.649083	2.17808														
0.751791	2.52421	0.651161	2.17825														
0.753548	2.52222	0.65324	2.17841														
0.755307	2.52025	0.655318	2.17857														
0.757068	2.51829	0.657396	2.17873														
0.75883	2.51635	0.659475	2.17889														
0.760593	2.51443	0.661553	2.17905														
0.762358	2.51253	0.663632	2.17921														
0.764125	2.51064	0.66571	2.17937														
0.765893	2.50877	0.667788	2.17952														
0.767663	2.50692	0.669867	2.17968														
0.769434	2.50508	0.671945	2.17983														
0.771206	2.50326	0.674024	2.17999														
0.77298	2.50145	0.676102	2.18014														
0.774755	2.49966	0.67818	2.18029														
0.776532	2.49788	0.680258	2.18044														
0.77831	2.49612	0.682337	2.18059														
0.78009	2.49438	0.684415	2.18074														
0.781871	2.49265	0.686493	2.18089														
0.783653	2.49093	0.688572	2.18103														
0.785437	2.48923	0.69065	2.18118														
0.787222	2.48754	0.692728	2.18133														
0.789009	2.48587	0.694807	2.18147														
0.790797	2.48421	0.696885	2.18161														
0.792586	2.48256	0.698963	2.18176														
0.794376	2.48093	0.701041	2.1819														
0.796168	2.47931	0.70312	2.18204														
0.797961	2.47771	0.705198	2.18218														
0.799756	2.47612	0.707276	2.18232														
0.801552	2.47454	0.709354	2.18246														
0.803349	2.47297	0.711432	2.18259														
0.805147	2.47142	0.713511	2.18273														
0.806947	2.46988	0.715589	2.18287														
0.808748	2.46835	0.717667	2.183														
0.81055	2.46684	0.719745	2.18314														
0.812354	2.46534	0.721823	2.18327														
0.814159	2.46385	0.723902	2.1834														
0.815965	2.46237	0.72598	2.18353														
0.817772	2.46091	0.728058	2.18367														
0.81958	2.45945	0.730136	2.1838														
0.82139	2.45801	0.732214	2.18393														
0.823201	2.45658	0.734292	2.18405														
0.825013	2.45516	0.736371	2.18418														
0.826827	2.45376	0.738449	2.18431														
0.828641	2.45236	0.740527	2.18444														
0.830457	2.45098	0.742605	2.18456														
0.832274	2.4496	0.744683	2.18469														
0.834092	2.44824	0.746761	2.18481														
0.835911	2.44689	0.748839	2.18494														
0.837731	2.44555	0.750917	2.18506														
0.839553	2.44422	0.752995	2.18518														
0.841376	2.4429	0.755073	2.18531														
0.843199	2.44159	0.757152	2.18543														
0.845024	2.44029	0.75923	2.18555														
0.84685	2.439	0.761308	2.18567														
0.848678	2.43772	0.763386	2.18579														
0.850506	2.43645	0.765464	2.18591														
0.852335	2.43519	0.767542	2.18602														
0.854166	2.43394	0.76962	2.18614														
0.855997	2.4327	0.771698	2.18626														
0.85783	2.43147	0.773776	2.18637														
0.859664	2.43025	0.775854	2.18649														
0.861498	2.42904	0.777932	2.1866														
0.863334	2.42784	0.78001	2.18672														
0.865171	2.42665	0.782088	2.18683														
0.867009	2.42547	0.784166	2.18695														
0.868848	2.42429	0.786244	2.18706														
0.870688	2.42313	0.788322	2.18717														
0.872529	2.42197	0.7904	2.18728														
0.874371	2.42082	0.792478	2.18739														
0.876214	2.41968	0.794556	2.1875														
0.878058	2.41855	0.796634	2.18761														
0.879904	2.41743	0.798712	2.18772														
0.88175	2.41632	0.80079	2.18783														
0.883597	2.41521	0.802868	2.18794														
0.885445	2.41412	0.804946	2.18804														
0.887294	2.41303	0.807023	2.18815														
0.889144	2.41195	0.809101	2.18826														
0.890995	2.41088	0.811179	2.18836														
0.892847	2.40981	0.813257	2.18847														
0.8947	2.40876	0.815335	2.18857														
0.896554	2.40771	0.817413	2.18868														
0.898409	2.40667	0.819491	2.18878														
0.900265	2.40564	0.821569	2.18888														
0.902121	2.40461	0.823647	2.18898														
0.903979	2.40359	0.825725	2.18909														
0.905838	2.40258	0.827802	2.18919														
0.907697	2.40158	0.82988	2.18929														
0.909558	2.40059	0.831958	2.18939														
0.911419	2.3996	0.834036	2.18949														
0.913281	2.39862	0.836114	2.18959														
0.915144	2.39764	0.838192	2.18969														
0.917008	2.39668	0.84027	2.18978														
0.918873	2.39572	0.842347	2.18988														
0.920739	2.39477	0.844425	2.18998														
0.922606	2.39382	0.846503	2.19008														
0.924473	2.39288	0.848581	2.19017														
0.926342	2.39195	0.850659	2.19027														
0.928211	2.39102	0.852736	2.19036														
0.930081	2.3901	0.854814	2.19046														
0.931952	2.38919	0.856892	2.19055														
0.933824	2.38829	0.85897	2.19065														
0.935697	2.38739	0.861048	2.19074														
0.93757	2.38649	0.863125	2.19083														
0.939445	2.38561	0.865203	2.19093														
0.94132	2.38473	0.867281	2.19102														
0.943196	2.38385	0.869359	2.19111														
0.945073	2.38299	0.871437	2.1912														
0.946951	2.38212	0.873514	2.19129														
0.948829	2.38127	0.875592	2.19138														
0.950708	2.38042	0.87767	2.19147														
0.952588	2.37957	0.879747	2.19156														
0.954469	2.37874	0.881825	2.19165														
0.956351	2.3779	0.883903	2.19174														
0.958233	2.37708	0.885981	2.19183														
0.960117	2.37626	0.888058	2.19192														
0.962001	2.37544	0.890136	2.192														
0.963885	2.37463	0.892214	2.19209														
0.965771	2.37383	0.894292	2.19218														
0.967657	2.37303	0.896369	2.19226														
0.969544	2.37224	0.898447	2.19235														
0.971432	2.37145	0.900525	2.19244														
0.973321	2.37067	0.902602	2.19252														
0.97521	2.3699	0.90468	2.19261														
0.9771	2.36913	0.906758	2.19269														
0.978991	2.36836	0.908835	2.19277														
0.980883	2.3676	0.910913	2.19286														
0.982775	2.36684	0.912991	2.19294														
0.984668	2.36609	0.915068	2.19302														
0.986562	2.36535	0.917146	2.1931														
0.988456	2.36461	0.919224	2.19319														
0.990351	2.36387	0.921301	2.19327														
0.992247	2.36314	0.923379	2.19335														
0.994144	2.36242	0.925456	2.19343														
0.996041	2.3617	0.927534	2.19351														
0.997939	2.36098	0.929612	2.19359														
0.999838	2.36027	0.931689	2.19367														
1.00174	2.35957	0.933767	2.19375														
		0.935845	2.19383														
		0.937922	2.19391														
		0.94	2.19399														
		0.942077	2.19406														
		0.944155	2.19414														
		0.946232	2.19422														
		0.94831	2.1943														
		0.950388	2.19437														
		0.952465	2.19445														
		0.954543	2.19452														
		0.95662	2.1946														
		0.958698	2.19467														
		0.960775	2.19475														
		0.962853	2.19482														
		0.96493	2.1949														
		0.967008	2.19497														
		0.969086	2.19505														
		0.971163	2.19512														
		0.973241	2.19519														
		0.975318	2.19526														
		0.977396	2.19534														
		0.979473	2.19541														
		0.981551	2.19548														
		0.983628	2.19555														
		0.985706	2.19562														
		0.987783	2.19569														
		0.989861	2.19576														
		0.991938	2.19583														
		0.994016	2.1959														
		0.996093	2.19597														
		0.998171	2.19604														
		1.00025	2.19611														
