Sym0		Asym0		Sym1		Sym2		Sym3		Sym4		Asym1		Asym2		Asym3	
461  Points		495  Points		198  Points		165  Points		150  Points		108  Points		317  Points		177  Points		142  Points	
Freq (MHz)	Vph (m/ms)	Freq (MHz)	Vph (m/ms)	Freq (MHz)	Vph (m/ms)	Freq (MHz)	Vph (m/ms)	Freq (MHz)	Vph (m/ms)	Freq (MHz)	Vph (m/ms)	Freq (MHz)	Vph (m/ms)	Freq (MHz)	Vph (m/ms)	Freq (MHz)	Vph (m/ms)
0.00401998	6.24252	5.81135e-005	0.0725441	0.279516	737.136	0.493865	2215.75	0.559033	819.861	0.838529	2077.13	0.139843	181.908	0.419274	775.52	0.698785	905.08
0.00983586	6.24236	0.000271071	0.156438	0.279603	213.293	0.493885	427.76	0.559106	346.505	0.838561	627.952	0.140189	82.442	0.41935	284.82	0.698839	410.173
0.0156508	6.24196	0.00063825	0.239541	0.279786	124.761	0.493933	236.753	0.559239	219.718	0.838629	369.915	0.140792	53.4895	0.419495	174.497	0.698934	265.204
0.0214645	6.2414	0.00115555	0.32133	0.280064	88.2292	0.494009	163.689	0.559431	160.897	0.838731	262.203	0.141649	39.7462	0.41971	125.823	0.69907	195.974
0.0272763	6.24064	0.00181766	0.40144	0.280437	68.2998	0.494112	125.102	0.559682	126.951	0.838869	203.093	0.142754	31.7546	0.419995	98.419	0.699246	155.428
0.0330858	6.23972	0.00261802	0.479531	0.280905	55.7609	0.494243	101.251	0.559993	104.861	0.839041	165.747	0.144098	26.5509	0.420349	80.8501	0.699463	128.802
0.0388924	6.23861	0.003549	0.55529	0.281467	47.1519	0.494403	85.0504	0.560362	89.343	0.839248	140.018	0.145673	22.9084	0.420772	68.6324	0.69972	109.98
0.0446956	6.23732	0.00460239	0.628489	0.282121	40.8809	0.494591	73.3298	0.56079	77.8472	0.83949	121.216	0.147469	20.2272	0.421264	59.648	0.700018	95.9726
0.0504949	6.23584	0.0057696	0.698952	0.282869	36.1136	0.494809	64.458	0.561276	68.9916	0.839767	106.878	0.149476	18.1793	0.421825	52.7664	0.700356	85.1431
0.0562898	6.23417	0.00704176	0.766547	0.283707	32.3702	0.495055	57.5101	0.56182	61.9624	0.840079	95.5835	0.151683	16.5701	0.422455	47.3291	0.700735	76.5218
0.0620796	6.23231	0.00840998	0.831188	0.284636	29.3556	0.495332	51.9225	0.562422	56.2489	0.840425	86.4578	0.154079	15.277	0.423152	42.9265	0.701154	69.4967
0.0678638	6.23026	0.00986581	0.892856	0.285654	26.8779	0.495639	47.332	0.563081	51.5147	0.840806	78.9316	0.156654	14.2188	0.423917	39.2905	0.701613	63.6631
0.0736419	6.22801	0.0114007	0.951536	0.28676	24.8072	0.495977	43.4944	0.563797	47.5289	0.841222	72.6191	0.159397	13.3396	0.424749	36.2384	0.702112	58.7423
0.0794131	6.22555	0.013007	1.00727	0.287952	23.0523	0.496347	40.2391	0.56457	44.1281	0.841672	67.2491	0.162297	12.5999	0.425648	33.6409	0.702652	54.5363
0.085177	6.22289	0.0146772	1.06012	0.289229	21.5474	0.496749	37.4435	0.565398	41.193	0.842157	62.6259	0.165344	11.9706	0.426613	31.4047	0.703231	50.9005
0.0909327	6.22001	0.0164043	1.11016	0.29059	20.2437	0.497184	35.0171	0.566283	38.6349	0.842676	58.6041	0.16853	11.4303	0.427644	29.46	0.70385	47.7267
0.0966797	6.21691	0.0181822	1.1575	0.292033	19.1042	0.497652	32.8917	0.567222	36.3861	0.843229	55.0741	0.171412	11.019	0.42874	27.7542	0.704508	44.9327
0.102417	6.21359	0.0200051	1.20224	0.293556	18.1006	0.498155	31.0151	0.568215	34.3942	0.843817	51.9512	0.173942	10.7053	0.4299	26.2463	0.705207	42.4545
0.108145	6.21004	0.0218676	1.24449	0.295157	17.2106	0.498694	29.3463	0.569263	32.6181	0.844439	49.169	0.176082	10.4683	0.431124	24.9044	0.705944	40.2418
0.113861	6.20626	0.0237651	1.28437	0.296836	16.4166	0.499268	27.853	0.570365	31.0249	0.845095	46.6751	0.177804	10.2937	0.432412	23.7031	0.706721	38.2543
0.119566	6.20222	0.0256933	1.32201	0.298589	15.7044	0.49988	26.5093	0.571519	29.5882	0.845785	44.4271	0.179087	10.172	0.433763	22.6218	0.707537	36.4597
0.125258	6.19794	0.0276483	1.35753	0.300417	15.0624	0.50053	25.294	0.572726	28.2863	0.846509	42.3905	0.179914	10.0969	0.435175	21.6438	0.708392	34.8315
0.130936	6.19339	0.0296269	1.39104	0.302315	14.4811	0.501218	24.1899	0.573984	27.1014	0.847267	40.5372	0.181114	9.99253	0.436649	20.7553	0.709285	33.3477
0.1366	6.18858	0.0316259	1.42266	0.304284	13.9527	0.501946	23.1826	0.575294	26.0186	0.848058	38.8435	0.18243	9.88368	0.438183	19.9449	0.710217	31.9902
0.142249	6.18348	0.0336426	1.4525	0.30632	13.4706	0.502715	22.2602	0.576655	25.0257	0.848883	37.29	0.184239	9.74286	0.439776	19.2031	0.711187	30.7437
0.147881	6.1781	0.0356747	1.48068	0.308423	13.0293	0.503526	21.4127	0.578066	24.1119	0.849741	35.86	0.18656	9.57578	0.441429	18.5218	0.712196	29.5954
0.153496	6.17241	0.0374565	1.50395	0.31059	12.6239	0.50438	20.6316	0.579526	23.2686	0.850633	34.5396	0.189413	9.38867	0.44314	17.894	0.713242	28.5341
0.159092	6.1664	0.0389823	1.5229	0.31282	12.2507	0.505278	19.9096	0.581035	22.488	0.851558	33.3167	0.19282	9.1878	0.444909	17.3141	0.714327	27.5506
0.164668	6.16007	0.0402485	1.53798	0.315112	11.906	0.506221	19.2404	0.582593	21.7635	0.852516	32.1812	0.196806	8.97911	0.446734	16.7768	0.715448	26.6367
0.170222	6.1534	0.0412522	1.54953	0.317463	11.5869	0.507209	18.6186	0.584199	21.0895	0.853507	31.1239	0.200869	8.79079	0.448615	16.2779	0.716608	25.7854
0.175754	6.14637	0.0419916	1.55784	0.319872	11.2909	0.508245	18.0397	0.585853	20.461	0.854531	30.1374	0.205003	8.62022	0.45055	15.8135	0.717804	24.9906
0.181262	6.13897	0.0424653	1.56306	0.322017	11.0499	0.509329	17.4994	0.587553	19.8736	0.855588	29.2147	0.209203	8.46521	0.45254	15.3804	0.719037	24.2471
0.186745	6.13119	0.0431471	1.57046	0.323879	10.856	0.510462	16.9944	0.589299	19.3237	0.856677	28.3499	0.213466	8.3239	0.454583	14.9756	0.720307	23.55
0.1922	6.12299	0.043889	1.57835	0.325442	10.7031	0.511646	16.5213	0.591091	18.8079	0.857798	27.538	0.217788	8.19469	0.456679	14.5966	0.721613	22.8953
0.197626	6.11438	0.0448995	1.58883	0.326691	10.5866	0.512881	16.0775	0.592928	18.3231	0.858952	26.7742	0.222164	8.07621	0.458826	14.2412	0.722955	22.2793
0.203022	6.10532	0.0461797	1.60169	0.327618	10.5034	0.514169	15.6605	0.594809	17.8669	0.860138	26.0545	0.226591	7.96729	0.461024	13.9072	0.724334	21.6987
0.208385	6.09579	0.0477308	1.61668	0.328215	10.4512	0.515511	15.2681	0.596735	17.4367	0.861355	25.3752	0.231065	7.8669	0.463272	13.593	0.725748	21.1508
0.213713	6.08579	0.0495541	1.63352	0.329078	10.3775	0.516907	14.8984	0.598704	17.0306	0.862605	24.7332	0.235584	7.77416	0.465568	13.2969	0.727197	20.6328
0.219004	6.07527	0.0516505	1.65189	0.330022	10.2992	0.51836	14.5495	0.600716	16.6467	0.863886	24.1254	0.240145	7.68828	0.467913	13.0175	0.728682	20.1424
0.224256	6.06423	0.0537507	1.66932	0.331316	10.1956	0.519869	14.22	0.602771	16.2832	0.865198	23.5494	0.244744	7.60859	0.470305	12.7534	0.730201	19.6776
0.229466	6.05263	0.055854	1.68586	0.332971	10.0692	0.521437	13.9084	0.604867	15.9387	0.866542	23.0026	0.24938	7.53448	0.472744	12.5037	0.731755	19.2365
0.234632	6.04045	0.0579598	1.70157	0.334997	9.92275	0.523063	13.6135	0.607005	15.6117	0.867917	22.483	0.25405	7.46542	0.475228	12.2671	0.733343	18.8174
0.239751	6.02767	0.0600676	1.7165	0.337409	9.7595	0.52475	13.3341	0.609184	15.3011	0.869323	21.9888	0.258752	7.40096	0.477757	12.0427	0.734966	18.4187
0.244821	6.01425	0.062177	1.7307	0.340224	9.58266	0.526497	13.0691	0.611403	15.0057	0.87076	21.518	0.263483	7.34066	0.480329	11.8297	0.736622	18.039
0.249839	6.00018	0.0642876	1.74421	0.343087	9.41621	0.528307	12.8175	0.613662	14.7244	0.872227	21.0692	0.268242	7.28416	0.482945	11.6274	0.738312	17.6771
0.254801	5.98544	0.0663992	1.75709	0.345999	9.25935	0.530179	12.5786	0.615961	14.4564	0.873724	20.6408	0.273026	7.23112	0.485603	11.4348	0.740035	17.3317
0.259706	5.96998	0.0685113	1.76936	0.348959	9.11139	0.532115	12.3515	0.618298	14.2007	0.875252	20.2316	0.277833	7.18125	0.487953	11.2746	0.741791	17.0018
0.264548	5.95379	0.0706239	1.78106	0.351967	8.97169	0.534115	12.1355	0.620674	13.9567	0.87681	19.8403	0.282663	7.13428	0.48998	11.1433	0.743579	16.6865
0.269327	5.93685	0.0727368	1.79223	0.355024	8.83968	0.536181	11.9299	0.623088	13.7234	0.878398	19.4658	0.287513	7.08997	0.491674	11.0381	0.7454	16.3848
0.274038	5.91912	0.0748495	1.8029	0.35813	8.71484	0.538312	11.7341	0.62554	13.5004	0.880015	19.1072	0.292382	7.04811	0.493023	10.9571	0.747253	16.0959
0.278678	5.9006	0.0769622	1.8131	0.361285	8.5967	0.54051	11.5475	0.628029	13.2869	0.881661	18.7634	0.297269	7.00849	0.494022	10.8987	0.749138	15.819
0.283245	5.88127	0.0790747	1.82286	0.364489	8.48485	0.542479	11.3919	0.630554	13.0825	0.883337	18.4335	0.302171	6.97094	0.494663	10.8618	0.751054	15.5535
0.287734	5.86111	0.0811869	1.8322	0.367744	8.37889	0.544198	11.2643	0.633116	12.8866	0.885042	18.1169	0.307087	6.93529	0.495589	10.8095	0.753001	15.2986
0.292144	5.84011	0.0832987	1.84114	0.371051	8.27849	0.545648	11.1621	0.635714	12.6986	0.886776	17.8126	0.312017	6.90141	0.4966	10.7535	0.75498	15.0539
0.296472	5.81826	0.0854099	1.84972	0.37441	8.18333	0.546812	11.0833	0.638347	12.5182	0.888539	17.5202	0.316958	6.86915	0.497982	10.6788	0.756988	14.8186
0.300715	5.79556	0.0875206	1.85794	0.377822	8.09311	0.547679	11.0265	0.641015	12.345	0.890329	17.2388	0.321911	6.8384	0.499744	10.5866	0.759028	14.5924
0.304872	5.77202	0.0896308	1.86583	0.38129	8.00758	0.548237	10.9906	0.643718	12.1785	0.892149	16.9679	0.326873	6.80904	0.501893	10.4785	0.761097	14.3747
0.308939	5.74764	0.0917403	1.87341	0.384813	7.92648	0.549047	10.9397	0.646455	12.0185	0.893996	16.707	0.331843	6.78096	0.50444	10.3561	0.763195	14.1651
0.312915	5.72243	0.0938492	1.88069	0.388394	7.84959	0.549936	10.8853	0.649226	11.8645	0.895871	16.4555	0.33682	6.75409	0.507396	10.2213	0.765324	13.9631
0.3168	5.69642	0.0959574	1.8877	0.392033	7.77671	0.551158	10.8126	0.65203	11.7162	0.897773	16.213	0.341804	6.72832	0.510388	10.0922	0.767481	13.7684
0.320592	5.66962	0.098065	1.89443	0.395732	7.70763	0.552727	10.723	0.654501	11.5915	0.899703	15.979	0.346793	6.70358	0.513415	9.96838	0.769667	13.5807
0.324291	5.64207	0.100172	1.90092	0.399492	7.64217	0.554659	10.6179	0.656627	11.4884	0.90166	15.7531	0.351786	6.67979	0.516476	9.84963	0.771881	13.3994
0.327897	5.61381	0.102278	1.90717	0.403313	7.58017	0.556973	10.499	0.658399	11.4051	0.903645	15.5349	0.356782	6.65689	0.51957	9.73566	0.774124	13.2245
0.33141	5.58486	0.104384	1.91319	0.407196	7.52144	0.559692	10.3682	0.659808	11.3407	0.905656	15.324	0.36178	6.63481	0.522697	9.6262	0.776395	13.0555
0.33483	5.55528	0.106488	1.919	0.411141	7.46584	0.562478	10.243	0.66085	11.294	0.907693	15.1201	0.36678	6.6135	0.525857	9.52102	0.778693	12.8921
0.338159	5.52511	0.108592	1.9246	0.41515	7.4132	0.565333	10.1232	0.661518	11.2644	0.909757	14.9229	0.37178	6.5929	0.529048	9.41989	0.781018	12.7342
0.341399	5.49439	0.110696	1.93002	0.419221	7.36339	0.568255	10.0086	0.662482	11.2223	0.911847	14.732	0.376779	6.57296	0.532269	9.3226	0.783371	12.5815
0.34455	5.46319	0.112799	1.93524	0.423354	7.31626	0.571244	9.89879	0.663534	11.1771	0.913963	14.5472	0.381777	6.55363	0.535521	9.22896	0.78575	12.4336
0.347615	5.43155	0.114901	1.94029	0.427549	7.27167	0.574299	9.79362	0.664971	11.1166	0.916105	14.3683	0.386773	6.53487	0.538803	9.13878	0.788156	12.2905
0.350596	5.39952	0.117003	1.94518	0.431804	7.22949	0.577421	9.69284	0.666798	11.0415	0.918272	14.1948	0.391765	6.51664	0.542115	9.0519	0.790587	12.1518
0.353495	5.36715	0.119103	1.9499	0.436119	7.18958	0.580607	9.59625	0.669025	10.9528	0.920465	14.0267	0.396754	6.4989	0.545454	8.96815	0.793045	12.0175
0.356315	5.33451	0.121204	1.95448	0.440491	7.15181	0.583858	9.50363	0.671658	10.8517	0.922682	13.8637	0.401737	6.48161	0.548822	8.88738	0.795207	11.9038
0.359058	5.30163	0.123303	1.9589	0.44492	7.11607	0.587172	9.4148	0.674709	10.7393	0.924925	13.7055	0.406715	6.46474	0.552218	8.80946	0.797066	11.8093
0.361728	5.26858	0.125403	1.96319	0.449402	7.08223	0.59055	9.32958	0.677791	10.6307	0.927192	13.552	0.411686	6.44826	0.555641	8.73425	0.798614	11.7327
0.364327	5.23538	0.127501	1.96735	0.453937	7.05018	0.593989	9.24779	0.680903	10.5257	0.929484	13.403	0.416649	6.43213	0.559091	8.66162	0.799844	11.6732
0.366858	5.20211	0.129599	1.97138	0.458521	7.0198	0.597488	9.16927	0.684046	10.4242	0.931799	13.2582	0.421604	6.41634	0.562567	8.59147	0.800752	11.63
0.369324	5.16878	0.131697	1.9753	0.463153	6.99098	0.601048	9.09387	0.687218	10.3259	0.934139	13.1176	0.42655	6.40085	0.56607	8.52367	0.801335	11.6026
0.371727	5.13545	0.133794	1.97909	0.467829	6.96364	0.604666	9.02144	0.69042	10.2308	0.936503	12.981	0.431486	6.38564	0.569598	8.45813	0.802175	11.5635
0.374071	5.10216	0.13589	1.98278	0.472548	6.93766	0.608342	8.95185	0.693652	10.1387	0.93889	12.8481	0.436411	6.37068	0.573151	8.39475	0.803092	11.5214
0.376067	5.0732	0.137986	1.98636	0.477306	6.91296	0.612073	8.88495	0.696913	10.0495	0.9413	12.719	0.441324	6.35596	0.576729	8.33344	0.804343	11.4649
0.377735	5.04857	0.140082	1.98984	0.482101	6.88945	0.61586	8.82062	0.700203	9.96312	0.943734	12.5933	0.446225	6.34145	0.580331	8.27411	0.805934	11.3947
0.379093	5.02826	0.142177	1.99322	0.486931	6.86704	0.619701	8.75875	0.703522	9.87938	0.94619	12.471	0.451112	6.32713	0.583958	8.21667	0.80787	11.3113
0.380153	5.01223	0.144272	1.99651	0.491793	6.84566	0.623593	8.69921	0.70687	9.7982	0.94867	12.352	0.455985	6.31298	0.58761	8.16106	0.810157	11.2159
0.380925	5.00047	0.146366	1.9997	0.496685	6.82523	0.627537	8.64191	0.710247	9.71948	0.950848	12.2509	0.460843	6.29899	0.591284	8.10719	0.812805	11.1092
0.381416	4.99295	0.14846	2.00282	0.501604	6.80569	0.631531	8.58673	0.713652	9.64313	0.952719	12.1665	0.465685	6.28513	0.594983	8.055	0.815476	11.0056
0.382117	4.98216	0.150553	2.00585	0.506548	6.78697	0.635573	8.53359	0.717086	9.56906	0.954276	12.098	0.47051	6.27139	0.598705	8.00442	0.81817	10.9048
0.382873	4.97046	0.152646	2.0088	0.511514	6.76902	0.639662	8.48237	0.720548	9.49719	0.955512	12.0445	0.475317	6.25775	0.60245	7.9554	0.820887	10.8069
0.383891	4.95458	0.154739	2.01167	0.516501	6.75177	0.643796	8.43301	0.724039	9.42742	0.956424	12.0057	0.480106	6.24421	0.606218	7.90786	0.823627	10.7115
0.385165	4.93456	0.156831	2.01447	0.521507	6.73517	0.647974	8.38541	0.727558	9.3597	0.95701	11.981	0.484875	6.23074	0.610008	7.86176	0.82639	10.6188
0.386682	4.91045	0.158923	2.0172	0.526529	6.71918	0.652195	8.33948	0.731105	9.29393	0.957853	11.9458	0.489625	6.21733	0.613822	7.81704	0.829175	10.5285
0.388432	4.88234	0.161015	2.01986	0.531566	6.70376	0.656458	8.29516	0.73468	9.23007	0.958773	11.9078	0.494353	6.20397	0.617658	7.77366	0.831982	10.4407
0.390402	4.85031	0.163106	2.02246	0.536616	6.68885	0.66076	8.25237	0.738284	9.16803	0.960028	11.8568	0.499059	6.19064	0.621516	7.73156	0.83481	10.3551
0.392334	4.81853	0.165197	2.02499	0.541677	6.67442	0.665101	8.21103	0.741916	9.10775	0.961623	11.7931	0.503742	6.17734	0.625397	7.6907	0.83766	10.2717
0.39423	4.78704	0.167288	2.02746	0.546748	6.66044	0.669478	8.17109	0.745576	9.04919	0.963562	11.7174	0.508402	6.16406	0.6293	7.65104	0.840532	10.1905
0.396091	4.75583	0.169378	2.02988	0.551827	6.64687	0.673891	8.13247	0.749265	8.99228	0.965851	11.6305	0.513037	6.15078	0.633225	7.61253	0.843425	10.1114
0.397919	4.72492	0.171468	2.03223	0.556913	6.63369	0.678338	8.09512	0.752983	8.93697	0.968499	11.5329	0.517647	6.13749	0.637173	7.57514	0.846338	10.0342
0.399716	4.69433	0.173558	2.03453	0.562004	6.62085	0.682817	8.05897	0.75673	8.8832	0.971167	11.4378	0.52223	6.12418	0.641142	7.53882	0.849273	9.95901
0.401484	4.66406	0.175647	2.03678	0.567099	6.60834	0.687328	8.02397	0.760505	8.83093	0.973856	11.345	0.526787	6.11085	0.645133	7.50355	0.852228	9.88566
0.403224	4.63412	0.177736	2.03898	0.572197	6.59613	0.691868	7.99007	0.764309	8.78012	0.976565	11.2544	0.531316	6.09749	0.649147	7.46929	0.855203	9.8141
0.404938	4.60451	0.179825	2.04113	0.577296	6.5842	0.696437	7.95722	0.768143	8.73071	0.979295	11.166	0.535816	6.08408	0.653182	7.436	0.858198	9.74429
0.406628	4.57525	0.181914	2.04323	0.582396	6.57253	0.701032	7.92535	0.772006	8.68268	0.982045	11.0796	0.540287	6.07063	0.657239	7.40366	0.861213	9.67616
0.408294	4.54634	0.184003	2.04529	0.587496	6.56109	0.705653	7.89444	0.775899	8.63597	0.984815	10.9953	0.544728	6.05712	0.661317	7.37223	0.864248	9.60967
0.409938	4.51777	0.186091	2.04729	0.592594	6.54988	0.710298	7.86443	0.779823	8.59055	0.987604	10.9129	0.549139	6.04355	0.665418	7.34169	0.867303	9.54475
0.411561	4.48956	0.188179	2.04926	0.59769	6.53886	0.714965	7.83528	0.783776	8.54639	0.990413	10.8324	0.553517	6.02991	0.66954	7.312	0.870377	9.48137
0.413164	4.46171	0.190267	2.05119	0.602782	6.52803	0.719653	7.80694	0.787761	8.50345	0.993242	10.7538	0.557864	6.0162	0.673683	7.28314	0.87347	9.41946
0.414749	4.43421	0.192354	2.05307	0.60787	6.51737	0.724361	7.77939	0.791776	8.46169	0.996089	10.6769	0.562178	6.00241	0.677848	7.25509	0.876582	9.35899
0.416316	4.40706	0.194442	2.05492	0.612953	6.50687	0.729087	7.75257	0.795823	8.42109	0.998956	10.6018	0.566458	5.98853	0.682034	7.22782	0.879713	9.29991
0.417867	4.38028	0.196529	2.05672	0.61803	6.49651	0.73383	7.72646	0.799902	8.38162	1.00184	10.5283	0.570704	5.97458	0.686241	7.20131	0.882863	9.24217
0.419403	4.35385	0.198616	2.05849	0.623101	6.48629	0.738588	7.70101	0.804013	8.34324			0.574916	5.96053	0.69047	7.17552	0.886031	9.18575
0.420923	4.32778	0.200703	2.06023	0.628164	6.47619	0.74336	7.6762	0.808157	8.30594			0.579092	5.94639	0.694719	7.15045	0.889218	9.13059
0.422431	4.30207	0.202789	2.06193	0.633219	6.46619	0.748145	7.65199	0.812334	8.26968			0.583233	5.93216	0.698989	7.12606	0.892423	9.07667
0.423925	4.27671	0.204876	2.06359	0.638266	6.4563	0.752941	7.62834	0.816544	8.23445			0.587338	5.91783	0.70328	7.10234	0.895646	9.02394
0.425407	4.2517	0.206962	2.06522	0.643303	6.4465	0.757747	7.60525	0.820789	8.20021			0.591407	5.9034	0.70759	7.07927	0.898887	8.97237
0.426878	4.22704	0.209048	2.06683	0.648331	6.43679	0.762561	7.58266	0.825068	8.16694			0.595438	5.88888	0.711921	7.05682	0.902146	8.92192
0.428338	4.20272	0.211134	2.0684	0.653348	6.42715	0.767382	7.56056	0.829382	8.13462			0.599432	5.87425	0.716272	7.03497	0.905422	8.87257
0.429789	4.17875	0.21322	2.06994	0.658354	6.41757	0.77221	7.53891	0.833732	8.10323			0.603389	5.85953	0.720642	7.01371	0.908717	8.82429
0.43123	4.15512	0.215306	2.07145	0.663348	6.40806	0.777042	7.51771	0.838118	8.07276			0.607308	5.84471	0.725031	6.99302	0.912028	8.77704
0.432662	4.13183	0.217391	2.07293	0.66833	6.3986	0.781877	7.49691	0.842539	8.04317			0.611189	5.82978	0.72944	6.97288	0.915357	8.73079
0.434086	4.10887	0.219477	2.07439	0.6733	6.38918	0.786715	7.4765	0.846998	8.01445			0.615032	5.81476	0.733866	6.95327	0.918703	8.68552
0.435503	4.08625	0.221562	2.07582	0.678257	6.37981	0.791553	7.45647	0.851494	7.98658			0.618837	5.79965	0.738311	6.93417	0.922066	8.6412
0.436912	4.06395	0.223647	2.07722	0.683199	6.37048	0.796392	7.43678	0.856027	7.95954			0.622603	5.78444	0.742773	6.91556	0.925446	8.59781
0.438315	4.04197	0.225732	2.0786	0.688128	6.36117	0.80123	7.41742	0.860598	7.93331			0.626331	5.76913	0.747253	6.89744	0.928843	8.55531
0.439712	4.02031	0.227817	2.07995	0.693042	6.35189	0.806065	7.39837	0.865206	7.90788			0.63002	5.75374	0.751749	6.87978	0.932257	8.51369
0.441104	3.99897	0.229901	2.08128	0.697942	6.34264	0.810898	7.37962	0.869853	7.88322			0.633671	5.73825	0.756262	6.86256	0.935687	8.47292
0.44249	3.97793	0.231986	2.08259	0.702825	6.33339	0.815727	7.36116	0.874539	7.85932			0.637283	5.72268	0.760791	6.84578	0.939133	8.43299
0.443872	3.95721	0.23407	2.08387	0.707693	6.32416	0.820552	7.34296	0.879263	7.83616			0.640857	5.70703	0.765335	6.82941	0.942596	8.39386
0.445249	3.93679	0.236155	2.08513	0.712545	6.31494	0.825371	7.32501	0.884025	7.81372			0.644393	5.6913	0.769893	6.81344	0.946076	8.35552
0.446622	3.91666	0.238239	2.08637	0.71738	6.30572	0.830185	7.30731	0.888825	7.79199			0.647891	5.67549	0.774466	6.79786	0.949571	8.31794
0.447991	3.89683	0.240323	2.08759	0.722198	6.29651	0.834992	7.28984	0.893664	7.77094			0.651351	5.6596	0.779053	6.78266	0.953083	8.28112
0.449358	3.87729	0.242407	2.08878	0.726998	6.28729	0.839793	7.2726	0.898541	7.75055			0.654773	5.64365	0.783653	6.7678	0.95661	8.24502
0.450721	3.85804	0.244491	2.08996	0.731781	6.27807	0.844586	7.25557	0.903456	7.73082			0.658158	5.62763	0.788265	6.7533	0.960153	8.20964
0.452081	3.83907	0.246575	2.09112	0.736546	6.26883	0.849373	7.23875	0.908409	7.71172			0.661506	5.61155	0.79289	6.73912	0.963713	8.17494
0.453439	3.82038	0.248658	2.09226	0.741291	6.25959	0.854152	7.22213	0.913398	7.69322			0.664816	5.59541	0.797525	6.72527	0.967287	8.14093
0.454796	3.80196	0.250742	2.09338	0.746018	6.25033	0.858923	7.20571	0.918424	7.67533			0.66809	5.57922	0.802172	6.71172	0.970878	8.10757
0.45615	3.78381	0.252826	2.09448	0.750726	6.24106	0.863686	7.18948	0.923487	7.65801			0.671328	5.56297	0.806828	6.69846	0.974483	8.07486
0.457502	3.76592	0.254909	2.09557	0.755414	6.23176	0.868442	7.17343	0.928585	7.64125			0.67453	5.54668	0.811495	6.68549	0.978104	8.04277
0.458854	3.7483	0.256992	2.09664	0.760083	6.22245	0.873191	7.15757	0.933718	7.62502			0.677696	5.53035	0.81617	6.67279	0.981741	8.01129
0.460204	3.73093	0.259075	2.09769	0.764731	6.21311	0.877932	7.14189	0.938885	7.60933			0.680827	5.51397	0.820853	6.66034	0.985392	7.98042
0.461553	3.71382	0.261159	2.09872	0.769358	6.20375	0.882666	7.12639	0.944086	7.59413			0.683923	5.49756	0.825544	6.64815	0.989059	7.95012
0.462902	3.69696	0.263242	2.09974	0.773965	6.19436	0.887393	7.11106	0.94932	7.57943			0.686984	5.48112	0.830242	6.63619	0.992741	7.9204
0.46425	3.68034	0.265325	2.10074	0.778551	6.18494	0.892113	7.09591	0.954585	7.56519			0.690011	5.46465	0.834947	6.62446	0.996437	7.89123
0.465597	3.66396	0.267407	2.10173	0.783115	6.17549	0.896828	7.08093	0.959882	7.55141			0.693005	5.44816	0.839657	6.61295	1.00015	7.86261
0.466945	3.64782	0.26949	2.1027	0.787657	6.16601	0.901536	7.06613	0.965209	7.53807			0.695966	5.43165	0.844373	6.60165		
0.468292	3.63191	0.271573	2.10366	0.792178	6.15649	0.906239	7.05149	0.970565	7.52515			0.698893	5.41512	0.849094	6.59055		
0.46964	3.61623	0.273656	2.1046	0.796677	6.14695	0.910937	7.03703	0.97595	7.51263			0.701788	5.39859	0.853818	6.57964		
0.470988	3.60078	0.275738	2.10553	0.801153	6.13736	0.91563	7.02274	0.981363	7.5005			0.704652	5.38204	0.858546	6.56891		
0.472337	3.58555	0.277821	2.10645	0.805606	6.12774	0.920319	7.00862	0.986802	7.48875			0.707483	5.36548	0.863277	6.55835		
0.473686	3.57054	0.279903	2.10735	0.810037	6.11809	0.925004	6.99467	0.992267	7.47735			0.710284	5.34893	0.86801	6.54796		
0.475036	3.55575	0.281985	2.10824	0.814445	6.10839	0.929685	6.98089	0.997758	7.4663			0.713054	5.33238	0.872744	6.53773		
0.476387	3.54116	0.284068	2.10912	0.818829	6.09866	0.934364	6.96728	1.00327	7.45559			0.715794	5.31583	0.87748	6.52765		
0.477739	3.52679	0.28615	2.10998	0.82319	6.08889	0.93904	6.95384					0.718505	5.29929	0.882216	6.51771		
0.479092	3.51262	0.288232	2.11083	0.827527	6.07907	0.943714	6.94056					0.721186	5.28277	0.886953	6.5079		
0.480447	3.49865	0.290314	2.11167	0.831841	6.06922	0.948386	6.92745					0.723838	5.26625	0.891689	6.49823		
0.481802	3.48487	0.292396	2.1125	0.83613	6.05933	0.953057	6.91451					0.726462	5.24976	0.896423	6.48868		
0.483159	3.4713	0.294478	2.11332	0.840396	6.0494	0.957726	6.90174					0.729059	5.23329	0.901157	6.47924		
0.484518	3.45791	0.29656	2.11412	0.844637	6.03942	0.962395	6.88913					0.731628	5.21684	0.905888	6.46991		
0.485878	3.44471	0.298642	2.11491	0.848854	6.02941	0.967063	6.87668					0.73417	5.20042	0.910616	6.46069		
0.48724	3.4317	0.300724	2.1157	0.853046	6.01935	0.971731	6.86439					0.736685	5.18402	0.915341	6.45157		
0.488604	3.41887	0.302805	2.11647	0.857214	6.00925	0.976398	6.85227					0.739175	5.16766	0.920063	6.44254		
0.489969	3.40622	0.304887	2.11723	0.861357	5.99912	0.981066	6.8403					0.741639	5.15134	0.92478	6.4336		
0.491337	3.39374	0.306969	2.11798	0.865476	5.98894	0.985735	6.82849					0.744078	5.13505	0.929493	6.42475		
0.492706	3.38144	0.30905	2.11873	0.86957	5.97872	0.990404	6.81684					0.746493	5.1188	0.934201	6.41597		
0.494078	3.36931	0.311132	2.11946	0.873639	5.96846	0.995074	6.80534					0.748883	5.10259	0.938903	6.40726		
0.495451	3.35735	0.313213	2.12018	0.877683	5.95817	0.999744	6.79399					0.75125	5.08642	0.943599	6.39863		
0.496827	3.34555	0.315294	2.12089	0.881702	5.94783	1.00442	6.7828					0.753593	5.07031	0.948288	6.39006		
0.498205	3.33391	0.317376	2.1216	0.885696	5.93746							0.755914	5.05424	0.952971	6.38155		
0.499585	3.32243	0.319457	2.12229	0.889666	5.92705							0.758212	5.03822	0.957647	6.37309		
0.500968	3.31111	0.321538	2.12298	0.89361	5.9166							0.760488	5.02225	0.962314	6.36469		
0.502353	3.29994	0.32362	2.12366	0.89753	5.90612							0.762743	5.00634	0.966974	6.35634		
0.50374	3.28893	0.325701	2.12433	0.901424	5.8956							0.764976	4.99048	0.971625	6.34804		
0.50513	3.27806	0.327782	2.12499	0.905294	5.88505							0.767189	4.97468	0.976266	6.33977		
0.506523	3.26734	0.329863	2.12564	0.909138	5.87447							0.769382	4.95893	0.980899	6.33155		
0.507918	3.25677	0.331944	2.12628	0.912958	5.86385							0.771554	4.94325	0.985522	6.32336		
0.509315	3.24634	0.334025	2.12692	0.916754	5.8532							0.773708	4.92763	0.990135	6.3152		
0.510715	3.23604	0.336106	2.12755	0.920524	5.84251							0.775842	4.91208	0.994737	6.30708		
0.512118	3.22589	0.338187	2.12817	0.92427	5.8318							0.777957	4.89659	0.999328	6.29898		
0.513523	3.21587	0.340268	2.12878	0.927991	5.82106							0.780054	4.88116	1.00391	6.2909		
0.514932	3.20598	0.342348	2.12939	0.931687	5.81029							0.782133	4.8658				
0.516342	3.19622	0.344429	2.12999	0.935359	5.79949							0.784195	4.85052				
0.517756	3.18659	0.34651	2.13058	0.939007	5.78867							0.786239	4.8353				
0.519172	3.17709	0.348591	2.13116	0.94263	5.77782							0.788267	4.82015				
0.520591	3.16772	0.350671	2.13174	0.946229	5.76695							0.790278	4.80507				
0.522013	3.15846	0.352752	2.13231	0.949805	5.75605							0.792274	4.79007				
0.523438	3.14933	0.354832	2.13288	0.953356	5.74513							0.794253	4.77514				
0.524865	3.14031	0.356913	2.13344	0.956883	5.7342							0.796217	4.76028				
0.526295	3.13141	0.358994	2.13399	0.960386	5.72324							0.798166	4.7455				
0.527728	3.12263	0.361074	2.13453	0.963866	5.71226							0.800101	4.73079				
0.529164	3.11396	0.363154	2.13507	0.967322	5.70126							0.802021	4.71617				
0.530603	3.1054	0.365235	2.1356	0.970755	5.69025							0.803926	4.70161				
0.532045	3.09695	0.367315	2.13613	0.974165	5.67922							0.805819	4.68714				
0.533489	3.08861	0.369396	2.13665	0.977551	5.66817							0.807697	4.67275				
0.534937	3.08037	0.371476	2.13717	0.980915	5.65711							0.809563	4.65843				
0.536387	3.07224	0.373556	2.13768	0.984255	5.64604							0.811416	4.64419				
0.537841	3.06422	0.375636	2.13818	0.987573	5.63496							0.813256	4.63004				
0.539297	3.05629	0.377717	2.13868	0.990868	5.62386							0.815084	4.61596				
0.540756	3.04846	0.379797	2.13917	0.994141	5.61275							0.816901	4.60196				
0.542218	3.04073	0.381877	2.13966	0.997391	5.60164							0.818705	4.58805				
0.543683	3.0331	0.383957	2.14015	1.00062	5.59052							0.820499	4.57422				
0.545151	3.02556	0.386037	2.14062									0.822281	4.56046				
0.546621	3.01812	0.388117	2.1411									0.824052	4.54679				
0.548095	3.01077	0.390197	2.14156									0.825813	4.5332				
0.549572	3.00351	0.392277	2.14203									0.827563	4.5197				
0.551051	2.99633	0.394357	2.14248									0.829304	4.50627				
0.552533	2.98925	0.396437	2.14294									0.831034	4.49293				
0.554019	2.98225	0.398517	2.14339									0.832755	4.47967				
0.555507	2.97534	0.400597	2.14383									0.834467	4.46649				
0.556998	2.96852	0.402677	2.14427									0.836169	4.4534				
0.558492	2.96177	0.404757	2.1447									0.837863	4.44038				
0.559989	2.95511	0.406837	2.14513									0.839548	4.42745				
0.561488	2.94853	0.408916	2.14556									0.841225	4.4146				
0.562991	2.94202	0.410996	2.14598									0.842894	4.40184				
0.564496	2.9356	0.413076	2.1464									0.844554	4.38915				
0.566005	2.92925	0.415156	2.14681									0.846207	4.37655				
0.567516	2.92297	0.417235	2.14722									0.847852	4.36403				
0.56903	2.91678	0.419315	2.14763									0.84949	4.35159				
0.570547	2.91065	0.421395	2.14803									0.85112	4.33924				
0.572066	2.9046	0.423474	2.14842									0.852744	4.32696				
0.573589	2.89861	0.425554	2.14882									0.854361	4.31476				
0.575114	2.8927	0.427634	2.14921									0.855971	4.30265				
0.576642	2.88686	0.429713	2.14959									0.857574	4.29062				
0.578173	2.88109	0.431793	2.14998									0.859172	4.27867				
0.579707	2.87538	0.433872	2.15036									0.860763	4.26679				
0.581243	2.86974	0.435952	2.15073									0.862348	4.255				
0.582783	2.86416	0.438031	2.1511									0.863928	4.24329				
0.584325	2.85865	0.440111	2.15147									0.865502	4.23165				
0.585869	2.8532	0.44219	2.15183									0.867071	4.2201				
0.587417	2.84782	0.44427	2.1522									0.868634	4.20862				
0.588967	2.84249	0.446349	2.15255									0.870192	4.19723				
0.59052	2.83723	0.448428	2.15291									0.871745	4.18591				
0.592075	2.83203	0.450508	2.15326									0.873293	4.17466				
0.593634	2.82688	0.452587	2.15361									0.874837	4.1635				
0.595195	2.8218	0.454666	2.15395									0.876376	4.15241				
0.596758	2.81677	0.456746	2.15429									0.87791	4.1414				
0.598325	2.8118	0.458825	2.15463									0.879441	4.13046				
0.599893	2.80688	0.460904	2.15497									0.880967	4.1196				
0.601465	2.80202	0.462983	2.1553									0.882489	4.10882				
0.603039	2.79721	0.465063	2.15563									0.884007	4.09811				
0.604616	2.79245	0.467142	2.15596									0.885521	4.08748				
0.606195	2.78775	0.469221	2.15628									0.887032	4.07692				
0.607777	2.7831	0.4713	2.1566									0.888539	4.06643				
0.609362	2.7785	0.473379	2.15692									0.890042	4.05601				
0.610949	2.77396	0.475459	2.15724									0.891542	4.04567				
0.612538	2.76946	0.477538	2.15755									0.893039	4.03541				
0.61413	2.76501	0.479617	2.15786									0.894533	4.02521				
0.615725	2.76061	0.481696	2.15817									0.896024	4.01509				
0.617322	2.75626	0.483775	2.15847									0.897512	4.00503				
0.618922	2.75195	0.485854	2.15878									0.898997	3.99505				
0.620524	2.74769	0.487933	2.15908									0.900479	3.98514				
0.622128	2.74348	0.490012	2.15937									0.901959	3.97529				
0.623735	2.73931	0.492091	2.15967									0.903436	3.96552				
0.625345	2.73519	0.49417	2.15996									0.904911	3.95582				
0.626957	2.73111	0.496249	2.16025									0.906383	3.94618				
0.628571	2.72707	0.498328	2.16054									0.907853	3.93661				
0.630188	2.72308	0.500407	2.16082									0.909321	3.92711				
0.631807	2.71913	0.502486	2.1611									0.910787	3.91768				
0.633428	2.71522	0.504565	2.16138									0.912251	3.90831				
0.635052	2.71135	0.506644	2.16166									0.913712	3.89901				
0.636678	2.70752	0.508723	2.16194									0.915172	3.88978				
0.638306	2.70373	0.510802	2.16221									0.916631	3.88061				
0.639937	2.69999	0.512881	2.16248									0.918087	3.8715				
0.64157	2.69628	0.514959	2.16275									0.919542	3.86246				
0.643206	2.69261	0.517038	2.16302									0.920995	3.85348				
0.644843	2.68898	0.519117	2.16328									0.922447	3.84457				
0.646483	2.68538	0.521196	2.16355									0.923897	3.83572				
0.648126	2.68182	0.523275	2.16381									0.925346	3.82693				
0.64977	2.6783	0.525353	2.16407									0.926793	3.81821				
0.651417	2.67482	0.527432	2.16432									0.92824	3.80954				
0.653066	2.67137	0.529511	2.16458									0.929685	3.80094				
0.654717	2.66795	0.53159	2.16483									0.931129	3.7924				
0.65637	2.66457	0.533668	2.16508									0.932572	3.78392				
0.658025	2.66123	0.535747	2.16533									0.934014	3.7755				
0.659683	2.65792	0.537826	2.16558									0.935455	3.76713				
0.661343	2.65464	0.539905	2.16582									0.936895	3.75883				
0.663005	2.6514	0.541983	2.16606									0.938335	3.75059				
0.664669	2.64818	0.544062	2.1663									0.939773	3.7424				
0.666335	2.645	0.546141	2.16654									0.941211	3.73427				
0.668003	2.64185	0.548219	2.16678									0.942648	3.7262				
0.669673	2.63874	0.550298	2.16702									0.944085	3.71818				
0.671346	2.63565	0.552377	2.16725									0.945521	3.71022				
0.67302	2.6326	0.554455	2.16748									0.946956	3.70232				
0.674697	2.62957	0.556534	2.16771									0.948391	3.69447				
0.676375	2.62658	0.558612	2.16794									0.949825	3.68668				
0.678056	2.62361	0.560691	2.16817									0.951259	3.67894				
0.679738	2.62067	0.562769	2.16839									0.952693	3.67126				
0.681423	2.61776	0.564848	2.16862									0.954126	3.66363				
0.68311	2.61488	0.566927	2.16884									0.955559	3.65605				
0.684798	2.61203	0.569005	2.16906									0.956992	3.64853				
0.686489	2.60921	0.571084	2.16928									0.958425	3.64106				
0.688181	2.60641	0.573162	2.1695									0.959858	3.63364				
0.689876	2.60364	0.575241	2.16971									0.96129	3.62627				
0.691572	2.6009	0.577319	2.16993									0.962722	3.61895				
0.69327	2.59818	0.579398	2.17014									0.964154	3.61169				
0.694971	2.59549	0.581476	2.17035									0.965587	3.60447				
0.696673	2.59282	0.583554	2.17056									0.967019	3.59731				
0.698377	2.59018	0.585633	2.17077									0.968451	3.59019				
0.700082	2.58757	0.587711	2.17097									0.969884	3.58313				
0.70179	2.58498	0.58979	2.17118									0.971316	3.57611				
0.7035	2.58241	0.591868	2.17138									0.972749	3.56914				
0.705211	2.57987	0.593947	2.17159									0.974182	3.56222				
0.706924	2.57736	0.596025	2.17179									0.975615	3.55535				
0.708639	2.57486	0.598103	2.17199									0.977048	3.54853				
0.710356	2.57239	0.600182	2.17218									0.978482	3.54175				
0.712075	2.56994	0.60226	2.17238									0.979916	3.53502				
0.713795	2.56752	0.604338	2.17258									0.98135	3.52833				
0.715517	2.56512	0.606417	2.17277									0.982785	3.52169				
0.717241	2.56274	0.608495	2.17296									0.98422	3.5151				
0.718967	2.56038	0.610573	2.17316									0.985655	3.50855				
0.720694	2.55804	0.612652	2.17335									0.987091	3.50205				
0.722423	2.55573	0.61473	2.17353									0.988527	3.49559				
0.724154	2.55344	0.616808	2.17372									0.989964	3.48917				
0.725887	2.55116	0.618887	2.17391									0.991401	3.4828				
0.727621	2.54891	0.620965	2.17409									0.992839	3.47647				
0.729357	2.54668	0.623043	2.17428									0.994277	3.47019				
0.731094	2.54447	0.625121	2.17446									0.995716	3.46395				
0.732834	2.54228	0.6272	2.17464									0.997155	3.45775				
0.734574	2.54011	0.629278	2.17482									0.998595	3.45159				
0.736317	2.53796	0.631356	2.175									1.00004	3.44547				
0.738061	2.53583	0.633434	2.17518														
0.739807	2.53372	0.635513	2.17535														
0.741554	2.53162	0.637591	2.17553														
0.743303	2.52955	0.639669	2.1757														
0.745054	2.52749	0.641747	2.17588														
0.746806	2.52545	0.643825	2.17605														
0.74856	2.52343	0.645903	2.17622														
0.750315	2.52143	0.647982	2.17639														
0.752072	2.51945	0.65006	2.17656														
0.75383	2.51748	0.652138	2.17673														
0.75559	2.51553	0.654216	2.17689														
0.757352	2.5136	0.656294	2.17706														
0.759115	2.51168	0.658372	2.17722														
0.760879	2.50978	0.66045	2.17739														
0.762645	2.5079	0.662529	2.17755														
0.764412	2.50603	0.664607	2.17771														
0.766181	2.50418	0.666685	2.17787														
0.767952	2.50235	0.668763	2.17803														
0.769724	2.50053	0.670841	2.17819														
0.771497	2.49873	0.672919	2.17835														
0.773272	2.49694	0.674997	2.1785														
0.775048	2.49517	0.677075	2.17866														
0.776825	2.49342	0.679153	2.17881														
0.778604	2.49167	0.681231	2.17897														
0.780385	2.48995	0.683309	2.17912														
0.782166	2.48824	0.685387	2.17927														
0.78395	2.48654	0.687465	2.17942														
0.785734	2.48486	0.689543	2.17957														
0.78752	2.48319	0.691621	2.17972														
0.789307	2.48153	0.693699	2.17987														
0.791096	2.47989	0.695777	2.18002														
0.792886	2.47827	0.697855	2.18016														
0.794677	2.47665	0.699933	2.18031														
0.79647	2.47505	0.702011	2.18045														
0.798264	2.47347	0.704089	2.1806														
0.800059	2.47189	0.706167	2.18074														
0.801855	2.47033	0.708245	2.18088														
0.803653	2.46878	0.710323	2.18102														
0.805452	2.46725	0.7124	2.18116														
0.807253	2.46573	0.714478	2.1813														
0.809055	2.46422	0.716556	2.18144														
0.810857	2.46272	0.718634	2.18158														
0.812662	2.46124	0.720712	2.18172														
0.814467	2.45976	0.72279	2.18185														
0.816274	2.4583	0.724868	2.18199														
0.818082	2.45685	0.726946	2.18212														
0.819891	2.45542	0.729024	2.18226														
0.821701	2.45399	0.731101	2.18239														
0.823513	2.45258	0.733179	2.18252														
0.825325	2.45117	0.735257	2.18266														
0.827139	2.44978	0.737335	2.18279														
0.828955	2.4484	0.739413	2.18292														
0.830771	2.44703	0.741491	2.18305														
0.832588	2.44567	0.743568	2.18318														
0.834407	2.44433	0.745646	2.1833														
0.836227	2.44299	0.747724	2.18343														
0.838048	2.44166	0.749802	2.18356														
0.83987	2.44035	0.751879	2.18368														
0.841693	2.43904	0.753957	2.18381														
0.843517	2.43775	0.756035	2.18393														
0.845343	2.43646	0.758113	2.18406														
0.84717	2.43519	0.760191	2.18418														
0.848997	2.43392	0.762268	2.1843														
0.850826	2.43267	0.764346	2.18442														
0.852656	2.43142	0.766424	2.18455														
0.854487	2.43019	0.768501	2.18467														
0.856319	2.42896	0.770579	2.18479														
0.858152	2.42775	0.772657	2.18491														
0.859987	2.42654	0.774735	2.18502														
0.861822	2.42534	0.776812	2.18514														
0.863658	2.42415	0.77889	2.18526														
0.865496	2.42298	0.780968	2.18538														
0.867334	2.42181	0.783045	2.18549														
0.869173	2.42064	0.785123	2.18561														
0.871014	2.41949	0.787201	2.18572														
0.872856	2.41835	0.789278	2.18584														
0.874698	2.41721	0.791356	2.18595														
0.876542	2.41609	0.793434	2.18606														
0.878386	2.41497	0.795511	2.18618														
0.880232	2.41386	0.797589	2.18629														
0.882078	2.41276	0.799667	2.1864														
0.883926	2.41167	0.801744	2.18651														
0.885775	2.41058	0.803822	2.18662														
0.887624	2.40951	0.805899	2.18673														
0.889475	2.40844	0.807977	2.18684														
0.891326	2.40738	0.810055	2.18695														
0.893179	2.40633	0.812132	2.18705														
0.895032	2.40528	0.81421	2.18716														
0.896886	2.40425	0.816287	2.18727														
0.898742	2.40322	0.818365	2.18737														
0.900598	2.4022	0.820443	2.18748														
0.902455	2.40118	0.82252	2.18758														
0.904313	2.40018	0.824598	2.18769														
0.906172	2.39918	0.826675	2.18779														
0.908032	2.39819	0.828753	2.1879														
0.909893	2.3972	0.83083	2.188														
0.911755	2.39623	0.832908	2.1881														
0.913617	2.39526	0.834985	2.1882														
0.915481	2.39429	0.837063	2.18831														
0.917345	2.39334	0.83914	2.18841														
0.91921	2.39239	0.841218	2.18851														
0.921077	2.39145	0.843295	2.18861														
0.922944	2.39051	0.845373	2.18871														
0.924812	2.38958	0.84745	2.1888														
0.92668	2.38866	0.849528	2.1889														
0.92855	2.38775	0.851605	2.189														
0.93042	2.38684	0.853683	2.1891														
0.932292	2.38594	0.85576	2.1892														
0.934164	2.38504	0.857838	2.18929														
0.936037	2.38415	0.859915	2.18939														
0.937911	2.38327	0.861993	2.18948														
0.939786	2.38239	0.86407	2.18958														
0.941661	2.38152	0.866148	2.18967														
0.943538	2.38066	0.868225	2.18977														
0.945415	2.3798	0.870302	2.18986														
0.947293	2.37895	0.87238	2.18995														
0.949171	2.3781	0.874457	2.19005														
0.951051	2.37726	0.876535	2.19014														
0.952931	2.37643	0.878612	2.19023														
0.954813	2.3756	0.88069	2.19032														
0.956695	2.37478	0.882767	2.19041														
0.958577	2.37396	0.884844	2.1905														
0.960461	2.37315	0.886922	2.19059														
0.962345	2.37234	0.888999	2.19068														
0.96423	2.37154	0.891076	2.19077														
0.966116	2.37075	0.893154	2.19086														
0.968003	2.36996	0.895231	2.19095														
0.96989	2.36918	0.897309	2.19104														
0.971778	2.3684	0.899386	2.19113														
0.973667	2.36763	0.901463	2.19121														
0.975557	2.36686	0.903541	2.1913														
0.977447	2.3661	0.905618	2.19139														
0.979338	2.36534	0.907695	2.19147														
0.98123	2.36459	0.909773	2.19156														
0.983122	2.36384	0.91185	2.19164														
0.985016	2.3631	0.913927	2.19173														
0.98691	2.36236	0.916005	2.19181														
0.988804	2.36163	0.918082	2.1919														
0.9907	2.3609	0.920159	2.19198														
0.992596	2.36018	0.922236	2.19206														
0.994493	2.35947	0.924314	2.19215														
0.99639	2.35875	0.926391	2.19223														
0.998288	2.35805	0.928468	2.19231														
1.00019	2.35734	0.930546	2.19239														
		0.932623	2.19247														
		0.9347	2.19256														
		0.936777	2.19264														
		0.938855	2.19272														
		0.940932	2.1928														
		0.943009	2.19288														
		0.945086	2.19296														
		0.947164	2.19303														
		0.949241	2.19311														
		0.951318	2.19319														
		0.953395	2.19327														
		0.955473	2.19335														
		0.95755	2.19342														
		0.959627	2.1935														
		0.961704	2.19358														
		0.963781	2.19365														
		0.965859	2.19373														
		0.967936	2.1938														
		0.970013	2.19388														
		0.97209	2.19395														
		0.974167	2.19403														
		0.976244	2.1941														
		0.978322	2.19418														
		0.980399	2.19425														
		0.982476	2.19432														
		0.984553	2.1944														
		0.98663	2.19447														
		0.988707	2.19454														
		0.990784	2.19461														
		0.992862	2.19468														
		0.994939	2.19476														
		0.997016	2.19483														
		0.999093	2.1949														
		1.00117	2.19497														
