Sym0		Asym0		Sym1		Sym2		Sym3		Sym4		Asym1		Asym2		Asym3		Asym4	
251  Points		498  Points		250  Points		222  Points		206  Points		141  Points		340  Points		231  Points		190  Points		119  Points	
Freq (MHz)	Vph (m/ms)	Freq (MHz)	Vph (m/ms)	Freq (MHz)	Vph (m/ms)	Freq (MHz)	Vph (m/ms)	Freq (MHz)	Vph (m/ms)	Freq (MHz)	Vph (m/ms)	Freq (MHz)	Vph (m/ms)	Freq (MHz)	Vph (m/ms)	Freq (MHz)	Vph (m/ms)	Freq (MHz)	Vph (m/ms)
0.27951	1308.29	0.000410711	0.166681	0.279525	373.422	0.468989	74975.9	0.559017	4051.74	0.838534	941.111	0.13983	152.785	0.419263	22668.4	0.698781	814.249	0.937977	8090.37
0.279547	244.073	0.000777218	0.228879	0.279591	166.399	0.468997	500.023	0.559039	522.63	0.838563	460.066	0.140064	75.8373	0.419283	441.262	0.698813	390.423	0.937982	895.335
0.279635	134.632	0.0012565	0.290357	0.279709	107.088	0.469022	250.861	0.559094	279.357	0.838611	304.463	0.140455	50.5487	0.419343	222.831	0.698867	256.787	0.937993	473.895
0.279774	92.9874	0.00184548	0.350909	0.279877	78.9801	0.469062	167.442	0.559182	190.648	0.838679	227.525	0.140999	38.0022	0.419441	149.077	0.698944	191.32	0.938011	322.227
0.279964	71.0491	0.00254056	0.410374	0.280095	62.5865	0.46912	125.667	0.559303	144.719	0.838766	181.638	0.141696	30.5248	0.419579	112.029	0.699043	152.464	0.938036	244.107
0.280204	57.5117	0.0033377	0.468611	0.280364	51.8519	0.469194	100.583	0.559458	116.64	0.838873	151.162	0.14254	25.5738	0.419756	89.7495	0.699164	126.737	0.938068	196.478
0.280494	48.3293	0.00423237	0.525485	0.280684	44.2808	0.469284	83.8542	0.559646	97.7012	0.838999	129.452	0.143529	22.0632	0.419971	74.879	0.699308	108.447	0.938107	164.404
0.280835	41.6947	0.0052199	0.580898	0.281053	38.6571	0.469391	71.9029	0.559867	84.0662	0.839145	113.201	0.144658	19.451	0.420226	64.2512	0.699474	94.779	0.938153	141.335
0.281226	36.679	0.00629542	0.634771	0.281473	34.3171	0.469514	62.9391	0.560121	73.7823	0.83931	100.582	0.145922	17.4365	0.420519	56.2789	0.699663	84.1776	0.938206	123.946
0.281666	32.7561	0.00745383	0.687032	0.281941	30.8679	0.469654	55.9678	0.560408	65.7507	0.839495	90.4993	0.147316	15.8396	0.420852	50.079	0.699874	75.7157	0.938266	110.369
0.282156	29.6053	0.00869013	0.737639	0.282459	28.0621	0.469812	50.3917	0.560727	59.3054	0.8397	82.2593	0.148834	14.5457	0.421222	45.1208	0.700107	68.8056	0.938333	99.4747
0.282694	27.0203	0.00999924	0.786555	0.283025	25.7361	0.469986	45.8304	0.56108	54.0195	0.839924	75.3995	0.150471	13.4784	0.421632	41.0661	0.700363	63.0569	0.938408	90.5398
0.283281	24.8624	0.0113763	0.833771	0.28364	23.7776	0.470177	42.0304	0.561465	49.6068	0.840167	69.6001	0.152223	12.585	0.422079	37.6896	0.70064	58.1998	0.938489	83.0795
0.283916	23.0345	0.0128165	0.879285	0.284303	22.1065	0.470386	38.8162	0.561883	45.868	0.84043	64.6333	0.154082	11.8277	0.422565	34.8349	0.70094	54.0423	0.938578	76.7566
0.284599	21.4672	0.0143153	0.923104	0.285013	20.6647	0.470613	36.0623	0.562333	42.6601	0.840712	60.3321	0.156044	11.1788	0.423089	32.3903	0.701262	50.4436	0.938675	71.3297
0.285329	20.1091	0.0158682	0.965247	0.28577	19.4085	0.470857	33.6767	0.562815	39.8781	0.841013	56.5713	0.157834	10.6855	0.423651	30.274	0.701607	47.2984	0.938778	66.6208
0.286106	18.9214	0.017471	1.00574	0.286573	18.3047	0.471119	31.5904	0.563329	37.4427	0.841334	53.2553	0.159416	10.3095	0.424251	28.4244	0.701973	44.5264	0.93889	62.4966
0.286929	17.8744	0.0191198	1.04463	0.287422	17.3278	0.471399	29.7505	0.563875	35.2934	0.841675	50.3099	0.160761	10.0255	0.424888	26.7945	0.702361	42.0651	0.939009	58.8545
0.287797	16.945	0.0208109	1.08195	0.288316	16.4573	0.471698	28.1161	0.564453	33.3829	0.842034	47.6762	0.161848	9.81622	0.425563	25.3477	0.702772	39.8652	0.939135	55.6147
0.28871	16.1148	0.0225407	1.11774	0.289255	15.6771	0.472015	26.6548	0.565063	31.6736	0.842413	45.3076	0.16266	9.67031	0.426275	24.0552	0.703204	37.8873	0.93927	52.7142
0.289668	15.369	0.0243061	1.15206	0.290237	14.9742	0.472351	25.3405	0.565704	30.1357	0.842812	43.166	0.163185	9.58024	0.427024	22.8938	0.703658	36.0997	0.939412	50.1024
0.290669	14.6957	0.026104	1.18495	0.291263	14.338	0.472707	24.1524	0.566376	28.7448	0.843229	41.2204	0.163948	9.45507	0.427809	21.8447	0.704134	34.4762	0.939563	47.7383
0.291713	14.085	0.0279316	1.21646	0.292332	13.7595	0.473081	23.0732	0.567079	27.4811	0.843666	39.4452	0.164786	9.3245	0.428631	20.8927	0.704632	32.9954	0.939721	45.5883
0.2928	13.5288	0.0297864	1.24666	0.293442	13.2315	0.473476	22.0887	0.567813	26.3279	0.844122	37.8191	0.165943	9.1555	0.429489	20.0252	0.705152	31.6394	0.939888	43.6246
0.293928	13.0205	0.0316659	1.27558	0.294594	12.7479	0.47389	21.1871	0.568577	25.2716	0.844597	36.3241	0.167432	8.95486	0.430383	19.2314	0.705693	30.3931	0.940063	41.824
0.295097	12.5541	0.0335679	1.30328	0.295786	12.3035	0.474325	20.3585	0.569372	24.3006	0.845091	34.9451	0.169269	8.72997	0.431313	18.5027	0.706256	29.2439	0.940246	40.1672
0.296306	12.125	0.0354904	1.32982	0.297019	11.8938	0.47478	19.5945	0.570198	23.4052	0.845604	33.6692	0.171474	8.48827	0.432279	17.8314	0.706841	28.1809	0.940437	38.6375
0.297555	11.7289	0.0374315	1.35524	0.29829	11.5151	0.475257	18.8879	0.571053	22.5768	0.846136	32.4852	0.174068	8.23677	0.433279	17.2112	0.707446	27.1949	0.940638	37.221
0.298843	11.3624	0.0393895	1.37959	0.299599	11.1641	0.475754	18.2325	0.571937	21.8085	0.846687	31.3838	0.176725	8.00942	0.434315	16.6366	0.708074	26.2779	0.940847	35.9055
0.300168	11.0223	0.0413629	1.40293	0.300946	10.838	0.476274	17.6232	0.572852	21.094	0.847257	30.3566	0.179444	7.80313	0.435385	16.1029	0.708722	25.4229	0.941064	34.6807
0.301531	10.7061	0.0433502	1.4253	0.30215	10.5722	0.476815	17.0552	0.573795	20.4279	0.847846	29.3964	0.182219	7.6153	0.436489	15.606	0.709392	24.624	0.941291	33.5375
0.302931	10.4114	0.0453501	1.44673	0.303198	10.3581	0.477378	16.5247	0.574768	19.8056	0.848453	28.4969	0.185049	7.44373	0.437628	15.1423	0.710084	23.8758	0.941527	32.4681
0.304366	10.1361	0.0473615	1.46729	0.30408	10.189	0.477965	16.0281	0.57577	19.2229	0.84908	27.6526	0.187931	7.28656	0.4388	14.7087	0.710796	23.1738	0.941771	31.4656
0.305836	9.87856	0.0493831	1.487	0.304786	10.0601	0.478574	15.5623	0.5768	18.6764	0.849725	26.8586	0.190861	7.14217	0.440005	14.3024	0.711529	22.5138	0.942025	30.5239
0.30734	9.63713	0.0514141	1.5059	0.305311	9.96793	0.479206	15.1246	0.577858	18.1627	0.850389	26.1107	0.193838	7.00918	0.441244	13.9211	0.712283	21.8923	0.942289	29.6377
0.308878	9.41043	0.0531908	1.52175	0.305649	9.91006	0.479863	14.7127	0.578945	17.6792	0.851071	25.4049	0.196858	6.8864	0.442515	13.5625	0.713058	21.306	0.942561	28.8023
0.310449	9.19722	0.0547099	1.53483	0.306138	9.82837	0.480543	14.3244	0.580059	17.2232	0.851773	24.7378	0.199921	6.77278	0.443819	13.2248	0.713854	20.7521	0.942843	28.0133
0.312052	8.99639	0.0559692	1.54534	0.306674	9.74151	0.481248	13.9577	0.581201	16.7925	0.852492	24.1064	0.203022	6.66741	0.445155	12.9063	0.714671	20.2279	0.943135	27.2672
0.313686	8.80694	0.0569666	1.55347	0.30741	9.6265	0.481978	13.6111	0.58237	16.3852	0.85323	23.5079	0.206162	6.5695	0.446523	12.6055	0.715508	19.7313	0.943437	26.5605
0.315351	8.62799	0.057701	1.55935	0.308352	9.48598	0.482734	13.283	0.583567	15.9995	0.853987	22.9399	0.209337	6.47834	0.447922	12.3209	0.716366	19.2601	0.943748	25.8901
0.317046	8.45874	0.0581714	1.56306	0.309507	9.32302	0.483515	12.9719	0.58479	15.6337	0.854762	22.4001	0.212546	6.39331	0.449352	12.0514	0.717244	18.8125	0.94407	25.2535
0.31877	8.29846	0.0588481	1.56834	0.310885	9.14098	0.484322	12.6767	0.58604	15.2864	0.855555	21.8865	0.215787	6.31387	0.450813	11.7958	0.718142	18.3867	0.944401	24.6481
0.320523	8.1465	0.0595844	1.57401	0.312497	8.94336	0.485156	12.3962	0.587316	14.9562	0.856367	21.3973	0.21906	6.23952	0.452304	11.5532	0.719061	17.9813	0.944742	24.0716
0.322303	8.00226	0.0605868	1.58158	0.314139	8.75688	0.486017	12.1295	0.588619	14.642	0.857196	20.9308	0.222361	6.16982	0.453825	11.3226	0.72	17.5948	0.945094	23.5222
0.324112	7.86522	0.0618564	1.59096	0.315813	8.58066	0.486905	11.8755	0.589947	14.3426	0.858044	20.4854	0.225691	6.1044	0.455376	11.1032	0.720959	17.2261	0.945456	22.9979
0.325947	7.73488	0.0633941	1.60199	0.317515	8.41394	0.487821	11.6335	0.591301	14.0571	0.85891	20.0599	0.229047	6.04289	0.456956	10.8942	0.721937	16.8738	0.945829	22.4971
0.327809	7.61078	0.0652011	1.61453	0.319247	8.256	0.488765	11.4026	0.592681	13.7846	0.859794	19.6529	0.232428	5.98499	0.458357	10.7201	0.722936	16.537	0.946212	22.0183
0.329696	7.49254	0.0672785	1.6284	0.321008	8.10622	0.489738	11.1823	0.594085	13.5242	0.860696	19.2633	0.235834	5.93041	0.459568	10.5772	0.723954	16.2148	0.946606	21.56
0.33161	7.37976	0.0693595	1.64174	0.322796	7.96401	0.49074	10.9717	0.595515	13.2752	0.861615	18.89	0.239263	5.8789	0.460581	10.4627	0.724992	15.9061	0.94701	21.121
0.333548	7.27211	0.0714436	1.65459	0.324612	7.82885	0.491637	10.7958	0.596969	13.0368	0.862553	18.532	0.242714	5.83022	0.46139	10.3745	0.72605	15.6102	0.947425	20.7002
0.335511	7.16928	0.0735306	1.66695	0.326455	7.70026	0.492419	10.6511	0.598448	12.8085	0.863508	18.1884	0.246185	5.78416	0.461989	10.3108	0.727127	15.3263	0.947852	20.2963
0.337498	7.07097	0.0756201	1.67886	0.328324	7.57781	0.493078	10.535	0.599951	12.5896	0.864481	17.8584	0.249677	5.74055	0.462374	10.2706	0.728223	15.0538	0.948289	19.9085
0.33951	6.97692	0.0777118	1.69034	0.330218	7.46109	0.493608	10.4453	0.601478	12.3796	0.865472	17.5413	0.253188	5.69919	0.462931	10.2135	0.729338	14.792	0.948737	19.5358
0.341545	6.88689	0.0798055	1.70139	0.332138	7.34975	0.494002	10.3805	0.603028	12.178	0.86648	17.2362	0.256718	5.65993	0.463539	10.1524	0.730472	14.5402	0.949197	19.1773
0.343604	6.80066	0.0819008	1.71206	0.334083	7.24345	0.494256	10.3396	0.604602	11.9843	0.867505	16.9426	0.260264	5.62263	0.464371	10.0708	0.731626	14.298	0.949668	18.8324
0.345688	6.71801	0.0839976	1.72234	0.336053	7.14189	0.494624	10.2815	0.6062	11.7981	0.868548	16.6598	0.263828	5.58715	0.465433	9.97006	0.732798	14.0648	0.95015	18.5001
0.347795	6.63875	0.0860955	1.73227	0.338047	7.04478	0.495028	10.2192	0.60782	11.6189	0.869608	16.3873	0.267407	5.55338	0.466732	9.85181	0.733989	13.8402	0.950644	18.1799
0.349925	6.56271	0.0881946	1.74185	0.340065	6.95185	0.495584	10.136	0.609463	11.4465	0.870685	16.1245	0.271002	5.5212	0.468273	9.71781	0.735198	13.6237	0.951149	17.8712
0.35208	6.48972	0.0902946	1.7511	0.342107	6.86289	0.496297	10.0331	0.611129	11.2804	0.87178	15.8709	0.27461	5.4905	0.470068	9.57001	0.736426	13.4148	0.951666	17.5732
0.354259	6.41964	0.0923953	1.76004	0.344173	6.77765	0.497175	9.91217	0.612817	11.1203	0.872892	15.6261	0.278233	5.4612	0.471888	9.42823	0.737672	13.2133	0.952195	17.2856
0.356463	6.35232	0.0944966	1.76868	0.346263	6.69595	0.498228	9.77493	0.614306	10.9855	0.87402	15.3897	0.281869	5.4332	0.473734	9.29215	0.738937	13.0186	0.952735	17.0078
0.358691	6.28764	0.0965985	1.77703	0.348376	6.61759	0.499466	9.6233	0.615588	10.8738	0.875166	15.1611	0.285517	5.40643	0.475606	9.16143	0.74022	12.8306	0.953288	16.7392
0.360945	6.22547	0.0987007	1.78511	0.350514	6.5424	0.500736	9.47764	0.616658	10.7837	0.876328	14.9401	0.289177	5.38081	0.477503	9.03581	0.74152	12.6489	0.953852	16.4795
0.363225	6.16571	0.100803	1.79292	0.352675	6.47023	0.502038	9.33763	0.61751	10.7138	0.877507	14.7263	0.292849	5.35627	0.479425	8.915	0.742839	12.4732	0.954429	16.2283
0.365531	6.10825	0.102906	1.80048	0.354861	6.40092	0.503374	9.20299	0.618139	10.6632	0.878703	14.5193	0.296531	5.33275	0.481371	8.79875	0.744175	12.3031	0.955018	15.9851
0.367864	6.05301	0.105009	1.80781	0.357071	6.33433	0.504742	9.07346	0.618543	10.6311	0.879916	14.3189	0.300224	5.31018	0.483341	8.68683	0.745529	12.1385	0.955619	15.7495
0.370226	5.99988	0.107112	1.8149	0.359306	6.27035	0.506145	8.94879	0.619126	10.5854	0.881145	14.1248	0.303926	5.28851	0.485335	8.57902	0.746901	11.9791	0.956232	15.5213
0.372616	5.9488	0.109214	1.82177	0.361567	6.20885	0.507581	8.82875	0.619763	10.5363	0.88239	13.9366	0.307638	5.2677	0.487353	8.4751	0.748289	11.8247	0.956858	15.3001
0.375037	5.89969	0.111317	1.82843	0.363854	6.14973	0.509051	8.71311	0.620632	10.4706	0.883652	13.7541	0.311358	5.24768	0.489394	8.3749	0.749696	11.6751	0.957496	15.0855
0.377488	5.85247	0.11342	1.83489	0.366168	6.09289	0.510555	8.60169	0.621739	10.3889	0.884931	13.5771	0.315087	5.22842	0.491457	8.27823	0.751119	11.5299	0.958147	14.8774
0.379971	5.80709	0.115522	1.84115	0.368509	6.03824	0.512094	8.49428	0.623089	10.2925	0.886225	13.4054	0.318823	5.20988	0.493543	8.18491	0.752559	11.3892	0.958811	14.6754
0.382488	5.76348	0.117625	1.84722	0.370878	5.98568	0.513668	8.39071	0.624687	10.1823	0.887536	13.2386	0.322567	5.19201	0.495652	8.0948	0.753828	11.2699	0.959488	14.4793
0.385038	5.72159	0.119727	1.85312	0.373277	5.93515	0.515276	8.29081	0.626539	10.0597	0.888862	13.0767	0.326318	5.17478	0.497781	8.00774	0.75492	11.1706	0.960177	14.2888
0.387625	5.68137	0.121828	1.85885	0.375706	5.88656	0.51692	8.19441	0.628413	9.94108	0.890205	12.9194	0.330075	5.15815	0.499933	7.92359	0.75583	11.0902	0.960879	14.1037
0.390248	5.64275	0.12393	1.86441	0.378166	5.83985	0.518598	8.10137	0.630306	9.8262	0.891563	12.7664	0.333839	5.1421	0.502106	7.84222	0.756553	11.0276	0.961594	13.9238
0.392908	5.60571	0.126031	1.86981	0.380658	5.79496	0.520312	8.01154	0.632219	9.71493	0.892937	12.6178	0.337608	5.12659	0.504299	7.76351	0.757088	10.9821	0.962323	13.7488
0.395608	5.57019	0.128132	1.87506	0.383184	5.75183	0.522062	7.92479	0.634153	9.60709	0.894327	12.4732	0.341383	5.11159	0.506513	7.68733	0.757431	10.9532	0.963064	13.5787
0.398348	5.53614	0.130232	1.88016	0.385744	5.7104	0.523847	7.84099	0.636106	9.50255	0.895733	12.3326	0.345162	5.09707	0.508747	7.61358	0.757926	10.9121	0.963819	13.4131
0.40113	5.50353	0.132332	1.88512	0.38834	5.67062	0.525667	7.76002	0.638078	9.40117	0.897154	12.1957	0.348947	5.08302	0.511002	7.54216	0.758466	10.8678	0.964587	13.252
0.403953	5.47232	0.134432	1.88995	0.390973	5.63245	0.527524	7.68177	0.64007	9.30281	0.898591	12.0624	0.352735	5.06941	0.513276	7.47296	0.759204	10.8083	0.965369	13.0951
0.40682	5.44246	0.136532	1.89465	0.393645	5.59582	0.529415	7.60612	0.64208	9.20736	0.900042	11.9327	0.356528	5.05621	0.515569	7.40588	0.760143	10.7342	0.966164	12.9423
0.40973	5.41392	0.138631	1.89922	0.396355	5.56071	0.531342	7.53297	0.64411	9.11469	0.90151	11.8063	0.360324	5.04341	0.517881	7.34085	0.761286	10.6463	0.966973	12.7935
0.412685	5.38665	0.140729	1.90367	0.399107	5.52706	0.533305	7.46223	0.646158	9.02469	0.902992	11.6832	0.364123	5.03098	0.520212	7.27778	0.762639	10.5455	0.967795	12.6485
0.415685	5.36062	0.142827	1.90801	0.401899	5.49484	0.535303	7.39379	0.648225	8.93725	0.904296	11.5784	0.367925	5.0189	0.522562	7.21659	0.764206	10.4327	0.968632	12.5071
0.41873	5.33577	0.144925	1.91223	0.404735	5.464	0.537336	7.32758	0.65031	8.85229	0.905417	11.4909	0.37173	5.00716	0.52493	7.1572	0.765789	10.323	0.969482	12.3693
0.421821	5.31209	0.147022	1.91635	0.407613	5.43451	0.539405	7.2635	0.652413	8.76969	0.90635	11.4198	0.375537	4.99574	0.527316	7.09954	0.767388	10.2163	0.970346	12.2348
0.424956	5.28951	0.149119	1.92036	0.410536	5.40632	0.541508	7.20147	0.654534	8.68938	0.907092	11.3644	0.379345	4.98463	0.529719	7.04355	0.769002	10.1123	0.971224	12.1037
0.428137	5.26801	0.151216	1.92427	0.413503	5.37939	0.543646	7.14142	0.656673	8.61126	0.907639	11.324	0.383156	4.97381	0.53214	6.98916	0.770632	10.0111	0.972116	11.9758
0.431362	5.24753	0.153312	1.92808	0.416516	5.35369	0.545819	7.08328	0.658829	8.53526	0.907991	11.2984	0.386967	4.96326	0.534579	6.93631	0.772277	9.91251	0.973022	11.8509
0.434631	5.22805	0.155408	1.9318	0.419573	5.32917	0.548026	7.02696	0.661003	8.46129	0.908497	11.2618	0.39078	4.95297	0.537034	6.88493	0.773938	9.81643	0.973823	11.7446
0.437944	5.20951	0.157503	1.93543	0.422676	5.30579	0.550268	6.9724	0.663194	8.38928	0.90905	11.2224	0.394593	4.94293	0.539506	6.83498	0.775614	9.72279	0.974515	11.6556
0.441298	5.19187	0.159598	1.93898	0.425824	5.28351	0.552543	6.91954	0.665402	8.31916	0.909804	11.1693	0.398407	4.93313	0.541995	6.78641	0.777305	9.6315	0.975093	11.5832
0.444694	5.1751	0.161692	1.94244	0.429017	5.2623	0.554852	6.86832	0.667627	8.25087	0.910763	11.103	0.40222	4.92355	0.544499	6.73915	0.779011	9.54247	0.975554	11.5267
0.44813	5.15915	0.163787	1.94582	0.432254	5.2421	0.557194	6.81867	0.669868	8.18433	0.91193	11.0242	0.406034	4.91418	0.54702	6.69317	0.780731	9.45563	0.975895	11.4856
0.451605	5.14398	0.16588	1.94912	0.435535	5.22287	0.559569	6.77054	0.672126	8.11949	0.913309	10.9336	0.409846	4.90502	0.549557	6.64842	0.782466	9.37091	0.976114	11.4595
0.455117	5.12955	0.167974	1.95234	0.438859	5.20459	0.561977	6.72387	0.674401	8.0563	0.914906	10.8319	0.413658	4.89604	0.552109	6.60485	0.784216	9.28822	0.976431	11.4221
0.458666	5.11582	0.170067	1.95549	0.442225	5.18719	0.564417	6.67862	0.676691	7.99468	0.916517	10.7326	0.417469	4.88725	0.554677	6.56242	0.78598	9.20751	0.976776	11.3819
0.462249	5.10276	0.172159	1.95857	0.445632	5.17065	0.566888	6.63472	0.678998	7.9346	0.918142	10.6356	0.421278	4.87864	0.55726	6.5211	0.787759	9.12871	0.97725	11.3277
0.465865	5.09032	0.174251	1.96158	0.449079	5.15491	0.569392	6.59213	0.681321	7.87599	0.919781	10.5408	0.425086	4.87018	0.559858	6.48084	0.789551	9.05176	0.977853	11.26
0.469513	5.07848	0.176343	1.96452	0.452564	5.13995	0.571926	6.55081	0.683659	7.81881	0.921435	10.4482	0.428891	4.86188	0.562471	6.44162	0.791358	8.97659	0.97859	11.1793
0.473191	5.0672	0.178435	1.9674	0.456086	5.12572	0.574491	6.51071	0.686013	7.76301	0.923103	10.3577	0.432694	4.85373	0.565099	6.40338	0.793179	8.90315	0.979465	11.0865
0.476898	5.05644	0.180526	1.97022	0.459645	5.11217	0.577086	6.47179	0.688383	7.70855	0.924784	10.2692	0.436494	4.84571	0.567741	6.36611	0.795013	8.83138	0.980483	10.9822
0.480631	5.04618	0.182617	1.97298	0.463237	5.09929	0.579711	6.434	0.690768	7.65539	0.92648	10.1827	0.440292	4.83783	0.570397	6.32977	0.796862	8.76124	0.981516	10.8802
0.484391	5.03639	0.184707	1.97568	0.466862	5.08702	0.582365	6.39731	0.693168	7.60348	0.928189	10.0981	0.444086	4.83007	0.573068	6.29433	0.798723	8.69266	0.982564	10.7805
0.488174	5.02703	0.186798	1.97832	0.470518	5.07533	0.585049	6.36168	0.695583	7.55278	0.929912	10.0153	0.447876	4.82243	0.575752	6.25976	0.800599	8.62561	0.983627	10.683
0.491981	5.01808	0.188887	1.98091	0.474204	5.0642	0.58776	6.32706	0.698013	7.50326	0.931649	9.9343	0.451663	4.8149	0.578451	6.22603	0.802487	8.56003	0.984705	10.5876
0.495809	5.00952	0.190977	1.98344	0.477919	5.05358	0.5905	6.29344	0.700458	7.45488	0.933399	9.85506	0.455445	4.80748	0.581163	6.19312	0.804389	8.49588	0.985798	10.4942
0.499657	5.00132	0.193066	1.98592	0.481659	5.04345	0.593267	6.26076	0.702917	7.4076	0.935163	9.7775	0.459223	4.80015	0.583889	6.161	0.806304	8.43312	0.986907	10.4028
0.503524	4.99346	0.195155	1.98835	0.485426	5.03378	0.596062	6.229	0.705391	7.36139	0.93694	9.70157	0.462997	4.79291	0.586629	6.12964	0.808232	8.37171	0.988031	10.3134
0.507408	4.98591	0.197244	1.99074	0.489216	5.02454	0.598882	6.19813	0.707879	7.31622	0.93873	9.62724	0.466765	4.78576	0.589382	6.09903	0.810173	8.31161	0.98917	10.2258
0.511309	4.97866	0.199332	1.99307	0.493028	5.0157	0.601729	6.16812	0.710381	7.27205	0.940534	9.55444	0.470527	4.77869	0.592148	6.06914	0.812127	8.25277	0.990325	10.1401
0.515226	4.97169	0.20142	1.99536	0.496862	5.00724	0.604602	6.13894	0.712898	7.22887	0.94235	9.48314	0.474284	4.77169	0.594927	6.03995	0.814094	8.19516	0.991495	10.0561
0.519156	4.96499	0.203508	1.9976	0.500715	4.99913	0.6075	6.11055	0.715428	7.18663	0.94418	9.41329	0.478035	4.76477	0.597719	6.01144	0.816073	8.13875	0.992681	9.97391
0.5231	4.95852	0.205595	1.99981	0.504587	4.99136	0.610422	6.08294	0.717972	7.14532	0.946023	9.34486	0.48178	4.75791	0.600525	5.98358	0.818065	8.0835	0.993883	9.89337
0.527057	4.95229	0.207683	2.00197	0.508476	4.9839	0.613369	6.05608	0.72053	7.1049	0.947878	9.2778	0.485517	4.7511	0.603343	5.95637	0.820069	8.02938	0.995101	9.81447
0.531024	4.94627	0.209769	2.00408	0.512381	4.97673	0.616339	6.02994	0.723102	7.06534	0.949746	9.21208	0.489248	4.74436	0.606174	5.92978	0.822085	7.97636	0.996334	9.73716
0.535002	4.94045	0.211856	2.00616	0.516302	4.96983	0.619333	6.0045	0.725687	7.02664	0.951627	9.14765	0.492972	4.73766	0.609018	5.90379	0.824114	7.92441	0.997584	9.6614
0.53899	4.93481	0.213943	2.0082	0.520236	4.96319	0.62235	5.97973	0.728286	6.98875	0.95352	9.08449	0.496688	4.73101	0.611875	5.87839	0.826154	7.8735	0.998849	9.58715
0.542986	4.92935	0.216029	2.0102	0.524184	4.95679	0.625389	5.95561	0.730898	6.95166	0.955426	9.02256	0.500396	4.7244	0.614744	5.85356	0.828207	7.82359	1.00013	9.51437
0.546991	4.92406	0.218115	2.01217	0.528143	4.95062	0.62845	5.93213	0.733523	6.91535	0.957344	8.96182	0.504095	4.71783	0.617626	5.82928	0.830272	7.77467		
0.551003	4.91892	0.2202	2.0141	0.532114	4.94465	0.631532	5.90926	0.736161	6.87979	0.959275	8.90225	0.507786	4.71129	0.62052	5.80555	0.832348	7.7267		
0.555021	4.91392	0.222286	2.01599	0.536094	4.93888	0.634636	5.88697	0.738812	6.84496	0.961217	8.84381	0.511468	4.70478	0.623427	5.78234	0.834436	7.67966		
0.559045	4.90905	0.224371	2.01786	0.540084	4.9333	0.63776	5.86526	0.741476	6.81085	0.963172	8.78648	0.51514	4.6983	0.626346	5.75965	0.836536	7.63353		
0.563075	4.90431	0.226456	2.01968	0.544083	4.92789	0.640904	5.84411	0.744152	6.77744	0.965139	8.73022	0.518803	4.69184	0.629278	5.73745	0.838648	7.58829		
0.567109	4.89969	0.228541	2.02148	0.54809	4.92263	0.644068	5.82348	0.746842	6.7447	0.967118	8.67501	0.522456	4.6854	0.632222	5.71574	0.84077	7.5439		
0.571147	4.89518	0.230626	2.02325	0.552103	4.91753	0.647252	5.80338	0.749544	6.71262	0.969109	8.62082	0.526099	4.67897	0.635179	5.69451	0.842905	7.50035		
0.575189	4.89076	0.23271	2.02498	0.556124	4.91257	0.650455	5.78378	0.752258	6.68118	0.971111	8.56763	0.529731	4.67255	0.638148	5.67373	0.84505	7.45761		
0.579234	4.88645	0.234794	2.02669	0.560149	4.90774	0.653676	5.76467	0.754985	6.65037	0.973126	8.5154	0.533352	4.66614	0.641129	5.65341	0.847207	7.41568		
0.583281	4.88222	0.236878	2.02836	0.56418	4.90304	0.656915	5.74602	0.757724	6.62017	0.975152	8.46412	0.536962	4.65974	0.644123	5.63353	0.849375	7.37451		
0.58733	4.87807	0.238962	2.03001	0.568216	4.89844	0.660173	5.72784	0.760476	6.59056	0.977189	8.41377	0.540559	4.65334	0.647129	5.61407	0.851555	7.33411		
0.591381	4.87399	0.241046	2.03163	0.572255	4.89396	0.663447	5.71009	0.763239	6.56153	0.979238	8.36431	0.544145	4.64694	0.650148	5.59503	0.853745	7.29444		
0.595433	4.86999	0.243129	2.03322	0.576298	4.88957	0.666739	5.69277	0.766015	6.53306	0.981298	8.31573	0.547719	4.64053	0.653179	5.57641	0.855946	7.25549		
0.599485	4.86606	0.245212	2.03479	0.580343	4.88528	0.670048	5.67587	0.768803	6.50515	0.98337	8.26801	0.55128	4.63412	0.656222	5.55818	0.858158	7.21724		
0.603538	4.86218	0.247295	2.03633	0.584391	4.88107	0.673373	5.65937	0.771602	6.47777	0.985453	8.22112	0.554828	4.6277	0.659278	5.54034	0.860381	7.17968		
0.60759	4.85836	0.249378	2.03785	0.588441	4.87694	0.676714	5.64327	0.774414	6.45091	0.987547	8.17504	0.558362	4.62127	0.662347	5.52288	0.862615	7.14278		
0.611641	4.85459	0.251461	2.03934	0.592492	4.87289	0.680071	5.62754	0.777237	6.42457	0.989652	8.12977	0.561883	4.61482	0.665427	5.5058	0.864859	7.10654		
0.615692	4.85086	0.253543	2.04081	0.596544	4.86891	0.683444	5.61217	0.780072	6.39873	0.991767	8.08527	0.565389	4.60836	0.668521	5.48908	0.867114	7.07094		
0.619741	4.84718	0.255626	2.04226	0.600596	4.86499	0.686831	5.59717	0.782919	6.37337	0.993894	8.04153	0.568882	4.60188	0.671626	5.47271	0.86938	7.03596		
0.623788	4.84354	0.257708	2.04368	0.604649	4.86113	0.690234	5.58251	0.785777	6.34849	0.996032	7.99853	0.572359	4.59537	0.674745	5.4567	0.871656	7.00158		
0.627833	4.83994	0.25979	2.04508	0.608701	4.85732	0.69365	5.56819	0.788647	6.32407	0.99818	7.95625	0.575822	4.58885	0.677876	5.44102	0.873943	6.9678		
0.631876	4.83637	0.261872	2.04646	0.612752	4.85356	0.697082	5.55419	0.791528	6.30011	1.00034	7.91468	0.579269	4.5823	0.681019	5.42568	0.87624	6.93461		
0.635916	4.83282	0.263954	2.04782	0.616802	4.84985	0.700527	5.54051	0.794421	6.27658			0.582701	4.57572	0.684175	5.41066	0.878547	6.90198		
0.639952	4.82931	0.266035	2.04915	0.620851	4.84618	0.703985	5.52713	0.797325	6.2535			0.586117	4.56912	0.687344	5.39596	0.880865	6.8699		
0.643985	4.82581	0.268117	2.05047	0.624897	4.84255	0.707457	5.51406	0.800241	6.23083			0.589516	4.56248	0.690525	5.38157	0.883193	6.83837		
0.648015	4.82234	0.270198	2.05177	0.628942	4.83896	0.710943	5.50127	0.803167	6.20858			0.592899	4.55581	0.693719	5.36749	0.885531	6.80736		
0.65204	4.81888	0.272279	2.05305	0.632984	4.83539	0.714441	5.48877	0.806106	6.18674			0.596266	4.54911	0.696925	5.3537	0.88788	6.77688		
0.656061	4.81544	0.27436	2.05431	0.637023	4.83186	0.717951	5.47654	0.809055	6.16529			0.599615	4.54238	0.700144	5.34021	0.890238	6.7469		
0.660077	4.81201	0.276441	2.05555	0.641058	4.82835	0.721475	5.46458	0.812015	6.14422			0.602948	4.53561	0.703376	5.327	0.892607	6.71742		
0.664088	4.80859	0.278522	2.05677	0.64509	4.82486	0.72501	5.45288	0.814987	6.12354			0.606262	4.5288	0.70662	5.31407	0.894986	6.68843		
0.668094	4.80518	0.280602	2.05798	0.649119	4.82139	0.728557	5.44143	0.81797	6.10322			0.609559	4.52196	0.709876	5.30142	0.897375	6.65991		
0.67158	4.80221	0.282683	2.05916	0.653143	4.81794	0.732116	5.43022	0.820964	6.08327			0.612838	4.51508	0.713146	5.28903	0.899774	6.63186		
0.674549	4.79968	0.284763	2.06033	0.657162	4.8145	0.735686	5.41925	0.823968	6.06368			0.616099	4.50816	0.716427	5.27691	0.902183	6.60426		
0.677001	4.79759	0.286843	2.06149	0.661177	4.81107	0.739268	5.40852	0.826984	6.04443			0.619341	4.50119	0.719722	5.26504	0.904602	6.57711		
0.678938	4.79594	0.288923	2.06263	0.665187	4.80765	0.742861	5.39801	0.830011	6.02552			0.622565	4.49419	0.723028	5.25343	0.907031	6.5504		
0.680362	4.79473	0.291003	2.06375	0.669191	4.80425	0.746464	5.38772	0.833049	6.00694			0.62577	4.48715	0.726347	5.24206	0.90947	6.52411		
0.681272	4.79395	0.293083	2.06486	0.67319	4.80084	0.750079	5.37764	0.836098	5.98869			0.628956	4.48007	0.729679	5.23092	0.911918	6.49825		
0.682581	4.79283	0.295163	2.06595	0.677182	4.79744	0.753704	5.36777	0.839157	5.97076			0.632123	4.47294	0.733022	5.22003	0.914377	6.47279		
0.684002	4.79162	0.297243	2.06703	0.681169	4.79404	0.757339	5.35811	0.842228	5.95315			0.635271	4.46577	0.736378	5.20936	0.916845	6.44774		
0.685934	4.78997	0.299322	2.06809	0.685149	4.79064	0.760984	5.34864	0.84531	5.93584			0.6384	4.45857	0.739746	5.19892	0.919323	6.42308		
0.688375	4.78788	0.301402	2.06913	0.689123	4.78723	0.764639	5.33937	0.848402	5.91883			0.641509	4.45132	0.743125	5.1887	0.921811	6.39882		
0.691323	4.78535	0.303481	2.07017	0.693089	4.78383	0.768304	5.33028	0.851505	5.90212			0.644599	4.44403	0.746517	5.17869	0.924309	6.37492		
0.694776	4.78237	0.30556	2.07119	0.697049	4.78041	0.771978	5.32137	0.85462	5.88569			0.647669	4.43669	0.74992	5.16889	0.926817	6.35141		
0.698733	4.77896	0.307639	2.0722	0.701001	4.77699	0.775662	5.31265	0.857745	5.86955			0.650719	4.42932	0.753335	5.1593	0.929334	6.32825		
0.702681	4.77553	0.309718	2.07319	0.704945	4.77356	0.779355	5.30409	0.860881	5.85369			0.65375	4.42191	0.756761	5.1499	0.931861	6.30546		
0.706622	4.7721	0.311797	2.07417	0.708881	4.77012	0.783057	5.29571	0.864028	5.8381			0.656761	4.41445	0.760199	5.1407	0.934398	6.28301		
0.710555	4.76866	0.313876	2.07514	0.71281	4.76667	0.786768	5.28749	0.867185	5.82278			0.659752	4.40696	0.763648	5.13169	0.936945	6.26091		
0.71448	4.7652	0.315955	2.07609	0.716729	4.76321	0.790488	5.27943	0.870354	5.80773			0.662723	4.39942	0.767108	5.12287	0.939501	6.23915		
0.718396	4.76173	0.318034	2.07703	0.720641	4.75973	0.794216	5.27153	0.873533	5.79293			0.665675	4.39185	0.770579	5.11422	0.942067	6.21772		
0.722304	4.75825	0.320112	2.07796	0.724543	4.75624	0.797952	5.26378	0.876724	5.77838			0.668606	4.38425	0.77406	5.10576	0.944643	6.19662		
0.726202	4.75475	0.322191	2.07888	0.728436	4.75273	0.801697	5.25618	0.879925	5.76409			0.671518	4.3766	0.777552	5.09746	0.947228	6.17583		
0.730092	4.75123	0.324269	2.07979	0.732321	4.7492	0.805451	5.24872	0.883137	5.75003			0.67441	4.36892	0.781054	5.08934	0.949823	6.15536		
0.733972	4.74769	0.326347	2.08069	0.736195	4.74565	0.809212	5.24141	0.88636	5.73622			0.677282	4.3612	0.784566	5.08137	0.952428	6.1352		
0.737843	4.74414	0.328426	2.08157	0.740061	4.74209	0.81298	5.23423	0.889594	5.72265			0.680135	4.35345	0.788088	5.07357	0.955042	6.11533		
0.741704	4.74057	0.330504	2.08245	0.743916	4.7385	0.816757	5.22719	0.892839	5.7093			0.682968	4.34567	0.79162	5.06592	0.957666	6.09577		
0.745555	4.73697	0.332582	2.08331	0.747761	4.7349	0.820541	5.22028	0.896095	5.69618			0.685781	4.33786	0.795161	5.05842	0.9603	6.0765		
0.749395	4.73335	0.33466	2.08416	0.751596	4.73127	0.824332	5.2135	0.899361	5.68329			0.688575	4.33001	0.798711	5.05107	0.962943	6.05751		
0.753226	4.72972	0.336737	2.08501	0.755421	4.72762	0.82813	5.20684	0.902639	5.67062			0.69135	4.32214	0.802271	5.04386	0.965596	6.03881		
0.757046	4.72605	0.338815	2.08584	0.759235	4.72394	0.831936	5.20031	0.905928	5.65816			0.694105	4.31423	0.805839	5.03679	0.968259	6.02038		
0.760856	4.72237	0.340893	2.08666	0.763038	4.72024	0.835748	5.19389	0.909228	5.64591			0.696841	4.3063	0.809415	5.02985	0.970931	6.00222		
0.764654	4.71866	0.342971	2.08747	0.76683	4.71652	0.839567	5.18758	0.912538	5.63388			0.699558	4.29834	0.813	5.02305	0.973613	5.98433		
0.768442	4.71493	0.345048	2.08828	0.770612	4.71277	0.843393	5.18139	0.91586	5.62205			0.702256	4.29036	0.816593	5.01637	0.976304	5.96671		
0.772219	4.71117	0.347126	2.08907	0.774382	4.70899	0.847225	5.17531	0.919193	5.61042			0.704936	4.28236	0.820194	5.00982	0.979005	5.94934		
0.775984	4.70738	0.349203	2.08985	0.77814	4.70519	0.851063	5.16934	0.922537	5.59899			0.707597	4.27433	0.823802	5.00338	0.981716	5.93222		
0.779738	4.70357	0.35128	2.09063	0.781888	4.70137	0.854908	5.16347	0.925892	5.58775			0.710239	4.26628	0.827417	4.99706	0.984436	5.91536		
0.78348	4.69973	0.353358	2.09139	0.785623	4.69751	0.858758	5.1577	0.929258	5.57671			0.712863	4.25821	0.83104	4.99086	0.987165	5.89873		
0.78721	4.69586	0.355435	2.09215	0.789347	4.69363	0.862614	5.15203	0.932635	5.56586			0.715468	4.25012	0.834669	4.98476	0.989905	5.88235		
0.790929	4.69197	0.357512	2.0929	0.793059	4.68972	0.866476	5.14646	0.936024	5.55519			0.718056	4.24201	0.838304	4.97877	0.992654	5.86621		
0.794636	4.68804	0.359589	2.09364	0.796758	4.68578	0.870343	5.14098	0.939423	5.54471			0.720625	4.23389	0.841946	4.97288	0.995412	5.8503		
0.79833	4.68409	0.361666	2.09437	0.800446	4.68181	0.874215	5.13559	0.942834	5.53441			0.723177	4.22575	0.845594	4.96709	0.99818	5.83462		
0.802012	4.68011	0.363743	2.0951	0.804121	4.67782	0.878093	5.13029	0.946256	5.52428			0.725712	4.2176	0.849247	4.9614	1.00096	5.81916		
0.805682	4.67611	0.36582	2.09581	0.807784	4.67379	0.881975	5.12507	0.949689	5.51433			0.728229	4.20943	0.852906	4.9558				
0.80934	4.67207	0.367897	2.09652	0.811434	4.66974	0.885863	5.11994	0.953134	5.50455			0.730729	4.20126	0.85657	4.95029				
0.812985	4.668	0.369973	2.09722	0.815072	4.66566	0.889754	5.11489	0.956589	5.49494			0.733211	4.19307	0.860238	4.94487				
0.816617	4.66391	0.37205	2.09791	0.818697	4.66155	0.893651	5.10992	0.960056	5.4855			0.735677	4.18487	0.863912	4.93953				
0.820237	4.65979	0.374127	2.09859	0.822309	4.65741	0.897551	5.10503	0.963535	5.47622			0.738127	4.17667	0.867589	4.93427				
0.823843	4.65563	0.376203	2.09927	0.825908	4.65324	0.901456	5.10021	0.967024	5.46711			0.740559	4.16846	0.871271	4.92909				
0.827437	4.65145	0.37828	2.09994	0.829495	4.64904	0.905364	5.09546	0.970525	5.45815			0.742976	4.16025	0.874957	4.92399				
0.831018	4.64724	0.380356	2.1006	0.833068	4.64481	0.909276	5.09079	0.974038	5.44935			0.745377	4.15203	0.878646	4.91896				
0.834586	4.643	0.382433	2.10126	0.836628	4.64056	0.913192	5.08618	0.977561	5.4407			0.747761	4.1438	0.882339	4.914				
0.838141	4.63874	0.384509	2.10191	0.840176	4.63627	0.917111	5.08163	0.981096	5.43221			0.75013	4.13558	0.886034	4.90911				
0.841682	4.63444	0.386585	2.10255	0.84371	4.63196	0.921033	5.07716	0.984643	5.42386			0.752484	4.12735	0.889733	4.90428				
0.845211	4.63012	0.388661	2.10318	0.84723	4.62762	0.924958	5.07274	0.9882	5.41567			0.754822	4.11913	0.893434	4.89952				
0.848726	4.62576	0.390738	2.10381	0.850738	4.62325	0.928887	5.06839	0.991769	5.40761			0.757145	4.1109	0.897137	4.89482				
0.852228	4.62138	0.392814	2.10443	0.854232	4.61885	0.932817	5.06409	0.99535	5.39971			0.759453	4.10268	0.900843	4.89018				
0.855716	4.61697	0.39489	2.10505	0.857713	4.61443	0.93675	5.05985	0.998942	5.39194			0.761746	4.09446	0.90455	4.8856				
0.859191	4.61253	0.396966	2.10566	0.86118	4.60997	0.940686	5.05566	1.00254	5.38431			0.764025	4.08625	0.908259	4.88106				
0.862653	4.60807	0.399042	2.10626	0.864634	4.60549	0.944623	5.05153					0.76629	4.07804	0.911969	4.87659				
0.866101	4.60358	0.401118	2.10685	0.868075	4.60099	0.948562	5.04745					0.76854	4.06984	0.91568	4.87216				
0.869536	4.59906	0.403193	2.10744	0.871502	4.59645	0.952504	5.04342					0.770777	4.06164	0.919392	4.86778				
0.872957	4.59451	0.405269	2.10803	0.874915	4.59189	0.956446	5.03943					0.773	4.05345	0.923104	4.86344				
0.876365	4.58994	0.407345	2.10861	0.878315	4.58731	0.96039	5.03549					0.775209	4.04528	0.926818	4.85915				
0.879759	4.58534	0.409421	2.10918	0.881702	4.58269	0.964335	5.0316					0.777405	4.03711	0.930531	4.85491				
0.88314	4.58072	0.411496	2.10975	0.885075	4.57806	0.968281	5.02775					0.779588	4.02895	0.934244	4.8507				
0.886508	4.57607	0.413572	2.11031	0.888435	4.57339	0.972228	5.02393					0.781758	4.0208	0.937957	4.84653				
0.889862	4.5714	0.415648	2.11086	0.891781	4.56871	0.976176	5.02016					0.783915	4.01267	0.941669	4.8424				
0.893202	4.5667	0.417723	2.11141	0.895114	4.564	0.980124	5.01643					0.786059	4.00455	0.94538	4.83831				
0.896529	4.56198	0.419798	2.11196	0.898433	4.55926	0.984072	5.01274					0.788192	3.99644	0.949091	4.83425				
0.899843	4.55724	0.421874	2.1125	0.901739	4.5545	0.988021	5.00908					0.790312	3.98835	0.9528	4.83022				
0.903143	4.55247	0.423949	2.11303	0.905031	4.54972	0.991969	5.00545					0.79242	3.98027	0.956509	4.82622				
0.906429	4.54768	0.426025	2.11356	0.90831	4.54492	0.995917	5.00186					0.794516	3.97221	0.960215	4.82225				
0.909702	4.54287	0.4281	2.11408	0.911576	4.54009	0.999865	4.9983					0.7966	3.96417	0.96392	4.81831				
0.912962	4.53803	0.430175	2.1146	0.914828	4.53525	1.00381	4.99477					0.798673	3.95614	0.967622	4.8144				
0.916209	4.53317	0.43225	2.11512	0.918067	4.53038							0.800735	3.94814	0.971323	4.81051				
0.919442	4.5283	0.434325	2.11563	0.921292	4.52549							0.802786	3.94015	0.975021	4.80664				
0.922662	4.5234	0.436401	2.11613	0.924504	4.52058							0.804826	3.93218	0.978716	4.8028				
0.925868	4.51848	0.438476	2.11663	0.927703	4.51565							0.806855	3.92423	0.982408	4.79898				
0.929062	4.51354	0.440551	2.11712	0.930889	4.5107							0.808874	3.9163	0.986098	4.79518				
0.932242	4.50858	0.442626	2.11761	0.934062	4.50573							0.810883	3.9084	0.989784	4.7914				
0.935409	4.50361	0.4447	2.1181	0.937221	4.50074							0.812881	3.90051	0.993467	4.78763				
0.938563	4.49861	0.446775	2.11858	0.940368	4.49574							0.814869	3.89265	0.997147	4.78388				
0.941704	4.4936	0.44885	2.11906	0.943501	4.49072							0.816847	3.88481	1.00082	4.78015				
0.944832	4.48857	0.450925	2.11953	0.946621	4.48568							0.818816	3.87699						
0.947946	4.48352	0.453	2.12	0.949729	4.48062							0.820775	3.8692						
0.951048	4.47846	0.455075	2.12046	0.952823	4.47554							0.822725	3.86143						
0.954137	4.47338	0.457149	2.12092	0.955905	4.47046							0.824666	3.85369						
0.957214	4.46828	0.459224	2.12138	0.958974	4.46535							0.826598	3.84597						
0.960277	4.46317	0.461299	2.12183	0.96203	4.46023							0.82852	3.83828						
0.963328	4.45805	0.463373	2.12228	0.965073	4.4551							0.830435	3.83061						
0.966366	4.45291	0.465448	2.12272	0.968104	4.44995							0.83234	3.82297						
0.969391	4.44775	0.467522	2.12316	0.971122	4.44479							0.834238	3.81536						
0.972404	4.44258	0.469597	2.1236	0.974128	4.43961							0.836127	3.80778						
0.975404	4.4374	0.471671	2.12403	0.977121	4.43442							0.838008	3.80022						
0.978392	4.43221	0.473746	2.12446	0.980101	4.42922							0.839881	3.79269						
0.981367	4.427	0.47582	2.12488	0.98307	4.42401							0.841747	3.78519						
0.98433	4.42178	0.477894	2.1253	0.986026	4.41878							0.843605	3.77772						
0.987281	4.41655	0.479969	2.12572	0.988969	4.41355							0.845455	3.77027						
0.990219	4.41131	0.482043	2.12613	0.991901	4.4083							0.847298	3.76286						
0.993145	4.40606	0.484117	2.12654	0.99482	4.40304							0.849134	3.75547						
0.996059	4.4008	0.486192	2.12695	0.997727	4.39777							0.850963	3.74812						
0.998961	4.39553	0.488266	2.12735	1.00062	4.3925							0.852785	3.74079						
1.00185	4.39025	0.49034	2.12775									0.854601	3.73349						
		0.492414	2.12815									0.856409	3.72623						
		0.494488	2.12854									0.858211	3.71899						
		0.496562	2.12893									0.860007	3.71179						
		0.498636	2.12932									0.861797	3.70462						
		0.50071	2.1297									0.86358	3.69748						
		0.502784	2.13008									0.865358	3.69037						
		0.504858	2.13046									0.86713	3.68329						
		0.506932	2.13083									0.868896	3.67624						
		0.509006	2.1312									0.870656	3.66922						
		0.51108	2.13157									0.872411	3.66224						
		0.513153	2.13194									0.874161	3.65529						
		0.515227	2.1323									0.875905	3.64837						
		0.517301	2.13266									0.877644	3.64148						
		0.519375	2.13301									0.879379	3.63463						
		0.521448	2.13337									0.881108	3.6278						
		0.523522	2.13372									0.882832	3.62101						
		0.525596	2.13406									0.884552	3.61426						
		0.527669	2.13441									0.886267	3.60753						
		0.529743	2.13475									0.887978	3.60084						
		0.531817	2.13509									0.889684	3.59418						
		0.53389	2.13543									0.891387	3.58755						
		0.535964	2.13576									0.893084	3.58096						
		0.538037	2.13609									0.894778	3.57439						
		0.540111	2.13642									0.896468	3.56787						
		0.542184	2.13675									0.898154	3.56137						
		0.544257	2.13708									0.899836	3.55491						
		0.546331	2.1374									0.901514	3.54848						
		0.548404	2.13772									0.903189	3.54208						
		0.550477	2.13803									0.90486	3.53571						
		0.552551	2.13835									0.906528	3.52938						
		0.554624	2.13866									0.908193	3.52308						
		0.556697	2.13897									0.909854	3.51682						
		0.55877	2.13928									0.911512	3.51058						
		0.560844	2.13958									0.913167	3.50438						
		0.562917	2.13989									0.914818	3.49821						
		0.56499	2.14019									0.916467	3.49208						
		0.567063	2.14049									0.918113	3.48597						
		0.569136	2.14078									0.919757	3.4799						
		0.571209	2.14108									0.921397	3.47386						
		0.573282	2.14137									0.923035	3.46786						
		0.575355	2.14166									0.92467	3.46188						
		0.577428	2.14195									0.926303	3.45594						
		0.579501	2.14223									0.927933	3.45003						
		0.581574	2.14252									0.929561	3.44415						
		0.583647	2.1428									0.931186	3.4383						
		0.58572	2.14308									0.93281	3.43249						
		0.587793	2.14336									0.934431	3.42671						
		0.589866	2.14363									0.93605	3.42096						
		0.591939	2.14391									0.937667	3.41524						
		0.594011	2.14418									0.939282	3.40955						
		0.596084	2.14445									0.940895	3.40389						
		0.598157	2.14472									0.942506	3.39827						
		0.60023	2.14498									0.944116	3.39267						
		0.602302	2.14525									0.945723	3.38711						
		0.604375	2.14551									0.947329	3.38158						
		0.606448	2.14577									0.948933	3.37608						
		0.608521	2.14603									0.950536	3.3706						
		0.610593	2.14629									0.952137	3.36516						
		0.612666	2.14654									0.953737	3.35976						
		0.614738	2.1468									0.955335	3.35438						
		0.616811	2.14705									0.956932	3.34903						
		0.618884	2.1473									0.958527	3.34371						
		0.620956	2.14755									0.960122	3.33842						
		0.623029	2.14779									0.961715	3.33316						
		0.625101	2.14804									0.963306	3.32793						
		0.627174	2.14828									0.964897	3.32273						
		0.629246	2.14853									0.966486	3.31756						
		0.631318	2.14877									0.968075	3.31242						
		0.633391	2.14901									0.969662	3.30731						
		0.635463	2.14924									0.971249	3.30222						
		0.637536	2.14948									0.972834	3.29717						
		0.639608	2.14971									0.974419	3.29214						
		0.64168	2.14995									0.976003	3.28715						
		0.643753	2.15018									0.977585	3.28218						
		0.645825	2.15041									0.979168	3.27724						
		0.647897	2.15063									0.980749	3.27233						
		0.649969	2.15086									0.98233	3.26745						
		0.652042	2.15109									0.98391	3.26259						
		0.654114	2.15131									0.985489	3.25776						
		0.656186	2.15153									0.987068	3.25296						
		0.658258	2.15175									0.988646	3.24819						
		0.66033	2.15197									0.990224	3.24345						
		0.662403	2.15219									0.991801	3.23873						
		0.664475	2.15241									0.993378	3.23404						
		0.666547	2.15262									0.994954	3.22937						
		0.668619	2.15284									0.99653	3.22474						
		0.670691	2.15305									0.998105	3.22013						
		0.672763	2.15326									0.99968	3.21554						
		0.674835	2.15347									1.00126	3.21099						
		0.676907	2.15368																
		0.678979	2.15389																
		0.681051	2.15409																
		0.683123	2.1543																
		0.685195	2.1545																
		0.687267	2.15471																
		0.689339	2.15491																
		0.691411	2.15511																
		0.693482	2.15531																
		0.695554	2.1555																
		0.697626	2.1557																
		0.699698	2.1559																
		0.70177	2.15609																
		0.703842	2.15628																
		0.705913	2.15647																
		0.707985	2.15666																
		0.710057	2.15685																
		0.712128	2.15704																
		0.7142	2.15723																
		0.716272	2.15742																
		0.718343	2.1576																
		0.720415	2.15778																
		0.722487	2.15797																
		0.724558	2.15815																
		0.72663	2.15833																
		0.728702	2.15851																
		0.730773	2.15869																
		0.732845	2.15887																
		0.734916	2.15904																
		0.736988	2.15922																
		0.739059	2.15939																
		0.741131	2.15957																
		0.743202	2.15974																
		0.745273	2.15991																
		0.747345	2.16008																
		0.749416	2.16025																
		0.751488	2.16042																
		0.753559	2.16059																
		0.75563	2.16075																
		0.757702	2.16092																
		0.759773	2.16109																
		0.761844	2.16125																
		0.763916	2.16141																
		0.765987	2.16157																
		0.768058	2.16174																
		0.770129	2.1619																
		0.772201	2.16206																
		0.774272	2.16221																
		0.776343	2.16237																
		0.778414	2.16253																
		0.780486	2.16269																
		0.782557	2.16284																
		0.784628	2.163																
		0.786699	2.16315																
		0.78877	2.1633																
		0.790841	2.16345																
		0.792912	2.16361																
		0.794983	2.16376																
		0.797054	2.16391																
		0.799125	2.16405																
		0.801196	2.1642																
		0.803267	2.16435																
		0.805338	2.1645																
		0.807409	2.16464																
		0.80948	2.16479																
		0.811551	2.16493																
		0.813622	2.16507																
		0.815693	2.16522																
		0.817764	2.16536																
		0.819835	2.1655																
		0.821906	2.16564																
		0.823977	2.16578																
		0.826047	2.16592																
		0.828118	2.16606																
		0.830189	2.16619																
		0.83226	2.16633																
		0.834331	2.16647																
		0.836401	2.1666																
		0.838472	2.16674																
		0.840543	2.16687																
		0.842614	2.167																
		0.844684	2.16714																
		0.846755	2.16727																
		0.848826	2.1674																
		0.850896	2.16753																
		0.852967	2.16766																
		0.855038	2.16779																
		0.857108	2.16792																
		0.859179	2.16805																
		0.861249	2.16817																
		0.86332	2.1683																
		0.86539	2.16843																
		0.867461	2.16855																
		0.869532	2.16868																
		0.871602	2.1688																
		0.873673	2.16893																
		0.875743	2.16905																
		0.877814	2.16917																
		0.879884	2.16929																
		0.881954	2.16942																
		0.884025	2.16954																
		0.886095	2.16966																
		0.888166	2.16978																
		0.890236	2.16989																
		0.892307	2.17001																
		0.894377	2.17013																
		0.896447	2.17025																
		0.898518	2.17037																
		0.900588	2.17048																
		0.902658	2.1706																
		0.904729	2.17071																
		0.906799	2.17083																
		0.908869	2.17094																
		0.910939	2.17105																
		0.91301	2.17117																
		0.91508	2.17128																
		0.91715	2.17139																
		0.91922	2.1715																
		0.92129	2.17161																
		0.923361	2.17172																
		0.925431	2.17183																
		0.927501	2.17194																
		0.929571	2.17205																
		0.931641	2.17216																
		0.933711	2.17227																
		0.935781	2.17237																
		0.937851	2.17248																
		0.939921	2.17259																
		0.941991	2.17269																
		0.944062	2.1728																
		0.946132	2.1729																
		0.948202	2.17301																
		0.950272	2.17311																
		0.952342	2.17322																
		0.954412	2.17332																
		0.956481	2.17342																
		0.958551	2.17352																
		0.960621	2.17362																
		0.962691	2.17373																
		0.964761	2.17383																
		0.966831	2.17393																
		0.968901	2.17403																
		0.970971	2.17412																
		0.973041	2.17422																
		0.97511	2.17432																
		0.97718	2.17442																
		0.97925	2.17452																
		0.98132	2.17461																
		0.98339	2.17471																
		0.985459	2.17481																
		0.987529	2.1749																
		0.989599	2.175																
		0.991669	2.17509																
		0.993738	2.17519																
		0.995808	2.17528																
		0.997878	2.17538																
		0.999947	2.17547																
		1.00202	2.17556																
