Sym0		Asym0		Sym1		Sym2		Sym3		Sym4		Asym1		Asym2		Asym3	
462  Points		493  Points		202  Points		168  Points		154  Points		110  Points		319  Points		181  Points		146  Points	
Freq (MHz)	Vph (m/ms)	Freq (MHz)	Vph (m/ms)	Freq (MHz)	Vph (m/ms)	Freq (MHz)	Vph (m/ms)	Freq (MHz)	Vph (m/ms)	Freq (MHz)	Vph (m/ms)	Freq (MHz)	Vph (m/ms)	Freq (MHz)	Vph (m/ms)	Freq (MHz)	Vph (m/ms)
0.00151158	6.09597	0.000519926	0.213808	0.279514	871.246	0.491048	568.585	0.55903	883.674	0.83853	1751.6	0.139826	198.176	0.419273	804.833	0.698786	859.774
0.0071909	6.09574	0.000989207	0.294105	0.279591	223.223	0.491085	273.535	0.559097	357.407	0.838564	594.551	0.14014	85.5945	0.419344	288.677	0.698839	400.607
0.0128697	6.09548	0.0016018	0.372934	0.279759	128.082	0.491149	180.104	0.55922	224.046	0.838631	358.066	0.140702	54.7702	0.419481	175.932	0.698931	261.171
0.0185475	6.09505	0.00235172	0.449933	0.280017	89.8671	0.491239	134.265	0.5594	163.2	0.838731	256.195	0.141507	40.4232	0.419684	126.562	0.699062	193.762
0.0242239	6.09446	0.00323203	0.524806	0.280366	69.2673	0.491355	107.039	0.559636	128.375	0.838865	199.469	0.14255	32.1614	0.419955	98.8658	0.699232	154.032
0.0298984	6.09371	0.00423514	0.597321	0.280806	56.3946	0.491498	89.0055	0.559928	105.825	0.839032	163.325	0.143824	26.8127	0.420291	81.1463	0.69944	127.84
0.0355705	6.09279	0.00535283	0.667275	0.281334	47.5951	0.491668	76.1827	0.560277	90.0363	0.839232	138.284	0.145321	23.0824	0.420693	68.8407	0.699687	109.276
0.0412398	6.09171	0.00657684	0.734546	0.281951	41.2048	0.491866	66.5988	0.560681	78.3678	0.839466	119.914	0.147031	20.3435	0.421161	59.8002	0.699972	95.434
0.0469059	6.09047	0.00789859	0.799023	0.282657	36.3575	0.492091	59.1655	0.561141	69.395	0.839733	105.863	0.148945	18.255	0.421695	52.8804	0.700296	84.7168
0.0525682	6.08907	0.00930991	0.860673	0.283449	32.5576	0.492344	53.2328	0.561656	62.2825	0.840032	94.7693	0.151053	16.616	0.422294	47.4157	0.700659	76.175
0.0582263	6.08749	0.0108025	0.919463	0.284328	29.5014	0.492625	48.3887	0.562226	56.5075	0.840365	85.7895	0.153345	15.3001	0.422958	42.9927	0.70106	69.2083
0.0638796	6.08574	0.0123688	0.975426	0.285291	26.992	0.492936	44.3596	0.56285	51.7266	0.840731	78.3726	0.155811	14.2238	0.423687	39.341	0.701499	63.4186
0.0695277	6.08381	0.0140014	1.0286	0.286338	24.8965	0.493277	40.9563	0.563529	47.7043	0.841131	72.1439	0.158439	13.33	0.424479	36.2763	0.701976	58.5317
0.07517	6.08171	0.0156936	1.07906	0.287469	23.1217	0.493647	38.0441	0.564262	44.2744	0.841563	66.8397	0.161222	12.5782	0.425336	33.6687	0.702492	54.3523
0.0808059	6.07943	0.0174389	1.12687	0.28868	21.6004	0.494048	35.5242	0.565049	41.3158	0.842028	62.2689	0.164148	11.9387	0.426256	31.424	0.703046	50.7377
0.086435	6.07696	0.0192316	1.17215	0.289971	20.283	0.494481	33.323	0.565888	38.7381	0.842525	58.2895	0.16721	11.3896	0.427239	29.4721	0.703637	47.5811
0.0920566	6.0743	0.0210663	1.21498	0.291341	19.132	0.494946	31.3838	0.566781	36.473	0.843056	54.7943	0.169982	10.9716	0.428284	27.76	0.704267	44.801
0.09767	6.07144	0.0229383	1.25548	0.292788	18.1185	0.495444	29.6629	0.567725	34.4672	0.843619	51.7002	0.172416	10.6528	0.429391	26.2468	0.704934	42.3344
0.103275	6.06839	0.0248431	1.29376	0.29431	17.2198	0.495975	28.1258	0.568721	32.6792	0.844215	48.9422	0.174477	10.412	0.430559	24.9001	0.705638	40.1313
0.10887	6.06513	0.0267768	1.32993	0.295906	16.4182	0.496541	26.7449	0.569768	31.0757	0.844844	46.4687	0.176136	10.2346	0.431788	23.6945	0.706381	38.1519
0.114455	6.06165	0.028736	1.36412	0.297575	15.6992	0.497142	25.4977	0.570866	29.63	0.845505	44.238	0.177371	10.1109	0.433076	22.6092	0.70716	36.3641
0.12003	6.05796	0.0307174	1.39642	0.299314	15.0512	0.497779	24.366	0.572015	28.3201	0.846198	42.2164	0.178169	10.0345	0.434425	21.6277	0.707977	34.7416
0.125593	6.05404	0.0327183	1.42694	0.301122	14.4644	0.498453	23.3348	0.573213	27.128	0.846924	40.3758	0.179325	9.92845	0.435832	20.7359	0.70883	33.2627
0.131143	6.04989	0.0347362	1.45579	0.302997	13.931	0.499165	22.3915	0.57446	26.0389	0.847681	38.6933	0.180593	9.81781	0.437297	19.9225	0.70972	31.9094
0.13668	6.04549	0.0367687	1.48306	0.304938	13.4443	0.499915	21.5255	0.575756	25.0402	0.848471	37.1494	0.182338	9.67466	0.438819	19.1778	0.710647	30.6665
0.142203	6.04084	0.0385504	1.50562	0.306942	12.9988	0.500705	20.728	0.577101	24.1212	0.849293	35.728	0.184577	9.50481	0.440399	18.4938	0.711611	29.5211
0.147712	6.03593	0.0400761	1.52401	0.30901	12.5896	0.501536	19.9913	0.578492	23.2731	0.850147	34.415	0.187329	9.31457	0.442034	17.8636	0.71261	28.4625
0.153204	6.03076	0.0413419	1.53866	0.311137	12.2127	0.502408	19.309	0.579931	22.4881	0.851032	33.1987	0.190618	9.11032	0.443725	17.2812	0.713646	27.4812
0.158679	6.0253	0.0423453	1.5499	0.313324	11.8646	0.503323	18.6754	0.581417	21.7596	0.851949	32.0689	0.194468	8.89809	0.44547	16.7417	0.714718	26.5692
0.164136	6.01954	0.0430844	1.55798	0.315569	11.5424	0.504281	18.0857	0.582949	21.0818	0.852898	31.0169	0.198393	8.70653	0.447268	16.2406	0.715825	25.7196
0.169573	6.01348	0.0435579	1.56306	0.317869	11.2434	0.505284	17.5358	0.584526	20.4498	0.853877	30.0348	0.20239	8.53302	0.44912	15.7742	0.716968	24.9262
0.17499	6.00711	0.0442393	1.57027	0.319919	11	0.506332	17.0218	0.586148	19.8592	0.854889	29.1162	0.206452	8.37531	0.451024	15.3391	0.718146	24.1838
0.180385	6.0004	0.0449809	1.57795	0.321698	10.804	0.507427	16.5405	0.587815	19.3063	0.855931	28.2551	0.210577	8.23151	0.45298	14.9325	0.719359	23.4878
0.185757	5.99334	0.0459909	1.58817	0.323191	10.6495	0.50857	16.0891	0.589526	18.7875	0.857004	27.4464	0.21476	8.10002	0.454986	14.5517	0.720608	22.8339
0.191104	5.98592	0.0472704	1.60072	0.324385	10.5318	0.509761	15.6651	0.59128	18.3001	0.858108	26.6855	0.218997	7.97944	0.457042	14.1945	0.72189	22.2186
0.196425	5.97813	0.0488206	1.61535	0.325271	10.4477	0.511002	15.2661	0.593077	17.8412	0.859243	25.9684	0.223286	7.86857	0.459147	13.8588	0.723207	21.6386
0.201718	5.96994	0.0506428	1.63181	0.325841	10.3949	0.512294	14.8902	0.594916	17.4086	0.860409	25.2915	0.227622	7.76639	0.4613	13.543	0.724559	21.0911
0.206981	5.96133	0.052738	1.64979	0.326666	10.3204	0.513637	14.5357	0.596798	17.0002	0.861604	24.6515	0.232003	7.67198	0.463501	13.2453	0.725944	20.5734
0.212213	5.95229	0.054837	1.66687	0.327568	10.2413	0.515033	14.2007	0.598721	16.614	0.862831	24.0456	0.236426	7.58456	0.465748	12.9643	0.727363	20.0834
0.217411	5.94279	0.056939	1.6831	0.328806	10.1365	0.516483	13.8841	0.600685	16.2485	0.864087	23.4712	0.240888	7.50344	0.468042	12.6988	0.728815	19.6188
0.222574	5.93282	0.0590436	1.69853	0.330387	10.0087	0.517988	13.5843	0.602689	15.9019	0.865373	22.9259	0.245387	7.42801	0.47038	12.4476	0.730301	19.1778
0.227699	5.92235	0.0611503	1.71322	0.332324	9.86064	0.519548	13.3002	0.604733	15.573	0.866689	22.4077	0.249921	7.35773	0.472762	12.2096	0.731819	18.7587
0.232784	5.91136	0.0632586	1.7272	0.33463	9.69549	0.521165	13.0308	0.606817	15.2605	0.868035	21.9146	0.254486	7.29213	0.475188	11.9839	0.73337	18.36
0.237827	5.89983	0.0653683	1.74053	0.337321	9.51655	0.52284	12.7751	0.60894	14.9633	0.86941	21.4449	0.259082	7.23077	0.477657	11.7696	0.734954	17.9802
0.242825	5.88774	0.0674789	1.75323	0.340058	9.34806	0.524573	12.5321	0.611101	14.6803	0.870814	20.997	0.263706	7.1733	0.480168	11.566	0.73657	17.6182
0.247776	5.87505	0.0695903	1.76535	0.342842	9.18922	0.526365	12.3012	0.6133	14.4106	0.872248	20.5695	0.268356	7.11936	0.48272	11.3722	0.738218	17.2727
0.252676	5.86175	0.0717021	1.77693	0.345671	9.03932	0.528217	12.0814	0.615537	14.1533	0.873711	20.161	0.273031	7.06866	0.484976	11.211	0.739897	16.9426
0.257523	5.8478	0.0738143	1.78799	0.348546	8.89771	0.530131	11.8721	0.617811	13.9077	0.875202	19.7704	0.277728	7.02092	0.486924	11.0787	0.741608	16.6271
0.262315	5.8332	0.0759264	1.79856	0.351466	8.76381	0.532105	11.6728	0.620122	13.6729	0.876722	19.3965	0.282447	6.97591	0.488551	10.9729	0.74335	16.3251
0.267048	5.81791	0.0780386	1.80868	0.354432	8.63711	0.534142	11.4828	0.622469	13.4484	0.87827	19.0383	0.287186	6.93339	0.489847	10.8913	0.745123	16.0359
0.271719	5.80191	0.0801506	1.81836	0.357443	8.51713	0.535968	11.3244	0.624852	13.2335	0.879847	18.6949	0.291942	6.89318	0.490806	10.8325	0.746926	15.7588
0.276325	5.78517	0.0822624	1.82764	0.360501	8.40344	0.537562	11.1944	0.62727	13.0277	0.881452	18.3654	0.296716	6.85509	0.491423	10.7953	0.74876	15.4929
0.280864	5.76769	0.0843738	1.83653	0.363606	8.29565	0.538907	11.0902	0.629724	12.8304	0.883085	18.0491	0.301505	6.81895	0.492312	10.7426	0.750623	15.2377
0.285332	5.74945	0.0864848	1.84506	0.366759	8.19341	0.539988	11.0099	0.632211	12.6411	0.884745	17.7451	0.306308	6.78462	0.493284	10.6862	0.752517	14.9926
0.289727	5.73042	0.0885953	1.85325	0.36996	8.0964	0.540792	10.952	0.634733	12.4594	0.886433	17.4528	0.311124	6.75196	0.494613	10.611	0.754439	14.757
0.294046	5.7106	0.0907052	1.86112	0.373211	8.00433	0.541311	10.9154	0.637289	12.2849	0.888149	17.1716	0.315953	6.72085	0.496306	10.5182	0.756391	14.5303
0.298285	5.68998	0.0928147	1.86868	0.376512	7.91694	0.542063	10.8635	0.639879	12.1172	0.889892	16.9009	0.320791	6.69117	0.498372	10.4093	0.758372	14.3122
0.302444	5.66856	0.0949235	1.87594	0.379865	7.83397	0.542888	10.808	0.642501	11.9559	0.891661	16.64	0.32564	6.66282	0.500821	10.286	0.760382	14.1022
0.306519	5.64634	0.0970316	1.88294	0.383271	7.7552	0.544023	10.7339	0.645156	11.8007	0.893458	16.3886	0.330497	6.6357	0.503664	10.1502	0.76242	13.8998
0.310509	5.62333	0.0991392	1.88967	0.386731	7.68043	0.545481	10.6425	0.647843	11.6513	0.895281	16.1461	0.335362	6.60973	0.506543	10.02	0.764486	13.7047
0.314412	5.59954	0.101246	1.89616	0.390247	7.60945	0.547276	10.5353	0.650211	11.5256	0.89713	15.9121	0.340233	6.58482	0.509455	9.89527	0.76658	13.5165
0.318227	5.57498	0.103352	1.90241	0.39382	7.5421	0.549428	10.4139	0.652248	11.4216	0.899006	15.6861	0.34511	6.5609	0.5124	9.77558	0.768701	13.3348
0.321953	5.54967	0.105458	1.90844	0.397451	7.4782	0.551957	10.2803	0.653946	11.3377	0.900907	15.4679	0.349991	6.5379	0.515379	9.66069	0.77085	13.1594
0.32559	5.52365	0.107563	1.91425	0.40114	7.41758	0.554552	10.1525	0.655297	11.2727	0.902835	15.2569	0.354877	6.51576	0.51839	9.55033	0.773025	12.9899
0.329137	5.49694	0.109667	1.91987	0.404889	7.36011	0.557211	10.0301	0.656294	11.2256	0.904788	15.0529	0.359765	6.49441	0.521432	9.44427	0.775228	12.8261
0.332595	5.46958	0.111771	1.92529	0.408699	7.30563	0.559935	9.91284	0.656935	11.1957	0.906767	14.8556	0.364655	6.47381	0.524505	9.34228	0.777456	12.6677
0.335964	5.44161	0.113874	1.93053	0.41257	7.25401	0.562723	9.80054	0.657859	11.1533	0.90877	14.6645	0.369546	6.45389	0.527608	9.24415	0.779711	12.5145
0.339245	5.41306	0.115976	1.9356	0.416501	7.2051	0.565575	9.69293	0.658867	11.1077	0.910799	14.4796	0.374438	6.43462	0.530742	9.14969	0.781992	12.3662
0.342439	5.38399	0.118078	1.9405	0.420493	7.15879	0.568491	9.58978	0.660244	11.0467	0.912853	14.3004	0.379329	6.41595	0.533904	9.05871	0.784298	12.2226
0.345548	5.35444	0.120179	1.94525	0.424546	7.11493	0.57147	9.49087	0.661996	10.9709	0.914931	14.1268	0.384219	6.39783	0.537095	8.97104	0.786629	12.0835
0.348574	5.32446	0.122279	1.94984	0.428659	7.07341	0.574512	9.396	0.664129	10.8815	0.917034	13.9585	0.389106	6.38023	0.540314	8.88651	0.788986	11.9486
0.351519	5.2941	0.124379	1.95429	0.432831	7.0341	0.577615	9.30497	0.666653	10.7794	0.919161	13.7952	0.393991	6.36311	0.543561	8.80499	0.79106	11.8345
0.354385	5.2634	0.126479	1.95861	0.43706	6.99689	0.58078	9.21761	0.669577	10.666	0.921312	13.6368	0.398871	6.34644	0.546835	8.72633	0.792842	11.7397
0.357174	5.23243	0.128577	1.96279	0.441345	6.96166	0.584006	9.13374	0.672531	10.5564	0.923487	13.483	0.403748	6.33019	0.550136	8.65039	0.794326	11.6628
0.35989	5.20122	0.130676	1.96685	0.445685	6.9283	0.587291	9.05321	0.675514	10.4504	0.925686	13.3338	0.408618	6.31431	0.553463	8.57705	0.795506	11.603
0.362534	5.16981	0.132773	1.97078	0.450078	6.8967	0.590636	8.97585	0.678525	10.3478	0.927908	13.1888	0.413483	6.2988	0.556816	8.5062	0.796378	11.5596
0.365109	5.13827	0.134871	1.9746	0.454521	6.86675	0.594038	8.90152	0.681565	10.2486	0.930153	13.0479	0.418341	6.28362	0.560195	8.43771	0.796937	11.5321
0.367618	5.10662	0.136967	1.97832	0.459013	6.83835	0.597497	8.83008	0.684634	10.1525	0.932421	12.911	0.423191	6.26874	0.563598	8.37149	0.797743	11.4928
0.370064	5.07492	0.139064	1.98192	0.463551	6.81141	0.601013	8.76139	0.68773	10.0594	0.934712	12.7779	0.428032	6.25415	0.567026	8.30744	0.798622	11.4506
0.372146	5.04727	0.141159	1.98543	0.468132	6.78583	0.604583	8.69534	0.690855	9.96925	0.937026	12.6484	0.432865	6.23981	0.570478	8.24547	0.799823	11.3939
0.373885	5.02371	0.143255	1.98884	0.472755	6.76152	0.608207	8.63179	0.694007	9.88188	0.939362	12.5224	0.437687	6.22571	0.573955	8.18549	0.801349	11.3233
0.3753	5.00424	0.145349	1.99215	0.477417	6.73841	0.611884	8.57065	0.697186	9.79718	0.941721	12.3999	0.442499	6.21183	0.577455	8.12742	0.803206	11.2396
0.376405	4.98886	0.147444	1.99538	0.482115	6.71639	0.615612	8.51179	0.700393	9.71505	0.944101	12.2806	0.447299	6.19814	0.580978	8.07117	0.805401	11.1438
0.377209	4.97756	0.149538	1.99852	0.486847	6.69541	0.619391	8.45512	0.703627	9.63538	0.946194	12.1792	0.452086	6.18464	0.584525	8.01668	0.807942	11.0366
0.37772	4.97034	0.151631	2.00157	0.491611	6.67539	0.623219	8.40053	0.706887	9.55809	0.94799	12.0945	0.456861	6.17129	0.588095	7.96387	0.810506	10.9325
0.378449	4.95996	0.153725	2.00455	0.496403	6.65626	0.627095	8.34794	0.710175	9.48307	0.949485	12.0258	0.461621	6.1581	0.591687	7.91268	0.813092	10.8313
0.379236	4.94869	0.155817	2.00745	0.501223	6.63796	0.631017	8.29725	0.713489	9.41025	0.950673	11.9722	0.466367	6.14503	0.595301	7.86305	0.8157	10.7328
0.380296	4.93339	0.15791	2.01028	0.506068	6.62043	0.634985	8.24837	0.716829	9.33954	0.951549	11.9332	0.471097	6.13208	0.598938	7.81491	0.818331	10.637
0.38162	4.91408	0.160002	2.01304	0.510935	6.60362	0.638997	8.20123	0.720196	9.27086	0.952111	11.9085	0.475811	6.11923	0.602597	7.76822	0.820983	10.5438
0.383197	4.8908	0.162094	2.01572	0.515823	6.58746	0.643053	8.15575	0.723589	9.20415	0.952922	11.8732	0.480508	6.10646	0.606278	7.72291	0.823657	10.4531
0.385016	4.86361	0.164185	2.01835	0.520729	6.57192	0.647149	8.11186	0.727008	9.13933	0.953805	11.8351	0.485187	6.09377	0.60998	7.67893	0.826352	10.3647
0.387061	4.83257	0.166276	2.02091	0.525652	6.55696	0.651287	8.06948	0.730453	9.07633	0.955011	11.7839	0.489847	6.08114	0.613704	7.63625	0.829069	10.2787
0.389064	4.80173	0.168367	2.02341	0.53059	6.54252	0.655463	8.02854	0.733924	9.0151	0.956542	11.72	0.494488	6.06856	0.61745	7.59481	0.831807	10.1949
0.391028	4.77111	0.170457	2.02585	0.535541	6.52857	0.659677	7.98899	0.737421	8.95556	0.958405	11.6441	0.499108	6.05602	0.621217	7.55457	0.834565	10.1132
0.392955	4.74072	0.172548	2.02823	0.540504	6.51507	0.663928	7.95075	0.740944	8.89767	0.960605	11.5568	0.503708	6.04351	0.625005	7.51548	0.837344	10.0336
0.394846	4.71058	0.174638	2.03056	0.545477	6.50199	0.668214	7.91378	0.744493	8.84137	0.963149	11.459	0.508285	6.03101	0.628814	7.47752	0.840143	9.95598
0.396703	4.68071	0.176727	2.03283	0.550459	6.4893	0.672534	7.87802	0.748068	8.78661	0.965713	11.3635	0.51284	6.01852	0.632645	7.44063	0.842963	9.8803
0.398529	4.65112	0.178817	2.03505	0.555447	6.47697	0.676886	7.8434	0.75167	8.73333	0.968298	11.2704	0.517372	6.00603	0.636497	7.40479	0.845802	9.80649
0.400324	4.62182	0.180906	2.03723	0.560442	6.46498	0.68127	7.80989	0.755297	8.6815	0.970902	11.1795	0.521879	5.99353	0.640369	7.36996	0.848661	9.73449
0.40209	4.59281	0.182994	2.03935	0.565441	6.45329	0.685685	7.77742	0.75895	8.63106	0.973526	11.0907	0.526361	5.98101	0.644263	7.33611	0.85154	9.66422
0.40383	4.56411	0.185083	2.04143	0.570444	6.44188	0.690128	7.74596	0.762629	8.58197	0.97617	11.004	0.530817	5.96846	0.648177	7.30321	0.854438	9.59565
0.405544	4.53572	0.187171	2.04347	0.575449	6.43074	0.694599	7.71546	0.766335	8.5342	0.978833	10.9194	0.535247	5.95588	0.652113	7.27122	0.857355	9.52871
0.407233	4.50764	0.189259	2.04546	0.580455	6.41985	0.699096	7.68588	0.770068	8.4877	0.981515	10.8367	0.53965	5.94325	0.656069	7.24012	0.860291	9.46335
0.4089	4.47989	0.191347	2.04741	0.585461	6.40917	0.703619	7.65717	0.773827	8.44243	0.984217	10.7558	0.544025	5.93058	0.660046	7.20988	0.863246	9.39952
0.410546	4.45247	0.193435	2.04932	0.590467	6.39871	0.708165	7.62929	0.777613	8.39837	0.986937	10.6769	0.548371	5.91785	0.664044	7.18047	0.86622	9.33718
0.412171	4.42538	0.195522	2.05118	0.595471	6.38843	0.712735	7.60221	0.781425	8.35547	0.989676	10.5997	0.552688	5.90507	0.668063	7.15187	0.869212	9.27627
0.413776	4.39862	0.19761	2.05301	0.600473	6.37834	0.717325	7.57589	0.785266	8.31371	0.992434	10.5242	0.556975	5.89222	0.672102	7.12406	0.872223	9.21676
0.415364	4.37219	0.199697	2.05481	0.605471	6.3684	0.721936	7.55029	0.789133	8.27305	0.995209	10.4504	0.561231	5.8793	0.676162	7.097	0.875252	9.1586
0.416935	4.3461	0.201784	2.05657	0.610465	6.35862	0.726566	7.52539	0.793029	8.23347	0.998003	10.3782	0.565457	5.8663	0.680242	7.07068	0.878299	9.10175
0.418489	4.32034	0.20387	2.05829	0.615454	6.34897	0.731214	7.50114	0.796952	8.19493	1.00082	10.3075	0.56965	5.85323	0.684343	7.04508	0.881364	9.04617
0.420028	4.29492	0.205957	2.05998	0.620437	6.33944	0.735878	7.47752	0.800903	8.15741			0.573811	5.84007	0.688464	7.02017	0.884446	8.99182
0.421553	4.26984	0.208043	2.06163	0.625414	6.33004	0.740558	7.4545	0.804884	8.12089			0.577939	5.82684	0.692605	6.99593	0.887546	8.93867
0.423065	4.24509	0.210129	2.06325	0.630384	6.32073	0.745252	7.43205	0.808893	8.08533			0.582034	5.81351	0.696766	6.97235	0.890664	8.88668
0.424564	4.22067	0.212215	2.06485	0.635346	6.31153	0.749959	7.41014	0.812932	8.05073			0.586095	5.8001	0.700947	6.94939	0.893799	8.83582
0.426051	4.19659	0.214301	2.06641	0.6403	6.30241	0.754678	7.38874	0.817	8.01704			0.590121	5.78659	0.705148	6.92705	0.896951	8.78606
0.427527	4.17283	0.216387	2.06794	0.645245	6.29337	0.759407	7.36783	0.821098	7.98426			0.594113	5.77299	0.709368	6.90531	0.900121	8.73737
0.428993	4.14941	0.218472	2.06945	0.65018	6.2844	0.764146	7.34739	0.825227	7.95236			0.59807	5.7593	0.713607	6.88414	0.903307	8.68971
0.430449	4.1263	0.220558	2.07092	0.655106	6.27549	0.768893	7.3274	0.829386	7.92133			0.601991	5.74551	0.717866	6.86353	0.90651	8.64306
0.431896	4.10352	0.222643	2.07237	0.660021	6.26664	0.773647	7.30782	0.833577	7.89113			0.605877	5.73164	0.722143	6.84347	0.90973	8.59738
0.433334	4.08106	0.224728	2.0738	0.664925	6.25785	0.778407	7.28864	0.837799	7.86176			0.609727	5.71766	0.726439	6.82393	0.912967	8.55267
0.434764	4.05892	0.226813	2.07519	0.669817	6.2491	0.783172	7.26983	0.842053	7.8332			0.613541	5.70359	0.730753	6.8049	0.91622	8.50887
0.436187	4.03709	0.228898	2.07657	0.674697	6.24038	0.787941	7.25139	0.84634	7.80542			0.617319	5.68943	0.735085	6.78636	0.919489	8.46598
0.437603	4.01556	0.230982	2.07792	0.679565	6.23171	0.792713	7.23328	0.850659	7.77842			0.62106	5.67518	0.739434	6.76829	0.922775	8.42397
0.439013	3.99435	0.233067	2.07924	0.68442	6.22306	0.797487	7.2155	0.855012	7.75218			0.624765	5.66084	0.743801	6.75069	0.926077	8.38282
0.440417	3.97344	0.235151	2.08054	0.689261	6.21443	0.802262	7.19802	0.859397	7.72667			0.628433	5.64641	0.748184	6.73353	0.929395	8.3425
0.441815	3.95283	0.237235	2.08182	0.694089	6.20583	0.807036	7.18084	0.863817	7.70189			0.632064	5.63189	0.752584	6.71681	0.93273	8.30299
0.443208	3.93251	0.23932	2.08308	0.698902	6.19724	0.81181	7.16392	0.868271	7.67782			0.635659	5.61729	0.756999	6.7005	0.936079	8.26426
0.444596	3.91249	0.241404	2.08432	0.703701	6.18866	0.816582	7.14727	0.872759	7.65444			0.639217	5.60261	0.76143	6.68459	0.939445	8.22631
0.445981	3.89275	0.243488	2.08553	0.708485	6.18009	0.821352	7.13087	0.877281	7.63174			0.642739	5.58784	0.765876	6.66907	0.942827	8.18911
0.447361	3.8733	0.245571	2.08673	0.713253	6.17153	0.826118	7.1147	0.881838	7.60971			0.646224	5.573	0.770336	6.65393	0.946224	8.15264
0.448738	3.85413	0.247655	2.08791	0.718005	6.16297	0.83088	7.09875	0.88643	7.58832			0.649673	5.55808	0.774811	6.63915	0.949637	8.11689
0.450111	3.83524	0.249739	2.08906	0.722741	6.1544	0.835638	7.08302	0.891057	7.56758			0.653086	5.5431	0.779299	6.62472	0.953065	8.08183
0.451482	3.81661	0.251822	2.0902	0.727461	6.14583	0.840391	7.06749	0.895719	7.54745			0.656463	5.52804	0.7838	6.61062	0.956508	8.04745
0.452849	3.79826	0.253906	2.09132	0.732164	6.13725	0.845138	7.05216	0.900415	7.52792			0.659804	5.51293	0.788313	6.59685	0.959967	8.01373
0.454215	3.78018	0.255989	2.09242	0.736849	6.12866	0.84988	7.03701	0.905147	7.50899			0.663109	5.49774	0.792838	6.58339	0.96344	7.98066
0.455578	3.76235	0.258072	2.09351	0.741517	6.12006	0.854615	7.02205	0.909913	7.49063			0.666379	5.48251	0.797375	6.57023	0.966929	7.94822
0.45694	3.74478	0.260155	2.09458	0.746167	6.11144	0.859343	7.00726	0.914713	7.47283			0.669614	5.46722	0.801922	6.55736	0.970433	7.91639
0.4583	3.72747	0.262238	2.09563	0.750798	6.10281	0.864065	6.99264	0.919548	7.45558			0.672814	5.45187	0.80648	6.54476	0.973952	7.88517
0.459659	3.7104	0.264321	2.09666	0.755412	6.09415	0.86878	6.97818	0.924417	7.43887			0.67598	5.43648	0.811047	6.53244	0.977486	7.85453
0.461017	3.69358	0.266404	2.09768	0.760006	6.08548	0.873488	6.96388	0.929319	7.42266			0.679112	5.42105	0.815623	6.52037	0.981034	7.82446
0.462373	3.67701	0.268487	2.09868	0.764581	6.07678	0.878189	6.94974	0.934255	7.40696			0.68221	5.40557	0.820208	6.50854	0.984597	7.79496
0.46373	3.66067	0.27057	2.09967	0.769137	6.06805	0.882883	6.93575	0.939223	7.39175			0.685274	5.39006	0.824801	6.49695	0.988175	7.766
0.465085	3.64456	0.272652	2.10065	0.773673	6.0593	0.887571	6.92191	0.944223	7.37701			0.688306	5.37452	0.829401	6.48559	0.991767	7.73757
0.46644	3.62869	0.274735	2.10161	0.778189	6.05052	0.892251	6.90821	0.949255	7.36273			0.691304	5.35895	0.834007	6.47444	0.995373	7.70967
0.467796	3.61304	0.276817	2.10255	0.782684	6.04171	0.896925	6.89467	0.954318	7.34889			0.694271	5.34335	0.83862	6.4635	0.998994	7.68227
0.469151	3.59762	0.2789	2.10348	0.78716	6.03286	0.901593	6.88126	0.959411	7.33548			0.697205	5.32773	0.843239	6.45276	1.00263	7.65538
0.470506	3.58242	0.280982	2.1044	0.791614	6.02399	0.906254	6.868	0.964534	7.32249			0.700108	5.31209	0.847863	6.44222		
0.471862	3.56744	0.283064	2.1053	0.796048	6.01508	0.91091	6.85489	0.969685	7.3099			0.702979	5.29644	0.852491	6.43185		
0.473218	3.55266	0.285146	2.10619	0.80046	6.00614	0.915561	6.84191	0.974865	7.29769			0.70582	5.28078	0.857123	6.42166		
0.474575	3.5381	0.287228	2.10707	0.804851	5.99716	0.920206	6.82908	0.980073	7.28586			0.708631	5.2651	0.861758	6.41163		
0.475932	3.52375	0.28931	2.10794	0.80922	5.98814	0.924846	6.81638	0.985307	7.27438			0.711412	5.24942	0.866397	6.40176		
0.477291	3.5096	0.291392	2.10879	0.813568	5.97909	0.929482	6.80383	0.990567	7.26326			0.714163	5.23374	0.871037	6.39205		
0.47865	3.49564	0.293474	2.10963	0.817893	5.97	0.934114	6.79142	0.995852	7.25246			0.716885	5.21807	0.87568	6.38248		
0.480011	3.48189	0.295556	2.11046	0.822196	5.96087	0.938742	6.77914	1.00116	7.24199			0.719579	5.20239	0.880323	6.37304		
0.481372	3.46833	0.297638	2.11128	0.826477	5.95171	0.943366	6.76701					0.722244	5.18673	0.884967	6.36374		
0.482735	3.45495	0.299719	2.11209	0.830735	5.9425	0.947988	6.75501					0.724882	5.17107	0.889612	6.35456		
0.4841	3.44177	0.301801	2.11289	0.834971	5.93325	0.952606	6.74316					0.727492	5.15543	0.894256	6.34551		
0.485466	3.42877	0.303883	2.11367	0.839183	5.92397	0.957223	6.73144					0.730076	5.1398	0.898899	6.33656		
0.486833	3.41595	0.305964	2.11445	0.843373	5.91465	0.961837	6.71986					0.732633	5.12419	0.903541	6.32772		
0.488203	3.40331	0.308046	2.11521	0.84754	5.90528	0.966449	6.70842					0.735164	5.1086	0.908181	6.31899		
0.489574	3.39084	0.310127	2.11597	0.851683	5.89588	0.97106	6.69711					0.73767	5.09304	0.912818	6.31035		
0.490946	3.37855	0.312208	2.11671	0.855804	5.88643	0.975669	6.68594					0.74015	5.0775	0.917453	6.3018		
0.492321	3.36642	0.31429	2.11745	0.8599	5.87695	0.980278	6.6749					0.742606	5.062	0.922085	6.29334		
0.493698	3.35447	0.316371	2.11818	0.863974	5.86743	0.984885	6.664					0.745037	5.04652	0.926713	6.28496		
0.495076	3.34267	0.318452	2.11889	0.868024	5.85787	0.989492	6.65323					0.747445	5.03108	0.931336	6.27666		
0.496457	3.33104	0.320533	2.1196	0.87205	5.84827	0.994099	6.64259					0.749829	5.01567	0.935955	6.26843		
0.49784	3.31957	0.322614	2.1203	0.876052	5.83863	0.998705	6.63208					0.75219	5.0003	0.940569	6.26027		
0.499225	3.30825	0.324695	2.12099	0.880031	5.82895	1.00331	6.6217					0.754529	4.98497	0.945178	6.25217		
0.500612	3.29709	0.326776	2.12167	0.883986	5.81924							0.756845	4.96969	0.94978	6.24413		
0.502002	3.28608	0.328857	2.12234	0.887918	5.80949							0.75914	4.95445	0.954377	6.23615		
0.503394	3.27521	0.330938	2.12301	0.891826	5.7997							0.761413	4.93925	0.958966	6.22822		
0.504788	3.2645	0.333019	2.12366	0.89571	5.78988							0.763666	4.9241	0.963549	6.22034		
0.506185	3.25392	0.3351	2.12431	0.89957	5.78002							0.765898	4.909	0.968124	6.21251		
0.507584	3.24349	0.337181	2.12495	0.903406	5.77013							0.768109	4.89395	0.972691	6.20472		
0.508986	3.2332	0.339261	2.12558	0.907219	5.7602							0.770301	4.87895	0.977249	6.19697		
0.510391	3.22305	0.341342	2.12621	0.911008	5.75024							0.772474	4.86401	0.981799	6.18926		
0.511797	3.21303	0.343423	2.12682	0.914773	5.74025							0.774628	4.84912	0.98634	6.18158		
0.513207	3.20314	0.345503	2.12743	0.918515	5.73023							0.776763	4.83429	0.990872	6.17393		
0.514619	3.19338	0.347584	2.12804	0.922233	5.72018							0.77888	4.81952	0.995394	6.16631		
0.516034	3.18375	0.349664	2.12863	0.925928	5.7101							0.780979	4.80481	0.999906	6.15871		
0.517451	3.17425	0.351745	2.12922	0.929599	5.69999							0.78306	4.79016	1.00441	6.15114		
0.518871	3.16487	0.353825	2.1298	0.933247	5.68985							0.785125	4.77557				
0.520294	3.15562	0.355905	2.13038	0.936871	5.67968							0.787172	4.76104				
0.521719	3.14648	0.357986	2.13094	0.940472	5.66949							0.789204	4.74658				
0.523147	3.13747	0.360066	2.13151	0.94405	5.65928							0.791219	4.73218				
0.524578	3.12857	0.362146	2.13206	0.947605	5.64903							0.793218	4.71785				
0.526012	3.11978	0.364227	2.13261	0.951137	5.63877							0.795202	4.70359				
0.527449	3.11111	0.366307	2.13315	0.954646	5.62849							0.797171	4.68939				
0.528888	3.10255	0.368387	2.13369	0.958133	5.61818							0.799126	4.67527				
0.53033	3.0941	0.370467	2.13422	0.961596	5.60785							0.801066	4.66121				
0.531775	3.08576	0.372547	2.13475	0.965037	5.5975							0.802991	4.64722				
0.533223	3.07752	0.374627	2.13527	0.968456	5.58714							0.804903	4.6333				
0.534674	3.06939	0.376707	2.13578	0.971852	5.57676							0.806802	4.61946				
0.536127	3.06136	0.378787	2.13629	0.975226	5.56636							0.808688	4.60568				
0.537584	3.05343	0.380867	2.13679	0.978577	5.55594							0.81056	4.59198				
0.539043	3.0456	0.382947	2.13729	0.981907	5.54551							0.81242	4.57835				
0.540505	3.03787	0.385027	2.13778	0.985215	5.53507							0.814268	4.5648				
0.54197	3.03024	0.387107	2.13827	0.988501	5.52461							0.816104	4.55132				
0.543438	3.0227	0.389187	2.13875	0.991765	5.51414							0.817928	4.53791				
0.544909	3.01525	0.391267	2.13923	0.995008	5.50366							0.81974	4.52458				
0.546382	3.0079	0.393347	2.1397	0.99823	5.49317							0.821542	4.51132				
0.547859	3.00064	0.395426	2.14016	1.00143	5.48268							0.823332	4.49814				
0.549338	2.99347	0.397506	2.14063									0.825112	4.48504				
0.55082	2.98638	0.399586	2.14108									0.826882	4.47201				
0.552305	2.97938	0.401665	2.14154									0.828641	4.45905				
0.553793	2.97247	0.403745	2.14198									0.83039	4.44618				
0.555284	2.96564	0.405825	2.14243									0.83213	4.43337				
0.556778	2.95889	0.407904	2.14287									0.83386	4.42065				
0.558274	2.95223	0.409984	2.1433									0.835581	4.408				
0.559773	2.94565	0.412063	2.14373									0.837294	4.39543				
0.561276	2.93914	0.414143	2.14415									0.838997	4.38294				
0.562781	2.93271	0.416222	2.14458									0.840692	4.37052				
0.564289	2.92636	0.418302	2.14499									0.842378	4.35818				
0.565799	2.92009	0.420381	2.14541									0.844057	4.34591				
0.567313	2.91389	0.422461	2.14582									0.845727	4.33372				
0.568829	2.90776	0.42454	2.14622									0.84739	4.32161				
0.570348	2.90171	0.426619	2.14662									0.849046	4.30958				
0.57187	2.89573	0.428699	2.14702									0.850694	4.29762				
0.573395	2.88981	0.430778	2.14741									0.852335	4.28574				
0.574923	2.88397	0.432857	2.1478									0.853969	4.27393				
0.576453	2.87819	0.434937	2.14819									0.855596	4.2622				
0.577986	2.87249	0.437016	2.14857									0.857216	4.25054				
0.579522	2.86684	0.439095	2.14895									0.858831	4.23897				
0.58106	2.86127	0.441174	2.14933									0.860439	4.22746				
0.582602	2.85576	0.443254	2.1497									0.862041	4.21603				
0.584146	2.85031	0.445333	2.15007									0.863637	4.20468				
0.585693	2.84492	0.447412	2.15043									0.865227	4.1934				
0.587242	2.8396	0.449491	2.15079									0.866812	4.1822				
0.588794	2.83433	0.45157	2.15115									0.868392	4.17107				
0.590349	2.82913	0.453649	2.15151									0.869966	4.16001				
0.591906	2.82398	0.455728	2.15186									0.871535	4.14903				
0.593467	2.8189	0.457807	2.15221									0.873099	4.13812				
0.59503	2.81387	0.459886	2.15255									0.874658	4.12729				
0.596595	2.80889	0.461965	2.1529									0.876212	4.11652				
0.598163	2.80398	0.464044	2.15323									0.877762	4.10583				
0.599734	2.79912	0.466123	2.15357									0.879308	4.09522				
0.601307	2.79431	0.468202	2.1539									0.880849	4.08467				
0.602883	2.78955	0.470281	2.15424									0.882386	4.0742				
0.604462	2.78485	0.47236	2.15456									0.883919	4.06379				
0.606043	2.7802	0.474439	2.15489									0.885449	4.05346				
0.607626	2.7756	0.476518	2.15521									0.886974	4.0432				
0.609213	2.77106	0.478597	2.15553									0.888496	4.03301				
0.610801	2.76656	0.480676	2.15584									0.890014	4.02288				
0.612392	2.76211	0.482755	2.15616									0.891528	4.01283				
0.613986	2.75771	0.484833	2.15647									0.89304	4.00285				
0.615583	2.75336	0.486912	2.15678									0.894548	3.99293				
0.617181	2.74905	0.488991	2.15708									0.896052	3.98308				
0.618782	2.74479	0.49107	2.15739									0.897554	3.9733				
0.620386	2.74058	0.493148	2.15769									0.899053	3.96359				
0.621992	2.73641	0.495227	2.15799									0.900549	3.95395				
0.623601	2.73229	0.497306	2.15828									0.902043	3.94437				
0.625212	2.72821	0.499385	2.15857									0.903533	3.93486				
0.626825	2.72418	0.501463	2.15887									0.905022	3.92541				
0.628441	2.72018	0.503542	2.15915									0.906507	3.91603				
0.630059	2.71623	0.505621	2.15944									0.907991	3.90671				
0.631679	2.71233	0.507699	2.15972									0.909472	3.89746				
0.633302	2.70846	0.509778	2.16001									0.91095	3.88827				
0.634928	2.70463	0.511856	2.16028									0.912427	3.87915				
0.636555	2.70085	0.513935	2.16056									0.913902	3.87009				
0.638185	2.6971	0.516014	2.16084									0.915375	3.86109				
0.639817	2.69339	0.518092	2.16111									0.916845	3.85216				
0.641452	2.68972	0.520171	2.16138									0.918314	3.84328				
0.643088	2.68609	0.522249	2.16165									0.919782	3.83447				
0.644727	2.6825	0.524328	2.16191									0.921247	3.82572				
0.646369	2.67894	0.526406	2.16218									0.922711	3.81703				
0.648012	2.67542	0.528485	2.16244									0.924174	3.80841				
0.649658	2.67194	0.530563	2.1627									0.925635	3.79984				
0.651306	2.66849	0.532642	2.16296									0.927094	3.79133				
0.652956	2.66508	0.53472	2.16321									0.928553	3.78288				
0.654608	2.6617	0.536799	2.16347									0.93001	3.77449				
0.656263	2.65836	0.538877	2.16372									0.931465	3.76616				
0.657919	2.65505	0.540955	2.16397									0.93292	3.75788				
0.659578	2.65177	0.543034	2.16422									0.934374	3.74966				
0.661239	2.64853	0.545112	2.16446									0.935826	3.7415				
0.662902	2.64532	0.547191	2.16471									0.937278	3.7334				
0.664567	2.64214	0.549269	2.16495									0.938728	3.72535				
0.666235	2.63899	0.551347	2.16519									0.940178	3.71736				
0.667904	2.63588	0.553426	2.16543									0.941627	3.70943				
0.669576	2.63279	0.555504	2.16567									0.943075	3.70155				
0.671249	2.62974	0.557582	2.1659									0.944523	3.69372				
0.672925	2.62672	0.55966	2.16613									0.94597	3.68595				
0.674602	2.62372	0.561739	2.16637									0.947416	3.67823				
0.676282	2.62076	0.563817	2.1666									0.948862	3.67057				
0.677964	2.61783	0.565895	2.16682									0.950307	3.66295				
0.679647	2.61492	0.567973	2.16705									0.951751	3.65539				
0.681333	2.61204	0.570052	2.16728									0.953196	3.64789				
0.68302	2.60919	0.57213	2.1675									0.954639	3.64043				
0.68471	2.60637	0.574208	2.16772									0.956083	3.63303				
0.686402	2.60357	0.576286	2.16794									0.957526	3.62568				
0.688095	2.60081	0.578365	2.16816									0.958969	3.61838				
0.689791	2.59807	0.580443	2.16838									0.960412	3.61113				
0.691488	2.59535	0.582521	2.16859									0.961854	3.60392				
0.693187	2.59266	0.584599	2.16881									0.963297	3.59677				
0.694888	2.59	0.586677	2.16902									0.964739	3.58967				
0.696591	2.58736	0.588755	2.16923									0.966181	3.58262				
0.698296	2.58475	0.590833	2.16944									0.967623	3.57561				
0.700003	2.58216	0.592911	2.16965									0.969065	3.56865				
0.701712	2.5796	0.59499	2.16985									0.970507	3.56174				
0.703422	2.57706	0.597068	2.17006									0.97195	3.55488				
0.705134	2.57455	0.599146	2.17026									0.973392	3.54807				
0.706848	2.57206	0.601224	2.17047									0.974834	3.5413				
0.708564	2.56959	0.603302	2.17067									0.976277	3.53457				
0.710282	2.56714	0.60538	2.17087									0.97772	3.5279				
0.712001	2.56472	0.607458	2.17106									0.979162	3.52127				
0.713723	2.56232	0.609536	2.17126									0.980606	3.51468				
0.715446	2.55995	0.611614	2.17146									0.982049	3.50814				
0.71717	2.55759	0.613692	2.17165									0.983493	3.50164				
0.718897	2.55526	0.61577	2.17184									0.984937	3.49519				
0.720625	2.55295	0.617848	2.17203									0.986381	3.48878				
0.722355	2.55066	0.619926	2.17223									0.987826	3.48241				
0.724087	2.54839	0.622004	2.17241									0.989271	3.47609				
0.72582	2.54614	0.624082	2.1726									0.990717	3.46981				
0.727555	2.54391	0.62616	2.17279									0.992163	3.46357				
0.729292	2.5417	0.628238	2.17297									0.993609	3.45738				
0.73103	2.53951	0.630316	2.17316									0.995056	3.45122				
0.73277	2.53735	0.632394	2.17334									0.996504	3.44511				
0.734512	2.5352	0.634471	2.17352									0.997951	3.43904				
0.736255	2.53307	0.636549	2.1737									0.9994	3.43301				
0.738	2.53096	0.638627	2.17388									1.00085	3.42702				
0.739746	2.52887	0.640705	2.17406														
0.741495	2.5268	0.642783	2.17424														
0.743244	2.52474	0.644861	2.17441														
0.744996	2.52271	0.646939	2.17459														
0.746748	2.52069	0.649016	2.17476														
0.748503	2.51869	0.651094	2.17493														
0.750259	2.51671	0.653172	2.1751														
0.752016	2.51475	0.65525	2.17527														
0.753775	2.5128	0.657328	2.17544														
0.755536	2.51087	0.659406	2.17561														
0.757298	2.50896	0.661483	2.17578														
0.759062	2.50706	0.663561	2.17594														
0.760827	2.50518	0.665639	2.17611														
0.762593	2.50332	0.667717	2.17627														
0.764361	2.50147	0.669794	2.17644														
0.766131	2.49964	0.671872	2.1766														
0.767902	2.49783	0.67395	2.17676														
0.769674	2.49603	0.676028	2.17692														
0.771448	2.49425	0.678105	2.17708														
0.773224	2.49248	0.680183	2.17724														
0.775	2.49072	0.682261	2.17739														
0.776779	2.48899	0.684338	2.17755														
0.778558	2.48726	0.686416	2.1777														
0.780339	2.48555	0.688494	2.17786														
0.782121	2.48386	0.690571	2.17801														
0.783905	2.48218	0.692649	2.17816														
0.78569	2.48052	0.694727	2.17831														
0.787477	2.47886	0.696804	2.17847														
0.789264	2.47723	0.698882	2.17861														
0.791054	2.4756	0.70096	2.17876														
0.792844	2.47399	0.703037	2.17891														
0.794636	2.4724	0.705115	2.17906														
0.796429	2.47081	0.707192	2.1792														
0.798223	2.46924	0.70927	2.17935														
0.800019	2.46768	0.711348	2.17949														
0.801816	2.46614	0.713425	2.17964														
0.803615	2.46461	0.715503	2.17978														
0.805414	2.46309	0.71758	2.17992														
0.807215	2.46158	0.719658	2.18006														
0.809017	2.46009	0.721735	2.1802														
0.810821	2.45861	0.723813	2.18034														
0.812625	2.45714	0.72589	2.18048														
0.814431	2.45568	0.727968	2.18062														
0.816238	2.45424	0.730046	2.18075														
0.818047	2.4528	0.732123	2.18089														
0.819856	2.45138	0.7342	2.18103														
0.821667	2.44997	0.736278	2.18116														
0.823479	2.44857	0.738355	2.18129														
0.825292	2.44718	0.740433	2.18143														
0.827107	2.4458	0.74251	2.18156														
0.828922	2.44444	0.744588	2.18169														
0.830739	2.44308	0.746665	2.18182														
0.832557	2.44174	0.748743	2.18195														
0.834376	2.44041	0.75082	2.18208														
0.836196	2.43908	0.752898	2.18221														
0.838017	2.43777	0.754975	2.18234														
0.83984	2.43647	0.757053	2.18247														
0.841664	2.43518	0.75913	2.18259														
0.843488	2.4339	0.761207	2.18272														
0.845314	2.43262	0.763285	2.18284														
0.847141	2.43136	0.765362	2.18297														
0.848969	2.43011	0.767439	2.18309														
0.850799	2.42887	0.769517	2.18322														
0.852629	2.42764	0.771594	2.18334														
0.85446	2.42642	0.773672	2.18346														
0.856293	2.4252	0.775749	2.18358														
0.858126	2.424	0.777826	2.1837														
0.859961	2.4228	0.779904	2.18382														
0.861796	2.42162	0.781981	2.18394														
0.863633	2.42044	0.784058	2.18406														
0.865471	2.41928	0.786136	2.18418														
0.86731	2.41812	0.788213	2.18429														
0.869149	2.41697	0.79029	2.18441														
0.87099	2.41583	0.792368	2.18453														
0.872832	2.4147	0.794445	2.18464														
0.874675	2.41358	0.796522	2.18476														
0.876519	2.41246	0.798599	2.18487														
0.878364	2.41136	0.800677	2.18498														
0.88021	2.41026	0.802754	2.1851														
0.882056	2.40917	0.804831	2.18521														
0.883904	2.40809	0.806908	2.18532														
0.885753	2.40702	0.808986	2.18543														
0.887603	2.40595	0.811063	2.18554														
0.889454	2.4049	0.81314	2.18565														
0.891306	2.40385	0.815217	2.18576														
0.893158	2.40281	0.817295	2.18587														
0.895012	2.40177	0.819372	2.18598														
0.896867	2.40075	0.821449	2.18609														
0.898722	2.39973	0.823526	2.1862														
0.900579	2.39872	0.825603	2.1863														
0.902436	2.39772	0.827681	2.18641														
0.904294	2.39672	0.829758	2.18652														
0.906154	2.39573	0.831835	2.18662														
0.908014	2.39475	0.833912	2.18673														
0.909875	2.39378	0.835989	2.18683														
0.911737	2.39281	0.838067	2.18693														
0.9136	2.39185	0.840144	2.18704														
0.915463	2.3909	0.842221	2.18714														
0.917328	2.38995	0.844298	2.18724														
0.919193	2.38901	0.846375	2.18734														
0.92106	2.38808	0.848452	2.18744														
0.922927	2.38716	0.850529	2.18754														
0.924795	2.38624	0.852606	2.18764														
0.926664	2.38533	0.854684	2.18774														
0.928534	2.38442	0.856761	2.18784														
0.930405	2.38352	0.858838	2.18794														
0.932276	2.38263	0.860915	2.18804														
0.934149	2.38174	0.862992	2.18814														
0.936022	2.38086	0.865069	2.18823														
0.937896	2.37999	0.867146	2.18833														
0.939771	2.37912	0.869223	2.18843														
0.941647	2.37826	0.8713	2.18852														
0.943523	2.37741	0.873377	2.18862														
0.945401	2.37656	0.875454	2.18871														
0.947279	2.37572	0.877531	2.18881														
0.949158	2.37488	0.879608	2.1889														
0.951037	2.37405	0.881686	2.18899														
0.952918	2.37322	0.883763	2.18909														
0.954799	2.3724	0.88584	2.18918														
0.956681	2.37159	0.887917	2.18927														
0.958564	2.37078	0.889994	2.18936														
0.960448	2.36998	0.892071	2.18946														
0.962332	2.36918	0.894148	2.18955														
0.964218	2.36839	0.896225	2.18964														
0.966104	2.36761	0.898302	2.18973														
0.96799	2.36683	0.900379	2.18982														
0.969878	2.36605	0.902455	2.1899														
0.971766	2.36528	0.904532	2.18999														
0.973655	2.36452	0.906609	2.19008														
0.975545	2.36376	0.908686	2.19017														
0.977435	2.363	0.910763	2.19026														
0.979327	2.36226	0.91284	2.19034														
0.981219	2.36151	0.914917	2.19043														
0.983111	2.36077	0.916994	2.19052														
0.985005	2.36004	0.919071	2.1906														
0.986899	2.35931	0.921148	2.19069														
0.988793	2.35859	0.923225	2.19077														
0.990689	2.35787	0.925302	2.19086														
0.992585	2.35716	0.927379	2.19094														
0.994482	2.35645	0.929456	2.19103														
0.99638	2.35574	0.931533	2.19111														
0.998278	2.35504	0.933609	2.19119														
1.00018	2.35435	0.935686	2.19128														
		0.937763	2.19136														
		0.93984	2.19144														
		0.941917	2.19152														
		0.943994	2.1916														
		0.946071	2.19168														
		0.948147	2.19177														
		0.950224	2.19185														
		0.952301	2.19193														
		0.954378	2.19201														
		0.956455	2.19208														
		0.958532	2.19216														
		0.960608	2.19224														
		0.962685	2.19232														
		0.964762	2.1924														
		0.966839	2.19247														
		0.968916	2.19255														
		0.970992	2.19263														
		0.973069	2.19271														
		0.975146	2.19278														
		0.977223	2.19286														
		0.9793	2.19293														
		0.981376	2.19301														
		0.983453	2.19308														
		0.98553	2.19316														
		0.987607	2.19323														
		0.989683	2.19331														
		0.99176	2.19338														
		0.993837	2.19345														
		0.995914	2.19352														
		0.99799	2.1936														
		1.00007	2.19367														
