Sym0		Asym0		Sym1		Sym2		Sym3		Sym4		Asym1		Asym2		Asym3	
465  Points		495  Points		220  Points		187  Points		174  Points		121  Points		326  Points		199  Points		163  Points	
Freq (MHz)	Vph (m/ms)	Freq (MHz)	Vph (m/ms)	Freq (MHz)	Vph (m/ms)	Freq (MHz)	Vph (m/ms)	Freq (MHz)	Vph (m/ms)	Freq (MHz)	Vph (m/ms)	Freq (MHz)	Vph (m/ms)	Freq (MHz)	Vph (m/ms)	Freq (MHz)	Vph (m/ms)
0.0043016	5.49144	0.000325989	0.160887	0.279509	1976.11	0.480548	556.878	0.559024	1116.84	0.838535	1089.05	0.139773	355.192	0.419267	1163.37	0.698771	16543.8
0.00941769	5.49129	0.000692014	0.233955	0.279557	260.504	0.480578	267.787	0.559071	390.348	0.838571	492.795	0.139965	105.617	0.419315	324.526	0.698788	717.491
0.0145333	5.49108	0.00119027	0.306014	0.279677	139.501	0.480629	176.292	0.559164	236.54	0.838634	318.465	0.140363	62.1927	0.419417	188.605	0.698837	366.723
0.0196482	5.49076	0.00181663	0.376795	0.279869	95.3062	0.480702	131.411	0.559303	169.711	0.838723	235.263	0.140966	44.2093	0.419573	132.967	0.698916	246.33
0.0247622	5.49037	0.00256616	0.446058	0.280134	72.4194	0.480796	104.755	0.559487	132.35	0.83884	186.544	0.141769	34.4074	0.419783	102.707	0.699027	185.467
0.0298748	5.48986	0.00343304	0.513569	0.280471	58.4325	0.480911	87.0994	0.559717	108.493	0.838984	154.553	0.142767	28.2596	0.420046	83.6935	0.69917	148.737
0.0349859	5.48927	0.00441111	0.579162	0.28088	49.0054	0.481049	74.5453	0.559992	91.942	0.839155	131.94	0.143956	24.058	0.420364	70.6427	0.699343	124.164
0.0400951	5.48858	0.00549377	0.642692	0.28136	42.2253	0.481208	65.1619	0.560313	79.7893	0.839353	115.109	0.145328	21.0151	0.420735	61.1333	0.699548	106.572
0.0452022	5.48778	0.00667412	0.704039	0.281911	37.118	0.481389	57.8836	0.560678	70.4892	0.839578	102.095	0.146876	18.7173	0.421159	53.8984	0.699784	93.3568
0.050307	5.48689	0.00794543	0.763143	0.282532	33.135	0.481592	52.0742	0.561089	63.1444	0.83983	91.7323	0.148593	16.9264	0.421637	48.211	0.700051	83.0675
0.0554092	5.4859	0.00930067	0.819938	0.283223	29.944	0.481818	47.3304	0.561544	57.1983	0.840109	83.2869	0.15047	15.4957	0.422167	43.6243	0.700349	74.8301
0.0605083	5.48482	0.0107333	0.874416	0.283982	27.332	0.482067	43.3842	0.562044	52.2871	0.840414	76.2722	0.152501	14.3299	0.422751	39.8482	0.700678	68.0873
0.0656042	5.48362	0.0122368	0.926571	0.28481	25.1559	0.482339	40.0505	0.562588	48.1631	0.840747	70.3535	0.154677	13.3644	0.423387	36.6863	0.701038	62.4668
0.0706965	5.48232	0.013805	0.97643	0.285705	23.3162	0.482635	37.1974	0.563176	44.6519	0.841106	65.2931	0.15699	12.5537	0.424075	34.001	0.701429	57.7105
0.0757849	5.48091	0.0154321	1.02403	0.286666	21.7415	0.482955	34.7283	0.563808	41.627	0.841492	60.9172	0.159433	11.865	0.424815	31.6928	0.701851	53.6339
0.080869	5.4794	0.0171124	1.06942	0.287693	20.3794	0.4833	32.571	0.564483	38.9945	0.841904	57.0961	0.161999	11.2742	0.425606	29.6883	0.702304	50.1014
0.0859486	5.47777	0.0188412	1.11267	0.288784	19.1902	0.483669	30.6701	0.565202	36.6832	0.842343	53.7309	0.164328	10.8247	0.426449	27.9318	0.702788	47.0112
0.0910233	5.47603	0.0206134	1.15384	0.289939	18.1436	0.484063	28.9828	0.565963	34.638	0.842809	50.7448	0.16638	10.482	0.427343	26.3805	0.703302	44.2856
0.0960926	5.47417	0.0224249	1.19302	0.291157	17.216	0.484484	27.4753	0.566767	32.816	0.843302	48.0775	0.16812	10.223	0.428288	25.0009	0.703847	41.8639
0.101156	5.47219	0.0242716	1.23028	0.292436	16.3888	0.48493	26.1205	0.567614	31.1829	0.843821	45.6806	0.169523	10.0322	0.429282	23.7664	0.704422	39.6982
0.106214	5.47009	0.0261497	1.26571	0.293775	15.6468	0.485404	24.8966	0.568503	29.711	0.844366	43.5154	0.17057	9.89924	0.430327	22.6556	0.705028	37.7502
0.111265	5.46786	0.028056	1.29938	0.295173	14.978	0.485905	23.7856	0.569433	28.3778	0.844938	41.5498	0.171245	9.81713	0.431421	21.6512	0.705664	35.9889
0.116309	5.4655	0.0299875	1.33139	0.296629	14.3724	0.486434	22.7729	0.570404	27.1649	0.845536	39.7576	0.172226	9.70306	0.432563	20.7388	0.70633	34.3888
0.121346	5.46301	0.0319415	1.36181	0.298141	13.8218	0.486991	21.8461	0.571417	26.057	0.846161	38.1171	0.173303	9.58406	0.433754	19.9067	0.707026	32.929
0.126375	5.46038	0.0339153	1.39072	0.29971	13.3192	0.487577	20.9949	0.57247	25.0411	0.846811	36.6099	0.174786	9.43008	0.434993	19.1449	0.707752	31.592
0.131396	5.4576	0.0359069	1.41821	0.301332	12.8589	0.488194	20.2106	0.573563	24.1065	0.847488	35.2205	0.176691	9.24733	0.43628	18.4452	0.708508	30.363
0.136407	5.45468	0.0379143	1.44434	0.303008	12.4359	0.48884	19.4858	0.574696	23.2439	0.848191	33.9357	0.179038	9.04259	0.437614	17.8004	0.709294	29.2296
0.14141	5.4516	0.0399354	1.46919	0.304735	12.0462	0.489518	18.8141	0.575868	22.4455	0.848919	32.7443	0.181847	8.82268	0.438994	17.2045	0.710109	28.1812
0.146402	5.44836	0.0419689	1.49283	0.306513	11.6861	0.490227	18.19	0.57708	21.7045	0.849674	31.6365	0.185142	8.59406	0.44042	16.6524	0.710954	27.2087
0.151383	5.44496	0.0437498	1.5125	0.30834	11.3525	0.490968	17.6087	0.57833	21.0151	0.850454	30.6039	0.188509	8.3876	0.441891	16.1395	0.711829	26.3042
0.156354	5.44139	0.0452737	1.5286	0.310215	11.0427	0.491743	17.0662	0.579619	20.3722	0.851261	29.6391	0.191943	8.20046	0.443408	15.6619	0.712732	25.461
0.161312	5.43764	0.0465376	1.54149	0.311888	10.7904	0.492551	16.5588	0.580945	19.7714	0.852092	28.7359	0.195441	8.03028	0.444969	15.2163	0.713665	24.6731
0.166258	5.4337	0.0475391	1.55141	0.313341	10.5872	0.493393	16.0834	0.582309	19.2088	0.85295	27.8886	0.199	7.87501	0.446573	14.7996	0.714626	23.9354
0.17119	5.42957	0.0482767	1.55855	0.314562	10.4268	0.494271	15.6371	0.583711	18.6809	0.853833	27.0921	0.202614	7.73294	0.448221	14.4093	0.715617	23.2432
0.176109	5.42524	0.0487492	1.56306	0.315539	10.3046	0.495185	15.2175	0.585149	18.1847	0.854741	26.3422	0.206282	7.60259	0.449912	14.0431	0.716636	22.5927
0.181012	5.42071	0.049429	1.56946	0.316264	10.2173	0.496135	14.8223	0.586623	17.7175	0.855674	25.6349	0.210001	7.48269	0.451645	13.6988	0.717684	21.9801
0.185899	5.41595	0.0501689	1.57629	0.316731	10.1624	0.497122	14.4496	0.588134	17.2769	0.856633	24.9667	0.213766	7.37212	0.45342	13.3747	0.718759	21.4023
0.190769	5.41096	0.0511763	1.5854	0.317406	10.085	0.498148	14.0976	0.58968	16.8609	0.857617	24.3346	0.217576	7.26994	0.455235	13.069	0.719864	20.8566
0.195621	5.40574	0.0524525	1.59663	0.318145	10.0028	0.499212	13.7648	0.591261	16.4674	0.858625	23.7357	0.221429	7.17528	0.457091	12.7805	0.720996	20.3403
0.200455	5.40026	0.0539984	1.60977	0.319159	9.89386	0.500316	13.4497	0.592877	16.0948	0.859659	23.1676	0.225321	7.08743	0.458987	12.5077	0.722156	19.8513
0.205268	5.39452	0.0558154	1.62462	0.320456	9.76088	0.50146	13.1511	0.594528	15.7414	0.860717	22.628	0.229251	7.00572	0.460922	12.2494	0.723343	19.3874
0.210059	5.38851	0.0579045	1.64092	0.322044	9.60674	0.502645	12.8677	0.596212	15.406	0.8618	22.1148	0.233216	6.9296	0.462896	12.0046	0.724559	18.9468
0.214829	5.38222	0.0599973	1.6565	0.323937	9.43468	0.503871	12.5986	0.597931	15.0872	0.862908	21.6261	0.237214	6.85854	0.464908	11.7723	0.725801	18.5279
0.219574	5.37562	0.0620933	1.67137	0.326145	9.24806	0.50514	12.3428	0.599682	14.7838	0.86404	21.1604	0.241245	6.7921	0.466957	11.5517	0.727071	18.1291
0.224294	5.36871	0.064192	1.68559	0.328393	9.07211	0.506453	12.0994	0.601467	14.4949	0.865196	20.716	0.245305	6.72987	0.469044	11.3419	0.728368	17.7491
0.228986	5.36147	0.066293	1.69919	0.330679	8.90603	0.507809	11.8677	0.603284	14.2194	0.866377	20.2916	0.249393	6.67151	0.471167	11.1422	0.729691	17.3866
0.233651	5.35389	0.068396	1.7122	0.333002	8.74906	0.509209	11.6468	0.605134	13.9565	0.867581	19.8859	0.253508	6.61667	0.473046	10.9759	0.731042	17.0405
0.238285	5.34595	0.0705005	1.72466	0.335362	8.60054	0.510655	11.4362	0.607015	13.7054	0.86881	19.4977	0.257648	6.56508	0.474669	10.8395	0.732418	16.7097
0.242887	5.33763	0.0726063	1.7366	0.337758	8.45986	0.512147	11.2352	0.608928	13.4653	0.870063	19.1259	0.261811	6.51647	0.476025	10.7302	0.733821	16.3933
0.247456	5.32892	0.0747132	1.74803	0.340191	8.32648	0.513485	11.0674	0.610872	13.2356	0.871339	18.7695	0.265997	6.47061	0.477107	10.646	0.73525	16.0903
0.251988	5.31979	0.0768208	1.759	0.342658	8.19988	0.514654	10.9295	0.612847	13.0157	0.872639	18.4277	0.270205	6.42728	0.477908	10.5853	0.736705	15.8
0.256483	5.31023	0.078929	1.76952	0.345162	8.07964	0.51564	10.819	0.614852	12.8049	0.873962	18.0995	0.274431	6.38629	0.478423	10.5469	0.738186	15.5216
0.260938	5.30023	0.0810378	1.77963	0.3477	7.96533	0.516432	10.7337	0.616888	12.6027	0.875309	17.7843	0.278677	6.34747	0.479166	10.4925	0.739692	15.2544
0.265351	5.28976	0.0831468	1.78933	0.350273	7.85659	0.517022	10.6721	0.618953	12.4087	0.876679	17.4812	0.28294	6.31065	0.479977	10.4343	0.741223	14.9978
0.269719	5.2788	0.0852558	1.79866	0.352881	7.75307	0.517403	10.6333	0.621047	12.2224	0.878072	17.1896	0.28722	6.27569	0.481088	10.3565	0.74278	14.7512
0.274041	5.26733	0.087365	1.80762	0.355525	7.65447	0.517955	10.5781	0.623171	12.0434	0.879488	16.9089	0.291515	6.24246	0.482504	10.2606	0.744361	14.5141
0.278314	5.25535	0.0894741	1.81625	0.358204	7.5605	0.51856	10.5189	0.625323	11.8712	0.880927	16.6386	0.295825	6.21083	0.484233	10.148	0.745967	14.2859
0.282535	5.24282	0.0915831	1.82455	0.36092	7.4709	0.519394	10.44	0.627504	11.7056	0.882388	16.378	0.300148	6.1807	0.486285	10.0205	0.747598	14.0661
0.286703	5.22974	0.0936918	1.83255	0.363672	7.38544	0.520465	10.3426	0.629713	11.5461	0.883873	16.1266	0.304484	6.15195	0.488668	9.87993	0.749253	13.8544
0.290814	5.21608	0.0958002	1.84025	0.366462	7.3039	0.521786	10.2281	0.63195	11.3925	0.885379	15.8841	0.308831	6.1245	0.491084	9.74519	0.750932	13.6503
0.294866	5.20184	0.0979082	1.84768	0.36929	7.22608	0.523369	10.0985	0.633922	11.2632	0.886908	15.6499	0.31319	6.09827	0.49353	9.61595	0.752634	13.4534
0.298858	5.187	0.100016	1.85484	0.372158	7.15181	0.525233	9.95545	0.635619	11.1562	0.88846	15.4237	0.317559	6.07316	0.496006	9.49189	0.754361	13.2633
0.302786	5.17155	0.102123	1.86175	0.375065	7.08091	0.527147	9.81834	0.637034	11.0698	0.890033	15.2051	0.321937	6.0491	0.498513	9.37274	0.756111	13.0799
0.306649	5.15549	0.10423	1.86842	0.378015	7.01323	0.529112	9.68684	0.638159	11.0029	0.891628	14.9937	0.326324	6.02604	0.501048	9.25824	0.757885	12.9026
0.310445	5.13881	0.106336	1.87487	0.381007	6.94863	0.531128	9.56067	0.638991	10.9543	0.893245	14.7892	0.330718	6.00389	0.503613	9.14814	0.759681	12.7312
0.314171	5.12151	0.108442	1.88109	0.384043	6.88698	0.533195	9.43956	0.639525	10.9236	0.894883	14.5912	0.33512	5.98261	0.506206	9.0422	0.7615	12.5655
0.317827	5.10359	0.110547	1.88711	0.387125	6.82816	0.535313	9.32328	0.640295	10.8799	0.896543	14.3996	0.339529	5.96215	0.508827	8.94023	0.763342	12.4052
0.321411	5.08506	0.112652	1.89294	0.390253	6.77204	0.537483	9.2116	0.641135	10.8329	0.898225	14.2139	0.343943	5.94244	0.511475	8.84201	0.765207	12.25
0.324921	5.06593	0.114756	1.89857	0.393429	6.71854	0.539704	9.10429	0.642284	10.77	0.899927	14.0339	0.348362	5.92344	0.51415	8.74736	0.767093	12.0997
0.328358	5.0462	0.11686	1.90403	0.396654	6.66753	0.541977	9.00117	0.643745	10.6919	0.901651	13.8594	0.352786	5.90511	0.516851	8.65611	0.769002	11.9542
0.331719	5.0259	0.118963	1.90931	0.39993	6.61893	0.544302	8.90203	0.645525	10.5996	0.903396	13.6902	0.357214	5.88741	0.519578	8.56809	0.770933	11.8131
0.335006	5.00505	0.121066	1.91443	0.403257	6.57264	0.546678	8.8067	0.647631	10.4943	0.905161	13.526	0.361645	5.8703	0.522331	8.48315	0.772885	11.6763
0.338218	4.98367	0.123168	1.91939	0.406636	6.52858	0.549106	8.715	0.650071	10.3771	0.906947	13.3665	0.366079	5.85374	0.525109	8.40114	0.774604	11.5605
0.341356	4.96178	0.125269	1.9242	0.410068	6.48666	0.551584	8.62677	0.652537	10.2638	0.908754	13.2118	0.370514	5.8377	0.527911	8.32193	0.776082	11.4641
0.34403	4.94232	0.12737	1.92886	0.413555	6.44679	0.554114	8.54187	0.655028	10.1542	0.910581	13.0614	0.374952	5.82215	0.530737	8.24538	0.777312	11.386
0.346265	4.92546	0.12947	1.93339	0.417095	6.4089	0.556694	8.46014	0.657543	10.0481	0.912428	12.9153	0.37939	5.80705	0.533588	8.17139	0.778291	11.3253
0.348083	4.91134	0.13157	1.93779	0.420689	6.37289	0.559325	8.38144	0.660083	9.9453	0.914295	12.7733	0.383829	5.79238	0.536461	8.09983	0.779014	11.2812
0.349502	4.90007	0.133669	1.94206	0.424337	6.33869	0.562006	8.30565	0.662647	9.84572	0.916182	12.6352	0.388267	5.77812	0.539358	8.03059	0.779478	11.2532
0.350534	4.89172	0.135768	1.94621	0.428039	6.30623	0.564736	8.23264	0.665235	9.7492	0.918089	12.5008	0.392705	5.76424	0.542277	7.96359	0.780147	11.2133
0.35119	4.88635	0.137866	1.95024	0.431794	6.27541	0.567515	8.1623	0.667846	9.65563	0.920015	12.3701	0.397141	5.75071	0.545219	7.89871	0.780877	11.1704
0.352127	4.8786	0.139964	1.95416	0.435602	6.24617	0.570343	8.0945	0.670481	9.56488	0.921961	12.2429	0.401576	5.73752	0.548182	7.83588	0.781874	11.1127
0.353136	4.87014	0.142061	1.95797	0.439461	6.21842	0.573219	8.02915	0.673138	9.47684	0.923926	12.1191	0.406008	5.72464	0.551168	7.775	0.783141	11.0409
0.354495	4.85856	0.144158	1.96168	0.443369	6.1921	0.576142	7.96613	0.675819	9.39139	0.925911	11.9985	0.410437	5.71205	0.554174	7.716	0.784684	10.9557
0.356191	4.8438	0.146255	1.96529	0.447327	6.16712	0.579112	7.90536	0.678522	9.30844	0.927656	11.8959	0.414863	5.69974	0.557201	7.65879	0.786508	10.8581
0.358207	4.8258	0.14835	1.9688	0.451331	6.14342	0.582128	7.84673	0.681248	9.22788	0.929154	11.8103	0.419284	5.68768	0.560249	7.60332	0.78862	10.749
0.360527	4.8045	0.150446	1.97223	0.455381	6.12092	0.58519	7.79017	0.683996	9.14963	0.930402	11.7408	0.423701	5.67587	0.563317	7.54949	0.790752	10.6429
0.363129	4.77983	0.152541	1.97556	0.459475	6.09955	0.588296	7.73557	0.686765	9.0736	0.931393	11.6866	0.428113	5.66428	0.566405	7.49727	0.792904	10.5397
0.365669	4.75495	0.154636	1.97881	0.46361	6.07926	0.591446	7.68288	0.689557	8.99969	0.932125	11.6471	0.43252	5.65289	0.569513	7.44657	0.795075	10.4393
0.36815	4.7299	0.15673	1.98198	0.467784	6.05996	0.59464	7.63199	0.69237	8.92784	0.932594	11.622	0.43692	5.64171	0.57264	7.39735	0.797266	10.3416
0.370572	4.70471	0.158823	1.98507	0.471997	6.04161	0.597876	7.58285	0.695204	8.85797	0.933271	11.5863	0.441314	5.6307	0.575787	7.34954	0.799475	10.2464
0.37294	4.67942	0.160917	1.98808	0.476245	6.02415	0.601153	7.53538	0.698059	8.79001	0.934008	11.5477	0.4457	5.61986	0.578953	7.3031	0.801704	10.1537
0.375254	4.65405	0.16301	1.99102	0.480527	6.00751	0.604472	7.48951	0.700936	8.72388	0.935015	11.4959	0.450079	5.60917	0.582137	7.25797	0.803951	10.0634
0.377518	4.62864	0.165102	1.99389	0.48484	5.99165	0.607831	7.44517	0.703833	8.65952	0.936295	11.4312	0.454449	5.59863	0.585341	7.21411	0.806217	9.97545
0.379733	4.60321	0.167195	1.99669	0.489184	5.97651	0.611228	7.40232	0.70675	8.59687	0.937852	11.3542	0.45881	5.58822	0.588562	7.17147	0.808502	9.8897
0.381901	4.57779	0.169286	1.99943	0.493554	5.96204	0.614665	7.36088	0.709688	8.53587	0.939691	11.2658	0.463162	5.57792	0.591802	7.13	0.810804	9.80611
0.384025	4.55241	0.171378	2.0021	0.497951	5.94821	0.618139	7.3208	0.712646	8.47646	0.941818	11.1665	0.467504	5.56774	0.595061	7.08967	0.813125	9.7246
0.386107	4.52709	0.173469	2.00471	0.502372	5.93496	0.621649	7.28202	0.715624	8.41858	0.943964	11.0697	0.471836	5.55766	0.598337	7.05044	0.815464	9.6451
0.388148	4.50184	0.17556	2.00726	0.506815	5.92227	0.625196	7.2445	0.718622	8.3622	0.946127	10.9751	0.476156	5.54767	0.601631	7.01227	0.81782	9.56753
0.390151	4.4767	0.177651	2.00975	0.511278	5.91008	0.628778	7.20819	0.72164	8.30725	0.948308	10.8828	0.480464	5.53775	0.604942	6.97513	0.820194	9.49184
0.392117	4.45167	0.179741	2.01219	0.515761	5.89837	0.632394	7.17303	0.724677	8.25369	0.950506	10.7926	0.484761	5.52791	0.608272	6.93897	0.822585	9.41797
0.394049	4.42678	0.181831	2.01457	0.520261	5.8871	0.636043	7.13898	0.727734	8.20147	0.952721	10.7046	0.489044	5.51813	0.611618	6.90377	0.824993	9.34585
0.395948	4.40204	0.18392	2.01691	0.524776	5.87624	0.639725	7.106	0.73081	8.15056	0.954954	10.6185	0.493315	5.50841	0.614983	6.8695	0.827419	9.27543
0.397816	4.37746	0.18601	2.01919	0.529306	5.86577	0.643439	7.07404	0.733905	8.1009	0.957204	10.5344	0.497571	5.49873	0.618364	6.83613	0.829861	9.20665
0.399654	4.35306	0.188099	2.02142	0.533849	5.85566	0.647184	7.04307	0.737019	8.05246	0.959471	10.4521	0.501813	5.48909	0.621763	6.80363	0.83232	9.13946
0.401464	4.32884	0.190188	2.02361	0.538403	5.84587	0.65096	7.01305	0.740152	8.00521	0.961755	10.3718	0.50604	5.47948	0.625179	6.77196	0.834795	9.07381
0.403247	4.30482	0.192276	2.02575	0.542968	5.83639	0.654764	6.98393	0.743304	7.95909	0.964055	10.2931	0.510251	5.46989	0.628612	6.74112	0.837288	9.00966
0.405005	4.28101	0.194365	2.02784	0.547542	5.8272	0.658598	6.9557	0.746475	7.91409	0.966372	10.2162	0.514446	5.46032	0.632062	6.71107	0.839796	8.94695
0.406739	4.25741	0.196453	2.0299	0.552124	5.81828	0.662459	6.9283	0.749664	7.87016	0.968705	10.141	0.518624	5.45077	0.63553	6.68178	0.84232	8.88565
0.408451	4.23403	0.19854	2.03191	0.556714	5.8096	0.666347	6.90172	0.752872	7.82728	0.971054	10.0674	0.522784	5.44121	0.639014	6.65324	0.844861	8.8257
0.410141	4.21089	0.200628	2.03388	0.561309	5.80115	0.670262	6.87591	0.756098	7.78541	0.97342	9.9954	0.526927	5.43166	0.642515	6.62543	0.847417	8.76708
0.411811	4.18797	0.202715	2.03581	0.565909	5.79291	0.674202	6.85086	0.759343	7.74452	0.975801	9.9249	0.531051	5.4221	0.646034	6.59832	0.849989	8.70974
0.413461	4.16529	0.204802	2.03771	0.570513	5.78487	0.678168	6.82652	0.762606	7.70459	0.978198	9.85589	0.535156	5.41252	0.649569	6.57189	0.852577	8.65364
0.415094	4.14285	0.206889	2.03956	0.575121	5.77701	0.682157	6.80288	0.765887	7.66558	0.980611	9.78832	0.539242	5.40293	0.653122	6.54613	0.85518	8.59874
0.41671	4.12066	0.208976	2.04138	0.579731	5.76932	0.68617	6.77991	0.769186	7.62748	0.98304	9.72214	0.543307	5.39331	0.656691	6.52101	0.857799	8.54502
0.418309	4.09872	0.211062	2.04317	0.584342	5.76179	0.690206	6.75757	0.772504	7.59025	0.985484	9.65732	0.547351	5.38367	0.660278	6.49652	0.860432	8.49244
0.419894	4.07702	0.213149	2.04492	0.588954	5.7544	0.694264	6.73586	0.77584	7.55388	0.987943	9.59383	0.551374	5.37399	0.663881	6.47264	0.863081	8.44096
0.421464	4.05558	0.215235	2.04664	0.593566	5.74715	0.698344	6.71474	0.779194	7.51834	0.990417	9.53162	0.555375	5.36428	0.667502	6.44935	0.865745	8.39056
0.42302	4.03438	0.217321	2.04833	0.598177	5.74002	0.702444	6.69419	0.782566	7.4836	0.992907	9.47066	0.559354	5.35453	0.671139	6.42664	0.868424	8.3412
0.424564	4.01345	0.219406	2.04999	0.602787	5.733	0.706564	6.6742	0.785956	7.44964	0.995411	9.41091	0.56331	5.34473	0.674793	6.4045	0.871118	8.29286
0.426096	3.99276	0.221492	2.05161	0.607395	5.72608	0.710704	6.65474	0.789365	7.41645	0.99793	9.35235	0.567243	5.33488	0.678465	6.3829	0.873826	8.24551
0.427616	3.97233	0.223577	2.05321	0.612	5.71926	0.714862	6.63578	0.792791	7.38401	1.00046	9.29493	0.571152	5.32498	0.682153	6.36184	0.876549	8.19912
0.429126	3.95215	0.225662	2.05478	0.616602	5.71253	0.719038	6.61732	0.796236	7.35229			0.575036	5.31503	0.685858	6.34129	0.879287	8.15367
0.430626	3.93222	0.227747	2.05632	0.621201	5.70588	0.723232	6.59933	0.799699	7.32128			0.578896	5.30502	0.689581	6.32125	0.882038	8.10913
0.432117	3.91255	0.229832	2.05783	0.625794	5.6993	0.727443	6.5818	0.80318	7.29096			0.58273	5.29495	0.69332	6.30171	0.884805	8.06547
0.433599	3.89312	0.231917	2.05932	0.630383	5.69279	0.73167	6.56471	0.80668	7.26132			0.586539	5.28482	0.697075	6.28264	0.887585	8.02268
0.435072	3.87395	0.234001	2.06078	0.634967	5.68634	0.735913	6.54804	0.810197	7.23233			0.590322	5.27462	0.700848	6.26404	0.89038	7.98073
0.436539	3.85502	0.236086	2.06221	0.639545	5.67994	0.740171	6.53177	0.813733	7.20398			0.594078	5.26436	0.704637	6.2459	0.893188	7.9396
0.437998	3.83634	0.23817	2.06362	0.644116	5.67359	0.744443	6.5159	0.817288	7.17625			0.597807	5.25403	0.708443	6.2282	0.896011	7.89927
0.43945	3.81791	0.240254	2.06501	0.64868	5.66729	0.748729	6.5004	0.820861	7.14914			0.60151	5.24363	0.712265	6.21093	0.898847	7.85972
0.440896	3.79971	0.242338	2.06638	0.653237	5.66102	0.753028	6.48527	0.824453	7.12263			0.605185	5.23316	0.716104	6.19408	0.901698	7.82093
0.442336	3.78176	0.244422	2.06772	0.657787	5.65479	0.75734	6.47049	0.828064	7.0967			0.608832	5.22263	0.719959	6.17764	0.904562	7.78288
0.443771	3.76405	0.246506	2.06904	0.662328	5.64859	0.761664	6.45604	0.831693	7.07134			0.612451	5.21202	0.72383	6.16159	0.90744	7.74555
0.445201	3.74657	0.248589	2.07033	0.66686	5.64241	0.765999	6.44191	0.835341	7.04654			0.616042	5.20134	0.727716	6.14594	0.910331	7.70892
0.446627	3.72933	0.250672	2.07161	0.671384	5.63625	0.770346	6.4281	0.839009	7.02229			0.619605	5.19058	0.731619	6.13066	0.913236	7.67298
0.448048	3.71231	0.252756	2.07287	0.675899	5.63011	0.774702	6.41458	0.842695	6.99857			0.623139	5.17976	0.735537	6.11574	0.916155	7.63772
0.449466	3.69553	0.254839	2.0741	0.680403	5.62399	0.779068	6.40135	0.846401	6.97537			0.626644	5.16887	0.739471	6.10118	0.919087	7.6031
0.450879	3.67897	0.256922	2.07532	0.684898	5.61788	0.783444	6.3884	0.850127	6.95269			0.630121	5.1579	0.743419	6.08697	0.922032	7.56913
0.45229	3.66264	0.259005	2.07652	0.689382	5.61177	0.787828	6.37571	0.853872	6.93051			0.633568	5.14687	0.747383	6.07309	0.924991	7.53578
0.453698	3.64652	0.261088	2.0777	0.693856	5.60567	0.79222	6.36327	0.857637	6.90882			0.636986	5.13576	0.751361	6.05954	0.927963	7.50304
0.455103	3.63063	0.26317	2.07886	0.698318	5.59958	0.79662	6.35108	0.861422	6.88762			0.640375	5.12459	0.755354	6.04631	0.930948	7.4709
0.456505	3.61495	0.265253	2.08	0.702769	5.59348	0.801026	6.33913	0.865227	6.86689			0.643735	5.11335	0.75936	6.03339	0.933946	7.43934
0.457906	3.59948	0.267335	2.08112	0.707208	5.58738	0.805439	6.3274	0.869052	6.84662			0.647065	5.10205	0.763381	6.02076	0.936958	7.40835
0.459305	3.58423	0.269418	2.08223	0.711636	5.58127	0.809858	6.31588	0.872898	6.82681			0.650366	5.09068	0.767415	6.00842	0.939983	7.37791
0.460702	3.56918	0.2715	2.08332	0.716051	5.57516	0.814283	6.30458	0.876764	6.80744			0.653638	5.07925	0.771461	5.99637	0.94302	7.34802
0.462097	3.55434	0.273582	2.0844	0.720453	5.56904	0.818712	6.29347	0.880651	6.78851			0.656881	5.06776	0.775521	5.98458	0.946071	7.31866
0.463492	3.5397	0.275664	2.08546	0.724842	5.56291	0.823145	6.28256	0.884559	6.77002			0.660095	5.05621	0.779593	5.97306	0.949135	7.28982
0.464885	3.52525	0.277746	2.0865	0.729218	5.55676	0.827582	6.27182	0.888488	6.75194			0.663279	5.0446	0.783678	5.9618	0.952211	7.26149
0.466278	3.51101	0.279828	2.08753	0.733581	5.5506	0.832023	6.26127	0.892439	6.73428			0.666435	5.03294	0.787774	5.95078	0.955301	7.23365
0.46767	3.49696	0.28191	2.08855	0.73793	5.54442	0.836466	6.25088	0.896411	6.71703			0.669562	5.02123	0.791881	5.94	0.958403	7.2063
0.469061	3.4831	0.283992	2.08955	0.742265	5.53822	0.840912	6.24065	0.900404	6.70018			0.672661	5.00946	0.795999	5.92945	0.961518	7.17943
0.470452	3.46942	0.286073	2.09053	0.746586	5.532	0.845359	6.23057	0.90442	6.68372			0.675731	4.99765	0.800128	5.91913	0.964646	7.15302
0.471844	3.45594	0.288155	2.0915	0.750892	5.52576	0.849808	6.22065	0.908457	6.66765			0.678772	4.98579	0.804267	5.90902	0.967786	7.12707
0.473235	3.44263	0.290236	2.09246	0.755184	5.5195	0.854258	6.21086	0.912516	6.65195			0.681786	4.97388	0.808415	5.89912	0.970939	7.10156
0.474626	3.42951	0.292318	2.0934	0.759461	5.51321	0.858708	6.20121	0.916598	6.63663			0.684772	4.96194	0.812573	5.88942	0.974105	7.0765
0.476018	3.41657	0.294399	2.09433	0.763722	5.5069	0.863159	6.19169	0.920702	6.62168			0.68773	4.94995	0.81674	5.87991	0.977283	7.05185
0.47741	3.4038	0.29648	2.09525	0.767968	5.50057	0.867609	6.18229	0.924828	6.60708			0.69066	4.93794	0.820915	5.87059	0.980474	7.02763
0.478802	3.3912	0.298561	2.09616	0.772198	5.4942	0.872058	6.17302	0.928976	6.59283			0.693564	4.92588	0.825099	5.86146	0.983677	7.00382
0.480196	3.37877	0.300642	2.09705	0.776413	5.48781	0.876507	6.16386	0.933147	6.57894			0.69644	4.9138	0.82929	5.85249	0.986893	6.98041
0.48159	3.36651	0.302723	2.09793	0.780612	5.48139	0.880954	6.1548	0.937341	6.56538			0.69929	4.90168	0.833488	5.8437	0.990121	6.95739
0.482985	3.35442	0.304804	2.0988	0.784794	5.47494	0.885399	6.14586	0.941558	6.55215			0.702113	4.88954	0.837693	5.83506	0.993362	6.93476
0.484381	3.34248	0.306885	2.09966	0.78896	5.46846	0.889843	6.13701	0.945797	6.53925			0.704911	4.87737	0.841904	5.82658	0.996614	6.91251
0.485778	3.33071	0.308966	2.10051	0.793109	5.46195	0.894284	6.12826	0.950058	6.52668			0.707682	4.86519	0.846122	5.81826	0.999879	6.89063
0.487177	3.3191	0.311046	2.10134	0.797242	5.4554	0.898723	6.11961	0.954343	6.51441			0.710428	4.85298	0.850344	5.81007	1.00316	6.86911
0.488577	3.30764	0.313127	2.10217	0.801357	5.44883	0.903159	6.11104	0.95865	6.50246			0.713149	4.84075	0.854572	5.80202		
0.489978	3.29633	0.315208	2.10298	0.805456	5.44222	0.907592	6.10257	0.962979	6.4908			0.715844	4.82851	0.858805	5.79411		
0.49138	3.28518	0.317288	2.10378	0.809537	5.43557	0.912021	6.09417	0.967331	6.47945			0.718515	4.81626	0.863041	5.78632		
0.492785	3.27417	0.319368	2.10458	0.813601	5.4289	0.916448	6.08586	0.971705	6.46838			0.721162	4.804	0.867282	5.77865		
0.49419	3.26331	0.321449	2.10536	0.817647	5.42219	0.920871	6.07763	0.976101	6.45759			0.723785	4.79173	0.871526	5.7711		
0.495598	3.25259	0.323529	2.10613	0.821676	5.41545	0.92529	6.06948	0.98052	6.44708			0.726383	4.77946	0.875773	5.76367		
0.497007	3.24202	0.325609	2.10689	0.825687	5.40867	0.929706	6.0614	0.98496	6.43685			0.728959	4.76718	0.880023	5.75634		
0.498418	3.23158	0.327689	2.10765	0.829679	5.40185	0.934118	6.05339	0.989422	6.42687			0.731511	4.7549	0.884274	5.74911		
0.499831	3.22128	0.32977	2.10839	0.833654	5.39501	0.938526	6.04546	0.993905	6.41716			0.734041	4.74262	0.888528	5.74199		
0.501246	3.21112	0.33185	2.10913	0.837611	5.38812	0.94293	6.03759	0.998409	6.4077			0.736548	4.73035	0.892783	5.73495		
0.502663	3.20109	0.33393	2.10985	0.841549	5.38121	0.94733	6.0298	1.00293	6.39848			0.739033	4.71807	0.897039	5.72801		
0.504081	3.19119	0.33601	2.11057	0.845469	5.37425	0.951727	6.02207					0.741497	4.70581	0.901296	5.72116		
0.505502	3.18142	0.338089	2.11128	0.849371	5.36727	0.956119	6.0144					0.743939	4.69356	0.905553	5.71438		
0.506925	3.17178	0.340169	2.11198	0.853253	5.36025	0.960508	6.0068					0.746359	4.68131	0.909809	5.70769		
0.508351	3.16226	0.342249	2.11267	0.857118	5.35319	0.964892	5.99927					0.74876	4.66908	0.914066	5.70107		
0.509778	3.15287	0.344329	2.11335	0.860963	5.3461	0.969273	5.9918					0.751139	4.65686	0.918321	5.69452		
0.511208	3.1436	0.346408	2.11403	0.86479	5.33897	0.97365	5.98439					0.753498	4.64466	0.922575	5.68804		
0.51264	3.13444	0.348488	2.1147	0.868598	5.33181	0.978023	5.97704					0.755838	4.63248	0.926828	5.68162		
0.514074	3.12541	0.350568	2.11536	0.872387	5.32462	0.982393	5.96975					0.758158	4.62031	0.931079	5.67526		
0.515511	3.11649	0.352647	2.11601	0.876157	5.31739	0.986759	5.96252					0.760459	4.60817	0.935327	5.66896		
0.51695	3.10769	0.354726	2.11665	0.879909	5.31013	0.991121	5.95536					0.762741	4.59605	0.939573	5.66272		
0.518391	3.09899	0.356806	2.11729	0.883641	5.30284	0.99548	5.94825					0.765004	4.58395	0.943816	5.65653		
0.519835	3.09041	0.358885	2.11792	0.887354	5.29552	0.999836	5.9412					0.76725	4.57188	0.948056	5.65039		
0.521281	3.08194	0.360965	2.11854	0.891049	5.28816	1.00419	5.93421					0.769477	4.55984	0.952292	5.64429		
0.52273	3.07357	0.363044	2.11916	0.894724	5.28077							0.771687	4.54783	0.956524	5.63824		
0.524181	3.06532	0.365123	2.11977	0.89838	5.27335							0.773879	4.53584	0.960752	5.63223		
0.525635	3.05716	0.367202	2.12037	0.902017	5.26591							0.776054	4.52389	0.964975	5.62626		
0.527091	3.04911	0.369281	2.12096	0.905635	5.25843							0.778213	4.51197	0.969193	5.62032		
0.52855	3.04116	0.371361	2.12155	0.909234	5.25092							0.780356	4.50008	0.973406	5.61442		
0.530012	3.0333	0.37344	2.12213	0.912814	5.24338							0.782482	4.48823	0.977614	5.60855		
0.531476	3.02555	0.375519	2.12271	0.916375	5.23581							0.784592	4.47641	0.981816	5.60271		
0.532942	3.01789	0.377598	2.12328	0.919917	5.22822							0.786687	4.46463	0.986012	5.5969		
0.534412	3.01033	0.379677	2.12384	0.92344	5.2206							0.788767	4.45289	0.990202	5.59111		
0.535883	3.00286	0.381755	2.1244	0.926944	5.21295							0.790832	4.44119	0.994385	5.58535		
0.537358	2.99549	0.383834	2.12495	0.93043	5.20528							0.792882	4.42952	0.998561	5.5796		
0.538835	2.9882	0.385913	2.1255	0.933896	5.19758							0.794918	4.4179	1.00273	5.57388		
0.540315	2.981	0.387992	2.12604	0.937344	5.18985							0.79694	4.40632				
0.541797	2.9739	0.390071	2.12657	0.940772	5.18211							0.798948	4.39479				
0.543282	2.96687	0.392149	2.1271	0.944183	5.17434							0.800943	4.38329				
0.54477	2.95994	0.394228	2.12762	0.947574	5.16654							0.802924	4.37185				
0.54626	2.95309	0.396307	2.12814	0.950947	5.15873							0.804892	4.36044				
0.547754	2.94632	0.398385	2.12865	0.954301	5.15089							0.806848	4.34909				
0.549249	2.93963	0.400464	2.12916	0.957637	5.14303							0.808791	4.33777				
0.550748	2.93303	0.402542	2.12966	0.960955	5.13515							0.810722	4.32651				
0.552249	2.9265	0.404621	2.13015	0.964254	5.12726							0.812641	4.3153				
0.553753	2.92005	0.406699	2.13065	0.967535	5.11934							0.814548	4.30413				
0.555259	2.91368	0.408778	2.13113	0.970797	5.1114							0.816444	4.29301				
0.556768	2.90739	0.410856	2.13161	0.974042	5.10345							0.818329	4.28194				
0.55828	2.90117	0.412934	2.13209	0.977268	5.09548							0.820202	4.27093				
0.559795	2.89502	0.415013	2.13256	0.980477	5.0875							0.822065	4.25996				
0.561312	2.88895	0.417091	2.13303	0.983668	5.0795							0.823917	4.24904				
0.562832	2.88295	0.419169	2.13349	0.986841	5.07148							0.825759	4.23818				
0.564354	2.87701	0.421247	2.13395	0.989996	5.06345							0.827591	4.22737				
0.56588	2.87115	0.423326	2.1344	0.993134	5.05541							0.829413	4.21661				
0.567407	2.86536	0.425404	2.13485	0.996254	5.04736							0.831226	4.2059				
0.568938	2.85963	0.427482	2.1353	0.999356	5.03929							0.833029	4.19524				
0.570471	2.85397	0.42956	2.13574	1.00244	5.03121							0.834822	4.18464				
0.572007	2.84838	0.431638	2.13618									0.836607	4.17409				
0.573545	2.84285	0.433716	2.13661									0.838383	4.1636				
0.575086	2.83739	0.435794	2.13704									0.840151	4.15316				
0.57663	2.83199	0.437872	2.13746									0.84191	4.14278				
0.578177	2.82665	0.43995	2.13788									0.84366	4.13245				
0.579725	2.82137	0.442028	2.1383									0.845403	4.12217				
0.581277	2.81615	0.444106	2.13871									0.847138	4.11195				
0.582831	2.81099	0.446184	2.13912									0.848865	4.10178				
0.584388	2.80589	0.448262	2.13952									0.850585	4.09167				
0.585947	2.80085	0.45034	2.13993									0.852298	4.08162				
0.587509	2.79586	0.452417	2.14032									0.854003	4.07162				
0.589074	2.79093	0.454495	2.14072									0.855702	4.06167				
0.590641	2.78606	0.456573	2.14111									0.857393	4.05179				
0.59221	2.78124	0.458651	2.14149									0.859078	4.04195				
0.593782	2.77647	0.460728	2.14188									0.860757	4.03217				
0.595357	2.77176	0.462806	2.14226									0.862429	4.02245				
0.596934	2.7671	0.464884	2.14263									0.864095	4.01279				
0.598514	2.76249	0.466961	2.14301									0.865756	4.00317				
0.600096	2.75794	0.469039	2.14338									0.86741	3.99362				
0.60168	2.75343	0.471116	2.14374									0.869059	3.98412				
0.603267	2.74897	0.473194	2.14411									0.870702	3.97468				
0.604857	2.74456	0.475272	2.14447									0.87234	3.96529				
0.606449	2.7402	0.477349	2.14483									0.873972	3.95595				
0.608044	2.73589	0.479427	2.14518									0.875599	3.94668				
0.60964	2.73162	0.481504	2.14553									0.877222	3.93745				
0.61124	2.7274	0.483581	2.14588									0.878839	3.92829				
0.612842	2.72323	0.485659	2.14622									0.880452	3.91917				
0.614446	2.7191	0.487736	2.14657									0.88206	3.91012				
0.616052	2.71501	0.489814	2.14691									0.883664	3.90111				
0.617661	2.71097	0.491891	2.14724									0.885263	3.89216				
0.619272	2.70698	0.493968	2.14758									0.886858	3.88327				
0.620886	2.70302	0.496046	2.14791									0.888449	3.87443				
0.622502	2.69911	0.498123	2.14824									0.890036	3.86564				
0.62412	2.69524	0.5002	2.14856									0.891619	3.85691				
0.625741	2.69141	0.502278	2.14888									0.893199	3.84823				
0.627364	2.68762	0.504355	2.1492									0.894774	3.83961				
0.628989	2.68387	0.506432	2.14952									0.896346	3.83104				
0.630617	2.68016	0.508509	2.14984									0.897915	3.82252				
0.632247	2.67649	0.510586	2.15015									0.89948	3.81406				
0.633879	2.67285	0.512664	2.15046									0.901042	3.80565				
0.635513	2.66926	0.514741	2.15077									0.902601	3.79729				
0.63715	2.6657	0.516818	2.15107									0.904156	3.78898				
0.638788	2.66218	0.518895	2.15137									0.905709	3.78073				
0.640429	2.65869	0.520972	2.15167									0.907259	3.77252				
0.642073	2.65525	0.523049	2.15197									0.908806	3.76437				
0.643718	2.65183	0.525126	2.15227									0.91035	3.75627				
0.645366	2.64846	0.527203	2.15256									0.911892	3.74822				
0.647015	2.64511	0.52928	2.15285									0.913431	3.74023				
0.648667	2.6418	0.531357	2.15314									0.914968	3.73228				
0.650321	2.63853	0.533434	2.15343									0.916502	3.72438				
0.651978	2.63529	0.535511	2.15371									0.918034	3.71654				
0.653636	2.63208	0.537588	2.15399									0.919564	3.70874				
0.655296	2.6289	0.539665	2.15427									0.921092	3.701				
0.656959	2.62575	0.541742	2.15455									0.922617	3.6933				
0.658623	2.62264	0.543819	2.15482									0.924141	3.68565				
0.66029	2.61956	0.545895	2.1551									0.925662	3.67806				
0.661959	2.61651	0.547972	2.15537									0.927182	3.67051				
0.66363	2.61349	0.550049	2.15564									0.9287	3.66301				
0.665302	2.6105	0.552126	2.1559									0.930217	3.65555				
0.666977	2.60754	0.554203	2.15617									0.931731	3.64815				
0.668654	2.60461	0.55628	2.15643									0.933244	3.64079				
0.670333	2.6017	0.558356	2.15669									0.934756	3.63348				
0.672014	2.59883	0.560433	2.15695									0.936266	3.62622				
0.673697	2.59598	0.56251	2.15721									0.937775	3.619				
0.675382	2.59317	0.564587	2.15747									0.939282	3.61183				
0.677068	2.59038	0.566663	2.15772									0.940788	3.60471				
0.678757	2.58761	0.56874	2.15797									0.942293	3.59763				
0.680448	2.58488	0.570817	2.15822									0.943796	3.5906				
0.68214	2.58217	0.572893	2.15847									0.945299	3.58361				
0.683835	2.57948	0.57497	2.15872									0.946801	3.57667				
0.685531	2.57683	0.577046	2.15896									0.948301	3.56978				
0.68723	2.5742	0.579123	2.1592									0.9498	3.56293				
0.68893	2.57159	0.5812	2.15944									0.951299	3.55612				
0.690632	2.56901	0.583276	2.15968									0.952797	3.54936				
0.692336	2.56645	0.585353	2.15992									0.954294	3.54264				
0.694041	2.56392	0.587429	2.16016									0.95579	3.53596				
0.695749	2.56141	0.589506	2.16039									0.957285	3.52933				
0.697458	2.55893	0.591582	2.16062									0.95878	3.52274				
0.699169	2.55647	0.593659	2.16086									0.960274	3.51619				
0.700882	2.55403	0.595736	2.16108									0.961767	3.50969				
0.702597	2.55162	0.597812	2.16131									0.96326	3.50322				
0.704314	2.54922	0.599888	2.16154									0.964753	3.4968				
0.706032	2.54686	0.601965	2.16176									0.966245	3.49042				
0.707752	2.54451	0.604041	2.16199									0.967736	3.48408				
0.709474	2.54218	0.606118	2.16221									0.969227	3.47779				
0.711198	2.53988	0.608194	2.16243									0.970718	3.47153				
0.712923	2.5376	0.610271	2.16265									0.972208	3.46531				
0.71465	2.53534	0.612347	2.16286									0.973699	3.45914				
0.716379	2.5331	0.614423	2.16308									0.975188	3.453				
0.718109	2.53088	0.6165	2.16329									0.976678	3.44691				
0.719841	2.52868	0.618576	2.16351									0.978168	3.44085				
0.721575	2.5265	0.620652	2.16372									0.979657	3.43483				
0.723311	2.52434	0.622729	2.16393									0.981146	3.42885				
0.725048	2.5222	0.624805	2.16414									0.982636	3.42291				
0.726786	2.52008	0.626881	2.16434									0.984125	3.41701				
0.728527	2.51798	0.628958	2.16455									0.985614	3.41114				
0.730269	2.5159	0.631034	2.16475									0.987103	3.40532				
0.732012	2.51384	0.63311	2.16496									0.988592	3.39953				
0.733758	2.5118	0.635186	2.16516									0.990081	3.39377				
0.735504	2.50977	0.637263	2.16536									0.991571	3.38806				
0.737253	2.50777	0.639339	2.16556									0.99306	3.38238				
0.739003	2.50578	0.641415	2.16575									0.99455	3.37674				
0.740754	2.50381	0.643491	2.16595									0.996039	3.37113				
0.742507	2.50185	0.645567	2.16615									0.997529	3.36556				
0.744262	2.49992	0.647643	2.16634									0.999019	3.36003				
0.746018	2.498	0.64972	2.16653									1.00051	3.35453				
0.747776	2.4961	0.651796	2.16672														
0.749535	2.49421	0.653872	2.16691														
0.751296	2.49234	0.655948	2.1671														
0.753058	2.49049	0.658024	2.16729														
0.754822	2.48866	0.6601	2.16748														
0.756587	2.48684	0.662176	2.16766														
0.758353	2.48504	0.664252	2.16785														
0.760122	2.48325	0.666328	2.16803														
0.761891	2.48148	0.668404	2.16821														
0.763662	2.47972	0.67048	2.16839														
0.765435	2.47798	0.672557	2.16857														
0.767208	2.47625	0.674632	2.16875														
0.768984	2.47454	0.676709	2.16893														
0.77076	2.47284	0.678785	2.16911														
0.772538	2.47116	0.68086	2.16928														
0.774318	2.46949	0.682936	2.16946														
0.776099	2.46784	0.685012	2.16963														
0.777881	2.4662	0.687088	2.1698														
0.779665	2.46458	0.689164	2.16997														
0.78145	2.46296	0.69124	2.17014														
0.783236	2.46137	0.693316	2.17031														
0.785024	2.45978	0.695392	2.17048														
0.786813	2.45821	0.697468	2.17065														
0.788603	2.45665	0.699544	2.17081														
0.790395	2.45511	0.70162	2.17098														
0.792188	2.45358	0.703696	2.17114														
0.793982	2.45206	0.705771	2.1713														
0.795777	2.45055	0.707847	2.17147														
0.797574	2.44906	0.709923	2.17163														
0.799372	2.44758	0.711999	2.17179														
0.801172	2.44611	0.714075	2.17195														
0.802972	2.44465	0.71615	2.17211														
0.804774	2.44321	0.718226	2.17226														
0.806577	2.44178	0.720302	2.17242														
0.808382	2.44036	0.722378	2.17258														
0.810187	2.43895	0.724454	2.17273														
0.811994	2.43755	0.726529	2.17288														
0.813802	2.43616	0.728605	2.17304														
0.815611	2.43479	0.730681	2.17319														
0.817422	2.43342	0.732756	2.17334														
0.819233	2.43207	0.734832	2.17349														
0.821046	2.43073	0.736908	2.17364														
0.82286	2.4294	0.738984	2.17379														
0.824675	2.42808	0.741059	2.17394														
0.826492	2.42677	0.743135	2.17408														
0.828309	2.42547	0.74521	2.17423														
0.830128	2.42418	0.747286	2.17437														
0.831947	2.42291	0.749362	2.17452														
0.833768	2.42164	0.751437	2.17466														
0.83559	2.42038	0.753513	2.1748														
0.837414	2.41913	0.755589	2.17495														
0.839238	2.4179	0.757664	2.17509														
0.841063	2.41667	0.75974	2.17523														
0.84289	2.41545	0.761815	2.17537														
0.844717	2.41424	0.763891	2.17551														
0.846546	2.41304	0.765966	2.17565														
0.848376	2.41185	0.768042	2.17578														
0.850207	2.41067	0.770118	2.17592														
0.852038	2.4095	0.772193	2.17606														
0.853871	2.40834	0.774269	2.17619														
0.855705	2.40719	0.776344	2.17633														
0.857541	2.40604	0.77842	2.17646														
0.859377	2.40491	0.780495	2.17659														
0.861214	2.40378	0.782571	2.17672														
0.863052	2.40266	0.784646	2.17686														
0.864891	2.40155	0.786721	2.17699														
0.866731	2.40045	0.788797	2.17712														
0.868573	2.39936	0.790872	2.17725														
0.870415	2.39828	0.792948	2.17738														
0.872258	2.3972	0.795023	2.1775														
0.874102	2.39614	0.797099	2.17763														
0.875948	2.39508	0.799174	2.17776														
0.877794	2.39403	0.801249	2.17788														
0.879641	2.39298	0.803325	2.17801														
0.881489	2.39195	0.8054	2.17813														
0.883338	2.39092	0.807476	2.17826														
0.885189	2.3899	0.809551	2.17838														
0.88704	2.38889	0.811626	2.1785														
0.888892	2.38789	0.813702	2.17863														
0.890745	2.38689	0.815777	2.17875														
0.892599	2.3859	0.817852	2.17887														
0.894453	2.38492	0.819928	2.17899														
0.896309	2.38395	0.822003	2.17911														
0.898166	2.38298	0.824078	2.17923														
0.900023	2.38202	0.826154	2.17935														
0.901882	2.38107	0.828229	2.17946														
0.903741	2.38012	0.830304	2.17958														
0.905602	2.37918	0.832379	2.1797														
0.907463	2.37825	0.834455	2.17981														
0.909325	2.37733	0.83653	2.17993														
0.911188	2.37641	0.838605	2.18004														
0.913052	2.3755	0.84068	2.18016														
0.914917	2.37459	0.842756	2.18027														
0.916782	2.3737	0.844831	2.18039														
0.918649	2.3728	0.846906	2.1805														
0.920516	2.37192	0.848981	2.18061														
0.922384	2.37104	0.851056	2.18072														
0.924253	2.37017	0.853132	2.18083														
0.926123	2.3693	0.855207	2.18094														
0.927994	2.36844	0.857282	2.18105														
0.929865	2.36759	0.859357	2.18116														
0.931738	2.36674	0.861432	2.18127														
0.933611	2.3659	0.863507	2.18138														
0.935485	2.36507	0.865582	2.18149														
0.93736	2.36424	0.867658	2.18159														
0.939235	2.36342	0.869733	2.1817														
0.941112	2.3626	0.871808	2.18181														
0.942989	2.36179	0.873883	2.18191														
0.944867	2.36098	0.875958	2.18202														
0.946746	2.36018	0.878033	2.18212														
0.948626	2.35939	0.880108	2.18223														
0.950506	2.3586	0.882183	2.18233														
0.952387	2.35782	0.884258	2.18243														
0.954269	2.35704	0.886333	2.18254														
0.956152	2.35627	0.888408	2.18264														
0.958036	2.3555	0.890483	2.18274														
0.95992	2.35474	0.892558	2.18284														
0.961805	2.35398	0.894633	2.18294														
0.963691	2.35323	0.896708	2.18304														
0.965577	2.35249	0.898783	2.18314														
0.967465	2.35175	0.900858	2.18324														
0.969353	2.35101	0.902933	2.18334														
0.971241	2.35028	0.905008	2.18344														
0.973131	2.34956	0.907083	2.18354														
0.975021	2.34884	0.909158	2.18363														
0.976912	2.34812	0.911233	2.18373														
0.978804	2.34741	0.913308	2.18383														
0.980696	2.34671	0.915383	2.18392														
0.982589	2.34601	0.917458	2.18402														
0.984483	2.34531	0.919533	2.18411														
0.986378	2.34462	0.921608	2.18421														
0.988273	2.34393	0.923683	2.1843														
0.990169	2.34325	0.925758	2.1844														
0.992065	2.34258	0.927833	2.18449														
0.993963	2.3419	0.929907	2.18458														
0.995861	2.34124	0.931982	2.18468														
0.997759	2.34057	0.934057	2.18477														
0.999659	2.33991	0.936132	2.18486														
1.00156	2.33926	0.938207	2.18495														
		0.940282	2.18504														
		0.942356	2.18513														
		0.944431	2.18522														
		0.946506	2.18531														
		0.948581	2.1854														
		0.950656	2.18549														
		0.952731	2.18558														
		0.954805	2.18567														
		0.95688	2.18576														
		0.958955	2.18584														
		0.96103	2.18593														
		0.963104	2.18602														
		0.965179	2.1861														
		0.967254	2.18619														
		0.969329	2.18627														
		0.971403	2.18636														
		0.973478	2.18644														
		0.975553	2.18653														
		0.977627	2.18661														
		0.979702	2.1867														
		0.981777	2.18678														
		0.983852	2.18686														
		0.985926	2.18694														
		0.988001	2.18703														
		0.990076	2.18711														
		0.99215	2.18719														
		0.994225	2.18727														
		0.996299	2.18735														
		0.998374	2.18743														
		1.00045	2.18751														
