Sym0		Asym0		Sym1		Sym2		Sym3		Asym1		Asym2		Asym3		Asym4	
423  Points		475  Points		423  Points		403  Points		294  Points		436  Points		373  Points		282  Points		132  Points	
Freq (MHz)	Vph (m/ms)	Freq (MHz)	Vph (m/ms)	Freq (MHz)	Vph (m/ms)	Freq (MHz)	Vph (m/ms)	Freq (MHz)	Vph (m/ms)	Freq (MHz)	Vph (m/ms)	Freq (MHz)	Vph (m/ms)	Freq (MHz)	Vph (m/ms)	Freq (MHz)	Vph (m/ms)
0.353549	440.922	0.000244794	0.096401	1.00079	2.5752	0.449934	2273.61	0.707107	5004.25	0.176799	227.596	0.530331	1494.8	0.883876	1095.34	0.899877	1143.51
0.353532	203.937	0.000456916	0.131637	0.998822	2.57631	0.449956	398.337	0.707111	659.006	0.176885	103.532	0.530335	412.238	0.883851	508.358	0.899921	523.623
0.353502	132.635	0.000733956	0.166705	0.996848	2.57741	0.450011	218.316	0.707122	352.734	0.177034	67.0532	0.530346	239.091	0.883808	330.973	0.899996	339.578
0.35346	98.2674	0.00107546	0.201608	0.994872	2.57851	0.450098	150.385	0.707139	240.82	0.177247	49.6226	0.530362	168.376	0.883747	245.347	0.900102	251.283
0.353406	78.0384	0.00148065	0.236295	0.992893	2.57961	0.450217	114.714	0.707163	182.82	0.177523	39.4181	0.530384	129.946	0.883669	194.91	0.900239	199.445
0.35334	64.7106	0.00194867	0.270731	0.990913	2.58071	0.450367	92.7374	0.707193	147.339	0.177862	32.7235	0.530411	105.802	0.883576	161.667	0.900406	165.351
0.353262	55.2662	0.0024786	0.304889	0.98893	2.58181	0.450549	77.8411	0.70723	123.394	0.178262	27.9979	0.530444	89.226	0.883468	138.104	0.900601	141.224
0.353173	48.2232	0.00306943	0.338745	0.986944	2.58291	0.450762	67.0801	0.707274	106.147	0.178723	24.487	0.530483	77.1427	0.883345	120.531	0.900824	123.252
0.353072	42.7686	0.00371985	0.37225	0.984955	2.58401	0.451007	58.9439	0.707324	93.1319	0.179244	21.7784	0.530528	67.9437	0.883211	106.92	0.901073	109.347
0.35296	38.4191	0.00442884	0.405401	0.982964	2.5851	0.451281	52.5776	0.707381	82.962	0.179824	19.627	0.530577	60.7065	0.883065	96.0667	0.901347	98.2694
0.352838	34.8696	0.0051949	0.438156	0.98097	2.58619	0.451587	47.4613	0.707444	74.7965	0.180462	17.8786	0.530633	54.8643	0.882908	87.2103	0.901645	89.2373
0.352705	31.9176	0.00601686	0.470509	0.978972	2.58728	0.451922	43.2605	0.707513	68.096	0.181156	16.4307	0.530694	50.0493	0.882743	79.8459	0.901965	81.7324
0.352562	29.4239	0.00689313	0.502427	0.976971	2.58837	0.452287	39.7502	0.707589	62.4988	0.181905	15.2131	0.530761	46.0126	0.882571	73.6256	0.902307	75.3978
0.352411	27.2893	0.00782236	0.533899	0.974967	2.58945	0.452682	36.7737	0.707672	57.7534	0.182708	14.1757	0.530834	42.5797	0.882391	68.3019	0.90267	69.9799
0.35225	25.4413	0.00880304	0.564911	0.972958	2.59053	0.453105	34.2182	0.707762	53.6792	0.183564	13.282	0.530912	39.6247	0.882206	63.6941	0.903051	65.2934
0.35208	23.8258	0.00983367	0.595447	0.970946	2.5916	0.453556	32.0007	0.707858	50.1432	0.18447	12.5046	0.530996	37.0543	0.882016	59.6668	0.903451	61.1996
0.351903	22.4014	0.0109127	0.625499	0.968931	2.59266	0.454036	30.0586	0.70796	47.0455	0.185426	11.8227	0.531086	34.7982	0.881823	56.1168	0.903868	57.593
0.351718	21.136	0.0120386	0.655052	0.966911	2.59373	0.454542	28.3439	0.708069	44.3094	0.18643	11.2201	0.531182	32.8019	0.881627	52.964	0.904302	54.3916
0.351526	20.0045	0.01321	0.684106	0.964886	2.59478	0.455076	26.819	0.708185	41.8752	0.18748	10.6842	0.531283	31.0233	0.881429	50.1454	0.904752	51.5309
0.351327	18.9865	0.0144251	0.712649	0.962858	2.59583	0.455636	25.4544	0.708307	39.6955	0.188431	10.2636	0.53139	29.4285	0.881229	47.6104	0.905216	48.9593
0.351123	18.0658	0.0156826	0.740679	0.960824	2.59687	0.456222	24.2262	0.708436	37.7325	0.189268	9.93465	0.531503	27.9905	0.881029	45.3184	0.905695	46.6352
0.350913	17.2291	0.0169809	0.768197	0.958787	2.5979	0.456833	23.115	0.708572	35.9555	0.189979	9.68109	0.531621	26.6873	0.880828	43.236	0.906187	44.5245
0.350698	16.4654	0.0183188	0.795201	0.956744	2.59893	0.45747	22.1051	0.708714	34.3393	0.190551	9.49139	0.531745	25.5008	0.880628	41.3358	0.906693	42.5993
0.350479	15.7655	0.0196944	0.821687	0.954696	2.59995	0.45813	21.1834	0.708863	32.8629	0.190978	9.35757	0.531875	24.4161	0.880429	39.5949	0.907211	40.8361
0.350256	15.1217	0.0211068	0.847661	0.952644	2.60096	0.458814	20.3388	0.709018	31.5091	0.191254	9.27432	0.532011	23.4207	0.880231	37.994	0.907742	39.2153
0.35003	14.5276	0.0225543	0.873123	0.950586	2.60196	0.459521	19.5622	0.70918	30.2633	0.191655	9.15779	0.532153	22.5039	0.880035	36.517	0.908284	37.7205
0.349801	13.9776	0.0240357	0.89808	0.948523	2.60295	0.460251	18.8458	0.709349	29.113	0.192095	9.03516	0.532301	21.6569	0.879842	35.1501	0.908838	36.3375
0.34957	13.467	0.0255497	0.922535	0.946454	2.60393	0.461003	18.1829	0.709524	28.0477	0.192701	8.87479	0.532455	20.8719	0.87965	33.8813	0.909402	35.0542
0.349338	12.9917	0.0270951	0.946493	0.94438	2.6049	0.461776	17.5678	0.709706	27.0583	0.193481	8.68186	0.532614	20.1426	0.879462	32.7006	0.909977	33.8604
0.349104	12.5482	0.0286705	0.969959	0.9423	2.60586	0.462571	16.9956	0.709895	26.1371	0.194443	8.46221	0.53278	19.463	0.879277	31.599	0.910563	32.7469
0.34887	12.1335	0.030275	0.992941	0.940215	2.60681	0.463386	16.462	0.71009	25.2772	0.195596	8.2219	0.532951	18.8284	0.879095	30.5689	0.911159	31.7059
0.348636	11.7448	0.0319073	1.01545	0.938124	2.60775	0.464221	15.9633	0.710293	24.4727	0.196953	7.9669	0.533129	18.2345	0.878916	29.6036	0.911764	30.7307
0.348402	11.3797	0.0335663	1.03748	0.936027	2.60868	0.465075	15.4962	0.710502	23.7185	0.198343	7.73173	0.533312	17.6775	0.878742	28.6972	0.912379	29.8152
0.34817	11.0363	0.0352509	1.05906	0.933924	2.60959	0.465948	15.0579	0.710717	23.0101	0.199765	7.51426	0.533502	17.154	0.878571	27.8444	0.913004	28.954
0.347939	10.7126	0.0369603	1.08018	0.931815	2.6105	0.46684	14.6457	0.71094	22.3433	0.201218	7.31263	0.533697	16.6612	0.878404	27.0407	0.913638	28.1426
0.347709	10.407	0.0386934	1.10085	0.929701	2.61139	0.46775	14.2575	0.711169	21.7147	0.2027	7.12525	0.533899	16.1964	0.878242	26.2819	0.91428	27.3767
0.347482	10.118	0.0404493	1.12109	0.92758	2.61227	0.468677	13.8913	0.711405	21.121	0.204211	6.95072	0.534107	15.7573	0.878084	25.5644	0.914932	26.6527
0.347258	9.84445	0.0422271	1.1409	0.925453	2.61313	0.469621	13.5452	0.711648	20.5595	0.205749	6.78782	0.534321	15.3419	0.877931	24.8849	0.915592	25.9671
0.347038	9.58503	0.0440259	1.1603	0.92332	2.61399	0.470581	13.2177	0.711897	20.0277	0.207313	6.63547	0.534541	14.9483	0.877783	24.2405	0.916261	25.3171
0.346821	9.33872	0.0458449	1.17928	0.921181	2.61483	0.471558	12.9074	0.712154	19.5231	0.208903	6.49271	0.534767	14.5749	0.877639	23.6286	0.916938	24.7
0.346608	9.10459	0.0476834	1.19786	0.919036	2.61566	0.47255	12.6129	0.712417	19.0439	0.210515	6.35871	0.535	14.2202	0.877501	23.0468	0.917624	24.1133
0.3464	8.88176	0.0495405	1.21605	0.916885	2.61647	0.473558	12.3331	0.712687	18.5882	0.212151	6.23272	0.535238	13.8827	0.877367	22.4929	0.918318	23.5548
0.346198	8.66945	0.0514155	1.23386	0.914727	2.61728	0.47458	12.0669	0.712964	18.1543	0.213809	6.11406	0.535483	13.5614	0.877238	21.9649	0.91902	23.0226
0.346	8.46696	0.0533078	1.25129	0.912564	2.61807	0.475617	11.8134	0.713248	17.7406	0.215487	6.00215	0.535735	13.255	0.877115	21.4612	0.919729	22.5149
0.345809	8.27364	0.0552167	1.26836	0.910394	2.61884	0.476668	11.5717	0.713539	17.3459	0.217186	5.89644	0.535993	12.9625	0.876997	20.98	0.920447	22.03
0.345623	8.08889	0.0571416	1.28507	0.908219	2.6196	0.477732	11.341	0.713836	16.9688	0.218904	5.79645	0.536257	12.6831	0.876884	20.52	0.921172	21.5664
0.345444	7.91218	0.0590817	1.30144	0.906038	2.62035	0.47881	11.1207	0.714141	16.6082	0.220639	5.70175	0.536528	12.416	0.876776	20.0797	0.921905	21.1229
0.345272	7.74301	0.0610367	1.31746	0.90385	2.62109	0.4799	10.9099	0.714453	16.2631	0.222393	5.61194	0.536805	12.1602	0.876674	19.6579	0.922646	20.698
0.345108	7.58092	0.0630059	1.33316	0.901657	2.62181	0.481003	10.7082	0.714771	15.9324	0.224163	5.52667	0.537088	11.9151	0.876578	19.2535	0.923394	20.2907
0.344951	7.4255	0.0649888	1.34853	0.899458	2.62253	0.482118	10.5149	0.715097	15.6154	0.225949	5.44561	0.537378	11.6801	0.876487	18.8654	0.92415	19.8999
0.344802	7.27636	0.0669848	1.36358	0.897254	2.62322	0.483099	10.353	0.715429	15.3111	0.22775	5.36848	0.537675	11.4546	0.876401	18.4927	0.924913	19.5246
0.344661	7.13315	0.0689936	1.37833	0.895043	2.62391	0.483942	10.2195	0.715769	15.0189	0.229566	5.29499	0.537978	11.238	0.876321	18.1345	0.925683	19.1639
0.344529	6.99552	0.0710145	1.39278	0.892827	2.62458	0.484644	10.1121	0.716115	14.7381	0.231395	5.22491	0.538288	11.0298	0.876247	17.79	0.92646	18.8171
0.344406	6.86319	0.0730473	1.40694	0.890606	2.62524	0.485202	10.029	0.716469	14.4679	0.233238	5.15801	0.538605	10.8296	0.876179	17.4584	0.927245	18.4832
0.344292	6.73586	0.0750914	1.42082	0.888379	2.62589	0.485614	9.96896	0.71683	14.2079	0.235094	5.09409	0.538928	10.6368	0.876116	17.1389	0.928037	18.1617
0.344188	6.61326	0.0771464	1.43441	0.886147	2.62652	0.485878	9.93097	0.717198	13.9575	0.236962	5.03295	0.539216	10.4746	0.876058	16.831	0.928836	17.8519
0.344093	6.49517	0.079212	1.44774	0.88391	2.62715	0.486259	9.87696	0.717573	13.7161	0.238841	4.97443	0.539465	10.3404	0.876007	16.5341	0.929642	17.553
0.344008	6.38134	0.0812879	1.4608	0.881667	2.62776	0.486675	9.81903	0.717955	13.4833	0.240731	4.91836	0.539673	10.2322	0.875961	16.2475	0.930454	17.2647
0.343934	6.27157	0.0833735	1.47361	0.87942	2.62836	0.487242	9.74153	0.718345	13.2586	0.242632	4.8646	0.53984	10.1483	0.875921	15.9708	0.931274	16.9862
0.34387	6.16565	0.0854686	1.48617	0.877167	2.62895	0.487963	9.64557	0.718741	13.0416	0.244543	4.813	0.539964	10.0875	0.875887	15.7034	0.932101	16.7172
0.343817	6.06341	0.0875729	1.49848	0.87491	2.62953	0.488839	9.53249	0.719145	12.832	0.246463	4.76345	0.540044	10.049	0.875859	15.4449	0.932934	16.4572
0.343775	5.96466	0.089686	1.51056	0.872648	2.63009	0.489875	9.40379	0.719556	12.6294	0.248393	4.71582	0.540159	9.99423	0.875837	15.1949	0.933774	16.2056
0.343744	5.86924	0.0918077	1.5224	0.870381	2.63065	0.491072	9.26114	0.719975	12.4334	0.250331	4.67001	0.540285	9.9354	0.87582	14.9529	0.934621	15.9622
0.343724	5.77701	0.0939376	1.53402	0.86811	2.63119	0.492278	9.12358	0.7204	12.2438	0.252278	4.62592	0.540458	9.85655	0.875809	14.7186	0.935474	15.7266
0.343716	5.68781	0.0960755	1.54542	0.865835	2.63173	0.493494	8.99087	0.720833	12.0602	0.254232	4.58345	0.540678	9.75872	0.875804	14.4916	0.936334	15.4983
0.34372	5.60152	0.0982212	1.55661	0.863555	2.63225	0.494719	8.86274	0.721273	11.8823	0.256194	4.54252	0.540949	9.64314	0.875805	14.2716	0.937201	15.277
0.343736	5.518	0.100374	1.56758	0.861271	2.63277	0.495952	8.73896	0.721721	11.7099	0.258163	4.50305	0.541271	9.51123	0.875812	14.0582	0.938074	15.0625
0.343765	5.43713	0.102535	1.57836	0.858983	2.63327	0.497193	8.61933	0.722176	11.5428	0.260139	4.46495	0.541648	9.36453	0.875825	13.8513	0.938953	14.8544
0.343806	5.35881	0.104702	1.58893	0.85669	2.63377	0.498443	8.50365	0.722638	11.3808	0.262121	4.42816	0.542031	9.2226	0.875843	13.6505	0.939839	14.6524
0.343859	5.28292	0.106876	1.59931	0.854394	2.63425	0.4997	8.39171	0.723108	11.2235	0.264109	4.39261	0.542422	9.08522	0.875868	13.4554	0.940732	14.4564
0.343925	5.20937	0.109057	1.6095	0.852094	2.63473	0.500965	8.28335	0.723586	11.0708	0.266103	4.35824	0.54282	8.95219	0.875898	13.266	0.94163	14.2659
0.344005	5.13806	0.111243	1.61951	0.849791	2.6352	0.502237	8.1784	0.72407	10.9225	0.268103	4.325	0.543225	8.82329	0.875934	13.082	0.942535	14.0809
0.344084	5.07768	0.113437	1.62934	0.847483	2.63566	0.503517	8.07669	0.724499	10.7967	0.270108	4.29282	0.543637	8.69836	0.875976	12.9031	0.943447	13.901
0.34416	5.02745	0.115636	1.63899	0.845173	2.63611	0.504803	7.97809	0.724869	10.692	0.272118	4.26166	0.544057	8.57721	0.876024	12.7291	0.944364	13.7261
0.344229	4.98676	0.11784	1.64847	0.842858	2.63655	0.506096	7.88246	0.725178	10.607	0.274133	4.23147	0.544484	8.45968	0.876078	12.5598	0.945288	13.5559
0.344287	4.95511	0.120051	1.65778	0.840541	2.63699	0.507396	7.78967	0.725424	10.5408	0.276152	4.2022	0.544918	8.34562	0.876138	12.3951	0.946218	13.3904
0.344331	4.93213	0.122266	1.66693	0.83822	2.63742	0.508702	7.69958	0.725606	10.4927	0.278175	4.17381	0.54536	8.23488	0.876204	12.2348	0.947154	13.2292
0.34436	4.91755	0.124488	1.67593	0.835896	2.63784	0.510014	7.6121	0.725723	10.4622	0.280202	4.14627	0.545809	8.12732	0.876275	12.0786	0.948096	13.0722
0.344404	4.89677	0.126714	1.68476	0.833569	2.63825	0.511331	7.52709	0.725893	10.4187	0.282233	4.11952	0.546266	8.02282	0.876352	11.9265	0.949044	12.9193
0.344453	4.8744	0.128945	1.69345	0.831239	2.63866	0.512655	7.44448	0.726077	10.3718	0.284267	4.09355	0.54673	7.92125	0.876436	11.7783	0.949998	12.7704
0.344522	4.84436	0.131181	1.70199	0.828907	2.63906	0.513984	7.36414	0.72633	10.3087	0.286305	4.06831	0.547202	7.8225	0.876525	11.6339	0.950959	12.6252
0.344615	4.80698	0.133421	1.71038	0.826571	2.63945	0.515318	7.286	0.726652	10.2302	0.288345	4.04377	0.547682	7.72645	0.87662	11.493	0.951925	12.4836
0.344733	4.76265	0.135666	1.71863	0.824233	2.63984	0.516658	7.20996	0.727046	10.137	0.290389	4.0199	0.54817	7.633	0.876721	11.3556	0.952897	12.3455
0.344882	4.71186	0.137916	1.72675	0.821892	2.64022	0.518002	7.13594	0.727513	10.03	0.292435	3.99668	0.548665	7.54204	0.876828	11.2216	0.953874	12.2107
0.345067	4.65513	0.140169	1.73473	0.819549	2.6406	0.519352	7.06387	0.728056	9.91015	0.294484	3.97408	0.549168	7.4535	0.876925	11.1074	0.954858	12.0793
0.345266	4.59999	0.142427	1.74258	0.817203	2.64097	0.520706	6.99366	0.728607	9.79345	0.296535	3.95206	0.549679	7.36727	0.877012	11.012	0.955847	11.9509
0.345479	4.54639	0.144689	1.7503	0.814854	2.64133	0.522064	6.92524	0.729166	9.67974	0.298588	3.93062	0.550197	7.28328	0.877087	10.9343	0.956843	11.8256
0.345706	4.49429	0.146955	1.7579	0.812503	2.64169	0.523427	6.85855	0.729732	9.5689	0.300643	3.90972	0.550724	7.20143	0.877147	10.8737	0.957844	11.7032
0.345949	4.44361	0.149224	1.76537	0.810151	2.64204	0.524794	6.79353	0.730306	9.46085	0.302699	3.88934	0.551259	7.12166	0.877192	10.8296	0.95885	11.5837
0.346206	4.39433	0.151497	1.77272	0.807795	2.64239	0.526164	6.7301	0.730888	9.35547	0.304758	3.86946	0.551802	7.04389	0.877221	10.8016	0.959862	11.4668
0.346478	4.34638	0.153774	1.77996	0.805438	2.64273	0.527539	6.66822	0.731478	9.25267	0.306817	3.85007	0.552353	6.96805	0.877264	10.7616	0.96088	11.3526
0.346764	4.29972	0.156054	1.78708	0.803079	2.64307	0.528917	6.60782	0.732075	9.15236	0.308878	3.83114	0.552912	6.89408	0.877311	10.7184	0.961772	11.2552
0.347066	4.25432	0.158338	1.79409	0.800717	2.64341	0.530299	6.54886	0.732681	9.05447	0.310941	3.81266	0.55348	6.8219	0.877377	10.6602	0.962535	11.1736
0.347384	4.21012	0.160625	1.80099	0.798354	2.64374	0.531685	6.49128	0.733294	8.9589	0.313004	3.79461	0.554055	6.75147	0.877461	10.5876	0.963168	11.1072
0.347716	4.1671	0.162915	1.80779	0.795989	2.64406	0.533073	6.43503	0.733915	8.86557	0.315068	3.77697	0.554639	6.68271	0.877566	10.5012	0.963671	11.0553
0.348064	4.12521	0.165209	1.81448	0.793622	2.64438	0.534465	6.38008	0.734545	8.77442	0.317133	3.75973	0.555232	6.61558	0.877694	10.4017	0.964041	11.0175
0.348427	4.08441	0.167505	1.82106	0.791253	2.6447	0.53586	6.32636	0.735182	8.68537	0.319198	3.74287	0.555832	6.55003	0.877845	10.2899	0.964278	10.9934
0.348806	4.04468	0.169804	1.82755	0.788883	2.64501	0.537257	6.27385	0.735827	8.59835	0.321264	3.72638	0.556442	6.486	0.878003	10.1805	0.96462	10.9591
0.349201	4.00598	0.172107	1.83394	0.78651	2.64532	0.538657	6.2225	0.73648	8.5133	0.32333	3.71025	0.557059	6.42344	0.878166	10.0736	0.964992	10.922
0.349612	3.96827	0.174412	1.84023	0.784137	2.64563	0.54006	6.17228	0.737142	8.43015	0.325396	3.69446	0.557686	6.36231	0.878335	9.96899	0.965499	10.8721
0.350038	3.93154	0.176719	1.84643	0.781761	2.64593	0.541465	6.12314	0.737811	8.34885	0.327462	3.679	0.558321	6.30256	0.87851	9.86664	0.966142	10.8096
0.35048	3.89574	0.17903	1.85253	0.779385	2.64623	0.542873	6.07505	0.738488	8.26933	0.329528	3.66387	0.558965	6.24416	0.878691	9.76647	0.966922	10.7352
0.350939	3.86085	0.181343	1.85855	0.777006	2.64653	0.544283	6.02798	0.739174	8.19155	0.331594	3.64904	0.559617	6.18705	0.878877	9.66842	0.967841	10.6494
0.351413	3.82684	0.183659	1.86448	0.774627	2.64683	0.545695	5.98189	0.739868	8.11544	0.33366	3.63451	0.560278	6.13121	0.879069	9.57242	0.968901	10.5529
0.351904	3.7937	0.185977	1.87032	0.772246	2.64712	0.547109	5.93675	0.74057	8.04097	0.335725	3.62026	0.560948	6.07658	0.879267	9.47841	0.969966	10.4584
0.352411	3.76139	0.188297	1.87608	0.769863	2.64741	0.548525	5.89255	0.74128	7.96807	0.33779	3.6063	0.561627	6.02315	0.879471	9.38634	0.971037	10.3658
0.352935	3.72989	0.19062	1.88175	0.76748	2.64769	0.549942	5.84923	0.741998	7.89671	0.339855	3.5926	0.562315	5.97087	0.87968	9.29613	0.972112	10.2751
0.353475	3.69917	0.192945	1.88735	0.765095	2.64798	0.551361	5.80678	0.742725	7.82683	0.341918	3.57916	0.563012	5.9197	0.879895	9.20775	0.973193	10.1862
0.354032	3.66922	0.195272	1.89286	0.762709	2.64826	0.552782	5.76517	0.74346	7.7584	0.343981	3.56598	0.563718	5.86962	0.880116	9.12113	0.974279	10.0991
0.354605	3.64002	0.197601	1.8983	0.760322	2.64854	0.554204	5.72438	0.744203	7.69138	0.346043	3.55303	0.564433	5.8206	0.880343	9.03623	0.97537	10.0137
0.355196	3.61154	0.199933	1.90366	0.757933	2.64881	0.555628	5.68438	0.744954	7.62571	0.348103	3.54032	0.565157	5.77261	0.880575	8.95299	0.976466	9.92995
0.355803	3.58376	0.202267	1.90894	0.755544	2.64909	0.557053	5.64515	0.745714	7.56138	0.350163	3.52784	0.56589	5.72561	0.880813	8.87138	0.977567	9.84784
0.356427	3.55667	0.204602	1.91415	0.753153	2.64936	0.558478	5.60667	0.746482	7.49833	0.352221	3.51558	0.566633	5.67958	0.881057	8.79133	0.978673	9.76731
0.357069	3.53025	0.20694	1.91929	0.750762	2.64963	0.559905	5.5689	0.747258	7.43653	0.354279	3.50353	0.567385	5.6345	0.881306	8.71282	0.979784	9.68832
0.357728	3.50449	0.209279	1.92436	0.74837	2.6499	0.561333	5.53184	0.748043	7.37595	0.356334	3.49169	0.568146	5.59034	0.881561	8.6358	0.9809	9.61081
0.358404	3.47935	0.211621	1.92936	0.745976	2.65017	0.562762	5.49546	0.748837	7.31656	0.358388	3.48005	0.568917	5.54707	0.881822	8.56022	0.982021	9.53475
0.359097	3.45484	0.213964	1.93429	0.743582	2.65044	0.564192	5.45975	0.749638	7.25832	0.360441	3.4686	0.569697	5.50467	0.882088	8.48606	0.983147	9.46011
0.359808	3.43092	0.216309	1.93916	0.741187	2.6507	0.565622	5.42468	0.750449	7.2012	0.362492	3.45734	0.570486	5.46312	0.88236	8.41326	0.984278	9.38683
0.360537	3.4076	0.218655	1.94396	0.738791	2.65097	0.567052	5.39024	0.751267	7.14517	0.364542	3.44626	0.571286	5.42239	0.882638	8.34181	0.985413	9.31489
0.361284	3.38485	0.221004	1.9487	0.736394	2.65123	0.568483	5.3564	0.752094	7.09021	0.366589	3.43536	0.572094	5.38247	0.882921	8.27165	0.986553	9.24425
0.362049	3.36266	0.223354	1.95337	0.733997	2.65149	0.569915	5.32316	0.75293	7.03629	0.368635	3.42463	0.572913	5.34333	0.88321	8.20275	0.987698	9.17488
0.362831	3.34102	0.225705	1.95798	0.731598	2.65176	0.571347	5.29049	0.753774	6.98337	0.370678	3.41406	0.573741	5.30495	0.883504	8.1351	0.988847	9.10675
0.363632	3.31992	0.228058	1.96253	0.729199	2.65202	0.572779	5.25839	0.754627	6.93144	0.37272	3.40366	0.574578	5.26732	0.883805	8.06864	0.990002	9.03981
0.364452	3.29933	0.23011	1.96645	0.7268	2.65228	0.574211	5.22683	0.755488	6.88047	0.374759	3.39341	0.575426	5.23042	0.88411	8.00336	0.99116	8.97404
0.36529	3.27926	0.23186	1.96975	0.724399	2.65254	0.575644	5.19581	0.756357	6.83043	0.376796	3.38331	0.576283	5.19422	0.884422	7.93921	0.992324	8.90942
0.366147	3.25969	0.233308	1.97246	0.721998	2.65279	0.577076	5.1653	0.757236	6.78131	0.378831	3.37337	0.57715	5.15872	0.884738	7.87618	0.993491	8.84591
0.367022	3.2406	0.234453	1.97459	0.719597	2.65305	0.578508	5.13529	0.758123	6.73307	0.380864	3.36356	0.578027	5.12389	0.885061	7.81424	0.994664	8.78348
0.367917	3.222	0.235295	1.97614	0.717195	2.65331	0.579941	5.10578	0.759018	6.6857	0.382894	3.35389	0.578914	5.08971	0.885389	7.75336	0.995841	8.72211
0.368831	3.20386	0.235834	1.97713	0.714792	2.65357	0.581373	5.07674	0.759922	6.63918	0.384922	3.34436	0.579811	5.05618	0.885722	7.69351	0.997022	8.66178
0.369765	3.18618	0.236609	1.97855	0.712389	2.65383	0.582804	5.04817	0.760835	6.59348	0.386947	3.33496	0.580718	5.02328	0.886062	7.63467	0.998207	8.60245
0.370718	3.16896	0.237452	1.98009	0.709985	2.65408	0.584236	5.02006	0.761756	6.54859	0.388969	3.32568	0.581636	4.99099	0.886406	7.57681	0.999397	8.5441
0.371691	3.15217	0.238598	1.98217	0.707581	2.65434	0.585666	4.99239	0.762686	6.50449	0.390989	3.31653	0.582563	4.9593	0.886756	7.51992	1.00059	8.48671
0.372684	3.13581	0.240048	1.98478	0.705177	2.6546	0.587097	4.96515	0.763624	6.46115	0.393006	3.30751	0.5835	4.92819	0.887112	7.46396		
0.373697	3.11988	0.241802	1.98791	0.702772	2.65486	0.588527	4.93833	0.764571	6.41856	0.395021	3.29859	0.584448	4.89765	0.887473	7.40892		
0.374731	3.10437	0.243861	1.99154	0.700366	2.65512	0.589956	4.91192	0.765527	6.37671	0.397032	3.28979	0.585406	4.86767	0.88784	7.35478		
0.375786	3.08926	0.246225	1.99566	0.697961	2.65537	0.591385	4.88591	0.766492	6.33558	0.39904	3.28111	0.586374	4.83824	0.888212	7.30151		
0.376862	3.07456	0.24859	1.99973	0.695554	2.65563	0.592813	4.8603	0.767465	6.29514	0.401046	3.27253	0.587352	4.80934	0.88859	7.24909		
0.37796	3.06025	0.250957	2.00375	0.693148	2.65589	0.59424	4.83507	0.768446	6.25539	0.403048	3.26405	0.588341	4.78096	0.888973	7.19751		
0.379079	3.04633	0.253324	2.00772	0.690741	2.65615	0.595667	4.81021	0.769437	6.2163	0.405048	3.25568	0.58934	4.7531	0.889362	7.14675		
0.38022	3.03279	0.255693	2.01164	0.688334	2.65641	0.597092	4.78571	0.770435	6.17787	0.407044	3.24741	0.590349	4.72573	0.889756	7.09678		
0.381383	3.01963	0.258063	2.01551	0.685927	2.65668	0.598517	4.76158	0.771443	6.14008	0.409037	3.23923	0.591369	4.69884	0.890156	7.0476		
0.382568	3.00683	0.260434	2.01933	0.68352	2.65694	0.59994	4.73778	0.772459	6.10291	0.411027	3.23115	0.592399	4.67244	0.890561	6.99918		
0.383776	2.9944	0.262806	2.02311	0.681112	2.6572	0.601363	4.71433	0.773484	6.06635	0.413014	3.22316	0.59344	4.6465	0.890972	6.9515		
0.385008	2.98233	0.265179	2.02684	0.678704	2.65747	0.602785	4.69121	0.774517	6.03039	0.414997	3.21526	0.594491	4.62103	0.891388	6.90456		
0.386262	2.97061	0.267553	2.03052	0.676296	2.65774	0.604205	4.66842	0.775559	5.99501	0.416977	3.20744	0.595553	4.59599	0.891809	6.85833		
0.387541	2.95924	0.269928	2.03416	0.673888	2.65801	0.605625	4.64594	0.77661	5.96021	0.418953	3.19971	0.596625	4.5714	0.892236	6.8128		
0.388843	2.94821	0.272304	2.03776	0.67148	2.65828	0.607043	4.62378	0.777669	5.92597	0.420926	3.19207	0.597708	4.54724	0.892668	6.76795		
0.390169	2.93751	0.274681	2.04132	0.669071	2.65855	0.608461	4.60191	0.778737	5.89227	0.422896	3.1845	0.598802	4.52349	0.893106	6.72377		
0.39152	2.92715	0.277058	2.04483	0.666663	2.65882	0.609876	4.58035	0.779813	5.85911	0.424862	3.17702	0.599906	4.50016	0.893549	6.68025		
0.392896	2.91712	0.279437	2.0483	0.664254	2.6591	0.611291	4.55907	0.780898	5.82647	0.426824	3.16961	0.60102	4.47723	0.893998	6.63737		
0.394297	2.9074	0.281817	2.05173	0.661846	2.65937	0.612705	4.53808	0.781991	5.79435	0.428783	3.16228	0.602146	4.45469	0.894452	6.59512		
0.395722	2.89801	0.284197	2.05512	0.659437	2.65965	0.614117	4.51736	0.783093	5.76273	0.430739	3.15502	0.603282	4.43255	0.894911	6.55349		
0.397174	2.88892	0.286578	2.05847	0.657029	2.65993	0.615527	4.49692	0.784204	5.73161	0.43269	3.14783	0.604428	4.41078	0.895376	6.51246		
0.39865	2.88015	0.28896	2.06178	0.65462	2.66022	0.616937	4.47674	0.785323	5.70096	0.434638	3.14072	0.605586	4.38938	0.895846	6.47202		
0.400153	2.87167	0.291343	2.06506	0.652212	2.6605	0.618345	4.45683	0.78645	5.67079	0.436582	3.13367	0.606754	4.36835	0.896322	6.43216		
0.401681	2.86349	0.293726	2.06829	0.649804	2.66079	0.619752	4.43717	0.787586	5.64108	0.438523	3.12669	0.607932	4.34767	0.896803	6.39287		
0.403235	2.8556	0.296111	2.07149	0.647396	2.66108	0.621157	4.41776	0.78873	5.61183	0.44046	3.11977	0.609122	4.32734	0.897289	6.35414		
0.404815	2.848	0.298496	2.07465	0.644988	2.66138	0.622561	4.3986	0.789882	5.58302	0.442393	3.11292	0.610322	4.30736	0.897781	6.31595		
0.40642	2.84068	0.300881	2.07778	0.64258	2.66167	0.623963	4.37968	0.791043	5.55464	0.444322	3.10614	0.611533	4.28771	0.898278	6.2783		
0.408052	2.83363	0.303267	2.08087	0.640172	2.66198	0.625364	4.36099	0.792212	5.5267	0.446248	3.09941	0.612754	4.26839	0.898781	6.24117		
0.409709	2.82684	0.305654	2.08392	0.637765	2.66228	0.626763	4.34254	0.79339	5.49917	0.44817	3.09274	0.613986	4.24939	0.899288	6.20455		
0.411391	2.82032	0.308042	2.08694	0.635357	2.66259	0.628161	4.32431	0.794575	5.47205	0.450087	3.08614	0.615229	4.23071	0.899802	6.16844		
0.413099	2.81406	0.31043	2.08993	0.632951	2.6629	0.629558	4.3063	0.795769	5.44533	0.452002	3.07959	0.616482	4.21234	0.90032	6.13282		
0.414832	2.80804	0.312818	2.09288	0.630544	2.66321	0.630953	4.28851	0.796971	5.41901	0.453912	3.0731	0.617746	4.19428	0.900844	6.09769		
0.416589	2.80226	0.315207	2.0958	0.628138	2.66353	0.632346	4.27094	0.798182	5.39307	0.455818	3.06666	0.619021	4.17651	0.901373	6.06304		
0.418371	2.79672	0.317597	2.09869	0.625732	2.66385	0.633738	4.25357	0.7994	5.36752	0.457721	3.06028	0.620306	4.15904	0.901908	6.02885		
0.420177	2.7914	0.319987	2.10155	0.623326	2.66418	0.635129	4.23641	0.800627	5.34233	0.45962	3.05395	0.621602	4.14186	0.902448	5.99512		
0.422006	2.78631	0.322378	2.10437	0.620921	2.66451	0.636518	4.21946	0.801861	5.31751	0.461515	3.04767	0.622909	4.12496	0.902993	5.96184		
0.423858	2.78143	0.324769	2.10716	0.618516	2.66484	0.637905	4.2027	0.803104	5.29305	0.463406	3.04145	0.624226	4.10833	0.903543	5.92901		
0.425733	2.77676	0.327161	2.10993	0.616112	2.66518	0.639291	4.18613	0.804354	5.26893	0.465293	3.03528	0.625554	4.09198	0.904099	5.8966		
0.42763	2.77228	0.329553	2.11266	0.613708	2.66553	0.640675	4.16976	0.805613	5.24517	0.467177	3.02915	0.626892	4.07589	0.90466	5.86463		
0.429548	2.768	0.331945	2.11536	0.611305	2.66588	0.642058	4.15357	0.806879	5.22173	0.469057	3.02308	0.628241	4.06006	0.905227	5.83307		
0.431487	2.7639	0.334338	2.11804	0.608903	2.66623	0.64344	4.13757	0.808153	5.19864	0.470933	3.01705	0.6296	4.04449	0.905799	5.80192		
0.433446	2.75997	0.336731	2.12068	0.6065	2.66659	0.64482	4.12175	0.809435	5.17586	0.472805	3.01107	0.630969	4.02918	0.906376	5.77118		
0.435424	2.75622	0.339125	2.12329	0.604099	2.66696	0.646199	4.10611	0.810725	5.15341	0.474674	3.00514	0.632349	4.01411	0.906958	5.74083		
0.437422	2.75263	0.341519	2.12588	0.601698	2.66733	0.647576	4.09065	0.812022	5.13126	0.476539	2.99926	0.633739	3.99928	0.907546	5.71087		
0.439437	2.7492	0.343913	2.12844	0.599298	2.66771	0.648952	4.07535	0.813327	5.10943	0.4784	2.99342	0.63514	3.98469	0.908139	5.68129		
0.44147	2.74591	0.346307	2.13097	0.596899	2.6681	0.650326	4.06023	0.814639	5.08789	0.480257	2.98762	0.636551	3.97033	0.908738	5.65209		
0.443521	2.74277	0.348702	2.13348	0.5945	2.66849	0.651699	4.04527	0.81596	5.06665	0.482111	2.98187	0.637972	3.9562	0.909341	5.62326		
0.445587	2.73976	0.351097	2.13596	0.592103	2.66889	0.65307	4.03047	0.817287	5.04571	0.483961	2.97617	0.639403	3.9423	0.90995	5.59479		
0.447669	2.73688	0.353493	2.13841	0.589706	2.66929	0.654441	4.01584	0.818622	5.02504	0.485808	2.97051	0.640844	3.92862	0.910565	5.56668		
0.449766	2.73413	0.355888	2.14083	0.58731	2.66971	0.65581	4.00136	0.819964	5.00466	0.487651	2.96488	0.642295	3.91516	0.911184	5.53892		
0.451877	2.73149	0.358284	2.14323	0.584915	2.67013	0.657177	3.98704	0.821314	4.98455	0.489491	2.95931	0.643757	3.9019	0.911809	5.5115		
0.454002	2.72897	0.36068	2.14561	0.582521	2.67056	0.658544	3.97287	0.822671	4.96472	0.491327	2.95377	0.645228	3.88886	0.912439	5.48443		
0.45614	2.72655	0.363076	2.14796	0.580128	2.671	0.659909	3.95886	0.824035	4.94514	0.49316	2.94827	0.646709	3.87602	0.913075	5.45768		
0.458291	2.72423	0.365472	2.15028	0.577736	2.67144	0.661272	3.94499	0.825406	4.92583	0.494989	2.94282	0.6482	3.86339	0.913715	5.43126		
0.460454	2.72201	0.367868	2.15258	0.575345	2.6719	0.662635	3.93127	0.826784	4.90677	0.496815	2.9374	0.649701	3.85095	0.914362	5.40517		
0.462628	2.71989	0.370265	2.15485	0.572956	2.67237	0.663997	3.91769	0.828169	4.88797	0.498638	2.93203	0.651212	3.8387	0.915013	5.37939		
0.464813	2.71785	0.372662	2.15711	0.570567	2.67284	0.665357	3.90425	0.829562	4.86941	0.500458	2.9267	0.652732	3.82665	0.91567	5.35393		
0.467009	2.71589	0.375058	2.15933	0.56818	2.67333	0.666716	3.89095	0.830961	4.85109	0.502274	2.9214	0.654262	3.81478	0.916331	5.32877		
0.469215	2.71401	0.377455	2.16154	0.565795	2.67382	0.668074	3.8778	0.832366	4.83301	0.504087	2.91614	0.655801	3.80309	0.916999	5.30391		
0.47143	2.71221	0.379852	2.16372	0.563411	2.67433	0.669431	3.86477	0.833779	4.81516	0.505897	2.91093	0.657349	3.79159	0.917671	5.27935		
0.473654	2.71048	0.382249	2.16588	0.561028	2.67485	0.670787	3.85188	0.835198	4.79754	0.507704	2.90575	0.658907	3.78026	0.918349	5.25508		
0.475887	2.70881	0.384646	2.16801	0.558647	2.67538	0.672142	3.83912	0.836624	4.78015	0.509509	2.90061	0.660475	3.7691	0.919032	5.2311		
0.478129	2.70722	0.387043	2.17013	0.556267	2.67593	0.673496	3.82649	0.838057	4.76298	0.51131	2.8955	0.662051	3.75812	0.919721	5.20741		
0.480378	2.70568	0.38944	2.17222	0.553889	2.67648	0.67485	3.81399	0.839496	4.74603	0.513108	2.89044	0.663637	3.7473	0.920415	5.18399		
0.482634	2.7042	0.391836	2.17429	0.551513	2.67706	0.676202	3.80162	0.840941	4.72929	0.514904	2.88541	0.665231	3.73664	0.921114	5.16084		
0.484898	2.70277	0.394233	2.17634	0.549139	2.67764	0.677553	3.78937	0.842392	4.71276	0.516697	2.88042	0.666835	3.72615	0.921818	5.13797		
0.487169	2.7014	0.39663	2.17836	0.546767	2.67824	0.678904	3.77724	0.84385	4.69643	0.518487	2.87546	0.668447	3.71582	0.922528	5.11536		
0.489446	2.70008	0.399026	2.18037	0.544397	2.67886	0.680254	3.76523	0.845314	4.68031	0.520275	2.87054	0.670068	3.70563	0.923243	5.09301		
0.491729	2.6988	0.401423	2.18235	0.542029	2.67949	0.681603	3.75334	0.846785	4.66439	0.52206	2.86566	0.671698	3.69561	0.923963	5.07092		
0.494019	2.69757	0.403819	2.18432	0.539663	2.68014	0.682952	3.74157	0.848261	4.64867	0.523843	2.86082	0.673336	3.68573	0.924688	5.04909		
0.496314	2.69639	0.406216	2.18626	0.537299	2.6808	0.684299	3.72992	0.849743	4.63313	0.525623	2.85601	0.674983	3.67599	0.925419	5.0275		
0.498614	2.69524	0.408612	2.18819	0.534938	2.68149	0.685647	3.71838	0.851231	4.61779	0.527401	2.85123	0.676638	3.66641	0.926156	5.00616		
0.500919	2.69413	0.411008	2.19009	0.532579	2.68219	0.686993	3.70695	0.852725	4.60263	0.529177	2.8465	0.678302	3.65696	0.926897	4.98507		
0.50323	2.69307	0.413403	2.19197	0.530223	2.68291	0.688339	3.69563	0.854225	4.58766	0.530951	2.8418	0.679974	3.64765	0.927644	4.96421		
0.505545	2.69203	0.415799	2.19384	0.52787	2.68366	0.689685	3.68443	0.85573	4.57286	0.532722	2.83713	0.681654	3.63848	0.928396	4.94359		
0.507864	2.69103	0.418194	2.19568	0.52552	2.68442	0.69103	3.67333	0.857242	4.55824	0.534492	2.8325	0.683342	3.62944	0.929154	4.92319		
0.510188	2.69007	0.420589	2.19751	0.523172	2.68521	0.692375	3.66234	0.858758	4.54379	0.53626	2.82791	0.685038	3.62053	0.929916	4.90303		
0.512516	2.68913	0.422984	2.19931	0.520828	2.68603	0.693719	3.65146	0.86028	4.52952	0.538025	2.82335	0.686741	3.61175	0.930685	4.88309		
0.514848	2.68822	0.425379	2.2011	0.518487	2.68686	0.695064	3.64068	0.861807	4.51541	0.53979	2.81882	0.688453	3.60309	0.931458	4.86338		
0.517183	2.68734	0.427773	2.20287	0.51615	2.68773	0.696408	3.63	0.86334	4.50146	0.541552	2.81433	0.690172	3.59456	0.932237	4.84388		
0.519522	2.68649	0.430167	2.20462	0.513816	2.68862	0.697751	3.61943	0.864878	4.48768	0.543313	2.80988	0.691898	3.58615	0.933021	4.8246		
0.521864	2.68566	0.43256	2.20635	0.511486	2.68954	0.699095	3.60896	0.866421	4.47406	0.545072	2.80546	0.693632	3.57786	0.933811	4.80553		
0.52421	2.68486	0.434953	2.20806	0.50916	2.69049	0.700438	3.59859	0.86797	4.46059	0.54683	2.80107	0.695373	3.56969	0.934606	4.78667		
0.526559	2.68408	0.437346	2.20976	0.506838	2.69147	0.701781	3.58831	0.869523	4.44728	0.548587	2.79672	0.697122	3.56163	0.935406	4.76802		
0.52891	2.68333	0.439739	2.21144	0.504521	2.69248	0.703125	3.57813	0.871081	4.43412	0.550342	2.79241	0.698877	3.55368	0.936212	4.74957		
0.531265	2.68259	0.442131	2.2131	0.502208	2.69353	0.704468	3.56805	0.872644	4.42111	0.552096	2.78813	0.70064	3.54585	0.937023	4.73132		
0.533622	2.68188	0.444522	2.21474	0.499899	2.69462	0.705811	3.55806	0.874212	4.40825	0.553849	2.78388	0.702409	3.53812	0.937839	4.71327		
0.535982	2.68118	0.446913	2.21636	0.497596	2.69574	0.707155	3.54817	0.875784	4.39552	0.555601	2.77967	0.704186	3.5305	0.938661	4.69541		
0.538344	2.68051	0.449304	2.21797	0.495298	2.69691	0.708498	3.53837	0.877361	4.38294	0.557352	2.77549	0.705969	3.52298	0.939488	4.67775		
0.540709	2.67985	0.451694	2.21956	0.493006	2.69811	0.709842	3.52866	0.878943	4.3705	0.559102	2.77135	0.707758	3.51556	0.94032	4.66028		
0.543075	2.67921	0.454084	2.22113	0.490719	2.69936	0.711186	3.51905	0.880529	4.3582	0.560851	2.76724	0.709554	3.50825	0.941158	4.64299		
0.545445	2.67858	0.456473	2.22269	0.488438	2.70066	0.71253	3.50952	0.88212	4.34603	0.5626	2.76317	0.711356	3.50103	0.942002	4.62589		
0.547816	2.67797	0.458861	2.22423	0.486164	2.702	0.713875	3.50008	0.883714	4.33399	0.564348	2.75913	0.713165	3.49391	0.942851	4.60897		
0.550189	2.67738	0.461249	2.22575	0.483896	2.7034	0.71522	3.49073	0.885314	4.32209	0.566096	2.75512	0.714979	3.48689	0.943705	4.59223		
0.552564	2.6768	0.463636	2.22726	0.481636	2.70484	0.716565	3.48146	0.886917	4.31031	0.567843	2.75115	0.7168	3.47995	0.944564	4.57567		
0.554941	2.67624	0.466023	2.22875	0.479382	2.70635	0.717911	3.47228	0.888524	4.29866	0.56959	2.74722	0.718627	3.47311	0.945429	4.55928		
0.557319	2.67568	0.468409	2.23022	0.477136	2.70791	0.719257	3.46319	0.890136	4.28713	0.571337	2.74331	0.720459	3.46636	0.9463	4.54307		
0.559699	2.67515	0.470794	2.23168	0.474899	2.70954	0.720604	3.45418	0.891751	4.27572	0.573083	2.73944	0.722297	3.45969	0.947176	4.52702		
0.562081	2.67462	0.473179	2.23312	0.47267	2.71124	0.721952	3.44525	0.89337	4.26444	0.57483	2.73561	0.724141	3.45311	0.948057	4.51115		
0.564465	2.67411	0.475563	2.23455	0.470449	2.713	0.7233	3.43641	0.894993	4.25327	0.576576	2.73181	0.72599	3.44662	0.948944	4.49544		
0.56685	2.6736	0.477946	2.23596	0.468238	2.71483	0.724648	3.42764	0.89662	4.24222	0.578323	2.72804	0.727845	3.44021	0.949837	4.47989		
0.569236	2.67311	0.480329	2.23735	0.466037	2.71675	0.725998	3.41896	0.89825	4.23128	0.580069	2.7243	0.729705	3.43388	0.950735	4.46451		
0.571623	2.67263	0.48271	2.23873	0.463846	2.71874	0.727348	3.41035	0.899884	4.22045	0.581816	2.7206	0.73157	3.42763	0.951638	4.44929		
0.574012	2.67216	0.485091	2.24009	0.461665	2.72082	0.728699	3.40183	0.901522	4.20974	0.583564	2.71694	0.73344	3.42145	0.952547	4.43422		
0.576402	2.6717	0.487471	2.24144	0.459496	2.72298	0.730051	3.39338	0.903163	4.19913	0.585311	2.71331	0.735315	3.41536	0.953461	4.41931		
0.578794	2.67125	0.48985	2.24277	0.457338	2.72525	0.731404	3.38501	0.904807	4.18863	0.58706	2.70971	0.737195	3.40933	0.954381	4.40455		
0.581186	2.6708	0.492229	2.24409	0.455193	2.72761	0.732758	3.37671	0.906455	4.17824	0.588809	2.70614	0.73908	3.40338	0.955307	4.38995		
0.583579	2.67037	0.494606	2.24539	0.453061	2.73007	0.734113	3.3685	0.908105	4.16795	0.590558	2.70261	0.740969	3.39751	0.956238	4.37549		
0.585974	2.66994	0.496983	2.24667	0.450942	2.73264	0.735469	3.36035	0.909759	4.15776	0.592308	2.69911	0.742863	3.3917	0.957174	4.36118		
0.588369	2.66952	0.499358	2.24794	0.448837	2.73533	0.736826	3.35228	0.911416	4.14767	0.59406	2.69565	0.744761	3.38597	0.958116	4.34702		
0.590766	2.66911	0.501733	2.2492	0.446746	2.73814	0.738184	3.34428	0.913076	4.13768	0.595812	2.69222	0.746664	3.3803	0.959064	4.33301		
0.593163	2.66871	0.504106	2.25044	0.444671	2.74107	0.739543	3.33636	0.914739	4.12779	0.597565	2.68882	0.748571	3.3747	0.960017	4.31913		
0.595561	2.66831	0.506479	2.25167	0.442612	2.74414	0.740904	3.32851	0.916405	4.11799	0.599319	2.68545	0.750482	3.36916	0.960976	4.3054		
0.59796	2.66793	0.50885	2.25288	0.440569	2.74734	0.742266	3.32072	0.918073	4.10829	0.601074	2.68212	0.752397	3.36369	0.96194	4.2918		
0.600359	2.66754	0.511221	2.25408	0.438544	2.7507	0.743629	3.31301	0.919744	4.09868	0.602831	2.67882	0.754316	3.35828	0.96291	4.27835		
0.60276	2.66717	0.51359	2.25526	0.436536	2.7542	0.744993	3.30537	0.921418	4.08916	0.604589	2.67556	0.756238	3.35293	0.963886	4.26503		
0.605161	2.6668	0.515958	2.25643	0.434547	2.75786	0.746359	3.2978	0.923095	4.07973	0.606349	2.67233	0.758165	3.34764	0.964867	4.25184		
0.607563	2.66643	0.518325	2.25758	0.432577	2.76169	0.747726	3.29029	0.924774	4.07039	0.60811	2.66913	0.760095	3.34242	0.965854	4.23879		
0.609965	2.66607	0.520691	2.25872	0.430627	2.76569	0.749095	3.28286	0.926455	4.06114	0.609872	2.66596	0.762029	3.33725	0.966847	4.22586		
0.612368	2.66572	0.523055	2.25984	0.428697	2.76987	0.750465	3.27549	0.928139	4.05197	0.611636	2.66283	0.763966	3.33213	0.967845	4.21307		
0.614771	2.66537	0.525419	2.26095	0.426789	2.77424	0.751836	3.26819	0.929825	4.04288	0.613402	2.65973	0.765906	3.32708	0.968849	4.20041		
0.617175	2.66503	0.527781	2.26204	0.424901	2.7788	0.75321	3.26095	0.931513	4.03388	0.61517	2.65666	0.76785	3.32207	0.969859	4.18787		
0.61958	2.66469	0.530141	2.26313	0.423037	2.78356	0.754585	3.25378	0.933204	4.02496	0.616939	2.65362	0.769796	3.31712	0.970875	4.17545		
0.621985	2.66436	0.532501	2.26419	0.421194	2.78854	0.755961	3.24667	0.934896	4.01613	0.618711	2.65062	0.771746	3.31223	0.971896	4.16317		
0.62439	2.66403	0.534859	2.26524	0.419375	2.79373	0.757339	3.23962	0.936591	4.00737	0.620484	2.64765	0.773699	3.30738	0.972923	4.151		
0.626796	2.66371	0.537215	2.26628	0.41758	2.79914	0.758719	3.23264	0.938287	3.99869	0.62226	2.64471	0.775654	3.30259	0.973955	4.13895		
0.629202	2.66339	0.539571	2.26731	0.415809	2.80479	0.760101	3.22573	0.939986	3.99008	0.624038	2.64181	0.777613	3.29785	0.974994	4.12702		
0.631608	2.66307	0.541924	2.26832	0.414062	2.81067	0.761485	3.21887	0.941686	3.98155	0.625818	2.63894	0.779573	3.29315	0.976038	4.11521		
0.634015	2.66276	0.544277	2.26931	0.412341	2.8168	0.76287	3.21208	0.943388	3.9731	0.6276	2.6361	0.781537	3.2885	0.977088	4.10352		
0.636422	2.66245	0.546627	2.2703	0.410644	2.82317	0.764258	3.20534	0.945092	3.96472	0.629385	2.63329	0.783503	3.2839	0.978144	4.09194		
0.638829	2.66214	0.548977	2.27126	0.408973	2.82981	0.765647	3.19867	0.946797	3.95641	0.631173	2.63051	0.785471	3.27934	0.979206	4.08048		
0.641237	2.66184	0.551324	2.27222	0.407327	2.83671	0.767038	3.19206	0.948504	3.94817	0.632962	2.62777	0.787442	3.27483	0.980273	4.06913		
0.643644	2.66154	0.55367	2.27316	0.405707	2.84388	0.768431	3.18551	0.950213	3.94	0.634755	2.62506	0.789415	3.27037	0.981347	4.05789		
0.646052	2.66125	0.556015	2.27408	0.404113	2.85133	0.769827	3.17901	0.951923	3.9319	0.63655	2.62238	0.79139	3.26594	0.982426	4.04677		
0.64846	2.66095	0.558357	2.275	0.402544	2.85906	0.771224	3.17258	0.953635	3.92387	0.638348	2.61973	0.793367	3.26156	0.983511	4.03575		
0.650869	2.66066	0.560698	2.27589	0.401002	2.86707	0.772623	3.1662	0.955347	3.91591	0.640149	2.61711	0.795346	3.25722	0.984602	4.02484		
0.653277	2.66038	0.563038	2.27678	0.399485	2.87538	0.774025	3.15988	0.957061	3.90801	0.641953	2.61453	0.797326	3.25292	0.985699	4.01403		
0.655685	2.66009	0.565375	2.27765	0.397994	2.88399	0.775429	3.15361	0.958777	3.90017	0.643759	2.61197	0.799309	3.24866	0.986802	4.00334		
0.658094	2.65981	0.567711	2.27851	0.396529	2.8929	0.776835	3.14741	0.960493	3.8924	0.645569	2.60945	0.801293	3.24444	0.987911	3.99274		
0.660502	2.65953	0.570044	2.27935	0.395089	2.90212	0.778243	3.14125	0.962211	3.8847	0.647382	2.60696	0.803279	3.24025	0.989026	3.98225		
0.662911	2.65925	0.572376	2.28018	0.393674	2.91166	0.779654	3.13516	0.963929	3.87705	0.649197	2.6045	0.805266	3.23611	0.990147	3.97187		
0.665319	2.65897	0.574706	2.281	0.392285	2.92151	0.781067	3.12912	0.965649	3.86947	0.651017	2.60207	0.807255	3.232	0.991274	3.96158		
0.667728	2.6587	0.577034	2.2818	0.39092	2.93169	0.782482	3.12313	0.967369	3.86194	0.652839	2.59968	0.809245	3.22793	0.992407	3.9514		
0.670136	2.65843	0.579361	2.28259	0.38958	2.9422	0.7839	3.1172	0.969091	3.85448	0.654665	2.59731	0.811236	3.22389	0.993546	3.94131		
0.672545	2.65816	0.581685	2.28336	0.388264	2.95304	0.78532	3.11132	0.970813	3.84707	0.656494	2.59498	0.813229	3.21988	0.994691	3.93132		
0.674953	2.65789	0.584007	2.28412	0.386973	2.96422	0.786743	3.10549	0.972536	3.83972	0.658327	2.59267	0.815222	3.21591	0.995842	3.92143		
0.677361	2.65762	0.586327	2.28487	0.385705	2.97575	0.788168	3.09972	0.97426	3.83243	0.660163	2.5904	0.817217	3.21198	0.996999	3.91164		
0.679769	2.65735	0.588644	2.28561	0.38446	2.98763	0.789596	3.09399	0.975984	3.8252	0.662003	2.58816	0.819212	3.20807	0.998162	3.90194		
0.682177	2.65709	0.59096	2.28633	0.383239	2.99986	0.791026	3.08832	0.977709	3.81802	0.663846	2.58594	0.821209	3.2042	0.999331	3.89233		
0.684584	2.65682	0.593274	2.28703	0.382041	3.01245	0.792459	3.08271	0.979435	3.81089	0.665694	2.58376	0.823206	3.20036	1.00051	3.88282		
0.686992	2.65656	0.595585	2.28772	0.380866	3.0254	0.793895	3.07714	0.981161	3.80381	0.667545	2.58161	0.825204	3.19655				
0.689399	2.6563	0.597894	2.2884	0.379712	3.03873	0.795333	3.07162	0.982887	3.79679	0.6694	2.57949	0.827202	3.19276				
0.691806	2.65604	0.600201	2.28907	0.378581	3.05244	0.796774	3.06615	0.984614	3.78983	0.671258	2.5774	0.829201	3.18901				
0.694212	2.65578	0.602505	2.28972	0.377472	3.06653	0.798218	3.06073	0.986342	3.78291	0.673121	2.57534	0.8312	3.18529				
0.696618	2.65552	0.604807	2.29036	0.376384	3.08101	0.799665	3.05537	0.988069	3.77604	0.674988	2.57331	0.8332	3.18159				
0.699024	2.65526	0.607107	2.29099	0.375317	3.09589	0.801114	3.05005	0.989797	3.76922	0.676859	2.57131	0.8352	3.17792				
0.70143	2.655	0.609404	2.2916	0.374272	3.11118	0.802566	3.04477	0.991525	3.76245	0.678734	2.56934	0.837201	3.17428				
0.703835	2.65474	0.611699	2.2922	0.373247	3.12688	0.804022	3.03955	0.993253	3.75573	0.680613	2.56739	0.839202	3.17067				
0.70624	2.65448	0.613991	2.29278	0.372242	3.14299	0.80548	3.03438	0.994981	3.74906	0.682496	2.56548	0.841202	3.16708				
0.708644	2.65423	0.616281	2.29335	0.371258	3.15954	0.806941	3.02925	0.99671	3.74243	0.684384	2.5636	0.843203	3.16351				
0.711048	2.65397	0.618568	2.29391	0.370294	3.17652	0.808405	3.02417	0.998438	3.73585	0.686276	2.56175	0.845204	3.15997				
0.713452	2.65371	0.620853	2.29446	0.369349	3.19394	0.809872	3.01913	1.00017	3.72932	0.688173	2.55992	0.847204	3.15646				
0.715855	2.65345	0.623135	2.29499	0.368425	3.21182	0.811342	3.01415			0.690073	2.55813	0.849205	3.15297				
0.718257	2.6532	0.625414	2.29551	0.367519	3.23017	0.812816	3.0092			0.691979	2.55636	0.851205	3.1495				
0.720659	2.65294	0.627691	2.29601	0.366633	3.24898	0.814292	3.00431			0.693889	2.55463	0.853205	3.14605				
0.72306	2.65268	0.629965	2.2965	0.365765	3.26828	0.815772	2.99946			0.695803	2.55292	0.855204	3.14263				
0.725461	2.65242	0.632236	2.29698	0.364917	3.28807	0.817255	2.99465			0.697722	2.55124	0.857203	3.13923				
0.727861	2.65216	0.634504	2.29745	0.364087	3.30837	0.818741	2.98989			0.699646	2.54958	0.859202	3.13585				
0.73026	2.6519	0.63677	2.2979	0.363276	3.32918	0.82023	2.98517			0.701574	2.54796	0.8612	3.13249				
0.732659	2.65164	0.639033	2.29834	0.362483	3.35052	0.821723	2.9805			0.703508	2.54637	0.863197	3.12915				
0.735057	2.65138	0.641293	2.29876	0.361708	3.37241	0.823219	2.97587			0.705446	2.5448	0.865194	3.12583				
0.737454	2.65112	0.64355	2.29917	0.360952	3.39484	0.824719	2.97128			0.707388	2.54326	0.867189	3.12253				
0.739851	2.65085	0.645804	2.29957	0.360213	3.41784	0.826222	2.96674			0.709336	2.54175	0.869184	3.11925				
0.742246	2.65059	0.648056	2.29996	0.359492	3.44142	0.827729	2.96224			0.711289	2.54026	0.871179	3.11598				
0.744641	2.65032	0.650304	2.30033	0.358788	3.4656	0.829239	2.95778			0.713246	2.53881	0.873172	3.11274				
0.747035	2.65005	0.65255	2.30069	0.358103	3.49039	0.830752	2.95336			0.715209	2.53738	0.875164	3.10951				
0.749428	2.64978	0.654792	2.30104	0.357434	3.5158	0.83227	2.94899			0.717176	2.53598	0.877155	3.10631				
0.75182	2.64951	0.657032	2.30138	0.356783	3.54186	0.833791	2.94466			0.719149	2.5346	0.879145	3.10311				
0.754211	2.64924	0.659268	2.3017	0.356149	3.56857	0.835315	2.94037			0.721126	2.53325	0.881134	3.09994				
0.756601	2.64897	0.661501	2.30201	0.355532	3.59596	0.836844	2.93612			0.723109	2.53193	0.883121	3.09678				
0.75899	2.64869	0.663732	2.3023	0.354933	3.62404	0.838376	2.93191			0.725097	2.53063	0.885107	3.09364				
0.761377	2.64841	0.665959	2.30259	0.35435	3.65284	0.839912	2.92774			0.72709	2.52937	0.887092	3.09051				
0.763764	2.64813	0.668184	2.30286	0.353784	3.68237	0.841452	2.92362			0.729088	2.52812	0.889076	3.0874				
0.76615	2.64785	0.670405	2.30312	0.353234	3.71266	0.842996	2.91953			0.731091	2.5269	0.891058	3.0843				
0.768534	2.64757	0.672623	2.30337	0.352701	3.74372	0.844544	2.91548			0.733099	2.52571	0.893038	3.08122				
0.770917	2.64728	0.674838	2.3036	0.352185	3.77557	0.846095	2.91147			0.735113	2.52455	0.895017	3.07816				
0.773299	2.64699	0.67705	2.30383	0.351685	3.80825	0.847651	2.90751			0.737132	2.52341	0.896995	3.0751				
0.775679	2.6467	0.679259	2.30404	0.351201	3.84177	0.849211	2.90358			0.739156	2.52229	0.898971	3.07206				
0.778058	2.6464	0.681464	2.30424	0.350734	3.87617	0.850775	2.89969			0.741185	2.5212	0.900945	3.06904				
0.780436	2.6461	0.683667	2.30443	0.350283	3.91145	0.852344	2.89584			0.74322	2.52013	0.902917	3.06603				
0.782812	2.6458	0.685866	2.3046	0.349847	3.94766	0.853917	2.89203			0.74526	2.51909	0.904887	3.06303				
0.785187	2.6455	0.688063	2.30477	0.349428	3.98483	0.855494	2.88825			0.747305	2.51807	0.906856	3.06004				
0.78756	2.64519	0.690256	2.30492	0.349025	4.02297	0.857075	2.88452			0.749355	2.51708	0.908823	3.05707				
0.789931	2.64488	0.692446	2.30506	0.348637	4.06212	0.858661	2.88082			0.751411	2.51611	0.910787	3.0541				
0.792301	2.64456	0.694633	2.30519	0.348265	4.10232	0.860251	2.87717			0.753471	2.51516	0.91275	3.05115				
0.794669	2.64424	0.696817	2.30531	0.347908	4.1436	0.861846	2.87355			0.755538	2.51424	0.914711	3.04821				
0.797035	2.64392	0.698998	2.30542	0.347567	4.18598	0.863445	2.86996			0.757609	2.51334	0.91667	3.04529				
0.799399	2.64359	0.701176	2.30552	0.347241	4.22952	0.86505	2.86642			0.759685	2.51247	0.918627	3.04237				
0.801762	2.64326	0.703351	2.30561	0.346931	4.27424	0.866659	2.86291			0.761767	2.51161	0.920581	3.03946				
0.804122	2.64292	0.705523	2.30569	0.346636	4.3202	0.868272	2.85944			0.763854	2.51078	0.922534	3.03657				
0.806481	2.64258	0.707691	2.30575	0.346355	4.36742	0.869891	2.85601			0.765947	2.50997	0.924484	3.03369				
0.808837	2.64224	0.709857	2.30581	0.34609	4.41595	0.871514	2.85261			0.768044	2.50918	0.926432	3.03081				
0.811191	2.64189	0.71202	2.30586	0.34584	4.46585	0.873143	2.84925			0.770147	2.50842	0.928378	3.02795				
0.813543	2.64153	0.71418	2.30589	0.345604	4.51715	0.874776	2.84593			0.772255	2.50767	0.930321	3.02509				
0.815893	2.64117	0.716337	2.30592	0.345383	4.56991	0.876415	2.84265			0.774368	2.50695	0.932262	3.02225				
0.81824	2.6408	0.718491	2.30594	0.345176	4.62418	0.878059	2.8394			0.776486	2.50625	0.934201	3.01942				
0.820585	2.64043	0.720642	2.30595	0.344984	4.68001	0.879708	2.83619			0.778609	2.50557	0.936138	3.01659				
0.822927	2.64005	0.72279	2.30595	0.344805	4.73747	0.881363	2.83301			0.780738	2.50491	0.938072	3.01377				
0.825267	2.63967	0.724935	2.30594	0.344641	4.79662	0.883023	2.82987			0.782871	2.50426	0.940003	3.01097				
0.827604	2.63928	0.727078	2.30592	0.344491	4.85752	0.884689	2.82677			0.785009	2.50364	0.941932	3.00817				
0.829939	2.63888	0.729217	2.30589	0.344355	4.92024	0.88636	2.82371			0.787153	2.50304	0.943859	3.00538				
0.83227	2.63848	0.731354	2.30586	0.344232	4.98484	0.888037	2.82068			0.789301	2.50246	0.945783	3.0026				
0.834599	2.63807	0.733489	2.30581	0.344123	5.05142	0.88972	2.81768			0.791454	2.5019	0.947705	2.99983				
0.836924	2.63765	0.73562	2.30576	0.344027	5.12003	0.891408	2.81472			0.793613	2.50135	0.949624	2.99706				
0.839247	2.63723	0.737749	2.3057	0.343945	5.19078	0.893103	2.8118			0.795776	2.50082	0.95154	2.99431				
0.841566	2.6368	0.739876	2.30563	0.343875	5.26374	0.894804	2.80892			0.797943	2.50032	0.953454	2.99156				
0.843882	2.63636	0.741999	2.30555	0.343818	5.33902	0.89651	2.80607			0.800116	2.49983	0.955366	2.98882				
0.846195	2.63591	0.744121	2.30547	0.343774	5.4167	0.898223	2.80326			0.802293	2.49935	0.957274	2.98609				
0.848504	2.63546	0.74624	2.30538	0.343743	5.4969	0.899943	2.80048			0.804475	2.4989	0.959181	2.98336				
0.85081	2.63499	0.748356	2.30528	0.343723	5.57972	0.901669	2.79774			0.806662	2.49846	0.961084	2.98064				
0.853112	2.63452	0.75047	2.30518	0.343716	5.66529	0.903401	2.79503			0.808853	2.49804	0.962985	2.97793				
0.85541	2.63404	0.752581	2.30507	0.343721	5.75373	0.90514	2.79236			0.811049	2.49763	0.964883	2.97523				
0.857704	2.63355	0.754691	2.30495	0.343737	5.84517	0.906886	2.78973			0.81325	2.49724	0.966779	2.97254				
0.859995	2.63305	0.756797	2.30483	0.343765	5.93975	0.908638	2.78713			0.815455	2.49687	0.968672	2.96985				
0.862281	2.63254	0.758902	2.3047	0.343805	6.03762	0.910398	2.78457			0.817664	2.49651	0.970562	2.96717				
0.864563	2.63202	0.761005	2.30456	0.343855	6.13895	0.912164	2.78205			0.819878	2.49617	0.97245	2.9645				
0.866841	2.63149	0.763105	2.30442	0.343916	6.2439	0.913938	2.77956			0.822096	2.49585	0.974334	2.96183				
0.869115	2.63095	0.765203	2.30427	0.343988	6.35266	0.915719	2.77711			0.824318	2.49553	0.976217	2.95917				
0.871384	2.6304	0.767299	2.30412	0.34407	6.46543	0.917507	2.77469			0.826545	2.49524	0.978096	2.95652				
0.873649	2.62984	0.769394	2.30397	0.344162	6.5824	0.919303	2.77231			0.828776	2.49495	0.979973	2.95387				
0.875909	2.62927	0.771486	2.3038	0.344264	6.70381	0.921106	2.76996			0.83101	2.49468	0.981847	2.95123				
0.878164	2.62869	0.773576	2.30364	0.344376	6.82989	0.922917	2.76766			0.833249	2.49443	0.983719	2.9486				
0.880414	2.6281	0.775664	2.30346	0.344497	6.96091	0.924736	2.76538			0.835492	2.49419	0.985588	2.94598				
0.88266	2.62749	0.777751	2.30329	0.344627	7.09715	0.926563	2.76315			0.83774	2.49396	0.987454	2.94336				
0.8849	2.62687	0.779836	2.30311	0.344765	7.23889	0.928397	2.76095			0.83999	2.49374	0.989318	2.94075				
0.887135	2.62624	0.781919	2.30292	0.344912	7.38647	0.93024	2.75878			0.842245	2.49354	0.991179	2.93814				
0.889364	2.6256	0.784	2.30273	0.345067	7.54024	0.932091	2.75666			0.844504	2.49335	0.993037	2.93554				
0.891589	2.62495	0.78608	2.30254	0.345229	7.70056	0.93395	2.75456			0.846766	2.49317	0.994893	2.93295				
0.893808	2.62429	0.788158	2.30234	0.345399	7.86787	0.935817	2.75251			0.849033	2.493	0.996746	2.93037				
0.896021	2.62361	0.790234	2.30214	0.345576	8.04259	0.937693	2.75049			0.851302	2.49285	0.998597	2.92779				
0.898229	2.62292	0.792309	2.30194	0.34576	8.22521	0.939578	2.74851			0.853576	2.49271	1.00044	2.92521				
0.900431	2.62221	0.794383	2.30173	0.34595	8.41627	0.941471	2.74656			0.855853	2.49257						
0.902628	2.6215	0.796455	2.30152	0.346146	8.61634	0.943373	2.74465			0.858133	2.49245						
0.904818	2.62077	0.798525	2.30131	0.346348	8.82605	0.945283	2.74277			0.860417	2.49234						
0.907003	2.62002	0.800595	2.3011	0.346528	9.0172	0.947202	2.74093			0.862705	2.49224						
0.909182	2.61927	0.802663	2.30088	0.346684	9.18671	0.949131	2.73912			0.864996	2.49215						
0.911355	2.6185	0.80473	2.30066	0.346815	9.33171	0.951068	2.73735			0.86729	2.49207						
0.913521	2.61772	0.806795	2.30044	0.346919	9.44959	0.953014	2.73562			0.869587	2.492						
0.915682	2.61692	0.80886	2.30021	0.346997	9.53816	0.954969	2.73392			0.871888	2.49194						
0.917837	2.61611	0.810923	2.29999	0.347069	9.62109	0.956933	2.73225			0.874191	2.49189						
0.919985	2.61529	0.812985	2.29976	0.347119	9.67963	0.958906	2.73062			0.876498	2.49185						
0.922128	2.61446	0.815046	2.29953	0.347198	9.77251	0.960888	2.72903			0.878808	2.49181						
0.924264	2.61361	0.817107	2.2993	0.347306	9.90166	0.962879	2.72747			0.881121	2.49179						
0.926394	2.61275	0.819166	2.29906	0.347444	10.0699	0.96488	2.72594			0.883437	2.49177						
0.928518	2.61188	0.821224	2.29883	0.347612	10.281	0.966889	2.72444			0.885756	2.49177						
0.930637	2.611	0.823282	2.29859	0.34781	10.54	0.968907	2.72298			0.888077	2.49177						
0.932749	2.6101	0.825338	2.29836	0.348041	10.8534	0.970935	2.72155			0.890402	2.49177						
0.934855	2.60919	0.827394	2.29812	0.348273	11.1856	0.972971	2.72016			0.892729	2.49179						
0.936955	2.60827	0.829449	2.29788	0.348506	11.5384	0.975017	2.71879			0.895059	2.49181						
0.939049	2.60734	0.831503	2.29764	0.34874	11.9136	0.977071	2.71746			0.897391	2.49184						
0.941138	2.60639	0.833557	2.2974	0.348974	12.3135	0.979134	2.71616			0.899727	2.49188						
0.943221	2.60544	0.83561	2.29716	0.349208	12.7406	0.981205	2.71489			0.902065	2.49193						
0.945298	2.60447	0.837662	2.29692	0.349441	13.1978	0.983286	2.71365			0.904405	2.49198						
0.947369	2.6035	0.839714	2.29668	0.349673	13.6882	0.985375	2.71244			0.906748	2.49204						
0.949436	2.60251	0.841765	2.29644	0.349903	14.2157	0.987472	2.71126			0.909093	2.4921						
0.951496	2.60152	0.843816	2.2962	0.35013	14.7845	0.989578	2.71011			0.911441	2.49217						
0.953552	2.60051	0.845866	2.29595	0.350355	15.3999	0.991692	2.70899			0.913791	2.49225						
0.955602	2.5995	0.847915	2.29571	0.350576	16.0676	0.993814	2.70789			0.916144	2.49233						
0.957648	2.59848	0.849965	2.29547	0.350794	16.7947	0.995944	2.70683			0.918499	2.49242						
0.959688	2.59745	0.852014	2.29523	0.351006	17.5895	0.998082	2.70579			0.920856	2.49251						
0.961724	2.59641	0.854062	2.29499	0.351214	18.4619	1.00023	2.70477			0.923215	2.49261						
0.963755	2.59537	0.85611	2.29474	0.351416	19.4238					0.925576	2.49272						
0.965782	2.59431	0.858158	2.2945	0.351611	20.4897					0.92794	2.49283						
0.967804	2.59326	0.860206	2.29426	0.3518	21.6777					0.930306	2.49295						
0.969823	2.59219	0.862253	2.29402	0.351982	23.0099					0.932673	2.49307						
0.971837	2.59112	0.8643	2.29378	0.352156	24.5144					0.935043	2.49319						
0.973847	2.59005	0.866347	2.29354	0.352322	26.227					0.937415	2.49332						
0.975853	2.58897	0.868393	2.2933	0.352479	28.1941					0.939789	2.49346						
0.977856	2.58789	0.87044	2.29307	0.352627	30.4772					0.942165	2.4936						
0.979856	2.5868	0.872486	2.29283	0.352765	33.1593					0.944542	2.49374						
0.981852	2.58571	0.874533	2.2926	0.352893	36.3553					0.946922	2.49389						
0.983845	2.58462	0.876579	2.29236	0.353011	40.2287					0.949303	2.49404						
0.985835	2.58352	0.878625	2.29213	0.353118	45.021					0.951686	2.49419						
0.987822	2.58243	0.880671	2.29189	0.353214	51.1037					0.954071	2.49435						
0.989807	2.58133	0.882717	2.29166	0.353298	59.0798					0.956457	2.49452						
0.991789	2.58023	0.884763	2.29143	0.353371	69.9977					0.958846	2.49468						
0.993769	2.57912	0.886809	2.2912	0.353432	85.8548					0.961235	2.49485						
0.995746	2.57802	0.888855	2.29097	0.35348	110.985					0.963627	2.49503						
0.997721	2.57692	0.890901	2.29075	0.353517	156.893					0.96602	2.4952						
0.999694	2.57582	0.892948	2.29052	0.353541	267.522					0.968415	2.49539						
1.00167	2.57472	0.894994	2.2903	0.353552	906.906					0.970811	2.49557						
		0.897041	2.29007							0.973209	2.49576						
		0.899087	2.28985							0.975609	2.49594						
		0.901134	2.28963							0.97801	2.49614						
		0.903181	2.28941							0.980412	2.49633						
		0.905228	2.28919							0.982816	2.49653						
		0.907275	2.28898							0.985221	2.49673						
		0.909323	2.28876							0.987627	2.49693						
		0.91137	2.28855							0.990035	2.49714						
		0.913418	2.28834							0.992444	2.49735						
		0.915466	2.28813							0.994855	2.49756						
		0.917515	2.28792							0.997267	2.49777						
		0.919564	2.28772							0.99968	2.49798						
		0.921613	2.28751							1.00209	2.4982						
		0.923662	2.28731														
		0.925712	2.28711														
		0.927762	2.28691														
		0.929812	2.28671														
		0.931863	2.28651														
		0.933914	2.28632														
		0.935965	2.28613														
		0.938017	2.28594														
		0.940069	2.28575														
		0.942121	2.28556														
		0.944174	2.28538														
		0.946228	2.28519														
		0.948281	2.28501														
		0.950335	2.28483														
		0.95239	2.28465														
		0.954445	2.28448														
		0.9565	2.2843														
		0.958556	2.28413														
		0.960613	2.28396														
		0.96267	2.28379														
		0.964727	2.28362														
		0.966785	2.28346														
		0.968843	2.2833														
		0.970902	2.28313														
		0.972961	2.28298														
		0.97502	2.28282														
		0.977081	2.28266														
		0.979141	2.28251														
		0.981202	2.28236														
		0.983264	2.28221														
		0.985326	2.28206														
		0.987389	2.28191														
		0.989452	2.28176														
		0.991516	2.28162														
		0.99358	2.28148														
		0.995645	2.28134														
		0.99771	2.2812														
		0.999776	2.28107														
		1.00184	2.28093														
