Sym0		Asym0		Sym1		Sym2		Asym1		Asym2	
579  Points		580  Points		578  Points		546  Points		579  Points		299  Points	
Freq (MHz)	Vph (m/ms)	Freq (MHz)	Vph (m/ms)	Freq (MHz)	Vph (m/ms)	Freq (MHz)	Vph (m/ms)	Freq (MHz)	Vph (m/ms)	Freq (MHz)	Vph (m/ms)
1.00086	2.58457	0.29756	4347.4	1.00004	2.58515	0.59512	5027.18	0.297562	1241.79	1.00064	5.044
0.999486	2.58555	0.297582	399.778	0.998671	2.58613	0.595143	749.265	0.297593	325.044	0.998813	5.05199
0.998114	2.58652	0.297641	209.563	0.997297	2.5871	0.595202	404.837	0.297662	187.036	0.996973	5.05999
0.99674	2.58749	0.297737	142.036	0.995921	2.58807	0.595295	277.378	0.297767	131.326	0.995124	5.06799
0.995362	2.58846	0.29787	107.451	0.994542	2.58903	0.595423	210.988	0.297909	101.216	0.993264	5.07599
0.993982	2.58942	0.298039	86.4368	0.99316	2.58999	0.595586	170.265	0.298088	82.362	0.991396	5.084
0.9926	2.59038	0.298245	72.3197	0.991776	2.59095	0.595783	142.74	0.298303	69.4509	0.989518	5.09202
0.991214	2.59133	0.298487	62.1861	0.990388	2.5919	0.596014	122.894	0.298554	60.0582	0.987631	5.10006
0.989825	2.59228	0.298766	54.5609	0.988997	2.59285	0.59628	107.909	0.298842	52.9205	0.985737	5.1081
0.988433	2.59323	0.299081	48.6172	0.987603	2.59379	0.596578	96.1962	0.299166	47.3145	0.983834	5.11616
0.987037	2.59417	0.299431	43.8555	0.986205	2.59472	0.59691	86.7904	0.299525	42.7964	0.981923	5.12424
0.985638	2.5951	0.299817	39.9564	0.984804	2.59565	0.597275	79.0723	0.29992	39.0787	0.980005	5.13233
0.984235	2.59603	0.300238	36.7061	0.983399	2.59658	0.597672	72.626	0.30035	35.9671	0.978081	5.14045
0.982829	2.59695	0.300694	33.9559	0.981991	2.59749	0.598101	67.1619	0.300815	33.3254	0.976149	5.14859
0.981419	2.59786	0.301185	31.5994	0.980578	2.5984	0.598562	62.4719	0.301315	31.0552	0.974211	5.15675
0.980005	2.59877	0.30171	29.5583	0.979162	2.5993	0.599054	58.4031	0.301848	29.0841	0.972268	5.16494
0.978587	2.59967	0.302269	27.7739	0.977741	2.6002	0.599576	54.8402	0.302416	27.3571	0.970318	5.17316
0.977164	2.60056	0.302862	26.2011	0.976317	2.60108	0.600128	51.6948	0.303017	25.832	0.968363	5.18141
0.975738	2.60144	0.303488	24.8048	0.974888	2.60196	0.60071	48.8979	0.303651	24.4757	0.966404	5.18969
0.974307	2.60232	0.304146	23.5572	0.973454	2.60283	0.60132	46.3949	0.304318	23.2621	0.96444	5.19801
0.972872	2.60318	0.304837	22.4361	0.972017	2.60369	0.601959	44.1422	0.305017	22.17	0.962471	5.20637
0.971433	2.60404	0.30556	21.4235	0.970574	2.60455	0.602626	42.1041	0.305748	21.1825	0.960498	5.21477
0.969989	2.60489	0.306314	20.5047	0.969127	2.60539	0.603319	40.2517	0.30651	20.2853	0.958522	5.22321
0.96854	2.60573	0.307099	19.6674	0.967676	2.60622	0.604039	38.5608	0.307303	19.467	0.956543	5.23169
0.967087	2.60656	0.307915	18.9014	0.96622	2.60705	0.604785	37.0114	0.308126	18.7177	0.95456	5.24022
0.965629	2.60738	0.308761	18.1982	0.964759	2.60786	0.605556	35.5865	0.30898	18.0292	0.952575	5.2488
0.964166	2.60819	0.309636	17.5506	0.963294	2.60867	0.606352	34.272	0.309862	17.3947	0.950588	5.25743
0.962698	2.60899	0.31054	16.9524	0.961823	2.60946	0.607172	33.0554	0.310774	16.8081	0.948598	5.26611
0.961226	2.60978	0.311473	16.3983	0.960348	2.61025	0.608015	31.9265	0.311714	16.2644	0.946607	5.27485
0.959749	2.61056	0.312434	15.8836	0.958868	2.61102	0.608882	30.8761	0.312682	15.7591	0.944614	5.28364
0.958267	2.61133	0.313422	15.4045	0.957383	2.61178	0.60977	29.8965	0.313677	15.2884	0.942621	5.2925
0.95678	2.61209	0.314438	14.9575	0.955893	2.61254	0.61068	28.9807	0.314699	14.849	0.940626	5.30142
0.955288	2.61284	0.31548	14.5396	0.954398	2.61328	0.611611	28.1228	0.315748	14.438	0.938631	5.31041
0.953791	2.61358	0.316547	14.1481	0.952899	2.61401	0.612563	27.3175	0.316822	14.0528	0.936636	5.31947
0.95229	2.61431	0.317641	13.7806	0.951394	2.61473	0.613534	26.5602	0.317921	13.6911	0.934641	5.32859
0.950783	2.61502	0.318759	13.4351	0.949885	2.61544	0.614525	25.8468	0.319046	13.3509	0.932647	5.33779
0.949272	2.61573	0.319901	13.1098	0.948371	2.61614	0.615534	25.1736	0.320194	13.0304	0.930654	5.34707
0.947756	2.61642	0.321067	12.803	0.946852	2.61683	0.616562	24.5373	0.321367	12.728	0.928661	5.35642
0.946235	2.61711	0.322257	12.5131	0.945328	2.61751	0.617608	23.9351	0.322562	12.4423	0.92667	5.36586
0.944709	2.61778	0.32347	12.239	0.943799	2.61818	0.61867	23.3642	0.32378	12.1719	0.924681	5.37538
0.943178	2.61844	0.324704	11.9793	0.942266	2.61883	0.61975	22.8224	0.32502	11.9158	0.922694	5.38499
0.941643	2.6191	0.325961	11.7331	0.940728	2.61948	0.620845	22.3075	0.326282	11.6728	0.920709	5.39468
0.940103	2.61974	0.327238	11.4993	0.939185	2.62012	0.621956	21.8176	0.327565	11.442	0.918727	5.40447
0.938558	2.62037	0.328537	11.2771	0.937637	2.62074	0.623082	21.3508	0.328869	11.2226	0.916748	5.41436
0.937009	2.62099	0.329856	11.0656	0.936085	2.62135	0.624223	20.9057	0.330193	11.0137	0.914772	5.42435
0.935455	2.6216	0.331194	10.8642	0.934529	2.62196	0.625378	20.4808	0.331536	10.8147	0.9128	5.43443
0.933897	2.6222	0.332552	10.6721	0.932968	2.62255	0.626547	20.0747	0.332899	10.6249	0.910832	5.44462
0.932334	2.62279	0.333929	10.4888	0.931402	2.62314	0.627729	19.6862	0.33428	10.4437	0.908867	5.45492
0.930767	2.62337	0.335324	10.3136	0.929833	2.62371	0.628924	19.3143	0.33568	10.2705	0.906908	5.46533
0.929195	2.62394	0.336736	10.1461	0.928258	2.62427	0.630132	18.9578	0.337097	10.1049	0.904953	5.47586
0.927619	2.6245	0.338166	9.98584	0.92668	2.62483	0.631352	18.616	0.338346	9.96634	0.903003	5.4865
0.926039	2.62505	0.339613	9.83232	0.925098	2.62537	0.632583	18.2878	0.339421	9.85228	0.901059	5.49726
0.924455	2.62559	0.341077	9.68516	0.923511	2.6259	0.633826	17.9725	0.340316	9.76064	0.89912	5.50815
0.922867	2.62612	0.342556	9.54398	0.921921	2.62643	0.635079	17.6694	0.341029	9.68984	0.897188	5.51916
0.921275	2.62664	0.344051	9.40845	0.920326	2.62695	0.636343	17.3778	0.341555	9.63868	0.895262	5.53031
0.919679	2.62715	0.345561	9.27825	0.918728	2.62745	0.637618	17.097	0.341893	9.60634	0.893342	5.54159
0.918079	2.62766	0.347085	9.15307	0.917125	2.62795	0.638902	16.8265	0.34238	9.56037	0.89143	5.55301
0.916475	2.62815	0.348624	9.03264	0.915519	2.62844	0.640196	16.5657	0.342912	9.5111	0.889524	5.56457
0.914868	2.62864	0.350177	8.91672	0.91391	2.62892	0.641498	16.314	0.343638	9.44522	0.887627	5.57628
0.913256	2.62911	0.351743	8.80505	0.912296	2.62939	0.64281	16.0711	0.344561	9.36374	0.885737	5.58814
0.911642	2.62958	0.353322	8.69741	0.91068	2.62985	0.64413	15.8365	0.345685	9.26782	0.883856	5.60015
0.910024	2.63004	0.354914	8.59361	0.909059	2.63031	0.645459	15.6098	0.347014	9.15881	0.881983	5.61232
0.908402	2.63049	0.356517	8.49343	0.907436	2.63076	0.646795	15.3905	0.348552	9.03817	0.880119	5.62465
0.906777	2.63094	0.358133	8.39671	0.905809	2.6312	0.648139	15.1784	0.350104	8.92204	0.878264	5.63714
0.905149	2.63137	0.35976	8.30327	0.904179	2.63163	0.64949	14.973	0.351669	8.81018	0.876418	5.64981
0.903517	2.6318	0.361398	8.21295	0.902545	2.63205	0.650848	14.7741	0.353248	8.70236	0.874583	5.66265
0.901883	2.63222	0.363047	8.1256	0.900909	2.63247	0.652213	14.5813	0.354839	8.59838	0.872757	5.67567
0.900245	2.63264	0.364706	8.04109	0.899269	2.63288	0.653585	14.3945	0.356442	8.49804	0.870942	5.68887
0.898604	2.63304	0.366374	7.95927	0.897627	2.63328	0.654962	14.2132	0.358057	8.40116	0.869138	5.70227
0.896961	2.63344	0.368053	7.88002	0.895982	2.63368	0.656346	14.0374	0.359684	8.30757	0.867345	5.71585
0.895314	2.63384	0.36974	7.80323	0.894334	2.63407	0.657735	13.8666	0.361321	8.21711	0.865563	5.72963
0.893665	2.63422	0.371437	7.72878	0.892683	2.63445	0.65913	13.7008	0.362969	8.12962	0.863793	5.74361
0.892013	2.6346	0.373142	7.65657	0.891029	2.63482	0.660531	13.5397	0.364628	8.04498	0.862036	5.7578
0.890358	2.63497	0.374855	7.5865	0.889373	2.63519	0.661936	13.3831	0.366296	7.96303	0.86029	5.7722
0.888701	2.63534	0.376576	7.51848	0.887714	2.63556	0.663346	13.2308	0.367974	7.88367	0.858557	5.78682
0.887041	2.6357	0.378304	7.45242	0.886053	2.63591	0.66476	13.0826	0.369661	7.80676	0.856837	5.80166
0.885379	2.63606	0.38004	7.38823	0.884389	2.63627	0.666179	12.9384	0.371357	7.73221	0.855131	5.81673
0.883714	2.63641	0.381783	7.32584	0.882723	2.63661	0.667602	12.798	0.373062	7.6599	0.853438	5.83203
0.882047	2.63675	0.383532	7.26517	0.881054	2.63695	0.669028	12.6613	0.374775	7.58973	0.851759	5.84756
0.880377	2.63709	0.385287	7.20616	0.879383	2.63729	0.670459	12.5281	0.376495	7.52162	0.850095	5.86334
0.878706	2.63742	0.387048	7.14872	0.87771	2.63762	0.671893	12.3983	0.378223	7.45546	0.848445	5.87937
0.877032	2.63775	0.388815	7.09281	0.876035	2.63794	0.67333	12.2718	0.379959	7.39119	0.84681	5.89566
0.875356	2.63807	0.390587	7.03835	0.874358	2.63826	0.67477	12.1484	0.381701	7.32872	0.845191	5.91221
0.873678	2.63839	0.392364	6.98529	0.872679	2.63857	0.676213	12.028	0.38345	7.26797	0.843587	5.92902
0.871998	2.6387	0.394145	6.93357	0.870997	2.63888	0.677659	11.9105	0.385205	7.20888	0.841998	5.9461
0.870315	2.63901	0.395931	6.88315	0.869314	2.63919	0.679107	11.7958	0.386965	7.15137	0.840426	5.96347
0.868631	2.63931	0.397722	6.83396	0.867629	2.63949	0.680557	11.6838	0.388732	7.09539	0.838871	5.98112
0.866945	2.63961	0.399515	6.78597	0.865942	2.63978	0.68201	11.5745	0.390504	7.04086	0.837332	5.99906
0.865257	2.6399	0.401313	6.73913	0.864253	2.64007	0.683465	11.4676	0.39228	6.98774	0.835811	6.0173
0.863568	2.64019	0.403114	6.6934	0.862562	2.64036	0.684921	11.3632	0.394062	6.93596	0.834307	6.03584
0.861876	2.64048	0.404917	6.64872	0.86087	2.64064	0.686379	11.2611	0.395848	6.88547	0.832821	6.0547
0.860183	2.64076	0.406723	6.60508	0.859175	2.64092	0.687838	11.1612	0.397638	6.83623	0.831352	6.07387
0.858489	2.64103	0.408532	6.56241	0.85748	2.6412	0.689298	11.0636	0.399431	6.78819	0.829902	6.09337
0.856792	2.64131	0.410343	6.5207	0.855782	2.64147	0.69076	10.9681	0.401229	6.7413	0.828471	6.1132
0.855094	2.64158	0.412155	6.4799	0.854083	2.64174	0.692222	10.8746	0.403029	6.69551	0.827059	6.13336
0.853395	2.64184	0.413969	6.43999	0.852383	2.642	0.693685	10.7831	0.404833	6.65079	0.825665	6.15388
0.851694	2.64211	0.415785	6.40092	0.850681	2.64226	0.695148	10.6934	0.406639	6.60709	0.824291	6.17475
0.849991	2.64237	0.417601	6.36268	0.848978	2.64252	0.696424	10.6169	0.408447	6.56439	0.822937	6.19597
0.848287	2.64262	0.419418	6.32522	0.847273	2.64277	0.697512	10.5527	0.410258	6.52263	0.821603	6.21757
0.846582	2.64287	0.421236	6.28853	0.845567	2.64302	0.698411	10.5003	0.412071	6.48179	0.820289	6.23954
0.844875	2.64312	0.423053	6.25257	0.843859	2.64327	0.699122	10.4594	0.413885	6.44183	0.818996	6.2619
0.843167	2.64337	0.424871	6.21732	0.84215	2.64351	0.699645	10.4295	0.4157	6.40273	0.817723	6.28465
0.841458	2.64361	0.426688	6.18276	0.84044	2.64376	0.699979	10.4106	0.417516	6.36445	0.816471	6.3078
0.839747	2.64385	0.428505	6.14886	0.838729	2.64399	0.700461	10.3834	0.419333	6.32695	0.815241	6.33135
0.838035	2.64409	0.43032	6.1156	0.837016	2.64423	0.700983	10.3541	0.421151	6.29023	0.814032	6.35532
0.836322	2.64432	0.432135	6.08295	0.835303	2.64446	0.701694	10.3146	0.422968	6.25424	0.812844	6.37972
0.834608	2.64456	0.433948	6.0509	0.833588	2.64469	0.702593	10.2652	0.424786	6.21896	0.811678	6.40454
0.832893	2.64479	0.435759	6.01942	0.831872	2.64492	0.70368	10.2062	0.426603	6.18436	0.810535	6.42981
0.831176	2.64501	0.437568	5.9885	0.830155	2.64515	0.704955	10.138	0.42842	6.15043	0.809413	6.45553
0.829459	2.64524	0.439375	5.95812	0.828437	2.64537	0.706417	10.0613	0.430235	6.11714	0.808314	6.48171
0.82774	2.64546	0.44118	5.92825	0.826717	2.64559	0.707878	9.98594	0.43205	6.08446	0.807237	6.50835
0.82602	2.64568	0.442982	5.89888	0.824997	2.64581	0.709338	9.91202	0.433863	6.05238	0.806183	6.53547
0.8243	2.64589	0.444781	5.87	0.823276	2.64602	0.710797	9.83947	0.435674	6.02088	0.805152	6.56307
0.822578	2.64611	0.446576	5.84159	0.821554	2.64624	0.712254	9.76825	0.437484	5.98994	0.804144	6.59117
0.820856	2.64632	0.448368	5.81362	0.819831	2.64645	0.71371	9.69832	0.439291	5.95953	0.803159	6.61977
0.819132	2.64653	0.450156	5.7861	0.818107	2.64666	0.715165	9.62963	0.441096	5.92964	0.802198	6.64889
0.817408	2.64674	0.45194	5.75899	0.816382	2.64686	0.716617	9.56216	0.442898	5.90025	0.801259	6.67852
0.815682	2.64695	0.453719	5.73229	0.814656	2.64707	0.718068	9.49587	0.444696	5.87134	0.800344	6.70869
0.813956	2.64715	0.455494	5.70599	0.812929	2.64727	0.719516	9.43073	0.446492	5.84291	0.799453	6.7394
0.812229	2.64736	0.457264	5.68007	0.811202	2.64748	0.720962	9.3667	0.448284	5.81492	0.798585	6.77067
0.810501	2.64756	0.459029	5.65451	0.809473	2.64768	0.722406	9.30376	0.450072	5.78737	0.797741	6.80249
0.808773	2.64776	0.460788	5.62931	0.807744	2.64787	0.723847	9.24187	0.451856	5.76025	0.796921	6.83489
0.807043	2.64795	0.462541	5.60446	0.806014	2.64807	0.725286	9.181	0.453636	5.73353	0.796124	6.86787
0.805313	2.64815	0.464289	5.57993	0.804284	2.64827	0.726721	9.12113	0.455411	5.70721	0.795351	6.90145
0.803582	2.64834	0.46603	5.55573	0.802552	2.64846	0.728154	9.06223	0.457181	5.68127	0.794602	6.93563
0.801851	2.64854	0.467765	5.53183	0.80082	2.64865	0.729583	9.00428	0.458946	5.6557	0.793877	6.97042
0.800118	2.64873	0.469493	5.50824	0.799087	2.64884	0.731009	8.94724	0.460706	5.63048	0.793175	7.00584
0.798385	2.64892	0.471214	5.48493	0.797354	2.64903	0.732432	8.89109	0.46246	5.60561	0.792497	7.04189
0.796651	2.64911	0.472928	5.46191	0.79562	2.64922	0.733851	8.83582	0.464207	5.58107	0.791844	7.0786
0.794917	2.6493	0.474634	5.43915	0.793885	2.64941	0.735266	8.78139	0.465949	5.55685	0.791213	7.11596
0.793182	2.64948	0.476332	5.41666	0.79215	2.64959	0.736677	8.72779	0.467684	5.53294	0.790607	7.154
0.791446	2.64967	0.478022	5.39441	0.790414	2.64978	0.738085	8.675	0.469412	5.50934	0.790024	7.19272
0.78971	2.64985	0.479704	5.37241	0.788677	2.64996	0.739488	8.62298	0.471134	5.48602	0.789465	7.23213
0.787973	2.65003	0.481377	5.35065	0.78694	2.65014	0.740887	8.57173	0.472848	5.46298	0.78893	7.27226
0.786236	2.65021	0.483041	5.32911	0.785202	2.65032	0.742281	8.52123	0.474554	5.44021	0.788417	7.3131
0.784498	2.65039	0.484697	5.30779	0.783464	2.6505	0.74367	8.47144	0.476253	5.4177	0.787929	7.35468
0.782759	2.65057	0.486342	5.28668	0.781725	2.65068	0.745055	8.42237	0.477943	5.39545	0.787463	7.397
0.78102	2.65075	0.487978	5.26577	0.779986	2.65086	0.746435	8.37398	0.479626	5.37344	0.787021	7.44008
0.779281	2.65093	0.489605	5.24506	0.778246	2.65103	0.74781	8.32627	0.481299	5.35166	0.786601	7.48394
0.777541	2.65111	0.491221	5.22455	0.776506	2.65121	0.749179	8.27921	0.482964	5.33011	0.786205	7.52859
0.7758	2.65128	0.492826	5.20421	0.774765	2.65139	0.750544	8.23279	0.484619	5.30878	0.785831	7.57403
0.774059	2.65146	0.494421	5.18405	0.773023	2.65156	0.751902	8.187	0.486266	5.28766	0.78548	7.62029
0.772318	2.65163	0.496005	5.16406	0.771282	2.65173	0.753256	8.14181	0.487902	5.26675	0.785152	7.66739
0.770576	2.6518	0.497578	5.14424	0.76954	2.65191	0.754603	8.09721	0.489529	5.24603	0.784846	7.71532
0.768833	2.65198	0.49914	5.12457	0.767797	2.65208	0.755944	8.0532	0.491145	5.2255	0.784562	7.76412
0.767091	2.65215	0.50069	5.10506	0.766054	2.65225	0.75728	8.00975	0.492751	5.20516	0.784301	7.8138
0.765347	2.65232	0.502229	5.0857	0.76431	2.65242	0.758609	7.96685	0.494347	5.18499	0.784061	7.86437
0.763604	2.65249	0.503755	5.06647	0.762567	2.65259	0.759932	7.92449	0.495932	5.16499	0.783843	7.91585
0.76186	2.65266	0.505269	5.04739	0.760822	2.65276	0.761248	7.88265	0.497505	5.14516	0.783647	7.96826
0.760115	2.65283	0.50677	5.02844	0.759078	2.65293	0.762558	7.84133	0.499067	5.12549	0.783472	8.02161
0.758371	2.653	0.508259	5.00961	0.757333	2.6531	0.763861	7.80052	0.500618	5.10597	0.783318	8.07593
0.756626	2.65317	0.509735	4.99091	0.755587	2.65327	0.765157	7.76019	0.502157	5.0866	0.783185	8.13122
0.75488	2.65334	0.511198	4.97233	0.753842	2.65344	0.766446	7.72034	0.503684	5.06737	0.783073	8.18751
0.753134	2.6535	0.512648	4.95386	0.752096	2.6536	0.767728	7.68095	0.505198	5.04828	0.782982	8.24483
0.751388	2.65367	0.514084	4.9355	0.750349	2.65377	0.769002	7.64203	0.5067	5.02932	0.782911	8.30318
0.749642	2.65384	0.515507	4.91725	0.748603	2.65394	0.77027	7.60355	0.50819	5.01049	0.78286	8.36259
0.747895	2.654	0.516916	4.8991	0.746856	2.6541	0.771529	7.5655	0.509667	4.99178	0.782829	8.42308
0.746148	2.65417	0.518311	4.88106	0.745108	2.65427	0.772781	7.52788	0.51113	4.97319	0.782819	8.48467
0.7444	2.65434	0.519692	4.86311	0.743361	2.65444	0.774025	7.49068	0.512581	4.95472	0.782828	8.54739
0.742653	2.6545	0.521059	4.84525	0.741613	2.6546	0.775262	7.45389	0.514018	4.93636	0.782856	8.61125
0.740905	2.65467	0.522411	4.82748	0.739865	2.65477	0.77649	7.41749	0.515441	4.9181	0.782904	8.67628
0.739157	2.65484	0.523749	4.8098	0.738117	2.65493	0.77771	7.38148	0.516851	4.89995	0.78297	8.74251
0.737408	2.655	0.525072	4.79221	0.736368	2.6551	0.778921	7.34586	0.518246	4.8819	0.783056	8.80995
0.73566	2.65517	0.526381	4.7747	0.734619	2.65527	0.780125	7.3106	0.519628	4.86394	0.78316	8.87864
0.733911	2.65533	0.527675	4.75726	0.73287	2.65543	0.781319	7.27572	0.520995	4.84608	0.783282	8.9486
0.732162	2.6555	0.528953	4.73991	0.731121	2.6556	0.782506	7.24118	0.522348	4.82831	0.783423	9.01986
0.730412	2.65566	0.530217	4.72263	0.729372	2.65576	0.783683	7.207	0.523687	4.81063	0.783582	9.09245
0.728663	2.65583	0.531466	4.70542	0.727622	2.65593	0.784851	7.17316	0.525011	4.79303	0.783758	9.16639
0.726913	2.656	0.5327	4.68829	0.725872	2.65609	0.786011	7.13965	0.52632	4.77551	0.783952	9.24172
0.725163	2.65616	0.533918	4.67122	0.724122	2.65626	0.787161	7.10646	0.527614	4.75808	0.784164	9.31846
0.723413	2.65633	0.535121	4.65423	0.722372	2.65643	0.788302	7.0736	0.528894	4.74072	0.784392	9.39665
0.721663	2.65649	0.536309	4.6373	0.720622	2.65659	0.789434	7.04105	0.530159	4.72344	0.784638	9.47632
0.719912	2.65666	0.537482	4.62043	0.718871	2.65676	0.790557	7.00881	0.531408	4.70623	0.7849	9.55751
0.718162	2.65683	0.538639	4.60363	0.71712	2.65693	0.791669	6.97687	0.532642	4.68909	0.785179	9.64025
0.716411	2.657	0.539781	4.5869	0.715369	2.65709	0.792773	6.94522	0.533861	4.67202	0.785474	9.72458
0.71466	2.65716	0.540908	4.57022	0.713619	2.65726	0.793867	6.91386	0.535065	4.65502	0.785785	9.81053
0.712909	2.65733	0.54202	4.55361	0.711867	2.65743	0.79495	6.88279	0.536254	4.63809	0.786113	9.89815
0.711158	2.6575	0.543116	4.53705	0.710116	2.6576	0.796024	6.85198	0.537427	4.62122	0.786456	9.98747
0.709406	2.65767	0.544197	4.52056	0.708365	2.65777	0.797088	6.82146	0.538585	4.60442	0.786815	10.0785
0.707655	2.65784	0.545263	4.50413	0.706613	2.65794	0.798143	6.79119	0.539728	4.58768	0.787189	10.1714
0.705904	2.65801	0.546314	4.48775	0.704862	2.65811	0.799186	6.76119	0.540856	4.571	0.787578	10.2661
0.704152	2.65818	0.54735	4.47143	0.70311	2.65828	0.80022	6.73144	0.541968	4.55438	0.787929	10.3501
0.7024	2.65835	0.548371	4.45517	0.701358	2.65845	0.801244	6.70195	0.543065	4.53783	0.788237	10.4229
0.700649	2.65852	0.549377	4.43897	0.699607	2.65862	0.802257	6.67269	0.544147	4.52133	0.788499	10.4839
0.698897	2.65869	0.550369	4.42283	0.697855	2.65879	0.80326	6.64369	0.545214	4.50489	0.788709	10.5327
0.697145	2.65886	0.551346	4.40674	0.696103	2.65896	0.804252	6.61491	0.546265	4.48851	0.788866	10.5689
0.695393	2.65903	0.552308	4.39071	0.694351	2.65914	0.805234	6.58637	0.547302	4.47219	0.789012	10.6024
0.693641	2.65921	0.553256	4.37474	0.692599	2.65931	0.806205	6.55806	0.548324	4.45593	0.789114	10.6258
0.691889	2.65938	0.55419	4.35883	0.690847	2.65949	0.807166	6.52997	0.549331	4.43973	0.789276	10.6627
0.690137	2.65956	0.55511	4.34298	0.689095	2.65966	0.808116	6.5021	0.550323	4.42358	0.789499	10.7132
0.688385	2.65973	0.556016	4.32718	0.687342	2.65984	0.809055	6.47445	0.5513	4.40749	0.789785	10.7778
0.686632	2.65991	0.556908	4.31145	0.68559	2.66002	0.809984	6.44701	0.552264	4.39146	0.790138	10.857
0.68488	2.66009	0.557787	4.29577	0.683838	2.66019	0.810902	6.41978	0.553212	4.37549	0.790563	10.9515
0.683128	2.66027	0.558652	4.28015	0.682086	2.66037	0.811809	6.39275	0.554147	4.35958	0.791063	11.062
0.681376	2.66045	0.559504	4.2646	0.680334	2.66055	0.812705	6.36592	0.555067	4.34372	0.791576	11.1748
0.679624	2.66063	0.560343	4.2491	0.678582	2.66073	0.813591	6.3393	0.555974	4.32792	0.792103	11.2899
0.677872	2.66081	0.561169	4.23367	0.67683	2.66092	0.814466	6.31286	0.556867	4.31218	0.792643	11.4075
0.67612	2.66099	0.561983	4.21829	0.675078	2.6611	0.815329	6.28662	0.557746	4.2965	0.793196	11.5276
0.674368	2.66117	0.562784	4.20298	0.673326	2.66128	0.816182	6.26057	0.558612	4.28088	0.793762	11.6503
0.672616	2.66136	0.563573	4.18774	0.671574	2.66147	0.817024	6.2347	0.559465	4.26532	0.794341	11.7756
0.670864	2.66154	0.56435	4.17255	0.669822	2.66166	0.817855	6.20902	0.560304	4.24982	0.794932	11.9037
0.669112	2.66173	0.565115	4.15743	0.66807	2.66184	0.818676	6.18352	0.561131	4.23439	0.795536	12.0345
0.66736	2.66192	0.565869	4.14238	0.666318	2.66203	0.819485	6.15819	0.561945	4.21901	0.796152	12.1683
0.665608	2.66211	0.566612	4.12739	0.664566	2.66222	0.820284	6.13304	0.562747	4.2037	0.796781	12.305
0.663856	2.6623	0.567343	4.11247	0.662815	2.66242	0.821071	6.10806	0.563536	4.18845	0.797421	12.4448
0.662105	2.66249	0.568064	4.09762	0.661063	2.66261	0.821848	6.08325	0.564314	4.17326	0.798073	12.5877
0.660353	2.66269	0.568774	4.08284	0.659312	2.6628	0.822614	6.05861	0.56508	4.15814	0.798737	12.734
0.658602	2.66288	0.569474	4.06812	0.65756	2.663	0.82337	6.03414	0.565834	4.14308	0.799412	12.8836
0.65685	2.66308	0.570163	4.05348	0.655809	2.6632	0.824114	6.00982	0.566577	4.12809	0.800098	13.0366
0.655099	2.66328	0.570843	4.0389	0.654058	2.6634	0.824848	5.98567	0.567309	4.11317	0.800796	13.1933
0.653348	2.66348	0.571513	4.0244	0.652307	2.6636	0.825571	5.96168	0.56803	4.09831	0.801505	13.3537
0.651597	2.66368	0.572174	4.00996	0.650556	2.6638	0.826284	5.93784	0.568741	4.08353	0.802225	13.5179
0.649847	2.66389	0.572826	3.99561	0.648805	2.66401	0.826986	5.91416	0.569441	4.06881	0.802956	13.6861
0.648096	2.66409	0.573469	3.98132	0.647055	2.66421	0.827678	5.89063	0.570131	4.05416	0.803697	13.8584
0.646346	2.6643	0.574103	3.96711	0.645305	2.66442	0.828359	5.86725	0.570812	4.03958	0.804449	14.035
0.644595	2.66451	0.57473	3.95297	0.643554	2.66463	0.829029	5.84402	0.571482	4.02507	0.805211	14.2159
0.642845	2.66472	0.575348	3.93891	0.641804	2.66484	0.82969	5.82094	0.572144	4.01064	0.805984	14.4014
0.641095	2.66493	0.575958	3.92492	0.640055	2.66506	0.83034	5.79801	0.572796	3.99628	0.806767	14.5916
0.639346	2.66515	0.57656	3.91102	0.638305	2.66528	0.83098	5.77522	0.573439	3.98199	0.807559	14.7867
0.637596	2.66536	0.577156	3.89719	0.636556	2.66549	0.83161	5.75258	0.574074	3.96777	0.808362	14.9869
0.635847	2.66558	0.577744	3.88343	0.634807	2.66571	0.83223	5.73007	0.5747	3.95363	0.809175	15.1924
0.634098	2.6658	0.578325	3.86976	0.633058	2.66594	0.832839	5.70771	0.575319	3.93957	0.809997	15.4033
0.632349	2.66603	0.5789	3.85616	0.631309	2.66616	0.833439	5.68548	0.575929	3.92558	0.810829	15.6199
0.6306	2.66625	0.579468	3.84265	0.629561	2.66639	0.83403	5.66339	0.576532	3.91167	0.81167	15.8423
0.628852	2.66648	0.58003	3.82921	0.627812	2.66662	0.83461	5.64144	0.577128	3.89783	0.81252	16.071
0.627104	2.66671	0.580587	3.81586	0.626065	2.66685	0.835181	5.61963	0.577716	3.88407	0.81338	16.306
0.625356	2.66695	0.581137	3.80259	0.624317	2.66709	0.835742	5.59794	0.578298	3.8704	0.814249	16.5476
0.623609	2.66718	0.581683	3.78939	0.62257	2.66732	0.836294	5.57639	0.578873	3.8568	0.815127	16.7962
0.621862	2.66742	0.582223	3.77628	0.620823	2.66757	0.836837	5.55498	0.579442	3.84328	0.816013	17.0519
0.620115	2.66766	0.582758	3.76326	0.619076	2.66781	0.83737	5.53369	0.580004	3.82984	0.816909	17.3152
0.618369	2.66791	0.583288	3.75031	0.61733	2.66805	0.837895	5.51253	0.580561	3.81648	0.817813	17.5863
0.616622	2.66816	0.583814	3.73745	0.615584	2.6683	0.83841	5.4915	0.581112	3.8032	0.818726	17.8656
0.614877	2.66841	0.584336	3.72467	0.613838	2.66856	0.838917	5.4706	0.581657	3.79001	0.819647	18.1535
0.613131	2.66866	0.584854	3.71198	0.612093	2.66881	0.839414	5.44982	0.582198	3.77689	0.820576	18.4503
0.611386	2.66892	0.585367	3.69937	0.610348	2.66907	0.839903	5.42917	0.582733	3.76386	0.821514	18.7564
0.609641	2.66917	0.585877	3.68684	0.608604	2.66933	0.840384	5.40865	0.583264	3.75092	0.82246	19.0724
0.607897	2.66944	0.586384	3.6744	0.60686	2.6696	0.840856	5.38825	0.58379	3.73805	0.823414	19.3985
0.606153	2.6697	0.586887	3.66205	0.605116	2.66986	0.84132	5.36797	0.584312	3.72527	0.824376	19.7355
0.60441	2.66997	0.587388	3.64978	0.603373	2.67014	0.841775	5.34781	0.584829	3.71257	0.825346	20.0837
0.602667	2.67025	0.587885	3.63759	0.60163	2.67041	0.842223	5.32778	0.585343	3.69996	0.826323	20.4437
0.600924	2.67052	0.58838	3.62549	0.599888	2.67069	0.842663	5.30786	0.585854	3.68743	0.827309	20.8162
0.599182	2.67081	0.588873	3.61347	0.598146	2.67097	0.843095	5.28807	0.58636	3.67498	0.828302	21.2018
0.597441	2.67109	0.589363	3.60154	0.596405	2.67126	0.843519	5.2684	0.586864	3.66262	0.829302	21.6011
0.5957	2.67138	0.589851	3.5897	0.594664	2.67155	0.843936	5.24884	0.587364	3.65035	0.83031	22.0149
0.593959	2.67167	0.590337	3.57794	0.592924	2.67185	0.844345	5.2294	0.587862	3.63816	0.831325	22.4441
0.592219	2.67197	0.590822	3.56627	0.591185	2.67215	0.844747	5.21008	0.588357	3.62605	0.832347	22.8894
0.59048	2.67227	0.591305	3.55468	0.589445	2.67245	0.845142	5.19088	0.58885	3.61403	0.833377	23.3517
0.588741	2.67258	0.591786	3.54318	0.587707	2.67276	0.84553	5.17179	0.58934	3.6021	0.834413	23.8322
0.587003	2.67289	0.592267	3.53176	0.585969	2.67307	0.845911	5.15281	0.589828	3.59025	0.835457	24.3317
0.585265	2.6732	0.592746	3.52043	0.584232	2.67339	0.846285	5.13395	0.590315	3.57849	0.836507	24.8515
0.583528	2.67352	0.593225	3.50919	0.582495	2.67371	0.846652	5.11521	0.590799	3.56681	0.837564	25.3928
0.581792	2.67385	0.593702	3.49803	0.580759	2.67404	0.847013	5.09658	0.591282	3.55522	0.838628	25.957
0.580056	2.67418	0.59418	3.48695	0.579024	2.67438	0.847368	5.07806	0.591764	3.54371	0.839699	26.5455
0.578321	2.67451	0.594657	3.47596	0.577289	2.67471	0.847717	5.05965	0.592244	3.53229	0.840776	27.1599
0.576587	2.67485	0.595133	3.46506	0.575555	2.67506	0.848059	5.04136	0.592724	3.52096	0.841859	27.8019
0.574853	2.6752	0.59561	3.45424	0.573822	2.67541	0.848395	5.02317	0.593202	3.50971	0.842949	28.4735
0.57312	2.67555	0.596086	3.4435	0.57209	2.67576	0.848726	5.0051	0.59368	3.49855	0.844046	29.1767
0.571388	2.67591	0.596563	3.43285	0.570358	2.67613	0.849051	4.98714	0.594157	3.48747	0.845148	29.9137
0.569657	2.67627	0.59704	3.42229	0.568628	2.67649	0.84937	4.96929	0.594634	3.47647	0.846257	30.6871
0.567926	2.67664	0.597517	3.4118	0.566898	2.67687	0.849684	4.95154	0.595111	3.46556	0.847371	31.4996
0.566197	2.67702	0.597995	3.4014	0.565169	2.67725	0.849993	4.93391	0.595587	3.45474	0.848492	32.3542
0.564468	2.6774	0.598474	3.39109	0.56344	2.67763	0.850297	4.91638	0.596064	3.444	0.849619	33.2543
0.56274	2.67779	0.598953	3.38086	0.561713	2.67803	0.850595	4.89896	0.596541	3.43335	0.850751	34.2035
0.561014	2.67819	0.599434	3.37071	0.559987	2.67843	0.850889	4.88165	0.597017	3.42278	0.851889	35.206
0.559288	2.67859	0.599915	3.36064	0.558262	2.67884	0.851178	4.86444	0.597495	3.41229	0.853033	36.2663
0.557563	2.67901	0.600336	3.35194	0.556537	2.67925	0.851462	4.84734	0.597973	3.40189	0.854182	37.3896
0.555839	2.67943	0.600695	3.34457	0.554814	2.67968	0.851742	4.83035	0.598451	3.39157	0.855337	38.5816
0.554116	2.67985	0.600993	3.33851	0.553092	2.68011	0.852017	4.81346	0.598931	3.38133	0.856497	39.8489
0.552394	2.68029	0.601229	3.33374	0.551371	2.68055	0.852288	4.79667	0.599411	3.37118	0.857662	41.1987
0.550674	2.68073	0.601402	3.33024	0.549651	2.681	0.852555	4.77999	0.599893	3.36111	0.858833	42.6394
0.548954	2.68118	0.601514	3.32801	0.547932	2.68146	0.852818	4.76341	0.600376	3.35113	0.860008	44.1804
0.547236	2.68164	0.601674	3.32481	0.546215	2.68192	0.853078	4.74694	0.60086	3.34122	0.861189	45.8325
0.545519	2.68211	0.601848	3.32134	0.544499	2.6824	0.853333	4.73057	0.601345	3.3314	0.862374	47.6082
0.543804	2.68259	0.602085	3.31664	0.542784	2.68288	0.853585	4.7143	0.601832	3.32166	0.863565	49.5218
0.542089	2.68308	0.602385	3.31073	0.54107	2.68338	0.853833	4.69813	0.60232	3.312	0.86476	51.59
0.540376	2.68358	0.602749	3.30361	0.539358	2.68388	0.854078	4.68207	0.60281	3.30242	0.865959	53.8323
0.538665	2.68409	0.603178	3.29532	0.537647	2.6844	0.85432	4.6661	0.603303	3.29292	0.867163	56.2716
0.536954	2.68461	0.603671	3.28588	0.535938	2.68493	0.854559	4.65024	0.603796	3.2835	0.868371	58.935
0.535246	2.68514	0.604167	3.27652	0.53423	2.68546	0.854794	4.63448	0.604292	3.27417	0.869583	61.8548
0.533538	2.68569	0.604664	3.26725	0.532524	2.68601	0.855027	4.61881	0.604791	3.26491	0.870799	65.0698
0.531833	2.68624	0.605164	3.25805	0.530819	2.68658	0.855257	4.60325	0.605291	3.25573	0.872018	68.6271
0.530129	2.68681	0.605666	3.24893	0.529116	2.68715	0.855484	4.58778	0.605793	3.24663	0.873241	72.5844
0.528427	2.68739	0.60617	3.23988	0.527415	2.68774	0.855709	4.57241	0.606298	3.23761	0.874467	77.0131
0.526726	2.68798	0.606677	3.23092	0.525716	2.68834	0.855931	4.55714	0.606806	3.22866	0.875695	82.0027
0.525028	2.68858	0.607186	3.22203	0.524018	2.68895	0.856151	4.54197	0.607316	3.2198	0.876926	87.6669
0.523331	2.6892	0.607698	3.21323	0.522323	2.68958	0.856369	4.52689	0.607828	3.21101	0.878158	94.1522
0.521636	2.68984	0.608213	3.20449	0.520629	2.69022	0.856585	4.51191	0.608343	3.20229	0.879391	101.651
0.519943	2.69048	0.60873	3.19584	0.518937	2.69088	0.856799	4.49702	0.608861	3.19366	0.880624	110.421
0.518253	2.69115	0.60925	3.18726	0.517248	2.69155	0.857011	4.48223	0.609382	3.1851	0.881857	120.815
0.516564	2.69183	0.609773	3.17875	0.515561	2.69224	0.857221	4.46754	0.609906	3.17661	0.883086	133.33
0.514878	2.69252	0.610299	3.17033	0.513876	2.69294	0.857429	4.45294	0.610433	3.1682	0.88431	148.689
0.513193	2.69324	0.610828	3.16197	0.512193	2.69367	0.857636	4.43843	0.610963	3.15987	0.885526	167.985
0.511512	2.69397	0.61136	3.15369	0.510513	2.69441	0.857841	4.42402	0.611495	3.15161	0.886728	192.954
0.509832	2.69471	0.611895	3.14548	0.508835	2.69517	0.858045	4.4097	0.612031	3.14342	0.887909	226.529
0.508156	2.69548	0.612434	3.13735	0.50716	2.69595	0.858248	4.39547	0.612571	3.1353	0.889056	274.087
0.506481	2.69627	0.612976	3.12929	0.505487	2.69675	0.85845	4.38134	0.613113	3.12726	0.890147	346.66
0.50481	2.69708	0.613521	3.1213	0.503817	2.69756	0.85865	4.3673	0.61366	3.11929	0.891144	471.042
0.503141	2.6979	0.61407	3.11339	0.50215	2.69841	0.85885	4.35335	0.614209	3.1114	0.891976	733.574
0.501476	2.69875	0.614622	3.10555	0.500486	2.69927	0.859049	4.33949	0.614762	3.10357	0.892529	1652.8
0.499813	2.69962	0.615177	3.09777	0.498826	2.70015	0.859246	4.32572	0.615318	3.09582		
0.498153	2.70052	0.615736	3.09007	0.497168	2.70106	0.859444	4.31204	0.615878	3.08813		
0.496497	2.70144	0.616299	3.08244	0.495514	2.702	0.85964	4.29844	0.616442	3.08052		
0.494844	2.70238	0.616865	3.07488	0.493863	2.70296	0.859836	4.28494	0.617009	3.07297		
0.493195	2.70336	0.617435	3.06738	0.492215	2.70395	0.860032	4.27153	0.61758	3.0655		
0.491549	2.70435	0.618009	3.05996	0.490572	2.70496	0.860228	4.25821	0.618155	3.05809		
0.489907	2.70538	0.618587	3.0526	0.488932	2.706	0.860423	4.24497	0.618734	3.05075		
0.488268	2.70643	0.619169	3.04532	0.487296	2.70708	0.860618	4.23182	0.619316	3.04348		
0.486634	2.70752	0.619754	3.03809	0.485664	2.70818	0.860813	4.21875	0.619903	3.03628		
0.485004	2.70864	0.620343	3.03094	0.484036	2.70932	0.861007	4.20578	0.620493	3.02914		
0.483378	2.70978	0.620937	3.02385	0.482413	2.71048	0.861202	4.19289	0.621088	3.02207		
0.481757	2.71097	0.621534	3.01683	0.480794	2.71169	0.861398	4.18008	0.621686	3.01506		
0.48014	2.71219	0.622135	3.00988	0.47918	2.71293	0.861593	4.16736	0.622288	3.00813		
0.478528	2.71344	0.622741	3.00299	0.477571	2.7142	0.861789	4.15472	0.622895	3.00125		
0.476921	2.71473	0.62335	2.99616	0.475968	2.71552	0.861985	4.14217	0.623505	2.99444		
0.475319	2.71607	0.623964	2.9894	0.474369	2.71688	0.862181	4.1297	0.62412	2.98769		
0.473723	2.71744	0.624582	2.9827	0.472776	2.71828	0.862379	4.11732	0.624739	2.98101		
0.472132	2.71885	0.625204	2.97606	0.471188	2.71972	0.862576	4.10501	0.625362	2.97439		
0.470546	2.72031	0.625831	2.96949	0.469606	2.7212	0.862775	4.09279	0.62599	2.96784		
0.468967	2.72182	0.626461	2.96298	0.468031	2.72274	0.862974	4.08065	0.626622	2.96134		
0.467394	2.72337	0.627096	2.95653	0.466462	2.72432	0.863174	4.0686	0.627258	2.95491		
0.465828	2.72498	0.627735	2.95014	0.464899	2.72596	0.863375	4.05662	0.627898	2.94854		
0.464268	2.72663	0.628379	2.94382	0.463343	2.72764	0.863577	4.04472	0.628543	2.94222		
0.462715	2.72834	0.629027	2.93755	0.461794	2.72939	0.86378	4.03291	0.629192	2.93597		
0.461169	2.73011	0.629679	2.93134	0.460253	2.73119	0.863984	4.02117	0.629845	2.92978		
0.45963	2.73193	0.630336	2.9252	0.458718	2.73304	0.86419	4.00951	0.630503	2.92365		
0.458099	2.73382	0.630997	2.91911	0.457192	2.73497	0.864396	3.99793	0.631165	2.91758		
0.456576	2.73576	0.631663	2.91308	0.455674	2.73695	0.864604	3.98643	0.631832	2.91156		
0.455061	2.73777	0.632333	2.90711	0.454164	2.739	0.864813	3.97501	0.632503	2.9056		
0.453555	2.73985	0.633007	2.90119	0.452663	2.74112	0.865024	3.96366	0.633179	2.8997		
0.452057	2.742	0.633687	2.89534	0.451171	2.74332	0.865236	3.95239	0.633859	2.89386		
0.450569	2.74423	0.63437	2.88954	0.449688	2.74558	0.865449	3.9412	0.634544	2.88808		
0.44909	2.74652	0.635058	2.88379	0.448215	2.74793	0.865665	3.93008	0.635233	2.88235		
0.447621	2.7489	0.635751	2.8781	0.446751	2.75035	0.865881	3.91904	0.635927	2.87667		
0.446161	2.75136	0.636448	2.87247	0.445298	2.75286	0.8661	3.90807	0.636626	2.87105		
0.444712	2.7539	0.63715	2.86689	0.443856	2.75546	0.86632	3.89718	0.637329	2.86549		
0.443274	2.75653	0.637857	2.86137	0.442424	2.75814	0.866543	3.88636	0.638037	2.85998		
0.441847	2.75926	0.638568	2.8559	0.441003	2.76092	0.866767	3.87562	0.638749	2.85452		
0.440431	2.76207	0.639284	2.85048	0.439594	2.76379	0.866993	3.86495	0.639466	2.84912		
0.439026	2.76499	0.640004	2.84512	0.438197	2.76677	0.867221	3.85435	0.640187	2.84377		
0.437634	2.768	0.640729	2.83981	0.436812	2.76984	0.867451	3.84383	0.640914	2.83848		
0.436254	2.77112	0.641459	2.83455	0.435439	2.77302	0.867683	3.83337	0.641644	2.83323		
0.434887	2.77434	0.642193	2.82935	0.434079	2.77632	0.867917	3.82299	0.64238	2.82804		
0.433532	2.77768	0.642932	2.82419	0.432733	2.77972	0.868153	3.81268	0.64312	2.8229		
0.432191	2.78113	0.643676	2.81909	0.4314	2.78324	0.868392	3.80244	0.643865	2.81781		
0.430864	2.78471	0.644424	2.81404	0.430081	2.78689	0.868633	3.79227	0.644614	2.81277		
0.429551	2.7884	0.645177	2.80903	0.428776	2.79065	0.868876	3.78217	0.645369	2.80778		
0.428251	2.79222	0.645935	2.80408	0.427486	2.79455	0.869122	3.77214	0.646127	2.80283		
0.426967	2.79617	0.646697	2.79918	0.42621	2.79858	0.86937	3.76218	0.646891	2.79794		
0.425697	2.80025	0.647464	2.79432	0.42495	2.80274	0.86962	3.75229	0.647659	2.7931		
0.424443	2.80446	0.648236	2.78952	0.423704	2.80704	0.869873	3.74247	0.648432	2.78831		
0.423204	2.80882	0.649013	2.78476	0.422475	2.81148	0.870129	3.73271	0.64921	2.78356		
0.421981	2.81333	0.649794	2.78005	0.421261	2.81607	0.870387	3.72303	0.649992	2.77886		
0.420774	2.81798	0.65058	2.77538	0.420064	2.82081	0.870648	3.7134	0.65078	2.77421		
0.419583	2.82278	0.65137	2.77077	0.418882	2.82571	0.870911	3.70385	0.651571	2.7696		
0.418409	2.82774	0.652166	2.7662	0.417718	2.83076	0.871177	3.69436	0.652368	2.76505		
0.417251	2.83285	0.652966	2.76167	0.41657	2.83597	0.871446	3.68494	0.653169	2.76053		
0.41611	2.83813	0.653771	2.75719	0.415439	2.84135	0.871717	3.67558	0.653975	2.75607		
0.414986	2.84357	0.65458	2.75276	0.414326	2.84689	0.871992	3.66629	0.654786	2.75164		
0.413879	2.84919	0.655394	2.74837	0.413229	2.85261	0.872269	3.65706	0.655601	2.74727		
0.41279	2.85497	0.656213	2.74403	0.41215	2.8585	0.872549	3.6479	0.656421	2.74293		
0.411718	2.86094	0.657037	2.73973	0.411089	2.86457	0.872832	3.6388	0.657246	2.73865		
0.410664	2.86708	0.657865	2.73547	0.410045	2.87081	0.873118	3.62976	0.658075	2.7344		
0.409628	2.8734	0.658698	2.73126	0.40902	2.87725	0.873407	3.62079	0.65891	2.7302		
0.408609	2.87991	0.659536	2.72709	0.408011	2.88387	0.873699	3.61188	0.659748	2.72604		
0.407608	2.88661	0.660378	2.72296	0.407021	2.89068	0.873995	3.60303	0.660592	2.72192		
0.406625	2.8935	0.661225	2.71888	0.406049	2.89769	0.874293	3.59425	0.66144	2.71785		
0.40566	2.90058	0.662077	2.71483	0.405095	2.90489	0.874594	3.58552	0.662293	2.71382		
0.404713	2.90786	0.662933	2.71083	0.404158	2.91229	0.874899	3.57686	0.663151	2.70983		
0.403784	2.91534	0.663794	2.70687	0.40324	2.91989	0.875207	3.56826	0.664013	2.70588		
0.402873	2.92303	0.66466	2.70295	0.402339	2.9277	0.875517	3.55972	0.66488	2.70197		
0.40198	2.93092	0.665531	2.69907	0.401457	2.93572	0.875832	3.55124	0.665752	2.6981		
0.401104	2.93903	0.666406	2.69523	0.400592	2.94395	0.876149	3.54281	0.666628	2.69427		
0.400247	2.94734	0.667285	2.69143	0.399746	2.95239	0.87647	3.53445	0.667509	2.69048		
0.399408	2.95587	0.66817	2.68767	0.398917	2.96105	0.876794	3.52615	0.668395	2.68673		
0.398586	2.96462	0.669059	2.68395	0.398105	2.96993	0.877122	3.5179	0.669285	2.68302		
0.397782	2.97359	0.669953	2.68027	0.397312	2.97903	0.877453	3.50971	0.67018	2.67934		
0.396995	2.98278	0.670851	2.67663	0.396536	2.98836	0.877787	3.50158	0.671079	2.67571		
0.396227	2.9922	0.671754	2.67302	0.395778	2.99791	0.878125	3.49351	0.671983	2.67211		
0.395475	3.00185	0.672661	2.66945	0.395037	3.0077	0.878466	3.4855	0.672892	2.66855		
0.394741	3.01173	0.673573	2.66592	0.394313	3.01772	0.878811	3.47754	0.673805	2.66503		
0.394025	3.02185	0.67449	2.66243	0.393607	3.02798	0.879159	3.46964	0.674723	2.66155		
0.393325	3.0322	0.675411	2.65897	0.392917	3.03847	0.879511	3.46179	0.675645	2.6581		
0.392643	3.0428	0.676337	2.65555	0.392245	3.04922	0.879867	3.454	0.676573	2.65469		
0.391978	3.05364	0.677268	2.65216	0.39159	3.0602	0.880226	3.44627	0.677504	2.65131		
0.391329	3.06472	0.678203	2.64881	0.390952	3.07144	0.880588	3.43859	0.67844	2.64797		
0.390698	3.07606	0.679142	2.6455	0.39033	3.08293	0.880955	3.43096	0.679381	2.64466		
0.390083	3.08765	0.680086	2.64222	0.389725	3.09467	0.881325	3.42339	0.680326	2.64139		
0.389485	3.0995	0.681035	2.63897	0.389137	3.10667	0.881699	3.41587	0.681276	2.63816		
0.388903	3.11161	0.681988	2.63576	0.388565	3.11894	0.882076	3.40841	0.68223	2.63496		
0.388338	3.12398	0.682946	2.63259	0.388009	3.13147	0.882457	3.401	0.683189	2.63179		
0.387789	3.13662	0.683908	2.62945	0.38747	3.14427	0.882842	3.39364	0.684153	2.62866		
0.387256	3.14953	0.684875	2.62634	0.386947	3.15734	0.883231	3.38634	0.68512	2.62556		
0.38674	3.16272	0.685846	2.62326	0.38644	3.17069	0.883624	3.37909	0.686093	2.62249		
0.386239	3.17618	0.686822	2.62022	0.385949	3.18432	0.88402	3.37189	0.687069	2.61946		
0.385754	3.18992	0.687802	2.61721	0.385473	3.19823	0.88442	3.36474	0.688051	2.61645		
0.385285	3.20395	0.688786	2.61423	0.385014	3.21244	0.884824	3.35764	0.689037	2.61348		
0.384832	3.21827	0.689776	2.61129	0.38457	3.22693	0.885232	3.3506	0.690027	2.61055		
0.384395	3.23289	0.690769	2.60838	0.384142	3.24172	0.885644	3.3436	0.691022	2.60764		
0.383973	3.2478	0.691767	2.60549	0.383729	3.25682	0.88606	3.33666	0.692021	2.60477		
0.383566	3.26302	0.69277	2.60264	0.383332	3.27222	0.88648	3.32976	0.693024	2.60193		
0.383175	3.27855	0.693777	2.59983	0.38295	3.28793	0.886904	3.32292	0.694032	2.59912		
0.382799	3.29438	0.694788	2.59704	0.382583	3.30395	0.887332	3.31612	0.695045	2.59634		
0.382439	3.31054	0.695804	2.59428	0.382231	3.3203	0.887763	3.30938	0.696062	2.59359		
0.382093	3.32701	0.696824	2.59155	0.381895	3.33697	0.888199	3.30268	0.697083	2.59087		
0.381763	3.34381	0.697849	2.58886	0.381573	3.35396	0.888639	3.29603	0.698109	2.58818		
0.381447	3.36095	0.698878	2.58619	0.381266	3.3713	0.889083	3.28943	0.699139	2.58552		
0.381146	3.37842	0.699912	2.58355	0.380974	3.38897	0.889531	3.28288	0.700174	2.58289		
0.38086	3.39623	0.70095	2.58095	0.380697	3.40699	0.889983	3.27637	0.701214	2.58029		
0.380589	3.41439	0.701993	2.57837	0.380435	3.42536	0.890439	3.26992	0.702258	2.57772		
0.380333	3.43291	0.70304	2.57582	0.380187	3.44409	0.890899	3.26351	0.703306	2.57518		
0.380091	3.45179	0.704092	2.5733	0.379954	3.46319	0.891364	3.25714	0.704359	2.57267		
0.379863	3.47103	0.705149	2.57081	0.379735	3.48265	0.891832	3.25083	0.705417	2.57019		
0.37965	3.49064	0.70621	2.56835	0.37953	3.50248	0.892305	3.24456	0.70648	2.56774		
0.379452	3.51063	0.707277	2.56593	0.37934	3.5227	0.892782	3.23833	0.707548	2.56531		
0.379267	3.531	0.708349	2.56353	0.379164	3.54331	0.893263	3.23215	0.708621	2.56292		
0.379097	3.55177	0.709426	2.56116	0.379003	3.56431	0.893749	3.22602	0.709699	2.56057		
0.378941	3.57294	0.710509	2.55883	0.378855	3.58572	0.894238	3.21993	0.710784	2.55824		
0.378799	3.59451	0.711598	2.55652	0.378721	3.60753	0.894732	3.21389	0.711875	2.55595		
0.378671	3.61649	0.712694	2.55426	0.378602	3.62976	0.89523	3.20789	0.712973	2.55369		
0.378557	3.63889	0.713799	2.55204	0.378496	3.65242	0.895733	3.20193	0.71408	2.55148		
0.378457	3.66172	0.714914	2.54986	0.378404	3.6755	0.89624	3.19602	0.715198	2.54932		
0.378371	3.68498	0.716042	2.54775	0.378326	3.69903	0.896751	3.19016	0.716331	2.54722		
0.378298	3.70869	0.717191	2.54571	0.378262	3.723	0.897266	3.18433	0.717486	2.54521		
0.378239	3.73285	0.718372	2.5438	0.378211	3.74744	0.897786	3.17855	0.718678	2.54334		
0.378194	3.75747	0.719607	2.54209	0.378174	3.77233	0.89831	3.17281	0.719933	2.5417		
0.378162	3.78255	0.720938	2.54072	0.37815	3.7977	0.898838	3.16712	0.721296	2.54045		
0.378144	3.80812	0.722409	2.53986	0.37814	3.82355	0.899371	3.16147	0.722806	2.53972		
0.378139	3.83417	0.724023	2.5395	0.378143	3.8499	0.899908	3.15586	0.724449	2.53947		
0.378148	3.86072	0.725734	2.53948	0.378159	3.87674	0.90045	3.15029	0.726177	2.5395		
0.37817	3.88777	0.727498	2.53964	0.378189	3.9041	0.900996	3.14476	0.72795	2.5397		
0.378205	3.91533	0.729291	2.53991	0.378232	3.93198	0.901547	3.13928	0.729748	2.53999		
0.378253	3.94343	0.731101	2.54023	0.378288	3.96039	0.902102	3.13384	0.731561	2.54032		
0.378314	3.97206	0.732921	2.54059	0.378357	3.98934	0.902661	3.12843	0.733383	2.54068		
0.378388	4.00123	0.734747	2.54097	0.378439	4.01885	0.903225	3.12307	0.73521	2.54106		
0.378476	4.03096	0.736577	2.54135	0.378534	4.04892	0.903794	3.11775	0.737041	2.54145		
0.378576	4.06127	0.73841	2.54175	0.378641	4.07956	0.904367	3.11247	0.738875	2.54185		
0.378689	4.09215	0.740245	2.54215	0.378762	4.1108	0.904944	3.10723	0.740711	2.54226		
0.378814	4.12363	0.742082	2.54256	0.378895	4.14263	0.905527	3.10203	0.742547	2.54266		
0.378952	4.15571	0.74392	2.54297	0.379041	4.17508	0.906113	3.09687	0.744386	2.54307		
0.379103	4.18841	0.745758	2.54338	0.379199	4.20816	0.906704	3.09175	0.746224	2.54348		
0.379267	4.22174	0.747598	2.54378	0.37937	4.24187	0.9073	3.08667	0.748064	2.54389		
0.379442	4.25572	0.749437	2.54419	0.379553	4.27624	0.907901	3.08162	0.749903	2.54429		
0.379631	4.29035	0.751277	2.5446	0.379748	4.31127	0.908506	3.07662	0.751743	2.5447		
0.379831	4.32566	0.753117	2.54501	0.379956	4.34699	0.909116	3.07165	0.753583	2.54511		
0.380044	4.36166	0.754958	2.54541	0.380176	4.3834	0.90973	3.06672	0.755424	2.54551		
0.380268	4.39835	0.756798	2.54581	0.380408	4.42052	0.910349	3.06183	0.757264	2.54592		
0.380505	4.43577	0.758638	2.54621	0.380652	4.45837	0.910973	3.05698	0.759104	2.54632		
0.380754	4.47393	0.760479	2.54661	0.380907	4.49697	0.911601	3.05217	0.760945	2.54672		
0.381014	4.51283	0.762319	2.54701	0.381175	4.53633	0.912234	3.04739	0.762785	2.54711		
0.381287	4.5525	0.76416	2.54741	0.381454	4.57647	0.912872	3.04265	0.764626	2.54751		
0.381571	4.59296	0.766	2.5478	0.381746	4.61741	0.913515	3.03795	0.766466	2.5479		
0.381867	4.63423	0.76784	2.54819	0.382048	4.65916	0.914162	3.03328	0.768306	2.54829		
0.382174	4.67631	0.76968	2.54858	0.382362	4.70174	0.914815	3.02866	0.770146	2.54868		
0.382493	4.71924	0.77152	2.54897	0.382688	4.74519	0.915472	3.02406	0.771986	2.54907		
0.382823	4.76304	0.77336	2.54936	0.383024	4.7895	0.916133	3.01951	0.773826	2.54946		
0.383164	4.80772	0.7752	2.54974	0.383372	4.83472	0.9168	3.01499	0.775666	2.54984		
0.383517	4.8533	0.77704	2.55012	0.383732	4.88085	0.917472	3.01051	0.777505	2.55022		
0.38388	4.89981	0.778879	2.5505	0.384102	4.92793	0.918148	3.00606	0.779345	2.5506		
0.384255	4.94728	0.780718	2.55088	0.384483	4.97597	0.918829	3.00165	0.781184	2.55097		
0.38464	4.99571	0.782558	2.55125	0.384875	5.025	0.919516	2.99727	0.783023	2.55135		
0.385036	5.04515	0.784397	2.55163	0.385277	5.07504	0.920207	2.99293	0.784862	2.55172		
0.385443	5.09561	0.786235	2.552	0.38569	5.12612	0.920903	2.98862	0.786701	2.55209		
0.385861	5.14713	0.788074	2.55236	0.386114	5.17827	0.921604	2.98435	0.78854	2.55246		
0.386289	5.19972	0.789912	2.55273	0.386548	5.23152	0.92231	2.98011	0.790378	2.55282		
0.386727	5.25341	0.791751	2.55309	0.386993	5.28589	0.923021	2.97591	0.792216	2.55319		
0.387176	5.30825	0.793589	2.55346	0.387447	5.34141	0.923737	2.97174	0.794054	2.55355		
0.387634	5.36425	0.795427	2.55382	0.387912	5.39812	0.924458	2.96761	0.795892	2.55391		
0.388103	5.42144	0.797264	2.55417	0.388386	5.45604	0.925184	2.96351	0.79773	2.55426		
0.388582	5.47987	0.799102	2.55453	0.388871	5.51522	0.925916	2.95945	0.799567	2.55462		
0.38907	5.53956	0.800939	2.55488	0.389365	5.57568	0.926652	2.95542	0.801404	2.55497		
0.389568	5.60055	0.802776	2.55523	0.389869	5.63746	0.927394	2.95142	0.803241	2.55532		
0.39001	5.65479	0.804613	2.55558	0.390382	5.70059	0.928141	2.94746	0.805078	2.55567		
0.390392	5.70184	0.80645	2.55593	0.390905	5.76513	0.928893	2.94353	0.806915	2.55601		
0.390712	5.74133	0.808286	2.55627	0.391437	5.8311	0.92965	2.93963	0.808751	2.55636		
0.390968	5.77294	0.810123	2.55661	0.391978	5.89855	0.930413	2.93577	0.810588	2.5567		
0.391157	5.79639	0.811959	2.55695	0.392527	5.96753	0.93118	2.93194	0.812424	2.55704		
0.391332	5.81814	0.813795	2.55729	0.393086	6.03807	0.931953	2.92814	0.81426	2.55738		
0.391455	5.83336	0.81563	2.55763	0.393654	6.11023	0.932732	2.92437	0.816095	2.55771		
0.391647	5.85729	0.817466	2.55796	0.39423	6.18405	0.933516	2.92064	0.817931	2.55805		
0.39191	5.89015	0.819301	2.55829	0.394814	6.25958	0.934305	2.91694	0.819766	2.55838		
0.392246	5.93222	0.821136	2.55862	0.395407	6.33689	0.9351	2.91328	0.821601	2.55871		
0.392657	5.98388	0.822971	2.55895	0.396008	6.41602	0.9359	2.90964	0.823436	2.55903		
0.393146	6.04558	0.824806	2.55928	0.396617	6.49704	0.936705	2.90604	0.82527	2.55936		
0.393714	6.11791	0.82664	2.5596	0.397233	6.57999	0.937516	2.90247	0.827105	2.55968		
0.394291	6.19191	0.828475	2.55992	0.397858	6.66496	0.938333	2.89893	0.828939	2.56		
0.394876	6.26763	0.830309	2.56024	0.39849	6.752	0.939156	2.89543	0.830773	2.56032		
0.39547	6.34513	0.832143	2.56056	0.399129	6.84118	0.939983	2.89195	0.832607	2.56064		
0.396072	6.42446	0.833976	2.56088	0.399775	6.93257	0.940817	2.88851	0.83444	2.56096		
0.396681	6.50567	0.83581	2.56119	0.400429	7.02626	0.941656	2.8851	0.836274	2.56127		
0.397299	6.58884	0.837643	2.5615	0.401089	7.12232	0.942502	2.88172	0.838107	2.56158		
0.397924	6.67402	0.839476	2.56181	0.401756	7.22083	0.943352	2.87837	0.83994	2.56189		
0.398556	6.76128	0.841309	2.56212	0.402429	7.32188	0.944209	2.87506	0.841773	2.5622		
0.399196	6.85069	0.843141	2.56243	0.403109	7.42557	0.945072	2.87177	0.843605	2.56251		
0.399844	6.94232	0.844974	2.56273	0.403795	7.53198	0.94594	2.86852	0.845438	2.56281		
0.400498	7.03626	0.846806	2.56303	0.404486	7.64123	0.946815	2.8653	0.84727	2.56311		
0.401159	7.13257	0.848638	2.56334	0.405184	7.75341	0.947695	2.86211	0.849102	2.56341		
0.401826	7.23134	0.850469	2.56363	0.405887	7.86863	0.948582	2.85895	0.850933	2.56371		
0.4025	7.33267	0.852301	2.56393	0.406595	7.98702	0.949475	2.85582	0.852765	2.56401		
0.403181	7.43664	0.854132	2.56423	0.407308	8.1087	0.950373	2.85273	0.854596	2.5643		
0.403867	7.54334	0.855963	2.56452	0.408027	8.2338	0.951278	2.84966	0.856427	2.56459		
0.404559	7.65289	0.857794	2.56481	0.40875	8.36245	0.95219	2.84663	0.858258	2.56488		
0.405258	7.76539	0.859625	2.5651	0.409477	8.4948	0.953107	2.84363	0.860089	2.56517		
0.405961	7.88094	0.861455	2.56539	0.410209	8.63101	0.954031	2.84065	0.861919	2.56546		
0.40667	7.99967	0.863286	2.56567	0.410945	8.77123	0.954962	2.83771	0.863749	2.56575		
0.407384	8.1217	0.865116	2.56596	0.411684	8.91564	0.955898	2.8348	0.865579	2.56603		
0.408103	8.24717	0.866946	2.56624	0.412427	9.06441	0.956842	2.83192	0.867409	2.56631		
0.408826	8.3762	0.868775	2.56652	0.413173	9.21775	0.957792	2.82908	0.869239	2.56659		
0.409554	8.50895	0.870605	2.5668	0.413826	9.35524	0.958748	2.82626	0.871068	2.56687		
0.410286	8.64557	0.872434	2.56708	0.414384	9.47542	0.959712	2.82347	0.872897	2.56715		
0.411022	8.78623	0.874263	2.56735	0.414846	9.57692	0.960682	2.82072	0.874726	2.56742		
0.411762	8.93109	0.876092	2.56763	0.415213	9.65858	0.961659	2.81799	0.876555	2.5677		
0.412505	9.08033	0.87792	2.5679	0.415483	9.71943	0.962642	2.8153	0.878383	2.56797		
0.413252	9.23416	0.879748	2.56817	0.415731	9.77603	0.963633	2.81264	0.880211	2.56824		
0.414001	9.39277	0.881577	2.56844	0.415904	9.81576	0.964631	2.81001	0.88204	2.56851		
0.414753	9.55638	0.883405	2.56871	0.416174	9.87842	0.965636	2.80741	0.883867	2.56877		
0.415508	9.72523	0.885232	2.56897	0.416542	9.96482	0.966648	2.80484	0.885695	2.56904		
0.416265	9.89956	0.88706	2.56924	0.417009	10.0761	0.967667	2.8023	0.887522	2.5693		
0.417023	10.0796	0.888887	2.5695	0.417573	10.2136	0.968694	2.79979	0.88935	2.56956		
0.417784	10.2657	0.890714	2.56976	0.418236	10.3794	0.969728	2.79731	0.891177	2.56982		
0.418545	10.4581	0.892541	2.57002	0.418998	10.5757	0.970769	2.79487	0.893003	2.57008		
0.419307	10.6572	0.894367	2.57027	0.419761	10.7788	0.971818	2.79245	0.89483	2.57034		
0.42007	10.8632	0.896194	2.57053	0.420524	10.9892	0.972874	2.79007	0.896656	2.57059		
0.420834	11.0765	0.89802	2.57078	0.421288	11.2071	0.973938	2.78772	0.898482	2.57085		
0.421597	11.2976	0.899846	2.57104	0.422051	11.4329	0.97501	2.7854	0.900308	2.5711		
0.42236	11.5268	0.901671	2.57129	0.422813	11.6672	0.976089	2.78311	0.902134	2.57135		
0.423122	11.7647	0.903497	2.57153	0.423575	11.9104	0.977177	2.78085	0.903959	2.5716		
0.423883	12.0116	0.905322	2.57178	0.424335	12.1629	0.978272	2.77862	0.905784	2.57184		
0.424643	12.2681	0.907147	2.57203	0.425094	12.4254	0.979375	2.77642	0.907609	2.57209		
0.425401	12.5347	0.908972	2.57227	0.42585	12.6984	0.980487	2.77426	0.909434	2.57233		
0.426156	12.8122	0.910797	2.57252	0.426604	12.9826	0.981606	2.77212	0.911259	2.57258		
0.426909	13.101	0.912621	2.57276	0.427356	13.2786	0.982733	2.77002	0.913083	2.57282		
0.427659	13.402	0.914445	2.573	0.428104	13.5871	0.983869	2.76795	0.914907	2.57306		
0.428406	13.716	0.916269	2.57323	0.428848	13.9092	0.985013	2.76591	0.916731	2.57329		
0.429148	14.0437	0.918093	2.57347	0.429588	14.2455	0.986166	2.7639	0.918555	2.57353		
0.429886	14.386	0.919916	2.57371	0.430323	14.597	0.987326	2.76192	0.920378	2.57376		
0.43062	14.7441	0.92174	2.57394	0.431054	14.9649	0.988495	2.75997	0.922201	2.574		
0.431348	15.1189	0.923563	2.57417	0.431778	15.3503	0.989673	2.75805	0.924024	2.57423		
0.432071	15.5117	0.925385	2.5744	0.432497	15.7544	0.990859	2.75617	0.925847	2.57446		
0.432787	15.9238	0.927208	2.57463	0.43321	16.1787	0.992054	2.75431	0.92767	2.57469		
0.433496	16.3567	0.92903	2.57486	0.433915	16.6247	0.993257	2.75249	0.929492	2.57492		
0.434199	16.812	0.930852	2.57508	0.434613	17.0941	0.99447	2.75069	0.931314	2.57514		
0.434893	17.2914	0.932674	2.57531	0.435302	17.5889	0.99569	2.74893	0.933136	2.57537		
0.435579	17.797	0.934496	2.57553	0.435983	18.111	0.99692	2.7472	0.934957	2.57559		
0.436257	18.3309	0.936317	2.57575	0.436655	18.6629	0.998158	2.7455	0.936779	2.57581		
0.436925	18.8957	0.938139	2.57597	0.437318	19.2473	0.999405	2.74382	0.9386	2.57603		
0.437583	19.494	0.93996	2.57619	0.43797	19.867	1.00066	2.74218	0.940421	2.57625		
0.438231	20.129	0.94178	2.57641	0.438611	20.5254			0.942241	2.57646		
0.438867	20.8041	0.943601	2.57663	0.43924	21.2263			0.944062	2.57668		
0.439492	21.5234	0.945421	2.57684	0.439858	21.9739			0.945882	2.57689		
0.440105	22.2913	0.947241	2.57705	0.440463	22.7731			0.947702	2.57711		
0.440705	23.1129	0.949061	2.57726	0.441055	23.6295			0.949522	2.57732		
0.441291	23.9942	0.95088	2.57747	0.441633	24.5494			0.951341	2.57753		
0.441863	24.942	0.9527	2.57768	0.442197	25.5404			0.95316	2.57774		
0.442421	25.9641	0.954519	2.57789	0.442745	26.611			0.954979	2.57794		
0.442963	27.0697	0.956337	2.5781	0.443278	27.7712			0.956798	2.57815		
0.443489	28.2696	0.958156	2.5783	0.443795	29.0331			0.958617	2.57835		
0.443999	29.5764	0.959974	2.5785	0.444294	30.4105			0.960435	2.57855		
0.444492	31.0053	0.961792	2.57871	0.444777	31.9202			0.962253	2.57876		
0.444967	32.5742	0.96361	2.57891	0.445241	33.5826			0.964071	2.57896		
0.445423	34.3051	0.965428	2.5791	0.445686	35.4221			0.965888	2.57915		
0.445861	36.2246	0.967245	2.5793	0.446112	37.4688			0.967705	2.57935		
0.446279	38.3654	0.969062	2.5795	0.446518	39.7601			0.969523	2.57955		
0.446677	40.7686	0.970879	2.57969	0.446904	42.343			0.971339	2.57974		
0.447054	43.4858	0.972696	2.57989	0.447269	45.2772			0.973156	2.57994		
0.447411	46.5832	0.974512	2.58008	0.447612	48.6401			0.974972	2.58013		
0.447745	50.1471	0.976328	2.58027	0.447934	52.5336			0.976788	2.58032		
0.448057	54.2922	0.978144	2.58046	0.448232	57.0946			0.978604	2.58051		
0.448347	59.1738	0.97996	2.58065	0.448508	62.5119			0.980419	2.58069		
0.448613	65.0083	0.981775	2.58083	0.448761	69.0524			0.982235	2.58088		
0.448856	72.1061	0.98359	2.58102	0.44899	77.1072			0.98405	2.58107		
0.449075	80.9288	0.985405	2.5812	0.449194	87.273			0.985864	2.58125		
0.44927	92.194	0.987219	2.58139	0.449374	100.507			0.987679	2.58143		
0.44944	107.082	0.989034	2.58157	0.44953	118.448			0.989493	2.58161		
0.449586	127.678	0.990848	2.58175	0.44966	144.157			0.991307	2.58179		
0.449706	158.051	0.992661	2.58192	0.449765	184.08			0.993121	2.58197		
0.449801	207.338	0.994475	2.5821	0.449845	254.525			0.994934	2.58215		
0.44987	301.223	0.996288	2.58228	0.449899	412.198			0.996747	2.58232		
0.449914	550.315	0.998101	2.58245	0.449928	1082.75			0.99856	2.5825		
0.449932	3176.69	0.999914	2.58263					1.00037	2.58267		
		1.00173	2.5828								
