Sym0		Asym0		Sym1		Sym2		Sym3		Asym1		Asym2		Asym3	
462  Points		514  Points		462  Points		440  Points		294  Points		472  Points		391  Points		272  Points	
Freq (MHz)	Vph (m/ms)	Freq (MHz)	Vph (m/ms)	Freq (MHz)	Vph (m/ms)	Freq (MHz)	Vph (m/ms)	Freq (MHz)	Vph (m/ms)	Freq (MHz)	Vph (m/ms)	Freq (MHz)	Vph (m/ms)	Freq (MHz)	Vph (m/ms)
1.00018	2.57693	2.54228e-005	0.0310981	1.00108	2.5764	0.449945	721.179	0.763763	2659.64	0.190964	240.745	0.572823	770.165	0.899866	2096.64
0.998396	2.57798	0.000105734	0.0633889	0.999295	2.57745	0.449998	305.204	0.763766	671.334	0.19104	116.223	0.572826	359.3	0.89987	703.181
0.996607	2.57902	0.000240884	0.0956442	0.997508	2.5785	0.450095	193.594	0.763774	384.153	0.19117	76.644	0.572832	234.306	0.899877	422.432
0.994817	2.58007	0.000430573	0.127802	0.995718	2.57954	0.450234	141.786	0.763785	269.06	0.191352	57.2094	0.57284	173.834	0.899888	301.9
0.993025	2.58111	0.000674614	0.159877	0.993927	2.58059	0.450416	111.878	0.763801	207.035	0.191587	45.6673	0.57285	138.175	0.899902	234.884
0.99123	2.58216	0.000972493	0.19181	0.992134	2.58163	0.45064	92.4107	0.76382	168.252	0.191875	38.0266	0.572863	114.656	0.89992	192.217
0.989434	2.5832	0.00132373	0.22358	0.990338	2.58268	0.450905	78.7332	0.763844	141.708	0.192214	32.599	0.572878	97.9803	0.899941	162.67
0.987635	2.58424	0.00172777	0.255168	0.98854	2.58372	0.451211	68.599	0.763872	122.4	0.192604	28.5473	0.572895	85.5401	0.899966	140.998
0.985833	2.58528	0.00218407	0.286561	0.98674	2.58476	0.451557	60.7909	0.763904	107.724	0.193045	25.4095	0.572915	75.9039	0.899994	124.423
0.984029	2.58632	0.00269177	0.317719	0.984937	2.5858	0.451942	54.5919	0.76394	96.192	0.193536	22.9094	0.572938	68.2197	0.900026	111.336
0.982221	2.58735	0.00325016	0.348629	0.983132	2.58683	0.452365	49.5522	0.76398	86.8915	0.194076	20.872	0.572963	61.949	0.900061	100.741
0.980411	2.58838	0.00385833	0.379264	0.981323	2.58787	0.452826	45.3752	0.764024	79.2321	0.194664	19.1807	0.57299	56.7347	0.9001	91.9888
0.978598	2.58941	0.00451556	0.409622	0.979511	2.58889	0.453322	41.8576	0.764072	72.8147	0.195299	17.7554	0.573019	52.3307	0.900142	84.6364
0.976782	2.59043	0.00522069	0.439666	0.977697	2.58992	0.453854	38.8553	0.764124	67.36	0.195981	16.5385	0.573051	48.5617	0.900188	78.3732
0.974962	2.59145	0.00597292	0.469394	0.975878	2.59094	0.45442	36.2632	0.764181	62.6665	0.196708	15.4882	0.573086	45.2996	0.900237	72.9738
0.973139	2.59247	0.00677113	0.498784	0.974057	2.59196	0.455018	34.0031	0.764241	58.5853	0.197479	14.573	0.573123	42.4488	0.900289	68.2712
0.971312	2.59348	0.00761438	0.527831	0.972232	2.59297	0.455649	32.0154	0.764306	55.004	0.198294	13.769	0.573163	39.936	0.900345	64.1387
0.969481	2.59448	0.00850143	0.556511	0.970403	2.59398	0.45631	30.2539	0.764374	51.8362	0.19915	13.0573	0.573205	37.7045	0.900405	60.4786
0.967646	2.59548	0.00943134	0.584823	0.96857	2.59498	0.457001	28.6823	0.764447	49.0141	0.200049	12.4234	0.57325	35.7097	0.900468	57.2143
0.965808	2.59647	0.0104029	0.612749	0.966734	2.59597	0.457721	27.2717	0.764524	46.4841	0.200987	11.8555	0.573297	33.9157	0.900534	54.2849
0.963965	2.59746	0.011415	0.640291	0.964893	2.59696	0.458468	25.9987	0.764605	44.2032	0.201964	11.344	0.573347	32.2938	0.900603	51.6415
0.962118	2.59843	0.0124667	0.66744	0.963048	2.59794	0.459242	24.8443	0.764691	42.1363	0.202978	10.8812	0.5734	30.8203	0.900676	49.244
0.960266	2.5994	0.0135566	0.694182	0.961199	2.59892	0.460041	23.7928	0.76478	40.2547	0.20403	10.4606	0.573455	29.4758	0.900752	47.0598
0.95841	2.60037	0.0146838	0.720522	0.959345	2.59988	0.460865	22.8312	0.764874	38.5345	0.204975	10.1243	0.573513	28.244	0.900831	45.0616
0.95655	2.60132	0.0158471	0.746452	0.957487	2.60084	0.461713	21.9484	0.764972	36.9559	0.205801	9.85753	0.573574	27.1114	0.900914	43.2267
0.954685	2.60227	0.0170454	0.771968	0.955624	2.60179	0.462583	21.1352	0.765074	35.5021	0.206499	9.64947	0.573637	26.0665	0.901	41.5358
0.952814	2.60321	0.0182777	0.797075	0.953756	2.60273	0.463475	20.3839	0.76518	34.1589	0.207059	9.49241	0.573703	25.0994	0.901089	39.9726
0.950939	2.60413	0.0195428	0.821767	0.951884	2.60367	0.464388	19.6876	0.765291	32.9141	0.207476	9.38089	0.573772	24.2019	0.901181	38.5233
0.949059	2.60505	0.0208398	0.846046	0.950006	2.60459	0.465321	19.0406	0.765405	31.7574	0.207745	9.31121	0.573844	23.3667	0.901277	37.1757
0.947174	2.60596	0.0221675	0.869912	0.948124	2.60551	0.466273	18.4379	0.765524	30.6797	0.208135	9.21327	0.573919	22.5874	0.901375	35.9197
0.945284	2.60686	0.023525	0.893365	0.946236	2.60641	0.467244	17.8751	0.765648	29.6732	0.208562	9.1097	0.573997	21.8588	0.901477	34.7461
0.943388	2.60775	0.0249114	0.916414	0.944343	2.6073	0.468233	17.3484	0.765775	28.7311	0.20915	8.97345	0.574077	21.176	0.901581	33.6471
0.941487	2.60863	0.0263255	0.939056	0.942445	2.60819	0.469239	16.8546	0.765907	27.8474	0.209903	8.80833	0.574161	20.5349	0.901689	32.6158
0.939581	2.6095	0.0277666	0.961295	0.940541	2.60906	0.470262	16.3906	0.766043	27.0169	0.210829	8.61869	0.574248	19.9317	0.9018	31.6463
0.93767	2.61035	0.0292336	0.983134	0.938633	2.60992	0.4713	15.9538	0.766184	26.2349	0.211937	8.40916	0.574338	19.3632	0.901914	30.733
0.935753	2.6112	0.0307257	1.00458	0.936718	2.61078	0.472354	15.542	0.766329	25.4973	0.213233	8.18441	0.57443	18.8265	0.902031	29.8712
0.93383	2.61203	0.0322421	1.02564	0.934799	2.61162	0.473422	15.1531	0.766478	24.8005	0.214557	7.9749	0.574526	18.319	0.90215	29.0568
0.931902	2.61286	0.0337818	1.04631	0.932873	2.61244	0.474504	14.7853	0.766632	24.1411	0.215908	7.77917	0.574626	17.8384	0.902273	28.2859
0.929969	2.61367	0.0353442	1.0666	0.930943	2.61326	0.4756	14.4368	0.76679	23.5162	0.217284	7.59597	0.574728	17.3826	0.902398	27.5551
0.92803	2.61447	0.0369283	1.08652	0.929007	2.61407	0.476709	14.1063	0.766952	22.9233	0.218684	7.42418	0.574834	16.9498	0.902527	26.8614
0.926085	2.61526	0.0385335	1.10607	0.927065	2.61486	0.47783	13.7924	0.767119	22.3599	0.220108	7.26281	0.574943	16.5382	0.902658	26.2021
0.924135	2.61603	0.0401591	1.12526	0.925117	2.61564	0.478964	13.4938	0.767291	21.8238	0.221555	7.11098	0.575056	16.1465	0.902792	25.5746
0.92218	2.6168	0.0418042	1.14409	0.923165	2.61642	0.480109	13.2095	0.767467	21.3133	0.223023	6.9679	0.575171	15.773	0.902929	24.9767
0.920218	2.61755	0.0434683	1.16257	0.921206	2.61717	0.481266	12.9386	0.767647	20.8264	0.224512	6.83286	0.575291	15.4167	0.903069	24.4063
0.918252	2.61829	0.0451507	1.18071	0.919242	2.61792	0.482433	12.68	0.767832	20.3615	0.226022	6.70524	0.575414	15.0764	0.903211	23.8617
0.91628	2.61902	0.0468507	1.19851	0.917273	2.61865	0.483611	12.4331	0.768022	19.9173	0.227551	6.58445	0.57554	14.751	0.903356	23.341
0.914302	2.61974	0.0485678	1.21598	0.915298	2.61938	0.484799	12.1969	0.768216	19.4924	0.229098	6.47	0.57567	14.4396	0.903504	22.8429
0.91232	2.62044	0.0503013	1.23312	0.913318	2.62009	0.485996	11.9709	0.768414	19.0856	0.230663	6.36141	0.575804	14.1412	0.903654	22.3657
0.910331	2.62113	0.0520507	1.24995	0.911333	2.62079	0.487203	11.7544	0.768618	18.6957	0.232246	6.25827	0.575942	13.8552	0.903808	21.9083
0.908338	2.62181	0.0538154	1.26646	0.909342	2.62147	0.488419	11.5468	0.768826	18.3217	0.233845	6.16018	0.576083	13.5807	0.903963	21.4695
0.906339	2.62248	0.055595	1.28266	0.907346	2.62215	0.489644	11.3475	0.769038	17.9627	0.23546	6.06679	0.576229	13.3172	0.904122	21.0481
0.904335	2.62314	0.0573888	1.29857	0.905345	2.62281	0.490877	11.1562	0.769256	17.6178	0.237091	5.9778	0.576378	13.0638	0.904282	20.6431
0.902327	2.62379	0.0591965	1.31418	0.903338	2.62346	0.492118	10.9723	0.769478	17.2862	0.238736	5.89291	0.576531	12.8202	0.904446	20.2536
0.900313	2.62442	0.0610175	1.32951	0.901327	2.6241	0.493367	10.7955	0.769704	16.9671	0.240395	5.81184	0.576688	12.5856	0.904612	19.8787
0.898294	2.62504	0.0628515	1.34455	0.89931	2.62473	0.494623	10.6252	0.769936	16.6598	0.242067	5.73437	0.576849	12.3597	0.90478	19.5176
0.89627	2.62566	0.0646978	1.35931	0.897289	2.62535	0.495887	10.4612	0.770172	16.3638	0.243752	5.66025	0.577014	12.142	0.904951	19.1696
0.894241	2.62626	0.0665563	1.37381	0.895263	2.62596	0.496994	10.3232	0.770414	16.0784	0.24545	5.58928	0.577184	11.932	0.905125	18.8339
0.892208	2.62685	0.0684264	1.38804	0.893232	2.62655	0.497942	10.2089	0.77066	15.803	0.24716	5.52128	0.577358	11.7294	0.9053	18.51
0.89017	2.62743	0.0703078	1.40202	0.891196	2.62713	0.498729	10.1167	0.770911	15.5372	0.248881	5.45606	0.577536	11.5337	0.905479	18.1972
0.888127	2.62799	0.0722001	1.41574	0.889156	2.62771	0.499353	10.0451	0.771166	15.2804	0.250613	5.39347	0.577719	11.3447	0.905659	17.895
0.88608	2.62855	0.0741029	1.42922	0.887111	2.62827	0.499812	9.99331	0.771427	15.0322	0.252355	5.33335	0.577905	11.1619	0.905842	17.6028
0.884029	2.6291	0.0760159	1.44245	0.885062	2.62882	0.500107	9.96049	0.771693	14.7923	0.254108	5.27555	0.578097	10.9851	0.906028	17.3201
0.881973	2.62964	0.0779388	1.45545	0.883008	2.62937	0.500531	9.91375	0.771964	14.5601	0.25587	5.21996	0.578293	10.8141	0.906215	17.0465
0.879913	2.63016	0.0798713	1.46822	0.88095	2.6299	0.500992	9.86355	0.772239	14.3353	0.257641	5.16645	0.578494	10.6485	0.906405	16.7816
0.877849	2.63068	0.081813	1.48076	0.878888	2.63042	0.501621	9.79626	0.77252	14.1176	0.259421	5.11491	0.578673	10.5084	0.906598	16.525
0.875781	2.63119	0.0837636	1.49308	0.876822	2.63094	0.502419	9.71274	0.772806	13.9067	0.261209	5.06523	0.578828	10.392	0.906793	16.2762
0.873709	2.63169	0.0857229	1.50519	0.874752	2.63144	0.503386	9.61401	0.773097	13.7022	0.263006	5.01732	0.578958	10.2978	0.90699	16.0349
0.871633	2.63218	0.0876906	1.51708	0.872678	2.63194	0.504525	9.50127	0.773394	13.5039	0.26481	4.97108	0.579063	10.2245	0.907189	15.8009
0.869553	2.63266	0.0896665	1.52877	0.8706	2.63242	0.505837	9.37581	0.773695	13.3115	0.266622	4.92643	0.57914	10.1713	0.90739	15.5737
0.86747	2.63314	0.0916503	1.54026	0.868519	2.6329	0.507155	9.25434	0.774002	13.1247	0.26844	4.88329	0.57919	10.1376	0.907594	15.3531
0.865382	2.6336	0.0936416	1.55155	0.866433	2.63337	0.508477	9.13667	0.774313	12.9433	0.270265	4.84158	0.579262	10.0895	0.9078	15.1387
0.863292	2.63406	0.0956404	1.56264	0.864345	2.63383	0.509805	9.02264	0.774631	12.7671	0.272097	4.80124	0.579341	10.0377	0.908008	14.9304
0.861198	2.6345	0.0976464	1.57355	0.862252	2.63428	0.511138	8.91207	0.774953	12.5959	0.273934	4.76219	0.57945	9.96828	0.908219	14.7279
0.859101	2.63494	0.0996594	1.58428	0.860157	2.63472	0.512475	8.80481	0.775281	12.4294	0.275778	4.72439	0.579589	9.88185	0.908432	14.531
0.857	2.63537	0.101679	1.59482	0.858058	2.63516	0.513816	8.70072	0.775614	12.2674	0.277627	4.68776	0.57976	9.77942	0.908646	14.3393
0.854896	2.6358	0.103705	1.60519	0.855956	2.63559	0.515162	8.59966	0.775953	12.1099	0.279481	4.65225	0.579963	9.66206	0.908864	14.1528
0.85279	2.63622	0.105738	1.61539	0.85385	2.63601	0.516512	8.50149	0.776297	11.9566	0.28134	4.61782	0.580202	9.53099	0.909083	13.9712
0.85068	2.63663	0.107777	1.62541	0.851742	2.63642	0.517866	8.4061	0.776647	11.8073	0.283204	4.58441	0.580446	9.40361	0.909304	13.7943
0.848567	2.63703	0.109822	1.63528	0.849631	2.63683	0.519224	8.31336	0.777002	11.6619	0.285072	4.55199	0.580695	9.27979	0.909528	13.6219
0.846451	2.63743	0.111872	1.64498	0.847517	2.63723	0.520585	8.22318	0.777363	11.5202	0.286944	4.52049	0.58095	9.15937	0.909754	13.4539
0.844333	2.63782	0.113929	1.65452	0.8454	2.63762	0.52195	8.13544	0.777729	11.3822	0.288821	4.4899	0.58121	9.04222	0.909981	13.2901
0.842212	2.6382	0.11599	1.66391	0.84328	2.63801	0.523318	8.05005	0.778101	11.2476	0.290701	4.46015	0.581476	8.92821	0.910212	13.1304
0.840088	2.63858	0.118058	1.67315	0.841157	2.63839	0.52469	7.96691	0.778479	11.1164	0.292585	4.43123	0.581747	8.81723	0.910444	12.9745
0.837962	2.63895	0.12013	1.68225	0.839032	2.63876	0.526064	7.88594	0.778862	10.9884	0.294472	4.4031	0.582024	8.70916	0.910678	12.8225
0.835833	2.63931	0.122207	1.69119	0.836905	2.63913	0.527442	7.80706	0.779201	10.8795	0.296362	4.37571	0.582307	8.60389	0.910915	12.674
0.833702	2.63967	0.124289	1.7	0.834775	2.63949	0.528822	7.73017	0.779493	10.7884	0.298256	4.34905	0.582595	8.50132	0.911153	12.5291
0.831568	2.64003	0.126377	1.70867	0.832643	2.63985	0.530205	7.65522	0.779737	10.7143	0.300152	4.32308	0.58289	8.40134	0.911394	12.3875
0.829432	2.64038	0.128468	1.7172	0.830508	2.6402	0.531591	7.58211	0.779932	10.6565	0.30205	4.29778	0.58319	8.30388	0.911637	12.2492
0.827294	2.64072	0.130564	1.7256	0.828371	2.64055	0.532979	7.5108	0.780076	10.6144	0.303951	4.27312	0.583496	8.20883	0.911882	12.1141
0.825154	2.64106	0.132665	1.73387	0.826232	2.64089	0.534369	7.44121	0.780169	10.5876	0.305854	4.24906	0.583809	8.11612	0.91213	11.982
0.823012	2.64139	0.13477	1.74202	0.82409	2.64122	0.535762	7.37327	0.780302	10.5494	0.307759	4.2256	0.584128	8.02565	0.912379	11.8528
0.820867	2.64172	0.136879	1.75004	0.821947	2.64155	0.537157	7.30694	0.780448	10.5083	0.309666	4.2027	0.584453	7.93736	0.912631	11.7265
0.818721	2.64204	0.138992	1.75794	0.819802	2.64188	0.538553	7.24215	0.780648	10.4528	0.311575	4.18035	0.584784	7.85118	0.912884	11.603
0.816573	2.64236	0.141108	1.76572	0.817654	2.6422	0.539952	7.17885	0.780902	10.3836	0.313485	4.15853	0.585122	7.76702	0.91314	11.4821
0.814422	2.64268	0.143229	1.77338	0.815505	2.64252	0.541352	7.11698	0.781213	10.3012	0.315396	4.1372	0.585466	7.68483	0.913398	11.3638
0.81227	2.64299	0.145354	1.78093	0.813354	2.64283	0.542754	7.05651	0.781582	10.2063	0.317309	4.11637	0.585817	7.60454	0.913659	11.248
0.810117	2.6433	0.147482	1.78837	0.811201	2.64314	0.544157	6.99738	0.782011	10.0997	0.319222	4.096	0.586175	7.52609	0.913887	11.1491
0.807961	2.6436	0.149613	1.7957	0.809046	2.64345	0.545562	6.93955	0.782445	9.99552	0.321137	4.07608	0.586539	7.44942	0.914083	11.0662
0.805804	2.6439	0.151749	1.80292	0.80689	2.64375	0.546968	6.88297	0.782886	9.89366	0.323052	4.0566	0.58691	7.37447	0.914246	10.9986
0.803645	2.6442	0.153887	1.81004	0.804732	2.64405	0.548375	6.8276	0.783334	9.79404	0.324968	4.03754	0.587288	7.3012	0.914376	10.9458
0.801485	2.64449	0.156029	1.81705	0.802572	2.64434	0.549783	6.77341	0.783787	9.6966	0.326884	4.01888	0.587673	7.22954	0.914471	10.9073
0.799323	2.64478	0.158174	1.82396	0.800411	2.64463	0.551193	6.72035	0.784247	9.60126	0.328801	4.00061	0.588066	7.15946	0.914533	10.8828
0.797159	2.64506	0.160322	1.83078	0.798249	2.64492	0.552603	6.6684	0.784712	9.50796	0.330718	3.98272	0.588465	7.09089	0.914621	10.8477
0.794995	2.64534	0.162473	1.83749	0.796085	2.6452	0.554014	6.6175	0.785185	9.41664	0.332635	3.96519	0.588871	7.02381	0.914717	10.8099
0.792828	2.64562	0.164627	1.84412	0.793919	2.64548	0.555425	6.56764	0.785663	9.32724	0.334552	3.94802	0.589285	6.95816	0.914849	10.759
0.790661	2.6459	0.166783	1.85064	0.791752	2.64576	0.556838	6.51878	0.786148	9.2397	0.336469	3.93118	0.589706	6.8939	0.915015	10.6952
0.788492	2.64617	0.168943	1.85708	0.789584	2.64604	0.55825	6.47089	0.78664	9.15397	0.338385	3.91467	0.590135	6.83099	0.915218	10.6192
0.786322	2.64644	0.171106	1.86343	0.787414	2.64631	0.559663	6.42394	0.787137	9.06999	0.340301	3.89847	0.590571	6.76939	0.915458	10.5314
0.78415	2.64671	0.173271	1.86969	0.785243	2.64658	0.561077	6.3779	0.787642	8.98772	0.342216	3.88259	0.591015	6.70907	0.915735	10.4325
0.781978	2.64698	0.175438	1.87587	0.783071	2.64684	0.56249	6.33274	0.788153	8.90711	0.344131	3.867	0.591467	6.64999	0.916014	10.3355
0.779804	2.64724	0.177608	1.88196	0.780898	2.64711	0.563904	6.28845	0.78867	8.8281	0.346045	3.85169	0.591926	6.59212	0.916296	10.2404
0.777629	2.6475	0.179781	1.88796	0.778724	2.64737	0.565318	6.24498	0.789195	8.75066	0.347958	3.83667	0.592393	6.53542	0.916579	10.1471
0.775453	2.64776	0.181956	1.89389	0.776548	2.64763	0.566732	6.20232	0.789726	8.67474	0.34987	3.82191	0.592868	6.47986	0.916865	10.0556
0.773276	2.64802	0.184134	1.89974	0.774372	2.64789	0.568145	6.16045	0.790263	8.6003	0.351781	3.80741	0.593351	6.42541	0.917153	9.96582
0.771098	2.64827	0.186313	1.9055	0.772194	2.64814	0.569559	6.11934	0.790808	8.5273	0.353691	3.79316	0.593843	6.37204	0.917444	9.87769
0.768919	2.64852	0.188496	1.9112	0.770016	2.6484	0.570972	6.07897	0.791359	8.45569	0.355599	3.77915	0.594342	6.31973	0.917737	9.79118
0.766738	2.64877	0.19068	1.91681	0.767836	2.64865	0.572384	6.03933	0.791917	8.38545	0.357506	3.76538	0.59485	6.26844	0.918031	9.70625
0.764557	2.64902	0.192866	1.92236	0.765655	2.6489	0.573796	6.00038	0.792482	8.31654	0.359412	3.75184	0.595366	6.21815	0.918329	9.62286
0.762375	2.64927	0.195055	1.92783	0.763474	2.64914	0.575208	5.96211	0.793054	8.24891	0.361315	3.73852	0.59589	6.16883	0.918628	9.54097
0.760193	2.64951	0.197245	1.93323	0.761291	2.64939	0.576619	5.92451	0.793633	8.18255	0.363217	3.72542	0.596423	6.12045	0.91893	9.46053
0.758009	2.64976	0.199438	1.93855	0.759108	2.64964	0.578029	5.88754	0.794219	8.11741	0.365117	3.71252	0.596965	6.07301	0.919234	9.38152
0.755824	2.65	0.201632	1.94382	0.756924	2.64988	0.579438	5.85121	0.794813	8.05346	0.367016	3.69983	0.597515	6.02646	0.919541	9.30388
0.753639	2.65024	0.203829	1.94901	0.754739	2.65012	0.580846	5.81549	0.795413	7.99068	0.368912	3.68733	0.598075	5.9808	0.919849	9.2276
0.751453	2.65048	0.206027	1.95414	0.752553	2.65036	0.582254	5.78036	0.79602	7.92904	0.370806	3.67502	0.598642	5.93599	0.92016	9.15263
0.749266	2.65072	0.208227	1.9592	0.750367	2.6506	0.58366	5.7458	0.796635	7.8685	0.372698	3.66289	0.599219	5.89202	0.920474	9.07894
0.747079	2.65096	0.210429	1.9642	0.74818	2.65084	0.585066	5.71181	0.797257	7.80904	0.374587	3.65094	0.599805	5.84886	0.92079	9.0065
0.74489	2.65119	0.212632	1.96913	0.745992	2.65108	0.58647	5.67837	0.797886	7.75063	0.376474	3.63917	0.6004	5.80651	0.921108	8.93528
0.742701	2.65143	0.214837	1.97401	0.743803	2.65131	0.587872	5.64546	0.798522	7.69325	0.378359	3.62756	0.601004	5.76493	0.921429	8.86525
0.740512	2.65166	0.217044	1.97882	0.741614	2.65155	0.589274	5.61307	0.799166	7.63688	0.38024	3.61611	0.601617	5.72411	0.921752	8.79637
0.738322	2.6519	0.219253	1.98357	0.739424	2.65178	0.590674	5.58119	0.799817	7.58148	0.38212	3.60483	0.602239	5.68404	0.922077	8.72863
0.736131	2.65213	0.221463	1.98827	0.737234	2.65201	0.592072	5.54981	0.800476	7.52704	0.383996	3.5937	0.602871	5.64469	0.922405	8.662
0.733939	2.65236	0.223675	1.99291	0.735043	2.65225	0.59347	5.51891	0.801142	7.47353	0.38587	3.58271	0.603512	5.60605	0.922735	8.59644
0.731748	2.6526	0.225888	1.99749	0.732851	2.65248	0.594865	5.48847	0.801815	7.42094	0.387741	3.57188	0.604163	5.5681	0.923068	8.53194
0.729555	2.65283	0.228102	2.00202	0.730659	2.65271	0.596259	5.4585	0.802496	7.36923	0.389608	3.56118	0.604824	5.53084	0.923403	8.46846
0.727362	2.65306	0.230318	2.00649	0.728466	2.65294	0.59765	5.42897	0.803185	7.3184	0.391473	3.55062	0.605494	5.49423	0.923741	8.40599
0.725169	2.65329	0.232536	2.01091	0.726273	2.65317	0.599041	5.39988	0.803881	7.26841	0.393334	3.54019	0.606173	5.45827	0.924081	8.3445
0.722975	2.65352	0.234755	2.01527	0.724079	2.6534	0.600429	5.37121	0.804585	7.21926	0.395192	3.5299	0.606863	5.42295	0.924424	8.28397
0.72078	2.65375	0.236975	2.01959	0.721885	2.65363	0.601815	5.34296	0.805297	7.17092	0.397047	3.51972	0.607562	5.38825	0.924769	8.22438
0.718585	2.65398	0.239197	2.02385	0.71969	2.65386	0.603199	5.31511	0.806016	7.12338	0.398899	3.50967	0.608272	5.35415	0.925116	8.16571
0.71639	2.65421	0.241419	2.02806	0.717495	2.65409	0.604581	5.28767	0.806743	7.07661	0.400746	3.49974	0.608991	5.32065	0.925467	8.10793
0.714194	2.65444	0.243643	2.03223	0.7153	2.65432	0.605961	5.2606	0.807478	7.0306	0.402591	3.48993	0.60972	5.28773	0.925819	8.05103
0.711998	2.65467	0.245869	2.03634	0.713104	2.65455	0.607339	5.23392	0.80822	6.98534	0.404432	3.48023	0.61046	5.25538	0.926175	7.99499
0.709802	2.6549	0.248095	2.04041	0.710908	2.65478	0.608715	5.20761	0.808971	6.9408	0.406269	3.47063	0.61121	5.22359	0.926533	7.93979
0.707605	2.65513	0.250323	2.04443	0.708711	2.65501	0.610088	5.18165	0.809729	6.89698	0.408102	3.46115	0.61197	5.19234	0.926893	7.88541
0.705408	2.65536	0.252552	2.0484	0.706514	2.65524	0.611459	5.15605	0.810495	6.85385	0.409931	3.45176	0.61274	5.16163	0.927257	7.83183
0.703211	2.65559	0.254782	2.05233	0.704317	2.65547	0.612828	5.13079	0.811269	6.81141	0.411757	3.44248	0.613521	5.13144	0.927622	7.77904
0.701013	2.65582	0.257012	2.05621	0.702119	2.6557	0.614194	5.10587	0.812051	6.76964	0.413578	3.4333	0.614312	5.10177	0.927991	7.72701
0.698815	2.65605	0.259245	2.06005	0.699922	2.65593	0.615558	5.08128	0.812841	6.72851	0.415396	3.42421	0.615113	5.0726	0.928362	7.67574
0.696617	2.65628	0.261478	2.06385	0.697723	2.65616	0.616919	5.05701	0.813639	6.68803	0.417209	3.41521	0.615926	5.04392	0.928736	7.62521
0.694418	2.65651	0.263712	2.06761	0.695525	2.6564	0.618277	5.03306	0.814445	6.64818	0.419019	3.40631	0.616748	5.01572	0.929112	7.57541
0.69222	2.65675	0.265947	2.07132	0.693327	2.65663	0.619633	5.00941	0.815259	6.60894	0.420824	3.39749	0.617582	4.988	0.929492	7.52631
0.690021	2.65698	0.268183	2.07499	0.691128	2.65686	0.620986	4.98607	0.816081	6.5703	0.422624	3.38876	0.618426	4.96074	0.929873	7.4779
0.687822	2.65722	0.27042	2.07862	0.688929	2.6571	0.622336	4.96302	0.816911	6.53226	0.424421	3.38011	0.619281	4.93393	0.930258	7.43017
0.685623	2.65745	0.272658	2.08221	0.68673	2.65733	0.623684	4.94026	0.81775	6.49479	0.426213	3.37155	0.620147	4.90758	0.930645	7.38311
0.683423	2.65769	0.274897	2.08576	0.684531	2.65757	0.625029	4.91778	0.818596	6.45789	0.428001	3.36306	0.621023	4.88166	0.931036	7.3367
0.681224	2.65793	0.277137	2.08927	0.682331	2.65781	0.626371	4.89558	0.81945	6.42154	0.429784	3.35466	0.621911	4.85617	0.931429	7.29093
0.679024	2.65816	0.279377	2.09274	0.680132	2.65804	0.62771	4.87364	0.820313	6.38574	0.431563	3.34632	0.622809	4.8311	0.931824	7.24579
0.676825	2.6584	0.281619	2.09618	0.677932	2.65828	0.629046	4.85198	0.821184	6.35047	0.433337	3.33807	0.623719	4.80644	0.932223	7.20126
0.674625	2.65865	0.283861	2.09957	0.675732	2.65852	0.630379	4.83057	0.822063	6.31573	0.435106	3.32988	0.624639	4.78219	0.932624	7.15734
0.672425	2.65889	0.286104	2.10294	0.673532	2.65877	0.63171	4.80942	0.82295	6.2815	0.436871	3.32177	0.625571	4.75834	0.933028	7.11401
0.670225	2.65913	0.288348	2.10626	0.671333	2.65901	0.633037	4.78852	0.823845	6.24777	0.438631	3.31372	0.626514	4.73488	0.933435	7.07125
0.668025	2.65938	0.290592	2.10955	0.669133	2.65925	0.634361	4.76786	0.824748	6.21454	0.440387	3.30574	0.627467	4.7118	0.933845	7.02907
0.665825	2.65963	0.292838	2.11281	0.666933	2.6595	0.635682	4.74744	0.82566	6.18179	0.442137	3.29783	0.628432	4.6891	0.934258	6.98745
0.663625	2.65988	0.295084	2.11603	0.664733	2.65975	0.637	4.72726	0.82658	6.14952	0.443883	3.28998	0.629408	4.66677	0.934674	6.94637
0.661426	2.66013	0.29733	2.11921	0.662533	2.66	0.638315	4.7073	0.827508	6.11771	0.445624	3.28219	0.630396	4.6448	0.935093	6.90583
0.659226	2.66038	0.299578	2.12236	0.660333	2.66025	0.639627	4.68758	0.828444	6.08636	0.447361	3.27447	0.631394	4.62318	0.935514	6.86582
0.657026	2.66063	0.301826	2.12548	0.658133	2.6605	0.640936	4.66807	0.829388	6.05546	0.449092	3.2668	0.632404	4.60191	0.935939	6.82632
0.654826	2.66089	0.303785	2.12818	0.655933	2.66076	0.642241	4.64878	0.830341	6.025	0.450818	3.2592	0.633425	4.58099	0.936366	6.78734
0.652627	2.66115	0.305456	2.13045	0.653734	2.66102	0.643543	4.62971	0.831302	5.99498	0.45254	3.25165	0.634457	4.56041	0.936797	6.74885
0.650427	2.66141	0.306838	2.13232	0.651534	2.66128	0.644842	4.61084	0.83227	5.96538	0.454257	3.24416	0.635501	4.54015	0.93723	6.71085
0.648228	2.66167	0.307931	2.13379	0.649335	2.66154	0.646138	4.59218	0.833248	5.93619	0.455968	3.23672	0.636555	4.52022	0.937667	6.67334
0.646028	2.66194	0.308735	2.13486	0.647135	2.66181	0.647431	4.57372	0.834233	5.90742	0.457675	3.22934	0.637622	4.50061	0.938106	6.6363
0.643829	2.66221	0.309249	2.13555	0.644936	2.66207	0.64872	4.55546	0.835226	5.87904	0.459377	3.22201	0.638699	4.48131	0.938549	6.59972
0.64163	2.66248	0.309989	2.13653	0.642737	2.66234	0.650006	4.53739	0.836228	5.85106	0.461073	3.21474	0.639788	4.46232	0.938994	6.5636
0.639432	2.66275	0.310792	2.1376	0.640538	2.66261	0.651289	4.51951	0.837238	5.82347	0.462765	3.20751	0.640888	4.44363	0.939443	6.52792
0.637233	2.66303	0.311886	2.13904	0.63834	2.66289	0.652569	4.50182	0.838255	5.79626	0.464452	3.20034	0.641999	4.42524	0.939895	6.49269
0.635035	2.66331	0.313269	2.14085	0.636141	2.66317	0.653845	4.48431	0.839281	5.76943	0.466134	3.19321	0.643122	4.40715	0.94035	6.45789
0.632837	2.66359	0.314941	2.14303	0.633943	2.66345	0.655118	4.46699	0.840315	5.74296	0.467811	3.18613	0.644256	4.38933	0.940808	6.42352
0.630639	2.66388	0.316904	2.14557	0.631745	2.66373	0.656388	4.44984	0.841357	5.71685	0.469482	3.1791	0.645401	4.3718	0.941269	6.38956
0.628442	2.66417	0.319157	2.14844	0.629548	2.66402	0.657655	4.43287	0.842408	5.6911	0.471149	3.17212	0.646557	4.35455	0.941734	6.35602
0.626245	2.66446	0.32141	2.1513	0.627351	2.66431	0.658918	4.41607	0.843466	5.66569	0.472811	3.16519	0.647725	4.33756	0.942201	6.32288
0.624048	2.66476	0.323663	2.15412	0.625154	2.66461	0.660178	4.39943	0.844532	5.64063	0.474468	3.15829	0.648904	4.32085	0.942672	6.29014
0.621852	2.66506	0.325917	2.15691	0.622957	2.66491	0.661435	4.38297	0.845606	5.6159	0.47612	3.15145	0.650093	4.30439	0.943146	6.25779
0.619656	2.66536	0.328172	2.15967	0.620761	2.66521	0.662688	4.36666	0.846688	5.5915	0.477767	3.14465	0.651295	4.2882	0.943623	6.22582
0.61746	2.66567	0.330427	2.16241	0.618565	2.66551	0.663939	4.35052	0.847778	5.56743	0.479409	3.13789	0.652507	4.27226	0.944104	6.19423
0.615265	2.66598	0.332683	2.16512	0.61637	2.66582	0.665186	4.33454	0.848876	5.54367	0.481046	3.13118	0.65373	4.25656	0.944587	6.16301
0.61307	2.6663	0.334939	2.1678	0.614175	2.66614	0.66643	4.31871	0.849981	5.52023	0.482679	3.1245	0.654964	4.24111	0.945074	6.13216
0.610876	2.66662	0.337195	2.17046	0.61198	2.66646	0.667671	4.30303	0.851095	5.4971	0.484306	3.11787	0.65621	4.2259	0.945565	6.10167
0.608682	2.66695	0.339452	2.17309	0.609787	2.66678	0.668909	4.28751	0.852216	5.47427	0.485929	3.11129	0.657466	4.21093	0.946058	6.07153
0.606489	2.66728	0.341709	2.17569	0.607593	2.66711	0.670143	4.27213	0.853345	5.45174	0.487547	3.10474	0.658733	4.19619	0.946556	6.04175
0.604297	2.66761	0.343966	2.17827	0.6054	2.66744	0.671374	4.2569	0.854482	5.4295	0.48916	3.09823	0.660011	4.18167	0.947056	6.0123
0.602105	2.66795	0.346224	2.18082	0.603208	2.66778	0.672603	4.24181	0.855626	5.40754	0.490769	3.09177	0.6613	4.16738	0.94756	5.98319
0.599913	2.6683	0.348482	2.18335	0.601016	2.66812	0.673828	4.22687	0.856778	5.38587	0.492373	3.08534	0.6626	4.15331	0.948067	5.95442
0.597722	2.66865	0.350741	2.18585	0.598825	2.66847	0.67505	4.21206	0.857938	5.36448	0.493973	3.07895	0.66391	4.13945	0.948577	5.92597
0.595532	2.66901	0.353	2.18833	0.596635	2.66882	0.676269	4.19739	0.859105	5.34336	0.495568	3.0726	0.665231	4.12581	0.949092	5.89784
0.593343	2.66937	0.355259	2.19078	0.594445	2.66918	0.677485	4.18286	0.860279	5.32251	0.497158	3.0663	0.666562	4.11237	0.949609	5.87003
0.591154	2.66974	0.357518	2.19321	0.592256	2.66955	0.678699	4.16846	0.861461	5.30192	0.498744	3.06003	0.667904	4.09914	0.95013	5.84254
0.588966	2.67011	0.359778	2.19562	0.590068	2.66992	0.679909	4.15419	0.86265	5.2816	0.500326	3.05379	0.669256	4.08612	0.950654	5.81535
0.586779	2.67049	0.362038	2.198	0.58788	2.6703	0.681116	4.14006	0.863847	5.26153	0.501903	3.0476	0.670619	4.07328	0.951182	5.78846
0.584593	2.67088	0.364298	2.20036	0.585694	2.67069	0.682321	4.12605	0.865051	5.2417	0.503476	3.04144	0.671992	4.06065	0.951714	5.76187
0.582408	2.67128	0.366558	2.2027	0.583508	2.67108	0.683522	4.11216	0.866262	5.22213	0.505045	3.03533	0.673375	4.0482	0.952249	5.73558
0.580223	2.67168	0.368819	2.20501	0.581323	2.67148	0.684721	4.09841	0.86748	5.2028	0.506609	3.02925	0.674768	4.03594	0.952787	5.70957
0.57804	2.67209	0.37108	2.20731	0.579139	2.67188	0.685917	4.08477	0.868706	5.18371	0.50817	3.0232	0.676172	4.02386	0.95333	5.68385
0.575857	2.67251	0.373341	2.20958	0.576956	2.6723	0.687111	4.07126	0.869938	5.16485	0.509727	3.0172	0.677585	4.01197	0.953875	5.65841
0.573676	2.67294	0.375602	2.21183	0.574774	2.67272	0.688302	4.05786	0.871178	5.14622	0.511279	3.01123	0.679008	4.00025	0.954425	5.63325
0.571495	2.67337	0.377863	2.21405	0.572593	2.67315	0.68949	4.04459	0.872424	5.12782	0.512828	3.00529	0.680441	3.9887	0.954978	5.60836
0.569316	2.67381	0.380125	2.21626	0.570413	2.67359	0.690675	4.03143	0.873677	5.10964	0.514373	2.9994	0.681884	3.97733	0.955535	5.58374
0.567138	2.67427	0.382387	2.21845	0.568234	2.67404	0.691858	4.01838	0.874937	5.09169	0.515914	2.99354	0.683336	3.96613	0.956095	5.55939
0.564961	2.67473	0.384648	2.22061	0.566056	2.6745	0.693039	4.00545	0.876204	5.07394	0.517452	2.98772	0.684798	3.95509	0.956659	5.53529
0.562785	2.6752	0.38691	2.22275	0.56388	2.67496	0.694216	3.99263	0.877478	5.05641	0.518986	2.98193	0.686269	3.94421	0.957227	5.51145
0.560611	2.67568	0.389172	2.22488	0.561705	2.67544	0.695392	3.97993	0.878758	5.03909	0.520517	2.97618	0.687749	3.93349	0.957799	5.48787
0.558438	2.67617	0.391434	2.22698	0.559531	2.67593	0.696565	3.96733	0.880044	5.02198	0.522044	2.97047	0.689239	3.92292	0.958374	5.46454
0.556266	2.67668	0.393696	2.22907	0.557359	2.67642	0.697736	3.95484	0.881338	5.00507	0.523568	2.96479	0.690738	3.91252	0.958953	5.44145
0.554096	2.67719	0.395958	2.23113	0.555188	2.67693	0.698905	3.94246	0.882637	4.98835	0.525088	2.95915	0.692245	3.90226	0.959536	5.41861
0.551927	2.67772	0.398221	2.23317	0.553019	2.67745	0.700071	3.93018	0.883943	4.97183	0.526606	2.95354	0.693762	3.89214	0.960123	5.39601
0.54976	2.67825	0.400483	2.2352	0.550851	2.67798	0.701235	3.91801	0.885255	4.95551	0.52812	2.94798	0.695287	3.88218	0.960713	5.37364
0.547595	2.67881	0.402745	2.23721	0.548685	2.67853	0.702397	3.90594	0.886574	4.93937	0.529631	2.94244	0.696822	3.87235	0.961308	5.35151
0.545431	2.67937	0.405007	2.23919	0.54652	2.67908	0.703557	3.89397	0.887898	4.92342	0.53114	2.93695	0.698364	3.86267	0.961906	5.3296
0.543269	2.67995	0.40727	2.24116	0.544357	2.67965	0.704715	3.88211	0.889229	4.90765	0.532646	2.93149	0.699915	3.85312	0.962509	5.30793
0.541109	2.68054	0.409532	2.24311	0.542196	2.68024	0.705871	3.87034	0.890565	4.89207	0.534149	2.92606	0.701475	3.84371	0.963115	5.28647
0.538951	2.68114	0.411794	2.24505	0.540037	2.68084	0.707025	3.85868	0.891908	4.87666	0.535649	2.92067	0.703042	3.83443	0.963725	5.26524
0.536795	2.68176	0.414056	2.24696	0.53788	2.68145	0.708177	3.84711	0.893256	4.86142	0.537147	2.91532	0.704618	3.82528	0.964339	5.24423
0.534641	2.6824	0.416318	2.24885	0.535725	2.68208	0.709328	3.83563	0.89461	4.84636	0.538642	2.91	0.706202	3.81626	0.964957	5.22343
0.53249	2.68305	0.41858	2.25073	0.533572	2.68272	0.710476	3.82426	0.89597	4.83146	0.540135	2.90472	0.707794	3.80736	0.96558	5.20285
0.53034	2.68372	0.420842	2.25259	0.531422	2.68339	0.711623	3.81297	0.897335	4.81673	0.541626	2.89948	0.709393	3.79859	0.966206	5.18247
0.528193	2.68441	0.423104	2.25444	0.529274	2.68406	0.712768	3.80179	0.898706	4.80217	0.543115	2.89427	0.711	3.78993	0.966836	5.1623
0.526048	2.68512	0.425366	2.25626	0.527128	2.68476	0.713912	3.79069	0.900082	4.78776	0.544601	2.8891	0.712615	3.7814	0.967471	5.14234
0.523906	2.68585	0.427627	2.25807	0.524984	2.68548	0.715054	3.77968	0.901464	4.77352	0.546086	2.88396	0.714237	3.77297	0.968109	5.12257
0.521767	2.68659	0.429889	2.25986	0.522844	2.68622	0.716195	3.76877	0.902851	4.75943	0.547569	2.87886	0.715866	3.76467	0.968752	5.10301
0.519631	2.68736	0.43215	2.26164	0.520706	2.68697	0.717334	3.75795	0.904243	4.74549	0.54905	2.87379	0.717503	3.75647	0.969399	5.08364
0.517497	2.68815	0.434411	2.2634	0.518571	2.68775	0.718472	3.74721	0.905641	4.7317	0.550529	2.86877	0.719147	3.74839	0.97005	5.06446
0.515366	2.68896	0.436672	2.26514	0.516438	2.68855	0.719608	3.73656	0.907043	4.71807	0.552007	2.86377	0.720797	3.74041	0.970705	5.04548
0.513239	2.6898	0.438932	2.26686	0.514309	2.68938	0.720744	3.726	0.90845	4.70457	0.553483	2.85882	0.722454	3.73253	0.971364	5.02669
0.511115	2.69066	0.441193	2.26857	0.512184	2.69023	0.721878	3.71553	0.909863	4.69122	0.554958	2.8539	0.724118	3.72476	0.972028	5.00808
0.508994	2.69155	0.443453	2.27027	0.510061	2.6911	0.723011	3.70514	0.91128	4.67802	0.556431	2.84901	0.725789	3.71709	0.972696	4.98966
0.506877	2.69246	0.445713	2.27194	0.507942	2.692	0.724143	3.69484	0.912702	4.66495	0.557903	2.84417	0.727466	3.70953	0.973368	4.97142
0.504764	2.69341	0.447973	2.27361	0.505827	2.69293	0.725274	3.68462	0.914128	4.65202	0.559375	2.83936	0.72915	3.70205	0.974045	4.95335
0.502655	2.69438	0.450232	2.27525	0.503716	2.69389	0.726404	3.67448	0.915559	4.63922	0.560845	2.83458	0.730839	3.69468	0.974726	4.93547
0.500549	2.69538	0.452491	2.27688	0.501608	2.69487	0.727533	3.66443	0.916995	4.62656	0.562314	2.82984	0.732535	3.6874	0.975411	4.91776
0.498448	2.69642	0.45475	2.2785	0.499505	2.69589	0.728661	3.65445	0.918435	4.61402	0.563782	2.82514	0.734236	3.6802	0.976101	4.90023
0.496352	2.69749	0.457008	2.2801	0.497406	2.69695	0.729788	3.64456	0.919879	4.60162	0.56525	2.82047	0.735944	3.6731	0.976795	4.88286
0.49426	2.69859	0.459266	2.28168	0.495312	2.69803	0.730915	3.63475	0.921328	4.58934	0.566717	2.81584	0.737657	3.66609	0.977494	4.86567
0.492173	2.69974	0.461524	2.28325	0.493223	2.69916	0.732041	3.62502	0.922781	4.57718	0.568184	2.81125	0.739376	3.65917	0.978197	4.84864
0.490091	2.70092	0.463781	2.2848	0.491138	2.70032	0.733166	3.61536	0.924238	4.56515	0.56965	2.80669	0.7411	3.65233	0.978905	4.83178
0.488014	2.70214	0.466038	2.28634	0.489059	2.70152	0.734291	3.60579	0.925699	4.55324	0.571115	2.80217	0.74283	3.64557	0.979617	4.81508
0.485943	2.7034	0.468295	2.28786	0.486985	2.70276	0.735415	3.59629	0.927164	4.54144	0.572581	2.79769	0.744565	3.6389	0.980334	4.79854
0.483878	2.70471	0.470551	2.28937	0.484917	2.70404	0.736539	3.58687	0.928633	4.52977	0.574046	2.79324	0.746305	3.6323	0.981055	4.78217
0.481819	2.70606	0.472807	2.29087	0.482854	2.70538	0.737663	3.57752	0.930105	4.51821	0.575511	2.78883	0.74805	3.62579	0.981781	4.76595
0.479766	2.70747	0.475062	2.29235	0.480798	2.70675	0.738786	3.56825	0.931581	4.50676	0.576977	2.78445	0.749799	3.61935	0.982512	4.74988
0.477719	2.70892	0.477316	2.29381	0.478749	2.70818	0.739909	3.55905	0.933061	4.49542	0.578442	2.78011	0.751554	3.61298	0.983247	4.73397
0.47568	2.71043	0.47957	2.29526	0.476706	2.70966	0.741031	3.54993	0.934545	4.48419	0.579907	2.77581	0.753313	3.60669	0.983987	4.71822
0.473648	2.71199	0.481824	2.2967	0.47467	2.7112	0.742154	3.54088	0.936031	4.47307	0.581373	2.77154	0.755077	3.60048	0.984732	4.70261
0.471623	2.71361	0.484077	2.29812	0.472642	2.71279	0.743276	3.5319	0.937522	4.46206	0.582839	2.76731	0.756845	3.59433	0.985482	4.68715
0.469607	2.7153	0.48633	2.29953	0.470621	2.71444	0.744399	3.523	0.939015	4.45115	0.584306	2.76311	0.758618	3.58825	0.986236	4.67184
0.467598	2.71705	0.488581	2.30093	0.468608	2.71616	0.745521	3.51416	0.940512	4.44034	0.585773	2.75896	0.760394	3.58225	0.986995	4.65667
0.465598	2.71886	0.490833	2.30231	0.466604	2.71794	0.746643	3.5054	0.942012	4.42963	0.587241	2.75483	0.762175	3.57631	0.987759	4.64165
0.463607	2.72075	0.493083	2.30367	0.464608	2.71979	0.747766	3.49671	0.943515	4.41903	0.588709	2.75075	0.763959	3.57043	0.988528	4.62677
0.461626	2.72271	0.495333	2.30503	0.462622	2.72172	0.748888	3.48808	0.945021	4.40852	0.590179	2.7467	0.765748	3.56462	0.989302	4.61204
0.459654	2.72475	0.497583	2.30636	0.460645	2.72371	0.750011	3.47953	0.94653	4.39811	0.591649	2.74268	0.76754	3.55887	0.990081	4.59744
0.457693	2.72687	0.499831	2.30769	0.458679	2.72579	0.751134	3.47104	0.948041	4.38779	0.59312	2.73871	0.769336	3.55319	0.990864	4.58298
0.455742	2.72908	0.502079	2.309	0.456723	2.72796	0.752258	3.46263	0.949556	4.37757	0.594592	2.73476	0.771135	3.54756	0.991653	4.56865
0.453802	2.73137	0.504326	2.3103	0.454777	2.73021	0.753382	3.45428	0.951073	4.36744	0.596066	2.73086	0.772938	3.54199	0.992447	4.55446
0.451874	2.73376	0.506572	2.31158	0.452843	2.73255	0.754506	3.44599	0.952592	4.3574	0.59754	2.72699	0.774743	3.53649	0.993246	4.54041
0.449958	2.73625	0.508818	2.31285	0.450921	2.73499	0.75563	3.43777	0.954115	4.34745	0.599016	2.72315	0.776553	3.53103	0.99405	4.52648
0.448055	2.73884	0.511063	2.31411	0.449011	2.73752	0.756756	3.42962	0.955639	4.33758	0.600493	2.71935	0.778365	3.52564	0.994859	4.51269
0.446164	2.74154	0.513307	2.31535	0.447114	2.74017	0.757882	3.42154	0.957166	4.32781	0.601972	2.71559	0.780179	3.5203	0.995673	4.49903
0.444287	2.74435	0.515549	2.31658	0.44523	2.74292	0.759008	3.41352	0.958695	4.31812	0.603453	2.71187	0.781997	3.51501	0.996492	4.48549
0.442424	2.74728	0.517792	2.3178	0.44336	2.74579	0.760135	3.40556	0.960227	4.30851	0.604935	2.70817	0.783818	3.50978	0.997317	4.47208
0.440576	2.75032	0.520033	2.319	0.441505	2.74877	0.761263	3.39766	0.96176	4.29898	0.606418	2.70452	0.785641	3.50459	0.998147	4.4588
0.438743	2.7535	0.522273	2.32019	0.439664	2.75189	0.762392	3.38983	0.963296	4.28954	0.607904	2.7009	0.787466	3.49946	0.998982	4.44564
0.436926	2.75681	0.524512	2.32137	0.437839	2.75513	0.763521	3.38207	0.964834	4.28018	0.609391	2.69732	0.789294	3.49437	0.999822	4.4326
0.435125	2.76026	0.52675	2.32253	0.436029	2.75851	0.764651	3.37436	0.966373	4.27089	0.610881	2.69377	0.791124	3.48934	1.00067	4.41969
0.43334	2.76385	0.528987	2.32368	0.434236	2.76202	0.765783	3.36672	0.967915	4.26169	0.612372	2.69025	0.792957	3.48435		
0.431573	2.76759	0.531223	2.32482	0.43246	2.76569	0.766915	3.35913	0.969458	4.25256	0.613866	2.68678	0.794791	3.47941		
0.429824	2.77149	0.533458	2.32594	0.430702	2.76951	0.768048	3.35161	0.971003	4.2435	0.615361	2.68333	0.796628	3.47451		
0.428093	2.77555	0.535692	2.32705	0.428962	2.77349	0.769182	3.34415	0.972549	4.23452	0.616859	2.67993	0.798466	3.46966		
0.42638	2.77978	0.537925	2.32815	0.42724	2.77763	0.770318	3.33675	0.974097	4.22561	0.61836	2.67656	0.800306	3.46485		
0.424687	2.78418	0.540156	2.32923	0.425537	2.78194	0.771454	3.3294	0.975647	4.21677	0.619863	2.67322	0.802148	3.46008		
0.423014	2.78876	0.542387	2.3303	0.423854	2.78643	0.772592	3.32212	0.977198	4.20801	0.621368	2.66992	0.803991	3.45535		
0.421361	2.79352	0.544615	2.33136	0.42219	2.7911	0.773731	3.31489	0.97875	4.19931	0.622876	2.66665	0.805836	3.45067		
0.419728	2.79848	0.546843	2.3324	0.420547	2.79596	0.774871	3.30773	0.980303	4.19069	0.624386	2.66342	0.807682	3.44602		
0.418116	2.80363	0.549069	2.33344	0.418925	2.80101	0.776013	3.30062	0.981858	4.18213	0.6259	2.66022	0.809529	3.44142		
0.416526	2.80898	0.551294	2.33445	0.417324	2.80626	0.777156	3.29356	0.983414	4.17363	0.627416	2.65706	0.811377	3.43685		
0.414957	2.81455	0.553518	2.33546	0.415744	2.81172	0.7783	3.28657	0.984971	4.16521	0.628935	2.65394	0.813227	3.43232		
0.41341	2.82032	0.55574	2.33645	0.414186	2.81739	0.779446	3.27963	0.986528	4.15684	0.630457	2.65084	0.815077	3.42782		
0.411885	2.82632	0.55796	2.33742	0.41265	2.82328	0.780594	3.27274	0.988087	4.14854	0.631982	2.64779	0.816928	3.42336		
0.410383	2.83254	0.560179	2.33839	0.411136	2.82938	0.781743	3.26591	0.989647	4.14031	0.63351	2.64477	0.81878	3.41894		
0.408903	2.839	0.562396	2.33934	0.409645	2.83572	0.782893	3.25914	0.991207	4.13213	0.635041	2.64178	0.820633	3.41455		
0.407446	2.84568	0.564612	2.34028	0.408177	2.84229	0.784045	3.25242	0.992768	4.12402	0.636576	2.63883	0.822486	3.41019		
0.406012	2.85261	0.566826	2.3412	0.406731	2.84909	0.785199	3.24576	0.99433	4.11596	0.638114	2.63591	0.82434	3.40586		
0.4046	2.85978	0.569038	2.34211	0.405308	2.85614	0.786355	3.23915	0.995892	4.10797	0.639655	2.63302	0.826194	3.40157		
0.403212	2.86721	0.571249	2.34301	0.403908	2.86344	0.787512	3.23259	0.997455	4.10003	0.6412	2.63018	0.828049	3.39731		
0.401846	2.87488	0.573458	2.34389	0.402531	2.87099	0.788671	3.22608	0.999019	4.09215	0.642748	2.62736	0.829903	3.39308		
0.400504	2.88282	0.575664	2.34476	0.401177	2.87879	0.789832	3.21963	1.00058	4.08433	0.6443	2.62458	0.831758	3.38888		
0.399184	2.89102	0.577869	2.34561	0.399845	2.88686	0.790995	3.21323			0.645856	2.62183	0.833613	3.38471		
0.397887	2.89949	0.580072	2.34645	0.398537	2.89519	0.79216	3.20688			0.647416	2.61912	0.835467	3.38056		
0.396613	2.90823	0.582273	2.34728	0.397252	2.90379	0.793326	3.20058			0.648979	2.61645	0.837322	3.37645		
0.395362	2.91724	0.584472	2.3481	0.395989	2.91267	0.794495	3.19434			0.650547	2.6138	0.839176	3.37236		
0.394133	2.92654	0.586669	2.34889	0.394748	2.92183	0.795666	3.18814			0.652118	2.61119	0.84103	3.36829		
0.392926	2.93613	0.588864	2.34968	0.39353	2.93127	0.796839	3.182			0.653694	2.60862	0.842883	3.36426		
0.391741	2.946	0.591056	2.35045	0.392335	2.94099	0.798013	3.1759			0.655274	2.60608	0.844736	3.36024		
0.390579	2.95616	0.593246	2.35121	0.391161	2.95101	0.79919	3.16986			0.656858	2.60357	0.846588	3.35626		
0.389438	2.96663	0.595434	2.35195	0.39001	2.96132	0.800369	3.16386			0.658447	2.6011	0.84844	3.35229		
0.388319	2.97739	0.597619	2.35268	0.38888	2.97193	0.801551	3.15791			0.66004	2.59866	0.85029	3.34835		
0.387221	2.98846	0.599802	2.35339	0.387771	2.98285	0.802734	3.15202			0.661637	2.59626	0.85214	3.34444		
0.386145	2.99985	0.601983	2.35409	0.386684	2.99408	0.80392	3.14616			0.663239	2.59389	0.853989	3.34054		
0.385089	3.01154	0.604161	2.35478	0.385618	3.00562	0.805109	3.14036			0.664846	2.59155	0.855837	3.33667		
0.384054	3.02356	0.606336	2.35545	0.384573	3.01747	0.806299	3.13461			0.666457	2.58925	0.857684	3.33282		
0.38304	3.03591	0.608508	2.3561	0.383548	3.02965	0.807492	3.1289			0.668074	2.58698	0.859529	3.32899		
0.382046	3.04858	0.610678	2.35674	0.382544	3.04216	0.808687	3.12324			0.669695	2.58474	0.861373	3.32518		
0.381072	3.06159	0.612845	2.35737	0.380596	3.06817	0.809885	3.11762			0.671321	2.58254	0.863216	3.32139		
0.380118	3.07493	0.615009	2.35798	0.379652	3.08169	0.811086	3.11205			0.672952	2.58038	0.865058	3.31761		
0.379184	3.08863	0.61717	2.35857	0.378728	3.09556	0.812288	3.10653			0.674589	2.57824	0.866898	3.31386		
0.37827	3.10267	0.619328	2.35915	0.377823	3.10978	0.813494	3.10106			0.676231	2.57614	0.868736	3.31013		
0.377374	3.11707	0.621483	2.35971	0.376937	3.12436	0.814702	3.09562			0.677878	2.57408	0.870573	3.30641		
0.376498	3.13184	0.623635	2.36026	0.37607	3.13931	0.815913	3.09024			0.67953	2.57205	0.872407	3.30271		
0.375641	3.14697	0.625783	2.36079	0.375222	3.15463	0.817126	3.0849			0.681188	2.57005	0.87424	3.29903		
0.374802	3.16248	0.627928	2.36131	0.374393	3.17032	0.818342	3.0796			0.682852	2.56808	0.876071	3.29536		
0.373982	3.17837	0.63007	2.36181	0.373582	3.18641	0.819561	3.07434			0.684521	2.56615	0.877901	3.29171		
0.373181	3.19465	0.632209	2.36229	0.37279	3.20288	0.820782	3.06913			0.686196	2.56425	0.879728	3.28807		
0.372398	3.21133	0.634343	2.36276	0.372016	3.21976	0.822006	3.06397			0.687877	2.56239	0.881552	3.28445		
0.371633	3.22841	0.636475	2.36322	0.371259	3.23704	0.823234	3.05884			0.689563	2.56056	0.883375	3.28085		
0.370886	3.2459	0.638602	2.36365	0.370521	3.25474	0.824464	3.05376			0.691256	2.55877	0.885196	3.27726		
0.370156	3.26381	0.640726	2.36407	0.369801	3.27287	0.825696	3.04873			0.692954	2.557	0.887014	3.27368		
0.369445	3.28215	0.642846	2.36447	0.369098	3.29142	0.826932	3.04373			0.694659	2.55527	0.888829	3.27012		
0.368751	3.30093	0.644963	2.36486	0.368413	3.31042	0.828171	3.03878			0.69637	2.55358	0.890643	3.26657		
0.368074	3.32015	0.647075	2.36523	0.367745	3.32987	0.829413	3.03387			0.698087	2.55192	0.892453	3.26303		
0.367415	3.33983	0.649184	2.36558	0.367094	3.34977	0.830658	3.029			0.699811	2.55029	0.894261	3.2595		
0.366773	3.35997	0.651288	2.36592	0.366461	3.37015	0.831906	3.02417			0.701541	2.54869	0.896067	3.25599		
0.366148	3.38059	0.653388	2.36623	0.365844	3.391	0.833157	3.01938			0.703277	2.54713	0.897869	3.25249		
0.36554	3.40169	0.655484	2.36654	0.365245	3.41235	0.834411	3.01463			0.705021	2.5456	0.899669	3.249		
0.364949	3.42328	0.657576	2.36682	0.364662	3.43419	0.835668	3.00993			0.70677	2.54411	0.901466	3.24552		
0.364375	3.44538	0.659663	2.36709	0.364096	3.45655	0.836929	3.00526			0.708526	2.54265	0.90326	3.24205		
0.363817	3.468	0.661746	2.36734	0.363547	3.47943	0.838192	3.00063			0.71029	2.54122	0.905051	3.23859		
0.363277	3.49115	0.663825	2.36757	0.363014	3.50284	0.839459	2.99605			0.712059	2.53982	0.906839	3.23514		
0.362752	3.51484	0.665899	2.36779	0.362498	3.5268	0.84073	2.9915			0.713836	2.53846	0.908624	3.23171		
0.362244	3.53908	0.667969	2.36798	0.361998	3.55133	0.842003	2.98699			0.71562	2.53713	0.910406	3.22828		
0.361752	3.56389	0.670034	2.36816	0.361514	3.57643	0.84328	2.98252			0.717411	2.53583	0.912185	3.22486		
0.361277	3.58928	0.672095	2.36833	0.361047	3.60211	0.844561	2.9781			0.719208	2.53456	0.91396	3.22145		
0.360818	3.61527	0.674151	2.36847	0.360596	3.6284	0.845845	2.9737			0.721013	2.53333	0.915733	3.21805		
0.360375	3.64186	0.676202	2.3686	0.360161	3.6553	0.847132	2.96935			0.722825	2.53213	0.917501	3.21466		
0.359948	3.66908	0.678249	2.36872	0.359742	3.68284	0.848423	2.96504			0.724644	2.53096	0.919267	3.21127		
0.359537	3.69694	0.680291	2.36881	0.359338	3.71102	0.849718	2.96076			0.72647	2.52982	0.921029	3.2079		
0.359142	3.72546	0.682328	2.36889	0.358951	3.73987	0.851016	2.95652			0.728303	2.52872	0.922787	3.20453		
0.358762	3.75465	0.68436	2.36895	0.35858	3.76941	0.852318	2.95232			0.730144	2.52764	0.924542	3.20117		
0.358399	3.78454	0.686387	2.36899	0.358224	3.79964	0.853623	2.94816			0.731991	2.5266	0.926294	3.19782		
0.358051	3.81513	0.68841	2.36902	0.357884	3.83059	0.854932	2.94403			0.733846	2.52559	0.928042	3.19447		
0.357719	3.84644	0.690428	2.36903	0.357559	3.86227	0.856245	2.93994			0.735708	2.52461	0.929786	3.19113		
0.357402	3.87851	0.692441	2.36902	0.35725	3.89472	0.857562	2.93589			0.737578	2.52366	0.931527	3.1878		
0.357101	3.91134	0.694449	2.369	0.356957	3.92794	0.858882	2.93187			0.739455	2.52274	0.933264	3.18448		
0.356815	3.94496	0.696452	2.36896	0.356679	3.96196	0.860207	2.92789			0.741339	2.52185	0.934997	3.18116		
0.356544	3.97939	0.698451	2.3689	0.356416	3.9968	0.861535	2.92395			0.74323	2.52099	0.936726	3.17785		
0.356289	4.01465	0.700445	2.36883	0.356168	4.03248	0.862867	2.92004			0.745128	2.52016	0.938452	3.17454		
0.356049	4.05077	0.702433	2.36875	0.355936	4.06904	0.864204	2.91617			0.747034	2.51935	0.940174	3.17124		
0.355825	4.08777	0.704418	2.36864	0.355719	4.10648	0.865544	2.91234			0.748947	2.51858	0.941892	3.16795		
0.355615	4.12567	0.706397	2.36853	0.355517	4.14484	0.866888	2.90854			0.750867	2.51784	0.943606	3.16466		
0.355421	4.16451	0.708372	2.36839	0.35533	4.18415	0.868237	2.90477			0.752794	2.51712	0.945316	3.16138		
0.355241	4.2043	0.710342	2.36824	0.355157	4.22443	0.86959	2.90104			0.754728	2.51643	0.947023	3.1581		
0.355076	4.24508	0.712307	2.36808	0.355	4.26571	0.870947	2.89735			0.756669	2.51577	0.948725	3.15483		
0.354926	4.28688	0.714268	2.36791	0.354857	4.30803	0.872308	2.89369			0.758617	2.51513	0.950424	3.15157		
0.354791	4.32973	0.716224	2.36771	0.35473	4.35141	0.873674	2.89007			0.760572	2.51452	0.952118	3.14831		
0.354671	4.37365	0.718176	2.36751	0.354616	4.39588	0.875044	2.88648			0.762534	2.51394	0.953809	3.14505		
0.354565	4.41869	0.720123	2.36729	0.354518	4.44149	0.876418	2.88292			0.764503	2.51338	0.955496	3.1418		
0.354474	4.46488	0.722067	2.36706	0.354434	4.48826	0.877797	2.8794			0.766478	2.51285	0.957179	3.13856		
0.354397	4.51225	0.724005	2.36682	0.354364	4.53623	0.87918	2.87592			0.768461	2.51235	0.958858	3.13532		
0.354334	4.56084	0.72594	2.36656	0.354309	4.58544	0.880568	2.87246			0.770449	2.51186	0.960532	3.13209		
0.354286	4.6107	0.72787	2.3663	0.354267	4.63594	0.881961	2.86905			0.772445	2.5114	0.962203	3.12886		
0.354252	4.66186	0.729797	2.36602	0.35424	4.68776	0.883358	2.86567			0.774446	2.51097	0.96387	3.12563		
0.354232	4.71436	0.731719	2.36572	0.354227	4.74095	0.884761	2.86232			0.776454	2.51056	0.965533	3.12242		
0.354226	4.76826	0.733637	2.36542	0.354229	4.79555	0.886168	2.859			0.778469	2.51017	0.967192	3.1192		
0.354234	4.82359	0.735552	2.36511	0.354243	4.85162	0.887579	2.85572			0.780489	2.5098	0.968847	3.11599		
0.354253	4.87302	0.737463	2.36479	0.354272	4.9092	0.888996	2.85247			0.782516	2.50945	0.970498	3.11279		
0.354277	4.91607	0.73937	2.36445	0.354315	4.96834	0.890418	2.84926			0.784548	2.50913	0.972145	3.10959		
0.354302	4.95233	0.741274	2.36411	0.354371	5.02911	0.891845	2.84608			0.786587	2.50882	0.973788	3.10639		
0.354326	4.98143	0.743174	2.36376	0.35444	5.09155	0.893277	2.84293			0.788631	2.50854	0.975428	3.1032		
0.354345	5.00307	0.745071	2.3634	0.354523	5.15573	0.894714	2.83982			0.790681	2.50827	0.977063	3.10002		
0.354365	5.02316	0.746964	2.36303	0.35462	5.22172	0.896157	2.83674			0.792737	2.50803	0.978694	3.09684		
0.354379	5.03725	0.748855	2.36265	0.354729	5.28958	0.897604	2.83369			0.794798	2.5078	0.980322	3.09366		
0.354403	5.05943	0.750742	2.36227	0.354852	5.35938	0.899058	2.83068			0.796864	2.50759	0.981946	3.09049		
0.354438	5.08996	0.752626	2.36188	0.354987	5.43119	0.900516	2.8277			0.798936	2.5074	0.983566	3.08732		
0.354488	5.12915	0.754507	2.36148	0.355135	5.50509	0.901981	2.82476			0.801013	2.50722	0.985182	3.08416		
0.354554	5.17744	0.756386	2.36107	0.355296	5.58117	0.903451	2.82184			0.803095	2.50707	0.986794	3.08101		
0.354641	5.23537	0.758262	2.36066	0.35547	5.65951	0.904926	2.81896			0.805182	2.50693	0.988403	3.07785		
0.354753	5.30361	0.760135	2.36024	0.355656	5.7402	0.906408	2.81612			0.807274	2.5068	0.990007	3.07471		
0.354878	5.37381	0.762005	2.35982	0.355854	5.82334	0.907895	2.8133			0.809371	2.50669	0.991608	3.07157		
0.355016	5.44605	0.763874	2.35939	0.356065	5.90903	0.909388	2.81052			0.811472	2.5066	0.993206	3.06843		
0.355167	5.52039	0.76574	2.35896	0.356287	5.99737	0.910888	2.80778			0.813578	2.50652	0.9948	3.0653		
0.355331	5.59692	0.767603	2.35852	0.356522	6.08849	0.912393	2.80506			0.815689	2.50645	0.99639	3.06218		
0.355507	5.67573	0.769465	2.35808	0.356768	6.18249	0.913905	2.80238			0.817804	2.5064	0.997977	3.05906		
0.355695	5.75691	0.771324	2.35763	0.357025	6.2795	0.915422	2.79974			0.819923	2.50636	0.99956	3.05594		
0.355896	5.84056	0.773182	2.35718	0.357294	6.37967	0.916947	2.79712			0.822046	2.50634	1.00114	3.05283		
0.356109	5.92678	0.775037	2.35672	0.357575	6.48313	0.918477	2.79454			0.824174	2.50632				
0.356334	6.01567	0.776891	2.35627	0.357866	6.59003	0.920015	2.79199			0.826305	2.50632				
0.356571	6.10736	0.778743	2.35581	0.358168	6.70054	0.921559	2.78948			0.828441	2.50633				
0.356819	6.20197	0.780593	2.35535	0.358481	6.81482	0.923109	2.787			0.83058	2.50636				
0.357079	6.29961	0.782442	2.35488	0.358804	6.93306	0.924667	2.78455			0.832723	2.50639				
0.35735	6.40044	0.78429	2.35441	0.359137	7.05546	0.926231	2.78213			0.834869	2.50643				
0.357633	6.50458	0.786136	2.35395	0.359481	7.18221	0.927802	2.77975			0.837019	2.50649				
0.357926	6.61221	0.787981	2.35348	0.359834	7.31355	0.929381	2.77741			0.839173	2.50655				
0.358231	6.72347	0.789824	2.35301	0.360197	7.44971	0.930967	2.77509			0.84133	2.50663				
0.358546	6.83854	0.791667	2.35253	0.360569	7.59094	0.93256	2.77281			0.84349	2.50671				
0.358871	6.95761	0.793508	2.35206	0.360951	7.73751	0.93416	2.77056			0.845653	2.50681				
0.359206	7.08088	0.795348	2.35159	0.361341	7.88972	0.935768	2.76835			0.84782	2.50691				
0.359552	7.20854	0.797188	2.35111	0.36174	8.04789	0.937383	2.76616			0.849989	2.50702				
0.359907	7.34084	0.799026	2.35064	0.362147	8.21234	0.939006	2.76402			0.852162	2.50714				
0.360272	7.47801	0.800864	2.35016	0.362563	8.38345	0.940637	2.7619			0.854337	2.50726				
0.360646	7.6203	0.802701	2.34969	0.362986	8.56161	0.942275	2.75982			0.856515	2.5074				
0.36103	7.768	0.804537	2.34922	0.363416	8.74724	0.943922	2.75777			0.858696	2.50754				
0.361422	7.9214	0.806373	2.34874	0.363854	8.9408	0.945576	2.75576			0.86088	2.50769				
0.361822	8.08081	0.808208	2.34827	0.364241	9.11634	0.947238	2.75378			0.863066	2.50784				
0.362231	8.24659	0.810043	2.3478	0.364574	9.2713	0.948909	2.75183			0.865255	2.508				
0.362648	8.4191	0.811877	2.34733	0.364853	9.40332	0.950587	2.74992			0.867446	2.50817				
0.363073	8.59874	0.813711	2.34686	0.365075	9.5103	0.952274	2.74803			0.86964	2.50835				
0.363505	8.78595	0.815544	2.34639	0.365239	9.59046	0.953969	2.74619			0.871836	2.50853				
0.363944	8.98119	0.817377	2.34593	0.36539	9.66536	0.955673	2.74437			0.874034	2.50871				
0.364389	9.18496	0.81921	2.34546	0.365496	9.71813	0.957385	2.74259			0.876235	2.5089				
0.364841	9.39784	0.821043	2.345	0.365662	9.8017	0.959105	2.74084			0.878438	2.5091				
0.3653	9.6204	0.822876	2.34454	0.365888	9.9176	0.960834	2.73912			0.880642	2.5093				
0.365763	9.85332	0.824708	2.34408	0.366177	10.068	0.962572	2.73744			0.882849	2.50951				
0.366232	10.0973	0.826541	2.34362	0.366528	10.2558	0.964318	2.73579			0.885058	2.50972				
0.366706	10.3531	0.828373	2.34317	0.366943	10.4849	0.966073	2.73417			0.887269	2.50994				
0.367184	10.6217	0.830206	2.34272	0.367423	10.7601	0.967836	2.73258			0.889482	2.51016				
0.367666	10.9039	0.832039	2.34227	0.367907	11.0495	0.969608	2.73102			0.891697	2.51038				
0.368151	11.2008	0.833871	2.34182	0.368394	11.3541	0.971388	2.7295			0.893913	2.51061				
0.36864	11.5136	0.835704	2.34137	0.368883	11.6752	0.973177	2.72801			0.896131	2.51084				
0.369131	11.8436	0.837537	2.34093	0.369375	12.0142	0.974975	2.72655			0.898351	2.51108				
0.369623	12.1921	0.839371	2.34049	0.369868	12.3725	0.976781	2.72512			0.900573	2.51132				
0.370117	12.5608	0.841204	2.34005	0.370363	12.7519	0.978596	2.72372			0.902796	2.51156				
0.370612	12.9514	0.843038	2.33962	0.370858	13.1541	0.980419	2.72235			0.905021	2.51181				
0.371107	13.3659	0.844872	2.33919	0.371352	13.5814	0.982251	2.72101			0.907247	2.51206				
0.371601	13.8067	0.846707	2.33876	0.371846	14.0361	0.984091	2.7197			0.909475	2.51231				
0.372094	14.2761	0.848542	2.33834	0.372338	14.5208	0.98594	2.71842			0.911705	2.51256				
0.372585	14.7772	0.850377	2.33791	0.372828	15.0387	0.987797	2.71716			0.913935	2.51282				
0.373074	15.3131	0.852213	2.3375	0.373315	15.5933	0.989662	2.71594			0.916167	2.51308				
0.373559	15.8876	0.854049	2.33708	0.373798	16.1886	0.991535	2.71475			0.918401	2.51334				
0.374039	16.5051	0.855886	2.33667	0.374276	16.8292	0.993417	2.71358			0.920636	2.51361				
0.374515	17.1705	0.857723	2.33626	0.374749	17.5205	0.995306	2.71244			0.922872	2.51388				
0.374985	17.8896	0.859561	2.33585	0.375215	18.2688	0.997204	2.71132			0.92511	2.51415				
0.375447	18.6692	0.861399	2.33545	0.375674	19.0813	0.999109	2.71024			0.927348	2.51442				
0.375902	19.5173	0.863238	2.33505	0.376125	19.9668	1.00102	2.70917			0.929588	2.51469				
0.376349	20.4433	0.865077	2.33466	0.376567	20.9355					0.931829	2.51497				
0.376785	21.4583	0.866917	2.33426	0.376998	21.9997					0.934071	2.51525				
0.377211	22.5761	0.868758	2.33388	0.377418	23.1744					0.936314	2.51553				
0.377625	23.8131	0.8706	2.33349	0.377826	24.4778					0.938559	2.51581				
0.378027	25.1894	0.872442	2.33311	0.378221	25.9322					0.940804	2.51609				
0.378414	26.7301	0.874284	2.33273	0.378601	27.5657					0.943051	2.51637				
0.378786	28.4666	0.876128	2.33236	0.378965	29.4137					0.945298	2.51666				
0.379142	30.439	0.877972	2.33199	0.379313	31.5216					0.947547	2.51695				
0.379481	32.6989	0.879817	2.33162	0.379643	33.9485					0.949796	2.51723				
0.379802	35.3147	0.881662	2.33126	0.379954	36.7731					0.952046	2.51752				
0.380103	38.3777	0.883509	2.3309	0.380245	40.1023					0.954297	2.51781				
0.380384	42.014	0.885356	2.33054	0.380515	44.0852					0.956549	2.5181				
0.380643	46.4016	0.887204	2.33019	0.380764	48.9361					0.958802	2.5184				
0.38088	51.8013	0.889053	2.32984	0.380989	54.9742					0.961056	2.51869				
0.381094	58.61	0.890902	2.32949	0.381191	62.6979					0.963311	2.51898				
0.381283	67.4637	0.892753	2.32915	0.381368	72.9293					0.965566	2.51928				
0.381448	79.449	0.894604	2.32881	0.38152	87.1295					0.967822	2.51957				
0.381587	96.5884	0.896456	2.32848	0.381646	108.168					0.970079	2.51987				
0.381699	123.124	0.898309	2.32815	0.381745	142.563					0.972337	2.52017				
0.381785	169.711	0.900162	2.32782	0.381818	208.961					0.974595	2.52046				
0.381844	272.922	0.902017	2.3275	0.381863	390.972					0.976854	2.52076				
0.381876	696.118	0.903872	2.32718	0.381881	3026.36					0.979114	2.52106				
		0.905729	2.32686							0.981375	2.52136				
		0.907586	2.32655							0.983636	2.52166				
		0.909444	2.32624							0.985897	2.52196				
		0.911303	2.32594							0.98816	2.52226				
		0.913163	2.32564							0.990423	2.52256				
		0.915024	2.32534							0.992686	2.52286				
		0.916885	2.32504							0.99495	2.52316				
		0.918748	2.32475							0.997215	2.52346				
		0.920612	2.32447							0.99948	2.52376				
		0.922476	2.32418							1.00175	2.52406				
		0.924341	2.3239												
		0.926208	2.32363												
		0.928075	2.32335												
		0.929943	2.32308												
		0.931812	2.32282												
		0.933682	2.32256												
		0.935553	2.3223												
		0.937425	2.32204												
		0.939298	2.32179												
		0.941172	2.32154												
		0.943047	2.32129												
		0.944923	2.32105												
		0.946799	2.32081												
		0.948677	2.32058												
		0.950556	2.32035												
		0.952435	2.32012												
		0.954316	2.31989												
		0.956197	2.31967												
		0.95808	2.31945												
		0.959963	2.31923												
		0.961847	2.31902												
		0.963733	2.31881												
		0.965619	2.31861												
		0.967506	2.3184												
		0.969394	2.3182												
		0.971283	2.318												
		0.973173	2.31781												
		0.975064	2.31762												
		0.976956	2.31743												
		0.978848	2.31725												
		0.980742	2.31706												
		0.982637	2.31688												
		0.984532	2.31671												
		0.986429	2.31653												
		0.988326	2.31636												
		0.990224	2.31619												
		0.992123	2.31603												
		0.994023	2.31587												
		0.995924	2.31571												
		0.997826	2.31555												
		0.999729	2.3154												
		1.00163	2.31524												
