Sym0		Sym1		Sym2		Asym1		Asym2	
548  Points		548  Points		518  Points		549  Points		324  Points	
Freq (MHz)	Vph (m/ms)	Freq (MHz)	Vph (m/ms)	Freq (MHz)	Vph (m/ms)	Freq (MHz)	Vph (m/ms)	Freq (MHz)	Vph (m/ms)
1.0012	2.58267	1.00091	2.58287	0.540081	858.894	0.270037	666.912	1.00036	4.39616
0.999747	2.58367	0.999457	2.58387	0.540151	402.081	0.27008	241.254	0.998828	4.40327
0.998289	2.58468	0.997998	2.58488	0.540271	262.527	0.270162	147.303	0.997284	4.41035
0.996828	2.58568	0.996538	2.58588	0.54044	194.926	0.270284	106.05	0.995726	4.41742
0.995366	2.58668	0.995074	2.58688	0.540659	155.045	0.270446	82.8772	0.994155	4.42448
0.9939	2.58768	0.993608	2.58788	0.540927	128.74	0.270648	68.0397	0.992571	4.43152
0.992432	2.58867	0.99214	2.58887	0.541243	110.092	0.270888	57.7296	0.990973	4.43855
0.990961	2.58966	0.990668	2.58986	0.541606	96.1855	0.271168	50.1518	0.989362	4.44556
0.989487	2.59065	0.989193	2.59084	0.542015	85.4183	0.271487	44.3496	0.987739	4.45256
0.98801	2.59163	0.987715	2.59182	0.54247	76.837	0.271845	39.766	0.986103	4.45955
0.986529	2.59261	0.986234	2.5928	0.542969	69.839	0.27224	36.0551	0.984455	4.46653
0.985045	2.59358	0.98475	2.59377	0.543511	64.0241	0.272674	32.9904	0.982794	4.4735
0.983558	2.59454	0.983261	2.59473	0.544094	59.1166	0.273145	30.4176	0.981122	4.48047
0.982066	2.5955	0.981769	2.59569	0.544718	54.9204	0.273654	28.228	0.979438	4.48742
0.980571	2.59645	0.980273	2.59664	0.545381	51.2919	0.274199	26.3425	0.977743	4.49437
0.979072	2.5974	0.978774	2.59759	0.546083	48.1237	0.27478	24.7025	0.976037	4.50131
0.977569	2.59834	0.97727	2.59852	0.54682	45.3339	0.275398	23.2636	0.974319	4.50825
0.976062	2.59927	0.975762	2.59945	0.547593	42.859	0.276051	21.9913	0.972591	4.51518
0.97455	2.60019	0.974249	2.60037	0.5484	40.6487	0.276738	20.8587	0.970853	4.52211
0.973035	2.6011	0.972732	2.60128	0.54924	38.6631	0.27746	19.8443	0.969105	4.52904
0.971514	2.60201	0.971211	2.60219	0.550111	36.8698	0.278216	18.9308	0.967346	4.53597
0.969989	2.60291	0.969685	2.60308	0.551012	35.2424	0.279005	18.1043	0.965578	4.5429
0.96846	2.6038	0.968155	2.60397	0.551942	33.7589	0.279827	17.353	0.963801	4.54984
0.966925	2.60467	0.966619	2.60485	0.5529	32.4014	0.280681	16.6673	0.962014	4.55678
0.965386	2.60554	0.965079	2.60572	0.553885	31.1545	0.281566	16.0393	0.960219	4.56372
0.963842	2.6064	0.963534	2.60657	0.554895	30.0053	0.282483	15.4621	0.958415	4.57067
0.962293	2.60725	0.961984	2.60742	0.555929	28.9429	0.28343	14.93	0.956603	4.57763
0.960739	2.60809	0.960429	2.60826	0.556987	27.9578	0.284406	14.438	0.954783	4.58459
0.95918	2.60892	0.958869	2.60908	0.558067	27.0421	0.285412	13.9818	0.952955	4.59157
0.957616	2.60974	0.957304	2.6099	0.559169	26.1887	0.286446	13.5579	0.95112	4.59856
0.956047	2.61055	0.955734	2.61071	0.560291	25.3914	0.287508	13.1629	0.949278	4.60557
0.954472	2.61134	0.954159	2.6115	0.561432	24.6451	0.288597	12.7942	0.947429	4.61259
0.952893	2.61213	0.952578	2.61228	0.562593	23.9449	0.289713	12.4493	0.945573	4.61962
0.951308	2.6129	0.950992	2.61305	0.563771	23.2868	0.290855	12.126	0.943711	4.62668
0.949719	2.61367	0.949402	2.61382	0.564967	22.6672	0.292022	11.8225	0.941842	4.63375
0.948124	2.61442	0.947806	2.61457	0.566179	22.0827	0.293214	11.537	0.939968	4.64085
0.946523	2.61516	0.946204	2.6153	0.567407	21.5305	0.294431	11.2681	0.938089	4.64797
0.944918	2.61589	0.944598	2.61603	0.56865	21.0081	0.295671	11.0143	0.936204	4.65511
0.943308	2.6166	0.942986	2.61675	0.569907	20.513	0.296934	10.7745	0.934315	4.66228
0.941692	2.61731	0.94137	2.61745	0.571178	20.0432	0.298219	10.5477	0.93242	4.66948
0.940071	2.61801	0.939748	2.61814	0.572462	19.5969	0.299527	10.3328	0.930522	4.67671
0.938445	2.61869	0.938121	2.61882	0.573759	19.1723	0.300855	10.1289	0.928619	4.68396
0.936815	2.61936	0.93649	2.61949	0.575068	18.7679	0.30203	9.95968	0.926713	4.69126
0.935179	2.62002	0.934853	2.62015	0.576389	18.3823	0.303044	9.82118	0.924803	4.69858
0.933538	2.62067	0.933211	2.6208	0.577721	18.0142	0.30389	9.71047	0.922889	4.70595
0.931893	2.62131	0.931565	2.62144	0.579063	17.6626	0.304564	9.62528	0.920973	4.71335
0.930242	2.62194	0.929913	2.62206	0.580416	17.3262	0.305063	9.5639	0.919054	4.7208
0.928587	2.62256	0.928257	2.62268	0.581778	17.0041	0.305384	9.52518	0.917133	4.72828
0.926927	2.62316	0.926597	2.62328	0.58315	16.6955	0.305846	9.47025	0.915209	4.73581
0.925263	2.62376	0.924931	2.62388	0.584531	16.3996	0.306351	9.41151	0.913284	4.74339
0.923594	2.62434	0.923261	2.62446	0.58592	16.1154	0.307042	9.33321	0.911357	4.75101
0.92192	2.62492	0.921587	2.62503	0.587318	15.8425	0.307921	9.2367	0.909429	4.75869
0.920242	2.62548	0.919908	2.62559	0.588723	15.5801	0.308994	9.1236	0.907499	4.76641
0.91856	2.62604	0.918225	2.62614	0.590136	15.3277	0.310265	8.99572	0.905569	4.77419
0.916873	2.62658	0.916537	2.62669	0.591556	15.0846	0.311739	8.855	0.903639	4.78203
0.915182	2.62711	0.914846	2.62722	0.592984	14.8504	0.313229	8.72034	0.901708	4.78993
0.913487	2.62764	0.91315	2.62774	0.594417	14.6246	0.314736	8.59137	0.899777	4.79788
0.911788	2.62815	0.91145	2.62825	0.595857	14.4067	0.316259	8.46776	0.897846	4.8059
0.910085	2.62866	0.909746	2.62876	0.597304	14.1964	0.317796	8.34919	0.895916	4.81398
0.908379	2.62915	0.908038	2.62925	0.598756	13.9933	0.319349	8.23537	0.893987	4.82213
0.906668	2.62964	0.906327	2.62974	0.600213	13.7969	0.320915	8.12602	0.892059	4.83035
0.904953	2.63012	0.904612	2.63021	0.601676	13.607	0.322496	8.02091	0.890133	4.83864
0.903235	2.63059	0.902893	2.63068	0.603143	13.4233	0.324089	7.91979	0.888208	4.847
0.901514	2.63105	0.901171	2.63114	0.604616	13.2454	0.325696	7.82246	0.886285	4.85545
0.899788	2.6315	0.899445	2.63159	0.606093	13.0731	0.327315	7.7287	0.884364	4.86396
0.89806	2.63195	0.897715	2.63204	0.607574	12.9062	0.328946	7.63834	0.882446	4.87256
0.896328	2.63239	0.895983	2.63247	0.60906	12.7443	0.330589	7.55119	0.88053	4.88125
0.894593	2.63282	0.894247	2.6329	0.61055	12.5872	0.332243	7.46709	0.878618	4.89001
0.892854	2.63324	0.892508	2.63332	0.612043	12.4348	0.333908	7.38589	0.876709	4.89887
0.891113	2.63365	0.890766	2.63373	0.61354	12.2869	0.335584	7.30745	0.874803	4.90782
0.889368	2.63406	0.88902	2.63414	0.61504	12.1431	0.337269	7.23163	0.872901	4.91686
0.88762	2.63446	0.887272	2.63454	0.616543	12.0035	0.338964	7.1583	0.871004	4.926
0.88587	2.63485	0.885521	2.63493	0.618049	11.8677	0.340669	7.08735	0.86911	4.93524
0.884117	2.63524	0.883767	2.63531	0.619558	11.7356	0.342383	7.01866	0.867222	4.94458
0.88236	2.63562	0.882011	2.63569	0.62107	11.6071	0.344105	6.95212	0.865338	4.95402
0.880602	2.63599	0.880251	2.63606	0.622584	11.4821	0.345836	6.88765	0.86346	4.96357
0.87884	2.63635	0.878489	2.63643	0.6241	11.3603	0.347574	6.82514	0.861587	4.97323
0.877076	2.63672	0.876725	2.63679	0.625618	11.2418	0.34932	6.76451	0.859719	4.98301
0.87531	2.63707	0.874958	2.63714	0.627139	11.1262	0.351074	6.70568	0.857858	4.9929
0.873541	2.63742	0.873189	2.63749	0.628661	11.0136	0.352834	6.64856	0.856003	5.00291
0.87177	2.63776	0.871417	2.63783	0.630184	10.9038	0.354601	6.59309	0.854155	5.01305
0.869996	2.6381	0.869643	2.63817	0.63171	10.7967	0.356375	6.53918	0.852314	5.02331
0.86822	2.63843	0.867867	2.6385	0.633236	10.6922	0.358155	6.48678	0.850479	5.03369
0.866442	2.63876	0.866088	2.63882	0.634764	10.5902	0.35994	6.43582	0.848653	5.04422
0.864662	2.63908	0.864307	2.63914	0.636096	10.5033	0.361731	6.38624	0.846833	5.05487
0.86288	2.6394	0.862525	2.63946	0.637232	10.4306	0.363527	6.33799	0.845022	5.06567
0.861095	2.63971	0.86074	2.63977	0.638172	10.3715	0.365327	6.29101	0.84322	5.07661
0.859309	2.64002	0.858953	2.64008	0.638915	10.3253	0.367133	6.24525	0.841425	5.0877
0.857521	2.64032	0.857165	2.64038	0.639462	10.2917	0.368942	6.20067	0.83964	5.09893
0.855731	2.64062	0.855374	2.64067	0.639812	10.2704	0.370756	6.1572	0.837864	5.11032
0.853939	2.64091	0.853582	2.64097	0.640314	10.2398	0.372574	6.11482	0.836097	5.12187
0.852145	2.6412	0.851788	2.64126	0.640861	10.2069	0.374395	6.07348	0.83434	5.13358
0.85035	2.64148	0.849992	2.64154	0.641605	10.1626	0.376219	6.03313	0.832593	5.14545
0.848552	2.64177	0.848195	2.64182	0.642546	10.1072	0.378046	5.99375	0.830857	5.15749
0.846754	2.64204	0.846395	2.6421	0.643684	10.0413	0.379876	5.95529	0.82913	5.16971
0.844953	2.64232	0.844595	2.64237	0.645018	9.9653	0.381708	5.91772	0.827415	5.18211
0.843151	2.64259	0.842792	2.64264	0.64655	9.8799	0.383542	5.88101	0.825711	5.19468
0.841348	2.64285	0.840989	2.64291	0.648082	9.79634	0.385378	5.84512	0.824019	5.20744
0.839543	2.64312	0.839183	2.64317	0.649614	9.71455	0.387216	5.81003	0.822338	5.22039
0.837736	2.64338	0.837377	2.64343	0.651145	9.6345	0.389056	5.7757	0.820669	5.23354
0.835928	2.64363	0.835569	2.64368	0.652676	9.55611	0.390896	5.74211	0.819012	5.24689
0.834119	2.64389	0.833759	2.64394	0.654206	9.47934	0.392738	5.70923	0.817368	5.26044
0.832309	2.64414	0.831948	2.64419	0.655735	9.40413	0.39458	5.67704	0.815738	5.2742
0.830497	2.64438	0.830136	2.64443	0.657264	9.33044	0.396422	5.6455	0.81412	5.28817
0.828684	2.64463	0.828323	2.64468	0.658792	9.25821	0.398265	5.61461	0.812515	5.30236
0.826869	2.64487	0.826508	2.64492	0.660318	9.1874	0.400108	5.58433	0.810925	5.31677
0.825054	2.64511	0.824693	2.64515	0.661844	9.11797	0.40195	5.55464	0.809349	5.33142
0.823237	2.64534	0.822876	2.64539	0.663368	9.04987	0.403792	5.52553	0.807786	5.34629
0.821419	2.64558	0.821058	2.64562	0.66489	8.98307	0.405633	5.49697	0.806239	5.36141
0.8196	2.64581	0.819238	2.64585	0.666411	8.91753	0.407473	5.46895	0.804706	5.37676
0.81778	2.64604	0.817418	2.64608	0.66793	8.8532	0.409312	5.44144	0.803189	5.39237
0.815959	2.64626	0.815597	2.64631	0.669448	8.79006	0.411149	5.41443	0.801687	5.40823
0.814137	2.64649	0.813774	2.64653	0.670963	8.72806	0.412985	5.3879	0.8002	5.42435
0.812314	2.64671	0.811951	2.64675	0.672476	8.66718	0.414818	5.36184	0.79873	5.44074
0.81049	2.64693	0.810127	2.64697	0.673987	8.60738	0.41665	5.33623	0.797276	5.4574
0.808665	2.64714	0.808302	2.64719	0.675496	8.54864	0.418479	5.31105	0.795839	5.47434
0.806839	2.64736	0.806476	2.6474	0.677002	8.49091	0.420305	5.28628	0.794418	5.49156
0.805012	2.64757	0.804649	2.64762	0.678506	8.43418	0.422129	5.26193	0.793014	5.50907
0.803184	2.64778	0.802821	2.64783	0.680006	8.37842	0.423949	5.23796	0.791628	5.52687
0.801356	2.64799	0.800992	2.64804	0.681504	8.32359	0.425766	5.21438	0.790259	5.54498
0.799526	2.6482	0.799162	2.64824	0.682999	8.26968	0.42758	5.19116	0.788908	5.56339
0.797696	2.64841	0.797332	2.64845	0.684491	8.21665	0.42939	5.16829	0.787575	5.58212
0.795865	2.64861	0.795501	2.64865	0.68598	8.16448	0.431195	5.14577	0.78626	5.60117
0.794033	2.64882	0.793669	2.64886	0.687465	8.11316	0.432997	5.12358	0.784964	5.62055
0.792201	2.64902	0.791836	2.64906	0.688947	8.06266	0.434794	5.1017	0.783686	5.64026
0.790368	2.64922	0.790003	2.64926	0.690425	8.01295	0.436586	5.08014	0.782427	5.66031
0.788534	2.64942	0.788169	2.64946	0.6919	7.96401	0.438373	5.05887	0.781187	5.68071
0.786699	2.64961	0.786334	2.64965	0.693371	7.91583	0.440156	5.03789	0.779967	5.70146
0.784864	2.64981	0.784499	2.64985	0.694838	7.86839	0.441932	5.01719	0.778766	5.72257
0.783028	2.65	0.782663	2.65004	0.6963	7.82166	0.443704	4.99677	0.777585	5.74406
0.781191	2.6502	0.780826	2.65024	0.697759	7.77563	0.445469	4.9766	0.776424	5.76591
0.779354	2.65039	0.778988	2.65043	0.699213	7.73028	0.447228	4.95668	0.775283	5.78815
0.777516	2.65058	0.777151	2.65062	0.700663	7.68559	0.448981	4.93701	0.774162	5.81078
0.775678	2.65077	0.775312	2.65081	0.702108	7.64155	0.450727	4.91757	0.773061	5.83381
0.773839	2.65096	0.773473	2.651	0.703548	7.59813	0.452467	4.89837	0.771981	5.85725
0.772	2.65115	0.771633	2.65119	0.704984	7.55533	0.4542	4.87938	0.770921	5.88109
0.77016	2.65134	0.769793	2.65137	0.706415	7.51313	0.455925	4.8606	0.769883	5.90536
0.768319	2.65152	0.767953	2.65156	0.707841	7.47151	0.457643	4.84203	0.768865	5.93006
0.766478	2.65171	0.766112	2.65175	0.709261	7.43046	0.459354	4.82366	0.767868	5.95519
0.764636	2.65189	0.76427	2.65193	0.710676	7.38996	0.461056	4.80548	0.766892	5.98077
0.762794	2.65208	0.762428	2.65211	0.712086	7.35001	0.462751	4.78748	0.765938	6.0068
0.760952	2.65226	0.760585	2.6523	0.71349	7.31058	0.464437	4.76967	0.765005	6.03329
0.759109	2.65244	0.758742	2.65248	0.714889	7.27167	0.466115	4.75202	0.764093	6.06025
0.757266	2.65263	0.756899	2.65266	0.716282	7.23326	0.467784	4.73455	0.763202	6.08769
0.755422	2.65281	0.755055	2.65284	0.717669	7.19535	0.469444	4.71723	0.762334	6.11562
0.753578	2.65299	0.753211	2.65303	0.71905	7.15791	0.471095	4.70007	0.761486	6.14405
0.751733	2.65317	0.751366	2.65321	0.720425	7.12094	0.472736	4.68306	0.76066	6.17297
0.749888	2.65335	0.749521	2.65339	0.721793	7.08443	0.474368	4.6662	0.759856	6.20241
0.748043	2.65353	0.747676	2.65357	0.723156	7.04837	0.475991	4.64948	0.759074	6.23238
0.746197	2.65371	0.74583	2.65375	0.724511	7.01274	0.477603	4.63289	0.758313	6.26288
0.744351	2.65389	0.743984	2.65392	0.725861	6.97754	0.479205	4.61643	0.757573	6.29392
0.742505	2.65407	0.742137	2.6541	0.727203	6.94275	0.480797	4.6001	0.756856	6.32551
0.740658	2.65425	0.74029	2.65428	0.728539	6.90838	0.482379	4.58389	0.75616	6.35766
0.738811	2.65443	0.738443	2.65446	0.729868	6.8744	0.483949	4.5678	0.755485	6.39038
0.736964	2.6546	0.736596	2.65464	0.731189	6.8408	0.485509	4.55182	0.754832	6.42368
0.735116	2.65478	0.734748	2.65482	0.732504	6.80759	0.487058	4.53596	0.754201	6.45758
0.733268	2.65496	0.7329	2.65499	0.733811	6.77475	0.488596	4.52019	0.753591	6.49208
0.73142	2.65514	0.731052	2.65517	0.735111	6.74227	0.490122	4.50454	0.753002	6.52719
0.729572	2.65532	0.729204	2.65535	0.736404	6.71015	0.491637	4.48898	0.752435	6.56292
0.727723	2.65549	0.727355	2.65553	0.737689	6.67837	0.49314	4.47351	0.751889	6.59929
0.725874	2.65567	0.725506	2.65571	0.738966	6.64694	0.494631	4.45814	0.751364	6.63631
0.724025	2.65585	0.723657	2.65588	0.740235	6.61583	0.49611	4.44286	0.750861	6.67398
0.722176	2.65603	0.721808	2.65606	0.741497	6.58505	0.497577	4.42766	0.750378	6.71232
0.720326	2.65621	0.719958	2.65624	0.742751	6.55459	0.499032	4.41255	0.749916	6.75135
0.718476	2.65638	0.718108	2.65642	0.743996	6.52444	0.500474	4.39752	0.749475	6.79106
0.716626	2.65656	0.716258	2.6566	0.745234	6.49459	0.501904	4.38257	0.749054	6.83148
0.714776	2.65674	0.714408	2.65678	0.746463	6.46504	0.503322	4.36769	0.748654	6.87263
0.712926	2.65692	0.712558	2.65696	0.747684	6.43578	0.504726	4.35289	0.748275	6.9145
0.711076	2.6571	0.710707	2.65714	0.748896	6.40681	0.506118	4.33816	0.747915	6.95712
0.709225	2.65728	0.708857	2.65732	0.7501	6.37812	0.507497	4.3235	0.747576	7.00049
0.707374	2.65746	0.707006	2.6575	0.751295	6.3497	0.508863	4.3089	0.747257	7.04464
0.705523	2.65764	0.705155	2.65768	0.752481	6.32155	0.510216	4.29437	0.746957	7.08958
0.703672	2.65783	0.703304	2.65786	0.753659	6.29366	0.511556	4.27991	0.746678	7.13532
0.701821	2.65801	0.701453	2.65805	0.754828	6.26603	0.512883	4.26551	0.746418	7.18188
0.69997	2.65819	0.699602	2.65823	0.755988	6.23865	0.514197	4.25117	0.746177	7.22926
0.698119	2.65838	0.697751	2.65841	0.757139	6.21152	0.515497	4.23689	0.745955	7.2775
0.696268	2.65856	0.695899	2.6586	0.75828	6.18463	0.516784	4.22267	0.745752	7.3266
0.694416	2.65874	0.694048	2.65878	0.759413	6.15798	0.518058	4.20851	0.745569	7.37658
0.692565	2.65893	0.692196	2.65897	0.760537	6.13156	0.519319	4.1944	0.745404	7.42746
0.690713	2.65912	0.690345	2.65915	0.761651	6.10537	0.520566	4.18034	0.745257	7.47925
0.688861	2.6593	0.688493	2.65934	0.762756	6.07941	0.5218	4.16635	0.745129	7.53198
0.68701	2.65949	0.686641	2.65953	0.763851	6.05366	0.523021	4.1524	0.745019	7.58566
0.685158	2.65968	0.68479	2.65972	0.764937	6.02813	0.524228	4.13851	0.744927	7.64031
0.683306	2.65987	0.682938	2.65991	0.766014	6.00281	0.525422	4.12467	0.744852	7.69595
0.681455	2.66006	0.681086	2.6601	0.767081	5.9777	0.526604	4.11088	0.744795	7.7526
0.679603	2.66026	0.679235	2.66029	0.768139	5.95279	0.527772	4.09715	0.744756	7.81029
0.677751	2.66045	0.677383	2.66049	0.769187	5.92808	0.528927	4.08346	0.744734	7.86902
0.6759	2.66064	0.675531	2.66068	0.770225	5.90357	0.530069	4.06982	0.744729	7.92883
0.674048	2.66084	0.67368	2.66088	0.771253	5.87926	0.531198	4.05624	0.744741	7.98974
0.672196	2.66104	0.671828	2.66107	0.772272	5.85513	0.532314	4.0427	0.744769	8.05178
0.670345	2.66123	0.669976	2.66127	0.773281	5.83119	0.533418	4.02922	0.744814	8.11495
0.668493	2.66143	0.668125	2.66147	0.774281	5.80743	0.534508	4.01578	0.744875	8.1793
0.666642	2.66163	0.666273	2.66167	0.775271	5.78386	0.535587	4.0024	0.744952	8.24484
0.66479	2.66184	0.664422	2.66188	0.77625	5.76046	0.536653	3.98906	0.745045	8.3116
0.662939	2.66204	0.662571	2.66208	0.77722	5.73723	0.537707	3.97578	0.745154	8.37962
0.661088	2.66225	0.660719	2.66229	0.778181	5.71418	0.538748	3.96254	0.745278	8.44891
0.659237	2.66245	0.658868	2.66249	0.779131	5.6913	0.539778	3.94936	0.745418	8.5195
0.657386	2.66266	0.657017	2.6627	0.780072	5.66858	0.540796	3.93623	0.745572	8.59144
0.655535	2.66287	0.655166	2.66291	0.781003	5.64603	0.541802	3.92315	0.745742	8.66474
0.653684	2.66308	0.653316	2.66313	0.781924	5.62363	0.542797	3.91012	0.745926	8.73944
0.651833	2.6633	0.651465	2.66334	0.782835	5.6014	0.54378	3.89714	0.746125	8.81558
0.649983	2.66351	0.649615	2.66356	0.783737	5.57932	0.544752	3.88422	0.746338	8.89318
0.648132	2.66373	0.647764	2.66377	0.784629	5.5574	0.545714	3.87134	0.746566	8.97228
0.646282	2.66395	0.645914	2.66399	0.785511	5.53563	0.546664	3.85853	0.746807	9.05293
0.644432	2.66417	0.644064	2.66422	0.786383	5.51401	0.547603	3.84576	0.747062	9.13515
0.642583	2.6644	0.642215	2.66444	0.787246	5.49254	0.548533	3.83305	0.747331	9.21899
0.640733	2.66462	0.640365	2.66467	0.788099	5.47122	0.549452	3.8204	0.747613	9.30449
0.638884	2.66485	0.638516	2.6649	0.788943	5.45004	0.550361	3.8078	0.747908	9.39169
0.637034	2.66508	0.636667	2.66513	0.789777	5.429	0.55126	3.79525	0.748216	9.48063
0.635186	2.66531	0.634818	2.66536	0.790601	5.4081	0.552149	3.78277	0.748538	9.57137
0.633337	2.66555	0.632969	2.6656	0.791416	5.38735	0.553029	3.77034	0.748871	9.66393
0.631489	2.66579	0.631121	2.66583	0.792222	5.36673	0.5539	3.75797	0.749218	9.75839
0.62964	2.66603	0.629273	2.66608	0.793019	5.34624	0.554762	3.74565	0.749576	9.85478
0.627793	2.66627	0.627425	2.66632	0.793806	5.32589	0.555615	3.7334	0.749947	9.95316
0.625945	2.66652	0.625578	2.66657	0.794584	5.30567	0.556459	3.72121	0.75033	10.0536
0.624098	2.66677	0.62373	2.66682	0.795352	5.28559	0.557295	3.70907	0.750724	10.1561
0.622251	2.66702	0.621884	2.66707	0.796112	5.26563	0.558123	3.697	0.751077	10.2472
0.620404	2.66727	0.620037	2.66732	0.796863	5.2458	0.558943	3.68499	0.751385	10.3262
0.618558	2.66753	0.618191	2.66758	0.797604	5.2261	0.559755	3.67304	0.751645	10.3925
0.616712	2.66779	0.616345	2.66784	0.798337	5.20653	0.56056	3.66116	0.751853	10.4455
0.614867	2.66805	0.6145	2.66811	0.799062	5.18708	0.561358	3.64934	0.752007	10.4848
0.613022	2.66832	0.612655	2.66838	0.799777	5.16775	0.562149	3.63758	0.752151	10.5212
0.611177	2.66859	0.61081	2.66865	0.800484	5.14854	0.562933	3.62589	0.752251	10.5467
0.609333	2.66887	0.608966	2.66892	0.801182	5.12946	0.56371	3.61426	0.75241	10.5868
0.607489	2.66915	0.607123	2.6692	0.801872	5.1105	0.564481	3.60269	0.752627	10.6419
0.605646	2.66943	0.605279	2.66949	0.802554	5.09165	0.565246	3.5912	0.752906	10.7123
0.603803	2.66971	0.603437	2.66977	0.803227	5.07293	0.566005	3.57977	0.753248	10.7987
0.601961	2.67	0.601594	2.67006	0.803893	5.05432	0.566758	3.56841	0.753657	10.9019
0.600119	2.6703	0.599752	2.67036	0.80455	5.03583	0.567506	3.55711	0.754136	11.0228
0.598278	2.6706	0.597911	2.67066	0.805199	5.01745	0.568249	3.54588	0.754625	11.1463
0.596437	2.6709	0.596071	2.67096	0.805841	4.99919	0.568986	3.53472	0.755124	11.2727
0.594597	2.67121	0.594231	2.67127	0.806475	4.98104	0.569719	3.52363	0.755633	11.4019
0.592757	2.67152	0.592391	2.67158	0.807101	4.963	0.570447	3.51261	0.756152	11.5341
0.590918	2.67183	0.590552	2.6719	0.80772	4.94508	0.571171	3.50166	0.75668	11.6694
0.589079	2.67216	0.588714	2.67222	0.808331	4.92727	0.571891	3.49078	0.757218	11.8078
0.587242	2.67248	0.586876	2.67255	0.808936	4.90957	0.572606	3.47997	0.757765	11.9495
0.585405	2.67281	0.585039	2.67288	0.809533	4.89197	0.573318	3.46923	0.758321	12.0945
0.583568	2.67315	0.583203	2.67322	0.810123	4.87449	0.574026	3.45856	0.758885	12.243
0.581733	2.67349	0.581367	2.67356	0.810706	4.85711	0.574731	3.44797	0.759458	12.3952
0.579898	2.67384	0.579532	2.67391	0.811282	4.83985	0.575433	3.43744	0.76004	12.5511
0.578063	2.67419	0.577698	2.67426	0.811852	4.82269	0.576132	3.42698	0.76063	12.7108
0.57623	2.67455	0.575865	2.67463	0.812415	4.80563	0.576828	3.4166	0.761228	12.8745
0.574397	2.67492	0.574033	2.67499	0.812972	4.78868	0.577521	3.40629	0.761834	13.0424
0.572565	2.67529	0.572201	2.67537	0.813522	4.77184	0.578212	3.39605	0.762448	13.2146
0.570734	2.67567	0.57037	2.67575	0.814066	4.7551	0.578901	3.38589	0.763069	13.3912
0.568904	2.67606	0.56854	2.67613	0.814604	4.73847	0.579587	3.37579	0.763698	13.5724
0.567075	2.67645	0.566711	2.67653	0.815137	4.72194	0.580272	3.36577	0.764333	13.7584
0.565247	2.67685	0.564884	2.67693	0.815663	4.70551	0.580955	3.35583	0.764976	13.9494
0.56342	2.67725	0.563057	2.67734	0.816184	4.68918	0.581636	3.34595	0.765626	14.1456
0.561594	2.67767	0.561231	2.67775	0.816699	4.67296	0.582316	3.33615	0.766282	14.3471
0.559769	2.67809	0.559406	2.67818	0.817209	4.65683	0.582995	3.32642	0.766945	14.5543
0.557945	2.67852	0.557582	2.67861	0.817713	4.64081	0.583673	3.31676	0.767614	14.7672
0.556122	2.67896	0.555759	2.67905	0.818213	4.62489	0.58435	3.30718	0.768289	14.9862
0.5543	2.67941	0.553938	2.6795	0.818707	4.60907	0.585026	3.29767	0.76897	15.2115
0.552479	2.67986	0.552117	2.67996	0.819196	4.59334	0.585701	3.28823	0.769656	15.4434
0.55066	2.68033	0.550298	2.68042	0.819681	4.57772	0.586376	3.27887	0.770348	15.6821
0.548842	2.6808	0.54848	2.6809	0.820161	4.56219	0.587051	3.26958	0.771045	15.928
0.547025	2.68129	0.546664	2.68139	0.820636	4.54676	0.587725	3.26036	0.771747	16.1814
0.54521	2.68178	0.544849	2.68188	0.821107	4.53143	0.5884	3.25121	0.772454	16.4426
0.543396	2.68229	0.543035	2.68239	0.821573	4.5162	0.589074	3.24214	0.773165	16.7119
0.541583	2.68281	0.541223	2.68291	0.822036	4.50106	0.589749	3.23314	0.773881	16.9898
0.539772	2.68333	0.539412	2.68344	0.822494	4.48601	0.590425	3.22421	0.7746	17.2766
0.537963	2.68387	0.537603	2.68398	0.822949	4.47107	0.5911	3.21535	0.775324	17.5728
0.536155	2.68442	0.535796	2.68453	0.823399	4.45622	0.591777	3.20657	0.776051	17.8789
0.534349	2.68498	0.53399	2.6851	0.823846	4.44146	0.592454	3.19785	0.776782	18.1953
0.532544	2.68556	0.532186	2.68568	0.824289	4.42679	0.593132	3.18921	0.777516	18.5225
0.530742	2.68615	0.530383	2.68627	0.824729	4.41223	0.593811	3.18064	0.778252	18.8611
0.528941	2.68675	0.528583	2.68687	0.825166	4.39775	0.594491	3.17214	0.778991	19.2117
0.527142	2.68737	0.526784	2.68749	0.825599	4.38337	0.595172	3.16372	0.779733	19.575
0.525345	2.688	0.524988	2.68813	0.82603	4.36907	0.595855	3.15536	0.780476	19.9516
0.52355	2.68865	0.523193	2.68878	0.826457	4.35487	0.596539	3.14707	0.781221	20.3422
0.521757	2.68931	0.521401	2.68944	0.826882	4.34077	0.597224	3.13886	0.781967	20.7477
0.519967	2.68999	0.519611	2.69012	0.827303	4.32675	0.597911	3.13071	0.782715	21.1689
0.518178	2.69068	0.517823	2.69082	0.827722	4.31282	0.5986	3.12263	0.783463	21.6067
0.516392	2.69139	0.516037	2.69154	0.828139	4.29899	0.599291	3.11463	0.784212	22.0621
0.514609	2.69213	0.514254	2.69227	0.828553	4.28524	0.599984	3.10669	0.784961	22.5362
0.512828	2.69288	0.512474	2.69303	0.828965	4.27159	0.600678	3.09882	0.785709	23.0302
0.511049	2.69364	0.510696	2.6938	0.829375	4.25802	0.601375	3.09102	0.786457	23.5453
0.509274	2.69443	0.508921	2.69459	0.829782	4.24454	0.602074	3.08329	0.787204	24.0828
0.507501	2.69524	0.507149	2.69541	0.830188	4.23115	0.602775	3.07562	0.787949	24.6444
0.505731	2.69607	0.505379	2.69624	0.830592	4.21785	0.603479	3.06803	0.788692	25.2315
0.503964	2.69693	0.503613	2.6971	0.830994	4.20463	0.604185	3.0605	0.789434	25.8461
0.5022	2.69781	0.50185	2.69798	0.831394	4.1915	0.604893	3.05303	0.790172	26.49
0.50044	2.69871	0.50009	2.69889	0.831793	4.17846	0.605604	3.04564	0.790907	27.1654
0.498683	2.69964	0.498334	2.69982	0.832191	4.1655	0.606318	3.03831	0.791639	27.8747
0.496929	2.70059	0.496581	2.70078	0.832587	4.15263	0.607034	3.03105	0.792366	28.6204
0.495179	2.70157	0.494831	2.70177	0.832982	4.13985	0.607753	3.02385	0.793089	29.4055
0.493433	2.70258	0.493086	2.70278	0.833375	4.12715	0.608476	3.01672	0.793806	30.2331
0.491691	2.70362	0.491344	2.70383	0.833768	4.11453	0.609201	3.00965	0.794518	31.1068
0.489952	2.70469	0.489607	2.7049	0.83416	4.102	0.609929	3.00264	0.795223	32.0306
0.488218	2.70579	0.487874	2.70601	0.834551	4.08955	0.61066	2.9957	0.795921	33.0087
0.486489	2.70692	0.486145	2.70715	0.834941	4.07719	0.611394	2.98883	0.796612	34.0464
0.484764	2.70809	0.484421	2.70833	0.83533	4.0649	0.612131	2.98202	0.797294	35.149
0.483043	2.7093	0.482702	2.70954	0.835719	4.0527	0.612872	2.97527	0.797968	36.3229
0.481328	2.71054	0.480987	2.71079	0.836107	4.04058	0.613616	2.96858	0.798631	37.5754
0.479618	2.71182	0.479278	2.71208	0.836495	4.02855	0.614363	2.96196	0.799285	38.9145
0.477913	2.71314	0.477574	2.71341	0.836883	4.01659	0.615113	2.95539	0.799928	40.3495
0.476213	2.71451	0.475876	2.71478	0.83727	4.00472	0.615867	2.94889	0.800558	41.8913
0.474519	2.71591	0.474183	2.7162	0.837658	3.99292	0.616625	2.94245	0.801176	43.5521
0.472832	2.71737	0.472497	2.71766	0.838045	3.98121	0.617386	2.93607	0.801781	45.3465
0.47115	2.71887	0.470816	2.71917	0.838432	3.96957	0.61815	2.92975	0.802372	47.2911
0.469475	2.72042	0.469142	2.72074	0.838819	3.95801	0.618919	2.92349	0.802947	49.4058
0.467806	2.72202	0.467475	2.72235	0.839207	3.94654	0.619691	2.91729	0.803507	51.7141
0.466145	2.72368	0.465815	2.72402	0.839595	3.93514	0.620466	2.91115	0.80405	54.2437
0.46449	2.72539	0.464162	2.72574	0.839983	3.92381	0.621245	2.90506	0.804575	57.0283
0.462843	2.72716	0.462517	2.72752	0.840372	3.91257	0.622029	2.89904	0.805082	60.1087
0.461204	2.729	0.460879	2.72937	0.840761	3.9014	0.622816	2.89307	0.80557	63.5348
0.459573	2.73089	0.45925	2.73128	0.84115	3.89031	0.623606	2.88716	0.806037	67.3684
0.45795	2.73285	0.457629	2.73325	0.841541	3.87929	0.624401	2.88131	0.806482	71.6871
0.456336	2.73488	0.456016	2.7353	0.841932	3.86835	0.6252	2.87551	0.806906	76.5896
0.454731	2.73698	0.454413	2.73741	0.842324	3.85749	0.626002	2.86977	0.807307	82.2031
0.453135	2.73916	0.452819	2.7396	0.842716	3.8467	0.626809	2.86409	0.807684	88.695
0.451549	2.74141	0.451235	2.74187	0.84311	3.83599	0.627619	2.85846	0.808036	96.2896
0.449973	2.74375	0.449661	2.74422	0.843505	3.82534	0.628434	2.85288	0.808363	105.295
0.448407	2.74617	0.448097	2.74666	0.843901	3.81478	0.629252	2.84736	0.808663	116.144
0.446852	2.74867	0.446544	2.74918	0.844298	3.80428	0.630075	2.84189	0.808937	129.471
0.445308	2.75127	0.445002	2.75179	0.844696	3.79386	0.630902	2.83648	0.809183	146.236
0.443776	2.75396	0.443472	2.7545	0.845095	3.78351	0.631733	2.83112	0.8094	167.966
0.442255	2.75674	0.441954	2.75731	0.845496	3.77323	0.632568	2.82582	0.809589	197.256
0.440746	2.75963	0.440448	2.76022	0.845898	3.76303	0.633407	2.82056	0.809748	238.886
0.43925	2.76263	0.438954	2.76323	0.846302	3.75289	0.634251	2.81536	0.809878	302.746
0.437767	2.76573	0.437474	2.76636	0.846707	3.74283	0.635099	2.81021	0.809977	413.142
0.436297	2.76894	0.436007	2.7696	0.847113	3.73284	0.635951	2.80511	0.810046	650.143
0.434841	2.77227	0.434553	2.77295	0.847522	3.72291	0.636807	2.80006	0.810084	1524.51
0.4334	2.77573	0.433114	2.77643	0.847932	3.71306	0.637667	2.79506		
0.431972	2.77931	0.43169	2.78003	0.848344	3.70328	0.638532	2.79011		
0.43056	2.78301	0.430281	2.78377	0.848757	3.69356	0.639401	2.78521		
0.429162	2.78685	0.428886	2.78763	0.849173	3.68391	0.640275	2.78037		
0.427781	2.79083	0.427508	2.79164	0.84959	3.67433	0.641153	2.77556		
0.426415	2.79495	0.426145	2.79579	0.850009	3.66482	0.642035	2.77081		
0.425066	2.79922	0.424799	2.80008	0.850431	3.65538	0.642921	2.76611		
0.423733	2.80363	0.423469	2.80453	0.850854	3.646	0.643812	2.76145		
0.422417	2.8082	0.422157	2.80913	0.85128	3.63669	0.644708	2.75684		
0.421118	2.81293	0.420862	2.81389	0.851708	3.62744	0.645607	2.75228		
0.419837	2.81782	0.419584	2.81882	0.852138	3.61826	0.646512	2.74776		
0.418573	2.82288	0.418324	2.82391	0.85257	3.60914	0.64742	2.74329		
0.417328	2.82811	0.417082	2.82917	0.853005	3.60009	0.648333	2.73887		
0.416101	2.83352	0.415859	2.83461	0.853442	3.59111	0.64925	2.73449		
0.414892	2.8391	0.414654	2.84023	0.853881	3.58219	0.650172	2.73016		
0.413702	2.84487	0.413467	2.84604	0.854323	3.57333	0.651099	2.72587		
0.41253	2.85082	0.4123	2.85203	0.854767	3.56453	0.652029	2.72162		
0.411378	2.85697	0.411151	2.85821	0.855214	3.5558	0.652964	2.71742		
0.410245	2.8633	0.410022	2.86459	0.855664	3.54713	0.653904	2.71326		
0.409131	2.86984	0.408911	2.87117	0.856116	3.53852	0.654848	2.70914		
0.408036	2.87658	0.407821	2.87795	0.856571	3.52998	0.655797	2.70507		
0.406961	2.88353	0.406749	2.88493	0.857028	3.52149	0.65675	2.70104		
0.405905	2.89068	0.405697	2.89213	0.857489	3.51307	0.657708	2.69705		
0.404868	2.89805	0.404664	2.89954	0.857952	3.50471	0.65867	2.69311		
0.403851	2.90563	0.403651	2.90717	0.858418	3.4964	0.659636	2.6892		
0.402854	2.91343	0.402658	2.91501	0.858887	3.48816	0.660607	2.68534		
0.401876	2.92146	0.401684	2.92308	0.859358	3.47998	0.661583	2.68151		
0.400917	2.92971	0.400729	2.93138	0.859833	3.47185	0.662563	2.67773		
0.399978	2.93819	0.399793	2.9399	0.860311	3.46379	0.663547	2.67399		
0.399058	2.9469	0.398877	2.94866	0.860791	3.45578	0.664536	2.67028		
0.398158	2.95585	0.397981	2.95765	0.861275	3.44783	0.66553	2.66662		
0.397276	2.96503	0.397103	2.96689	0.861762	3.43994	0.666528	2.66299		
0.396414	2.97446	0.396245	2.97636	0.862252	3.43211	0.66753	2.65941		
0.395571	2.98413	0.395405	2.98609	0.862745	3.42433	0.668537	2.65586		
0.394747	2.99406	0.394585	2.99606	0.863242	3.41661	0.669549	2.65235		
0.393941	3.00423	0.393783	3.00628	0.863741	3.40895	0.670565	2.64887		
0.393155	3.01466	0.393	3.01676	0.864244	3.40134	0.671585	2.64544		
0.392387	3.02535	0.392236	3.0275	0.86475	3.39379	0.67261	2.64204		
0.391637	3.0363	0.39149	3.03851	0.86526	3.38629	0.673639	2.63867		
0.390906	3.04751	0.390763	3.04977	0.865773	3.37885	0.674673	2.63535		
0.390193	3.059	0.390054	3.06131	0.866289	3.37146	0.675712	2.63206		
0.389499	3.07075	0.389363	3.07312	0.866808	3.36413	0.676755	2.6288		
0.388822	3.08279	0.38869	3.08521	0.867332	3.35685	0.677802	2.62558		
0.388163	3.0951	0.388035	3.09758	0.867858	3.34962	0.678855	2.6224		
0.387523	3.1077	0.387397	3.11024	0.868388	3.34245	0.679911	2.61925		
0.3869	3.12058	0.386778	3.12318	0.868922	3.33533	0.680972	2.61614		
0.386294	3.13376	0.386176	3.13642	0.869459	3.32826	0.682038	2.61306		
0.385706	3.14723	0.385591	3.14995	0.87	3.32125	0.683108	2.61001		
0.385135	3.16101	0.385024	3.16379	0.870544	3.31428	0.684183	2.607		
0.384582	3.17509	0.384474	3.17793	0.871092	3.30737	0.685262	2.60402		
0.384046	3.18948	0.383941	3.19238	0.871644	3.30051	0.686346	2.60108		
0.383526	3.20418	0.383425	3.20714	0.872199	3.2937	0.687434	2.59817		
0.383024	3.2192	0.382926	3.22223	0.872758	3.28694	0.688528	2.59529		
0.382539	3.23455	0.382444	3.23764	0.873321	3.28023	0.689625	2.59245		
0.38207	3.25022	0.381978	3.25338	0.873887	3.27358	0.690728	2.58964		
0.381618	3.26623	0.38153	3.26946	0.874458	3.26697	0.691835	2.58686		
0.381182	3.28258	0.381097	3.28587	0.875032	3.26041	0.692947	2.58411		
0.380763	3.29927	0.380681	3.30263	0.87561	3.2539	0.694064	2.5814		
0.38036	3.31631	0.380282	3.31975	0.876192	3.24744	0.695186	2.57872		
0.379973	3.33371	0.379898	3.33722	0.876777	3.24102	0.696313	2.57607		
0.379603	3.35148	0.379531	3.35505	0.877367	3.23466	0.697445	2.57345		
0.379249	3.36961	0.37918	3.37326	0.877961	3.22834	0.698582	2.57087		
0.37891	3.38811	0.378845	3.39184	0.878558	3.22207	0.699725	2.56832		
0.378588	3.407	0.378526	3.4108	0.879159	3.21585	0.700873	2.56581		
0.378282	3.42627	0.378222	3.43015	0.879765	3.20968	0.702028	2.56333		
0.377991	3.44594	0.377935	3.4499	0.880374	3.20355	0.703188	2.56088		
0.377716	3.46601	0.377663	3.47006	0.880988	3.19747	0.704355	2.55847		
0.377456	3.4865	0.377407	3.49062	0.881606	3.19143	0.705529	2.5561		
0.377212	3.50739	0.377166	3.5116	0.882227	3.18544	0.706711	2.55377		
0.376984	3.52871	0.37694	3.53301	0.882853	3.1795	0.707902	2.55149		
0.376771	3.55047	0.37673	3.55485	0.883483	3.1736	0.709102	2.54925		
0.376573	3.57266	0.376536	3.57713	0.884117	3.16775	0.710314	2.54706		
0.376391	3.59531	0.376356	3.59987	0.884755	3.16194	0.71154	2.54494		
0.376224	3.61841	0.376192	3.62306	0.885398	3.15617	0.712782	2.54288		
0.376072	3.64198	0.376043	3.64672	0.886044	3.15045	0.714046	2.54091		
0.375935	3.66602	0.375909	3.67086	0.886695	3.14478	0.715337	2.53905		
0.375813	3.69055	0.37579	3.69548	0.88735	3.13915	0.716664	2.53732		
0.375706	3.71557	0.375686	3.72061	0.888009	3.13356	0.718038	2.53577		
0.375613	3.74109	0.375597	3.74623	0.888673	3.12801	0.719472	2.53444		
0.375536	3.76713	0.375522	3.77238	0.889341	3.12251	0.720979	2.53337		
0.375473	3.7937	0.375463	3.79905	0.890013	3.11705	0.722565	2.53259		
0.375426	3.8208	0.375418	3.82626	0.89069	3.11163	0.724229	2.53208		
0.375392	3.84845	0.375387	3.85402	0.891371	3.10625	0.72596	2.53181		
0.375373	3.87666	0.375372	3.88234	0.892056	3.10092	0.727745	2.53172		
0.375369	3.90543	0.37537	3.91123	0.892746	3.09563	0.72957	2.53178		
0.375379	3.93479	0.375383	3.94071	0.89344	3.09038	0.731424	2.53193		
0.375404	3.96475	0.375411	3.97078	0.894139	3.08517	0.7333	2.53216		
0.375443	3.99531	0.375452	4.00147	0.894842	3.08	0.735191	2.53244		
0.375496	4.0265	0.375508	4.03277	0.89555	3.07488	0.737093	2.53276		
0.375563	4.05831	0.375578	4.06472	0.896262	3.06979	0.739005	2.53311		
0.375645	4.09078	0.375662	4.09732	0.896978	3.06474	0.740923	2.53348		
0.37574	4.12391	0.375761	4.13058	0.897699	3.05974	0.742847	2.53387		
0.375849	4.15772	0.375873	4.16453	0.898425	3.05477	0.744774	2.53426		
0.375973	4.19222	0.375999	4.19917	0.899156	3.04984	0.746705	2.53467		
0.37611	4.22743	0.376139	4.23453	0.899891	3.04495	0.748638	2.53508		
0.376261	4.26337	0.376292	4.27061	0.90063	3.04011	0.750574	2.5355		
0.376425	4.30006	0.37646	4.30744	0.901374	3.0353	0.752511	2.53593		
0.376604	4.3375	0.376641	4.34504	0.902123	3.03053	0.75445	2.53635		
0.376795	4.37572	0.376835	4.38342	0.902877	3.0258	0.75639	2.53678		
0.377001	4.41474	0.377043	4.4226	0.903635	3.0211	0.758331	2.53721		
0.37722	4.45458	0.377265	4.4626	0.904398	3.01645	0.760272	2.53764		
0.377452	4.49525	0.377499	4.50344	0.905166	3.01183	0.762215	2.53807		
0.377697	4.53678	0.377747	4.54515	0.905939	3.00725	0.764158	2.5385		
0.377955	4.57919	0.378008	4.58774	0.906716	3.00271	0.766101	2.53893		
0.378227	4.6225	0.378283	4.63123	0.907498	2.9982	0.768045	2.53935		
0.378512	4.66674	0.37857	4.67565	0.908285	2.99374	0.769989	2.53978		
0.378809	4.71192	0.37887	4.72102	0.909077	2.98931	0.771933	2.54021		
0.37912	4.75807	0.379183	4.76737	0.909874	2.98491	0.773877	2.54063		
0.379443	4.80522	0.379509	4.81473	0.910676	2.98056	0.775822	2.54105		
0.379779	4.8534	0.379848	4.86311	0.911483	2.97624	0.777767	2.54148		
0.380128	4.90263	0.380199	4.91255	0.912295	2.97195	0.779712	2.54189		
0.380489	4.95293	0.380562	4.96307	0.913112	2.9677	0.781656	2.54231		
0.380863	5.00434	0.380938	5.01471	0.913933	2.96349	0.783601	2.54273		
0.381249	5.0569	0.381327	5.06749	0.91476	2.95932	0.785546	2.54314		
0.381647	5.11062	0.381728	5.12145	0.915592	2.95518	0.787491	2.54355		
0.382057	5.16554	0.38214	5.17662	0.916429	2.95107	0.789436	2.54396		
0.38248	5.2217	0.382565	5.23303	0.917272	2.947	0.791381	2.54437		
0.382914	5.27913	0.383002	5.29072	0.918119	2.94297	0.793325	2.54478		
0.383361	5.33788	0.383451	5.34972	0.918972	2.93897	0.79527	2.54518		
0.383819	5.39796	0.383911	5.41008	0.91983	2.93501	0.797214	2.54558		
0.384228	5.45145	0.384383	5.47184	0.920693	2.93108	0.799159	2.54598		
0.384583	5.4979	0.384867	5.53503	0.921561	2.92718	0.801103	2.54638		
0.384882	5.53692	0.385362	5.5997	0.922435	2.92333	0.803047	2.54678		
0.385121	5.56816	0.385869	5.66589	0.923314	2.9195	0.804991	2.54717		
0.385299	5.59136	0.386387	5.73365	0.924199	2.91571	0.806935	2.54756		
0.385463	5.61288	0.386916	5.80303	0.925089	2.91195	0.808879	2.54795		
0.385579	5.62794	0.387456	5.87408	0.925984	2.90823	0.810823	2.54833		
0.38576	5.65164	0.388006	5.94686	0.926885	2.90454	0.812766	2.54872		
0.386009	5.68419	0.388568	6.02142	0.927792	2.90089	0.814709	2.5491		
0.386327	5.72589	0.38914	6.09781	0.928704	2.89727	0.816652	2.54948		
0.386718	5.77714	0.389723	6.1761	0.929622	2.89368	0.818595	2.54986		
0.387185	5.83842	0.390316	6.25635	0.930546	2.89012	0.820538	2.55023		
0.38773	5.91033	0.39092	6.33862	0.931475	2.8866	0.822481	2.55061		
0.388286	5.98399	0.391533	6.42299	0.93241	2.88312	0.824423	2.55098		
0.388853	6.05946	0.392157	6.50953	0.933351	2.87966	0.826366	2.55135		
0.389431	6.13679	0.392791	6.59832	0.934298	2.87624	0.828308	2.55171		
0.390019	6.21605	0.393434	6.68942	0.93525	2.87286	0.83025	2.55208		
0.390617	6.29731	0.394087	6.78294	0.936209	2.8695	0.832191	2.55244		
0.391226	6.38063	0.39475	6.87894	0.937173	2.86618	0.834133	2.5528		
0.391845	6.46608	0.395421	6.97754	0.938144	2.86289	0.836074	2.55316		
0.392473	6.55373	0.396102	7.07881	0.939121	2.85964	0.838015	2.55351		
0.393112	6.64367	0.396792	7.18287	0.940104	2.85642	0.839956	2.55386		
0.39376	6.73597	0.397491	7.28982	0.941093	2.85323	0.841897	2.55422		
0.394418	6.83072	0.398199	7.39977	0.942088	2.85007	0.843838	2.55457		
0.395085	6.92801	0.398915	7.51284	0.94309	2.84695	0.845778	2.55491		
0.395762	7.02794	0.399639	7.62916	0.944098	2.84385	0.847718	2.55526		
0.396447	7.13059	0.400372	7.74885	0.945113	2.8408	0.849658	2.5556		
0.397142	7.23609	0.401113	7.87205	0.946134	2.83777	0.851598	2.55594		
0.397845	7.34452	0.401861	7.99892	0.947162	2.83478	0.853537	2.55628		
0.398557	7.45602	0.402617	8.1296	0.948196	2.83182	0.855477	2.55662		
0.399277	7.5707	0.403381	8.26426	0.949237	2.82889	0.857416	2.55695		
0.400006	7.68869	0.404152	8.40308	0.950285	2.82599	0.859355	2.55728		
0.400742	7.81013	0.40493	8.54622	0.951339	2.82313	0.861293	2.55761		
0.401487	7.93515	0.405715	8.6939	0.952401	2.8203	0.863232	2.55794		
0.402239	8.06391	0.406506	8.84632	0.953469	2.8175	0.86517	2.55827		
0.402999	8.19656	0.407304	9.00369	0.954545	2.81474	0.867108	2.55859		
0.403766	8.33328	0.408108	9.16626	0.955628	2.812	0.869046	2.55892		
0.404541	8.47424	0.408813	9.31234	0.956717	2.8093	0.870984	2.55924		
0.405322	8.61964	0.409418	9.44027	0.957815	2.80664	0.872921	2.55956		
0.40611	8.76966	0.40992	9.5485	0.958919	2.804	0.874858	2.55987		
0.406905	8.92454	0.410319	9.63569	0.960031	2.8014	0.876795	2.56019		
0.407706	9.08448	0.410613	9.70073	0.96115	2.79883	0.878732	2.5605		
0.408513	9.24974	0.410884	9.76128	0.962277	2.79629	0.880669	2.56081		
0.409326	9.42056	0.411073	9.8038	0.963412	2.79379	0.882605	2.56112		
0.410144	9.59723	0.411369	9.87093	0.964554	2.79131	0.884541	2.56143		
0.410968	9.78003	0.411772	9.96359	0.965704	2.78888	0.886477	2.56173		
0.411796	9.96928	0.412283	10.0831	0.966862	2.78647	0.888412	2.56203		
0.41263	10.1653	0.412904	10.2311	0.968027	2.7841	0.890348	2.56234		
0.413467	10.3685	0.413635	10.4098	0.969201	2.78175	0.892283	2.56263		
0.41431	10.5792	0.414478	10.622	0.970383	2.77945	0.894218	2.56293		
0.415156	10.7978	0.415324	10.8423	0.971573	2.77717	0.896153	2.56323		
0.416005	11.0248	0.416174	11.071	0.972772	2.77493	0.898087	2.56352		
0.416858	11.2606	0.417028	11.3087	0.973978	2.77272	0.900021	2.56381		
0.417713	11.5058	0.417884	11.5558	0.975194	2.77054	0.901955	2.5641		
0.418572	11.761	0.418742	11.813	0.976417	2.7684	0.903889	2.56439		
0.419432	12.0266	0.419603	12.0808	0.977649	2.76629	0.905823	2.56468		
0.420294	12.3034	0.420465	12.3599	0.97889	2.76421	0.907756	2.56496		
0.421157	12.5921	0.421329	12.651	0.980139	2.76216	0.909689	2.56524		
0.422021	12.8934	0.422193	12.9549	0.981397	2.76015	0.911622	2.56553		
0.422886	13.2082	0.423058	13.2725	0.982664	2.75817	0.913555	2.5658		
0.423751	13.5373	0.423923	13.6046	0.98394	2.75622	0.915487	2.56608		
0.424615	13.8818	0.424787	13.9523	0.985224	2.75431	0.917419	2.56636		
0.425479	14.2428	0.42565	14.3167	0.986517	2.75242	0.919351	2.56663		
0.426341	14.6214	0.426512	14.6989	0.98782	2.75057	0.921283	2.5669		
0.4272	15.0189	0.427371	15.1004	0.989131	2.74876	0.923215	2.56717		
0.428058	15.4369	0.428228	15.5226	0.990452	2.74697	0.925146	2.56744		
0.428912	15.8768	0.429081	15.9671	0.991781	2.74522	0.927077	2.56771		
0.429762	16.3405	0.429931	16.4358	0.99312	2.7435	0.929007	2.56797		
0.430608	16.83	0.430775	16.9306	0.994467	2.74181	0.930938	2.56824		
0.431448	17.3473	0.431615	17.4538	0.995824	2.74015	0.932868	2.5685		
0.432283	17.895	0.432448	18.0078	0.99719	2.73852	0.934798	2.56876		
0.433111	18.4758	0.433275	18.5956	0.998565	2.73693	0.936728	2.56902		
0.433932	19.0928	0.434094	19.2202	0.999949	2.73536	0.938658	2.56927		
0.434744	19.7495	0.434905	19.8852	1.00134	2.73383	0.940587	2.56953		
0.435547	20.4498	0.435706	20.5948			0.942516	2.56978		
0.436341	21.1983	0.436497	21.3534			0.944445	2.57003		
0.437123	22.0001	0.437277	22.1664			0.946373	2.57028		
0.437894	22.861	0.438045	23.04			0.948301	2.57053		
0.438651	23.788	0.4388	23.981			0.950229	2.57078		
0.439395	24.7889	0.439541	24.9977			0.952157	2.57102		
0.440123	25.8731	0.440266	26.0996			0.954085	2.57127		
0.440836	27.0513	0.440975	27.298			0.956012	2.57151		
0.441531	28.3365	0.441667	28.6062			0.957939	2.57175		
0.442207	29.7439	0.442339	30.0401			0.959866	2.57199		
0.442864	31.2922	0.442992	31.6189			0.961792	2.57222		
0.4435	33.0035	0.443623	33.3657			0.963719	2.57246		
0.444113	34.9052	0.444232	35.3092			0.965644	2.57269		
0.444703	37.0314	0.444817	37.4847			0.96757	2.57293		
0.445268	39.4243	0.445377	39.9367			0.969496	2.57316		
0.445806	42.1381	0.44591	42.722			0.971421	2.57339		
0.446318	45.2421	0.446416	45.9138			0.973346	2.57361		
0.4468	48.8279	0.446892	49.6088			0.97527	2.57384		
0.447252	53.0175	0.447338	53.9368			0.977195	2.57406		
0.447673	57.9785	0.447753	59.0767			0.979119	2.57429		
0.448061	63.9468	0.448134	65.2819			0.981043	2.57451		
0.448415	71.2653	0.448482	72.9235			0.982966	2.57473		
0.448735	80.4527	0.448794	82.568			0.984889	2.57495		
0.449018	92.3327	0.44907	95.1245			0.986812	2.57516		
0.449265	108.297	0.449309	112.151			0.988735	2.57538		
0.449474	130.893	0.449511	136.558			0.990658	2.57559		
0.449644	165.352	0.449673	174.486			0.99258	2.5758		
0.449776	224.357	0.449797	241.494			0.994502	2.57601		
0.449868	348.692	0.449881	391.889			0.996423	2.57622		
0.44992	781.681	0.449926	1038.12			0.998344	2.57643		
						1.00027	2.57664		
