Sym0		Asym0		Sym1		Sym2		Asym1		Asym2	
622  Points		621  Points		622  Points		584  Points		621  Points		260  Points	
Freq (MHz)	Vph (m/ms)	Freq (MHz)	Vph (m/ms)	Freq (MHz)	Vph (m/ms)	Freq (MHz)	Vph (m/ms)	Freq (MHz)	Vph (m/ms)	Freq (MHz)	Vph (m/ms)
1.00119	2.58666	0.346118	787.519	1.00072	2.58701	0.692221	2367.56	0.346114	1104.17	1.0012	6.26193
0.999927	2.5876	0.346158	324.224	0.999456	2.58794	0.692245	752.01	0.346147	367.613	0.999025	6.27299
0.99866	2.58852	0.346233	204.171	0.998188	2.58887	0.692293	447.023	0.346215	220.553	0.996854	6.28415
0.997391	2.58945	0.346341	149.031	0.996918	2.58979	0.692365	318.062	0.346317	157.567	0.994683	6.29539
0.996119	2.59037	0.346484	117.369	0.995644	2.59071	0.692462	246.87	0.346453	122.592	0.992513	6.30673
0.994844	2.59129	0.34666	96.8257	0.994368	2.59163	0.692583	201.736	0.346622	100.348	0.990344	6.31817
0.993566	2.5922	0.34687	82.4232	0.993089	2.59254	0.692729	170.57	0.346825	84.9571	0.988177	6.32971
0.992285	2.59311	0.347113	71.7688	0.991807	2.59345	0.692898	147.758	0.347061	73.6782	0.986012	6.34135
0.991001	2.59401	0.347389	63.5698	0.990522	2.59435	0.693092	130.34	0.347331	65.0598	0.983849	6.35311
0.989713	2.59491	0.347699	57.0668	0.989233	2.59524	0.69331	116.607	0.347634	58.2614	0.981688	6.36497
0.988423	2.5958	0.348042	51.7843	0.987941	2.59613	0.693551	105.501	0.347971	52.7632	0.979531	6.37696
0.987128	2.59668	0.348418	47.4093	0.986646	2.59701	0.693816	96.3365	0.34834	48.2258	0.977377	6.38906
0.985831	2.59756	0.348826	43.7274	0.985347	2.59789	0.694105	88.6451	0.348741	44.4186	0.975226	6.40129
0.984529	2.59843	0.349266	40.5867	0.984044	2.59876	0.694417	82.0988	0.349175	41.1793	0.97308	6.41364
0.983224	2.5993	0.349739	37.8769	0.982737	2.59962	0.694753	76.4602	0.349642	38.3904	0.970938	6.42613
0.981915	2.60016	0.350244	35.5155	0.981427	2.60047	0.695111	71.5532	0.35014	35.9646	0.968801	6.43875
0.980602	2.60101	0.35078	33.4399	0.980113	2.60132	0.695493	67.2444	0.35067	33.8359	0.966668	6.45152
0.979286	2.60185	0.351348	31.6016	0.978794	2.60216	0.695897	63.4311	0.351231	31.9534	0.964542	6.46442
0.977965	2.60268	0.351947	29.9626	0.977472	2.60299	0.696323	60.0328	0.351824	30.2771	0.962421	6.47748
0.97664	2.60351	0.352576	28.4925	0.976146	2.60381	0.696772	56.9854	0.352447	28.7752	0.960306	6.49069
0.975311	2.60433	0.353236	27.1668	0.974815	2.60463	0.697243	54.2376	0.353101	27.4223	0.958198	6.50405
0.973977	2.60514	0.353925	25.9655	0.97348	2.60544	0.697736	51.7474	0.353785	26.1974	0.956097	6.51758
0.97264	2.60594	0.354645	24.872	0.972141	2.60623	0.69825	49.4804	0.354498	25.0835	0.954003	6.53127
0.971298	2.60673	0.355394	23.8729	0.970797	2.60702	0.698785	47.4081	0.355241	24.0664	0.951916	6.54513
0.969951	2.60751	0.356171	22.9565	0.969449	2.6078	0.699342	45.5065	0.356013	23.1342	0.949838	6.55917
0.9686	2.60828	0.356978	22.1132	0.968097	2.60857	0.699919	43.7556	0.356814	22.2769	0.947767	6.57338
0.967245	2.60905	0.357812	21.3347	0.96674	2.60933	0.700517	42.1383	0.357643	21.4861	0.945706	6.58779
0.965886	2.6098	0.358675	20.6141	0.965378	2.61008	0.701135	40.6399	0.358499	20.7543	0.943653	6.60238
0.964521	2.61055	0.359564	19.9451	0.964012	2.61082	0.701773	39.2479	0.359384	20.0755	0.94161	6.61716
0.963153	2.61128	0.360481	19.3227	0.962642	2.61155	0.702431	37.9514	0.360295	19.4441	0.939576	6.63215
0.96178	2.61201	0.361424	18.7422	0.961267	2.61228	0.703108	36.7411	0.361233	18.8555	0.937552	6.64734
0.960402	2.61272	0.362394	18.1997	0.959888	2.61299	0.703804	35.6086	0.362197	18.3057	0.935539	6.66274
0.95902	2.61343	0.363389	17.6915	0.958504	2.61369	0.704519	34.5469	0.363187	17.7909	0.933537	6.67835
0.957633	2.61412	0.364409	17.2148	0.957116	2.61438	0.705252	33.5494	0.364202	17.308	0.931545	6.69419
0.956242	2.61481	0.365454	16.7666	0.955723	2.61506	0.706004	32.6107	0.365243	16.8544	0.929566	6.71025
0.954846	2.61549	0.366524	16.3447	0.954325	2.61574	0.706774	31.7258	0.366307	16.4273	0.927598	6.72654
0.953446	2.61615	0.367618	15.9467	0.952923	2.6164	0.707561	30.8901	0.367396	16.0247	0.925642	6.74308
0.952041	2.61681	0.368735	15.5709	0.951517	2.61705	0.708365	30.0998	0.368509	15.6446	0.923698	6.75985
0.950632	2.61745	0.369875	15.2155	0.950106	2.61769	0.709186	29.3513	0.369645	15.2852	0.921768	6.77688
0.949218	2.61809	0.371038	14.8788	0.948691	2.61832	0.710024	28.6414	0.370803	14.945	0.919851	6.79416
0.9478	2.61872	0.372223	14.5596	0.947272	2.61895	0.710878	27.9672	0.371984	14.6223	0.917948	6.81171
0.946378	2.61933	0.37343	14.2566	0.945848	2.61956	0.711749	27.3261	0.373187	14.3161	0.916058	6.82952
0.944952	2.61994	0.374659	13.9685	0.944419	2.62016	0.712635	26.7158	0.374411	14.0251	0.914183	6.84761
0.943521	2.62054	0.375908	13.6943	0.942987	2.62076	0.713536	26.1342	0.375656	13.7483	0.912323	6.86598
0.942086	2.62112	0.377178	13.4332	0.941551	2.62134	0.714452	25.5793	0.376921	13.4846	0.910477	6.88464
0.940647	2.6217	0.378467	13.1842	0.94011	2.62191	0.715384	25.0493	0.378207	13.2332	0.908648	6.90359
0.939203	2.62227	0.379777	12.9465	0.938665	2.62248	0.716329	24.5426	0.379512	12.9933	0.906834	6.92285
0.937756	2.62283	0.381105	12.7194	0.937216	2.62303	0.717289	24.0577	0.380837	12.7642	0.905036	6.94241
0.936305	2.62338	0.382452	12.5023	0.935763	2.62358	0.718263	23.5933	0.38218	12.5451	0.903254	6.9623
0.934849	2.62392	0.383818	12.2944	0.934306	2.62412	0.71925	23.1481	0.383542	12.3354	0.90149	6.9825
0.93339	2.62445	0.385201	12.0954	0.932846	2.62464	0.72025	22.721	0.384922	12.1347	0.899742	7.00304
0.931927	2.62497	0.386602	11.9046	0.931381	2.62516	0.721264	22.3108	0.386319	11.9422	0.898013	7.02392
0.93046	2.62549	0.388019	11.7215	0.929913	2.62567	0.722289	21.9167	0.387733	11.7576	0.896301	7.04514
0.928989	2.62599	0.389454	11.5457	0.928441	2.62618	0.723328	21.5377	0.389164	11.5804	0.894607	7.06672
0.927515	2.62649	0.390904	11.3769	0.926965	2.62667	0.724378	21.173	0.390612	11.4102	0.892932	7.08866
0.926037	2.62697	0.39237	11.2145	0.925486	2.62715	0.72544	20.8217	0.392075	11.2466	0.891276	7.11098
0.924556	2.62745	0.393852	11.0583	0.924004	2.62763	0.726513	20.4832	0.393553	11.0892	0.88964	7.13367
0.923071	2.62792	0.395348	10.908	0.922517	2.6281	0.727598	20.1568	0.395046	10.9377	0.888023	7.15675
0.921583	2.62839	0.396859	10.7631	0.921028	2.62856	0.728693	19.8419	0.396554	10.7917	0.886425	7.18023
0.920091	2.62884	0.398384	10.6235	0.919535	2.62901	0.729799	19.5378	0.398077	10.6511	0.884849	7.20411
0.918596	2.62929	0.399922	10.4888	0.918039	2.62946	0.730915	19.2441	0.399612	10.5155	0.883292	7.22841
0.917098	2.62973	0.401474	10.3589	0.91654	2.62989	0.732042	18.9602	0.401162	10.3846	0.881757	7.25313
0.915597	2.63016	0.403039	10.2334	0.915037	2.63032	0.733178	18.6856	0.402724	10.2582	0.880243	7.27828
0.914092	2.63059	0.404616	10.1122	0.913532	2.63075	0.734323	18.4199	0.404299	10.1362	0.878751	7.30388
0.912585	2.63101	0.406206	9.99497	0.912023	2.63116	0.735477	18.1627	0.405681	10.0331	0.87728	7.32993
0.911075	2.63142	0.407807	9.88164	0.910512	2.63157	0.736641	17.9135	0.406867	9.94764	0.875832	7.35643
0.909561	2.63182	0.40942	9.77198	0.908997	2.63197	0.737813	17.6721	0.407852	9.87853	0.874406	7.38341
0.908045	2.63222	0.411043	9.66581	0.90748	2.63237	0.738993	17.438	0.408634	9.82487	0.873003	7.41087
0.906526	2.63261	0.412677	9.56298	0.90596	2.63275	0.740182	17.2109	0.409211	9.78595	0.871622	7.43882
0.905005	2.63299	0.414322	9.46334	0.904437	2.63314	0.741378	16.9906	0.40958	9.76128	0.870265	7.46727
0.90348	2.63337	0.415976	9.36673	0.902912	2.63351	0.742582	16.7767	0.410113	9.72613	0.868932	7.49623
0.901953	2.63374	0.417639	9.27303	0.901384	2.63388	0.743793	16.5689	0.410693	9.68835	0.867622	7.52571
0.900424	2.63411	0.419312	9.18211	0.899854	2.63424	0.745011	16.367	0.411485	9.63765	0.866336	7.55573
0.898892	2.63447	0.420994	9.09384	0.898321	2.6346	0.746236	16.1708	0.412489	9.57464	0.865075	7.58629
0.897358	2.63482	0.422683	9.00812	0.896786	2.63495	0.747468	15.9799	0.413709	9.50005	0.863838	7.6174
0.895821	2.63517	0.424381	8.92483	0.895248	2.6353	0.748706	15.7943	0.415146	9.41473	0.862625	7.64907
0.894282	2.63551	0.426087	8.84387	0.893708	2.63564	0.749949	15.6136	0.416805	9.31959	0.861438	7.68133
0.89274	2.63585	0.4278	8.76514	0.892166	2.63597	0.751199	15.4378	0.418473	9.22729	0.860275	7.71417
0.891197	2.63618	0.42952	8.68856	0.890621	2.6363	0.752454	15.2665	0.420151	9.13771	0.859137	7.74761
0.889651	2.63651	0.431246	8.61403	0.889075	2.63663	0.753715	15.0996	0.421836	9.05073	0.858025	7.78166
0.888103	2.63683	0.432979	8.54147	0.887526	2.63695	0.754981	14.937	0.42353	8.96623	0.856939	7.81633
0.886553	2.63714	0.434717	8.4708	0.885976	2.63726	0.756251	14.7785	0.425232	8.88411	0.855878	7.85164
0.885001	2.63746	0.436462	8.40195	0.884423	2.63757	0.757526	14.6239	0.426941	8.80428	0.854842	7.8876
0.883447	2.63776	0.438211	8.33484	0.882868	2.63788	0.758806	14.4731	0.428658	8.72664	0.853833	7.92421
0.881891	2.63807	0.439965	8.26941	0.881312	2.63818	0.76009	14.3259	0.430381	8.65109	0.852849	7.9615
0.880333	2.63836	0.441724	8.20559	0.879753	2.63847	0.761377	14.1823	0.432111	8.57755	0.851892	7.99946
0.878774	2.63866	0.443487	8.14332	0.878193	2.63876	0.762669	14.0421	0.433846	8.50595	0.850961	8.03813
0.877212	2.63895	0.445254	8.08254	0.876631	2.63905	0.763963	13.9051	0.435588	8.43619	0.850055	8.07751
0.875649	2.63923	0.447025	8.02319	0.875067	2.63934	0.765261	13.7713	0.437335	8.36822	0.849176	8.11761
0.874084	2.63951	0.448799	7.96523	0.873501	2.63961	0.766563	13.6405	0.439087	8.30196	0.848324	8.15845
0.872518	2.63979	0.450575	7.90859	0.871934	2.63989	0.767866	13.5126	0.440843	8.23734	0.847497	8.20004
0.87095	2.64006	0.452354	7.85323	0.870365	2.64016	0.769173	13.3877	0.442604	8.17431	0.846697	8.24239
0.86938	2.64033	0.454136	7.79911	0.868795	2.64043	0.770482	13.2654	0.444369	8.11279	0.845923	8.28552
0.867809	2.64059	0.455919	7.74617	0.867223	2.64069	0.771793	13.1458	0.446138	8.05273	0.845175	8.32944
0.866236	2.64086	0.457703	7.69437	0.86565	2.64095	0.773106	13.0288	0.44791	7.99408	0.844454	8.37417
0.864661	2.64111	0.459489	7.64368	0.864075	2.64121	0.774421	12.9142	0.449685	7.93678	0.843758	8.41972
0.863086	2.64137	0.461276	7.59405	0.862499	2.64146	0.775737	12.8021	0.451463	7.88079	0.843089	8.46611
0.861508	2.64162	0.463063	7.54544	0.860921	2.64171	0.777054	12.6922	0.453243	7.82605	0.842446	8.51335
0.85993	2.64187	0.464851	7.49782	0.859342	2.64196	0.778373	12.5847	0.455026	7.77253	0.841828	8.56145
0.85835	2.64211	0.466638	7.45116	0.857761	2.6422	0.779693	12.4793	0.45681	7.72016	0.841236	8.61044
0.856769	2.64236	0.468425	7.40541	0.85618	2.64244	0.781013	12.376	0.458595	7.66892	0.840671	8.66033
0.855186	2.64259	0.470211	7.36055	0.854597	2.64268	0.782334	12.2747	0.460381	7.61876	0.84013	8.71114
0.853602	2.64283	0.471995	7.31655	0.853013	2.64292	0.783655	12.1754	0.462168	7.56965	0.839615	8.76287
0.852017	2.64306	0.473779	7.27337	0.851427	2.64315	0.784976	12.0781	0.463956	7.52154	0.839126	8.81556
0.850431	2.64329	0.47556	7.23099	0.84984	2.64338	0.786297	11.9826	0.465743	7.4744	0.838661	8.86921
0.848844	2.64352	0.47734	7.18938	0.848253	2.6436	0.787618	11.8889	0.46753	7.4282	0.838222	8.92384
0.847255	2.64375	0.479117	7.14852	0.846664	2.64383	0.788938	11.797	0.469317	7.3829	0.837808	8.97948
0.845666	2.64397	0.480891	7.10837	0.845074	2.64405	0.790257	11.7068	0.471102	7.33848	0.837418	9.03613
0.844075	2.64419	0.482662	7.06891	0.843483	2.64427	0.791576	11.6182	0.472886	7.29489	0.837052	9.09383
0.842483	2.6444	0.48443	7.03012	0.84189	2.64448	0.792893	11.5312	0.474669	7.25211	0.836711	9.15258
0.84089	2.64462	0.486193	6.99198	0.840297	2.6447	0.794209	11.4458	0.476449	7.21012	0.836394	9.21241
0.839297	2.64483	0.487953	6.95446	0.838703	2.64491	0.795524	11.3619	0.478228	7.16889	0.836101	9.27334
0.837702	2.64504	0.489708	6.91755	0.837108	2.64512	0.796837	11.2794	0.480003	7.12838	0.835831	9.33539
0.836106	2.64525	0.491458	6.88121	0.835512	2.64533	0.798147	11.1984	0.481776	7.08858	0.835585	9.39858
0.834509	2.64546	0.493203	6.84544	0.833915	2.64553	0.799456	11.1188	0.483545	7.04946	0.835362	9.46293
0.832912	2.64566	0.494943	6.81021	0.832317	2.64573	0.800763	11.0405	0.485311	7.011	0.835162	9.52846
0.831313	2.64586	0.496677	6.77551	0.830718	2.64594	0.802067	10.9635	0.487073	6.97317	0.834984	9.5952
0.829714	2.64606	0.498404	6.74131	0.829118	2.64613	0.803368	10.8878	0.48883	6.93595	0.834829	9.66317
0.828114	2.64626	0.500125	6.7076	0.827518	2.64633	0.8045	10.8229	0.490583	6.89933	0.834696	9.7324
0.826513	2.64645	0.50184	6.67436	0.825916	2.64653	0.805463	10.7682	0.49233	6.86328	0.834585	9.8029
0.824911	2.64665	0.503547	6.64158	0.824314	2.64672	0.806257	10.7236	0.494073	6.82778	0.834496	9.87471
0.823308	2.64684	0.505246	6.60924	0.822711	2.64691	0.806885	10.6885	0.49581	6.79282	0.834428	9.94784
0.821705	2.64703	0.506938	6.57732	0.821107	2.6471	0.807346	10.6629	0.49754	6.75837	0.834381	10.0223
0.8201	2.64722	0.508621	6.54581	0.819503	2.64729	0.807641	10.6467	0.499265	6.72441	0.834355	10.0982
0.818495	2.64741	0.510296	6.5147	0.817898	2.64748	0.808064	10.6233	0.500982	6.69094	0.834349	10.1755
0.81689	2.64759	0.511962	6.48398	0.816292	2.64766	0.808524	10.5981	0.502693	6.65793	0.834364	10.2542
0.815283	2.64778	0.513619	6.45362	0.814685	2.64784	0.809149	10.5641	0.504396	6.62537	0.834399	10.3345
0.813676	2.64796	0.515267	6.42362	0.813078	2.64803	0.809938	10.5214	0.506092	6.59325	0.834454	10.4162
0.812068	2.64814	0.516904	6.39396	0.81147	2.64821	0.810889	10.4703	0.50778	6.56154	0.834517	10.4886
0.81046	2.64832	0.518531	6.36464	0.809861	2.64839	0.812003	10.411	0.509459	6.53023	0.834582	10.5513
0.808851	2.6485	0.520148	6.33563	0.808252	2.64856	0.813277	10.3441	0.511129	6.49931	0.834644	10.6038
0.807241	2.64867	0.521754	6.30694	0.806642	2.64874	0.814547	10.2781	0.512791	6.46877	0.834699	10.6458
0.805631	2.64885	0.523349	6.27855	0.805031	2.64892	0.815813	10.2131	0.514443	6.4386	0.834741	10.6769
0.80402	2.64903	0.524932	6.25044	0.80342	2.64909	0.817073	10.1491	0.516086	6.40877	0.834783	10.7057
0.802408	2.6492	0.526504	6.22261	0.801808	2.64926	0.818329	10.086	0.517718	6.37928	0.834812	10.7258
0.800796	2.64937	0.528063	6.19504	0.800196	2.64943	0.81958	10.0238	0.51934	6.35012	0.834861	10.7574
0.799184	2.64954	0.52961	6.16774	0.798583	2.6496	0.820825	9.96251	0.520951	6.32127	0.834931	10.8008
0.79757	2.64971	0.531144	6.14069	0.79697	2.64977	0.822065	9.90207	0.522552	6.29272	0.835025	10.8562
0.795957	2.64988	0.532665	6.11387	0.795356	2.64994	0.823299	9.84246	0.524141	6.26447	0.835149	10.9241
0.794343	2.65005	0.534173	6.08729	0.793742	2.65011	0.824528	9.78368	0.525718	6.23651	0.835306	11.0049
0.792728	2.65021	0.535667	6.06094	0.792127	2.65028	0.825751	9.7257	0.527284	6.20881	0.835503	11.0994
0.791113	2.65038	0.537148	6.03479	0.790511	2.65044	0.826967	9.66849	0.528837	6.18138	0.835717	11.1957
0.789497	2.65055	0.538614	6.00886	0.788895	2.65061	0.828177	9.61205	0.530378	6.1542	0.835948	11.2938
0.787881	2.65071	0.540066	5.98313	0.787279	2.65077	0.829381	9.55635	0.531905	6.12727	0.836195	11.3938
0.786264	2.65087	0.541503	5.95759	0.785662	2.65093	0.830577	9.50137	0.53342	6.10057	0.836459	11.4958
0.784647	2.65103	0.542925	5.93224	0.784045	2.65109	0.831767	9.4471	0.534921	6.0741	0.836739	11.5998
0.783029	2.6512	0.544331	5.90707	0.782427	2.65126	0.83295	9.39352	0.536408	6.04786	0.837035	11.7058
0.781411	2.65136	0.545723	5.88207	0.780809	2.65142	0.834126	9.34061	0.537882	6.02182	0.837346	11.814
0.779793	2.65152	0.547098	5.85724	0.77919	2.65158	0.835294	9.28836	0.539341	5.99599	0.837673	11.9243
0.778174	2.65168	0.548458	5.83257	0.777572	2.65174	0.836455	9.23675	0.540785	5.97035	0.838014	12.0368
0.776555	2.65183	0.549802	5.80806	0.775952	2.65189	0.837609	9.18577	0.542215	5.94491	0.838371	12.1515
0.774936	2.65199	0.551129	5.7837	0.774332	2.65205	0.838754	9.13539	0.543629	5.91965	0.838741	12.2686
0.773316	2.65215	0.552439	5.75949	0.772712	2.65221	0.839891	9.08562	0.545028	5.89456	0.839126	12.388
0.771695	2.65231	0.553733	5.73542	0.771092	2.65237	0.84102	9.03643	0.546412	5.86965	0.839525	12.5099
0.770075	2.65246	0.55501	5.71149	0.769471	2.65252	0.842141	8.98781	0.547779	5.8449	0.839937	12.6343
0.768454	2.65262	0.55627	5.68768	0.76785	2.65268	0.843253	8.93975	0.549131	5.82031	0.840362	12.7613
0.766832	2.65277	0.557513	5.66401	0.766229	2.65283	0.844356	8.89223	0.550466	5.79588	0.840801	12.8909
0.765211	2.65293	0.558738	5.64046	0.764607	2.65299	0.845451	8.84525	0.551785	5.77159	0.841252	13.0233
0.763589	2.65308	0.559945	5.61704	0.762985	2.65314	0.846537	8.79878	0.553087	5.74745	0.841716	13.1584
0.761966	2.65324	0.561135	5.59373	0.761362	2.6533	0.847614	8.75283	0.554373	5.72345	0.842192	13.2964
0.760344	2.65339	0.562308	5.57053	0.75974	2.65345	0.848681	8.70737	0.555641	5.69958	0.84268	13.4374
0.758721	2.65354	0.563462	5.54745	0.758117	2.6536	0.849739	8.6624	0.556893	5.67585	0.843179	13.5814
0.757098	2.6537	0.564599	5.52447	0.756493	2.65375	0.850787	8.6179	0.558127	5.65224	0.84369	13.7285
0.755474	2.65385	0.565717	5.5016	0.75487	2.65391	0.851826	8.57387	0.559343	5.62875	0.844212	13.8789
0.75385	2.654	0.566818	5.47883	0.753246	2.65406	0.852855	8.53029	0.560542	5.60538	0.844746	14.0325
0.752226	2.65415	0.5679	5.45617	0.751622	2.65421	0.853874	8.48716	0.561723	5.58213	0.845289	14.1896
0.750602	2.65431	0.568964	5.4336	0.749997	2.65436	0.854883	8.44447	0.562886	5.55899	0.845843	14.3502
0.748978	2.65446	0.57001	5.41113	0.748373	2.65451	0.855882	8.4022	0.564032	5.53596	0.846408	14.5145
0.747353	2.65461	0.571038	5.38875	0.746748	2.65467	0.85687	8.36035	0.565159	5.51304	0.846982	14.6825
0.745728	2.65476	0.572047	5.36647	0.745123	2.65482	0.857848	8.3189	0.566269	5.49022	0.847565	14.8544
0.744103	2.65491	0.573039	5.34428	0.743498	2.65497	0.858815	8.27786	0.56736	5.4675	0.848158	15.0302
0.742477	2.65506	0.574012	5.32218	0.741872	2.65512	0.859772	8.23721	0.568433	5.44489	0.84876	15.2102
0.740852	2.65521	0.574967	5.30016	0.740246	2.65527	0.860718	8.19694	0.569489	5.42237	0.849371	15.3944
0.739226	2.65537	0.575905	5.27824	0.73862	2.65542	0.861653	8.15705	0.570525	5.39994	0.849991	15.5831
0.7376	2.65552	0.576824	5.25641	0.736994	2.65557	0.862577	8.11753	0.571544	5.37761	0.850619	15.7763
0.735973	2.65567	0.577726	5.23466	0.735368	2.65572	0.86349	8.07837	0.572545	5.35538	0.851254	15.9742
0.734347	2.65582	0.578609	5.21299	0.733741	2.65587	0.864392	8.03956	0.573527	5.33323	0.851898	16.1769
0.73272	2.65597	0.579475	5.19142	0.732115	2.65603	0.865283	8.0011	0.574491	5.31117	0.852549	16.3847
0.731094	2.65612	0.580324	5.16993	0.730488	2.65618	0.866162	7.96298	0.575438	5.28921	0.853208	16.5978
0.729467	2.65627	0.581155	5.14852	0.728861	2.65633	0.86703	7.92519	0.576366	5.26733	0.853873	16.8162
0.72784	2.65642	0.581969	5.1272	0.727234	2.65648	0.867886	7.88773	0.577277	5.24554	0.854545	17.0402
0.726212	2.65657	0.582766	5.10596	0.725607	2.65663	0.868731	7.85058	0.578169	5.22383	0.855224	17.2701
0.724585	2.65673	0.583546	5.08481	0.723979	2.65678	0.869564	7.81376	0.579044	5.20221	0.855909	17.506
0.722958	2.65688	0.584309	5.06374	0.722352	2.65693	0.870385	7.77724	0.579901	5.18068	0.8566	17.7481
0.72133	2.65703	0.585055	5.04276	0.720724	2.65709	0.871195	7.74103	0.580741	5.15923	0.857296	17.9968
0.719702	2.65718	0.585785	5.02186	0.719096	2.65724	0.871993	7.70511	0.581564	5.13786	0.857998	18.2522
0.718074	2.65733	0.586499	5.00105	0.717468	2.65739	0.872778	7.66948	0.582369	5.11658	0.858706	18.5146
0.716446	2.65749	0.587197	4.98033	0.71584	2.65754	0.873552	7.63415	0.583157	5.09539	0.859418	18.7844
0.714818	2.65764	0.587879	4.95969	0.714212	2.6577	0.874314	7.59909	0.583929	5.07428	0.860134	19.0618
0.71319	2.65779	0.588545	4.93914	0.712584	2.65785	0.875065	7.56431	0.584683	5.05325	0.860855	19.3471
0.711562	2.65795	0.589197	4.91867	0.710955	2.658	0.875803	7.52981	0.585422	5.03231	0.86158	19.6407
0.709933	2.6581	0.589833	4.8983	0.709327	2.65816	0.876529	7.49557	0.586144	5.01146	0.862309	19.9428
0.708305	2.65826	0.590454	4.87801	0.707699	2.65831	0.877242	7.46159	0.586849	4.99069	0.863042	20.254
0.706676	2.65841	0.591061	4.85781	0.70607	2.65847	0.877944	7.42787	0.587539	4.97001	0.863777	20.5746
0.705048	2.65857	0.591653	4.8377	0.704441	2.65863	0.878634	7.39441	0.588214	4.94941	0.864515	20.9049
0.703419	2.65872	0.592231	4.81769	0.702813	2.65878	0.879311	7.3612	0.588872	4.92891	0.865256	21.2456
0.70179	2.65888	0.592796	4.79776	0.701184	2.65894	0.879977	7.32824	0.589516	4.90849	0.866	21.5969
0.700161	2.65904	0.593346	4.77793	0.699555	2.6591	0.88063	7.29551	0.590145	4.88815	0.866745	21.9595
0.698533	2.65919	0.593884	4.75819	0.697926	2.65925	0.881271	7.26303	0.590759	4.86791	0.867492	22.3339
0.696904	2.65935	0.594408	4.73855	0.696297	2.65941	0.881901	7.23078	0.591358	4.84776	0.86824	22.7206
0.695275	2.65951	0.59492	4.719	0.694668	2.65957	0.882518	7.19877	0.591943	4.8277	0.86899	23.1202
0.693646	2.65967	0.59542	4.69954	0.693039	2.65973	0.883123	7.16698	0.592515	4.80773	0.86974	23.5335
0.692017	2.65983	0.595907	4.68018	0.69141	2.65989	0.883716	7.13542	0.593072	4.78785	0.870491	23.961
0.690388	2.65999	0.596382	4.66092	0.689781	2.66005	0.884297	7.10408	0.593616	4.76806	0.871241	24.4036
0.688759	2.66015	0.596846	4.64176	0.688152	2.66021	0.884866	7.07296	0.594147	4.74837	0.871991	24.8621
0.68713	2.66032	0.597298	4.62269	0.686523	2.66038	0.885423	7.04205	0.594666	4.72877	0.872741	25.3373
0.685501	2.66048	0.59774	4.60373	0.684894	2.66054	0.885968	7.01136	0.595171	4.70927	0.87349	25.83
0.683872	2.66064	0.59817	4.58486	0.683265	2.66071	0.886502	6.98088	0.595664	4.68986	0.874237	26.3414
0.682243	2.66081	0.59859	4.5661	0.681636	2.66087	0.887023	6.95061	0.596146	4.67055	0.874983	26.8725
0.680614	2.66098	0.599	4.54744	0.680008	2.66104	0.887533	6.92054	0.596615	4.65134	0.875726	27.4244
0.678985	2.66114	0.5994	4.52888	0.678379	2.6612	0.888031	6.89067	0.597073	4.63223	0.876467	27.9984
0.677356	2.66131	0.599791	4.51042	0.67675	2.66137	0.888518	6.86101	0.59752	4.61321	0.877205	28.5957
0.675727	2.66148	0.600172	4.49207	0.675121	2.66154	0.888993	6.83154	0.597956	4.5943	0.87794	29.218
0.674098	2.66165	0.600544	4.47382	0.673492	2.66171	0.889457	6.80227	0.598381	4.57548	0.878671	29.8667
0.67247	2.66182	0.600907	4.45567	0.671863	2.66188	0.889909	6.77319	0.598796	4.55677	0.879398	30.5435
0.670841	2.66199	0.601262	4.43764	0.670235	2.66206	0.89035	6.7443	0.599201	4.53816	0.880121	31.2504
0.669212	2.66216	0.601608	4.4197	0.668606	2.66223	0.89078	6.7156	0.599596	4.51965	0.880838	31.9894
0.667584	2.66234	0.601947	4.40188	0.666977	2.6624	0.891198	6.68709	0.599982	4.50124	0.881551	32.7626
0.665955	2.66251	0.602278	4.38416	0.665349	2.66258	0.891606	6.65876	0.600359	4.48294	0.882257	33.5726
0.664327	2.66269	0.602601	4.36655	0.66372	2.66275	0.892002	6.63062	0.600726	4.46475	0.882957	34.4221
0.662698	2.66287	0.602918	4.34904	0.662092	2.66293	0.892388	6.60266	0.601085	4.44665	0.88365	35.3139
0.66107	2.66305	0.603227	4.33165	0.660464	2.66311	0.892763	6.57488	0.601436	4.42867	0.884336	36.2513
0.659442	2.66323	0.60353	4.31436	0.658836	2.66329	0.893128	6.54727	0.601778	4.41079	0.885014	37.238
0.657814	2.66341	0.603826	4.29719	0.657208	2.66348	0.893481	6.51984	0.602113	4.39302	0.885684	38.2778
0.656186	2.66359	0.604117	4.28012	0.65558	2.66366	0.893825	6.49259	0.60244	4.37535	0.886345	39.3754
0.654558	2.66377	0.604401	4.26316	0.653952	2.66384	0.894158	6.46551	0.60276	4.35779	0.886997	40.5355
0.65293	2.66396	0.60468	4.24631	0.652324	2.66403	0.894481	6.4386	0.603073	4.34034	0.887639	41.7637
0.651303	2.66415	0.604953	4.22958	0.650697	2.66422	0.894794	6.41186	0.603379	4.323	0.888271	43.0662
0.649675	2.66434	0.605221	4.21295	0.649069	2.66441	0.895096	6.38529	0.603679	4.30577	0.888892	44.45
0.648048	2.66453	0.605485	4.19643	0.647442	2.6646	0.895389	6.35888	0.603972	4.28865	0.889502	45.923
0.646421	2.66472	0.605744	4.18003	0.645815	2.66479	0.895673	6.33265	0.604259	4.27164	0.890099	47.4941
0.644794	2.66491	0.605998	4.16374	0.644188	2.66498	0.895946	6.30657	0.604541	4.25474	0.890684	49.1735
0.643167	2.66511	0.606248	4.14755	0.642561	2.66518	0.896211	6.28066	0.604817	4.23794	0.891257	50.9728
0.64154	2.6653	0.606494	4.13148	0.640935	2.66538	0.896465	6.25491	0.605088	4.22126	0.891815	52.9053
0.639914	2.6655	0.606736	4.11552	0.639308	2.66558	0.896711	6.22932	0.605354	4.20469	0.89236	54.9866
0.638288	2.6657	0.606975	4.09967	0.637682	2.66578	0.896948	6.2039	0.605615	4.18823	0.892889	57.2346
0.636662	2.66591	0.60721	4.08394	0.636056	2.66598	0.897175	6.17863	0.605871	4.17188	0.893404	59.6702
0.635036	2.66611	0.607442	4.06831	0.63443	2.66619	0.897394	6.15351	0.606123	4.15564	0.893902	62.318
0.63341	2.66632	0.607672	4.0528	0.632805	2.6664	0.897604	6.12856	0.606371	4.13951	0.894384	65.2071
0.631785	2.66653	0.607898	4.03739	0.63118	2.6666	0.897806	6.10376	0.606615	4.1235	0.89485	68.3722
0.630159	2.66674	0.608122	4.0221	0.629554	2.66682	0.897999	6.07911	0.606856	4.10759	0.895298	71.8551
0.628534	2.66695	0.608343	4.00692	0.62793	2.66703	0.898184	6.05461	0.607093	4.0918	0.895727	75.7062
0.62691	2.66716	0.608563	3.99185	0.626305	2.66725	0.898361	6.03027	0.607326	4.07612	0.896138	79.9876
0.625285	2.66738	0.60878	3.97689	0.624681	2.66746	0.898529	6.00608	0.607557	4.06055	0.896531	84.7757
0.623661	2.6676	0.608996	3.96204	0.623056	2.66768	0.89869	5.98204	0.607785	4.04509	0.896903	90.1666
0.622037	2.66782	0.60921	3.9473	0.621433	2.66791	0.898843	5.95815	0.60801	4.02974	0.897255	96.2821
0.620413	2.66805	0.609422	3.93267	0.619809	2.66813	0.898989	5.9344	0.608233	4.0145	0.897587	103.279
0.61879	2.66827	0.609633	3.91815	0.618186	2.66836	0.899127	5.9108	0.608453	3.99938	0.897898	111.364
0.617167	2.6685	0.609817	3.90559	0.616563	2.66859	0.899258	5.88735	0.608672	3.98436	0.898188	120.812
0.615544	2.66874	0.609972	3.89494	0.61494	2.66882	0.899382	5.86405	0.608888	3.96946	0.898455	132.001
0.613922	2.66897	0.6101	3.88619	0.613318	2.66906	0.899499	5.84089	0.609103	3.95466	0.8987	145.461
0.6123	2.66921	0.610202	3.87929	0.611696	2.6693	0.899609	5.81787	0.609316	3.93998	0.898923	161.964
0.610678	2.66945	0.610276	3.87424	0.610074	2.66954	0.899712	5.795	0.609528	3.9254	0.899123	182.675
0.609057	2.66969	0.610323	3.87101	0.608453	2.66978	0.899808	5.77226	0.609739	3.91094	0.899299	209.44
0.607436	2.66994	0.610392	3.86638	0.606832	2.67003	0.899898	5.74967	0.609948	3.89658	0.899452	245.371
0.605815	2.67019	0.610466	3.86137	0.605212	2.67028	0.899982	5.72722	0.610157	3.88234	0.899581	296.155
0.604195	2.67044	0.610567	3.85456	0.603592	2.67053	0.90006	5.70491	0.610365	3.8682	0.899687	373.408
0.602575	2.67069	0.610694	3.846	0.601972	2.67079	0.900132	5.68274	0.610572	3.85417	0.899768	505.135
0.600955	2.67095	0.610847	3.83569	0.600353	2.67105	0.900197	5.66071	0.610779	3.84025	0.899825	780.357
0.599336	2.67121	0.611028	3.82368	0.598734	2.67131	0.900257	5.63881	0.610986	3.82644	0.899857	1714.19
0.597718	2.67148	0.611234	3.81	0.597115	2.67158	0.900312	5.61705	0.611193	3.81274		
0.5961	2.67175	0.611441	3.79642	0.595497	2.67185	0.900361	5.59543	0.611399	3.79914		
0.594482	2.67202	0.611648	3.78295	0.59388	2.67212	0.900404	5.57394	0.611606	3.78565		
0.592865	2.67229	0.611855	3.76959	0.592263	2.6724	0.900443	5.55259	0.611813	3.77226		
0.591248	2.67257	0.612063	3.75633	0.590646	2.67268	0.900476	5.53137	0.612021	3.75899		
0.589632	2.67286	0.612271	3.74318	0.58903	2.67296	0.900504	5.51028	0.612229	3.74581		
0.588016	2.67314	0.61248	3.73013	0.587415	2.67325	0.900528	5.48933	0.612438	3.73274		
0.586401	2.67344	0.61269	3.71719	0.5858	2.67355	0.900547	5.4685	0.612648	3.71978		
0.584786	2.67373	0.612901	3.70435	0.584185	2.67384	0.900561	5.44781	0.612858	3.70692		
0.583172	2.67403	0.613113	3.69162	0.582571	2.67414	0.900571	5.42725	0.61307	3.69417		
0.581559	2.67434	0.613326	3.67899	0.580958	2.67445	0.900577	5.40681	0.613283	3.68152		
0.579946	2.67465	0.61354	3.66646	0.579345	2.67476	0.900578	5.38651	0.613497	3.66897		
0.578333	2.67496	0.613756	3.65403	0.577733	2.67508	0.900576	5.36633	0.613713	3.65652		
0.576722	2.67528	0.613974	3.64171	0.576122	2.6754	0.900569	5.34628	0.61393	3.64417		
0.575111	2.6756	0.614193	3.62949	0.574511	2.67572	0.900559	5.32636	0.614149	3.63193		
0.5735	2.67593	0.614413	3.61736	0.572901	2.67605	0.900545	5.30656	0.614369	3.61979		
0.571891	2.67626	0.614636	3.60534	0.571292	2.67639	0.900528	5.28689	0.614591	3.60774		
0.570282	2.6766	0.614861	3.59342	0.569683	2.67673	0.900507	5.26735	0.614815	3.5958		
0.568673	2.67694	0.615087	3.58159	0.568075	2.67707	0.900483	5.24792	0.615042	3.58396		
0.567066	2.67729	0.615316	3.56987	0.566468	2.67742	0.900456	5.22862	0.61527	3.57221		
0.565459	2.67765	0.615547	3.55824	0.564861	2.67778	0.900426	5.20945	0.6155	3.56057		
0.563853	2.67801	0.61578	3.54671	0.563256	2.67814	0.900393	5.19039	0.615733	3.54902		
0.562248	2.67838	0.616016	3.53528	0.561651	2.67851	0.900357	5.17146	0.615968	3.53756		
0.560644	2.67875	0.616254	3.52394	0.560047	2.67889	0.900318	5.15265	0.616206	3.52621		
0.55904	2.67913	0.616495	3.5127	0.558444	2.67927	0.900277	5.13395	0.616446	3.51495		
0.557438	2.67952	0.616738	3.50156	0.556841	2.67966	0.900233	5.11538	0.616689	3.50378		
0.555836	2.67991	0.616984	3.4905	0.55524	2.68006	0.900187	5.09692	0.616935	3.49271		
0.554235	2.68031	0.617233	3.47955	0.55364	2.68046	0.900138	5.07859	0.617183	3.48174		
0.552636	2.68071	0.617485	3.46868	0.55204	2.68087	0.900088	5.06037	0.617434	3.47086		
0.551037	2.68113	0.61774	3.45791	0.550442	2.68128	0.900035	5.04227	0.617689	3.46007		
0.549439	2.68155	0.617998	3.44724	0.548845	2.68171	0.89998	5.02428	0.617946	3.44937		
0.547842	2.68198	0.618259	3.43665	0.547248	2.68214	0.899924	5.00641	0.618206	3.43877		
0.546247	2.68242	0.618523	3.42616	0.545653	2.68258	0.899866	4.98865	0.61847	3.42825		
0.544652	2.68286	0.61879	3.41575	0.544059	2.68303	0.899806	4.97101	0.618736	3.41783		
0.543059	2.68332	0.619061	3.40544	0.542466	2.68349	0.899745	4.95348	0.619006	3.4075		
0.541467	2.68378	0.619335	3.39521	0.540874	2.68395	0.899682	4.93606	0.619279	3.39726		
0.539876	2.68425	0.619612	3.38508	0.539284	2.68443	0.899618	4.91876	0.619556	3.3871		
0.538286	2.68473	0.619893	3.37503	0.537694	2.68491	0.899552	4.90157	0.619836	3.37704		
0.536697	2.68522	0.620177	3.36507	0.536106	2.68541	0.899486	4.88449	0.62012	3.36706		
0.53511	2.68572	0.620465	3.35519	0.53452	2.68591	0.899418	4.86752	0.620407	3.35717		
0.533524	2.68623	0.620757	3.34541	0.532934	2.68642	0.89935	4.85066	0.620698	3.34736		
0.53194	2.68675	0.621052	3.33571	0.531351	2.68695	0.89928	4.83391	0.620993	3.33765		
0.530357	2.68728	0.621351	3.32609	0.529768	2.68748	0.89921	4.81726	0.621291	3.32801		
0.528776	2.68782	0.621654	3.31656	0.528187	2.68803	0.899139	4.80073	0.621593	3.31847		
0.527196	2.68838	0.621961	3.30712	0.526608	2.68858	0.899067	4.7843	0.621899	3.309		
0.525618	2.68894	0.622272	3.29775	0.52503	2.68915	0.898995	4.76798	0.622209	3.29962		
0.524041	2.68952	0.622586	3.28847	0.523454	2.68973	0.898923	4.75176	0.622523	3.29033		
0.522466	2.69011	0.622905	3.27928	0.52188	2.69033	0.89885	4.73565	0.622841	3.28111		
0.520893	2.69071	0.623227	3.27016	0.520307	2.69094	0.898777	4.71965	0.623162	3.27198		
0.519321	2.69132	0.623554	3.26113	0.518737	2.69156	0.898703	4.70375	0.623488	3.26293		
0.517752	2.69195	0.623885	3.25217	0.517168	2.69219	0.89863	4.68795	0.623818	3.25396		
0.516184	2.69259	0.62422	3.2433	0.515601	2.69284	0.898556	4.67226	0.624152	3.24507		
0.514618	2.69325	0.624559	3.2345	0.514036	2.6935	0.898483	4.65666	0.624491	3.23626		
0.513054	2.69392	0.624902	3.22579	0.512473	2.69418	0.898409	4.64117	0.624833	3.22753		
0.511493	2.69461	0.62525	3.21715	0.510912	2.69487	0.898336	4.62579	0.62518	3.21888		
0.509933	2.69532	0.625602	3.20859	0.509353	2.69558	0.898263	4.6105	0.625531	3.2103		
0.508376	2.69604	0.625958	3.20011	0.507797	2.69631	0.898191	4.59531	0.625887	3.20181		
0.506821	2.69677	0.626319	3.1917	0.506243	2.69705	0.898119	4.58022	0.626246	3.19339		
0.505269	2.69753	0.626684	3.18338	0.504691	2.69782	0.898047	4.56523	0.626611	3.18504		
0.503719	2.6983	0.627054	3.17512	0.503142	2.6986	0.897976	4.55034	0.626979	3.17677		
0.502171	2.6991	0.627428	3.16694	0.501596	2.6994	0.897905	4.53554	0.627352	3.16858		
0.500626	2.69991	0.627806	3.15884	0.500052	2.70022	0.897835	4.52085	0.62773	3.16046		
0.499084	2.70074	0.628189	3.15081	0.498511	2.70106	0.897766	4.50625	0.628112	3.15241		
0.497545	2.70159	0.628577	3.14285	0.496972	2.70192	0.897698	4.49174	0.628499	3.14444		
0.496008	2.70247	0.628969	3.13496	0.495437	2.7028	0.897631	4.47733	0.62889	3.13654		
0.494475	2.70336	0.629366	3.12715	0.493905	2.7037	0.897564	4.46302	0.629286	3.12871		
0.492944	2.70429	0.629767	3.11941	0.492376	2.70463	0.897499	4.4488	0.629686	3.12096		
0.491417	2.70523	0.630173	3.11174	0.49085	2.70559	0.897435	4.43467	0.630092	3.11327		
0.489893	2.7062	0.630584	3.10414	0.489327	2.70657	0.897372	4.42064	0.630501	3.10566		
0.488373	2.70719	0.631	3.09661	0.487808	2.70757	0.89731	4.4067	0.630916	3.09811		
0.486856	2.70821	0.63142	3.08915	0.486292	2.7086	0.897249	4.39285	0.631335	3.09064		
0.485343	2.70926	0.631845	3.08176	0.48478	2.70966	0.89719	4.37909	0.631759	3.08323		
0.483833	2.71034	0.632274	3.07443	0.483272	2.71075	0.897132	4.36542	0.632188	3.0759		
0.482328	2.71145	0.632709	3.06718	0.481768	2.71187	0.897075	4.35185	0.632621	3.06863		
0.480826	2.71259	0.633148	3.05999	0.480268	2.71302	0.89702	4.33836	0.633059	3.06142		
0.479329	2.71376	0.633592	3.05287	0.478773	2.7142	0.896966	4.32496	0.633503	3.05429		
0.477836	2.71496	0.634041	3.04581	0.477281	2.71541	0.896915	4.31165	0.63395	3.04722		
0.476348	2.7162	0.634495	3.03882	0.475795	2.71666	0.896864	4.29843	0.634403	3.04022		
0.474864	2.71747	0.634953	3.03189	0.474313	2.71795	0.896816	4.2853	0.634861	3.03328		
0.473385	2.71878	0.635417	3.02503	0.472835	2.71927	0.896769	4.27225	0.635323	3.02641		
0.471911	2.72012	0.635885	3.01824	0.471363	2.72064	0.896724	4.25929	0.635791	3.0196		
0.470442	2.72151	0.636358	3.01151	0.469896	2.72204	0.896681	4.24641	0.636263	3.01285		
0.468978	2.72294	0.636836	3.00484	0.468435	2.72348	0.89664	4.23363	0.63674	3.00617		
0.46752	2.72441	0.637319	2.99823	0.466978	2.72497	0.8966	4.22092	0.637222	2.99955		
0.466067	2.72592	0.637807	2.99168	0.465528	2.7265	0.896563	4.2083	0.637709	2.99299		
0.464621	2.72748	0.6383	2.9852	0.464084	2.72807	0.896528	4.19576	0.638201	2.9865		
0.46318	2.72909	0.638798	2.97878	0.462646	2.7297	0.896495	4.18331	0.638698	2.98006		
0.461746	2.73075	0.639301	2.97242	0.461214	2.73137	0.896464	4.17094	0.6392	2.97369		
0.460318	2.73245	0.639809	2.96611	0.459788	2.7331	0.896435	4.15865	0.639707	2.96737		
0.458897	2.73421	0.640322	2.95987	0.45837	2.73488	0.896408	4.14645	0.640218	2.96112		
0.457483	2.73603	0.640839	2.95369	0.456959	2.73672	0.896384	4.13432	0.640735	2.95493		
0.456076	2.7379	0.641362	2.94757	0.455554	2.73861	0.896362	4.12228	0.641257	2.94879		
0.454677	2.73983	0.64189	2.9415	0.454158	2.74056	0.896342	4.11031	0.641784	2.94271		
0.453285	2.74182	0.642423	2.93549	0.452769	2.74258	0.896325	4.09843	0.642316	2.93669		
0.451901	2.74387	0.642961	2.92954	0.451388	2.74465	0.89631	4.08662	0.642852	2.93073		
0.450525	2.74599	0.643503	2.92365	0.450015	2.7468	0.896298	4.0749	0.643394	2.92482		
0.449157	2.74818	0.644051	2.91781	0.44865	2.74901	0.896288	4.06325	0.643941	2.91897		
0.447798	2.75043	0.644604	2.91203	0.447295	2.75129	0.896281	4.05168	0.644493	2.91318		
0.446448	2.75276	0.645162	2.9063	0.445948	2.75365	0.896276	4.04019	0.64505	2.90744		
0.445108	2.75517	0.645725	2.90063	0.444611	2.75608	0.896274	4.02877	0.645612	2.90176		
0.443776	2.75765	0.646293	2.89501	0.443283	2.75859	0.896275	4.01743	0.646179	2.89613		
0.442455	2.76021	0.646866	2.88945	0.441965	2.76118	0.896278	4.00616	0.646751	2.89056		
0.441143	2.76285	0.647444	2.88394	0.440658	2.76386	0.896285	3.99497	0.647328	2.88504		
0.439842	2.76558	0.648027	2.87848	0.43936	2.76662	0.896293	3.98386	0.64791	2.87957		
0.438551	2.7684	0.648615	2.87308	0.438074	2.76948	0.896305	3.97282	0.648497	2.87416		
0.437271	2.77131	0.649208	2.86772	0.436798	2.77242	0.89632	3.96185	0.649089	2.86879		
0.436003	2.77432	0.649807	2.86242	0.435533	2.77546	0.896337	3.95096	0.649686	2.86348		
0.434745	2.77742	0.65041	2.85718	0.43428	2.7786	0.896358	3.94014	0.650289	2.85822		
0.4335	2.78062	0.651018	2.85198	0.433039	2.78183	0.896381	3.92939	0.650896	2.85302		
0.432266	2.78392	0.651632	2.84683	0.43181	2.78518	0.896407	3.91872	0.651508	2.84786		
0.431044	2.78733	0.65225	2.84174	0.430593	2.78863	0.896437	3.90812	0.652126	2.84275		
0.429835	2.79085	0.652874	2.83669	0.429388	2.79219	0.896469	3.89758	0.652748	2.8377		
0.428639	2.79448	0.653502	2.83169	0.428197	2.79586	0.896504	3.88712	0.653375	2.83269		
0.427456	2.79822	0.654136	2.82674	0.427019	2.79965	0.896543	3.87673	0.654008	2.82773		
0.426286	2.80209	0.654774	2.82184	0.425854	2.80356	0.896585	3.86641	0.654646	2.82282		
0.425129	2.80607	0.655418	2.81699	0.424702	2.80759	0.896629	3.85616	0.655288	2.81796		
0.423987	2.81018	0.656066	2.81218	0.423565	2.81174	0.896677	3.84597	0.655936	2.81314		
0.422858	2.81442	0.65672	2.80743	0.422441	2.81603	0.896729	3.83586	0.656588	2.80838		
0.421744	2.81878	0.657379	2.80272	0.421332	2.82044	0.896783	3.82581	0.657246	2.80366		
0.420643	2.82328	0.658042	2.79805	0.420238	2.82499	0.896841	3.81583	0.657909	2.79899		
0.419558	2.82792	0.658711	2.79344	0.419158	2.82968	0.896902	3.80592	0.658577	2.79436		
0.418487	2.8327	0.659385	2.78886	0.418092	2.83451	0.896966	3.79607	0.659249	2.78978		
0.417431	2.83762	0.660064	2.78434	0.417042	2.83948	0.897034	3.7863	0.659927	2.78524		
0.416391	2.84268	0.660748	2.77986	0.416007	2.8446	0.897105	3.77658	0.66061	2.78075		
0.415365	2.84789	0.661436	2.77542	0.414987	2.84987	0.89718	3.76694	0.661298	2.77631		
0.414355	2.85326	0.66213	2.77103	0.413983	2.85529	0.897258	3.75735	0.66199	2.7719		
0.413361	2.85877	0.662829	2.76668	0.412995	2.86087	0.897339	3.74784	0.662688	2.76755		
0.412382	2.86445	0.663533	2.76237	0.412022	2.8666	0.897424	3.73838	0.663391	2.76323		
0.411419	2.87028	0.664241	2.75811	0.411064	2.87249	0.897512	3.72899	0.664099	2.75896		
0.410472	2.87628	0.664955	2.75389	0.410123	2.87855	0.897604	3.71967	0.664812	2.75474		
0.40954	2.88244	0.665674	2.74972	0.409198	2.88477	0.8977	3.7104	0.665529	2.75055		
0.408625	2.88877	0.666398	2.74558	0.408288	2.89117	0.897799	3.7012	0.666252	2.74641		
0.407725	2.89526	0.667127	2.74149	0.407395	2.89773	0.897901	3.69207	0.66698	2.74231		
0.406842	2.90194	0.66786	2.73744	0.406517	2.90446	0.898007	3.68299	0.667713	2.73825		
0.405975	2.90878	0.668599	2.73343	0.405656	2.91138	0.898117	3.67398	0.66845	2.73423		
0.405123	2.91581	0.669343	2.72946	0.404811	2.91847	0.89823	3.66502	0.669193	2.73025		
0.404288	2.92301	0.670091	2.72553	0.403981	2.92574	0.898348	3.65613	0.669941	2.72632		
0.403469	2.9304	0.670845	2.72164	0.403168	2.93319	0.898468	3.6473	0.670693	2.72242		
0.402666	2.93797	0.671603	2.71779	0.402371	2.94083	0.898593	3.63852	0.671451	2.71856		
0.401879	2.94573	0.672367	2.71398	0.40159	2.94866	0.898721	3.62981	0.672213	2.71475		
0.401108	2.95367	0.673135	2.71021	0.400825	2.95668	0.898853	3.62116	0.672981	2.71097		
0.400353	2.96181	0.673909	2.70648	0.400076	2.96489	0.898989	3.61256	0.673753	2.70723		
0.399614	2.97015	0.674687	2.70279	0.399343	2.9733	0.899129	3.60403	0.674531	2.70353		
0.398891	2.97868	0.675471	2.69914	0.398626	2.98191	0.899272	3.59555	0.675313	2.69987		
0.398183	2.98741	0.676259	2.69552	0.397924	2.99071	0.899419	3.58713	0.6761	2.69624		
0.397492	2.99634	0.677052	2.69194	0.397238	2.99972	0.89957	3.57876	0.676893	2.69266		
0.396816	3.00548	0.67785	2.6884	0.396568	3.00893	0.899725	3.57046	0.67769	2.68911		
0.396155	3.01482	0.678654	2.6849	0.395914	3.01835	0.899884	3.56221	0.678492	2.6856		
0.395511	3.02437	0.679462	2.68143	0.395275	3.02798	0.900047	3.55401	0.679299	2.68213		
0.394881	3.03413	0.680275	2.67801	0.394651	3.03782	0.900213	3.54588	0.680112	2.67869		
0.394267	3.04411	0.681093	2.67461	0.394043	3.04788	0.900384	3.5378	0.680929	2.67529		
0.393669	3.0543	0.681917	2.67126	0.39345	3.05815	0.900558	3.52977	0.681751	2.67193		
0.393085	3.06471	0.682745	2.66794	0.392872	3.06864	0.900736	3.5218	0.682578	2.6686		
0.392517	3.07534	0.683578	2.66465	0.39231	3.07935	0.900919	3.51388	0.68341	2.66531		
0.391964	3.08619	0.684416	2.6614	0.391762	3.09029	0.901105	3.50602	0.684248	2.66205		
0.391426	3.09728	0.68526	2.65819	0.391229	3.10146	0.901295	3.49821	0.68509	2.65883		
0.390903	3.10859	0.686108	2.65501	0.390712	3.11286	0.90149	3.49045	0.685938	2.65565		
0.390394	3.12013	0.686962	2.65187	0.390209	3.12449	0.901688	3.48275	0.68679	2.6525		
0.3899	3.13191	0.68782	2.64876	0.38972	3.13635	0.901891	3.4751	0.687648	2.64938		
0.389421	3.14392	0.688684	2.64569	0.389247	3.14845	0.902097	3.4675	0.688511	2.6463		
0.388957	3.15618	0.689553	2.64265	0.388788	3.1608	0.902308	3.45996	0.689379	2.64325		
0.388507	3.16867	0.690428	2.63964	0.388343	3.17339	0.902522	3.45247	0.690252	2.64024		
0.388071	3.18142	0.691307	2.63667	0.387913	3.18623	0.902741	3.44503	0.69113	2.63727		
0.38765	3.19442	0.692192	2.63374	0.387496	3.19932	0.902964	3.43764	0.692014	2.63433		
0.387243	3.20766	0.693083	2.63084	0.387095	3.21266	0.903191	3.4303	0.692903	2.63142		
0.38685	3.22117	0.693978	2.62797	0.386707	3.22626	0.903422	3.42301	0.693798	2.62855		
0.38647	3.23493	0.69488	2.62514	0.386333	3.24012	0.903657	3.41577	0.694699	2.62571		
0.386105	3.24896	0.695787	2.62235	0.385973	3.25425	0.903897	3.40858	0.695604	2.62291		
0.385754	3.26325	0.6967	2.61959	0.385627	3.26864	0.90414	3.40144	0.696516	2.62014		
0.385417	3.27782	0.697618	2.61686	0.385295	3.28331	0.904388	3.39435	0.697434	2.6174		
0.385093	3.29266	0.698543	2.61417	0.384976	3.29825	0.90464	3.38731	0.698357	2.61471		
0.384784	3.30777	0.699474	2.61151	0.384672	3.31347	0.904896	3.38032	0.699287	2.61204		
0.384487	3.32317	0.700411	2.60889	0.38438	3.32897	0.905157	3.37338	0.700222	2.60942		
0.384204	3.33885	0.701355	2.60631	0.384103	3.34476	0.905421	3.36648	0.701165	2.60683		
0.383935	3.35482	0.702305	2.60376	0.383838	3.36084	0.90569	3.35964	0.702114	2.60427		
0.383679	3.37109	0.703263	2.60126	0.383587	3.37722	0.905963	3.35284	0.70307	2.60176		
0.383436	3.38765	0.704228	2.59879	0.383349	3.3939	0.906241	3.34609	0.704033	2.59928		
0.383207	3.40452	0.7052	2.59636	0.383125	3.41088	0.906522	3.33938	0.705004	2.59684		
0.38299	3.42169	0.706181	2.59397	0.382913	3.42816	0.906808	3.33272	0.705983	2.59445		
0.382787	3.43918	0.70717	2.59162	0.382714	3.44576	0.907099	3.32611	0.706971	2.59209		
0.382596	3.45697	0.708168	2.58932	0.382529	3.46368	0.907393	3.31955	0.707967	2.58978		
0.382419	3.4751	0.709177	2.58707	0.382356	3.48192	0.907692	3.31303	0.708974	2.58752		
0.382254	3.49354	0.710195	2.58486	0.382197	3.50049	0.907995	3.30655	0.70999	2.5853		
0.382103	3.51232	0.711226	2.5827	0.38205	3.51939	0.908303	3.30012	0.711018	2.58313		
0.381964	3.53143	0.712269	2.58061	0.381915	3.53863	0.908615	3.29374	0.712058	2.58102		
0.381837	3.55088	0.713325	2.57856	0.381794	3.55821	0.908931	3.2874	0.713112	2.57897		
0.381724	3.57068	0.714397	2.57659	0.381684	3.57814	0.909251	3.2811	0.71418	2.57698		
0.381622	3.59084	0.715485	2.57468	0.381588	3.59843	0.909576	3.27485	0.715265	2.57506		
0.381534	3.61135	0.716592	2.57285	0.381504	3.61907	0.909906	3.26865	0.716368	2.57321		
0.381457	3.63222	0.717719	2.5711	0.381432	3.64008	0.910239	3.26248	0.717491	2.57144		
0.381393	3.65346	0.718869	2.56943	0.381372	3.66146	0.910578	3.25636	0.718636	2.56976		
0.381341	3.67508	0.720044	2.56787	0.381325	3.68322	0.91092	3.25029	0.719806	2.56817		
0.381301	3.69707	0.721247	2.56641	0.38129	3.70536	0.911267	3.24426	0.721003	2.56669		
0.381274	3.71946	0.722479	2.56506	0.381267	3.72789	0.911618	3.23826	0.722229	2.56532		
0.381258	3.74224	0.723743	2.56383	0.381256	3.75082	0.911974	3.23232	0.723487	2.56407		
0.381255	3.76542	0.725041	2.56272	0.381257	3.77416	0.912335	3.22641	0.724778	2.56294		
0.381263	3.78901	0.726372	2.56174	0.381269	3.7979	0.912699	3.22055	0.726102	2.56193		
0.381283	3.81302	0.727738	2.56089	0.381294	3.82206	0.913068	3.21472	0.727461	2.56105		
0.381315	3.83744	0.729138	2.56015	0.38133	3.84664	0.913442	3.20894	0.728854	2.56029		
0.381359	3.8623	0.73057	2.55954	0.381378	3.87166	0.91382	3.2032	0.73028	2.55965		
0.381415	3.88759	0.732032	2.55903	0.381438	3.89712	0.914203	3.1975	0.731736	2.55912		
0.381481	3.91333	0.733521	2.55862	0.381509	3.92302	0.91459	3.19184	0.73322	2.55869		
0.38156	3.93952	0.735036	2.55829	0.381592	3.94938	0.914982	3.18623	0.73473	2.55835		
0.38165	3.96616	0.736573	2.55805	0.381686	3.97621	0.915378	3.18065	0.736263	2.55809		
0.381751	3.99328	0.73813	2.55788	0.381791	4.0035	0.915779	3.17511	0.737816	2.55791		
0.381863	4.02088	0.739704	2.55776	0.381908	4.03128	0.916184	3.16961	0.739387	2.55778		
0.381987	4.04896	0.741293	2.5577	0.382036	4.05954	0.916594	3.16415	0.740973	2.55771		
0.382122	4.07754	0.742895	2.55769	0.382175	4.08831	0.917008	3.15873	0.742572	2.55769		
0.382267	4.10662	0.744508	2.55771	0.382324	4.11758	0.917427	3.15335	0.744183	2.5577		
0.382424	4.13622	0.746131	2.55777	0.382485	4.14737	0.91785	3.14801	0.745805	2.55775		
0.382592	4.16634	0.747763	2.55785	0.382657	4.17768	0.918278	3.14271	0.747435	2.55783		
0.38277	4.19699	0.749402	2.55796	0.38284	4.20854	0.918711	3.13745	0.749072	2.55794		
0.38296	4.22819	0.751047	2.55809	0.383033	4.23994	0.919148	3.13222	0.750716	2.55806		
0.383159	4.25994	0.752698	2.55824	0.383237	4.2719	0.91959	3.12703	0.752366	2.55821		
0.38337	4.29225	0.754354	2.55841	0.383451	4.30443	0.920036	3.12188	0.754022	2.55838		
0.383591	4.32514	0.756015	2.55859	0.383676	4.33754	0.920487	3.11677	0.755681	2.55855		
0.383822	4.35862	0.757679	2.55878	0.383911	4.37124	0.920943	3.11169	0.757344	2.55874		
0.384064	4.3927	0.759346	2.55899	0.384156	4.40554	0.921403	3.10665	0.759011	2.55894		
0.384316	4.42739	0.761017	2.5592	0.384412	4.44046	0.921868	3.10165	0.760681	2.55915		
0.384578	4.4627	0.76269	2.55942	0.384678	4.47601	0.922338	3.09669	0.762354	2.55937		
0.38485	4.49865	0.764365	2.55964	0.384954	4.5122	0.922812	3.09176	0.764029	2.5596		
0.385132	4.53525	0.766043	2.55988	0.38524	4.54904	0.923291	3.08687	0.765706	2.55983		
0.385424	4.57251	0.767723	2.56012	0.385535	4.58656	0.923774	3.08201	0.767385	2.56007		
0.385726	4.61045	0.769404	2.56036	0.385841	4.62475	0.924263	3.07719	0.769066	2.56031		
0.386037	4.64908	0.771086	2.56061	0.386156	4.66364	0.924756	3.07241	0.770749	2.56056		
0.386358	4.68841	0.77277	2.56086	0.38648	4.70324	0.925254	3.06766	0.772432	2.56081		
0.386689	4.72847	0.774456	2.56111	0.386815	4.74357	0.925756	3.06295	0.774117	2.56106		
0.387029	4.76926	0.776142	2.56137	0.387158	4.78463	0.926263	3.05827	0.775803	2.56131		
0.387378	4.8108	0.777829	2.56162	0.387511	4.82646	0.926775	3.05363	0.77749	2.56157		
0.387737	4.85311	0.779517	2.56188	0.387873	4.86906	0.927292	3.04902	0.779178	2.56183		
0.388105	4.89621	0.781206	2.56215	0.388244	4.91246	0.927813	3.04445	0.780867	2.56209		
0.388481	4.94011	0.782896	2.56241	0.388624	4.95666	0.92834	3.03991	0.782557	2.56236		
0.388867	4.98483	0.784586	2.56267	0.389013	5.00169	0.928871	3.0354	0.784247	2.56262		
0.389261	5.03039	0.786277	2.56294	0.38941	5.04757	0.929407	3.03093	0.785938	2.56288		
0.389664	5.07681	0.787969	2.5632	0.389816	5.09431	0.929947	3.0265	0.787629	2.56315		
0.390076	5.12411	0.789661	2.56347	0.390231	5.14194	0.930493	3.02209	0.789321	2.56341		
0.390496	5.17231	0.791353	2.56373	0.390654	5.19048	0.931043	3.01773	0.791013	2.56368		
0.390924	5.22142	0.793046	2.564	0.391086	5.23995	0.931599	3.01339	0.792706	2.56395		
0.391361	5.27148	0.794739	2.56427	0.391526	5.29036	0.932159	3.00909	0.794399	2.56421		
0.391806	5.32251	0.796432	2.56453	0.391973	5.34175	0.932724	3.00482	0.796092	2.56448		
0.392259	5.37452	0.798126	2.5648	0.392429	5.39414	0.933294	3.00058	0.797786	2.56475		
0.392719	5.42754	0.79982	2.56506	0.392893	5.44755	0.933869	2.99638	0.79948	2.56501		
0.393188	5.48161	0.801514	2.56533	0.393364	5.502	0.934448	2.99221	0.801174	2.56528		
0.393664	5.53673	0.803209	2.5656	0.393843	5.55753	0.935033	2.98807	0.802869	2.56554		
0.394148	5.59295	0.804903	2.56586	0.394329	5.61416	0.935623	2.98397	0.804563	2.56581		
0.394639	5.65028	0.806598	2.56612	0.394823	5.67191	0.936217	2.97989	0.806258	2.56607		
0.395137	5.70875	0.808293	2.56639	0.395324	5.73082	0.936817	2.97585	0.807953	2.56633		
0.395642	5.7684	0.809988	2.56665	0.395832	5.79092	0.937422	2.97184	0.809648	2.5666		
0.396155	5.82926	0.811683	2.56691	0.396347	5.85223	0.938031	2.96786	0.811343	2.56686		
0.396674	5.89136	0.813378	2.56717	0.396869	5.91479	0.938646	2.96392	0.813038	2.56712		
0.3972	5.95472	0.815073	2.56743	0.397398	5.97864	0.939266	2.96	0.814733	2.56738		
0.397664	6.011	0.816768	2.56769	0.397933	6.04381	0.939891	2.95612	0.816428	2.56764		
0.398063	6.05978	0.818464	2.56795	0.398474	6.11033	0.940521	2.95227	0.818124	2.5679		
0.398396	6.10068	0.820159	2.56821	0.399022	6.17823	0.941156	2.94845	0.819819	2.56816		
0.398661	6.13339	0.821855	2.56847	0.399576	6.24757	0.941796	2.94466	0.821514	2.56842		
0.398856	6.15766	0.82355	2.56872	0.400135	6.31838	0.942441	2.9409	0.82321	2.56867		
0.399037	6.18014	0.825245	2.56898	0.400701	6.3907	0.943092	2.93718	0.824905	2.56893		
0.399163	6.19587	0.826941	2.56923	0.401272	6.46458	0.943748	2.93348	0.826601	2.56918		
0.399361	6.2206	0.828636	2.56948	0.401849	6.54005	0.944409	2.92981	0.828296	2.56943		
0.399631	6.25453	0.830331	2.56974	0.402431	6.61717	0.945075	2.92618	0.829991	2.56968		
0.399974	6.29794	0.832027	2.56999	0.403019	6.69599	0.945746	2.92257	0.831687	2.56994		
0.400393	6.35119	0.833722	2.57024	0.403611	6.77656	0.946423	2.919	0.833382	2.57019		
0.400888	6.41474	0.835417	2.57048	0.404208	6.85892	0.947105	2.91546	0.835077	2.57043		
0.401461	6.48913	0.837112	2.57073	0.40481	6.94315	0.947793	2.91194	0.836772	2.57068		
0.402039	6.56514	0.838808	2.57098	0.405417	7.02928	0.948486	2.90846	0.838467	2.57093		
0.402623	6.64282	0.840503	2.57122	0.406028	7.11739	0.949184	2.905	0.840162	2.57117		
0.403212	6.7222	0.842198	2.57147	0.406643	7.20753	0.949888	2.90158	0.841857	2.57142		
0.403806	6.80335	0.843893	2.57171	0.407262	7.29978	0.950597	2.89818	0.843552	2.57166		
0.404405	6.88632	0.845587	2.57195	0.407885	7.3942	0.951312	2.89482	0.845247	2.5719		
0.405009	6.97116	0.847282	2.57219	0.408512	7.49086	0.952032	2.89148	0.846942	2.57214		
0.405617	7.05794	0.848977	2.57243	0.409142	7.58983	0.952758	2.88818	0.848637	2.57238		
0.406229	7.1467	0.850671	2.57267	0.409775	7.69121	0.953489	2.8849	0.850331	2.57262		
0.406845	7.23753	0.852366	2.5729	0.410412	7.79506	0.954226	2.88165	0.852026	2.57286		
0.407466	7.33048	0.85406	2.57314	0.411051	7.90147	0.954969	2.87844	0.85372	2.57309		
0.40809	7.42563	0.855754	2.57337	0.411693	8.01054	0.955717	2.87525	0.855414	2.57333		
0.408718	7.52304	0.857449	2.57361	0.412338	8.12236	0.956471	2.87209	0.857109	2.57356		
0.409349	7.62279	0.859143	2.57384	0.412985	8.23702	0.957231	2.86896	0.858803	2.57379		
0.409984	7.72497	0.860837	2.57407	0.413634	8.35464	0.957997	2.86586	0.860497	2.57402		
0.410621	7.82965	0.86253	2.5743	0.414285	8.47532	0.958768	2.86279	0.862191	2.57425		
0.411261	7.93692	0.864224	2.57453	0.414938	8.59918	0.959545	2.85974	0.863884	2.57448		
0.411905	8.04688	0.865918	2.57476	0.415593	8.72634	0.960329	2.85673	0.865578	2.57471		
0.41255	8.15962	0.867611	2.57498	0.416248	8.85692	0.961118	2.85375	0.867271	2.57494		
0.413198	8.27524	0.869305	2.57521	0.416905	8.99107	0.961913	2.85079	0.868965	2.57516		
0.413848	8.39385	0.870998	2.57543	0.417562	9.12891	0.962714	2.84786	0.870658	2.57539		
0.414499	8.51556	0.872691	2.57565	0.41822	9.27061	0.963522	2.84497	0.872351	2.57561		
0.415153	8.64049	0.874384	2.57587	0.418794	9.39736	0.964335	2.8421	0.874044	2.57583		
0.415807	8.76875	0.876077	2.57609	0.419283	9.50789	0.965155	2.83926	0.875737	2.57605		
0.416463	8.90049	0.877769	2.57631	0.419688	9.60108	0.965981	2.83644	0.87743	2.57627		
0.41712	9.03583	0.879462	2.57653	0.420008	9.67593	0.966813	2.83366	0.879122	2.57649		
0.417778	9.17492	0.881154	2.57675	0.420243	9.73164	0.967652	2.83091	0.880815	2.5767		
0.418436	9.31792	0.882847	2.57696	0.420459	9.78341	0.968497	2.82818	0.882507	2.57692		
0.419095	9.46498	0.884539	2.57718	0.42061	9.81972	0.969348	2.82549	0.884199	2.57713		
0.419753	9.61627	0.886231	2.57739	0.420845	9.87694	0.970206	2.82282	0.885891	2.57735		
0.420412	9.77198	0.887922	2.5776	0.421165	9.95572	0.971071	2.82018	0.887583	2.57756		
0.42107	9.9323	0.889614	2.57781	0.421568	10.057	0.971942	2.81757	0.889275	2.57777		
0.421728	10.0974	0.891306	2.57802	0.422057	10.182	0.972819	2.81499	0.890966	2.57798		
0.422384	10.2676	0.892997	2.57823	0.422628	10.3322	0.973704	2.81243	0.892658	2.57818		
0.42304	10.443	0.894688	2.57843	0.423283	10.5096	0.974595	2.80991	0.894349	2.57839		
0.423694	10.6238	0.896379	2.57864	0.423937	10.6926	0.975493	2.80741	0.89604	2.5786		
0.424346	10.8105	0.89807	2.57884	0.424589	10.8815	0.976398	2.80495	0.897731	2.5788		
0.424997	11.0031	0.899761	2.57905	0.425239	11.0764	0.977309	2.80251	0.899422	2.57901		
0.425646	11.2021	0.901452	2.57925	0.425886	11.2778	0.978228	2.8001	0.901112	2.57921		
0.426292	11.4077	0.903142	2.57945	0.426532	11.486	0.979154	2.79772	0.902803	2.57941		
0.426935	11.6202	0.904832	2.57965	0.427174	11.7012	0.980087	2.79537	0.904493	2.57961		
0.427576	11.8401	0.906522	2.57985	0.427813	11.9239	0.981027	2.79305	0.906183	2.57981		
0.428213	12.0676	0.908212	2.58004	0.428449	12.1544	0.981974	2.79075	0.907873	2.58		
0.428847	12.3033	0.909902	2.58024	0.429082	12.3932	0.982929	2.78849	0.909563	2.5802		
0.429477	12.5475	0.911592	2.58043	0.429711	12.6407	0.983891	2.78625	0.911253	2.5804		
0.430103	12.8007	0.913281	2.58063	0.430335	12.8974	0.98486	2.78404	0.912942	2.58059		
0.430725	13.0634	0.91497	2.58082	0.430955	13.1638	0.985837	2.78187	0.914631	2.58078		
0.431342	13.3362	0.916659	2.58101	0.43157	13.4405	0.986821	2.77972	0.916321	2.58097		
0.431954	13.6197	0.918348	2.5812	0.432181	13.728	0.987813	2.7776	0.91801	2.58116		
0.432561	13.9144	0.920037	2.58139	0.432786	14.0271	0.988813	2.7755	0.919698	2.58135		
0.433163	14.2211	0.921726	2.58158	0.433385	14.3385	0.98982	2.77344	0.921387	2.58154		
0.433758	14.5405	0.923414	2.58177	0.433979	14.6628	0.990835	2.77141	0.923075	2.58173		
0.434348	14.8735	0.925102	2.58195	0.434566	15.001	0.991857	2.7694	0.924764	2.58191		
0.434931	15.2208	0.92679	2.58214	0.435147	15.354	0.992888	2.76742	0.926452	2.5821		
0.435508	15.5836	0.928478	2.58232	0.435721	15.7228	0.993926	2.76548	0.92814	2.58228		
0.436078	15.9628	0.930166	2.5825	0.436288	16.1083	0.994972	2.76356	0.929827	2.58246		
0.43664	16.3595	0.931854	2.58268	0.436847	16.5119	0.996027	2.76167	0.931515	2.58265		
0.437195	16.7751	0.933541	2.58286	0.437399	16.9349	0.997089	2.75981	0.933202	2.58283		
0.437742	17.2109	0.935228	2.58304	0.437943	17.3786	0.998159	2.75797	0.934889	2.58301		
0.438281	17.6684	0.936915	2.58322	0.438479	17.8446	0.999238	2.75617	0.936576	2.58318		
0.438811	18.1494	0.938602	2.5834	0.439006	18.3348	1.00032	2.7544	0.938263	2.58336		
0.439332	18.6556	0.940288	2.58357	0.439524	18.851			0.93995	2.58354		
0.439845	19.1892	0.941975	2.58374	0.440033	19.3953			0.941636	2.58371		
0.440347	19.7525	0.943661	2.58392	0.440532	19.9702			0.943323	2.58388		
0.440841	20.348	0.945347	2.58409	0.441022	20.5784			0.945009	2.58406		
0.441324	20.9785	0.947033	2.58426	0.441501	21.2228			0.946694	2.58423		
0.441797	21.6473	0.948718	2.58443	0.44197	21.9068			0.94838	2.5844		
0.442259	22.3581	0.950404	2.5846	0.442428	22.6343			0.950066	2.58457		
0.44271	23.115	0.952089	2.58477	0.442876	23.4094			0.951751	2.58473		
0.443151	23.9226	0.953774	2.58493	0.443311	24.2372			0.953436	2.5849		
0.443579	24.7862	0.955459	2.5851	0.443736	25.1232			0.955121	2.58507		
0.443996	25.712	0.957144	2.58526	0.444148	26.0739			0.956806	2.58523		
0.444401	26.7069	0.958828	2.58543	0.444548	27.0966			0.95849	2.58539		
0.444793	27.7791	0.960512	2.58559	0.444936	28.1999			0.960174	2.58556		
0.445173	28.9381	0.962196	2.58575	0.445311	29.3939			0.961859	2.58572		
0.44554	30.1949	0.96388	2.58591	0.445673	30.6903			0.963542	2.58588		
0.445894	31.5625	0.965564	2.58607	0.446022	32.103			0.965226	2.58604		
0.446234	33.0564	0.967247	2.58623	0.446358	33.6484			0.96691	2.58619		
0.446561	34.6951	0.968931	2.58638	0.446679	35.3464			0.968593	2.58635		
0.446874	36.5007	0.970614	2.58654	0.446987	37.2209			0.970276	2.58651		
0.447173	38.5005	0.972296	2.58669	0.447281	39.301			0.971959	2.58666		
0.447458	40.7276	0.973979	2.58685	0.44756	41.6228			0.973641	2.58682		
0.447727	43.2235	0.975661	2.587	0.447824	44.2313			0.975324	2.58697		
0.447983	46.04	0.977344	2.58715	0.448074	47.1833			0.977006	2.58712		
0.448223	49.2437	0.979025	2.5873	0.448308	50.5518			0.978688	2.58727		
0.448448	52.9205	0.980707	2.58745	0.448528	54.432			0.98037	2.58742		
0.448658	57.1841	0.982389	2.5876	0.448732	58.9505			0.982051	2.58757		
0.448852	62.1877	0.98407	2.58774	0.44892	64.2797			0.983733	2.58772		
0.449031	68.1429	0.985751	2.58789	0.449093	70.6598			0.985414	2.58786		
0.449193	75.3504	0.987432	2.58804	0.44925	78.4365			0.987095	2.58801		
0.44934	84.2527	0.989113	2.58818	0.449391	88.126			0.988775	2.58815		
0.449471	95.5285	0.990793	2.58832	0.449516	100.534			0.990456	2.58829		
0.449586	110.275	0.992473	2.58846	0.449624	116.995			0.992136	2.58844		
0.449684	130.389	0.994153	2.5886	0.449717	139.882			0.993816	2.58858		
0.449767	159.455	0.995833	2.58874	0.449793	173.879			0.995496	2.58872		
0.449832	205.168	0.997512	2.58888	0.449853	229.673			0.997175	2.58885		
0.449882	287.583	0.999192	2.58902	0.449896	338.136			0.998855	2.58899		
0.449915	480.571	1.00087	2.58916	0.449923	640.577			1.00053	2.58913		
0.449931	1460.54			0.449933	6062						
