Sym0		Asym0		Sym1		Sym2		Sym3		Asym1		Asym2		Asym3	
481  Points		528  Points		481  Points		457  Points		278  Points		488  Points		389  Points		234  Points	
Freq (MHz)	Vph (m/ms)	Freq (MHz)	Vph (m/ms)	Freq (MHz)	Vph (m/ms)	Freq (MHz)	Vph (m/ms)	Freq (MHz)	Vph (m/ms)	Freq (MHz)	Vph (m/ms)	Freq (MHz)	Vph (m/ms)	Freq (MHz)	Vph (m/ms)
1.00043	2.57802	0.000206263	0.0885106	1.00102	2.57766	0.449968	562.173	0.816497	1628.81	0.204146	266.849	0.612372	3184	0.899867	2384.23
0.998725	2.57905	0.000375954	0.119444	0.999315	2.57869	0.450076	278.244	0.8165	619.295	0.204217	129.074	0.612372	606.622	0.899875	753.301
0.997018	2.58009	0.000595899	0.150302	0.997609	2.57973	0.450255	184.932	0.816505	382.333	0.204337	85.1643	0.612372	335.247	0.899892	447.323
0.995309	2.58113	0.000865716	0.181043	0.995901	2.58077	0.450505	138.538	0.816513	276.528	0.204506	63.5808	0.612371	231.627	0.899917	318.118
0.993599	2.58216	0.00118506	0.211656	0.994191	2.58181	0.450823	110.794	0.816523	216.591	0.204724	50.7544	0.612371	176.938	0.89995	246.83
0.991886	2.5832	0.00155349	0.242122	0.992479	2.58284	0.451207	92.3438	0.816535	178.009	0.204991	42.2594	0.61237	143.141	0.899992	201.648
0.990171	2.58423	0.00197042	0.272411	0.990765	2.58387	0.451653	79.1914	0.81655	151.096	0.205305	36.2223	0.612368	120.185	0.900043	170.452
0.988453	2.58526	0.00243537	0.302515	0.989048	2.58491	0.45216	69.3447	0.816568	131.253	0.205668	31.714	0.612367	103.574	0.900102	147.619
0.986733	2.58629	0.00294763	0.332406	0.987329	2.58594	0.452723	61.699	0.816588	116.018	0.206077	28.2211	0.612365	90.9967	0.900169	130.183
0.985011	2.58732	0.0035066	0.362075	0.985607	2.58696	0.45334	55.592	0.81661	103.952	0.206533	25.437	0.612364	81.1434	0.900245	116.434
0.983285	2.58834	0.0041115	0.391501	0.983883	2.58799	0.454007	50.6031	0.816636	94.1607	0.207035	23.1672	0.612362	73.2155	0.900329	105.315
0.981556	2.58936	0.00476157	0.420669	0.982155	2.58901	0.45472	46.4519	0.816663	86.0557	0.207582	21.2824	0.61236	66.6987	0.900422	96.1364
0.979824	2.59037	0.005456	0.449565	0.980424	2.59002	0.455478	42.9444	0.816693	79.236	0.208173	19.6932	0.612358	61.2472	0.900522	88.4319
0.978089	2.59139	0.00619397	0.478176	0.97869	2.59104	0.456276	39.9424	0.816726	73.4185	0.208808	18.3359	0.612356	56.6195	0.900631	81.8727
0.976351	2.59239	0.00697454	0.506485	0.976953	2.59204	0.457113	37.3442	0.816761	68.3974	0.209486	17.1638	0.612354	52.6419	0.900749	76.2214
0.974609	2.59339	0.00779691	0.534488	0.975212	2.59305	0.457985	35.074	0.816798	64.0197	0.210207	16.1421	0.612352	49.1865	0.900874	71.3017
0.972863	2.59439	0.00866014	0.562172	0.973468	2.59405	0.458889	33.0735	0.816838	60.1692	0.210968	15.244	0.61235	46.1568	0.901008	66.9803
0.971113	2.59538	0.0095632	0.589523	0.971719	2.59504	0.459825	31.2977	0.816881	56.756	0.211769	14.4487	0.612347	43.4786	0.90115	63.1545
0.96936	2.59636	0.0105053	0.616539	0.969967	2.59602	0.460789	29.7108	0.816926	53.7098	0.21261	13.7401	0.612345	41.0941	0.9013	59.7436
0.967602	2.59734	0.0114853	0.643211	0.968211	2.597	0.461779	28.2844	0.816974	50.9744	0.213489	13.1048	0.612344	38.9576	0.901458	56.6838
0.96584	2.59831	0.0125024	0.669528	0.966451	2.59798	0.462795	26.9955	0.817024	48.5045	0.214406	12.5325	0.612342	37.0323	0.901625	53.9235
0.964074	2.59927	0.0135555	0.695494	0.964686	2.59894	0.463833	25.8251	0.817077	46.2633	0.215359	12.0143	0.61234	35.2883	0.901799	51.4209
0.962304	2.60023	0.0146438	0.721095	0.962917	2.5999	0.464894	24.7577	0.817133	44.2205	0.216348	11.5433	0.612339	33.7012	0.901981	49.1416
0.960529	2.60117	0.0157661	0.746332	0.961144	2.60085	0.465974	23.7804	0.817191	42.3508	0.217371	11.1133	0.612338	32.2507	0.902171	47.057
0.958749	2.60211	0.0169218	0.771207	0.959366	2.60179	0.467074	22.8823	0.817252	40.6332	0.218427	10.7195	0.612337	30.92	0.902368	45.1432
0.956964	2.60304	0.0181096	0.795707	0.957583	2.60272	0.468191	22.0541	0.817315	39.0499	0.219516	10.3576	0.612337	29.6947	0.902574	43.3801
0.955175	2.60396	0.0193288	0.819841	0.955795	2.60365	0.469325	21.2881	0.817381	37.5856	0.220491	10.0654	0.612337	28.5628	0.902787	41.7506
0.953381	2.60488	0.0205783	0.843601	0.954003	2.60456	0.470475	20.5776	0.81745	36.2275	0.221341	9.83173	0.612337	27.5141	0.903008	40.2401
0.951582	2.60578	0.0218574	0.866992	0.952205	2.60547	0.47164	19.9167	0.817522	34.9645	0.222056	9.64837	0.612338	26.5397	0.903236	38.8361
0.949777	2.60667	0.023165	0.890012	0.950402	2.60636	0.472819	19.3005	0.817596	33.7869	0.222629	9.50929	0.61234	25.632	0.903472	37.5277
0.947968	2.60755	0.0245003	0.912663	0.948595	2.60725	0.474011	18.7246	0.817673	32.6863	0.223055	9.41018	0.612342	24.7843	0.903716	36.3056
0.946153	2.60842	0.0258626	0.934949	0.946782	2.60812	0.475216	18.1851	0.817753	31.6554	0.22333	9.3481	0.612345	23.9909	0.903967	35.1614
0.944333	2.60928	0.0272508	0.956868	0.944964	2.60899	0.476432	17.6789	0.817836	30.6879	0.223727	9.26065	0.612348	23.2468	0.904225	34.0879
0.942508	2.61013	0.0286642	0.978423	0.94314	2.60984	0.477661	17.2028	0.817921	29.778	0.224162	9.16792	0.612353	22.5475	0.90449	33.0789
0.940677	2.61097	0.0301021	0.999621	0.941311	2.61068	0.4789	16.7544	0.818009	28.9209	0.22476	9.04552	0.612358	21.8891	0.904763	32.1287
0.938841	2.6118	0.0315636	1.02046	0.939477	2.61151	0.480149	16.3312	0.8181	28.1119	0.225525	8.89659	0.612364	21.2681	0.905042	31.2324
0.937	2.61262	0.0330479	1.04095	0.937638	2.61233	0.481408	15.9313	0.818194	27.3472	0.226463	8.72469	0.612371	20.6814	0.905329	30.3854
0.935153	2.61342	0.0345544	1.06109	0.935793	2.61314	0.482676	15.5527	0.818291	26.6233	0.227583	8.53371	0.612379	20.1262	0.905622	29.5839
0.9333	2.61421	0.0360823	1.08089	0.933942	2.61394	0.483954	15.1938	0.818391	25.937	0.228892	8.32761	0.612388	19.6002	0.905923	28.8243
0.931443	2.615	0.0376309	1.10034	0.932086	2.61473	0.485239	14.8531	0.818493	25.2854	0.230225	8.13429	0.612399	19.1009	0.90623	28.1034
0.929579	2.61576	0.0391995	1.11946	0.930225	2.6155	0.486534	14.5293	0.818599	24.666	0.231582	7.95262	0.61241	18.6265	0.906544	27.4183
0.92771	2.61652	0.0407876	1.13825	0.928358	2.61626	0.487835	14.2211	0.818708	24.0765	0.232961	7.78164	0.612423	18.1752	0.906864	26.7665
0.925836	2.61727	0.0423945	1.15672	0.926486	2.61701	0.489145	13.9275	0.818819	23.5147	0.234363	7.62047	0.612437	17.7453	0.907191	26.1455
0.923957	2.618	0.0440194	1.17486	0.924608	2.61775	0.490461	13.6475	0.818934	22.9788	0.235787	7.46832	0.612453	17.3353	0.907524	25.5533
0.922072	2.61873	0.0456619	1.19269	0.922725	2.61848	0.491785	13.3801	0.819052	22.4669	0.237231	7.32448	0.61247	16.9439	0.907864	24.988
0.920182	2.61944	0.0473215	1.2102	0.920837	2.61919	0.493115	13.1245	0.819173	21.9776	0.238695	7.18832	0.612489	16.5698	0.90821	24.4476
0.918286	2.62013	0.0489975	1.22741	0.918943	2.61989	0.494452	12.8799	0.819297	21.5094	0.240178	7.05926	0.61251	16.212	0.908562	23.9307
0.916385	2.62082	0.0506893	1.24432	0.917044	2.62059	0.495794	12.6457	0.819424	21.0609	0.241679	6.93679	0.612532	15.8694	0.90892	23.4357
0.914479	2.6215	0.0523965	1.26094	0.915139	2.62126	0.497143	12.4212	0.819554	20.6309	0.243198	6.82043	0.612556	15.541	0.909284	22.9613
0.912568	2.62216	0.0541186	1.27726	0.91323	2.62193	0.498497	12.2059	0.819688	20.2184	0.244735	6.70975	0.612582	15.226	0.909654	22.5063
0.910651	2.62281	0.0558551	1.2933	0.911315	2.62259	0.499856	11.9991	0.819825	19.8222	0.246288	6.60437	0.61261	14.9236	0.91003	22.0694
0.90873	2.62345	0.0576055	1.30907	0.909396	2.62323	0.501221	11.8004	0.819965	19.4415	0.247857	6.50392	0.61264	14.633	0.910411	21.6496
0.906804	2.62408	0.0593694	1.32455	0.907471	2.62387	0.502591	11.6093	0.820108	19.0753	0.249441	6.40808	0.612672	14.3536	0.910798	21.2459
0.904873	2.6247	0.0611464	1.33977	0.905542	2.62449	0.503966	11.4254	0.820255	18.7229	0.25104	6.31656	0.612707	14.0848	0.91119	20.8575
0.902936	2.62531	0.0629359	1.35473	0.903607	2.6251	0.505345	11.2483	0.820405	18.3834	0.252653	6.22907	0.612744	13.8259	0.911587	20.4835
0.900996	2.6259	0.0647378	1.36943	0.901668	2.6257	0.506729	11.0776	0.820559	18.0563	0.254279	6.14537	0.612783	13.5765	0.91199	20.123
0.89905	2.62649	0.0665514	1.38387	0.899724	2.62629	0.508118	10.913	0.820716	17.7407	0.255919	6.06521	0.612825	13.336	0.912398	19.7755
0.8971	2.62706	0.0683766	1.39807	0.897776	2.62686	0.50951	10.7542	0.820876	17.4362	0.257571	5.9884	0.612869	13.1039	0.912811	19.4401
0.895145	2.62763	0.0702127	1.41202	0.895823	2.62743	0.510906	10.6008	0.82104	17.1421	0.259236	5.91472	0.612916	12.8799	0.913229	19.1163
0.893186	2.62818	0.0720597	1.42573	0.893865	2.62799	0.512307	10.4526	0.821208	16.858	0.260912	5.84401	0.612966	12.6635	0.913652	18.8036
0.891223	2.62872	0.073917	1.43921	0.891903	2.62854	0.51353	10.3275	0.821379	16.5834	0.262599	5.77608	0.613019	12.4543	0.914079	18.5012
0.889255	2.62926	0.0757845	1.45246	0.889937	2.62907	0.514575	10.2237	0.821554	16.3177	0.264296	5.71078	0.613074	12.252	0.914511	18.2088
0.887283	2.62978	0.0776617	1.46549	0.887966	2.6296	0.515441	10.1398	0.821733	16.0606	0.266005	5.64796	0.613133	12.0563	0.914948	17.9258
0.885307	2.63029	0.0795484	1.4783	0.885992	2.63012	0.516126	10.0746	0.821915	15.8116	0.267723	5.58749	0.613195	11.8669	0.915389	17.6519
0.883327	2.6308	0.0814442	1.49089	0.884013	2.63062	0.51663	10.0274	0.822101	15.5704	0.26945	5.52925	0.61326	11.6834	0.915834	17.3865
0.881344	2.63129	0.0833491	1.50327	0.882031	2.63112	0.516953	9.99738	0.822291	15.3366	0.271186	5.47311	0.613328	11.5056	0.916283	17.1293
0.879356	2.63178	0.0852624	1.51545	0.880044	2.63161	0.517418	9.95467	0.822484	15.11	0.272932	5.41896	0.6134	11.3332	0.916736	16.8799
0.877364	2.63226	0.0871842	1.52742	0.878054	2.63209	0.517923	9.90876	0.822682	14.8901	0.274685	5.3667	0.613475	11.166	0.917194	16.638
0.875369	2.63273	0.089114	1.53919	0.87606	2.63256	0.518611	9.84715	0.822883	14.6766	0.276446	5.31624	0.613554	11.0038	0.917655	16.4032
0.873371	2.63319	0.0910518	1.55077	0.874063	2.63303	0.519483	9.77057	0.823089	14.4694	0.278215	5.26749	0.613637	10.8463	0.918119	16.1752
0.871369	2.63364	0.0929972	1.56217	0.872062	2.63348	0.520538	9.6799	0.823298	14.2681	0.279992	5.22035	0.613724	10.6934	0.918588	15.9538
0.869363	2.63408	0.0949499	1.57337	0.870058	2.63393	0.521778	9.57615	0.823511	14.0726	0.281775	5.17476	0.613802	10.5637	0.91906	15.7386
0.867354	2.63452	0.0969099	1.5844	0.86805	2.63437	0.523203	9.46043	0.823729	13.8824	0.283565	5.13064	0.613872	10.4556	0.919535	15.5295
0.865342	2.63495	0.0988769	1.59524	0.866039	2.6348	0.524631	9.34812	0.823951	13.6975	0.285361	5.08791	0.613931	10.368	0.920014	15.326
0.863327	2.63537	0.100851	1.60591	0.864025	2.63522	0.526061	9.23909	0.824177	13.5176	0.287164	5.04652	0.613979	10.2998	0.920495	15.1281
0.861308	2.63578	0.102831	1.61641	0.862007	2.63564	0.527494	9.13318	0.824407	13.3426	0.288972	5.0064	0.614014	10.2502	0.92098	14.9355
0.859287	2.63619	0.104818	1.62675	0.859987	2.63605	0.52893	9.03027	0.824641	13.1722	0.290785	4.9675	0.614037	10.2187	0.921468	14.748
0.857263	2.63659	0.10681	1.63692	0.857964	2.63645	0.530367	8.93023	0.82488	13.0062	0.292604	4.92975	0.614071	10.1738	0.921958	14.5654
0.855236	2.63698	0.108809	1.64693	0.855938	2.63684	0.531807	8.83294	0.825123	12.8446	0.294428	4.89311	0.614108	10.1255	0.922451	14.3874
0.853206	2.63737	0.110814	1.65678	0.853909	2.63723	0.533249	8.73828	0.82537	12.687	0.296256	4.85753	0.61416	10.0605	0.922947	14.214
0.851173	2.63774	0.112825	1.66648	0.851877	2.63761	0.534692	8.64616	0.825622	12.5335	0.298089	4.82296	0.614226	9.97953	0.923446	14.0449
0.849138	2.63812	0.114841	1.67602	0.849843	2.63799	0.536137	8.55647	0.825879	12.3838	0.299926	4.78936	0.614309	9.88339	0.923946	13.88
0.8471	2.63849	0.116862	1.68543	0.847806	2.63836	0.537584	8.46912	0.82614	12.2377	0.301767	4.75669	0.614409	9.77304	0.924449	13.7192
0.84506	2.63885	0.118888	1.69468	0.845766	2.63872	0.539033	8.38401	0.826406	12.0953	0.303611	4.72491	0.614529	9.64951	0.924955	13.5622
0.843017	2.6392	0.12092	1.70379	0.843724	2.63908	0.540483	8.30106	0.826676	11.9562	0.30546	4.69398	0.614653	9.52919	0.925462	13.409
0.840972	2.63955	0.122957	1.71277	0.84168	2.63943	0.541935	8.22018	0.826951	11.8205	0.307311	4.66387	0.614781	9.41195	0.925971	13.2594
0.838925	2.6399	0.124998	1.72161	0.839634	2.63978	0.543387	8.14131	0.827231	11.688	0.309166	4.63454	0.614915	9.29768	0.926482	13.1132
0.836875	2.64024	0.127044	1.73032	0.837585	2.64012	0.544841	8.06436	0.827516	11.5585	0.311023	4.60596	0.615054	9.18628	0.926995	12.9705
0.834823	2.64057	0.129095	1.73889	0.835534	2.64046	0.546296	7.98927	0.827805	11.4321	0.312883	4.57811	0.615198	9.07764	0.92751	12.831
0.832769	2.6409	0.13115	1.74734	0.833481	2.64079	0.547752	7.91596	0.8281	11.3086	0.314746	4.55095	0.615347	8.97166	0.928026	12.6946
0.830714	2.64123	0.133209	1.75566	0.831425	2.64111	0.549209	7.84438	0.828399	11.1878	0.316611	4.52446	0.615501	8.86826	0.928543	12.5613
0.828656	2.64155	0.135272	1.76386	0.829368	2.64144	0.550667	7.77446	0.828704	11.0698	0.318478	4.4986	0.615661	8.76734	0.929062	12.4309
0.826596	2.64186	0.13734	1.77194	0.827309	2.64175	0.552125	7.70615	0.828973	10.969	0.320347	4.47337	0.615827	8.66882	0.929583	12.3033
0.824534	2.64217	0.139411	1.7799	0.825248	2.64207	0.553584	7.63938	0.829206	10.8847	0.322217	4.44873	0.615998	8.57262	0.930104	12.1785
0.82247	2.64248	0.141487	1.78775	0.823185	2.64237	0.555044	7.57412	0.829401	10.816	0.32409	4.42466	0.616174	8.47866	0.930627	12.0564
0.820405	2.64278	0.143566	1.79548	0.82112	2.64268	0.556504	7.51029	0.829556	10.7623	0.325963	4.40113	0.616357	8.38687	0.93115	11.9368
0.818338	2.64308	0.145649	1.8031	0.819054	2.64298	0.557964	7.44787	0.829671	10.7232	0.327838	4.37814	0.616546	8.29718	0.931675	11.8197
0.816269	2.64337	0.147735	1.81061	0.816986	2.64327	0.559425	7.38679	0.829745	10.6983	0.329714	4.35566	0.616741	8.20952	0.9322	11.705
0.814199	2.64367	0.149825	1.81802	0.814916	2.64357	0.560885	7.32702	0.829852	10.6628	0.33159	4.33367	0.616942	8.12383	0.932726	11.5927
0.812127	2.64395	0.151918	1.82532	0.812844	2.64385	0.562346	7.26851	0.829968	10.6244	0.333468	4.31216	0.617149	8.04005	0.933253	11.4826
0.810053	2.64424	0.154015	1.83252	0.810771	2.64414	0.563807	7.21123	0.830128	10.5728	0.335346	4.2911	0.617362	7.95811	0.93378	11.3747
0.807978	2.64452	0.156114	1.83961	0.808697	2.64442	0.565267	7.15513	0.830332	10.5082	0.337224	4.27048	0.617583	7.87797	0.934308	11.269
0.805902	2.64479	0.158217	1.84661	0.806621	2.6447	0.566728	7.10017	0.830582	10.4312	0.339103	4.25029	0.61781	7.79956	0.934769	11.1785
0.803824	2.64507	0.160323	1.85351	0.804543	2.64497	0.568188	7.04633	0.830878	10.3424	0.340982	4.23051	0.618043	7.72284	0.935161	11.1026
0.801744	2.64534	0.162432	1.86032	0.802464	2.64525	0.569648	6.99356	0.831223	10.2425	0.34286	4.21112	0.618284	7.64776	0.935486	11.0407
0.799664	2.64561	0.164544	1.86703	0.800384	2.64552	0.571107	6.94184	0.831574	10.1447	0.344739	4.19212	0.618531	7.57426	0.935743	10.9922
0.797582	2.64587	0.166658	1.87365	0.798303	2.64578	0.572566	6.89112	0.83193	10.0489	0.346617	4.17349	0.618786	7.50231	0.935932	10.9569
0.795499	2.64613	0.168776	1.88019	0.79622	2.64604	0.574024	6.84139	0.832292	9.95499	0.348495	4.15521	0.619047	7.43185	0.936053	10.9344
0.793414	2.64639	0.170896	1.88663	0.794136	2.6463	0.575481	6.7926	0.83266	9.86299	0.350372	4.13729	0.619316	7.36285	0.936227	10.9022
0.791328	2.64665	0.173019	1.89299	0.792051	2.64656	0.576938	6.74474	0.833033	9.77282	0.352248	4.11969	0.619593	7.29526	0.936416	10.8675
0.789242	2.64691	0.175144	1.89926	0.789964	2.64682	0.578394	6.69778	0.833412	9.68443	0.354124	4.10242	0.619877	7.22905	0.936673	10.8206
0.787154	2.64716	0.177271	1.90545	0.787877	2.64707	0.579849	6.65168	0.833797	9.59777	0.355998	4.08546	0.620168	7.16418	0.936998	10.762
0.785065	2.64741	0.179402	1.91155	0.785788	2.64732	0.581302	6.60643	0.834188	9.51279	0.357871	4.0688	0.620467	7.10061	0.937391	10.692
0.782975	2.64766	0.181534	1.91758	0.783698	2.64757	0.582755	6.562	0.834585	9.42945	0.359744	4.05244	0.620775	7.0383	0.937852	10.611
0.780884	2.6479	0.183669	1.92353	0.781608	2.64782	0.584207	6.51837	0.834988	9.3477	0.361614	4.03635	0.62109	6.97723	0.938382	10.5198
0.778791	2.64815	0.185806	1.9294	0.779516	2.64806	0.585657	6.47551	0.835397	9.2675	0.363483	4.02055	0.621413	6.91737	0.938911	10.4302
0.776698	2.64839	0.187945	1.93519	0.777423	2.6483	0.587106	6.4334	0.835813	9.18881	0.365351	4.005	0.621744	6.85867	0.93944	10.3422
0.774604	2.64863	0.190087	1.94091	0.775329	2.64854	0.588553	6.39203	0.836234	9.11159	0.367216	3.98972	0.622084	6.80111	0.939969	10.2557
0.77251	2.64886	0.19223	1.94655	0.773235	2.64878	0.589999	6.35136	0.836662	9.0358	0.36908	3.97468	0.622432	6.74466	0.940498	10.1708
0.770414	2.6491	0.194376	1.95213	0.771139	2.64902	0.591443	6.31139	0.837096	8.9614	0.370942	3.95988	0.622789	6.68929	0.941026	10.0874
0.768317	2.64934	0.196523	1.95763	0.769043	2.64925	0.592886	6.27209	0.837537	8.88836	0.372802	3.94532	0.623154	6.63498	0.941554	10.0054
0.76622	2.64957	0.198673	1.96306	0.766946	2.64949	0.594326	6.23345	0.837984	8.81665	0.374659	3.93098	0.623528	6.5817	0.942082	9.92482
0.764121	2.6498	0.200824	1.96843	0.764848	2.64972	0.595765	6.19544	0.838437	8.74623	0.376514	3.91686	0.623911	6.52942	0.942609	9.84562
0.762022	2.65003	0.202978	1.97373	0.762749	2.64995	0.597202	6.15806	0.838898	8.67706	0.378366	3.90295	0.624302	6.47812	0.943135	9.76775
0.759922	2.65026	0.205133	1.97896	0.760649	2.65018	0.598637	6.12128	0.839364	8.60912	0.380216	3.88925	0.624703	6.42778	0.943661	9.69118
0.757822	2.65049	0.20729	1.98412	0.758549	2.65041	0.60007	6.08508	0.839838	8.54239	0.382063	3.87575	0.625113	6.37837	0.944187	9.61588
0.755721	2.65071	0.209448	1.98923	0.756448	2.65064	0.601501	6.04947	0.840318	8.47681	0.383908	3.86244	0.625533	6.32987	0.944712	9.54182
0.753619	2.65094	0.211609	1.99427	0.754346	2.65086	0.60293	6.01441	0.840805	8.41238	0.385749	3.84932	0.625961	6.28226	0.945236	9.46897
0.751516	2.65116	0.213771	1.99924	0.752244	2.65109	0.604356	5.97989	0.841299	8.34907	0.387588	3.83638	0.6264	6.23552	0.94576	9.39729
0.749413	2.65139	0.215934	2.00416	0.750141	2.65131	0.60578	5.9459	0.8418	8.28684	0.389423	3.82362	0.626847	6.18963	0.946283	9.32676
0.747309	2.65161	0.218099	2.00902	0.748037	2.65153	0.607202	5.91243	0.842308	8.22567	0.391255	3.81103	0.627305	6.14457	0.946805	9.25735
0.745204	2.65183	0.220266	2.01382	0.745933	2.65175	0.608621	5.87947	0.842823	8.16554	0.393083	3.79861	0.627772	6.10032	0.947327	9.18903
0.743099	2.65205	0.222434	2.01856	0.743828	2.65198	0.610037	5.847	0.843345	8.10642	0.394908	3.78634	0.62825	6.05686	0.947848	9.12178
0.740994	2.65227	0.224604	2.02325	0.741723	2.6522	0.611451	5.815	0.843874	8.04829	0.396729	3.77424	0.628737	6.01418	0.948368	9.05557
0.738887	2.65249	0.226775	2.02788	0.739617	2.65242	0.612862	5.78348	0.844411	7.99113	0.398547	3.76228	0.629234	5.97225	0.948887	8.99038
0.736781	2.65271	0.228947	2.03245	0.73751	2.65263	0.61427	5.75241	0.844955	7.93491	0.400361	3.75048	0.629742	5.93107	0.949405	8.92618
0.734674	2.65293	0.231121	2.03697	0.735403	2.65285	0.615675	5.72178	0.845506	7.87962	0.402171	3.73881	0.63026	5.89062	0.949923	8.86296
0.732566	2.65315	0.233296	2.04144	0.733296	2.65307	0.617078	5.69159	0.846064	7.82523	0.403977	3.72729	0.630789	5.85087	0.95044	8.80068
0.730458	2.65336	0.235472	2.04586	0.731188	2.65329	0.618477	5.66183	0.84663	7.77173	0.405779	3.7159	0.631328	5.81182	0.950956	8.73934
0.728349	2.65358	0.23765	2.05022	0.729079	2.65351	0.619873	5.63247	0.847204	7.7191	0.407577	3.70464	0.631877	5.77345	0.951471	8.67889
0.72624	2.6538	0.239829	2.05454	0.72697	2.65372	0.621266	5.60353	0.847785	7.6673	0.409371	3.69351	0.632438	5.73574	0.951985	8.61934
0.724131	2.65402	0.242009	2.0588	0.724861	2.65394	0.622656	5.57498	0.848374	7.61634	0.41116	3.6825	0.633009	5.69869	0.952499	8.56065
0.722021	2.65423	0.244191	2.06302	0.722751	2.65416	0.624043	5.54681	0.84897	7.56619	0.412944	3.67161	0.633591	5.66228	0.953012	8.50282
0.719911	2.65445	0.246373	2.06718	0.720641	2.65437	0.625426	5.51902	0.849574	7.51683	0.414724	3.66084	0.634184	5.62649	0.953524	8.44581
0.7178	2.65466	0.248557	2.0713	0.718531	2.65459	0.626806	5.4916	0.850186	7.46825	0.4165	3.65018	0.634788	5.59132	0.954035	8.38961
0.715689	2.65488	0.250741	2.07538	0.71642	2.65481	0.628183	5.46453	0.850806	7.42043	0.41827	3.63964	0.635404	5.55674	0.954545	8.33421
0.713578	2.6551	0.252927	2.07941	0.714309	2.65502	0.629556	5.43782	0.851433	7.37335	0.420036	3.6292	0.636031	5.52276	0.955055	8.27959
0.711467	2.65531	0.255114	2.08339	0.712198	2.65524	0.630925	5.41146	0.852069	7.32701	0.421797	3.61886	0.636669	5.48935	0.955563	8.22573
0.709355	2.65553	0.257302	2.08733	0.710086	2.65546	0.632291	5.38543	0.852712	7.28137	0.423553	3.60863	0.637318	5.45651	0.956071	8.17261
0.707243	2.65575	0.259491	2.09122	0.707974	2.65567	0.633653	5.35972	0.853363	7.23644	0.425304	3.59849	0.63798	5.42422	0.956578	8.12022
0.70513	2.65597	0.26168	2.09507	0.705862	2.65589	0.635011	5.33434	0.854023	7.1922	0.42705	3.58845	0.638653	5.39248	0.957085	8.06855
0.703018	2.65618	0.263871	2.09888	0.703749	2.65611	0.636366	5.30928	0.854691	7.14863	0.42879	3.5785	0.639337	5.36127	0.957591	8.01759
0.700905	2.6564	0.266063	2.10265	0.701636	2.65633	0.637717	5.28452	0.855366	7.10571	0.430525	3.56865	0.640033	5.33058	0.958095	7.9673
0.698792	2.65662	0.268256	2.10637	0.699523	2.65655	0.639063	5.26006	0.85605	7.06345	0.432255	3.55888	0.640742	5.3004	0.9586	7.9177
0.696678	2.65684	0.270449	2.11006	0.69741	2.65677	0.640406	5.2359	0.856742	7.02181	0.433979	3.5492	0.641462	5.27073	0.959103	7.86875
0.694565	2.65706	0.272643	2.1137	0.695297	2.65699	0.641745	5.21202	0.857443	6.9808	0.435698	3.5396	0.642194	5.24155	0.959606	7.82044
0.692451	2.65728	0.274839	2.1173	0.693183	2.65721	0.64308	5.18843	0.858151	6.9404	0.437411	3.53008	0.642938	5.21286	0.960109	7.77278
0.690338	2.6575	0.277035	2.12087	0.691069	2.65743	0.64441	5.16511	0.858868	6.90059	0.439119	3.52065	0.643695	5.18465	0.960611	7.72573
0.688224	2.65773	0.279231	2.1244	0.688955	2.65765	0.645737	5.14206	0.859594	6.86137	0.44082	3.51129	0.644464	5.1569	0.961112	7.67929
0.68611	2.65795	0.281429	2.12789	0.686841	2.65787	0.647059	5.11928	0.860328	6.82273	0.442516	3.502	0.645245	5.1296	0.961613	7.63345
0.683995	2.65818	0.283627	2.13134	0.684727	2.6581	0.648377	5.09676	0.86107	6.78465	0.444207	3.49279	0.646038	5.10276	0.962113	7.5882
0.681881	2.6584	0.285826	2.13476	0.682613	2.65832	0.649691	5.07449	0.861821	6.74712	0.445891	3.48365	0.646844	5.07636	0.962613	7.54353
0.679767	2.65863	0.288026	2.13814	0.680499	2.65855	0.651001	5.05247	0.86258	6.71014	0.447569	3.47458	0.647662	5.0504	0.963112	7.49942
0.677652	2.65886	0.290227	2.14149	0.678384	2.65878	0.652306	5.0307	0.863348	6.67369	0.449242	3.46558	0.648493	5.02486	0.963611	7.45586
0.675538	2.65908	0.292428	2.14479	0.67627	2.65901	0.653607	5.00916	0.864124	6.63776	0.450908	3.45664	0.649336	4.99973	0.96411	7.41285
0.673423	2.65932	0.29463	2.14807	0.674155	2.65924	0.654903	4.98786	0.864909	6.60235	0.452568	3.44777	0.650192	4.97502	0.964608	7.37038
0.671309	2.65955	0.296832	2.15131	0.672041	2.65947	0.656195	4.96679	0.865703	6.56744	0.454222	3.43896	0.65106	4.95071	0.965106	7.32843
0.669194	2.65978	0.299035	2.15452	0.669926	2.6597	0.657482	4.94594	0.866505	6.53302	0.45587	3.43022	0.651942	4.9268	0.965604	7.28699
0.66708	2.66002	0.301239	2.15769	0.667812	2.65993	0.658765	4.92532	0.867315	6.4991	0.457512	3.42153	0.652835	4.90328	0.966101	7.24606
0.664965	2.66025	0.303444	2.16084	0.665697	2.66017	0.660044	4.90491	0.868135	6.46565	0.459147	3.41291	0.653742	4.88013	0.966599	7.20563
0.662851	2.66049	0.305649	2.16395	0.663583	2.66041	0.661317	4.88471	0.868963	6.43267	0.460776	3.40434	0.654662	4.85737	0.967096	7.16568
0.660736	2.66073	0.307854	2.16702	0.661468	2.66065	0.662587	4.86473	0.8698	6.40015	0.462399	3.39583	0.655594	4.83497	0.967593	7.12622
0.658622	2.66097	0.31006	2.17007	0.659354	2.66089	0.663851	4.84494	0.870645	6.36808	0.464015	3.38737	0.656539	4.81294	0.96809	7.08723
0.656508	2.66122	0.312267	2.17309	0.657239	2.66113	0.665111	4.82536	0.8715	6.33645	0.465626	3.37897	0.657497	4.79126	0.968587	7.0487
0.654393	2.66146	0.314474	2.17607	0.655125	2.66138	0.666367	4.80598	0.872363	6.30527	0.467229	3.37062	0.658468	4.76993	0.969084	7.01063
0.652279	2.66171	0.316682	2.17903	0.653011	2.66162	0.667618	4.78679	0.873234	6.27451	0.468827	3.36232	0.659452	4.74894	0.969582	6.97301
0.650165	2.66196	0.31889	2.18195	0.650897	2.66187	0.668864	4.76779	0.874115	6.24417	0.470418	3.35408	0.660448	4.7283	0.970079	6.93582
0.648051	2.66221	0.321098	2.18485	0.648783	2.66212	0.670105	4.74898	0.875004	6.21425	0.472003	3.34588	0.661458	4.70798	0.970577	6.89907
0.645938	2.66247	0.323307	2.18771	0.646669	2.66238	0.671342	4.73035	0.875902	6.18473	0.473581	3.33774	0.66248	4.68799	0.971074	6.86275
0.643824	2.66272	0.325517	2.19055	0.644556	2.66263	0.672574	4.7119	0.876808	6.15562	0.475153	3.32964	0.663515	4.66832	0.971572	6.82684
0.641711	2.66298	0.327727	2.19336	0.642443	2.66289	0.673801	4.69363	0.877723	6.12689	0.476718	3.32159	0.664563	4.64897	0.97207	6.79135
0.639598	2.66324	0.329937	2.19615	0.640329	2.66315	0.675024	4.67553	0.878647	6.09856	0.478278	3.31359	0.665624	4.62993	0.972569	6.75626
0.637485	2.66351	0.332148	2.1989	0.638216	2.66342	0.676242	4.6576	0.87958	6.0706	0.47983	3.30563	0.666698	4.61119	0.973068	6.72157
0.635372	2.66378	0.334359	2.20163	0.636104	2.66368	0.677455	4.63985	0.880522	6.04302	0.481377	3.29772	0.667785	4.59274	0.973568	6.68728
0.63326	2.66405	0.336571	2.20433	0.633991	2.66395	0.678663	4.62225	0.881472	6.0158	0.482917	3.28985	0.668884	4.5746	0.974068	6.65337
0.631148	2.66432	0.338783	2.20701	0.631879	2.66423	0.679867	4.60482	0.882431	5.98895	0.484451	3.28203	0.669997	4.55674	0.974568	6.61984
0.629036	2.6646	0.340995	2.20966	0.629767	2.6645	0.681066	4.58756	0.883398	5.96244	0.485978	3.27425	0.671122	4.53916	0.975069	6.58668
0.626925	2.66488	0.343207	2.21228	0.627655	2.66478	0.682261	4.57045	0.884374	5.93629	0.4875	3.26652	0.672259	4.52186	0.975571	6.55389
0.624813	2.66516	0.34542	2.21488	0.625544	2.66506	0.683451	4.55349	0.885359	5.91048	0.489015	3.25883	0.67341	4.50484	0.976073	6.52147
0.622703	2.66545	0.347634	2.21745	0.623433	2.66535	0.684636	4.53669	0.886352	5.88501	0.490524	3.25118	0.674572	4.48809	0.976576	6.4894
0.620592	2.66574	0.349847	2.22	0.621323	2.66564	0.685816	4.52003	0.887354	5.85987	0.492026	3.24357	0.675748	4.4716	0.97708	6.45768
0.618482	2.66603	0.352061	2.22252	0.619213	2.66593	0.686992	4.50353	0.888365	5.83506	0.493523	3.23601	0.676936	4.45537	0.977585	6.42631
0.616372	2.66633	0.354275	2.22502	0.617103	2.66623	0.688163	4.48717	0.889384	5.81056	0.495013	3.22848	0.678137	4.43939	0.978091	6.39528
0.614263	2.66663	0.35649	2.2275	0.614993	2.66653	0.68933	4.47096	0.890411	5.78638	0.496498	3.221	0.679349	4.42367	0.978597	6.36459
0.612155	2.66694	0.358704	2.22995	0.612885	2.66683	0.690492	4.45488	0.891447	5.76251	0.497977	3.21355	0.680575	4.40819	0.979105	6.33423
0.610046	2.66725	0.360919	2.23238	0.610776	2.66714	0.69165	4.43895	0.892491	5.73895	0.499449	3.20615	0.681812	4.39296	0.979614	6.30419
0.607939	2.66756	0.363134	2.23478	0.608668	2.66746	0.692803	4.42315	0.893544	5.71569	0.500916	3.19879	0.683062	4.37796	0.980123	6.27447
0.605831	2.66788	0.36535	2.23717	0.606561	2.66777	0.693951	4.40749	0.894605	5.69272	0.502377	3.19146	0.684324	4.36319	0.980634	6.24507
0.603725	2.66821	0.367565	2.23953	0.604454	2.6681	0.695095	4.39196	0.895674	5.67004	0.503833	3.18418	0.685598	4.34866	0.981146	6.21599
0.601618	2.66854	0.369781	2.24187	0.602348	2.66842	0.696235	4.37657	0.896752	5.64764	0.505282	3.17694	0.686883	4.33435	0.981659	6.18721
0.599513	2.66887	0.371997	2.24419	0.600242	2.66876	0.69737	4.3613	0.897838	5.62553	0.506727	3.16973	0.688181	4.32026	0.982174	6.15873
0.597408	2.66921	0.374213	2.24648	0.598137	2.66909	0.698501	4.34616	0.898932	5.60369	0.508165	3.16256	0.689491	4.30639	0.98269	6.13055
0.595304	2.66956	0.37643	2.24875	0.596032	2.66944	0.699628	4.33115	0.900034	5.58213	0.509598	3.15544	0.690812	4.29273	0.983207	6.10267
0.5932	2.66991	0.378646	2.25101	0.593928	2.66978	0.70075	4.31627	0.901144	5.56083	0.511026	3.14835	0.692144	4.27929	0.983725	6.07508
0.591097	2.67026	0.380863	2.25324	0.591825	2.67014	0.701868	4.3015	0.902262	5.5398	0.512449	3.1413	0.693489	4.26604	0.984246	6.04777
0.588995	2.67063	0.38308	2.25545	0.589723	2.6705	0.702982	4.28686	0.903388	5.51902	0.513867	3.13429	0.694844	4.253	0.984767	6.02074
0.586894	2.67099	0.385296	2.25764	0.587621	2.67087	0.704092	4.27234	0.904522	5.4985	0.515279	3.12732	0.696211	4.24016	0.985291	5.994
0.584793	2.67137	0.387513	2.25981	0.58552	2.67124	0.705198	4.25793	0.905664	5.47823	0.516686	3.12038	0.69759	4.22752	0.985815	5.96753
0.582694	2.67175	0.389731	2.26196	0.58342	2.67162	0.706299	4.24365	0.906813	5.4582	0.518089	3.11349	0.698979	4.21506	0.986342	5.94132
0.580595	2.67214	0.391948	2.26409	0.581321	2.672	0.707397	4.22948	0.907971	5.43842	0.519487	3.10663	0.700379	4.2028	0.98687	5.91539
0.578497	2.67253	0.394165	2.2662	0.579223	2.6724	0.708491	4.21542	0.909135	5.41887	0.52088	3.09981	0.70179	4.19072	0.987401	5.88972
0.5764	2.67294	0.396383	2.26829	0.577125	2.6728	0.70958	4.20148	0.910308	5.39956	0.522268	3.09303	0.703212	4.17882	0.987932	5.86431
0.574304	2.67335	0.3986	2.27037	0.575029	2.6732	0.710666	4.18764	0.911488	5.38048	0.523652	3.08629	0.704644	4.16709	0.988466	5.83915
0.572208	2.67376	0.400817	2.27242	0.572934	2.67362	0.711748	4.17392	0.912676	5.36163	0.525031	3.07959	0.706087	4.15554	0.989002	5.81425
0.570114	2.67419	0.403035	2.27446	0.570839	2.67404	0.712826	4.16031	0.91387	5.343	0.526406	3.07293	0.70754	4.14417	0.98954	5.7896
0.568021	2.67462	0.405252	2.27647	0.568746	2.67447	0.713901	4.1468	0.915073	5.32459	0.527777	3.06631	0.709004	4.13296	0.99008	5.7652
0.56593	2.67507	0.407185	2.27821	0.566654	2.67491	0.714972	4.13341	0.916282	5.3064	0.529144	3.05972	0.710477	4.12191	0.990622	5.74104
0.563839	2.67552	0.408832	2.27969	0.564563	2.67536	0.716039	4.12011	0.917499	5.28842	0.530507	3.05317	0.711961	4.11103	0.991166	5.71711
0.56175	2.67598	0.410194	2.2809	0.562473	2.67582	0.717103	4.10692	0.918722	5.27065	0.531866	3.04667	0.713454	4.10031	0.991712	5.69343
0.559661	2.67645	0.411272	2.28185	0.560384	2.67629	0.718164	4.09384	0.919953	5.25308	0.533221	3.0402	0.714957	4.08974	0.992261	5.66998
0.557574	2.67693	0.412064	2.28255	0.558297	2.67676	0.71922	4.08085	0.921191	5.23572	0.534572	3.03377	0.71647	4.07932	0.992812	5.64676
0.555489	2.67742	0.41257	2.283	0.556211	2.67725	0.720274	4.06797	0.922435	5.21855	0.53592	3.02738	0.717992	4.06906	0.993365	5.62377
0.553405	2.67793	0.413299	2.28364	0.554126	2.67775	0.721325	4.05519	0.923686	5.20159	0.537265	3.02103	0.719524	4.05894	0.99392	5.601
0.551322	2.67844	0.414091	2.28433	0.552043	2.67826	0.722372	4.0425	0.924944	5.18481	0.538606	3.01472	0.721064	4.04897	0.994479	5.57846
0.549241	2.67896	0.415168	2.28527	0.549961	2.67878	0.723416	4.02992	0.926209	5.16823	0.539943	3.00845	0.722614	4.03913	0.995039	5.55614
0.547162	2.6795	0.41653	2.28645	0.547881	2.67931	0.724457	4.01743	0.92748	5.15183	0.541278	3.00221	0.724172	4.02944	0.995602	5.53403
0.545084	2.68005	0.418178	2.28787	0.545803	2.67986	0.725495	4.00504	0.928757	5.13561	0.54261	2.99602	0.725739	4.01988	0.996168	5.51214
0.543008	2.68061	0.42011	2.28952	0.543726	2.68042	0.72653	3.99274	0.930041	5.11958	0.543939	2.98987	0.727315	4.01046	0.996736	5.49046
0.540933	2.68119	0.422328	2.2914	0.541651	2.68099	0.727562	3.98054	0.931332	5.10373	0.545265	2.98376	0.728899	4.00117	0.997308	5.46899
0.538861	2.68178	0.424545	2.29326	0.539578	2.68157	0.728591	3.96843	0.932628	5.08805	0.546588	2.97768	0.730492	3.992	0.997881	5.44772
0.53679	2.68238	0.426762	2.29511	0.537507	2.68217	0.729618	3.95641	0.933931	5.07254	0.547909	2.97165	0.732092	3.98296	0.998458	5.42666
0.534721	2.683	0.428979	2.29694	0.535437	2.68278	0.730642	3.94448	0.935239	5.0572	0.549228	2.96566	0.733701	3.97405	0.999038	5.40581
0.532655	2.68363	0.431197	2.29875	0.53337	2.68341	0.731663	3.93265	0.936554	5.04203	0.550544	2.95971	0.735317	3.96525	0.99962	5.38515
0.53059	2.68428	0.433414	2.30055	0.531305	2.68406	0.732682	3.9209	0.937874	5.02702	0.551858	2.95379	0.736942	3.95657	1.00021	5.36468
0.528528	2.68495	0.435631	2.30233	0.529242	2.68472	0.733698	3.90925	0.9392	5.01218	0.55317	2.94792	0.738573	3.94801		
0.526468	2.68563	0.437847	2.3041	0.527181	2.6854	0.734712	3.89768	0.940531	4.99749	0.554479	2.94209	0.740213	3.93957		
0.524411	2.68634	0.440064	2.30585	0.525123	2.68609	0.735723	3.8862	0.941869	4.98296	0.555787	2.9363	0.741859	3.93123		
0.522356	2.68706	0.442281	2.30758	0.523067	2.68681	0.736733	3.8748	0.943211	4.96858	0.557094	2.93055	0.743513	3.92301		
0.520304	2.6878	0.444497	2.3093	0.521014	2.68754	0.73774	3.8635	0.94456	4.95436	0.558398	2.92484	0.745173	3.91489		
0.518254	2.68856	0.446713	2.311	0.518964	2.6883	0.738745	3.85227	0.945913	4.94028	0.559701	2.91917	0.74684	3.90688		
0.516208	2.68934	0.448929	2.31269	0.516916	2.68907	0.739748	3.84114	0.947272	4.92635	0.561003	2.91354	0.748514	3.89897		
0.514164	2.69015	0.451145	2.31436	0.514871	2.68987	0.740749	3.83008	0.948635	4.91257	0.562303	2.90795	0.750195	3.89116		
0.512123	2.69098	0.45336	2.31602	0.512829	2.69069	0.741748	3.81911	0.950004	4.89893	0.563603	2.90241	0.751882	3.88345		
0.510086	2.69183	0.455576	2.31766	0.510791	2.69153	0.742745	3.80823	0.951378	4.88542	0.564901	2.8969	0.753575	3.87583		
0.508052	2.69271	0.457791	2.31929	0.508756	2.6924	0.743741	3.79742	0.952756	4.87206	0.566198	2.89144	0.755274	3.86832		
0.506021	2.69361	0.460006	2.3209	0.506724	2.69329	0.744735	3.7867	0.954139	4.85883	0.567494	2.88601	0.756979	3.86089		
0.503994	2.69454	0.462221	2.3225	0.504695	2.69422	0.745727	3.77605	0.955527	4.84573	0.568789	2.88063	0.75869	3.85356		
0.501971	2.6955	0.464435	2.32408	0.502671	2.69517	0.746718	3.76549	0.95692	4.83277	0.570084	2.87529	0.760406	3.84631		
0.499952	2.69649	0.466649	2.32565	0.50065	2.69614	0.747707	3.75501	0.958316	4.81993	0.571378	2.86999	0.762128	3.83915		
0.497937	2.69751	0.468863	2.32721	0.498634	2.69715	0.748695	3.7446	0.959718	4.80722	0.572672	2.86473	0.763856	3.83208		
0.495926	2.69856	0.471077	2.32875	0.496621	2.69819	0.749682	3.73427	0.961123	4.79463	0.573966	2.85951	0.765588	3.82509		
0.493919	2.69965	0.47329	2.33028	0.494613	2.69927	0.750667	3.72402	0.962533	4.78217	0.575259	2.85433	0.767326	3.81818		
0.491917	2.70077	0.475503	2.33179	0.49261	2.70038	0.751651	3.71385	0.963946	4.76983	0.576552	2.84919	0.769068	3.81136		
0.489921	2.70193	0.477715	2.33329	0.490611	2.70152	0.752635	3.70375	0.965364	4.75761	0.577845	2.8441	0.770815	3.80461		
0.487929	2.70312	0.479927	2.33478	0.488618	2.70271	0.753617	3.69373	0.966785	4.7455	0.579138	2.83904	0.772567	3.79794		
0.485942	2.70436	0.482139	2.33625	0.486629	2.70393	0.754598	3.68379	0.968211	4.73351	0.580431	2.83403	0.774324	3.79134		
0.483961	2.70564	0.484351	2.33771	0.484646	2.70519	0.755578	3.67392	0.96964	4.72164	0.581724	2.82906	0.776084	3.78482		
0.481986	2.70696	0.486562	2.33916	0.482669	2.7065	0.756557	3.66412	0.971072	4.70987	0.583018	2.82413	0.777849	3.77837		
0.480016	2.70833	0.488772	2.34059	0.480698	2.70785	0.757536	3.6544	0.972508	4.69822	0.584312	2.81924	0.779618	3.77199		
0.478054	2.70975	0.490982	2.34201	0.478732	2.70925	0.758513	3.64475	0.973948	4.68667	0.585607	2.81439	0.781391	3.76568		
0.476097	2.71122	0.493192	2.34342	0.476774	2.71071	0.759491	3.63517	0.975391	4.67523	0.586902	2.80958	0.783168	3.75943		
0.474147	2.71274	0.495401	2.34481	0.474821	2.71221	0.760467	3.62566	0.976837	4.66389	0.588198	2.80481	0.784948	3.75326		
0.472205	2.71432	0.49761	2.34619	0.472876	2.71376	0.761443	3.61623	0.978286	4.65266	0.589495	2.80008	0.786732	3.74715		
0.47027	2.71595	0.499818	2.34756	0.470939	2.71538	0.762419	3.60686	0.979738	4.64153	0.590792	2.7954	0.788519	3.7411		
0.468342	2.71764	0.502026	2.34891	0.469009	2.71705	0.763395	3.59757	0.981193	4.63049	0.592091	2.79075	0.790309	3.73511		
0.466423	2.7194	0.504233	2.35025	0.467087	2.71879	0.76437	3.58835	0.982651	4.61956	0.593391	2.78615	0.792102	3.72918		
0.464512	2.72123	0.50644	2.35158	0.465173	2.72059	0.765344	3.57919	0.984112	4.60872	0.594691	2.78158	0.793899	3.72332		
0.46261	2.72312	0.508646	2.3529	0.463268	2.72246	0.766319	3.57011	0.985575	4.59798	0.595993	2.77706	0.795698	3.71751		
0.460717	2.72508	0.510852	2.3542	0.461372	2.7244	0.767294	3.56109	0.987041	4.58733	0.597297	2.77257	0.7975	3.71176		
0.458834	2.72713	0.513057	2.35549	0.459485	2.72641	0.768268	3.55214	0.98851	4.57677	0.598601	2.76813	0.799304	3.70606		
0.456961	2.72925	0.515261	2.35677	0.457608	2.7285	0.769243	3.54326	0.98998	4.56631	0.599908	2.76373	0.801111	3.70042		
0.455098	2.73145	0.517464	2.35804	0.455741	2.73068	0.770217	3.53445	0.991453	4.55593	0.601215	2.75936	0.80292	3.69483		
0.453246	2.73374	0.519667	2.35929	0.453886	2.73294	0.771192	3.5257	0.992929	4.54564	0.602525	2.75504	0.804731	3.68929		
0.451405	2.73612	0.52187	2.36053	0.452041	2.73529	0.772167	3.51702	0.994406	4.53544	0.603836	2.75076	0.806545	3.6838		
0.449575	2.7386	0.524071	2.36176	0.450207	2.73773	0.773142	3.5084	0.995886	4.52532	0.605149	2.74652	0.80836	3.67836		
0.447758	2.74118	0.526272	2.36297	0.448386	2.74027	0.774118	3.49985	0.997367	4.51529	0.606464	2.74231	0.810177	3.67297		
0.445954	2.74386	0.528472	2.36418	0.446577	2.74292	0.775094	3.49137	0.99885	4.50533	0.607781	2.73815	0.811995	3.66763		
0.444162	2.74664	0.530671	2.36537	0.444781	2.74567	0.77607	3.48294	1.00034	4.49546	0.609099	2.73403	0.813815	3.66233		
0.442385	2.74954	0.53287	2.36655	0.442998	2.74853	0.777047	3.47458			0.61042	2.72994	0.815637	3.65708		
0.440621	2.75256	0.535067	2.36772	0.44123	2.7515	0.778024	3.46629			0.611743	2.7259	0.817459	3.65187		
0.438872	2.7557	0.537264	2.36887	0.439475	2.7546	0.779002	3.45806			0.613069	2.72189	0.819283	3.64671		
0.437137	2.75897	0.53946	2.37001	0.437736	2.75782	0.779981	3.44989			0.614397	2.71793	0.821108	3.64159		
0.435419	2.76237	0.541655	2.37114	0.436012	2.76117	0.780961	3.44178			0.615727	2.714	0.822933	3.63651		
0.433716	2.7659	0.543849	2.37226	0.434304	2.76466	0.781941	3.43373			0.617059	2.71011	0.82476	3.63146		
0.43203	2.76958	0.546042	2.37337	0.432612	2.76829	0.782922	3.42575			0.618395	2.70626	0.826587	3.62646		
0.430361	2.77341	0.548233	2.37446	0.430937	2.77207	0.783904	3.41783			0.619732	2.70245	0.828414	3.62149		
0.42871	2.7774	0.550424	2.37554	0.429279	2.776	0.784887	3.40996			0.621073	2.69868	0.830242	3.61657		
0.427076	2.78154	0.552614	2.37661	0.42764	2.78009	0.785871	3.40216			0.622416	2.69495	0.83207	3.61167		
0.425461	2.78585	0.554803	2.37767	0.426018	2.78434	0.786856	3.39441			0.623762	2.69126	0.833899	3.60682		
0.423865	2.79032	0.55699	2.37872	0.424415	2.78875	0.787842	3.38673			0.625111	2.6876	0.835727	3.60199		
0.422288	2.79498	0.559177	2.37975	0.422831	2.79335	0.788829	3.3791			0.626464	2.68399	0.837555	3.5972		
0.42073	2.79981	0.561362	2.38077	0.421267	2.79812	0.789817	3.37154			0.627819	2.68041	0.839383	3.59245		
0.419193	2.80483	0.563546	2.38178	0.419723	2.80307	0.790807	3.36403			0.629177	2.67687	0.841211	3.58772		
0.417676	2.81005	0.565728	2.38277	0.418199	2.80822	0.791798	3.35657			0.630539	2.67337	0.843038	3.58303		
0.416179	2.81546	0.56791	2.38375	0.416695	2.81356	0.79279	3.34918			0.631904	2.66991	0.844864	3.57836		
0.414704	2.82107	0.570089	2.38472	0.415212	2.81911	0.793784	3.34184			0.633272	2.66648	0.84669	3.57373		
0.41325	2.82689	0.572268	2.38568	0.413751	2.82486	0.794779	3.33456			0.634644	2.66309	0.848515	3.56912		
0.411817	2.83293	0.574445	2.38663	0.412311	2.83082	0.795775	3.32733			0.636019	2.65974	0.850339	3.56454		
0.410406	2.83918	0.57662	2.38756	0.410892	2.83699	0.796774	3.32016			0.637398	2.65643	0.852162	3.55999		
0.409017	2.84566	0.578794	2.38848	0.409496	2.84339	0.797773	3.31305			0.63878	2.65316	0.853984	3.55546		
0.40765	2.85236	0.580966	2.38938	0.408121	2.85002	0.798775	3.30599			0.640166	2.64992	0.855805	3.55096		
0.406305	2.8593	0.583136	2.39028	0.406768	2.85687	0.799778	3.29898			0.641556	2.64672	0.857624	3.54648		
0.404982	2.86647	0.585305	2.39116	0.405437	2.86396	0.800782	3.29203			0.64295	2.64356	0.859442	3.54203		
0.403681	2.87389	0.587472	2.39202	0.404129	2.8713	0.801789	3.28513			0.644348	2.64044	0.861258	3.5376		
0.402403	2.88155	0.589637	2.39288	0.402843	2.87887	0.802797	3.27829			0.64575	2.63735	0.863072	3.5332		
0.401146	2.88946	0.5918	2.39372	0.401579	2.8867	0.803808	3.27149			0.647157	2.6343	0.864885	3.52881		
0.399912	2.89763	0.593961	2.39454	0.400337	2.89477	0.80482	3.26476			0.648567	2.63129	0.866695	3.52445		
0.3987	2.90605	0.59612	2.39536	0.399117	2.90311	0.805834	3.25807			0.649982	2.62832	0.868504	3.52011		
0.39751	2.91474	0.598277	2.39616	0.39792	2.9117	0.80685	3.25143			0.651401	2.62538	0.87031	3.51578		
0.396342	2.92369	0.600432	2.39694	0.396744	2.92056	0.807868	3.24485			0.652825	2.62248	0.872114	3.51148		
0.395196	2.93292	0.602584	2.39771	0.39559	2.92969	0.808888	3.23832			0.654253	2.61962	0.873916	3.50719		
0.394072	2.94242	0.604734	2.39847	0.394459	2.9391	0.80991	3.23184			0.655686	2.6168	0.875715	3.50293		
0.392969	2.9522	0.606882	2.39921	0.393348	2.94878	0.810934	3.22541			0.657124	2.61401	0.877512	3.49868		
0.391888	2.96226	0.609027	2.39994	0.392259	2.95874	0.811961	3.21903			0.658566	2.61126	0.879306	3.49445		
0.390827	2.9726	0.611169	2.40065	0.391192	2.96899	0.812989	3.2127			0.660014	2.60855	0.881097	3.49023		
0.389788	2.98324	0.613309	2.40135	0.390146	2.97953	0.81402	3.20642			0.661466	2.60587	0.882885	3.48603		
0.38877	2.99418	0.615446	2.40203	0.38912	2.99036	0.815054	3.20019			0.662924	2.60324	0.88467	3.48184		
0.387773	3.00541	0.61758	2.4027	0.388116	3.00149	0.816089	3.19401			0.664387	2.60064	0.886452	3.47767		
0.386796	3.01695	0.619712	2.40335	0.387132	3.01292	0.817127	3.18788			0.665855	2.59807	0.888231	3.47352		
0.38584	3.02879	0.62184	2.40398	0.386169	3.02466	0.818168	3.18179			0.667329	2.59555	0.890007	3.46937		
0.384904	3.04095	0.623965	2.4046	0.385226	3.03671	0.81921	3.17575			0.668809	2.59306	0.891779	3.46524		
0.383988	3.05343	0.626086	2.40521	0.384303	3.04907	0.820256	3.16977			0.670294	2.59061	0.893548	3.46113		
0.383092	3.06622	0.628205	2.40579	0.3834	3.06176	0.821303	3.16382			0.671785	2.5882	0.895313	3.45702		
0.382215	3.07935	0.63032	2.40636	0.382516	3.07477	0.822354	3.15793			0.673282	2.58583	0.897075	3.45293		
0.381358	3.0928	0.632431	2.40691	0.381652	3.08811	0.823407	3.15208			0.674785	2.58349	0.898833	3.44885		
0.38052	3.1066	0.634538	2.40744	0.380808	3.10178	0.824462	3.14628			0.676294	2.58119	0.900587	3.44478		
0.379702	3.12073	0.636642	2.40796	0.379983	3.1158	0.825521	3.14053			0.677809	2.57893	0.902337	3.44072		
0.378902	3.13522	0.638742	2.40846	0.379177	3.13016	0.826582	3.13482			0.679331	2.57671	0.904083	3.43667		
0.378121	3.15006	0.640837	2.40894	0.378389	3.14488	0.827645	3.12915			0.680859	2.57453	0.905825	3.43263		
0.377359	3.16526	0.642928	2.4094	0.377621	3.15995	0.828712	3.12354			0.682394	2.57239	0.907563	3.42859		
0.376616	3.18082	0.645015	2.40984	0.376871	3.17539	0.829781	3.11796			0.683936	2.57028	0.909296	3.42457		
0.37589	3.19676	0.647098	2.41026	0.376139	3.1912	0.830853	3.11243			0.685485	2.56822	0.911025	3.42056		
0.375183	3.21308	0.649176	2.41066	0.375426	3.20738	0.831928	3.10695			0.687041	2.56619	0.91275	3.41655		
0.374495	3.22978	0.651249	2.41104	0.374731	3.22395	0.833006	3.10151			0.688604	2.5642	0.91447	3.41255		
0.373824	3.24687	0.653317	2.41141	0.374054	3.24091	0.834086	3.09611			0.690174	2.56225	0.916186	3.40856		
0.373171	3.26437	0.65538	2.41175	0.373395	3.25827	0.83517	3.09076			0.691752	2.56034	0.917897	3.40457		
0.372535	3.28227	0.657438	2.41207	0.372753	3.27603	0.836257	3.08545			0.693338	2.55847	0.919603	3.4006		
0.371917	3.30059	0.65949	2.41236	0.372129	3.2942	0.837347	3.08019			0.694932	2.55665	0.921305	3.39663		
0.371317	3.31934	0.661537	2.41264	0.371523	3.3128	0.838439	3.07496			0.696533	2.55486	0.923001	3.39266		
0.370734	3.33852	0.663578	2.41289	0.370934	3.33183	0.839535	3.06978			0.698143	2.55311	0.924693	3.3887		
0.370169	3.35813	0.665614	2.41313	0.370363	3.35129	0.840634	3.06465			0.699761	2.5514	0.92638	3.38475		
0.36962	3.3782	0.667644	2.41333	0.369808	3.3712	0.841737	3.05955			0.701387	2.54973	0.928062	3.3808		
0.369089	3.39873	0.669667	2.41352	0.369271	3.39157	0.842842	3.05449			0.703022	2.54811	0.929739	3.37685		
0.368575	3.41972	0.671685	2.41368	0.368751	3.4124	0.843951	3.04948			0.704665	2.54652	0.93141	3.37291		
0.368077	3.4412	0.673696	2.41382	0.368247	3.43371	0.845063	3.04451			0.706317	2.54498	0.933077	3.36898		
0.367596	3.46316	0.675701	2.41394	0.367761	3.4555	0.846178	3.03958			0.707978	2.54347	0.934738	3.36505		
0.367132	3.48562	0.677699	2.41403	0.367291	3.47779	0.847296	3.03469			0.709649	2.54201	0.936394	3.36112		
0.366685	3.5086	0.679691	2.4141	0.366838	3.50059	0.848418	3.02984			0.711328	2.54059	0.938045	3.3572		
0.366255	3.53209	0.681675	2.41414	0.366402	3.5239	0.849543	3.02503			0.713017	2.53921	0.93969	3.35328		
0.36584	3.55612	0.683653	2.41416	0.365982	3.54774	0.850672	3.02026			0.714715	2.53787	0.94133	3.34937		
0.365443	3.5807	0.685624	2.41415	0.365578	3.57213	0.851804	3.01553			0.716423	2.53658	0.942964	3.34546		
0.365061	3.60583	0.687588	2.41412	0.365191	3.59707	0.85294	3.01084			0.71814	2.53532	0.944593	3.34155		
0.364696	3.63154	0.689545	2.41406	0.364821	3.62257	0.854079	3.00619			0.719867	2.53411	0.946217	3.33764		
0.364347	3.65783	0.691494	2.41398	0.364466	3.64866	0.855222	3.00158			0.721604	2.53294	0.947835	3.33374		
0.364015	3.68472	0.693437	2.41388	0.364128	3.67534	0.856368	2.99701			0.723351	2.53181	0.949447	3.32984		
0.363698	3.71222	0.695372	2.41375	0.363806	3.70263	0.857518	2.99248			0.725107	2.53072	0.951054	3.32595		
0.363398	3.74035	0.6973	2.41359	0.3635	3.73054	0.858672	2.98798			0.726874	2.52967	0.952656	3.32205		
0.363113	3.76912	0.69922	2.41342	0.36321	3.75909	0.85983	2.98353			0.728651	2.52866	0.954252	3.31816		
0.362844	3.79855	0.701133	2.41321	0.362936	3.78829	0.860991	2.97911			0.730437	2.52769	0.955842	3.31428		
0.362592	3.82866	0.703039	2.41299	0.362677	3.81816	0.862155	2.97473			0.732234	2.52676	0.957426	3.31039		
0.362355	3.85946	0.704938	2.41274	0.362435	3.84871	0.863324	2.97039			0.734041	2.52588	0.959005	3.30651		
0.362133	3.89097	0.706829	2.41246	0.362208	3.87998	0.864497	2.96608			0.735857	2.52503	0.960579	3.30263		
0.361928	3.9232	0.708714	2.41217	0.361997	3.91196	0.865673	2.96181			0.737684	2.52422	0.962147	3.29875		
0.361738	3.95619	0.710591	2.41185	0.361802	3.94468	0.866853	2.95758			0.739521	2.52345	0.963709	3.29488		
0.361564	3.98994	0.712461	2.41151	0.361623	3.97817	0.868038	2.95339			0.741367	2.52271	0.965265	3.291		
0.361405	4.02448	0.714324	2.41114	0.361458	4.01243	0.869226	2.94923			0.743223	2.52202	0.966816	3.28713		
0.361262	4.05983	0.716181	2.41076	0.36131	4.0475	0.870418	2.94511			0.745089	2.52136	0.968361	3.28327		
0.361134	4.096	0.71803	2.41036	0.361177	4.08339	0.871615	2.94103			0.746965	2.52073	0.969901	3.2794		
0.361022	4.13303	0.719873	2.40993	0.361059	4.12012	0.872815	2.93698			0.74885	2.52015	0.971435	3.27554		
0.360925	4.17094	0.72171	2.40949	0.360957	4.15772	0.87402	2.93297			0.750744	2.51959	0.972964	3.27168		
0.360843	4.20975	0.72354	2.40903	0.360869	4.19621	0.875229	2.929			0.752648	2.51907	0.974487	3.26782		
0.360776	4.24948	0.725365	2.40855	0.360798	4.23562	0.876442	2.92506			0.754561	2.51859	0.976005	3.26396		
0.360725	4.29017	0.727183	2.40805	0.360741	4.27597	0.877659	2.92115			0.756483	2.51813	0.977517	3.26011		
0.360688	4.33183	0.728995	2.40754	0.360699	4.3173	0.878881	2.91728			0.758414	2.51771	0.979024	3.25626		
0.360667	4.37451	0.730802	2.40701	0.360673	4.35962	0.880107	2.91345			0.760353	2.51732	0.980525	3.25242		
0.36066	4.41822	0.732603	2.40647	0.360661	4.40297	0.881337	2.90965			0.7623	2.51696	0.982021	3.24857		
0.360669	4.463	0.734399	2.40591	0.360664	4.44738	0.882572	2.90589			0.764256	2.51663	0.983511	3.24473		
0.360692	4.50888	0.73619	2.40534	0.360682	4.49287	0.883811	2.90216			0.766221	2.51632	0.984996	3.2409		
0.36073	4.5559	0.737976	2.40475	0.360715	4.53949	0.885055	2.89847			0.768193	2.51605	0.986476	3.23706		
0.360783	4.60408	0.739757	2.40415	0.360763	4.58726	0.886304	2.89481			0.770172	2.5158	0.987951	3.23323		
0.360851	4.65347	0.741533	2.40354	0.360826	4.63623	0.887557	2.89119			0.772159	2.51558	0.989421	3.2294		
0.360933	4.7041	0.743306	2.40292	0.360903	4.68643	0.888815	2.8876			0.774154	2.51538	0.990885	3.22558		
0.361029	4.75601	0.745074	2.40229	0.360994	4.73789	0.890077	2.88405			0.776155	2.5152	0.992344	3.22176		
0.36114	4.80924	0.746838	2.40165	0.3611	4.79066	0.891345	2.88053			0.778164	2.51505	0.993799	3.21795		
0.361266	4.86384	0.748598	2.40101	0.361221	4.84478	0.892617	2.87704			0.780179	2.51492	0.995248	3.21413		
0.361406	4.91985	0.750355	2.40035	0.361356	4.9003	0.893894	2.87359			0.782201	2.51482	0.996692	3.21033		
0.361539	4.96984	0.752108	2.39969	0.361505	4.95725	0.895176	2.87017			0.784229	2.51473	0.998132	3.20652		
0.361661	5.01335	0.753859	2.39901	0.361668	5.01569	0.896463	2.86679			0.786263	2.51466	0.999567	3.20273		
0.361768	5.04997	0.755606	2.39834	0.361846	5.07567	0.897755	2.86343			0.788303	2.51462	1.001	3.19893		
0.361857	5.07935	0.75735	2.39766	0.362037	5.13724	0.899053	2.86012			0.790349	2.51459				
0.361924	5.10119	0.759091	2.39697	0.362243	5.20046	0.900355	2.85683			0.7924	2.51458				
0.361987	5.12146	0.76083	2.39628	0.362462	5.26538	0.901663	2.85359			0.794457	2.51458				
0.362032	5.13567	0.762567	2.39558	0.362695	5.33206	0.902976	2.85037			0.796519	2.5146				
0.362104	5.15804	0.764301	2.39488	0.362942	5.40057	0.904294	2.84719			0.798586	2.51464				
0.362204	5.1888	0.766034	2.39418	0.363203	5.47097	0.905618	2.84404			0.800658	2.5147				
0.362336	5.22829	0.767764	2.39347	0.363477	5.54333	0.906947	2.84092			0.802734	2.51476				
0.362502	5.2769	0.769493	2.39277	0.363764	5.61772	0.908282	2.83784			0.804815	2.51485				
0.362706	5.33518	0.77122	2.39206	0.364065	5.69423	0.909623	2.83479			0.806901	2.51494				
0.362954	5.40378	0.772946	2.39135	0.364379	5.77293	0.910969	2.83177			0.80899	2.51505				
0.363215	5.47426	0.77467	2.39064	0.364707	5.8539	0.912321	2.82879			0.811084	2.51517				
0.36349	5.54672	0.776393	2.38993	0.365047	5.93724	0.913679	2.82584			0.813181	2.5153				
0.363778	5.62121	0.778115	2.38922	0.365401	6.02304	0.915042	2.82293			0.815282	2.51544				
0.364079	5.69781	0.779835	2.38851	0.365767	6.11139	0.916412	2.82004			0.817387	2.51559				
0.364394	5.77661	0.781555	2.38781	0.366146	6.20241	0.917788	2.81719			0.819496	2.51575				
0.364722	5.85769	0.783275	2.3871	0.366538	6.2962	0.91917	2.81438			0.821608	2.51592				
0.365063	5.94115	0.784993	2.38639	0.366943	6.39289	0.920559	2.81159			0.823723	2.5161				
0.365417	6.02706	0.786711	2.38569	0.36736	6.49258	0.921953	2.80884			0.825841	2.51629				
0.365784	6.11554	0.788428	2.38499	0.367789	6.59542	0.923354	2.80612			0.827962	2.51649				
0.366164	6.20668	0.790145	2.38429	0.36823	6.70154	0.924762	2.80344			0.830086	2.5167				
0.366557	6.3006	0.791862	2.38359	0.368684	6.81108	0.926176	2.80079			0.832213	2.51691				
0.366962	6.39742	0.793579	2.3829	0.369149	6.92421	0.927597	2.79817			0.834342	2.51713				
0.367379	6.49726	0.795295	2.38221	0.369627	7.04109	0.929024	2.79558			0.836475	2.51736				
0.367809	6.60024	0.797012	2.38152	0.370116	7.16189	0.930458	2.79303			0.838609	2.51759				
0.368251	6.70652	0.798728	2.38083	0.370617	7.2868	0.9319	2.79051			0.840747	2.51783				
0.368705	6.81623	0.800444	2.38015	0.371129	7.41601	0.933348	2.78803			0.842886	2.51807				
0.369171	6.92952	0.802161	2.37947	0.371652	7.54975	0.934803	2.78558			0.845028	2.51832				
0.369649	7.04658	0.803878	2.3788	0.372187	7.68823	0.936266	2.78316			0.847172	2.51858				
0.370139	7.16756	0.805595	2.37813	0.372732	7.8317	0.937736	2.78077			0.849318	2.51884				
0.37064	7.29267	0.807313	2.37747	0.373289	7.98041	0.939213	2.77842			0.851466	2.51911				
0.371153	7.42209	0.80903	2.37681	0.373856	8.13464	0.940698	2.7761			0.853616	2.51938				
0.371677	7.55604	0.810749	2.37615	0.374433	8.29469	0.94219	2.77382			0.855767	2.51965				
0.372212	7.69474	0.812468	2.3755	0.375021	8.46087	0.94369	2.77156			0.857921	2.51993				
0.372758	7.83844	0.814187	2.37485	0.375619	8.63353	0.945197	2.76935			0.860076	2.52021				
0.373315	7.98741	0.815907	2.37421	0.376227	8.81303	0.946713	2.76716			0.862233	2.5205				
0.373882	8.1419	0.817628	2.37357	0.376845	8.99977	0.948236	2.76501			0.864392	2.52078				
0.37446	8.30222	0.819349	2.37294	0.377391	9.16874	0.949767	2.76289			0.866552	2.52108				
0.375049	8.4687	0.821071	2.37231	0.377862	9.3176	0.951307	2.76081			0.868714	2.52137				
0.375647	8.64166	0.822794	2.37169	0.378256	9.4442	0.952854	2.75875			0.870877	2.52167				
0.376256	8.82149	0.824518	2.37108	0.378569	9.54663	0.95441	2.75674			0.873042	2.52197				
0.376874	9.00857	0.826242	2.37046	0.378801	9.6233	0.955974	2.75475			0.875207	2.52227				
0.377502	9.20335	0.827967	2.36986	0.379016	9.69487	0.957546	2.7528			0.877375	2.52258				
0.378139	9.40627	0.829694	2.36926	0.379165	9.74526	0.959126	2.75088			0.879543	2.52288				
0.378785	9.61784	0.831421	2.36866	0.3794	9.82499	0.960716	2.749			0.881713	2.52319				
0.37944	9.83861	0.833149	2.36807	0.379721	9.93542	0.962313	2.74715			0.883884	2.5235				
0.380104	10.0692	0.834878	2.36749	0.38013	10.0785	0.963919	2.74533			0.886056	2.52382				
0.380776	10.3101	0.836608	2.36691	0.380629	10.2568	0.965534	2.74354			0.888229	2.52413				
0.381456	10.5623	0.83834	2.36634	0.381219	10.4737	0.967158	2.74179			0.890403	2.52445				
0.382144	10.8263	0.840072	2.36577	0.381905	10.7335	0.96879	2.74007			0.892578	2.52477				
0.382839	11.103	0.841805	2.36521	0.382598	11.0057	0.970431	2.73838			0.894754	2.52509				
0.383542	11.3934	0.84354	2.36465	0.383298	11.2913	0.972081	2.73672			0.896931	2.52541				
0.384251	11.6984	0.845275	2.3641	0.384005	11.5911	0.973739	2.7351			0.899109	2.52573				
0.384967	12.0193	0.847012	2.36356	0.384719	11.9063	0.975406	2.73351			0.901288	2.52605				
0.38569	12.3571	0.84875	2.36302	0.385439	12.2381	0.977082	2.73195			0.903468	2.52637				
0.386418	12.7132	0.850489	2.36249	0.386165	12.5878	0.978767	2.73042			0.905648	2.5267				
0.387151	13.0893	0.852229	2.36196	0.386896	12.9567	0.980461	2.72893			0.907829	2.52702				
0.387889	13.4868	0.853971	2.36144	0.387633	13.3466	0.982163	2.72746			0.910011	2.52735				
0.388631	13.9078	0.855713	2.36092	0.388374	13.7593	0.983874	2.72603			0.912194	2.52767				
0.389378	14.3542	0.857457	2.36041	0.389119	14.1967	0.985594	2.72462			0.914378	2.528				
0.390127	14.8286	0.859202	2.35991	0.389867	14.6611	0.987323	2.72325			0.916562	2.52832				
0.39088	15.3334	0.860949	2.35941	0.390619	15.155	0.98906	2.72191			0.918747	2.52865				
0.391634	15.8718	0.862696	2.35892	0.391372	15.6814	0.990805	2.72059			0.920932	2.52898				
0.392389	16.4471	0.864445	2.35843	0.392128	16.2435	0.99256	2.71931			0.923119	2.52931				
0.393146	17.0632	0.866195	2.35795	0.392884	16.845	0.994322	2.71805			0.925305	2.52963				
0.393902	17.7246	0.867947	2.35747	0.39364	17.4902	0.996093	2.71683			0.927493	2.52996				
0.394656	18.4365	0.8697	2.357	0.394395	18.184	0.997873	2.71563			0.92968	2.53029				
0.395409	19.2048	0.871454	2.35654	0.395149	18.932	0.99966	2.71445			0.931869	2.53062				
0.396159	20.0364	0.873209	2.35608	0.3959	19.7409	1.00146	2.71331			0.934058	2.53095				
0.396904	20.9395	0.874966	2.35562	0.396646	20.6182					0.936247	2.53127				
0.397643	21.9236	0.876724	2.35518	0.397388	21.5731					0.938437	2.5316				
0.398376	23.0003	0.878484	2.35473	0.398123	22.6163					0.940627	2.53193				
0.3991	24.183	0.880245	2.3543	0.398851	23.7606					0.942818	2.53226				
0.399814	25.4883	0.882007	2.35386	0.399568	25.0214					0.945009	2.53258				
0.400517	26.9363	0.88377	2.35344	0.400275	26.4174					0.947201	2.53291				
0.401205	28.5517	0.885535	2.35302	0.400969	27.9717					0.949393	2.53324				
0.401878	30.3654	0.887301	2.3526	0.401647	29.7129					0.951585	2.53356				
0.402533	32.4163	0.889069	2.35219	0.402308	31.6767					0.953778	2.53389				
0.403167	34.7544	0.890838	2.35179	0.40295	33.9089					0.955971	2.53421				
0.403778	37.4448	0.892608	2.35139	0.403569	36.4687					0.958165	2.53454				
0.404363	40.5737	0.894379	2.351	0.404164	39.4344					0.960359	2.53486				
0.404919	44.2584	0.896152	2.35061	0.40473	42.9109					0.962553	2.53518				
0.405444	48.662	0.897927	2.35022	0.405266	47.0435					0.964747	2.53551				
0.405933	54.0186	0.899702	2.34984	0.405768	52.0378					0.966942	2.53583				
0.406384	60.6766	0.901479	2.34947	0.406232	58.196					0.969137	2.53615				
0.406793	69.1779	0.903258	2.3491	0.406656	65.9807					0.971332	2.53647				
0.407157	80.4144	0.905038	2.34874	0.407036	76.1369					0.973528	2.53679				
0.407474	95.9645	0.906819	2.34838	0.40737	89.9476					0.975723	2.53711				
0.407739	118.911	0.908601	2.34803	0.407653	109.826					0.977919	2.53743				
0.407951	156.196	0.910385	2.34768	0.407884	140.909					0.980116	2.53775				
0.408107	227.404	0.91217	2.34734	0.408059	196.417					0.982312	2.53806				
0.408206	417.609	0.913957	2.347	0.408179	323.858					0.984509	2.53838				
0.408247	2546.23	0.915745	2.34667	0.40824	921.095					0.986705	2.5387				
		0.917534	2.34634							0.988902	2.53901				
		0.919325	2.34602							0.9911	2.53932				
		0.921117	2.3457							0.993297	2.53964				
		0.92291	2.34539							0.995495	2.53995				
		0.924705	2.34508							0.997692	2.54026				
		0.926501	2.34477							0.99989	2.54057				
		0.928298	2.34447							1.00209	2.54088				
		0.930097	2.34418												
		0.931896	2.34389												
		0.933698	2.3436												
		0.9355	2.34332												
		0.937304	2.34304												
		0.939109	2.34277												
		0.940916	2.3425												
		0.942724	2.34224												
		0.944533	2.34198												
		0.946343	2.34172												
		0.948155	2.34147												
		0.949968	2.34122												
		0.951782	2.34098												
		0.953598	2.34074												
		0.955415	2.3405												
		0.957233	2.34027												
		0.959052	2.34005												
		0.960873	2.33982												
		0.962695	2.3396												
		0.964518	2.33939												
		0.966342	2.33918												
		0.968168	2.33897												
		0.969994	2.33877												
		0.971822	2.33857												
		0.973652	2.33837												
		0.975482	2.33818												
		0.977314	2.33799												
		0.979146	2.3378												
		0.98098	2.33762												
		0.982816	2.33744												
		0.984652	2.33727												
		0.986489	2.3371												
		0.988328	2.33693												
		0.990168	2.33676												
		0.992009	2.3366												
		0.993851	2.33644												
		0.995694	2.33629												
		0.997539	2.33614												
		0.999384	2.33599												
		1.00123	2.33584												
