Sym0		Asym0		Sym1		Sym2		Sym3		Sym4		Asym1		Asym2		Asym3		Asym4	
423  Points		488  Points		423  Points		404  Points		320  Points		130  Points		442  Points		387  Points		311  Points		160  Points	
Freq (MHz)	Vph (m/ms)	Freq (MHz)	Vph (m/ms)	Freq (MHz)	Vph (m/ms)	Freq (MHz)	Vph (m/ms)	Freq (MHz)	Vph (m/ms)	Freq (MHz)	Vph (m/ms)	Freq (MHz)	Vph (m/ms)	Freq (MHz)	Vph (m/ms)	Freq (MHz)	Vph (m/ms)	Freq (MHz)	Vph (m/ms)
0.322749	550.102	0.000313379	0.109046	0.322749	359.517	0.449933	3610.19	0.6455	819.853	0.968247	1634.36	0.161399	198.941	0.484123	2884.14	0.806872	1065.09	0.89987	1040.29
0.322748	212.558	0.000548739	0.144196	0.322748	176.421	0.449946	425.955	0.645511	375.509	0.968251	635.283	0.161488	92.65	0.484129	440.296	0.806875	477.651	0.899885	500.851
0.322748	131.729	0.000848781	0.179173	0.322748	116.89	0.449979	226.346	0.645531	243.53	0.96826	394.271	0.161641	60.4337	0.484142	238.347	0.80688	307.858	0.89991	329.83
0.322748	95.437	0.00121281	0.213941	0.322748	87.3989	0.450033	154.136	0.645559	180.202	0.968273	285.836	0.161858	44.8811	0.484165	163.407	0.806888	227.123	0.899946	245.88
0.322748	74.8229	0.00164	0.248462	0.322748	69.7907	0.450107	116.868	0.645595	143.017	0.96829	224.182	0.162139	35.7286	0.484195	124.324	0.806897	179.937	0.899992	196
0.322747	61.5322	0.00212934	0.282695	0.322747	58.0877	0.450202	94.1233	0.645639	118.557	0.968311	184.408	0.162483	29.7056	0.484234	100.332	0.806909	148.985	0.900049	162.949
0.322747	52.2509	0.00267982	0.316614	0.322747	49.746	0.450316	78.7983	0.645692	101.245	0.968337	156.623	0.162889	25.4455	0.48428	84.1053	0.806923	127.12	0.900116	139.441
0.322747	45.4025	0.00329019	0.350181	0.322747	43.4993	0.450451	67.7728	0.645753	88.348	0.968366	136.115	0.163356	22.2763	0.484336	72.3999	0.806939	110.852	0.900193	121.864
0.322747	40.1414	0.00395919	0.383369	0.322747	38.6464	0.450607	59.461	0.645823	78.3681	0.9684	120.358	0.163883	19.8289	0.484399	63.5576	0.806958	98.2762	0.900281	108.225
0.322747	35.9729	0.00468543	0.416147	0.322748	34.7677	0.450782	52.9715	0.645901	70.4164	0.968437	107.872	0.164469	17.8838	0.48447	56.6426	0.806979	88.2637	0.900379	97.3353
0.322748	32.5888	0.00546757	0.448501	0.322749	31.5965	0.450977	47.765	0.645987	63.932	0.968479	97.7335	0.165113	16.3022	0.48455	51.087	0.807002	80.1033	0.900487	88.4394
0.322749	29.7867	0.00630408	0.480404	0.32275	28.9556	0.451192	43.4956	0.646081	58.5432	0.968525	89.3384	0.165813	14.9922	0.484638	46.526	0.807027	73.3247	0.900606	81.0359
0.322751	27.4284	0.00719335	0.511831	0.322752	26.7221	0.451427	39.9317	0.646184	53.9941	0.968575	82.2725	0.166568	13.8903	0.484735	42.7147	0.807055	67.6044	0.900734	74.7785
0.322753	25.4162	0.00813397	0.542777	0.322754	24.8086	0.451682	36.9121	0.646295	50.1029	0.968629	76.2432	0.167376	12.9515	0.484839	39.4824	0.807085	62.7125	0.900874	69.4205
0.322756	23.6791	0.0091242	0.573216	0.322758	23.1509	0.451956	34.3213	0.646415	46.7364	0.968687	71.0381	0.168237	12.1426	0.484952	36.7066	0.807117	58.4813	0.901023	64.781
0.32276	22.1644	0.0101626	0.603149	0.322762	21.701	0.452249	32.0743	0.646543	43.7955	0.96875	66.4991	0.169147	11.4391	0.485073	34.2971	0.807152	54.7853	0.901183	60.7248
0.322765	20.8319	0.0112474	0.632553	0.322767	20.4221	0.452562	30.1071	0.646679	41.2043	0.968816	62.5061	0.170107	10.8221	0.485203	32.186	0.807189	51.5292	0.901353	57.1484
0.322772	19.6506	0.012377	0.661427	0.322774	19.2856	0.452894	28.3707	0.646823	38.904	0.968887	58.9661	0.170982	10.3435	0.48534	30.3211	0.807228	48.6388	0.901533	53.9716
0.322779	18.5963	0.01355	0.689769	0.322782	18.2691	0.453245	26.827	0.646976	36.8483	0.968961	55.8063	0.171755	9.97272	0.485486	28.6619	0.80727	46.0558	0.901723	51.131
0.322788	17.6494	0.0147647	0.717569	0.322792	17.3545	0.453615	25.4456	0.647137	35.0002	0.96904	52.9685	0.172412	9.68895	0.48564	27.1762	0.807314	43.7337	0.901923	48.5761
0.322799	16.7944	0.0160195	0.744828	0.322803	16.5272	0.454004	24.2025	0.647307	33.3298	0.969123	50.406	0.172944	9.4778	0.485802	25.8381	0.807361	41.6349	0.902134	46.2658
0.322812	16.0186	0.017313	0.771544	0.322816	15.7754	0.454411	23.078	0.647485	31.8128	0.96921	48.0806	0.173342	9.32946	0.485973	24.6269	0.80741	39.7286	0.902354	44.1668
0.322826	15.3114	0.0186436	0.797721	0.322831	15.0891	0.454836	22.056	0.647671	30.429	0.969302	45.9609	0.173599	9.23743	0.486152	23.5252	0.807462	37.9895	0.902585	42.2513
0.322843	14.6642	0.0200099	0.823359	0.322849	14.4602	0.45528	21.1231	0.647865	29.1617	0.969397	44.0206	0.173973	9.10893	0.486339	22.519	0.807516	36.3967	0.902825	40.4963
0.322862	14.0697	0.0214105	0.848463	0.322869	13.8818	0.455741	20.2684	0.648068	27.9967	0.969496	42.2381	0.174384	8.97411	0.486534	21.5964	0.807573	34.9323	0.903076	38.8826
0.322883	13.5216	0.0228441	0.873037	0.322891	13.3481	0.45622	19.4824	0.648279	26.9222	0.9696	40.5948	0.174951	8.79842	0.486738	20.7474	0.807633	33.5815	0.903336	37.3938
0.322908	13.0148	0.0243092	0.897089	0.322916	12.854	0.456717	18.7574	0.648499	25.9281	0.969708	39.0751	0.175683	8.58801	0.48695	19.9636	0.807695	32.3315	0.903606	36.0159
0.322935	12.5448	0.0258047	0.920622	0.322944	12.3954	0.457232	18.0864	0.648727	25.0057	0.96982	37.6655	0.176587	8.3497	0.48717	19.2378	0.807759	31.1716	0.903886	34.7371
0.322965	12.1078	0.0273291	0.943644	0.322976	11.9686	0.457763	17.4638	0.648963	24.1476	0.969936	36.3546	0.177674	8.09051	0.487399	18.5638	0.807827	30.0922	0.904176	33.5471
0.322999	11.7004	0.0288815	0.966163	0.32301	11.5704	0.458311	16.8846	0.649207	23.3473	0.970056	35.1322	0.178955	7.81722	0.487636	17.9363	0.807897	29.0854	0.904476	32.4369
0.323035	11.3197	0.0304606	0.988189	0.323049	11.1981	0.458876	16.3444	0.64946	22.5992	0.97018	33.9898	0.180272	7.56679	0.48788	17.3507	0.80797	28.144	0.904785	31.3989
0.323076	10.9632	0.0320653	1.00973	0.323091	10.8491	0.459458	15.8395	0.649722	21.8984	0.970308	32.9197	0.181623	7.33656	0.488134	16.803	0.808045	27.2619	0.905104	30.4262
0.323121	10.6286	0.0336947	1.03079	0.323137	10.5215	0.460056	15.3665	0.649991	21.2404	0.970441	31.9154	0.183006	7.1243	0.488395	16.2896	0.808124	26.4336	0.905433	29.5129
0.323169	10.3141	0.0353475	1.05139	0.32318	10.2519	0.46067	14.9226	0.650269	20.6217	0.970577	30.9709	0.18442	6.92806	0.488665	15.8074	0.808205	25.6544	0.905771	28.6537
0.323222	10.0179	0.0370229	1.07153	0.32322	10.0329	0.4613	14.5053	0.650555	20.0387	0.970718	30.0811	0.185863	6.74617	0.488943	15.3536	0.808289	24.9201	0.906119	27.844
0.32328	9.73851	0.0387199	1.09122	0.323254	9.85882	0.461945	14.1121	0.65085	19.4885	0.970863	29.2413	0.187335	6.57718	0.48923	14.9259	0.808376	24.2269	0.906476	27.0797
0.323342	9.47447	0.0404377	1.11047	0.323283	9.72546	0.462606	13.7412	0.651153	18.9684	0.971012	28.4475	0.188835	6.41982	0.489524	14.5221	0.808466	23.5714	0.906843	26.3571
0.323409	9.2246	0.0421754	1.1293	0.323304	9.62972	0.463283	13.3907	0.651464	18.476	0.971165	27.696	0.19036	6.27297	0.489827	14.1403	0.808559	22.9507	0.907219	25.6728
0.323481	8.98781	0.0439321	1.1477	0.323319	9.56945	0.463974	13.059	0.651784	18.0092	0.971322	26.9835	0.19191	6.13567	0.490138	13.7787	0.808655	22.362	0.907604	25.024
0.323559	8.76311	0.0457072	1.1657	0.32334	9.48413	0.46468	12.7447	0.652112	17.5661	0.971484	26.3071	0.193484	6.00705	0.490458	13.4357	0.808754	21.803	0.907999	24.4078
0.323642	8.54962	0.0474997	1.1833	0.323363	9.39314	0.4654	12.4464	0.652449	17.1448	0.971649	25.6641	0.19508	5.88635	0.490786	13.1101	0.808856	21.2715	0.908403	23.8221
0.323731	8.34654	0.0493091	1.20051	0.323396	9.2722	0.466135	12.163	0.652794	16.7439	0.971819	25.0521	0.196699	5.77289	0.491122	12.8005	0.808961	20.7655	0.908816	23.2645
0.323825	8.15313	0.0511347	1.21735	0.323439	9.12372	0.466884	11.8934	0.653147	16.362	0.971993	24.4689	0.198338	5.66606	0.491466	12.5058	0.809069	20.2831	0.909238	22.7331
0.323926	7.96874	0.0529757	1.23381	0.323493	8.95052	0.467647	11.6366	0.653508	15.9977	0.97217	23.9125	0.199997	5.56533	0.491819	12.225	0.809181	19.8229	0.90967	22.2262
0.324033	7.79276	0.0548317	1.24991	0.323561	8.75571	0.468423	11.3918	0.653878	15.6498	0.972352	23.3812	0.201675	5.4702	0.49218	11.957	0.809295	19.3833	0.91011	21.742
0.324147	7.62465	0.0567019	1.26566	0.323645	8.54259	0.469213	11.1582	0.654256	15.3173	0.972539	22.8732	0.203371	5.38024	0.492549	11.7011	0.809413	18.963	0.910559	21.2791
0.324267	7.46391	0.0585858	1.28108	0.323734	8.33984	0.470016	10.935	0.654643	14.9992	0.972729	22.3871	0.205084	5.29505	0.492927	11.4565	0.809535	18.5607	0.911018	20.8361
0.324394	7.31007	0.060483	1.29615	0.323829	8.14675	0.470832	10.7216	0.655038	14.6945	0.972923	21.9215	0.206814	5.21429	0.493313	11.2225	0.809659	18.1753	0.911485	20.4119
0.324529	7.16272	0.0623928	1.31091	0.32393	7.96265	0.471661	10.5173	0.655441	14.4026	0.973122	21.4752	0.20856	5.13762	0.493707	10.9983	0.809787	17.8058	0.911961	20.0051
0.32467	7.02145	0.0643147	1.32534	0.324037	7.78695	0.472393	10.3464	0.655853	14.1225	0.973325	21.0469	0.210321	5.06476	0.49411	10.7835	0.809919	17.4511	0.912446	19.6149
0.32482	6.88593	0.0662484	1.33947	0.324151	7.6191	0.473025	10.2055	0.656273	13.8536	0.973531	20.6356	0.212096	4.99543	0.494521	10.5774	0.810053	17.1106	0.912939	19.2401
0.324976	6.75582	0.0681933	1.3533	0.324271	7.4586	0.473553	10.0923	0.656702	13.5952	0.973742	20.2404	0.213886	4.9294	0.494885	10.4045	0.810192	16.7832	0.913441	18.88
0.325141	6.63081	0.0701491	1.36684	0.324399	7.30498	0.473973	10.0047	0.657139	13.3469	0.973957	19.8602	0.215688	4.86645	0.495201	10.2618	0.810334	16.4683	0.913952	18.5336
0.325314	6.51063	0.0721153	1.3801	0.324533	7.15784	0.474284	9.94147	0.657584	13.1079	0.974176	19.4943	0.217503	4.80636	0.495466	10.147	0.810479	16.1652	0.914471	18.2003
0.325494	6.395	0.0740915	1.39308	0.324675	7.01678	0.474484	9.90146	0.658038	12.8777	0.9744	19.1419	0.21933	4.74896	0.495678	10.0581	0.810628	15.8732	0.914999	17.8793
0.325684	6.2837	0.0760775	1.4058	0.324825	6.88145	0.474772	9.84459	0.6585	12.656	0.974627	18.8023	0.221169	4.69408	0.495835	9.9938	0.81078	15.5917	0.915535	17.5699
0.325881	6.17648	0.0780727	1.41825	0.324982	6.75151	0.475087	9.78361	0.65897	12.4423	0.974859	18.4747	0.223018	4.64155	0.495936	9.95311	0.810937	15.3202	0.916079	17.2715
0.326088	6.07315	0.0800768	1.43044	0.325147	6.62667	0.475517	9.70206	0.659449	12.236	0.975095	18.1585	0.224878	4.59124	0.496081	9.89524	0.811097	15.0582	0.916632	16.9836
0.326303	5.97351	0.0820896	1.44239	0.325319	6.50664	0.476065	9.60113	0.659936	12.037	0.975334	17.8532	0.226749	4.543	0.496241	9.83316	0.81126	14.8051	0.917193	16.7056
0.326527	5.87737	0.0841107	1.4541	0.325501	6.39117	0.476734	9.48226	0.660431	11.8447	0.975579	17.5582	0.228628	4.49673	0.49646	9.75006	0.811428	14.5606	0.917762	16.437
0.326761	5.78456	0.0861399	1.46557	0.32569	6.28	0.477527	9.34708	0.660935	11.659	0.975827	17.2731	0.230517	4.45229	0.496739	9.64711	0.811599	14.3242	0.91834	16.1774
0.327004	5.69493	0.0881768	1.47682	0.325888	6.17292	0.478447	9.19736	0.661448	11.4793	0.976079	16.9972	0.232415	4.4096	0.497081	9.52572	0.811774	14.0955	0.918925	15.9263
0.327256	5.60833	0.0902212	1.48784	0.326095	6.06972	0.479378	9.05311	0.661968	11.3056	0.976335	16.7302	0.234321	4.36854	0.497488	9.38746	0.811953	13.8742	0.919519	15.6834
0.327518	5.52461	0.0922727	1.49865	0.32631	5.9702	0.480319	8.91404	0.662497	11.1374	0.976596	16.4717	0.236236	4.32903	0.497963	9.23408	0.812136	13.6598	0.92012	15.4482
0.32779	5.44364	0.0943313	1.50925	0.326535	5.87418	0.481271	8.7799	0.663035	10.9745	0.976861	16.2213	0.238157	4.29099	0.498446	9.08606	0.812323	13.4522	0.920729	15.2203
0.328071	5.3653	0.0963966	1.51964	0.326769	5.78148	0.482234	8.65043	0.663581	10.8167	0.977129	15.9785	0.240086	4.25433	0.498938	8.94314	0.812513	13.2509	0.921347	14.9995
0.328363	5.28948	0.0984683	1.52983	0.327012	5.69195	0.483206	8.52539	0.664063	10.6832	0.977402	15.7432	0.242023	4.21898	0.499438	8.80506	0.812708	13.0557	0.921972	14.7854
0.328665	5.21606	0.100546	1.53982	0.327265	5.60545	0.484189	8.40457	0.664479	10.5722	0.97768	15.5148	0.243965	4.18488	0.499947	8.67158	0.812907	12.8663	0.922605	14.5777
0.328977	5.14494	0.10263	1.54963	0.327527	5.52182	0.485181	8.28776	0.664827	10.4823	0.977961	15.2931	0.245915	4.15196	0.500463	8.5425	0.81311	12.6825	0.923245	14.3762
0.3293	5.07602	0.10472	1.55925	0.327799	5.44095	0.486183	8.17477	0.665104	10.4124	0.978246	15.0779	0.24787	4.12016	0.500988	8.41759	0.813316	12.504	0.923893	14.1806
0.329634	5.00922	0.106816	1.56869	0.328081	5.3627	0.487194	8.06542	0.665309	10.3616	0.978536	14.8689	0.249831	4.08942	0.501522	8.29668	0.813528	12.3306	0.924549	13.9906
0.329933	4.95266	0.108917	1.57796	0.328373	5.28695	0.488215	7.95954	0.665441	10.3294	0.978829	14.6657	0.251798	4.0597	0.502064	8.17957	0.813743	12.1621	0.925212	13.806
0.330194	4.90562	0.111024	1.58705	0.328675	5.21361	0.489244	7.85698	0.665631	10.2835	0.979127	14.4682	0.253769	4.03094	0.502614	8.0661	0.813962	11.9983	0.925883	13.6265
0.330415	4.86752	0.113135	1.59598	0.328988	5.14257	0.490282	7.75759	0.665839	10.2341	0.979429	14.2761	0.255746	4.0031	0.503172	7.9561	0.814186	11.839	0.926561	13.4521
0.330593	4.83788	0.115252	1.60475	0.329311	5.07373	0.491329	7.66121	0.666124	10.1677	0.979735	14.0892	0.257728	3.97614	0.503739	7.84943	0.814414	11.6841	0.927246	13.2823
0.330725	4.81636	0.117373	1.61335	0.329645	5.007	0.492385	7.56772	0.666486	10.0852	0.980046	13.9074	0.259715	3.95	0.504315	7.74594	0.814646	11.5332	0.927939	13.1172
0.33081	4.80271	0.119499	1.6218	0.329989	4.94229	0.493449	7.47701	0.666929	9.98726	0.98036	13.7303	0.261705	3.92467	0.504898	7.64549	0.814882	11.3864	0.928639	12.9565
0.330934	4.78325	0.121629	1.63011	0.330345	4.87952	0.49452	7.38894	0.667454	9.87505	0.980679	13.5578	0.2637	3.90009	0.505491	7.54797	0.815123	11.2434	0.929346	12.7999
0.33107	4.76231	0.123764	1.63826	0.330711	4.81862	0.4956	7.3034	0.668064	9.74969	0.981001	13.3898	0.265699	3.87624	0.506091	7.45325	0.815368	11.1041	0.930061	12.6475
0.331257	4.73418	0.125903	1.64627	0.331088	4.7595	0.496688	7.2203	0.668683	9.62781	0.981328	13.2261	0.267702	3.85308	0.5067	7.36121	0.815586	10.9855	0.930782	12.4989
0.331497	4.69918	0.128046	1.65415	0.331477	4.70211	0.497784	7.13953	0.66931	9.50927	0.981659	13.0665	0.269708	3.83059	0.507317	7.27175	0.815773	10.8866	0.93151	12.3541
0.331794	4.65768	0.130194	1.66188	0.331877	4.64637	0.498887	7.06099	0.669945	9.39395	0.981994	12.9108	0.271717	3.80873	0.507943	7.18477	0.815931	10.8062	0.932246	12.213
0.33215	4.61013	0.132345	1.66948	0.332288	4.59223	0.499997	6.9846	0.670589	9.28172	0.982334	12.759	0.27373	3.78748	0.508577	7.10017	0.816056	10.7434	0.932988	12.0753
0.332568	4.55702	0.134499	1.67695	0.332711	4.53962	0.501115	6.91027	0.671241	9.17246	0.982677	12.6109	0.275746	3.76682	0.509219	7.01785	0.816149	10.6978	0.933737	11.941
0.332999	4.5054	0.136658	1.6843	0.333145	4.48849	0.502239	6.83793	0.671902	9.06607	0.983025	12.4663	0.277765	3.74671	0.50987	6.93774	0.816209	10.6688	0.934493	11.81
0.333441	4.45522	0.13882	1.69152	0.333592	4.43878	0.503371	6.76749	0.672571	8.96242	0.983376	12.3251	0.279786	3.72714	0.51053	6.85975	0.816295	10.6274	0.935256	11.6821
0.333895	4.40643	0.140985	1.69862	0.33405	4.39045	0.504509	6.69888	0.673248	8.86143	0.983732	12.1872	0.281811	3.70808	0.511197	6.7838	0.81639	10.5828	0.936026	11.5572
0.334361	4.35899	0.143153	1.7056	0.334519	4.34344	0.505654	6.63204	0.673934	8.76299	0.984092	12.0526	0.283837	3.68952	0.511874	6.70981	0.816519	10.5227	0.936802	11.4352
0.334839	4.31283	0.145325	1.71247	0.335001	4.29771	0.506805	6.5669	0.674628	8.66702	0.984457	11.921	0.285866	3.67143	0.512558	6.63772	0.816684	10.4478	0.937584	11.3161
0.335329	4.26793	0.1475	1.71922	0.335496	4.25321	0.507963	6.50339	0.67533	8.57342	0.984825	11.7924	0.287897	3.65379	0.513251	6.56745	0.816886	10.3587	0.938272	11.2145
0.335831	4.22423	0.149678	1.72587	0.336002	4.2099	0.509127	6.44145	0.676041	8.48211	0.985198	11.6667	0.289931	3.63659	0.513953	6.49895	0.817126	10.2561	0.938862	11.1295
0.336346	4.18169	0.151859	1.7324	0.33652	4.16775	0.510297	6.38104	0.67676	8.39302	0.985574	11.5438	0.291966	3.61982	0.514663	6.43215	0.817405	10.141	0.939352	11.0602
0.336873	4.14028	0.154043	1.73883	0.337052	4.12671	0.511473	6.32209	0.677487	8.30607	0.985955	11.4236	0.294003	3.60345	0.515381	6.36699	0.81769	10.0286	0.939742	11.0062
0.337412	4.09997	0.156229	1.74516	0.337595	4.08674	0.512655	6.26455	0.678223	8.22118	0.98629	11.321	0.296041	3.58747	0.516108	6.30341	0.817979	9.91883	0.940029	10.9668
0.337964	4.0607	0.158419	1.75139	0.338151	4.04782	0.513842	6.20838	0.678967	8.13829	0.986579	11.2351	0.298081	3.57186	0.516843	6.24137	0.818272	9.81154	0.940214	10.9418
0.338529	4.02245	0.16061	1.75752	0.33872	4.00991	0.515035	6.15352	0.679719	8.05733	0.986819	11.165	0.300123	3.55662	0.517587	6.18081	0.81857	9.70668	0.940479	10.906
0.339106	3.98519	0.162805	1.76355	0.339301	3.97297	0.516234	6.09994	0.68048	7.97823	0.98701	11.1103	0.302166	3.54173	0.518339	6.12168	0.818873	9.60416	0.940769	10.8674
0.339696	3.94889	0.165002	1.76949	0.339896	3.93698	0.517438	6.04758	0.681249	7.90094	0.987151	11.0704	0.30421	3.52717	0.5191	6.06394	0.819181	9.50392	0.941164	10.8155
0.340299	3.91351	0.167201	1.77534	0.340503	3.9019	0.518647	5.99642	0.682026	7.82539	0.987241	11.0451	0.306256	3.51293	0.519869	6.00754	0.819493	9.40587	0.941665	10.7505
0.340915	3.87903	0.169403	1.78109	0.341123	3.86772	0.519861	5.9464	0.682811	7.75154	0.987372	11.0088	0.308302	3.49901	0.520646	5.95244	0.81981	9.30995	0.942275	10.6732
0.341544	3.84542	0.171607	1.78676	0.341757	3.83439	0.52108	5.8975	0.683605	7.67933	0.987514	10.9697	0.310349	3.4854	0.521432	5.8986	0.820132	9.21609	0.942995	10.584
0.342186	3.81266	0.173529	1.79163	0.342403	3.8019	0.522304	5.84966	0.684407	7.60871	0.987709	10.917	0.312398	3.47207	0.522227	5.84597	0.820458	9.12423	0.943827	10.4837
0.342841	3.78071	0.175169	1.79573	0.343063	3.77023	0.523533	5.80287	0.685218	7.53962	0.987956	10.8511	0.314447	3.45902	0.52303	5.79452	0.820789	9.03431	0.944665	10.3855
0.34351	3.74956	0.176526	1.79909	0.343736	3.73934	0.524766	5.75709	0.686037	7.47203	0.988258	10.7725	0.316496	3.44625	0.523841	5.74422	0.821125	8.94627	0.945509	10.2894
0.344192	3.71918	0.1776	1.80172	0.344423	3.70921	0.526004	5.71228	0.686863	7.40588	0.988614	10.6819	0.318547	3.43374	0.524661	5.69503	0.821466	8.86004	0.946359	10.1953
0.344887	3.68955	0.178389	1.80364	0.345123	3.67983	0.527246	5.66842	0.687699	7.34114	0.989027	10.5798	0.320598	3.42148	0.52549	5.64691	0.821812	8.77559	0.947215	10.1031
0.345597	3.66066	0.178895	1.80487	0.345836	3.65117	0.528493	5.62547	0.688542	7.27776	0.989444	10.4798	0.322649	3.40948	0.526327	5.59984	0.822163	8.69285	0.948077	10.0128
0.346319	3.63246	0.179622	1.80662	0.346564	3.62321	0.529743	5.58342	0.689394	7.21571	0.989865	10.3818	0.3247	3.3977	0.527172	5.55379	0.822519	8.61177	0.948945	9.92429
0.347056	3.60496	0.180412	1.80852	0.347305	3.59593	0.530998	5.54222	0.690254	7.15493	0.99029	10.2858	0.326752	3.38616	0.528026	5.50871	0.822879	8.53232	0.949819	9.83758
0.347807	3.57813	0.181487	1.81108	0.34806	3.56932	0.532257	5.50186	0.691122	7.09541	0.99072	10.1916	0.328804	3.37484	0.528889	5.46459	0.823244	8.45443	0.950699	9.75258
0.348571	3.55195	0.182848	1.8143	0.348829	3.54335	0.53352	5.46231	0.691998	7.03709	0.991154	10.0993	0.330857	3.36374	0.52976	5.4214	0.823615	8.37807	0.951584	9.66925
0.34935	3.5264	0.184494	1.81815	0.349613	3.51801	0.534787	5.42354	0.692882	6.97995	0.991591	10.0087	0.332909	3.35285	0.530639	5.37912	0.82399	8.30319	0.952475	9.58753
0.350142	3.50147	0.186427	1.82261	0.35041	3.49329	0.536058	5.38554	0.693775	6.92396	0.992033	9.91991	0.334961	3.34216	0.531527	5.33771	0.82437	8.22976	0.953372	9.5074
0.350949	3.47715	0.188646	1.82766	0.351222	3.46916	0.537332	5.34828	0.694676	6.86908	0.99248	9.83276	0.337014	3.33166	0.532424	5.29715	0.824755	8.15773	0.954274	9.42879
0.351771	3.4534	0.190867	1.83264	0.352048	3.44561	0.53861	5.31174	0.695585	6.81528	0.99293	9.74725	0.339066	3.32136	0.533329	5.25742	0.825146	8.08706	0.955182	9.35167
0.352606	3.43023	0.19309	1.83754	0.352889	3.42262	0.539891	5.2759	0.696502	6.76253	0.993384	9.66333	0.341118	3.31123	0.534242	5.21849	0.825541	8.01772	0.956096	9.276
0.353457	3.40762	0.195315	1.84238	0.353744	3.4002	0.541176	5.24074	0.697427	6.7108	0.993843	9.58096	0.343169	3.30129	0.535164	5.18036	0.825941	7.94967	0.957015	9.20174
0.354322	3.38555	0.197541	1.84714	0.354614	3.37831	0.542464	5.20624	0.69836	6.66008	0.994306	9.50009	0.34522	3.29152	0.536095	5.14298	0.826346	7.88288	0.957939	9.12885
0.355202	3.36401	0.199769	1.85184	0.355499	3.35694	0.543755	5.17238	0.699301	6.61032	0.994773	9.42069	0.347271	3.28193	0.537034	5.10635	0.826756	7.81732	0.958869	9.0573
0.356097	3.34299	0.201999	1.85648	0.356399	3.33609	0.545049	5.13915	0.700251	6.56151	0.995244	9.34272	0.349322	3.27249	0.537982	5.07044	0.827172	7.75295	0.959804	8.98704
0.357007	3.32248	0.20423	1.86104	0.357315	3.31574	0.546347	5.10652	0.701208	6.51361	0.995719	9.26614	0.351372	3.26321	0.538938	5.03524	0.827592	7.68973	0.960745	8.91804
0.357933	3.30246	0.206462	1.86555	0.358245	3.29588	0.547648	5.07449	0.702174	6.46662	0.996199	9.19091	0.353421	3.25409	0.539903	5.00072	0.828018	7.62765	0.961691	8.85028
0.358874	3.28292	0.208696	1.86999	0.359191	3.2765	0.548951	5.04303	0.703147	6.42049	0.996683	9.11701	0.35547	3.24511	0.540876	4.96687	0.828448	7.56668	0.962641	8.78372
0.35983	3.26385	0.210931	1.87437	0.360153	3.25759	0.550258	5.01213	0.704129	6.37522	0.997171	9.04439	0.357518	3.23629	0.541858	4.93368	0.828884	7.50678	0.963597	8.71833
0.360802	3.24524	0.213168	1.87869	0.36113	3.23913	0.551567	4.98178	0.705118	6.33077	0.997663	8.97303	0.359566	3.2276	0.542848	4.90112	0.829324	7.44792	0.964559	8.65407
0.361791	3.22709	0.215406	1.88295	0.362124	3.22112	0.552879	4.95196	0.706116	6.28714	0.998159	8.90289	0.361612	3.21905	0.543847	4.86918	0.82977	7.39009	0.965525	8.59093
0.362795	3.20937	0.217645	1.88716	0.363134	3.20356	0.554193	4.92265	0.707121	6.24429	0.998659	8.83394	0.363658	3.21063	0.544854	4.83784	0.830221	7.33326	0.966496	8.52887
0.363815	3.19209	0.219885	1.8913	0.36416	3.18642	0.555511	4.89385	0.708135	6.20221	0.999164	8.76616	0.365703	3.20235	0.54587	4.8071	0.830677	7.2774	0.967472	8.46786
0.364852	3.17523	0.222127	1.8954	0.365202	3.1697	0.55683	4.86554	0.709156	6.16088	0.999673	8.69951	0.367747	3.19419	0.546895	4.77692	0.831138	7.22248	0.968454	8.40788
0.365906	3.15879	0.22437	1.89943	0.366262	3.15339	0.558153	4.83771	0.710185	6.12028	1.00019	8.63397	0.369791	3.18615	0.547928	4.74731	0.831605	7.1685	0.96944	8.34891
0.366977	3.14276	0.226613	1.90342	0.367338	3.13749	0.559477	4.81035	0.711222	6.0804			0.371833	3.17823	0.548969	4.71825	0.832076	7.11542	0.970431	8.29092
0.368065	3.12712	0.228859	1.90735	0.368432	3.12199	0.560804	4.78344	0.712267	6.04121			0.373874	3.17043	0.55002	4.68972	0.832553	7.06322	0.971426	8.23389
0.36917	3.11188	0.231105	1.91123	0.369543	3.10688	0.562134	4.75698	0.71332	6.0027			0.375914	3.16274	0.551078	4.66171	0.833035	7.01188	0.972427	8.17779
0.370292	3.09702	0.233352	1.91506	0.370671	3.09214	0.563465	4.73095	0.71438	5.96486			0.377953	3.15516	0.552145	4.63422	0.833522	6.96139	0.973432	8.1226
0.371433	3.08254	0.2356	1.91883	0.371818	3.07779	0.564799	4.70534	0.715448	5.92767			0.379991	3.14769	0.553221	4.60722	0.834014	6.91171	0.974442	8.0683
0.372592	3.06843	0.237849	1.92256	0.372983	3.0638	0.566135	4.68014	0.716524	5.8911			0.382027	3.14033	0.554305	4.5807	0.834511	6.86285	0.975457	8.01487
0.373769	3.05468	0.240099	1.92625	0.374166	3.05018	0.567473	4.65535	0.717608	5.85516			0.384063	3.13306	0.555398	4.55467	0.835014	6.81476	0.976476	7.96229
0.374965	3.0413	0.242351	1.92988	0.375368	3.03691	0.568814	4.63094	0.718699	5.81983			0.386097	3.1259	0.556499	4.52909	0.835521	6.76745	0.9775	7.91054
0.376179	3.02827	0.244603	1.93347	0.376589	3.024	0.570156	4.60693	0.719798	5.78508			0.388129	3.11883	0.557609	4.50397	0.836034	6.72088	0.978528	7.8596
0.377413	3.01558	0.246855	1.93701	0.37783	3.01143	0.5715	4.58328	0.720905	5.75091			0.390161	3.11185	0.558727	4.4793	0.836552	6.67505	0.97956	7.80945
0.378667	3.00324	0.249109	1.94051	0.37909	2.9992	0.572846	4.56001	0.722019	5.71731			0.392191	3.10497	0.559854	4.45505	0.837076	6.62994	0.980598	7.76008
0.37994	2.99124	0.251364	1.94396	0.38037	2.9873	0.574194	4.53709	0.723141	5.68425			0.394219	3.09818	0.560989	4.43123	0.837604	6.58553	0.981639	7.71147
0.381233	2.97956	0.253619	1.94737	0.38167	2.97574	0.575544	4.51452	0.724271	5.65174			0.396247	3.09147	0.562133	4.40783	0.838138	6.54181	0.982685	7.66359
0.382547	2.96822	0.255875	1.95074	0.382991	2.9645	0.576895	4.49229	0.725408	5.61975			0.398272	3.08486	0.563285	4.38483	0.838677	6.49875	0.983735	7.61644
0.383882	2.9572	0.258132	1.95407	0.384332	2.95359	0.578248	4.47039	0.726552	5.58828			0.400297	3.07832	0.564446	4.36223	0.839221	6.45636	0.98479	7.57
0.385238	2.94649	0.26039	1.95735	0.385695	2.94299	0.579603	4.44882	0.727704	5.55732			0.402319	3.07186	0.565615	4.34001	0.83977	6.41461	0.985848	7.52425
0.386615	2.9361	0.262648	1.9606	0.387079	2.9327	0.58096	4.42757	0.728863	5.52685			0.40434	3.06549	0.566793	4.31818	0.840325	6.37348	0.986911	7.47918
0.388014	2.92602	0.264907	1.9638	0.388485	2.92272	0.582318	4.40663	0.73003	5.49686			0.40636	3.05919	0.567979	4.29672	0.840885	6.33298	0.987978	7.43477
0.389434	2.91625	0.267167	1.96697	0.389913	2.91305	0.583678	4.386	0.731204	5.46734			0.408378	3.05297	0.569173	4.27562	0.84145	6.29308	0.989049	7.39101
0.390877	2.90677	0.269427	1.97009	0.391364	2.90367	0.58504	4.36567	0.732385	5.43829			0.410394	3.04682	0.570376	4.25488	0.84202	6.25377	0.990124	7.34788
0.392343	2.89759	0.271688	1.97318	0.392837	2.89459	0.586403	4.34563	0.733574	5.40969			0.412408	3.04074	0.571588	4.23448	0.842596	6.21503	0.991204	7.30538
0.393831	2.88871	0.273949	1.97624	0.394332	2.8858	0.587767	4.32587	0.73477	5.38154			0.414421	3.03474	0.572808	4.21443	0.843177	6.17687	0.992287	7.26349
0.395342	2.88011	0.276211	1.97925	0.395851	2.8773	0.589133	4.3064	0.735973	5.35382			0.416433	3.0288	0.574036	4.19471	0.843763	6.13926	0.993374	7.22219
0.396876	2.87179	0.278474	1.98223	0.397393	2.86908	0.590501	4.28719	0.737183	5.32652			0.418442	3.02293	0.575273	4.17532	0.844354	6.10219	0.994465	7.18148
0.398433	2.86375	0.280737	1.98518	0.398959	2.86113	0.59187	4.26826	0.738401	5.29964			0.42045	3.01713	0.576518	4.15626	0.844951	6.06566	0.99556	7.14134
0.400014	2.85599	0.283001	1.98808	0.400547	2.85346	0.59324	4.24959	0.739625	5.27317			0.422456	3.01139	0.577771	4.1375	0.845552	6.02965	0.996659	7.10176
0.401619	2.8485	0.285265	1.99096	0.40216	2.84606	0.594612	4.23118	0.740857	5.24709			0.42446	3.00571	0.579033	4.11905	0.846159	5.99416	0.997761	7.06272
0.403247	2.84127	0.28753	1.9938	0.403796	2.83892	0.595985	4.21301	0.742096	5.22141			0.426462	3.0001	0.580303	4.10091	0.846772	5.95916	0.998868	7.02423
0.404899	2.8343	0.289795	1.99661	0.405456	2.83204	0.597359	4.1951	0.743341	5.19611			0.428463	2.99454	0.581582	4.08306	0.847389	5.92466	0.999978	6.98626
0.406574	2.82759	0.29206	1.99938	0.407139	2.82541	0.598735	4.17743	0.744594	5.17119			0.430461	2.98905	0.582869	4.0655	0.848012	5.89064	1.00109	6.94881
0.408273	2.82113	0.294326	2.00212	0.408846	2.81902	0.600112	4.15999	0.745854	5.14664			0.432458	2.98361	0.584164	4.04823	0.84864	5.8571		
0.409996	2.81491	0.296593	2.00484	0.410576	2.81288	0.60149	4.14279	0.74712	5.12244			0.434453	2.97823	0.585467	4.03124	0.849273	5.82402		
0.411741	2.80892	0.29886	2.00751	0.412329	2.80698	0.60287	4.12582	0.748393	5.0986			0.436446	2.97291	0.586779	4.01451	0.849911	5.7914		
0.41351	2.80317	0.301127	2.01016	0.414106	2.8013	0.60425	4.10907	0.749673	5.07511			0.438437	2.96763	0.588099	3.99806	0.850555	5.75922		
0.415302	2.79765	0.303394	2.01278	0.415905	2.79585	0.605632	4.09254	0.75096	5.05196			0.440426	2.96242	0.589427	3.98187	0.851204	5.72748		
0.417116	2.79234	0.305662	2.01537	0.417726	2.79062	0.607016	4.07622	0.752254	5.02914			0.442414	2.95725	0.590764	3.96593	0.851858	5.69617		
0.418952	2.78725	0.30793	2.01793	0.41957	2.7856	0.6084	4.06011	0.753554	5.00665			0.444399	2.95214	0.592108	3.95025	0.852517	5.66528		
0.42081	2.78237	0.310198	2.02046	0.421435	2.78078	0.609786	4.04422	0.754861	4.98447			0.446383	2.94707	0.593461	3.93482	0.853182	5.63481		
0.42269	2.77768	0.312467	2.02296	0.423322	2.77616	0.611172	4.02852	0.756174	4.96262			0.448364	2.94206	0.594822	3.91963	0.853852	5.60475		
0.42459	2.77319	0.314736	2.02543	0.425229	2.77174	0.61256	4.01302	0.757494	4.94107			0.450344	2.93709	0.596191	3.90468	0.854527	5.57509		
0.426511	2.76889	0.317005	2.02787	0.427157	2.76749	0.61395	3.99772	0.758821	4.91982			0.452321	2.93217	0.597568	3.88996	0.855207	5.54581		
0.428452	2.76477	0.319275	2.03029	0.429104	2.76343	0.61534	3.98261	0.760153	4.89887			0.454297	2.9273	0.598954	3.87547	0.855893	5.51693		
0.430413	2.76082	0.321544	2.03268	0.431071	2.75954	0.616731	3.96769	0.761493	4.87821			0.456271	2.92248	0.600347	3.86121	0.856584	5.48842		
0.432392	2.75704	0.323814	2.03504	0.433057	2.75581	0.618124	3.95296	0.762838	4.85783			0.458243	2.91769	0.601748	3.84717	0.85728	5.46028		
0.434389	2.75342	0.326084	2.03738	0.43506	2.75224	0.619518	3.93841	0.76419	4.83774			0.460213	2.91296	0.603157	3.83335	0.857981	5.43251		
0.436405	2.74995	0.328354	2.03969	0.437081	2.74883	0.620912	3.92403	0.765548	4.81792			0.462181	2.90826	0.604575	3.81974	0.858687	5.4051		
0.438437	2.74663	0.330625	2.04197	0.439119	2.74556	0.622308	3.90983	0.766913	4.79837			0.464147	2.90361	0.606	3.80634	0.859399	5.37804		
0.440486	2.74346	0.332895	2.04423	0.441173	2.74243	0.623706	3.89581	0.768283	4.77909			0.466111	2.899	0.607433	3.79314	0.860116	5.35132		
0.442551	2.74041	0.335166	2.04647	0.443243	2.73943	0.625104	3.88195	0.76966	4.76007			0.468073	2.89443	0.608874	3.78015	0.860838	5.32495		
0.444631	2.7375	0.337436	2.04868	0.445329	2.73656	0.626503	3.86826	0.771043	4.7413			0.470033	2.8899	0.610323	3.76735	0.861565	5.29891		
0.446726	2.73471	0.339707	2.05087	0.447428	2.73381	0.627903	3.85473	0.772432	4.72278			0.471991	2.88541	0.61178	3.75475	0.862297	5.27319		
0.448835	2.73204	0.341978	2.05303	0.449542	2.73118	0.629305	3.84136	0.773826	4.70451			0.473948	2.88096	0.613244	3.74234	0.863035	5.24781		
0.450958	2.72948	0.344249	2.05517	0.451669	2.72865	0.630708	3.82815	0.775227	4.68648			0.475902	2.87655	0.614716	3.73011	0.863778	5.22273		
0.453093	2.72703	0.34652	2.05728	0.453809	2.72624	0.632112	3.8151	0.776634	4.66869			0.477855	2.87218	0.616196	3.71807	0.864526	5.19797		
0.455242	2.72468	0.348791	2.05937	0.455961	2.72392	0.633516	3.8022	0.778046	4.65113			0.479805	2.86785	0.617684	3.70621	0.865279	5.17352		
0.457402	2.72243	0.351062	2.06144	0.458126	2.7217	0.634923	3.78945	0.779464	4.6338			0.481754	2.86355	0.619179	3.69453	0.866037	5.14937		
0.459574	2.72027	0.353333	2.06349	0.460301	2.71957	0.63633	3.77684	0.780888	4.61669			0.483701	2.85928	0.620682	3.68302	0.866801	5.12552		
0.461756	2.7182	0.355605	2.06551	0.462487	2.71753	0.637738	3.76438	0.782318	4.5998			0.485646	2.85506	0.622193	3.67169	0.86757	5.10196		
0.463949	2.71621	0.357876	2.06752	0.464684	2.71557	0.639147	3.75207	0.783753	4.58314			0.487589	2.85087	0.62371	3.66052	0.868344	5.07868		
0.466152	2.71431	0.360147	2.0695	0.46689	2.71369	0.640558	3.7399	0.785194	4.56668			0.489531	2.84671	0.625236	3.64952	0.869123	5.05569		
0.468365	2.71247	0.362418	2.07146	0.469106	2.71188	0.64197	3.72786	0.78664	4.55043			0.49147	2.84259	0.626769	3.63867	0.869907	5.03297		
0.470587	2.71071	0.364689	2.0734	0.47133	2.71014	0.643383	3.71596	0.788092	4.53439			0.493408	2.8385	0.628309	3.62799	0.870697	5.01053		
0.472817	2.70902	0.36696	2.07531	0.473564	2.70847	0.644797	3.70419	0.789549	4.51856			0.495344	2.83445	0.629857	3.61747	0.871491	4.98836		
0.475056	2.7074	0.36923	2.07721	0.475805	2.70687	0.646212	3.69256	0.791012	4.50292			0.497279	2.83042	0.631412	3.6071	0.872291	4.96645		
0.477303	2.70583	0.371501	2.07909	0.478054	2.70533	0.647628	3.68106	0.792479	4.48747			0.499211	2.82644	0.632974	3.59688	0.873096	4.9448		
0.479557	2.70433	0.373772	2.08094	0.480311	2.70384	0.649046	3.66968	0.793953	4.47222			0.501142	2.82248	0.634543	3.58681	0.873906	4.92341		
0.481818	2.70288	0.376042	2.08278	0.482575	2.70241	0.650465	3.65843	0.795431	4.45716			0.503071	2.81856	0.63612	3.57688	0.874721	4.90227		
0.484086	2.70149	0.378312	2.0846	0.484845	2.70103	0.651885	3.6473	0.796914	4.44228			0.504999	2.81466	0.637704	3.5671	0.875541	4.88138		
0.486361	2.70014	0.380583	2.0864	0.487122	2.6997	0.653306	3.6363	0.798403	4.42758			0.506925	2.8108	0.639295	3.55746	0.876367	4.86073		
0.488642	2.69885	0.382853	2.08818	0.489405	2.69842	0.654728	3.62542	0.799897	4.41306			0.508849	2.80697	0.640892	3.54795	0.877197	4.84033		
0.490929	2.6976	0.385122	2.08994	0.491694	2.69719	0.656152	3.61465	0.801395	4.39872			0.510772	2.80317	0.642497	3.53859	0.878033	4.82016		
0.493222	2.69639	0.387392	2.09168	0.493989	2.696	0.657577	3.604	0.802899	4.38455			0.512693	2.7994	0.644109	3.52935	0.878874	4.80022		
0.49552	2.69523	0.389662	2.0934	0.496289	2.69485	0.659003	3.59347	0.804408	4.37055			0.514613	2.79566	0.645728	3.52025	0.87972	4.78051		
0.497824	2.6941	0.391931	2.0951	0.498594	2.69373	0.66043	3.58305	0.805921	4.35672			0.516531	2.79195	0.647353	3.51128	0.880571	4.76103		
0.500132	2.69301	0.3942	2.09679	0.500904	2.69266	0.661859	3.57274	0.807439	4.34305			0.518447	2.78826	0.648985	3.50243	0.881427	4.74178		
0.502445	2.69196	0.396469	2.09846	0.503218	2.69162	0.663289	3.56254	0.808962	4.32955			0.520363	2.78461	0.650625	3.49371	0.882288	4.72274		
0.504762	2.69095	0.398737	2.10011	0.505537	2.69062	0.66472	3.55245	0.81049	4.3162			0.522276	2.78099	0.65227	3.48511	0.883154	4.70392		
0.507084	2.68997	0.401006	2.10174	0.50786	2.68964	0.666153	3.54247	0.812022	4.30301			0.524189	2.77739	0.653922	3.47663	0.884026	4.68531		
0.50941	2.68901	0.403274	2.10336	0.510188	2.6887	0.667587	3.53259	0.813559	4.28997			0.5261	2.77383	0.655581	3.46827	0.884902	4.66691		
0.51174	2.68809	0.405541	2.10496	0.512519	2.68779	0.669022	3.52282	0.8151	4.27709			0.52801	2.77029	0.657247	3.46003	0.885784	4.64871		
0.514074	2.6872	0.407809	2.10654	0.514853	2.68691	0.670458	3.51315	0.816646	4.26435			0.529918	2.76677	0.658918	3.4519	0.88667	4.63072		
0.516411	2.68633	0.410076	2.10811	0.517192	2.68605	0.671896	3.50358	0.818197	4.25176			0.531825	2.76329	0.660597	3.44388	0.887562	4.61294		
0.518751	2.68549	0.412343	2.10965	0.519534	2.68522	0.673336	3.49411	0.819751	4.23932			0.533732	2.75983	0.662281	3.43597	0.888459	4.59534		
0.521095	2.68468	0.414609	2.11119	0.521878	2.68441	0.674776	3.48474	0.82131	4.22701			0.535636	2.7564	0.663972	3.42817	0.889361	4.57795		
0.523442	2.68389	0.416875	2.1127	0.524227	2.68363	0.676218	3.47546	0.822874	4.21485			0.53754	2.753	0.665669	3.42048	0.890268	4.56074		
0.525792	2.68312	0.419141	2.1142	0.526577	2.68287	0.677662	3.46628	0.824441	4.20282			0.539443	2.74963	0.667372	3.41289	0.89118	4.54373		
0.528145	2.68237	0.421407	2.11569	0.528931	2.68213	0.679107	3.4572	0.826013	4.19093			0.541345	2.74628	0.669081	3.40541	0.892097	4.5269		
0.530501	2.68165	0.423672	2.11716	0.531288	2.68141	0.680553	3.44821	0.827589	4.17917			0.543245	2.74295	0.670797	3.39803	0.893019	4.51025		
0.532859	2.68094	0.425936	2.11861	0.533647	2.68071	0.682001	3.43931	0.829169	4.16754			0.545145	2.73966	0.672518	3.39074	0.893946	4.49379		
0.53522	2.68025	0.428201	2.12005	0.536008	2.68003	0.683451	3.4305	0.830753	4.15604			0.547043	2.73639	0.674245	3.38356	0.894878	4.47751		
0.537583	2.67959	0.430464	2.12147	0.538372	2.67937	0.684902	3.42178	0.832341	4.14466			0.548941	2.73314	0.675978	3.37647	0.895815	4.4614		
0.539948	2.67893	0.432728	2.12288	0.540738	2.67872	0.686354	3.41315	0.833933	4.13341			0.550838	2.72992	0.677717	3.36947	0.896757	4.44546		
0.542316	2.6783	0.434991	2.12427	0.543106	2.67809	0.687808	3.4046	0.835528	4.12229			0.552734	2.72673	0.679461	3.36257	0.897704	4.4297		
0.544685	2.67768	0.437253	2.12565	0.545477	2.67748	0.689263	3.39615	0.837128	4.11128			0.554629	2.72356	0.681211	3.35576	0.898656	4.4141		
0.547057	2.67708	0.439515	2.12701	0.547849	2.67688	0.690721	3.38777	0.838731	4.10039			0.556524	2.72042	0.682967	3.34904	0.899613	4.39867		
0.549431	2.67649	0.441777	2.12836	0.550223	2.6763	0.692179	3.37948	0.840338	4.08962			0.558418	2.7173	0.684729	3.3424	0.900576	4.38341		
0.551806	2.67592	0.444038	2.12969	0.552599	2.67573	0.693639	3.37128	0.841949	4.07896			0.560311	2.71421	0.686495	3.33585	0.901543	4.36831		
0.554183	2.67536	0.446299	2.13101	0.554977	2.67517	0.695101	3.36315	0.843563	4.06842			0.562203	2.71114	0.688268	3.32939	0.902515	4.35337		
0.556562	2.67481	0.448559	2.13231	0.557356	2.67463	0.696565	3.35511	0.845181	4.05799			0.564095	2.70809	0.690045	3.32301	0.903492	4.33858		
0.558942	2.67428	0.450818	2.13361	0.559737	2.6741	0.69803	3.34715	0.846802	4.04767			0.565987	2.70508	0.691828	3.31672	0.904474	4.32395		
0.561324	2.67375	0.453077	2.13488	0.56212	2.67358	0.699497	3.33926	0.848427	4.03745			0.567878	2.70208	0.693616	3.3105	0.905461	4.30948		
0.563708	2.67324	0.455336	2.13615	0.564504	2.67308	0.700965	3.33145	0.850055	4.02735			0.569768	2.69911	0.695409	3.30437	0.906454	4.29515		
0.566093	2.67274	0.457594	2.1374	0.566889	2.67258	0.702435	3.32372	0.851687	4.01734			0.571659	2.69616	0.697207	3.29831	0.907451	4.28098		
0.568479	2.67226	0.459851	2.13863	0.569276	2.67209	0.703907	3.31607	0.853322	4.00744			0.573548	2.69324	0.699011	3.29233	0.908453	4.26695		
0.570866	2.67178	0.462108	2.13986	0.571663	2.67162	0.705381	3.30849	0.85496	3.99765			0.575438	2.69035	0.700819	3.28643	0.90946	4.25307		
0.573255	2.67131	0.464364	2.14107	0.574053	2.67115	0.706856	3.30098	0.856602	3.98795			0.577327	2.68747	0.702632	3.2806	0.910472	4.23933		
0.575645	2.67085	0.466619	2.14227	0.576443	2.6707	0.708333	3.29355	0.858247	3.97835			0.579216	2.68462	0.70445	3.27484	0.911489	4.22573		
0.578036	2.6704	0.468874	2.14345	0.578834	2.67025	0.709812	3.28619	0.859894	3.96885			0.581105	2.68179	0.706273	3.26915	0.912511	4.21228		
0.580428	2.66996	0.471129	2.14462	0.581226	2.66981	0.711292	3.2789	0.861545	3.95944			0.582993	2.67899	0.7081	3.26354	0.913537	4.19896		
0.582821	2.66952	0.473382	2.14578	0.58362	2.66938	0.712775	3.27168	0.863199	3.95013			0.584882	2.67621	0.709932	3.25799	0.914569	4.18577		
0.585215	2.6691	0.475635	2.14693	0.586014	2.66896	0.714259	3.26454	0.864856	3.94091			0.58677	2.67346	0.711769	3.25251	0.915606	4.17272		
0.58761	2.66868	0.477888	2.14806	0.588409	2.66855	0.715745	3.25746	0.866516	3.93178			0.588659	2.67072	0.71361	3.2471	0.916647	4.15981		
0.590006	2.66827	0.48014	2.14918	0.590806	2.66814	0.717233	3.25045	0.868179	3.92274			0.590547	2.66801	0.715456	3.24176	0.917694	4.14702		
0.592402	2.66787	0.482391	2.15029	0.593203	2.66774	0.718723	3.2435	0.869844	3.91379			0.592436	2.66533	0.717305	3.23647	0.918746	4.13437		
0.5948	2.66748	0.484641	2.15138	0.5956	2.66734	0.720215	3.23663	0.871513	3.90493			0.594325	2.66266	0.71916	3.23126	0.919802	4.12184		
0.597198	2.66709	0.486891	2.15247	0.597999	2.66696	0.721709	3.22982	0.873184	3.89615			0.596213	2.66002	0.721018	3.2261	0.920863	4.10944		
0.599597	2.6667	0.48914	2.15354	0.600398	2.66658	0.723204	3.22307	0.874858	3.88746			0.598102	2.6574	0.722881	3.22101	0.92193	4.09716		
0.601997	2.66633	0.491388	2.1546	0.602798	2.6662	0.724702	3.21639	0.876534	3.87885			0.599992	2.65481	0.724748	3.21598	0.923001	4.08501		
0.604397	2.66596	0.493635	2.15565	0.605198	2.66584	0.726201	3.20977	0.878213	3.87032			0.601881	2.65224	0.726618	3.211	0.924077	4.07298		
0.606798	2.66559	0.495882	2.15668	0.607599	2.66547	0.727703	3.20322	0.879895	3.86188			0.603771	2.64968	0.728493	3.20609	0.925158	4.06106		
0.609199	2.66523	0.498128	2.15771	0.610001	2.66511	0.729207	3.19673	0.88158	3.85351			0.605662	2.64716	0.730372	3.20123	0.926244	4.04927		
0.611601	2.66488	0.500373	2.15872	0.612403	2.66476	0.730712	3.1903	0.883266	3.84522			0.607552	2.64465	0.732254	3.19643	0.927334	4.03759		
0.614004	2.66453	0.502617	2.15972	0.614806	2.66442	0.73222	3.18393	0.884956	3.83701			0.609444	2.64217	0.734141	3.19168	0.92843	4.02603		
0.616406	2.66419	0.504861	2.16071	0.617209	2.66407	0.733729	3.17762	0.886647	3.82888			0.611335	2.63971	0.736031	3.18699	0.92953	4.01458		
0.61881	2.66385	0.507104	2.16169	0.619612	2.66374	0.735241	3.17137	0.888341	3.82082			0.613228	2.63727	0.737924	3.18235	0.930636	4.00325		
0.621214	2.66351	0.509346	2.16266	0.622016	2.6634	0.736755	3.16518	0.890038	3.81284			0.615121	2.63485	0.739822	3.17776	0.931746	3.99203		
0.623618	2.66318	0.511587	2.16362	0.62442	2.66307	0.738271	3.15905	0.891736	3.80493			0.617014	2.63246	0.741723	3.17323	0.932861	3.98091		
0.626022	2.66286	0.513827	2.16456	0.626825	2.66275	0.739789	3.15297	0.893437	3.79709			0.618908	2.63008	0.743627	3.16875	0.933982	3.96991		
0.628427	2.66253	0.516067	2.1655	0.62923	2.66243	0.741309	3.14695	0.89514	3.78933			0.620803	2.62773	0.745535	3.16431	0.935106	3.95901		
0.630832	2.66221	0.518305	2.16642	0.631635	2.66211	0.742831	3.14099	0.896845	3.78163			0.622699	2.6254	0.747446	3.15993	0.936236	3.94822		
0.633238	2.6619	0.520543	2.16734	0.634041	2.66179	0.744356	3.13509	0.898553	3.774			0.624595	2.62309	0.74936	3.15559	0.937371	3.93754		
0.635643	2.66159	0.52278	2.16824	0.636447	2.66148	0.745883	3.12924	0.900262	3.76644			0.626493	2.62081	0.751278	3.1513	0.938511	3.92695		
0.638049	2.66128	0.525016	2.16913	0.638852	2.66118	0.747411	3.12345	0.901973	3.75895			0.628391	2.61854	0.753199	3.14706	0.939655	3.91647		
0.640455	2.66097	0.527251	2.17001	0.641258	2.66087	0.748943	3.11771	0.903687	3.75153			0.63029	2.6163	0.755122	3.14286	0.940804	3.9061		
0.642862	2.66067	0.529485	2.17088	0.643665	2.66057	0.750476	3.11202	0.905402	3.74417			0.63219	2.61407	0.757049	3.13871	0.941958	3.89582		
0.645268	2.66037	0.531718	2.17174	0.646071	2.66027	0.752012	3.10639	0.90712	3.73687			0.634091	2.61187	0.758979	3.13461	0.943117	3.88564		
0.647674	2.66008	0.533951	2.17259	0.648478	2.65998	0.75355	3.1008	0.908839	3.72964			0.635993	2.60969	0.760912	3.13054	0.944281	3.87556		
0.650081	2.65978	0.536182	2.17343	0.650884	2.65968	0.75509	3.09528	0.91056	3.72247			0.637896	2.60753	0.762848	3.12652	0.94545	3.86557		
0.652487	2.65949	0.538412	2.17426	0.653291	2.65939	0.756633	3.0898	0.912282	3.71536			0.6398	2.60539	0.764786	3.12254	0.946623	3.85568		
0.654894	2.6592	0.540642	2.17508	0.655697	2.65911	0.758178	3.08437	0.914007	3.70831			0.641706	2.60328	0.766727	3.11861	0.947802	3.84589		
0.657301	2.65891	0.54287	2.17589	0.658104	2.65882	0.759725	3.079	0.915733	3.70132			0.643612	2.60118	0.768671	3.11471	0.948985	3.83619		
0.659707	2.65863	0.545098	2.17669	0.660511	2.65854	0.761275	3.07367	0.917461	3.69439			0.64552	2.5991	0.770618	3.11085	0.950173	3.82658		
0.662114	2.65835	0.547324	2.17748	0.662917	2.65825	0.762827	3.0684	0.919191	3.68753			0.647429	2.59705	0.772567	3.10703	0.951366	3.81706		
0.66452	2.65807	0.54955	2.17826	0.665324	2.65797	0.764381	3.06317	0.920922	3.68071			0.649339	2.59501	0.774519	3.10326	0.952564	3.80763		
0.666927	2.65779	0.551774	2.17903	0.66773	2.65769	0.765938	3.05799	0.922655	3.67396			0.651251	2.59299	0.776473	3.09951	0.953766	3.79829		
0.669333	2.65751	0.553998	2.17979	0.670137	2.65742	0.767498	3.05286	0.924389	3.66726			0.653164	2.591	0.778429	3.09581	0.954974	3.78904		
0.671739	2.65723	0.55622	2.18054	0.672543	2.65714	0.769059	3.04778	0.926125	3.66061			0.655078	2.58903	0.780388	3.09214	0.956186	3.77988		
0.674146	2.65696	0.558441	2.18128	0.674949	2.65687	0.770624	3.04274	0.927862	3.65402			0.656994	2.58707	0.782349	3.08851	0.957403	3.7708		
0.676551	2.65669	0.560662	2.18201	0.677355	2.65659	0.772191	3.03775	0.929601	3.64749			0.658911	2.58514	0.784313	3.08492	0.958625	3.76181		
0.678957	2.65641	0.562881	2.18274	0.67976	2.65632	0.77376	3.03281	0.931341	3.641			0.66083	2.58322	0.786278	3.08136	0.959852	3.7529		
0.681363	2.65614	0.565099	2.18345	0.682166	2.65605	0.775332	3.02792	0.933082	3.63457			0.66275	2.58133	0.788246	3.07783	0.961083	3.74408		
0.683768	2.65587	0.567316	2.18415	0.684571	2.65578	0.776907	3.02307	0.934825	3.6282			0.664672	2.57945	0.790216	3.07434	0.962319	3.73534		
0.686173	2.6556	0.569532	2.18485	0.686976	2.65551	0.778484	3.01826	0.936569	3.62187			0.666595	2.57759	0.792187	3.07088	0.963561	3.72668		
0.688577	2.65534	0.571747	2.18553	0.68938	2.65525	0.780064	3.0135	0.938314	3.61559			0.66852	2.57576	0.794161	3.06745	0.964807	3.7181		
0.690982	2.65507	0.573961	2.18621	0.691784	2.65498	0.781646	3.00878	0.940061	3.60936			0.670447	2.57394	0.796137	3.06405	0.966057	3.7096		
0.693386	2.6548	0.576174	2.18688	0.694188	2.65471	0.783231	3.00411	0.941808	3.60318			0.672375	2.57214	0.798114	3.06069	0.967313	3.70118		
0.695789	2.65453	0.578385	2.18753	0.696592	2.65445	0.784819	2.99948	0.943557	3.59705			0.674305	2.57037	0.800094	3.05736	0.968574	3.69284		
0.698192	2.65427	0.580596	2.18818	0.698995	2.65418	0.78641	2.9949	0.945307	3.59097			0.676236	2.56861	0.802075	3.05405	0.969839	3.68457		
0.700595	2.654	0.582805	2.18882	0.701397	2.65391	0.788003	2.99035	0.947058	3.58493			0.67817	2.56687	0.804058	3.05078	0.971109	3.67639		
0.702998	2.65374	0.585013	2.18946	0.7038	2.65365	0.789599	2.98585	0.94881	3.57894			0.680105	2.56515	0.806042	3.04754	0.972384	3.66827		
0.705399	2.65347	0.58722	2.19008	0.706201	2.65338	0.791198	2.9814	0.950564	3.573			0.682042	2.56344	0.808028	3.04432	0.973664	3.66024		
0.707801	2.65321	0.589426	2.19069	0.708602	2.65312	0.792799	2.97698	0.952318	3.5671			0.683981	2.56176	0.810016	3.04114	0.974948	3.65227		
0.710202	2.65294	0.591631	2.1913	0.711003	2.65285	0.794404	2.9726	0.954073	3.56124			0.685922	2.56009	0.812005	3.03798	0.976238	3.64438		
0.712602	2.65267	0.593834	2.1919	0.713403	2.65259	0.796011	2.96827	0.955829	3.55543			0.687864	2.55845	0.813995	3.03484	0.977532	3.63657		
0.715002	2.65241	0.596037	2.19249	0.715803	2.65232	0.797621	2.96398	0.957586	3.54967			0.689809	2.55682	0.815987	3.03174	0.978831	3.62882		
0.717401	2.65214	0.598238	2.19307	0.718202	2.65205	0.799234	2.95972	0.959343	3.54394			0.691755	2.55521	0.817981	3.02866	0.980135	3.62115		
0.719799	2.65187	0.600438	2.19364	0.7206	2.65179	0.80085	2.95551	0.961102	3.53826			0.693704	2.55362	0.819975	3.02561	0.981443	3.61354		
0.722197	2.65161	0.602637	2.1942	0.722998	2.65152	0.802469	2.95134	0.962862	3.53262			0.695654	2.55205	0.821971	3.02258	0.982757	3.60601		
0.724594	2.65134	0.604834	2.19476	0.725394	2.65125	0.804091	2.9472	0.964622	3.52702			0.697607	2.55049	0.823969	3.01958	0.984075	3.59855		
0.726991	2.65107	0.60703	2.19531	0.727791	2.65098	0.805716	2.94311	0.966383	3.52147			0.699561	2.54895	0.825967	3.01661	0.985398	3.59115		
0.729387	2.6508	0.609226	2.19585	0.730186	2.65071	0.807343	2.93905	0.968144	3.51595			0.701517	2.54744	0.827966	3.01365	0.986726	3.58382		
0.731781	2.65053	0.611419	2.19638	0.732581	2.65044	0.808975	2.93504	0.969907	3.51047			0.703476	2.54593	0.829967	3.01073	0.988059	3.57656		
0.734176	2.65026	0.613612	2.1969	0.734975	2.65016	0.810609	2.93106	0.97167	3.50503			0.705437	2.54445	0.831968	3.00782	0.989396	3.56936		
0.736569	2.64998	0.615804	2.19742	0.737368	2.64989	0.812246	2.92711	0.973433	3.49963			0.707399	2.54298	0.833971	3.00494	0.990739	3.56223		
0.738961	2.64971	0.617994	2.19793	0.73976	2.64962	0.813886	2.92321	0.975198	3.49427			0.709364	2.54154	0.835974	3.00208	0.992086	3.55516		
0.741353	2.64943	0.620183	2.19843	0.742151	2.64934	0.81553	2.91935	0.976963	3.48895			0.711331	2.5401	0.837979	2.99924	0.993438	3.54816		
0.743743	2.64915	0.62237	2.19892	0.744541	2.64906	0.817176	2.91552	0.978728	3.48366			0.713301	2.53869	0.839984	2.99643	0.994794	3.54122		
0.746133	2.64888	0.624557	2.1994	0.74693	2.64878	0.818827	2.91172	0.980494	3.47841			0.715272	2.53729	0.84199	2.99363	0.996156	3.53435		
0.748521	2.64859	0.626742	2.19988	0.749319	2.6485	0.82048	2.90797	0.982261	3.4732			0.717246	2.53591	0.843997	2.99086	0.997522	3.52754		
0.750909	2.64831	0.628926	2.20035	0.751706	2.64822	0.822136	2.90425	0.984028	3.46802			0.719221	2.53455	0.846005	2.98811	0.998894	3.52078		
0.753295	2.64803	0.631108	2.20081	0.754092	2.64793	0.823796	2.90057	0.985795	3.46288			0.721199	2.5332	0.848013	2.98538	1.00027	3.51409		
0.755681	2.64774	0.633289	2.20127	0.756477	2.64764	0.82546	2.89692	0.987563	3.45777			0.72318	2.53187	0.850022	2.98267				
0.758065	2.64745	0.635469	2.20172	0.758861	2.64735	0.827127	2.89331	0.989331	3.4527			0.725162	2.53056	0.852031	2.97998				
0.760448	2.64716	0.637648	2.20216	0.761243	2.64706	0.828797	2.88974	0.9911	3.44767			0.727147	2.52926	0.854041	2.97731				
0.76283	2.64687	0.639826	2.20259	0.763624	2.64677	0.830471	2.8862	0.992869	3.44266			0.729134	2.52798	0.856052	2.97465				
0.76521	2.64657	0.642002	2.20301	0.766005	2.64647	0.832148	2.88269	0.994638	3.43769			0.731124	2.52672	0.858063	2.97202				
0.767589	2.64627	0.644177	2.20343	0.768383	2.64617	0.833829	2.87922	0.996408	3.43275			0.733116	2.52547	0.860074	2.9694				
0.769967	2.64597	0.64635	2.20384	0.770761	2.64587	0.835513	2.87578	0.998178	3.42785			0.73511	2.52424	0.862086	2.96681				
0.772343	2.64567	0.648523	2.20425	0.773136	2.64556	0.837201	2.87238	0.999948	3.42298			0.737106	2.52302	0.864099	2.96423				
0.774718	2.64536	0.650693	2.20465	0.775511	2.64526	0.838893	2.86902	1.00172	3.41813			0.739105	2.52182	0.866111	2.96167				
0.777092	2.64505	0.652863	2.20504	0.777884	2.64494	0.840589	2.86569					0.741107	2.52064	0.868124	2.95912				
0.779464	2.64474	0.655032	2.20542	0.780255	2.64463	0.842288	2.86239					0.74311	2.51947	0.870137	2.95659				
0.781834	2.64442	0.657199	2.2058	0.782625	2.64431	0.843991	2.85912					0.745116	2.51831	0.872151	2.95408				
0.784203	2.6441	0.659364	2.20617	0.784993	2.64399	0.845699	2.85589					0.747125	2.51717	0.874164	2.95159				
0.78657	2.64377	0.661529	2.20653	0.787359	2.64366	0.84741	2.85269					0.749136	2.51605	0.876178	2.94911				
0.788935	2.64344	0.663692	2.20689	0.789724	2.64333	0.849125	2.84953					0.751149	2.51494	0.878192	2.94665				
0.791298	2.64311	0.665854	2.20724	0.792087	2.643	0.850844	2.8464					0.753165	2.51385	0.880206	2.9442				
0.79366	2.64278	0.668014	2.20758	0.794448	2.64266	0.852567	2.8433					0.755183	2.51277	0.882219	2.94177				
0.79602	2.64244	0.670173	2.20792	0.796807	2.64232	0.854294	2.84024					0.757203	2.51171	0.884233	2.93935				
0.798377	2.64209	0.672331	2.20825	0.799164	2.64197	0.856026	2.83721					0.759226	2.51066	0.886247	2.93695				
0.800733	2.64174	0.674488	2.20857	0.801519	2.64162	0.857762	2.83421					0.761252	2.50963	0.888261	2.93456				
0.803086	2.64139	0.676643	2.20889	0.803872	2.64127	0.859502	2.83124					0.76328	2.50861	0.890275	2.93219				
0.805438	2.64103	0.678797	2.2092	0.806222	2.64091	0.861247	2.82831					0.76531	2.5076	0.892288	2.92983				
0.807787	2.64066	0.68095	2.20951	0.808571	2.64054	0.862995	2.82541					0.767343	2.50661	0.894302	2.92749				
0.810134	2.64029	0.683101	2.20981	0.810917	2.64017	0.864749	2.82254					0.769379	2.50563	0.896315	2.92516				
0.812478	2.63992	0.685251	2.2101	0.81326	2.63979	0.866507	2.8197					0.771416	2.50467	0.898328	2.92284				
0.81482	2.63954	0.6874	2.21039	0.815602	2.63941	0.86827	2.8169					0.773457	2.50372	0.90034	2.92053				
0.81716	2.63915	0.689547	2.21068	0.81794	2.63902	0.870037	2.81413					0.7755	2.50279	0.902353	2.91824				
0.819497	2.63876	0.691693	2.21095	0.820276	2.63863	0.871809	2.81139					0.777545	2.50186	0.904365	2.91596				
0.821831	2.63836	0.693838	2.21122	0.82261	2.63822	0.873586	2.80868					0.779593	2.50096	0.906376	2.9137				
0.824163	2.63795	0.695982	2.21149	0.824941	2.63782	0.875368	2.806					0.781643	2.50006	0.908388	2.91144				
0.826492	2.63754	0.698124	2.21175	0.827269	2.6374	0.877155	2.80336					0.783696	2.49918	0.910399	2.9092				
0.828818	2.63713	0.700265	2.212	0.829594	2.63698	0.878947	2.80074					0.785751	2.49831	0.912409	2.90697				
0.831141	2.6367	0.702405	2.21225	0.831916	2.63656	0.880744	2.79816					0.787809	2.49746	0.914419	2.90475				
0.833461	2.63627	0.704543	2.21249	0.834235	2.63612	0.882547	2.79561					0.78987	2.49661	0.916429	2.90254				
0.835778	2.63583	0.70668	2.21273	0.836551	2.63568	0.884354	2.7931					0.791932	2.49578	0.918438	2.90035				
0.838092	2.63538	0.708816	2.21296	0.838863	2.63523	0.886167	2.79061					0.793998	2.49497	0.920446	2.89816				
0.840402	2.63493	0.710951	2.21319	0.841173	2.63478	0.887986	2.78816					0.796066	2.49416	0.922454	2.89599				
0.842709	2.63447	0.713084	2.21341	0.843479	2.63431	0.88981	2.78574					0.798136	2.49337	0.924461	2.89383				
0.845013	2.634	0.715216	2.21362	0.845781	2.63384	0.89164	2.78335					0.800209	2.49259	0.926468	2.89167				
0.847313	2.63352	0.717347	2.21384	0.84808	2.63336	0.893475	2.78099					0.802284	2.49182	0.928474	2.88953				
0.84961	2.63303	0.719477	2.21404	0.850376	2.63287	0.895316	2.77866					0.804362	2.49107	0.930479	2.8874				
0.851903	2.63254	0.721605	2.21424	0.852667	2.63237	0.897163	2.77636					0.806442	2.49033	0.932484	2.88528				
0.854192	2.63203	0.723733	2.21444	0.854955	2.63186	0.899016	2.7741					0.808525	2.48959	0.934487	2.88317				
0.856477	2.63152	0.725858	2.21463	0.857239	2.63134	0.900875	2.77187					0.81061	2.48888	0.936491	2.88107				
0.858758	2.631	0.727983	2.21482	0.859519	2.63082	0.90274	2.76967					0.812698	2.48817	0.938493	2.87897				
0.861035	2.63046	0.730107	2.215	0.861794	2.63028	0.904612	2.7675					0.814788	2.48747	0.940494	2.87689				
0.863308	2.62992	0.732229	2.21518	0.864066	2.62974	0.906489	2.76536					0.816881	2.48679	0.942495	2.87482				
0.865577	2.62937	0.73435	2.21535	0.866333	2.62918	0.908373	2.76325					0.818976	2.48611	0.944495	2.87276				
0.867841	2.62881	0.73647	2.21552	0.868596	2.62862	0.910264	2.76118					0.821073	2.48545	0.946494	2.8707				
0.870101	2.62824	0.738589	2.21568	0.870855	2.62804	0.912161	2.75913					0.823173	2.4848	0.948492	2.86865				
0.872357	2.62766	0.740706	2.21584	0.873109	2.62746	0.914064	2.75712					0.825276	2.48416	0.950489	2.86662				
0.874608	2.62706	0.742823	2.216	0.875358	2.62686	0.915975	2.75514					0.82738	2.48353	0.952486	2.86459				
0.876854	2.62646	0.744938	2.21615	0.877603	2.62626	0.917892	2.75319					0.829488	2.48291	0.954481	2.86257				
0.879096	2.62585	0.747052	2.21629	0.879843	2.62564	0.919816	2.75127					0.831597	2.4823	0.956476	2.86056				
0.881333	2.62522	0.749165	2.21644	0.882078	2.62501	0.921747	2.74939					0.833709	2.48171	0.958469	2.85855				
0.883565	2.62459	0.751277	2.21657	0.884309	2.62437	0.923685	2.74753					0.835824	2.48112	0.960462	2.85656				
0.885792	2.62394	0.753388	2.21671	0.886534	2.62372	0.92563	2.74571					0.837941	2.48054	0.962453	2.85457				
0.888014	2.62328	0.755497	2.21684	0.888754	2.62306	0.927583	2.74392					0.84006	2.47998	0.964443	2.85259				
0.89023	2.62261	0.757606	2.21696	0.890969	2.62239	0.929542	2.74216					0.842181	2.47942	0.966433	2.85062				
0.892442	2.62193	0.759713	2.21709	0.893179	2.6217	0.931509	2.74043					0.844305	2.47887	0.968421	2.84866				
0.894649	2.62124	0.761819	2.2172	0.895384	2.62101	0.933483	2.73873					0.846432	2.47834	0.970409	2.8467				
0.89685	2.62053	0.763924	2.21732	0.897584	2.6203	0.935464	2.73706					0.84856	2.47781	0.972395	2.84475				
0.899046	2.61982	0.766029	2.21743	0.899778	2.61958	0.937453	2.73542					0.850691	2.47729	0.97438	2.84281				
0.901236	2.61909	0.768132	2.21754	0.901967	2.61885	0.93945	2.73382					0.852824	2.47678	0.976364	2.84088				
0.903422	2.61835	0.770234	2.21764	0.90415	2.6181	0.941454	2.73224					0.85496	2.47629	0.978347	2.83895				
0.905602	2.6176	0.772335	2.21774	0.906328	2.61735	0.943465	2.73069					0.857098	2.4758	0.980329	2.83703				
0.907776	2.61684	0.774435	2.21784	0.908501	2.61658	0.945484	2.72918					0.859238	2.47532	0.982309	2.83512				
0.909945	2.61607	0.776533	2.21793	0.910668	2.61581	0.947511	2.72769					0.86138	2.47485	0.984289	2.83322				
0.912108	2.61528	0.778631	2.21802	0.912829	2.61502	0.949545	2.72623					0.863525	2.47439	0.986267	2.83132				
0.914266	2.61448	0.780728	2.2181	0.914986	2.61422	0.951586	2.72481					0.865672	2.47393	0.988244	2.82942				
0.916419	2.61368	0.782824	2.21819	0.917136	2.6134	0.953636	2.72341					0.867821	2.47349	0.99022	2.82754				
0.918566	2.61286	0.784919	2.21827	0.919282	2.61258	0.955693	2.72204					0.869973	2.47305	0.992195	2.82566				
0.920708	2.61203	0.787013	2.21834	0.921421	2.61175	0.957757	2.7207					0.872126	2.47263	0.994169	2.82379				
0.922844	2.61118	0.789106	2.21842	0.923556	2.6109	0.959829	2.71939					0.874282	2.47221	0.996141	2.82192				
0.924975	2.61033	0.791198	2.21849	0.925685	2.61005	0.961909	2.71811					0.87644	2.4718	0.998113	2.82007				
0.9271	2.60947	0.793289	2.21856	0.927808	2.60918	0.963996	2.71685					0.8786	2.4714	1.00008	2.81821				
0.92922	2.6086	0.79538	2.21862	0.929927	2.6083	0.96609	2.71562					0.880763	2.471						
0.931335	2.60771	0.797469	2.21868	0.93204	2.60742	0.968192	2.71442					0.882927	2.47062						
0.933445	2.60682	0.799557	2.21874	0.934148	2.60652	0.970301	2.71325					0.885094	2.47024						
0.935549	2.60592	0.801645	2.2188	0.93625	2.60561	0.972418	2.7121					0.887263	2.46987						
0.937648	2.605	0.803731	2.21885	0.938348	2.6047	0.974542	2.71098					0.889434	2.46951						
0.939743	2.60408	0.805817	2.2189	0.940441	2.60377	0.976672	2.70988					0.891607	2.46916						
0.941832	2.60315	0.807902	2.21895	0.942528	2.60284	0.97881	2.70881					0.893782	2.46881						
0.943916	2.60221	0.809986	2.219	0.944611	2.60189	0.980955	2.70777					0.895959	2.46847						
0.945996	2.60126	0.812069	2.21904	0.946689	2.60094	0.983107	2.70675					0.898138	2.46814						
0.948071	2.6003	0.814151	2.21908	0.948763	2.59998	0.985266	2.70575					0.900319	2.46782						
0.950141	2.59934	0.816233	2.21912	0.950831	2.59902	0.987431	2.70478					0.902503	2.4675						
0.952207	2.59837	0.818314	2.21915	0.952896	2.59804	0.989603	2.70383					0.904688	2.46719						
0.954268	2.59739	0.820394	2.21919	0.954956	2.59706	0.991782	2.7029					0.906875	2.46689						
0.956326	2.59641	0.822473	2.21922	0.957011	2.59608	0.993967	2.70199					0.909065	2.46659						
0.958378	2.59541	0.824551	2.21925	0.959063	2.59508	0.996158	2.70111					0.911256	2.4663						
0.960427	2.59442	0.826629	2.21927	0.96111	2.59408	0.998356	2.70024					0.913449	2.46602						
0.962472	2.59341	0.828706	2.2193	0.963154	2.59308	1.00056	2.6994					0.915644	2.46574						
0.964513	2.5924	0.830782	2.21932	0.965193	2.59207							0.917841	2.46547						
0.96655	2.59139	0.832857	2.21934	0.967229	2.59105							0.92004	2.46521						
0.968584	2.59037	0.834932	2.21936	0.969262	2.59003							0.922241	2.46495						
0.970614	2.58935	0.837006	2.21938	0.97129	2.58901							0.924444	2.4647						
0.97264	2.58832	0.839079	2.21939	0.973316	2.58798							0.926649	2.46446						
0.974663	2.58729	0.841152	2.2194	0.975338	2.58695							0.928855	2.46422						
0.976684	2.58626	0.843224	2.21941	0.977357	2.58591							0.931064	2.46399						
0.978701	2.58522	0.845295	2.21942	0.979373	2.58487							0.933274	2.46376						
0.980715	2.58418	0.847365	2.21943	0.981386	2.58383							0.935486	2.46354						
0.982726	2.58314	0.849435	2.21944	0.983397	2.58279							0.937699	2.46333						
0.984735	2.58209	0.851505	2.21944	0.985405	2.58175							0.939915	2.46312						
0.986741	2.58105	0.853574	2.21944	0.98741	2.5807							0.942132	2.46292						
0.988744	2.58	0.855642	2.21944	0.989413	2.57965							0.944351	2.46272						
0.990745	2.57895	0.857709	2.21944	0.991413	2.5786							0.946572	2.46253						
0.992744	2.57791	0.859776	2.21944	0.993411	2.57756							0.948795	2.46234						
0.994741	2.57686	0.861843	2.21944	0.995407	2.57651							0.951019	2.46216						
0.996736	2.57581	0.863908	2.21943	0.997401	2.57546							0.953245	2.46199						
0.998729	2.57476	0.865974	2.21942	0.999393	2.57441							0.955473	2.46182						
1.00072	2.57371	0.868038	2.21942	1.00138	2.57336							0.957702	2.46165						
		0.870103	2.21941									0.959933	2.46149						
		0.872166	2.2194									0.962165	2.46134						
		0.874229	2.21938									0.9644	2.46118						
		0.876292	2.21937									0.966635	2.46104						
		0.878354	2.21936									0.968873	2.4609						
		0.880416	2.21934									0.971112	2.46076						
		0.882477	2.21933									0.973352	2.46063						
		0.884538	2.21931									0.975594	2.4605						
		0.886598	2.21929									0.977838	2.46038						
		0.888658	2.21927									0.980083	2.46026						
		0.890717	2.21925									0.98233	2.46015						
		0.892776	2.21923									0.984578	2.46004						
		0.894835	2.2192									0.986828	2.45993						
		0.896893	2.21918									0.989079	2.45983						
		0.898951	2.21916									0.991331	2.45973						
		0.901008	2.21913									0.993585	2.45964						
		0.903065	2.21911									0.995841	2.45955						
		0.905122	2.21908									0.998097	2.45946						
		0.907178	2.21905									1.00036	2.45938						
		0.909234	2.21902																
		0.911289	2.21899																
		0.913345	2.21896																
		0.915399	2.21893																
		0.917454	2.2189																
		0.919508	2.21887																
		0.921562	2.21884																
		0.923616	2.21881																
		0.925669	2.21877																
		0.927722	2.21874																
		0.929775	2.21871																
		0.931828	2.21867																
		0.93388	2.21864																
		0.935932	2.2186																
		0.937984	2.21856																
		0.940036	2.21853																
		0.942087	2.21849																
		0.944138	2.21845																
		0.946189	2.21842																
		0.94824	2.21838																
		0.95029	2.21834																
		0.95234	2.2183																
		0.954391	2.21826																
		0.956441	2.21822																
		0.95849	2.21819																
		0.96054	2.21815																
		0.962589	2.21811																
		0.964639	2.21807																
		0.966688	2.21803																
		0.968737	2.21799																
		0.970786	2.21795																
		0.972835	2.21791																
		0.974883	2.21787																
		0.976932	2.21782																
		0.97898	2.21778																
		0.981028	2.21774																
		0.983076	2.2177																
		0.985124	2.21766																
		0.987172	2.21762																
		0.98922	2.21758																
		0.991268	2.21754																
		0.993316	2.2175																
		0.995363	2.21746																
		0.997411	2.21742																
		0.999458	2.21737																
		1.00151	2.21733																
