Sym0		Asym0		Sym1		Sym2		Asym1		Asym2	
594  Points		594  Points		593  Points		560  Points		594  Points		295  Points	
Freq (MHz)	Vph (m/ms)	Freq (MHz)	Vph (m/ms)	Freq (MHz)	Vph (m/ms)	Freq (MHz)	Vph (m/ms)	Freq (MHz)	Vph (m/ms)	Freq (MHz)	Vph (m/ms)
1.00099	2.58495	0.30619	1003.65	1.0001	2.58558	0.612373	4585.78	0.306189	1166.15	1.00137	5.25064
0.999654	2.5859	0.306224	317.698	0.998766	2.58654	0.612395	772.889	0.306221	332.353	0.999487	5.25891
0.998319	2.58686	0.306294	188.756	0.997429	2.58749	0.612449	422.043	0.306288	193.831	0.997591	5.26719
0.996981	2.58781	0.306399	134.297	0.996089	2.58844	0.612534	290.306	0.306391	136.844	0.995687	5.27549
0.995641	2.58876	0.306539	104.254	0.994747	2.58938	0.612651	221.272	0.306529	105.78	0.993775	5.2838
0.994298	2.5897	0.306714	85.2193	0.993402	2.59033	0.612798	178.785	0.306702	86.2346	0.991855	5.29213
0.992952	2.59064	0.306925	72.0832	0.992055	2.59126	0.612977	150.005	0.30691	72.8067	0.989928	5.30048
0.991603	2.59158	0.30717	62.4745	0.990704	2.5922	0.613187	129.223	0.307154	63.016	0.987994	5.30885
0.990251	2.59251	0.307451	55.1428	0.98935	2.59312	0.613428	113.514	0.307432	55.563	0.986054	5.31725
0.988896	2.59343	0.307766	49.3661	0.987993	2.59405	0.613699	101.224	0.307744	49.7016	0.984108	5.32568
0.987538	2.59435	0.308115	44.6986	0.986632	2.59496	0.614	91.3471	0.308091	44.9726	0.982156	5.33413
0.986176	2.59527	0.308498	40.85	0.985269	2.59587	0.614332	83.238	0.308472	41.0779	0.980198	5.34261
0.984811	2.59618	0.308915	37.6232	0.983901	2.59678	0.614693	76.4616	0.308887	37.8156	0.978236	5.35113
0.983443	2.59708	0.309366	34.8795	0.98253	2.59767	0.615083	70.7151	0.309336	35.044	0.976268	5.35969
0.98207	2.59797	0.30985	32.5186	0.981155	2.59857	0.615502	65.7809	0.309818	32.661	0.974296	5.36828
0.980694	2.59886	0.310367	30.4664	0.979776	2.59945	0.61595	61.4987	0.310333	30.5907	0.97232	5.37691
0.979314	2.59974	0.310917	28.6665	0.978393	2.60033	0.616426	57.7477	0.310881	28.776	0.970341	5.38558
0.97793	2.60062	0.311499	27.0756	0.977007	2.6012	0.61693	54.4353	0.311461	27.1726	0.968358	5.3943
0.976542	2.60148	0.312113	25.6596	0.975616	2.60206	0.617461	51.4891	0.312073	25.7462	0.966371	5.40306
0.975149	2.60234	0.312759	24.3916	0.97422	2.60291	0.618019	48.8518	0.312717	24.4694	0.964382	5.41187
0.973753	2.60319	0.313436	23.2498	0.972821	2.60375	0.618604	46.4777	0.313391	23.32	0.962391	5.42074
0.972352	2.60403	0.314144	22.2166	0.971417	2.60459	0.619214	44.3293	0.314097	22.2803	0.960397	5.42966
0.970946	2.60487	0.314882	21.2774	0.970009	2.60541	0.61985	42.3762	0.314833	21.3355	0.958402	5.43863
0.969537	2.60569	0.31565	20.4203	0.968596	2.60623	0.620511	40.5931	0.315599	20.4733	0.956405	5.44767
0.968123	2.6065	0.316447	19.635	0.967179	2.60704	0.621197	38.9589	0.316395	19.6837	0.954407	5.45676
0.966704	2.60731	0.317274	18.9132	0.965758	2.60784	0.621907	37.4558	0.31722	18.958	0.952408	5.46592
0.965281	2.6081	0.318129	18.2475	0.964331	2.60863	0.62264	36.0688	0.318073	18.2889	0.950408	5.47515
0.963853	2.60889	0.319012	17.6319	0.9629	2.60941	0.623396	34.7851	0.318954	17.6702	0.948409	5.48444
0.962421	2.60967	0.319923	17.061	0.961465	2.61018	0.624175	33.5936	0.319864	17.0966	0.946409	5.49381
0.960983	2.61043	0.320862	16.5303	0.960025	2.61094	0.624976	32.4849	0.3208	16.5634	0.94441	5.50325
0.959542	2.61119	0.321827	16.0358	0.95858	2.61169	0.625799	31.4507	0.321764	16.0666	0.942411	5.51277
0.958095	2.61194	0.322818	15.5739	0.95713	2.61243	0.626642	30.4838	0.322753	15.6028	0.940414	5.52237
0.956644	2.61267	0.323835	15.1417	0.955676	2.61316	0.627507	29.5779	0.323768	15.1688	0.938418	5.53205
0.955188	2.6134	0.324877	14.7365	0.954216	2.61388	0.628391	28.7275	0.324809	14.7619	0.936424	5.54182
0.953727	2.61411	0.325944	14.3559	0.952753	2.61458	0.629295	27.9277	0.325875	14.3798	0.934431	5.55167
0.952262	2.61482	0.327036	13.9978	0.951284	2.61528	0.630218	27.1741	0.326965	14.0203	0.932441	5.56161
0.950792	2.61551	0.328151	13.6603	0.949811	2.61597	0.631159	26.463	0.328078	13.6815	0.930453	5.57165
0.949317	2.6162	0.32929	13.3418	0.948333	2.61665	0.632119	25.7908	0.329215	13.3619	0.928469	5.58179
0.947838	2.61687	0.330451	13.0408	0.946851	2.61731	0.633096	25.1546	0.330376	13.0597	0.926487	5.59203
0.946354	2.61754	0.331635	12.7559	0.945364	2.61797	0.634091	24.5514	0.331558	12.7738	0.924509	5.60236
0.944865	2.61819	0.332841	12.4859	0.943872	2.61862	0.635102	23.9789	0.332762	12.5029	0.922535	5.61281
0.943372	2.61883	0.334068	12.2297	0.942376	2.61925	0.636129	23.4348	0.333988	12.2458	0.920565	5.62336
0.941874	2.61947	0.335316	11.9863	0.940875	2.61988	0.637173	22.917	0.335235	12.0016	0.9186	5.63403
0.940372	2.62009	0.336585	11.7548	0.93937	2.6205	0.638231	22.4238	0.336502	11.7694	0.916639	5.64481
0.938865	2.6207	0.337873	11.5344	0.93786	2.6211	0.639305	21.9533	0.337789	11.5483	0.914683	5.65571
0.937354	2.6213	0.339181	11.3244	0.936346	2.6217	0.640393	21.5042	0.339096	11.3376	0.912733	5.66674
0.935838	2.6219	0.340508	11.124	0.934828	2.62228	0.641495	21.075	0.340422	11.1366	0.910788	5.67789
0.934319	2.62248	0.341854	10.9327	0.933305	2.62286	0.642612	20.6644	0.341766	10.9447	0.908849	5.68917
0.932794	2.62305	0.343217	10.7498	0.931778	2.62343	0.643741	20.2713	0.343129	10.7613	0.906916	5.70058
0.931266	2.62361	0.344599	10.5748	0.930247	2.62398	0.644883	19.8945	0.344509	10.5859	0.90499	5.71213
0.929734	2.62417	0.345998	10.4074	0.928712	2.62453	0.646038	19.5331	0.345907	10.418	0.903071	5.72381
0.928197	2.62471	0.347413	10.2469	0.927173	2.62507	0.647205	19.1863	0.347321	10.257	0.90116	5.73565
0.926657	2.62525	0.348845	10.093	0.92563	2.6256	0.648384	18.853	0.348752	10.1027	0.899255	5.74763
0.925113	2.62577	0.350292	9.9453	0.924083	2.62612	0.649574	18.5326	0.350012	9.97335	0.897359	5.75976
0.923564	2.62629	0.351756	9.80347	0.922532	2.62663	0.650775	18.2243	0.351095	9.86663	0.89547	5.77204
0.922012	2.62679	0.353234	9.66717	0.920977	2.62713	0.651987	17.9275	0.351997	9.78074	0.89359	5.78449
0.920456	2.62729	0.354727	9.53609	0.919419	2.62762	0.65321	17.6415	0.352714	9.7143	0.891719	5.7971
0.918897	2.62778	0.356234	9.40995	0.917857	2.6281	0.654442	17.3658	0.353244	9.66625	0.889857	5.80988
0.917333	2.62826	0.357755	9.28848	0.916291	2.62858	0.655684	17.0999	0.353584	9.63585	0.888004	5.82283
0.915767	2.62874	0.359289	9.17144	0.914722	2.62905	0.656936	16.8431	0.354074	9.59262	0.886161	5.83595
0.914197	2.6292	0.360836	9.0586	0.91315	2.62951	0.658196	16.5951	0.354608	9.54624	0.884328	5.84926
0.912623	2.62966	0.362396	8.94975	0.911574	2.62996	0.659466	16.3555	0.355338	9.48419	0.882506	5.86275
0.911046	2.63011	0.363969	8.84467	0.909995	2.6304	0.660744	16.1237	0.356266	9.40733	0.880694	5.87644
0.909466	2.63055	0.365553	8.74319	0.908412	2.63084	0.66203	15.8995	0.357395	9.31674	0.878893	5.89031
0.907882	2.63098	0.367148	8.64513	0.906827	2.63127	0.663324	15.6824	0.358728	9.21361	0.877103	5.90439
0.906296	2.63141	0.368755	8.55033	0.905238	2.63169	0.664626	15.4722	0.360271	9.09926	0.875325	5.91867
0.904706	2.63183	0.370372	8.45862	0.903647	2.6321	0.665935	15.2685	0.361826	8.98898	0.873559	5.93315
0.903113	2.63224	0.372	8.36987	0.902052	2.63251	0.667251	15.0711	0.363394	8.88255	0.871805	5.94786
0.901518	2.63264	0.373638	8.28393	0.900454	2.63291	0.668574	14.8795	0.364974	8.77978	0.870064	5.96278
0.899919	2.63304	0.375286	8.20067	0.898854	2.6333	0.669904	14.6937	0.366565	8.68049	0.868335	5.97792
0.898318	2.63343	0.376943	8.11999	0.897251	2.63369	0.671239	14.5133	0.368168	8.58452	0.86662	5.9933
0.896714	2.63382	0.378609	8.04175	0.895645	2.63407	0.672581	14.338	0.369782	8.4917	0.864919	6.00891
0.895107	2.63419	0.380283	7.96585	0.894036	2.63444	0.673929	14.1678	0.371406	8.40189	0.863231	6.02476
0.893497	2.63456	0.381966	7.89219	0.892425	2.63481	0.675282	14.0023	0.37304	8.31494	0.861557	6.04085
0.891885	2.63493	0.383657	7.82067	0.890811	2.63517	0.676641	13.8414	0.374684	8.23072	0.859898	6.0572
0.890271	2.63529	0.385356	7.7512	0.889195	2.63553	0.678005	13.6849	0.376338	8.14911	0.858254	6.0738
0.888654	2.63564	0.387062	7.68369	0.887577	2.63588	0.679373	13.5325	0.378001	8.06999	0.856625	6.09067
0.887035	2.63599	0.388775	7.61807	0.885956	2.63622	0.680747	13.3843	0.379672	7.99325	0.855011	6.10781
0.885413	2.63633	0.390495	7.55424	0.884333	2.63656	0.682124	13.2398	0.381352	7.91878	0.853413	6.12522
0.883789	2.63667	0.392221	7.49215	0.882707	2.63689	0.683506	13.0992	0.38304	7.8465	0.851831	6.14291
0.882163	2.637	0.393953	7.43171	0.88108	2.63722	0.684892	12.9621	0.384736	7.77629	0.850266	6.16089
0.880534	2.63733	0.395691	7.37286	0.87945	2.63754	0.686282	12.8284	0.386439	7.70808	0.848717	6.17917
0.878904	2.63765	0.397434	7.31555	0.877818	2.63786	0.687675	12.6981	0.38815	7.64178	0.847185	6.19774
0.877271	2.63796	0.399183	7.2597	0.876184	2.63817	0.689072	12.571	0.389867	7.5773	0.845671	6.21663
0.875637	2.63828	0.400936	7.20526	0.874548	2.63848	0.690472	12.4469	0.391591	7.51459	0.844174	6.23582
0.874	2.63858	0.402694	7.15217	0.87291	2.63878	0.691875	12.3258	0.393321	7.45355	0.842695	6.25534
0.872362	2.63888	0.404456	7.10039	0.87127	2.63908	0.69328	12.2076	0.395056	7.39413	0.841234	6.27518
0.870721	2.63918	0.406223	7.04986	0.869629	2.63938	0.694688	12.0921	0.396798	7.33627	0.839792	6.29536
0.869079	2.63948	0.407993	7.00054	0.867985	2.63967	0.696099	11.9793	0.398545	7.27989	0.838368	6.31588
0.867435	2.63976	0.409766	6.95238	0.86634	2.63995	0.697512	11.869	0.400296	7.22494	0.836964	6.33675
0.865789	2.64005	0.411543	6.90534	0.864694	2.64024	0.698927	11.7613	0.402053	7.17137	0.835579	6.35798
0.864142	2.64033	0.413322	6.85937	0.863045	2.64051	0.700344	11.6559	0.403814	7.11912	0.834213	6.37957
0.862493	2.64061	0.415104	6.81444	0.861395	2.64079	0.701762	11.5528	0.405578	7.06814	0.832867	6.40153
0.860842	2.64088	0.416888	6.7705	0.859743	2.64106	0.703182	11.452	0.407347	7.01838	0.831542	6.42387
0.85919	2.64115	0.418675	6.72753	0.85809	2.64133	0.704603	11.3533	0.409119	6.96981	0.830236	6.44659
0.857536	2.64141	0.420463	6.68549	0.856435	2.64159	0.706026	11.2567	0.410895	6.92236	0.828952	6.46971
0.855881	2.64168	0.422252	6.64434	0.854779	2.64185	0.707449	11.1622	0.412673	6.876	0.827688	6.49323
0.854224	2.64193	0.424043	6.60405	0.853121	2.6421	0.708873	11.0696	0.414454	6.8307	0.826445	6.51717
0.852566	2.64219	0.425834	6.5646	0.851462	2.64236	0.710298	10.9789	0.416238	6.78641	0.825224	6.54152
0.850906	2.64244	0.427626	6.52595	0.849801	2.64261	0.711723	10.89	0.418023	6.74309	0.824024	6.5663
0.849245	2.64269	0.429419	6.48807	0.848139	2.64285	0.713148	10.8029	0.419811	6.70071	0.822845	6.59152
0.847583	2.64293	0.431211	6.45094	0.846476	2.6431	0.714574	10.7176	0.4216	6.65924	0.821689	6.61718
0.845919	2.64318	0.433004	6.41454	0.844812	2.64334	0.715816	10.6445	0.42339	6.61864	0.820555	6.64329
0.844254	2.64342	0.434796	6.37883	0.843146	2.64357	0.716875	10.5833	0.425181	6.57889	0.819443	6.66986
0.842588	2.64365	0.436587	6.34379	0.841479	2.64381	0.717751	10.5333	0.426973	6.53995	0.818354	6.69691
0.840921	2.64389	0.438377	6.30941	0.839811	2.64404	0.718443	10.4941	0.428765	6.50179	0.817287	6.72443
0.839252	2.64412	0.440166	6.27565	0.838142	2.64427	0.718952	10.4656	0.430558	6.4644	0.816243	6.75244
0.837583	2.64435	0.441953	6.2425	0.836471	2.6445	0.719277	10.4474	0.43235	6.42773	0.815222	6.78095
0.835912	2.64457	0.443739	6.20993	0.8348	2.64472	0.719745	10.4215	0.434142	6.39177	0.814224	6.80997
0.83424	2.6448	0.445522	6.17793	0.833127	2.64494	0.720254	10.3934	0.435934	6.35649	0.813249	6.8395
0.832567	2.64502	0.447303	6.14648	0.831454	2.64516	0.720945	10.3556	0.437725	6.32187	0.812298	6.86956
0.830893	2.64523	0.449082	6.11555	0.829779	2.64538	0.72182	10.3082	0.439514	6.28788	0.81137	6.90016
0.829218	2.64545	0.450857	6.08514	0.828103	2.64559	0.722877	10.2517	0.441302	6.25451	0.810465	6.9313
0.827542	2.64566	0.45263	6.05522	0.826427	2.64581	0.724116	10.1863	0.443088	6.22173	0.809584	6.963
0.825865	2.64588	0.454399	6.02578	0.824749	2.64602	0.725537	10.1126	0.444872	6.18953	0.808727	6.99526
0.824188	2.64609	0.456164	5.99679	0.823071	2.64622	0.726957	10.0402	0.446654	6.15788	0.807894	7.0281
0.822509	2.64629	0.457925	5.96826	0.821391	2.64643	0.728375	9.96906	0.448434	6.12676	0.807084	7.06153
0.820829	2.6465	0.459682	5.94015	0.819711	2.64663	0.729792	9.89919	0.45021	6.09617	0.806298	7.09555
0.819149	2.6467	0.461435	5.91247	0.81803	2.64684	0.731206	9.83053	0.451984	6.06607	0.805536	7.13018
0.817467	2.6469	0.463183	5.88518	0.816348	2.64704	0.732619	9.76305	0.453754	6.03645	0.804797	7.16543
0.815785	2.6471	0.464925	5.85829	0.814665	2.64724	0.73403	9.69672	0.455521	6.00731	0.804083	7.20131
0.814102	2.6473	0.466663	5.83177	0.812982	2.64743	0.735439	9.63151	0.457284	5.97861	0.803392	7.23783
0.812418	2.6475	0.468394	5.80561	0.811297	2.64763	0.736845	9.56738	0.459042	5.95035	0.802726	7.275
0.810734	2.64769	0.47012	5.77981	0.809612	2.64782	0.738249	9.5043	0.460797	5.92251	0.802083	7.31284
0.809048	2.64789	0.47184	5.75434	0.807926	2.64801	0.73965	9.44226	0.462546	5.89508	0.801464	7.35135
0.807362	2.64808	0.473554	5.72921	0.80624	2.6482	0.741048	9.38121	0.464291	5.86804	0.800869	7.39055
0.805675	2.64827	0.47526	5.70439	0.804553	2.64839	0.742443	9.32113	0.46603	5.84139	0.800297	7.43045
0.803988	2.64846	0.47696	5.67987	0.802865	2.64858	0.743835	9.262	0.467764	5.8151	0.799749	7.47106
0.8023	2.64864	0.478652	5.65566	0.801176	2.64877	0.745224	9.20379	0.469492	5.78917	0.799224	7.5124
0.800611	2.64883	0.480338	5.63173	0.799487	2.64895	0.746609	9.14648	0.471214	5.76359	0.798723	7.55447
0.798921	2.64901	0.482015	5.60808	0.797797	2.64913	0.747991	9.09004	0.47293	5.73833	0.798246	7.59729
0.797231	2.6492	0.483684	5.58469	0.796106	2.64932	0.749369	9.03445	0.474639	5.7134	0.797792	7.64088
0.79554	2.64938	0.485345	5.56157	0.794415	2.6495	0.750743	8.9797	0.476341	5.68878	0.79736	7.68524
0.793849	2.64956	0.486998	5.53869	0.792723	2.64968	0.752113	8.92575	0.478036	5.66445	0.796952	7.7304
0.792157	2.64974	0.488641	5.51605	0.791031	2.64986	0.753479	8.87259	0.479724	5.64042	0.796567	7.77635
0.790465	2.64991	0.490276	5.49365	0.789338	2.65003	0.75484	8.8202	0.481404	5.61667	0.796205	7.82313
0.788772	2.65009	0.491901	5.47147	0.787645	2.65021	0.756197	8.76855	0.483077	5.59319	0.795865	7.87074
0.787078	2.65027	0.493517	5.4495	0.785951	2.65038	0.75755	8.71764	0.484741	5.56997	0.795548	7.9192
0.785384	2.65044	0.495122	5.42775	0.784256	2.65056	0.758897	8.66743	0.486396	5.547	0.795254	7.96853
0.783689	2.65062	0.496718	5.4062	0.782561	2.65073	0.76024	8.61792	0.488043	5.52428	0.794981	8.01873
0.781994	2.65079	0.498303	5.38484	0.780866	2.65091	0.761578	8.56909	0.489681	5.50179	0.794731	8.06983
0.780298	2.65096	0.499878	5.36367	0.77917	2.65108	0.76291	8.52092	0.49131	5.47953	0.794502	8.12184
0.778602	2.65113	0.501442	5.34269	0.777473	2.65125	0.764237	8.47339	0.492929	5.45749	0.794295	8.17478
0.776906	2.6513	0.502995	5.32188	0.775776	2.65142	0.765558	8.42649	0.494538	5.43566	0.79411	8.22867
0.775209	2.65147	0.504536	5.30123	0.774079	2.65159	0.766874	8.38021	0.496138	5.41403	0.793946	8.28352
0.773511	2.65164	0.506066	5.28075	0.772381	2.65176	0.768184	8.33452	0.497727	5.39261	0.793804	8.33935
0.771813	2.65181	0.507584	5.26043	0.770683	2.65192	0.769488	8.28942	0.499305	5.37137	0.793682	8.39619
0.770115	2.65198	0.50909	5.24026	0.768985	2.65209	0.770786	8.24488	0.500873	5.35032	0.793581	8.45404
0.768416	2.65215	0.510584	5.22024	0.767286	2.65226	0.772078	8.20091	0.50243	5.32944	0.793501	8.51293
0.766717	2.65231	0.512066	5.20035	0.765586	2.65242	0.773363	8.15748	0.503976	5.30874	0.793441	8.57288
0.765017	2.65248	0.513534	5.18061	0.763886	2.65259	0.774642	8.11458	0.50551	5.2882	0.793401	8.63391
0.763318	2.65264	0.51499	5.16099	0.762186	2.65275	0.775914	8.0722	0.507032	5.26782	0.793382	8.69604
0.761617	2.65281	0.516433	5.1415	0.760486	2.65292	0.77718	8.03032	0.508543	5.2476	0.793382	8.75929
0.759917	2.65297	0.517862	5.12214	0.758785	2.65308	0.778438	7.98894	0.510041	5.22752	0.793402	8.82369
0.758216	2.65314	0.519278	5.10289	0.757084	2.65325	0.77969	7.94805	0.511527	5.20759	0.793441	8.88926
0.756514	2.6533	0.52068	5.08376	0.755382	2.65341	0.780934	7.90763	0.513	5.18779	0.793499	8.95602
0.754813	2.65346	0.522069	5.06474	0.75368	2.65357	0.782171	7.86767	0.514461	5.16813	0.793577	9.02399
0.753111	2.65363	0.523443	5.04582	0.751978	2.65374	0.783401	7.82816	0.515908	5.14859	0.793673	9.0932
0.751409	2.65379	0.524803	5.02701	0.750276	2.6539	0.784623	7.78909	0.517342	5.12918	0.793787	9.16369
0.749706	2.65395	0.526149	5.0083	0.748573	2.65406	0.785837	7.75046	0.518763	5.1099	0.793921	9.23546
0.748003	2.65411	0.527481	4.98968	0.74687	2.65422	0.787043	7.71225	0.520171	5.09072	0.794072	9.30856
0.7463	2.65427	0.528797	4.97115	0.745167	2.65438	0.788242	7.67445	0.521564	5.07166	0.794241	9.38301
0.744597	2.65444	0.530099	4.95272	0.743463	2.65454	0.789432	7.63705	0.522944	5.0527	0.794428	9.45883
0.742893	2.6546	0.531387	4.93438	0.741759	2.6547	0.790614	7.60005	0.524309	5.03385	0.794632	9.53607
0.741189	2.65476	0.532659	4.91612	0.740055	2.65487	0.791788	7.56343	0.52566	5.01511	0.794854	9.61474
0.739485	2.65492	0.533916	4.89794	0.738351	2.65503	0.792953	7.52719	0.526997	4.99645	0.795092	9.69489
0.737781	2.65508	0.535158	4.87984	0.736647	2.65519	0.79411	7.49132	0.528319	4.9779	0.795348	9.77654
0.736076	2.65524	0.536385	4.86182	0.734942	2.65535	0.795258	7.45582	0.529627	4.95943	0.79562	9.85973
0.734371	2.6554	0.537597	4.84388	0.733237	2.65551	0.796397	7.42066	0.530919	4.94105	0.795909	9.9445
0.732666	2.65556	0.538793	4.82601	0.731532	2.65567	0.797528	7.38586	0.532197	4.92276	0.796214	10.0309
0.730961	2.65572	0.539973	4.80821	0.729826	2.65583	0.798649	7.35139	0.53346	4.90455	0.796535	10.1189
0.729256	2.65588	0.541139	4.79048	0.728121	2.65599	0.799761	7.31725	0.534707	4.88643	0.796872	10.2086
0.72755	2.65605	0.542288	4.77282	0.726415	2.65615	0.800864	7.28344	0.53594	4.86838	0.797225	10.3001
0.725844	2.65621	0.543423	4.75524	0.724709	2.65631	0.801957	7.24995	0.537157	4.85041	0.797544	10.3812
0.724138	2.65637	0.544541	4.73771	0.723003	2.65648	0.803042	7.21677	0.538359	4.83251	0.797826	10.4515
0.722432	2.65653	0.545645	4.72025	0.721297	2.65664	0.804116	7.18389	0.539545	4.81469	0.798066	10.5103
0.720726	2.65669	0.546732	4.70286	0.71959	2.6568	0.805181	7.15131	0.540716	4.79694	0.798259	10.5574
0.719019	2.65685	0.547804	4.68553	0.717884	2.65696	0.806236	7.11903	0.541871	4.77925	0.798403	10.5922
0.717313	2.65702	0.548861	4.66826	0.716177	2.65712	0.807282	7.08703	0.543011	4.76164	0.798538	10.6245
0.715606	2.65718	0.549902	4.65106	0.71447	2.65729	0.808317	7.05532	0.544135	4.74409	0.798632	10.6471
0.713899	2.65734	0.550928	4.63391	0.712763	2.65745	0.809342	7.02388	0.545244	4.72661	0.798782	10.6826
0.712192	2.6575	0.551939	4.61683	0.711056	2.65761	0.810358	6.99271	0.546338	4.70919	0.798987	10.7313
0.710485	2.65767	0.552934	4.59981	0.709349	2.65778	0.811363	6.96181	0.547415	4.69184	0.799253	10.7935
0.708778	2.65783	0.553915	4.58285	0.707642	2.65794	0.812358	6.93116	0.548478	4.67455	0.799581	10.8698
0.707071	2.658	0.55488	4.56595	0.705935	2.6581	0.813343	6.90078	0.549525	4.65732	0.799976	10.9607
0.705363	2.65816	0.55583	4.5491	0.704227	2.65827	0.814317	6.87064	0.550556	4.64016	0.800443	11.067
0.703656	2.65833	0.556766	4.53232	0.70252	2.65844	0.815281	6.84075	0.551572	4.62305	0.800923	11.1754
0.701948	2.65849	0.557686	4.5156	0.700812	2.6586	0.816235	6.8111	0.552573	4.60601	0.801418	11.2861
0.700241	2.65866	0.558593	4.49894	0.699104	2.65877	0.817178	6.78168	0.553559	4.58902	0.801926	11.399
0.698533	2.65882	0.559484	4.48234	0.697397	2.65894	0.81811	6.7525	0.55453	4.5721	0.802448	11.5142
0.696825	2.65899	0.560362	4.4658	0.695689	2.6591	0.819032	6.72355	0.555486	4.55524	0.802982	11.6319
0.695118	2.65916	0.561225	4.44932	0.693981	2.65927	0.819943	6.69482	0.556426	4.53843	0.80353	11.752
0.69341	2.65933	0.562074	4.4329	0.692273	2.65944	0.820843	6.66631	0.557353	4.52169	0.804091	11.8746
0.691702	2.6595	0.56291	4.41654	0.690565	2.65961	0.821732	6.63802	0.558264	4.50501	0.804665	11.9998
0.689994	2.65967	0.563732	4.40024	0.688858	2.65978	0.822611	6.60994	0.559161	4.48838	0.805251	12.1277
0.688286	2.65984	0.56454	4.38401	0.68715	2.65996	0.823479	6.58207	0.560044	4.47182	0.80585	12.2583
0.686578	2.66001	0.565335	4.36784	0.685442	2.66013	0.824336	6.55441	0.560912	4.45532	0.806461	12.3918
0.68487	2.66019	0.566118	4.35173	0.683734	2.6603	0.825182	6.52695	0.561766	4.43887	0.807084	12.5282
0.683162	2.66036	0.566887	4.33569	0.682026	2.66048	0.826017	6.49968	0.562607	4.42249	0.807719	12.6676
0.681454	2.66053	0.567644	4.31971	0.680318	2.66065	0.826842	6.47261	0.563434	4.40618	0.808366	12.8101
0.679746	2.66071	0.568388	4.3038	0.67861	2.66083	0.827655	6.44574	0.564247	4.38992	0.809025	12.9558
0.678039	2.66089	0.56912	4.28795	0.676902	2.661	0.828458	6.41906	0.565047	4.37373	0.809695	13.1048
0.676331	2.66106	0.56984	4.27217	0.675194	2.66118	0.829249	6.39256	0.565834	4.35759	0.810376	13.2572
0.674623	2.66124	0.570548	4.25646	0.673486	2.66136	0.83003	6.36624	0.566608	4.34153	0.811068	13.4131
0.672915	2.66142	0.571245	4.24081	0.671779	2.66154	0.8308	6.34011	0.567369	4.32553	0.811772	13.5726
0.671207	2.6616	0.571931	4.22524	0.670071	2.66172	0.831559	6.31416	0.568118	4.30959	0.812487	13.7358
0.669499	2.66178	0.572605	4.20973	0.668363	2.66191	0.832307	6.28838	0.568854	4.29372	0.813212	13.9029
0.667792	2.66197	0.573269	4.19429	0.666656	2.66209	0.833044	6.26278	0.569579	4.27791	0.813948	14.074
0.666084	2.66215	0.573922	4.17893	0.664948	2.66228	0.83377	6.23734	0.570292	4.26218	0.814694	14.2493
0.664377	2.66234	0.574565	4.16364	0.663241	2.66246	0.834485	6.21208	0.570993	4.24651	0.815451	14.4288
0.662669	2.66253	0.575198	4.14842	0.661533	2.66265	0.83519	6.18698	0.571682	4.23091	0.816218	14.6127
0.660962	2.66271	0.575821	4.13327	0.659826	2.66284	0.835884	6.16205	0.572361	4.21537	0.816995	14.8012
0.659255	2.6629	0.576434	4.1182	0.658119	2.66303	0.836567	6.13728	0.573028	4.19991	0.817782	14.9944
0.657548	2.6631	0.577038	4.1032	0.656412	2.66322	0.83724	6.11267	0.573685	4.18452	0.818579	15.1925
0.655841	2.66329	0.577633	4.08828	0.654705	2.66342	0.837902	6.08822	0.574332	4.1692	0.819386	15.3957
0.654134	2.66348	0.578219	4.07343	0.652998	2.66361	0.838553	6.06392	0.574968	4.15396	0.820202	15.6042
0.652427	2.66368	0.578796	4.05866	0.651292	2.66381	0.839194	6.03978	0.575595	4.13878	0.821027	15.8182
0.650721	2.66388	0.579365	4.04397	0.649585	2.66401	0.839824	6.0158	0.576211	4.12368	0.821862	16.0378
0.649014	2.66407	0.579927	4.02936	0.647879	2.66421	0.840444	5.99196	0.576819	4.10866	0.822706	16.2634
0.647308	2.66428	0.58048	4.01483	0.646173	2.66441	0.841054	5.96828	0.577417	4.09371	0.823559	16.4951
0.645602	2.66448	0.581025	4.00037	0.644467	2.66461	0.841653	5.94474	0.578006	4.07884	0.824422	16.7332
0.643896	2.66468	0.581564	3.986	0.642761	2.66482	0.842243	5.92135	0.578587	4.06404	0.825293	16.9779
0.64219	2.66489	0.582095	3.97171	0.641055	2.66503	0.842822	5.8981	0.579159	4.04932	0.826172	17.2295
0.640484	2.6651	0.582619	3.9575	0.639349	2.66524	0.843391	5.875	0.579723	4.03468	0.827061	17.4883
0.638779	2.66531	0.583137	3.94337	0.637644	2.66545	0.84395	5.85204	0.580279	4.02012	0.827958	17.7546
0.637074	2.66552	0.583649	3.92932	0.635939	2.66566	0.844499	5.82921	0.580827	4.00563	0.828863	18.0287
0.635369	2.66573	0.584154	3.91535	0.634234	2.66588	0.845039	5.80653	0.581368	3.99123	0.829776	18.3109
0.633664	2.66595	0.584653	3.90147	0.63253	2.6661	0.845569	5.78399	0.581902	3.97691	0.830698	18.6017
0.631959	2.66617	0.585147	3.88768	0.630825	2.66632	0.846089	5.76159	0.582429	3.96267	0.831628	18.9014
0.630255	2.66639	0.585635	3.87396	0.629121	2.66654	0.8466	5.73932	0.582949	3.94851	0.832566	19.2103
0.628551	2.66661	0.586118	3.86033	0.627417	2.66676	0.847101	5.71718	0.583463	3.93443	0.833511	19.529
0.626847	2.66684	0.586596	3.84679	0.625714	2.66699	0.847593	5.69518	0.58397	3.92043	0.834465	19.8579
0.625144	2.66707	0.587069	3.83333	0.62401	2.66722	0.848076	5.67331	0.584472	3.90652	0.835426	20.1974
0.623441	2.6673	0.587538	3.81996	0.622307	2.66745	0.84855	5.65157	0.584967	3.8927	0.836394	20.5481
0.621738	2.66753	0.588003	3.80668	0.620605	2.66769	0.849015	5.62996	0.585458	3.87895	0.83737	20.9105
0.620035	2.66777	0.588463	3.79348	0.618902	2.66792	0.849471	5.60849	0.585943	3.86529	0.838353	21.2852
0.618333	2.668	0.588919	3.78036	0.6172	2.66816	0.849918	5.58714	0.586422	3.85172	0.839344	21.6729
0.616631	2.66824	0.589372	3.76734	0.615498	2.66841	0.850357	5.56592	0.586897	3.83823	0.840341	22.0741
0.614929	2.66849	0.589821	3.7544	0.613797	2.66865	0.850787	5.54482	0.587368	3.82483	0.841346	22.4897
0.613228	2.66874	0.590267	3.74155	0.612096	2.6689	0.851209	5.52385	0.587834	3.81151	0.842357	22.9204
0.611527	2.66899	0.59071	3.72878	0.610395	2.66915	0.851622	5.50301	0.588295	3.79828	0.843376	23.367
0.609826	2.66924	0.59115	3.71611	0.608695	2.66941	0.852027	5.48229	0.588753	3.78513	0.8444	23.8304
0.608126	2.66949	0.591587	3.70352	0.606995	2.66967	0.852424	5.46169	0.589207	3.77208	0.845432	24.3115
0.606426	2.66975	0.592022	3.69102	0.605295	2.66993	0.852814	5.44122	0.589658	3.75911	0.84647	24.8114
0.604727	2.67002	0.592454	3.6786	0.603596	2.67019	0.853195	5.42086	0.590105	3.74622	0.847514	25.3312
0.603028	2.67028	0.592885	3.66628	0.601898	2.67046	0.853569	5.40063	0.590549	3.73343	0.848565	25.872
0.601329	2.67055	0.593313	3.65404	0.600199	2.67073	0.853935	5.38052	0.59099	3.72072	0.849622	26.4352
0.599631	2.67082	0.593739	3.64189	0.598502	2.67101	0.854294	5.36053	0.591428	3.7081	0.850685	27.0222
0.597934	2.6711	0.594164	3.62983	0.596804	2.67129	0.854646	5.34066	0.591864	3.69556	0.851754	27.6345
0.596237	2.67138	0.594588	3.61785	0.595108	2.67157	0.85499	5.32091	0.592297	3.68312	0.852828	28.2737
0.59454	2.67167	0.59501	3.60597	0.593411	2.67186	0.855328	5.30127	0.592728	3.67076	0.853909	28.9416
0.592844	2.67195	0.595431	3.59417	0.591715	2.67215	0.855658	5.28175	0.593157	3.65849	0.854995	29.6403
0.591148	2.67225	0.595851	3.58246	0.59002	2.67244	0.855982	5.26235	0.593584	3.64631	0.856086	30.3718
0.589453	2.67254	0.59627	3.57083	0.588326	2.67274	0.856299	5.24307	0.59401	3.63421	0.857183	31.1385
0.587759	2.67285	0.596689	3.5593	0.586631	2.67305	0.85661	5.2239	0.594434	3.62221	0.858285	31.943
0.586065	2.67315	0.597107	3.54785	0.584938	2.67336	0.856914	5.20484	0.594856	3.61029	0.859392	32.7881
0.584371	2.67346	0.597525	3.53649	0.583245	2.67367	0.857212	5.1859	0.595278	3.59846	0.860504	33.677
0.582679	2.67378	0.597942	3.52522	0.581553	2.67399	0.857504	5.16707	0.595698	3.58672	0.861621	34.6132
0.580987	2.67409	0.59836	3.51403	0.579861	2.67431	0.85779	5.14836	0.596118	3.57506	0.862742	35.6004
0.579295	2.67442	0.598778	3.50293	0.57817	2.67464	0.85807	5.12975	0.596536	3.56349	0.863868	36.643
0.577604	2.67475	0.599195	3.49191	0.57648	2.67497	0.858344	5.11126	0.596955	3.55201	0.864998	37.7458
0.575914	2.67508	0.599613	3.48099	0.57479	2.67531	0.858613	5.09288	0.597373	3.54062	0.866133	38.914
0.574225	2.67542	0.600032	3.47014	0.573101	2.67565	0.858876	5.07462	0.59779	3.52932	0.867271	40.1536
0.572536	2.67577	0.600451	3.45939	0.571413	2.676	0.859134	5.05646	0.598208	3.5181	0.868413	41.4715
0.570848	2.67612	0.600817	3.45008	0.569726	2.67636	0.859387	5.03841	0.598625	3.50696	0.869558	42.8751
0.569161	2.67648	0.60113	3.4422	0.568039	2.67672	0.859635	5.02047	0.599043	3.49592	0.870707	44.3731
0.567475	2.67684	0.601388	3.43572	0.566353	2.67709	0.859878	5.00264	0.599461	3.48496	0.871859	45.9754
0.565789	2.67721	0.601593	3.43062	0.564668	2.67746	0.860116	4.98492	0.599879	3.47409	0.873013	47.6932
0.564105	2.67758	0.601744	3.42688	0.562984	2.67784	0.860349	4.96731	0.600298	3.4633	0.87417	49.5393
0.562421	2.67797	0.60184	3.4245	0.561301	2.67822	0.860578	4.9498	0.600718	3.4526	0.875328	51.5288
0.560738	2.67836	0.601979	3.42107	0.559619	2.67862	0.860802	4.9324	0.601138	3.44198	0.876488	53.6789
0.559056	2.67875	0.60213	3.41736	0.557937	2.67902	0.861023	4.91511	0.60156	3.43145	0.87765	56.0099
0.557375	2.67915	0.602336	3.41233	0.556257	2.67943	0.861238	4.89792	0.601982	3.421	0.878812	58.5455
0.555695	2.67956	0.602597	3.406	0.554578	2.67984	0.86145	4.88084	0.602406	3.41064	0.879973	61.3139
0.554016	2.67998	0.602913	3.39839	0.552899	2.68026	0.861658	4.86386	0.60283	3.40036	0.881135	64.3487
0.552338	2.68041	0.603284	3.38951	0.551222	2.68069	0.861863	4.84699	0.603257	3.39017	0.882294	67.6901
0.550661	2.68084	0.603712	3.37941	0.549546	2.68113	0.862063	4.83022	0.603684	3.38006	0.883451	71.387
0.548985	2.68128	0.604141	3.36938	0.547871	2.68158	0.86226	4.81355	0.604113	3.37003	0.884605	75.4995
0.547311	2.68173	0.604572	3.35944	0.546197	2.68203	0.862453	4.79699	0.604544	3.36008	0.885753	80.1014
0.545637	2.68219	0.605005	3.34959	0.544524	2.6825	0.862644	4.78053	0.604977	3.35022	0.886895	85.2859
0.543965	2.68266	0.605439	3.33981	0.542853	2.68297	0.862831	4.76418	0.605411	3.34044	0.888029	91.1708
0.542294	2.68313	0.605876	3.33012	0.541183	2.68346	0.863014	4.74792	0.605848	3.33074	0.889152	97.9084
0.540624	2.68362	0.606315	3.3205	0.539514	2.68395	0.863195	4.73177	0.606286	3.32112	0.890262	105.698
0.538956	2.68412	0.606755	3.31097	0.537846	2.68445	0.863374	4.71571	0.606727	3.31158	0.891354	114.808
0.537289	2.68462	0.607198	3.30152	0.53618	2.68496	0.863549	4.69976	0.60717	3.30213	0.892426	125.604
0.535623	2.68514	0.607644	3.29215	0.534516	2.68549	0.863722	4.6839	0.607615	3.29275	0.89347	138.603
0.533959	2.68567	0.608092	3.28286	0.532852	2.68602	0.863892	4.66815	0.608063	3.28345	0.894481	154.556
0.532296	2.6862	0.608542	3.27364	0.531191	2.68657	0.86406	4.65249	0.608513	3.27424	0.89545	174.598
0.530635	2.68675	0.608995	3.26451	0.529531	2.68713	0.864225	4.63693	0.608965	3.2651	0.896365	200.537
0.528976	2.68732	0.60945	3.25545	0.527873	2.6877	0.864388	4.62148	0.60942	3.25604	0.897215	235.427
0.527318	2.68789	0.609908	3.24648	0.526216	2.68828	0.86455	4.60611	0.609878	3.24705	0.897981	284.874
0.525662	2.68848	0.610369	3.23758	0.524561	2.68887	0.864709	4.59085	0.610339	3.23815	0.898645	360.411
0.524008	2.68908	0.610833	3.22875	0.522908	2.68948	0.864866	4.57568	0.610803	3.22932	0.899186	490.13
0.522355	2.68969	0.611299	3.22001	0.521257	2.6901	0.865022	4.56061	0.611269	3.22057	0.89958	765.094
0.520704	2.69032	0.611769	3.21134	0.519607	2.69074	0.865176	4.54563	0.611739	3.21189	0.89981	1740.55
0.519056	2.69096	0.612242	3.20274	0.51796	2.69139	0.865328	4.53075	0.612211	3.2033		
0.517409	2.69161	0.612718	3.19422	0.516315	2.69206	0.865479	4.51596	0.612687	3.19477		
0.515764	2.69229	0.613197	3.18578	0.514671	2.69274	0.865628	4.50126	0.613166	3.18632		
0.514122	2.69297	0.613679	3.17741	0.51303	2.69344	0.865777	4.48667	0.613648	3.17795		
0.512482	2.69368	0.614164	3.16911	0.511392	2.69415	0.865924	4.47216	0.614133	3.16965		
0.510844	2.6944	0.614653	3.16089	0.509755	2.69489	0.86607	4.45775	0.614622	3.16142		
0.509208	2.69514	0.615146	3.15274	0.508121	2.69564	0.866215	4.44342	0.615114	3.15326		
0.507575	2.69589	0.615641	3.14466	0.50649	2.69641	0.866359	4.42919	0.615609	3.14518		
0.505945	2.69667	0.616141	3.13666	0.504861	2.6972	0.866502	4.41506	0.616108	3.13717		
0.504317	2.69746	0.616644	3.12873	0.503235	2.698	0.866644	4.40101	0.616611	3.12924		
0.502691	2.69828	0.61715	3.12086	0.501612	2.69883	0.866786	4.38705	0.617117	3.12137		
0.501069	2.69911	0.61766	3.11307	0.499991	2.69968	0.866928	4.37319	0.617627	3.11357		
0.499449	2.69997	0.618174	3.10535	0.498374	2.70056	0.867068	4.35941	0.618141	3.10585		
0.497833	2.70085	0.618692	3.0977	0.496759	2.70145	0.867209	4.34572	0.618658	3.09819		
0.49622	2.70176	0.619213	3.09012	0.495148	2.70237	0.867349	4.33212	0.619179	3.0906		
0.494609	2.70268	0.619738	3.0826	0.49354	2.70331	0.867489	4.31861	0.619704	3.08308		
0.493002	2.70364	0.620267	3.07516	0.491935	2.70428	0.867629	4.30519	0.620233	3.07563		
0.491399	2.70461	0.6208	3.06778	0.490334	2.70528	0.867769	4.29185	0.620766	3.06825		
0.489799	2.70562	0.621337	3.06047	0.488737	2.7063	0.867909	4.2786	0.621302	3.06094		
0.488203	2.70665	0.621878	3.05322	0.487143	2.70736	0.868049	4.26544	0.621843	3.05369		
0.486611	2.70771	0.622423	3.04605	0.485553	2.70844	0.868189	4.25236	0.622387	3.04651		
0.485022	2.70881	0.622972	3.03894	0.483968	2.70955	0.868329	4.23937	0.622936	3.03939		
0.483438	2.70993	0.623525	3.03189	0.482386	2.7107	0.86847	4.22646	0.623489	3.03234		
0.481858	2.71109	0.624082	3.02491	0.480809	2.71187	0.868611	4.21364	0.624046	3.02536		
0.480283	2.71227	0.624643	3.01799	0.479237	2.71308	0.868753	4.2009	0.624607	3.01844		
0.478712	2.7135	0.625209	3.01114	0.477669	2.71433	0.868895	4.18825	0.625172	3.01158		
0.477145	2.71476	0.625778	3.00435	0.476106	2.71562	0.869038	4.17568	0.625742	3.00479		
0.475584	2.71605	0.626352	2.99763	0.474548	2.71694	0.869182	4.16319	0.626315	2.99806		
0.474028	2.71739	0.626931	2.99096	0.472995	2.7183	0.869326	4.15078	0.626893	2.99139		
0.472477	2.71877	0.627513	2.98436	0.471448	2.71971	0.869471	4.13845	0.627475	2.98478		
0.470931	2.72019	0.6281	2.97782	0.469906	2.72115	0.869617	4.12621	0.628062	2.97824		
0.469391	2.72165	0.628691	2.97134	0.46837	2.72265	0.869764	4.11405	0.628653	2.97176		
0.467857	2.72316	0.629286	2.96493	0.46684	2.72418	0.869912	4.10197	0.629248	2.96534		
0.466329	2.72471	0.629886	2.95857	0.465316	2.72577	0.870061	4.08996	0.629848	2.95898		
0.464808	2.72631	0.630491	2.95227	0.463799	2.72741	0.870211	4.07804	0.630451	2.95268		
0.463292	2.72797	0.631099	2.94603	0.462288	2.7291	0.870363	4.0662	0.63106	2.94643		
0.461784	2.72967	0.631712	2.93985	0.460784	2.73084	0.870516	4.05443	0.631673	2.94025		
0.460282	2.73144	0.63233	2.93373	0.459287	2.73264	0.87067	4.04274	0.63229	2.93413		
0.458788	2.73325	0.632952	2.92767	0.457798	2.7345	0.870825	4.03113	0.632912	2.92806		
0.457301	2.73513	0.633579	2.92167	0.456316	2.73641	0.870982	4.0196	0.633538	2.92205		
0.455822	2.73707	0.63421	2.91572	0.454842	2.73839	0.87114	4.00815	0.634169	2.9161		
0.454351	2.73907	0.634845	2.90983	0.453377	2.74044	0.8713	3.99677	0.634804	2.91021		
0.452888	2.74114	0.635485	2.90399	0.451919	2.74255	0.871462	3.98546	0.635444	2.90437		
0.451434	2.74327	0.63613	2.89821	0.450471	2.74473	0.871625	3.97424	0.636088	2.89858		
0.449988	2.74548	0.636779	2.89249	0.449031	2.74699	0.87179	3.96308	0.636737	2.89286		
0.448552	2.74776	0.637433	2.88682	0.447601	2.74932	0.871957	3.95201	0.637391	2.88718		
0.447124	2.75012	0.638091	2.8812	0.44618	2.75173	0.872126	3.941	0.638049	2.88157		
0.445707	2.75255	0.638754	2.87564	0.44477	2.75422	0.872296	3.93007	0.638711	2.876		
0.4443	2.75507	0.639422	2.87014	0.443369	2.75679	0.872468	3.91922	0.639379	2.87049		
0.442903	2.75767	0.640094	2.86468	0.441979	2.75945	0.872643	3.90843	0.640051	2.86503		
0.441516	2.76037	0.640771	2.85928	0.4406	2.7622	0.872819	3.89772	0.640727	2.85963		
0.440141	2.76315	0.641452	2.85393	0.439231	2.76505	0.872998	3.88708	0.641408	2.85428		
0.438776	2.76602	0.642138	2.84863	0.437875	2.76799	0.873178	3.87652	0.642094	2.84898		
0.437423	2.76899	0.642829	2.84339	0.43653	2.77103	0.873361	3.86602	0.642785	2.84373		
0.436083	2.77207	0.643525	2.83819	0.435197	2.77417	0.873546	3.85559	0.64348	2.83853		
0.434754	2.77524	0.644225	2.83305	0.433876	2.77741	0.873733	3.84524	0.644179	2.83338		
0.433437	2.77852	0.644929	2.82796	0.432569	2.78077	0.873923	3.83496	0.644884	2.82828		
0.432134	2.78192	0.645639	2.82291	0.431274	2.78424	0.874115	3.82474	0.645593	2.82324		
0.430844	2.78542	0.646353	2.81792	0.429992	2.78782	0.874309	3.81459	0.646307	2.81824		
0.429567	2.78905	0.647071	2.81297	0.428724	2.79152	0.874505	3.80452	0.647025	2.81329		
0.428303	2.79279	0.647795	2.80807	0.42747	2.79535	0.874704	3.79451	0.647748	2.80839		
0.427054	2.79666	0.648523	2.80322	0.42623	2.7993	0.874906	3.78457	0.648476	2.80353		
0.425819	2.80065	0.649256	2.79842	0.425005	2.80338	0.87511	3.77469	0.649208	2.79873		
0.424598	2.80478	0.649993	2.79367	0.423794	2.8076	0.875317	3.76488	0.649945	2.79397		
0.423392	2.80904	0.650735	2.78896	0.422598	2.81195	0.875526	3.75514	0.650687	2.78926		
0.422202	2.81343	0.651482	2.7843	0.421418	2.81644	0.875738	3.74547	0.651434	2.7846		
0.421026	2.81797	0.652234	2.77968	0.420253	2.82107	0.875953	3.73586	0.652185	2.77998		
0.419866	2.82265	0.65299	2.77512	0.419103	2.82585	0.876171	3.72632	0.652941	2.77541		
0.418722	2.82749	0.653751	2.77059	0.417969	2.83078	0.876391	3.71684	0.653701	2.77088		
0.417594	2.83247	0.654516	2.76611	0.416852	2.83587	0.876614	3.70743	0.654467	2.7664		
0.416482	2.8376	0.655286	2.76168	0.415751	2.84111	0.87684	3.69808	0.655236	2.76196		
0.415386	2.8429	0.656061	2.75729	0.414665	2.84651	0.877069	3.6888	0.656011	2.75757		
0.414306	2.84835	0.656841	2.75294	0.413597	2.85207	0.8773	3.67958	0.65679	2.75322		
0.413243	2.85397	0.657625	2.74864	0.412545	2.8578	0.877535	3.67042	0.657574	2.74892		
0.412197	2.85976	0.658414	2.74438	0.41151	2.8637	0.877773	3.66132	0.658363	2.74465		
0.411168	2.86571	0.659208	2.74016	0.410492	2.86977	0.878013	3.65229	0.659156	2.74043		
0.410155	2.87184	0.660006	2.73599	0.409491	2.87602	0.878257	3.64332	0.659954	2.73626		
0.40916	2.87815	0.660809	2.73186	0.408507	2.88244	0.878503	3.63441	0.660757	2.73212		
0.408181	2.88463	0.661616	2.72777	0.40754	2.88905	0.878753	3.62556	0.661564	2.72803		
0.40722	2.8913	0.662429	2.72372	0.40659	2.89584	0.879006	3.61677	0.662376	2.72398		
0.406276	2.89816	0.663246	2.71971	0.405657	2.90282	0.879262	3.60805	0.663193	2.71997		
0.405349	2.9052	0.664067	2.71574	0.404741	2.90999	0.879522	3.59938	0.664014	2.716		
0.404439	2.91243	0.664893	2.71181	0.403843	2.91735	0.879784	3.59077	0.66484	2.71207		
0.403546	2.91985	0.665724	2.70793	0.402962	2.9249	0.88005	3.58223	0.66567	2.70818		
0.402671	2.92747	0.666559	2.70408	0.402098	2.93265	0.880319	3.57374	0.666505	2.70432		
0.401813	2.93529	0.667399	2.70027	0.401251	2.94061	0.880591	3.56531	0.667345	2.70051		
0.400972	2.94331	0.668244	2.6965	0.400422	2.94876	0.880867	3.55694	0.66819	2.69674		
0.400148	2.95154	0.669093	2.69277	0.399609	2.95713	0.881146	3.54862	0.669039	2.69301		
0.399341	2.95997	0.669947	2.68907	0.398813	2.9657	0.881428	3.54037	0.669892	2.68931		
0.398551	2.96861	0.670806	2.68542	0.398035	2.97448	0.881714	3.53217	0.67075	2.68565		
0.397778	2.97747	0.671669	2.6818	0.397273	2.98348	0.882003	3.52402	0.671613	2.68203		
0.397022	2.98653	0.672537	2.67822	0.396528	2.99269	0.882296	3.51594	0.67248	2.67845		
0.396283	2.99582	0.673409	2.67468	0.3958	3.00212	0.882592	3.50791	0.673352	2.6749		
0.39556	3.00533	0.674286	2.67117	0.395089	3.01177	0.882891	3.49994	0.674229	2.6714		
0.394854	3.01505	0.675167	2.6677	0.394394	3.02165	0.883194	3.49202	0.67511	2.66792		
0.394165	3.02501	0.676053	2.66426	0.393715	3.03176	0.883501	3.48415	0.675996	2.66449		
0.393492	3.03519	0.676944	2.66087	0.393054	3.04209	0.883811	3.47635	0.676886	2.66108		
0.392836	3.0456	0.677839	2.6575	0.392408	3.05266	0.884125	3.46859	0.677781	2.65772		
0.392196	3.05625	0.678738	2.65417	0.391779	3.06347	0.884443	3.46089	0.67868	2.65439		
0.391572	3.06713	0.679642	2.65088	0.391165	3.07451	0.884764	3.45325	0.679584	2.65109		
0.390964	3.07826	0.680551	2.64762	0.390568	3.08579	0.885088	3.44565	0.680492	2.64783		
0.390372	3.08963	0.681464	2.6444	0.389987	3.09732	0.885417	3.43811	0.681405	2.6446		
0.389796	3.10124	0.682382	2.6412	0.389422	3.1091	0.885749	3.43063	0.682323	2.64141		
0.389236	3.1131	0.683304	2.63805	0.388872	3.12113	0.886085	3.42319	0.683245	2.63825		
0.388691	3.12521	0.684231	2.63492	0.388338	3.13341	0.886424	3.41581	0.684171	2.63512		
0.388163	3.13758	0.685162	2.63183	0.38782	3.14595	0.886767	3.40848	0.685102	2.63203		
0.38765	3.15021	0.686098	2.62878	0.387317	3.15876	0.887115	3.4012	0.686038	2.62897		
0.387152	3.1631	0.687038	2.62575	0.386829	3.17182	0.887465	3.39397	0.686978	2.62594		
0.386669	3.17625	0.687983	2.62276	0.386357	3.18515	0.88782	3.3868	0.687922	2.62295		
0.386202	3.18968	0.688933	2.6198	0.3859	3.19876	0.888179	3.37967	0.688871	2.61999		
0.38575	3.20337	0.689886	2.61687	0.385458	3.21264	0.888541	3.3726	0.689825	2.61706		
0.385313	3.21735	0.690845	2.61397	0.385031	3.2268	0.888907	3.36557	0.690783	2.61416		
0.384892	3.2316	0.691808	2.61111	0.384619	3.24124	0.889277	3.35859	0.691745	2.61129		
0.384485	3.24614	0.692775	2.60827	0.384222	3.25597	0.889651	3.35167	0.692713	2.60845		
0.384092	3.26097	0.693747	2.60547	0.38384	3.271	0.890029	3.34479	0.693684	2.60565		
0.383715	3.27609	0.694724	2.6027	0.383472	3.28631	0.890411	3.33796	0.694661	2.60287		
0.383352	3.29151	0.695705	2.59996	0.383119	3.30193	0.890797	3.33118	0.695642	2.60013		
0.383004	3.30722	0.696691	2.59725	0.382781	3.31785	0.891186	3.32445	0.696627	2.59742		
0.38267	3.32325	0.697681	2.59457	0.382456	3.33408	0.89158	3.31776	0.697617	2.59474		
0.382351	3.33958	0.698677	2.59192	0.382147	3.35063	0.891978	3.31112	0.698612	2.59209		
0.382046	3.35623	0.699677	2.5893	0.381851	3.36749	0.892379	3.30453	0.699612	2.58947		
0.381756	3.3732	0.700682	2.58671	0.38157	3.38467	0.892785	3.29799	0.700617	2.58688		
0.381479	3.3905	0.701691	2.58415	0.381303	3.40219	0.893195	3.29149	0.701626	2.58432		
0.381217	3.40812	0.702706	2.58163	0.38105	3.42003	0.893609	3.28504	0.702641	2.58179		
0.380969	3.42608	0.703726	2.57913	0.380811	3.43822	0.894027	3.27864	0.70366	2.57929		
0.380734	3.44438	0.704752	2.57667	0.380586	3.45675	0.894449	3.27228	0.704685	2.57683		
0.380514	3.46303	0.705783	2.57424	0.380375	3.47563	0.894875	3.26597	0.705716	2.57439		
0.380308	3.48202	0.706819	2.57184	0.380178	3.49486	0.895305	3.2597	0.706752	2.57199		
0.380115	3.50138	0.707862	2.56948	0.379994	3.51446	0.89574	3.25348	0.707795	2.56963		
0.379936	3.5211	0.708912	2.56715	0.379824	3.53442	0.896178	3.2473	0.708844	2.5673		
0.37977	3.54118	0.709969	2.56485	0.379668	3.55476	0.896621	3.24117	0.709901	2.565		
0.379618	3.56165	0.711034	2.5626	0.379525	3.57548	0.897068	3.23508	0.710965	2.56275		
0.37948	3.58249	0.712109	2.5604	0.379396	3.59658	0.897519	3.22903	0.712039	2.56054		
0.379355	3.60373	0.713194	2.55824	0.37928	3.61808	0.897974	3.22303	0.713123	2.55838		
0.379244	3.62536	0.714292	2.55614	0.379177	3.63997	0.898433	3.21707	0.714221	2.55627		
0.379145	3.64739	0.715407	2.5541	0.379087	3.66228	0.898897	3.21116	0.715334	2.55423		
0.37906	3.66983	0.716542	2.55216	0.379011	3.68499	0.899365	3.20529	0.716468	2.55228		
0.378989	3.69269	0.717706	2.55032	0.378948	3.70813	0.899837	3.19946	0.71763	2.55043		
0.37893	3.71597	0.718908	2.54862	0.378898	3.7317	0.900314	3.19367	0.718829	2.54873		
0.378884	3.73968	0.720162	2.54712	0.378861	3.7557	0.900794	3.18793	0.720079	2.54721		
0.378852	3.76384	0.721483	2.54586	0.378837	3.78015	0.901279	3.18222	0.721396	2.54593		
0.378832	3.78844	0.722886	2.54489	0.378826	3.80506	0.901769	3.17656	0.722793	2.54495		
0.378825	3.81349	0.724374	2.54423	0.378828	3.83042	0.902262	3.17094	0.724276	2.54427		
0.378831	3.83901	0.72594	2.54384	0.378842	3.85625	0.90276	3.16536	0.725837	2.54386		
0.37885	3.865	0.727566	2.54367	0.378869	3.88256	0.903263	3.15982	0.72746	2.54368		
0.378881	3.89148	0.729237	2.54365	0.378909	3.90936	0.903769	3.15433	0.729128	2.54365		
0.378925	3.91844	0.73094	2.54375	0.378961	3.93666	0.90428	3.14887	0.73083	2.54374		
0.378981	3.94591	0.732666	2.54392	0.379026	3.96446	0.904796	3.14345	0.732554	2.54391		
0.37905	3.97388	0.734407	2.54415	0.379103	3.99279	0.905316	3.13808	0.734294	2.54413		
0.379131	4.00238	0.736159	2.54441	0.379192	4.02163	0.90584	3.13274	0.736046	2.54439		
0.379225	4.0314	0.73792	2.5447	0.379294	4.05102	0.906369	3.12744	0.737806	2.54468		
0.379331	4.06097	0.739687	2.54501	0.379408	4.08095	0.906902	3.12219	0.739573	2.54499		
0.379449	4.09109	0.741459	2.54534	0.379534	4.11144	0.907439	3.11697	0.741344	2.54532		
0.379579	4.12177	0.743234	2.54568	0.379672	4.1425	0.907981	3.11179	0.743119	2.54565		
0.379721	4.15302	0.745012	2.54602	0.379822	4.17414	0.908528	3.10665	0.744897	2.546		
0.379875	4.18486	0.746793	2.54637	0.379984	4.20638	0.909079	3.10154	0.746678	2.54635		
0.380041	4.2173	0.748575	2.54673	0.380158	4.23922	0.909634	3.09648	0.74846	2.54671		
0.380219	4.25035	0.750359	2.54709	0.380344	4.27268	0.910194	3.09145	0.750244	2.54707		
0.380409	4.28402	0.752144	2.54745	0.380541	4.30677	0.910759	3.08646	0.752029	2.54743		
0.38061	4.31832	0.75393	2.54782	0.38075	4.34151	0.911328	3.08151	0.753815	2.54779		
0.380823	4.35328	0.755717	2.54818	0.380971	4.3769	0.911901	3.0766	0.755602	2.54816		
0.381047	4.38889	0.757504	2.54855	0.381203	4.41297	0.91248	3.07172	0.757389	2.54852		
0.381283	4.42519	0.759292	2.54891	0.381446	4.44972	0.913062	3.06688	0.759177	2.54889		
0.38153	4.46218	0.761081	2.54928	0.381701	4.48718	0.91365	3.06208	0.760965	2.54926		
0.381789	4.49987	0.76287	2.54965	0.381967	4.52535	0.914242	3.05731	0.762754	2.54962		
0.382058	4.53829	0.764659	2.55001	0.382244	4.56426	0.914838	3.05258	0.764543	2.54999		
0.382339	4.57744	0.766448	2.55037	0.382532	4.60392	0.915439	3.04789	0.766332	2.55035		
0.382631	4.61736	0.768237	2.55074	0.382831	4.64434	0.916045	3.04323	0.768122	2.55071		
0.382934	4.65804	0.770027	2.5511	0.383141	4.68555	0.916656	3.03861	0.769911	2.55107		
0.383247	4.69952	0.771817	2.55146	0.383462	4.72756	0.917271	3.03402	0.771701	2.55143		
0.383572	4.7418	0.773606	2.55182	0.383793	4.77039	0.917891	3.02947	0.773491	2.55179		
0.383907	4.78491	0.775396	2.55217	0.384135	4.81407	0.918516	3.02495	0.775281	2.55215		
0.384252	4.82887	0.777186	2.55253	0.384488	4.8586	0.919145	3.02047	0.777071	2.55251		
0.384608	4.87369	0.778976	2.55289	0.384851	4.90401	0.919779	3.01603	0.77886	2.55286		
0.384975	4.91941	0.780766	2.55324	0.385224	4.95033	0.920418	3.01162	0.78065	2.55322		
0.385351	4.96603	0.782555	2.55359	0.385608	4.99757	0.921062	3.00724	0.78244	2.55357		
0.385738	5.01358	0.784345	2.55394	0.386001	5.04575	0.92171	3.0029	0.78423	2.55392		
0.386135	5.06209	0.786135	2.55429	0.386405	5.0949	0.922363	2.99859	0.786019	2.55426		
0.386542	5.11157	0.787924	2.55463	0.386819	5.14505	0.923022	2.99432	0.787809	2.55461		
0.386959	5.16206	0.789714	2.55498	0.387242	5.19622	0.923685	2.99008	0.789598	2.55496		
0.387386	5.21357	0.791503	2.55532	0.387675	5.24843	0.924352	2.98587	0.791388	2.5553		
0.387823	5.26613	0.793292	2.55566	0.388118	5.30171	0.925025	2.9817	0.793177	2.55564		
0.388269	5.31978	0.795082	2.556	0.388571	5.35609	0.925703	2.97756	0.794966	2.55598		
0.388724	5.37453	0.796871	2.55634	0.389032	5.41159	0.926385	2.97345	0.796755	2.55632		
0.389189	5.43042	0.798659	2.55667	0.389503	5.46826	0.927073	2.96938	0.798544	2.55665		
0.389663	5.48748	0.800448	2.55701	0.389983	5.52611	0.927765	2.96534	0.800333	2.55698		
0.390146	5.54574	0.802237	2.55734	0.390472	5.58518	0.928463	2.96133	0.802121	2.55732		
0.390638	5.60522	0.804025	2.55767	0.390971	5.6455	0.929165	2.95736	0.80391	2.55765		
0.391139	5.66597	0.805814	2.558	0.391477	5.70711	0.929873	2.95342	0.805698	2.55797		
0.391583	5.71997	0.807602	2.55832	0.391993	5.77005	0.930585	2.94951	0.807487	2.5583		
0.391966	5.7668	0.80939	2.55865	0.392517	5.83434	0.931303	2.94563	0.809275	2.55863		
0.392287	5.80609	0.811178	2.55897	0.39305	5.90003	0.932025	2.94179	0.811062	2.55895		
0.392543	5.83752	0.812966	2.55929	0.39359	5.96716	0.932753	2.93798	0.81285	2.55927		
0.392732	5.86085	0.814753	2.55961	0.39414	6.03577	0.933486	2.9342	0.814638	2.55959		
0.392908	5.88246	0.816541	2.55993	0.394697	6.1059	0.934225	2.93045	0.816425	2.55991		
0.39303	5.89759	0.818328	2.56024	0.395262	6.1776	0.934968	2.92673	0.818212	2.56022		
0.393222	5.92138	0.820115	2.56055	0.395834	6.25092	0.935717	2.92305	0.82	2.56053		
0.393485	5.95403	0.821902	2.56087	0.396414	6.32589	0.93647	2.9194	0.821786	2.56085		
0.39382	5.99582	0.823688	2.56118	0.397002	6.40259	0.93723	2.91578	0.823573	2.56116		
0.39423	6.04711	0.825475	2.56148	0.397597	6.48104	0.937994	2.91218	0.82536	2.56146		
0.394716	6.10836	0.827261	2.56179	0.3982	6.56132	0.938764	2.90863	0.827146	2.56177		
0.395281	6.18011	0.829048	2.56209	0.398809	6.64348	0.939539	2.9051	0.828932	2.56207		
0.395854	6.25349	0.830834	2.5624	0.399425	6.72758	0.94032	2.9016	0.830718	2.56238		
0.396435	6.32852	0.832619	2.5627	0.400048	6.81367	0.941106	2.89813	0.832504	2.56268		
0.397023	6.40527	0.834405	2.563	0.400677	6.90184	0.941897	2.8947	0.83429	2.56298		
0.397618	6.48379	0.836191	2.56329	0.401313	6.99214	0.942694	2.89129	0.836075	2.56327		
0.398221	6.56413	0.837976	2.56359	0.401955	7.08464	0.943497	2.88792	0.837861	2.56357		
0.39883	6.64636	0.839761	2.56388	0.402603	7.17943	0.944305	2.88458	0.839646	2.56386		
0.399446	6.73052	0.841546	2.56417	0.403257	7.27658	0.945119	2.88127	0.841431	2.56416		
0.40007	6.81669	0.843331	2.56446	0.403917	7.37617	0.945939	2.87798	0.843215	2.56445		
0.400699	6.90493	0.845115	2.56475	0.404582	7.47828	0.946764	2.87473	0.845	2.56473		
0.401335	6.9953	0.8469	2.56504	0.405252	7.58302	0.947595	2.87151	0.846784	2.56502		
0.401977	7.08789	0.848684	2.56532	0.405928	7.69046	0.948431	2.86832	0.848569	2.56531		
0.402626	7.18276	0.850468	2.56561	0.406608	7.80072	0.949274	2.86516	0.850353	2.56559		
0.40328	7.27999	0.852251	2.56589	0.407293	7.91389	0.950122	2.86203	0.852136	2.56587		
0.40394	7.37966	0.854035	2.56617	0.407983	8.03008	0.950976	2.85893	0.85392	2.56615		
0.404605	7.48187	0.855818	2.56645	0.408677	8.14942	0.951836	2.85586	0.855703	2.56643		
0.405275	7.58669	0.857602	2.56672	0.409375	8.27201	0.952703	2.85282	0.857487	2.56671		
0.405951	7.69423	0.859385	2.567	0.410078	8.398	0.953575	2.84981	0.85927	2.56698		
0.406632	7.80459	0.861168	2.56727	0.410783	8.5275	0.954453	2.84683	0.861052	2.56725		
0.407317	7.91786	0.86295	2.56754	0.411493	8.66067	0.955338	2.84388	0.862835	2.56753		
0.408007	8.03416	0.864733	2.56781	0.412205	8.79766	0.956228	2.84096	0.864618	2.5678		
0.408701	8.15361	0.866515	2.56808	0.412921	8.93862	0.957125	2.83807	0.8664	2.56807		
0.4094	8.27632	0.868297	2.56835	0.413639	9.08371	0.958029	2.83521	0.868182	2.56833		
0.410102	8.40242	0.870079	2.56861	0.41436	9.23313	0.958938	2.83238	0.869964	2.5686		
0.410808	8.53205	0.87186	2.56888	0.41499	9.36699	0.959854	2.82958	0.871745	2.56886		
0.411517	8.66535	0.873642	2.56914	0.415528	9.48391	0.960776	2.8268	0.873527	2.56912		
0.41223	8.80247	0.875423	2.5694	0.415974	9.5826	0.961705	2.82406	0.875308	2.56938		
0.412946	8.94357	0.877204	2.56966	0.416328	9.66196	0.962641	2.82135	0.877089	2.56964		
0.413664	9.08881	0.878985	2.56992	0.416587	9.72107	0.963583	2.81867	0.87887	2.5699		
0.414385	9.23838	0.880766	2.57017	0.416827	9.77603	0.964532	2.81602	0.880651	2.57015		
0.415108	9.39245	0.882546	2.57043	0.416993	9.8146	0.965487	2.8134	0.882431	2.57041		
0.415834	9.55124	0.884326	2.57068	0.417253	9.87542	0.96645	2.81081	0.884211	2.57066		
0.416561	9.71495	0.886106	2.57093	0.417608	9.95923	0.967419	2.80825	0.885992	2.57091		
0.417289	9.8838	0.887886	2.57118	0.418056	10.0671	0.968395	2.80571	0.887771	2.57116		
0.418019	10.058	0.889666	2.57143	0.418599	10.2004	0.969378	2.80321	0.889551	2.57141		
0.418749	10.2379	0.891445	2.57167	0.419236	10.3608	0.970369	2.80074	0.89133	2.57166		
0.419481	10.4237	0.893225	2.57192	0.419968	10.5507	0.971366	2.7983	0.89311	2.5719		
0.420212	10.6156	0.895004	2.57216	0.420699	10.747	0.972371	2.79588	0.894889	2.57214		
0.420944	10.8141	0.896782	2.5724	0.421431	10.9499	0.973383	2.7935	0.896668	2.57239		
0.421676	11.0194	0.898561	2.57264	0.422162	11.16	0.974402	2.79115	0.898446	2.57263		
0.422407	11.2319	0.900339	2.57288	0.422893	11.3774	0.975428	2.78883	0.900225	2.57287		
0.423137	11.4519	0.902118	2.57312	0.423622	11.6027	0.976462	2.78653	0.902003	2.5731		
0.423866	11.6799	0.903896	2.57335	0.42435	11.8362	0.977504	2.78427	0.903781	2.57334		
0.424593	11.9163	0.905673	2.57359	0.425076	12.0784	0.978553	2.78204	0.905559	2.57357		
0.425319	12.1615	0.907451	2.57382	0.4258	12.3298	0.97961	2.77984	0.907336	2.57381		
0.426042	12.4161	0.909228	2.57405	0.426522	12.5909	0.980674	2.77767	0.909114	2.57404		
0.426763	12.6805	0.911006	2.57428	0.427241	12.8623	0.981746	2.77552	0.910891	2.57427		
0.427481	12.9555	0.912783	2.57451	0.427957	13.1445	0.982826	2.77341	0.912668	2.5745		
0.428195	13.2415	0.914559	2.57474	0.428669	13.4383	0.983914	2.77133	0.914445	2.57472		
0.428906	13.5393	0.916336	2.57496	0.429377	13.7444	0.98501	2.76928	0.916221	2.57495		
0.429613	13.8497	0.918112	2.57519	0.430081	14.0635	0.986114	2.76725	0.917998	2.57517		
0.430315	14.1733	0.919888	2.57541	0.43078	14.3965	0.987225	2.76526	0.919774	2.5754		
0.431013	14.5112	0.921664	2.57563	0.431474	14.7443	0.988345	2.7633	0.92155	2.57562		
0.431705	14.8642	0.92344	2.57585	0.432163	15.1079	0.989473	2.76137	0.923325	2.57584		
0.432392	15.2333	0.925215	2.57607	0.432845	15.4885	0.99061	2.75946	0.925101	2.57606		
0.433072	15.6199	0.926991	2.57629	0.433521	15.8872	0.991754	2.75759	0.926876	2.57627		
0.433746	16.0249	0.928766	2.5765	0.43419	16.3054	0.992907	2.75575	0.928651	2.57649		
0.434413	16.45	0.93054	2.57672	0.434852	16.7446	0.994068	2.75394	0.930426	2.5767		
0.435072	16.8965	0.932315	2.57693	0.435507	17.2063	0.995238	2.75215	0.932201	2.57692		
0.435724	17.3661	0.934089	2.57714	0.436153	17.6923	0.996415	2.7504	0.933975	2.57713		
0.436367	17.8607	0.935864	2.57735	0.43679	18.2046	0.997602	2.74868	0.935749	2.57734		
0.437001	18.3823	0.937638	2.57756	0.437418	18.7455	0.998796	2.74698	0.937523	2.57755		
0.437626	18.9333	0.939411	2.57777	0.438037	19.3174	1	2.74532	0.939297	2.57775		
0.438242	19.5162	0.941185	2.57797	0.438645	19.9231	1.00121	2.74368	0.94107	2.57796		
0.438847	20.1338	0.942958	2.57818	0.439243	20.5656			0.942844	2.57817		
0.439441	20.7895	0.944731	2.57838	0.43983	21.2485			0.944617	2.57837		
0.440024	21.4867	0.946504	2.57858	0.440405	21.9758			0.94639	2.57857		
0.440595	22.2298	0.948277	2.57879	0.440968	22.7518			0.948162	2.57877		
0.441154	23.0232	0.950049	2.57899	0.441519	23.5818			0.949935	2.57897		
0.4417	23.8725	0.951821	2.57918	0.442056	24.4716			0.951707	2.57917		
0.442233	24.7838	0.953593	2.57938	0.44258	25.4279			0.953479	2.57937		
0.442752	25.7642	0.955365	2.57958	0.44309	26.4587			0.955251	2.57956		
0.443257	26.8218	0.957136	2.57977	0.443585	27.573			0.957022	2.57976		
0.443747	27.9663	0.958908	2.57996	0.444065	28.7815			0.958793	2.57995		
0.444222	29.209	0.960679	2.58015	0.444529	30.0967			0.960564	2.58014		
0.444681	30.5631	0.962449	2.58034	0.444977	31.5336			0.962335	2.58033		
0.445124	32.0445	0.96422	2.58053	0.445409	33.11			0.964106	2.58052		
0.44555	33.6722	0.96599	2.58072	0.445823	34.8474			0.965876	2.58071		
0.445958	35.4691	0.96776	2.58091	0.446221	36.772			0.967646	2.5809		
0.446349	37.4632	0.96953	2.58109	0.4466	38.916			0.969416	2.58108		
0.446722	39.6891	0.9713	2.58128	0.44696	41.3195			0.971186	2.58126		
0.447077	42.19	0.973069	2.58146	0.447302	44.0328			0.972955	2.58145		
0.447412	45.0207	0.974838	2.58164	0.447625	47.1205			0.974724	2.58163		
0.447728	48.2511	0.976607	2.58182	0.447927	50.6661			0.976493	2.58181		
0.448024	51.9731	0.978376	2.582	0.44821	54.7803			0.978262	2.58199		
0.4483	56.3085	0.980144	2.58218	0.448472	59.6124			0.98003	2.58216		
0.448556	61.4233	0.981912	2.58235	0.448714	65.3689			0.981798	2.58234		
0.44879	67.5493	0.98368	2.58253	0.448934	72.3443			0.983566	2.58252		
0.449003	75.0205	0.985448	2.5827	0.449134	80.9728			0.985334	2.58269		
0.449195	84.3358	0.987215	2.58287	0.449311	91.9229			0.987101	2.58286		
0.449366	96.2762	0.988983	2.58304	0.449467	106.279			0.988869	2.58303		
0.449514	112.136	0.99075	2.58321	0.4496	125.928			0.990635	2.5832		
0.44964	134.227	0.992516	2.58338	0.449711	154.461			0.992402	2.58337		
0.449744	167.126	0.994283	2.58355	0.4498	199.673			0.994169	2.58354		
0.449825	221.345	0.996049	2.58372	0.449866	282.247			0.995935	2.58371		
0.449884	327.563	0.997815	2.58388	0.44991	481.153			0.997701	2.58387		
0.44992	629.596	0.99958	2.58405	0.449931	1628.66			0.999466	2.58403		
0.449933	8062.06	1.00135	2.58421					1.00123	2.5842		
