Sym0		Sym1		Sym2		Sym3		Asym1		Asym2		Asym3	
499  Points		499  Points		474  Points		261  Points		503  Points		384  Points		187  Points	
Freq (MHz)	Vph (m/ms)	Freq (MHz)	Vph (m/ms)	Freq (MHz)	Vph (m/ms)	Freq (MHz)	Vph (m/ms)	Freq (MHz)	Vph (m/ms)	Freq (MHz)	Vph (m/ms)	Freq (MHz)	Vph (m/ms)
1.00111	2.57869	1.00144	2.57848	0.449952	1239.27	0.866026	1675.99	0.216528	286.107	1.0009	3.36231	0.899871	1176.92
0.999477	2.57972	0.999808	2.57951	0.450127	391.243	0.866027	664.054	0.216595	140.261	0.999579	3.36678	0.899888	579.815
0.997842	2.58074	0.998173	2.58054	0.450474	232.451	0.866029	414.056	0.216708	92.9418	0.998253	3.37126	0.899915	384.669
0.996205	2.58177	0.996537	2.58156	0.450975	165.474	0.866032	300.81	0.216868	69.5293	0.99692	3.37574	0.899954	287.812
0.994567	2.58279	0.994899	2.58258	0.451609	128.562	0.866036	236.207	0.217073	55.5669	0.995581	3.38021	0.900005	229.927
0.992926	2.58381	0.993258	2.58361	0.452355	105.194	0.866042	194.448	0.217323	46.2987	0.994236	3.3847	0.900066	191.433
0.991283	2.58484	0.991616	2.58463	0.453193	89.0773	0.866048	165.236	0.217618	39.7015	0.992884	3.38918	0.900139	163.985
0.989637	2.58585	0.989971	2.58565	0.454106	77.2939	0.866056	143.655	0.217958	34.7688	0.991526	3.39366	0.900223	143.426
0.987989	2.58687	0.988323	2.58666	0.455081	68.305	0.866064	127.061	0.218343	30.9433	0.990161	3.39815	0.900318	127.451
0.986338	2.58788	0.986673	2.58768	0.456107	61.2231	0.866073	113.904	0.218771	27.8915	0.988789	3.40264	0.900424	114.683
0.984684	2.58889	0.98502	2.58869	0.457175	55.5003	0.866084	103.216	0.219242	25.4015	0.98741	3.40713	0.900541	104.243
0.983028	2.5899	0.983364	2.58969	0.458278	50.7801	0.866096	94.3623	0.219756	23.3324	0.986025	3.41161	0.900669	95.5487
0.981368	2.5909	0.981705	2.5907	0.459412	46.8205	0.866108	86.9077	0.220312	21.5867	0.984633	3.4161	0.900808	88.196
0.979705	2.5919	0.980042	2.5917	0.460571	43.4517	0.866122	80.545	0.220909	20.0948	0.983234	3.4206	0.900958	81.8968
0.978038	2.59289	0.978376	2.59269	0.461753	40.5507	0.866137	75.0507	0.221548	18.8059	0.981828	3.42509	0.90112	76.4402
0.976368	2.59388	0.976707	2.59368	0.462954	38.0266	0.866153	70.2583	0.222226	17.6816	0.980415	3.42958	0.901292	71.6677
0.974694	2.59486	0.975034	2.59466	0.464172	35.8105	0.86617	66.0415	0.222943	16.6928	0.978995	3.43407	0.901474	67.4584
0.973017	2.59584	0.973357	2.59564	0.465406	33.8494	0.866188	62.3024	0.223699	15.8169	0.977568	3.43856	0.901668	63.7183
0.971335	2.5968	0.971677	2.59661	0.466654	32.1017	0.866208	58.9642	0.224492	15.0358	0.976134	3.44305	0.901873	60.3733
0.96965	2.59777	0.969992	2.59757	0.467915	30.5344	0.866228	55.9658	0.225322	14.3354	0.974692	3.44755	0.902088	57.3639
0.96796	2.59872	0.968303	2.59853	0.469187	29.1211	0.86625	53.2577	0.226189	13.704	0.973244	3.45204	0.902313	54.6422
0.966266	2.59967	0.96661	2.59948	0.47047	27.8401	0.866273	50.7998	0.22709	13.1321	0.971788	3.45653	0.90255	52.1689
0.964568	2.60061	0.964913	2.60042	0.471763	26.6737	0.866297	48.559	0.228026	12.6119	0.970326	3.46102	0.902796	49.9114
0.962865	2.60154	0.963211	2.60135	0.473065	25.6072	0.866322	46.5076	0.228996	12.137	0.968856	3.46551	0.903054	47.8429
0.961158	2.60247	0.961504	2.60228	0.474375	24.6284	0.866349	44.6228	0.229998	11.7017	0.967378	3.47	0.903321	45.9406
0.959445	2.60338	0.959793	2.6032	0.475694	23.7269	0.866377	42.8849	0.231031	11.3015	0.965894	3.47449	0.903599	44.1852
0.957729	2.60429	0.958077	2.6041	0.47702	22.8939	0.866406	41.2775	0.232096	10.9325	0.964402	3.47898	0.903887	42.5605
0.956007	2.60518	0.956356	2.605	0.478354	22.1219	0.866436	39.7863	0.233191	10.5913	0.962903	3.48346	0.904185	41.0525
0.95428	2.60607	0.95463	2.60589	0.479694	21.4044	0.866468	38.3993	0.234315	10.2748	0.961397	3.48795	0.904493	39.649
0.952548	2.60695	0.9529	2.60677	0.481041	20.7359	0.866501	37.106	0.235318	10.0174	0.959884	3.49244	0.904811	38.3395
0.950811	2.60781	0.951164	2.60764	0.482395	20.1116	0.866536	35.897	0.236189	9.81021	0.958363	3.49692	0.905139	37.1151
0.949069	2.60867	0.949423	2.6085	0.483754	19.5272	0.866571	34.7645	0.236921	9.6468	0.956835	3.50141	0.905477	35.9676
0.947322	2.60951	0.947677	2.60934	0.485119	18.9791	0.866609	33.7014	0.237507	9.52236	0.955301	3.50589	0.905825	34.8901
0.94557	2.61035	0.945925	2.61018	0.48649	18.4639	0.866648	32.7015	0.237942	9.43343	0.953759	3.51038	0.906182	33.8764
0.943812	2.61117	0.944169	2.61101	0.487866	17.9788	0.866688	31.7594	0.238222	9.37761	0.952209	3.51486	0.906548	32.921
0.942049	2.61199	0.942407	2.61182	0.489247	17.5213	0.86673	30.8701	0.238627	9.29884	0.950653	3.51935	0.906924	32.0191
0.940281	2.61279	0.94064	2.61263	0.490633	17.089	0.866773	30.0295	0.23907	9.21512	0.94909	3.52383	0.90731	31.1662
0.938507	2.61358	0.938867	2.61342	0.492024	16.68	0.866818	29.2335	0.239677	9.10433	0.94752	3.52832	0.907704	30.3587
0.936728	2.61436	0.937089	2.6142	0.493419	16.2924	0.866864	28.4788	0.240454	8.96905	0.945943	3.53281	0.908108	29.5928
0.934944	2.61512	0.935306	2.61497	0.494819	15.9246	0.866912	27.7622	0.241406	8.81228	0.944358	3.53729	0.908521	28.8656
0.933154	2.61588	0.933517	2.61573	0.496223	15.575	0.866962	27.0809	0.24254	8.6373	0.942767	3.54178	0.908942	28.1741
0.931359	2.61662	0.931724	2.61647	0.497631	15.2425	0.867013	26.4324	0.243862	8.4475	0.94117	3.54627	0.909373	27.5158
0.929559	2.61736	0.929924	2.61721	0.499044	14.9258	0.867066	25.8143	0.245206	8.26853	0.939565	3.55076	0.909812	26.8885
0.927753	2.61808	0.92812	2.61793	0.50046	14.6238	0.867121	25.2246	0.246572	8.09953	0.937954	3.55525	0.910259	26.2899
0.925943	2.61879	0.92631	2.61864	0.50188	14.3354	0.867177	24.6613	0.247959	7.93972	0.936336	3.55974	0.910715	25.7182
0.924127	2.61948	0.924495	2.61934	0.503304	14.0598	0.867236	24.1228	0.249366	7.78841	0.934712	3.56423	0.91118	25.1716
0.922305	2.62017	0.922675	2.62003	0.504731	13.7962	0.867296	23.6074	0.250793	7.64496	0.933081	3.56873	0.911653	24.6485
0.920479	2.62084	0.92085	2.62071	0.506162	13.5438	0.867358	23.1137	0.252239	7.50879	0.931443	3.57323	0.912134	24.1474
0.918648	2.62151	0.919019	2.62137	0.507596	13.3019	0.867422	22.6403	0.253703	7.37939	0.9298	3.57773	0.912622	23.6669
0.916811	2.62216	0.917184	2.62203	0.509033	13.0699	0.867488	22.1861	0.255184	7.25628	0.92815	3.58224	0.913119	23.206
0.91497	2.6228	0.915343	2.62267	0.510473	12.8471	0.867556	21.7498	0.256683	7.13905	0.926494	3.58675	0.913624	22.7633
0.913123	2.62343	0.913498	2.6233	0.511917	12.6331	0.867626	21.3305	0.258198	7.02728	0.924832	3.59126	0.914136	22.3378
0.911272	2.62404	0.911647	2.62392	0.513363	12.4273	0.867698	20.9271	0.259728	6.92063	0.923164	3.59578	0.914655	21.9285
0.909416	2.62465	0.909792	2.62453	0.514812	12.2293	0.867772	20.5388	0.261274	6.81875	0.92149	3.6003	0.915182	21.5346
0.907555	2.62525	0.907933	2.62513	0.516264	12.0386	0.867848	20.1648	0.262835	6.72136	0.91981	3.60482	0.915717	21.1552
0.90569	2.62583	0.906068	2.62571	0.517719	11.8548	0.867927	19.8043	0.26441	6.62817	0.918124	3.60936	0.916258	20.7895
0.90382	2.62641	0.904199	2.62629	0.519176	11.6776	0.868007	19.4566	0.265999	6.53892	0.916433	3.6139	0.916807	20.4369
0.901945	2.62697	0.902326	2.62686	0.520635	11.5067	0.868091	19.1209	0.267601	6.45338	0.914736	3.61844	0.917362	20.0965
0.900067	2.62752	0.900448	2.62741	0.522097	11.3416	0.868176	18.7968	0.269215	6.37133	0.913034	3.62299	0.917924	19.7678
0.898183	2.62807	0.898565	2.62796	0.523561	11.1821	0.868264	18.4836	0.270842	6.29257	0.911327	3.62755	0.918493	19.4502
0.896296	2.6286	0.896679	2.62849	0.525028	11.028	0.868354	18.1807	0.272481	6.2169	0.909614	3.63212	0.919068	19.1432
0.894405	2.62913	0.894788	2.62902	0.526496	10.8789	0.868446	17.8878	0.27413	6.14416	0.907897	3.6367	0.91965	18.8462
0.892509	2.62964	0.892893	2.62954	0.527967	10.7346	0.868541	17.6042	0.275791	6.07418	0.906174	3.64128	0.920237	18.5588
0.890609	2.63014	0.890995	2.63004	0.529439	10.5949	0.868639	17.3296	0.277462	6.00681	0.904447	3.64588	0.920831	18.2805
0.888706	2.63064	0.889092	2.63054	0.530913	10.4596	0.868739	17.0636	0.279144	5.94192	0.902714	3.65048	0.921431	18.0108
0.886798	2.63113	0.887185	2.63103	0.5322	10.3451	0.868842	16.8056	0.280835	5.87937	0.900978	3.65509	0.922037	17.7495
0.884887	2.63161	0.885275	2.63151	0.533297	10.2499	0.868948	16.5555	0.282535	5.81904	0.899236	3.65972	0.922649	17.496
0.882973	2.63207	0.883361	2.63198	0.534205	10.1728	0.869056	16.3129	0.284244	5.76082	0.89749	3.66436	0.923266	17.2502
0.881054	2.63254	0.881443	2.63244	0.534924	10.1128	0.869167	16.0773	0.285962	5.70459	0.895741	3.66901	0.923888	17.0115
0.879132	2.63299	0.879522	2.6329	0.535452	10.0693	0.869281	15.8486	0.287688	5.65027	0.893986	3.67367	0.924516	16.7798
0.877207	2.63343	0.877598	2.63334	0.535791	10.0416	0.869398	15.6264	0.289422	5.59775	0.892228	3.67835	0.925149	16.5547
0.875279	2.63387	0.87567	2.63378	0.536277	10.0023	0.869518	15.4104	0.291163	5.54695	0.890466	3.68304	0.925787	16.3359
0.873347	2.6343	0.873739	2.63421	0.536806	9.95989	0.869641	15.2005	0.292912	5.49779	0.888701	3.68775	0.92643	16.1232
0.871412	2.63472	0.871804	2.63463	0.537526	9.90297	0.869767	14.9963	0.294667	5.45019	0.886931	3.69247	0.927077	15.9164
0.869474	2.63513	0.869867	2.63505	0.538437	9.83213	0.869896	14.7976	0.296429	5.40407	0.885158	3.69721	0.92773	15.7151
0.867533	2.63554	0.867927	2.63546	0.539539	9.74813	0.870028	14.6042	0.298198	5.35938	0.883382	3.70197	0.928386	15.5193
0.865589	2.63594	0.865983	2.63586	0.540832	9.65185	0.870163	14.416	0.299972	5.31603	0.881603	3.70675	0.929048	15.3285
0.863642	2.63633	0.864037	2.63625	0.542318	9.54424	0.870302	14.2326	0.301752	5.27398	0.87982	3.71154	0.929713	15.1428
0.861692	2.63672	0.862088	2.63664	0.543805	9.43959	0.870444	14.0539	0.303538	5.23317	0.878034	3.71635	0.930382	14.9618
0.85974	2.6371	0.860136	2.63702	0.545293	9.33779	0.87059	13.8798	0.305328	5.19354	0.876246	3.72118	0.931056	14.7854
0.857785	2.63747	0.858181	2.6374	0.546782	9.23871	0.870739	13.7101	0.307124	5.15503	0.874455	3.72604	0.931733	14.6134
0.855827	2.63784	0.856224	2.63777	0.548272	9.14225	0.870891	13.5446	0.308924	5.11761	0.872661	3.73091	0.932414	14.4457
0.853867	2.6382	0.854265	2.63813	0.549762	9.0483	0.871047	13.3831	0.310729	5.08123	0.870865	3.73581	0.933098	14.2821
0.851904	2.63856	0.852303	2.63849	0.551254	8.95676	0.871207	13.2255	0.312538	5.04583	0.869067	3.74073	0.933786	14.1224
0.84994	2.63891	0.850338	2.63884	0.552746	8.86755	0.87137	13.0718	0.314351	5.01139	0.867266	3.74568	0.934477	13.9665
0.847972	2.63925	0.848371	2.63918	0.554238	8.78058	0.871538	12.9216	0.316167	4.97786	0.865464	3.75065	0.935171	13.8143
0.846003	2.63959	0.846402	2.63952	0.555731	8.69575	0.871709	12.775	0.317987	4.94521	0.86366	3.75564	0.935868	13.6656
0.844031	2.63992	0.844431	2.63986	0.557225	8.613	0.871884	12.6318	0.319811	4.9134	0.861853	3.76067	0.936568	13.5204
0.842057	2.64025	0.842457	2.64019	0.558719	8.53224	0.872062	12.4919	0.321637	4.88239	0.860046	3.76572	0.93727	13.3785
0.840081	2.64058	0.840482	2.64051	0.560213	8.45341	0.872245	12.3552	0.323466	4.85216	0.858237	3.7708	0.937976	13.2397
0.838103	2.6409	0.838504	2.64083	0.561707	8.37643	0.872432	12.2215	0.325298	4.82267	0.856426	3.77591	0.938683	13.1041
0.836123	2.64121	0.836525	2.64115	0.563201	8.30124	0.872623	12.0908	0.327132	4.7939	0.854615	3.78105	0.939393	12.9714
0.834141	2.64152	0.834543	2.64146	0.564696	8.22777	0.872819	11.963	0.328969	4.76582	0.852802	3.78622	0.940105	12.8416
0.832158	2.64183	0.83256	2.64176	0.56619	8.15597	0.873018	11.838	0.330807	4.7384	0.850988	3.79142	0.94082	12.7146
0.830172	2.64213	0.830575	2.64207	0.567684	8.08578	0.873222	11.7156	0.332647	4.71162	0.849174	3.79666	0.941536	12.5903
0.828185	2.64242	0.828588	2.64236	0.569178	8.01714	0.87343	11.5959	0.334489	4.68545	0.847359	3.80193	0.942254	12.4686
0.826196	2.64272	0.826599	2.64266	0.570672	7.95	0.873643	11.4787	0.336333	4.65987	0.845544	3.80723	0.942973	12.3495
0.824205	2.64301	0.824609	2.64295	0.572166	7.88432	0.873861	11.364	0.338177	4.63487	0.843728	3.81258	0.943694	12.2327
0.822213	2.64329	0.822617	2.64324	0.573658	7.82004	0.874083	11.2517	0.340023	4.61041	0.841913	3.81796	0.944417	12.1184
0.820219	2.64357	0.820623	2.64352	0.575151	7.75712	0.874309	11.1417	0.34187	4.58648	0.840097	3.82337	0.945141	12.0064
0.818223	2.64385	0.818628	2.6438	0.576643	7.69551	0.874511	11.0476	0.343717	4.56306	0.838282	3.82883	0.945866	11.8966
0.816226	2.64413	0.816631	2.64407	0.578134	7.63518	0.874685	10.9688	0.345565	4.54013	0.836466	3.83433	0.946592	11.789
0.814228	2.6444	0.814633	2.64435	0.579624	7.57608	0.874832	10.9045	0.347414	4.51768	0.834651	3.83987	0.947318	11.6835
0.812228	2.64467	0.812634	2.64461	0.581114	7.51817	0.874949	10.8542	0.349262	4.49569	0.832837	3.84546	0.948046	11.58
0.810227	2.64493	0.810633	2.64488	0.582602	7.46141	0.875036	10.8175	0.351111	4.47414	0.831024	3.85109	0.948774	11.4785
0.808224	2.6452	0.80863	2.64514	0.58409	7.40578	0.875092	10.7942	0.35296	4.45301	0.829211	3.85676	0.949503	11.3789
0.806221	2.64546	0.806627	2.6454	0.585577	7.35124	0.875172	10.7609	0.354808	4.4323	0.827399	3.86248	0.950232	11.2812
0.804215	2.64571	0.804622	2.64566	0.587062	7.29774	0.875261	10.7249	0.356657	4.41199	0.825589	3.86825	0.950868	11.1975
0.802209	2.64597	0.802616	2.64592	0.588546	7.24527	0.875382	10.6763	0.358504	4.39206	0.82378	3.87406	0.95141	11.1272
0.800202	2.64622	0.800609	2.64617	0.590029	7.1938	0.875537	10.6156	0.360351	4.37251	0.821972	3.87993	0.951858	11.0698
0.798193	2.64647	0.7986	2.64642	0.59151	7.14328	0.875727	10.5431	0.362197	4.35331	0.820167	3.88585	0.952213	11.0249
0.796183	2.64671	0.796591	2.64666	0.59299	7.0937	0.875954	10.4594	0.364042	4.33447	0.818362	3.89182	0.952473	10.9922
0.794172	2.64696	0.79458	2.64691	0.594469	7.04502	0.876219	10.3652	0.365886	4.31596	0.81656	3.89785	0.95264	10.9713
0.79216	2.6472	0.792568	2.64715	0.595946	6.99723	0.87649	10.2727	0.367729	4.29777	0.81476	3.90393	0.95288	10.9415
0.790147	2.64744	0.790556	2.64739	0.597421	6.95029	0.876766	10.1819	0.36957	4.2799	0.812962	3.91007	0.95314	10.9092
0.788133	2.64768	0.788542	2.64763	0.598894	6.90418	0.877047	10.0929	0.371409	4.26234	0.811167	3.91626	0.953495	10.8657
0.786118	2.64791	0.786527	2.64786	0.600366	6.85888	0.877334	10.0055	0.373247	4.24507	0.809374	3.92252	0.953943	10.8112
0.784103	2.64814	0.784511	2.6481	0.601835	6.81437	0.877626	9.91979	0.375083	4.22809	0.807584	3.92884	0.954485	10.7461
0.782086	2.64838	0.782495	2.64833	0.603303	6.77062	0.877924	9.83562	0.376917	4.21138	0.805797	3.93522	0.95512	10.6708
0.780068	2.64861	0.780477	2.64856	0.604768	6.72762	0.878228	9.75299	0.378749	4.19494	0.804013	3.94166	0.955848	10.5858
0.778049	2.64883	0.778459	2.64879	0.606232	6.68533	0.878538	9.67185	0.380579	4.17876	0.802232	3.94817	0.956576	10.5023
0.77603	2.64906	0.776439	2.64901	0.607693	6.64375	0.878853	9.59217	0.382406	4.16283	0.800454	3.95475	0.957303	10.4202
0.77401	2.64928	0.774419	2.64924	0.609151	6.60286	0.879175	9.51392	0.38423	4.14714	0.79868	3.9614	0.95803	10.3395
0.771989	2.64951	0.772398	2.64946	0.610608	6.56263	0.879502	9.43705	0.386052	4.13169	0.79691	3.96812	0.958755	10.2601
0.769967	2.64973	0.770377	2.64969	0.612061	6.52305	0.879836	9.36153	0.387871	4.11647	0.795144	3.9749	0.95948	10.1821
0.767944	2.64995	0.768354	2.64991	0.613513	6.4841	0.880176	9.28733	0.389687	4.10147	0.793381	3.98177	0.960204	10.1053
0.765921	2.65017	0.766331	2.65013	0.614961	6.44577	0.880522	9.21443	0.3915	4.08668	0.791623	3.98871	0.960926	10.0298
0.763897	2.65039	0.764307	2.65034	0.616407	6.40804	0.880874	9.14278	0.39331	4.0721	0.789869	3.99572	0.961647	9.95552
0.761872	2.6506	0.762283	2.65056	0.61785	6.37089	0.881233	9.07235	0.395116	4.05772	0.78812	4.00282	0.962367	9.88241
0.759847	2.65082	0.760257	2.65078	0.61929	6.33431	0.881599	9.00313	0.396919	4.04354	0.786375	4.00999	0.963085	9.81046
0.757821	2.65103	0.758232	2.65099	0.620728	6.29828	0.881971	8.93508	0.398719	4.02955	0.784635	4.01725	0.963802	9.73964
0.755794	2.65125	0.756205	2.6512	0.622162	6.26279	0.882349	8.86817	0.400514	4.01574	0.7829	4.02459	0.964517	9.66992
0.753767	2.65146	0.754178	2.65142	0.623593	6.22784	0.882734	8.80238	0.402306	4.0021	0.78117	4.03202	0.965231	9.60128
0.751739	2.65167	0.75215	2.65163	0.625021	6.19339	0.883126	8.73768	0.404094	3.98864	0.779446	4.03954	0.965942	9.53368
0.749711	2.65188	0.750122	2.65184	0.626445	6.15945	0.883525	8.67405	0.405878	3.97535	0.777727	4.04715	0.966652	9.46712
0.747682	2.65209	0.748093	2.65205	0.627867	6.12599	0.883931	8.61146	0.407657	3.96222	0.776013	4.05485	0.96736	9.40155
0.745652	2.6523	0.746064	2.65226	0.629285	6.09302	0.884344	8.5499	0.409432	3.94925	0.774306	4.06264	0.968066	9.33695
0.743623	2.65251	0.744034	2.65247	0.630699	6.0605	0.884764	8.48933	0.411203	3.93643	0.772605	4.07053	0.96877	9.27331
0.741592	2.65272	0.742004	2.65268	0.63211	6.02845	0.885191	8.42974	0.412969	3.92376	0.770909	4.07852	0.969472	9.21061
0.739561	2.65293	0.739973	2.65289	0.633517	5.99683	0.885626	8.3711	0.41473	3.91123	0.769221	4.08661	0.970172	9.14881
0.73753	2.65314	0.737942	2.65309	0.634921	5.96565	0.886067	8.3134	0.416486	3.89884	0.767538	4.0948	0.970869	9.08791
0.735498	2.65334	0.73591	2.6533	0.63632	5.93489	0.886517	8.25662	0.418238	3.88659	0.765863	4.1031	0.971564	9.02787
0.733466	2.65355	0.733878	2.65351	0.637716	5.90455	0.886973	8.20073	0.419984	3.87447	0.764194	4.1115	0.972257	8.96868
0.731433	2.65375	0.731845	2.65371	0.639108	5.87461	0.887437	8.14571	0.421726	3.86248	0.762532	4.12002	0.972947	8.91033
0.7294	2.65396	0.729812	2.65392	0.640496	5.84506	0.887909	8.09156	0.423462	3.8506	0.760878	4.12864	0.973635	8.85279
0.727367	2.65417	0.727779	2.65412	0.64188	5.81589	0.888388	8.03825	0.425192	3.83886	0.75923	4.13738	0.97432	8.79604
0.725333	2.65437	0.725745	2.65433	0.64326	5.78711	0.888875	7.98576	0.426918	3.82722	0.757591	4.14624	0.975003	8.74008
0.723299	2.65458	0.723711	2.65454	0.644635	5.75869	0.88937	7.93407	0.428637	3.8157	0.755959	4.15522	0.975683	8.68487
0.721264	2.65478	0.721677	2.65474	0.646006	5.73063	0.889872	7.88318	0.430351	3.80429	0.754335	4.16431	0.976361	8.63041
0.71923	2.65499	0.719642	2.65495	0.647373	5.70292	0.890383	7.83306	0.432059	3.79299	0.752719	4.17353	0.977036	8.57668
0.717194	2.65519	0.717607	2.65515	0.648736	5.67555	0.890901	7.7837	0.433761	3.78179	0.751111	4.18288	0.977708	8.52366
0.715159	2.6554	0.715572	2.65536	0.650094	5.64852	0.891428	7.73509	0.435457	3.77069	0.749512	4.19236	0.978377	8.47134
0.713123	2.65561	0.713536	2.65556	0.651448	5.62182	0.891963	7.68721	0.437147	3.75969	0.747922	4.20197	0.979044	8.41971
0.711087	2.65581	0.7115	2.65577	0.652796	5.59544	0.892506	7.64004	0.438831	3.74878	0.74634	4.21172	0.979708	8.36875
0.709051	2.65602	0.709464	2.65598	0.654141	5.56937	0.893057	7.59357	0.440508	3.73797	0.744767	4.2216	0.980369	8.31844
0.707015	2.65622	0.707428	2.65618	0.65548	5.54361	0.893616	7.54779	0.44218	3.72724	0.743203	4.23162	0.981027	8.26878
0.704978	2.65643	0.705391	2.65639	0.656815	5.51815	0.894184	7.50269	0.443844	3.71661	0.741649	4.24179	0.981683	8.21975
0.702941	2.65664	0.703354	2.6566	0.658145	5.49298	0.89476	7.45825	0.445502	3.70605	0.740104	4.2521	0.982335	8.17134
0.700904	2.65685	0.701317	2.6568	0.65947	5.46811	0.895345	7.41445	0.447154	3.69558	0.738568	4.26256	0.982985	8.12354
0.698867	2.65706	0.69928	2.65701	0.66079	5.44351	0.895938	7.3713	0.448798	3.68519	0.737042	4.27318	0.983632	8.07633
0.69683	2.65727	0.697243	2.65722	0.662105	5.41919	0.89654	7.32877	0.450436	3.67488	0.735527	4.28395	0.984276	8.0297
0.694792	2.65747	0.695205	2.65743	0.663415	5.39514	0.89715	7.28686	0.452067	3.66465	0.734021	4.29488	0.984917	7.98365
0.692755	2.65769	0.693168	2.65764	0.66472	5.37136	0.897769	7.24555	0.453691	3.65448	0.732526	4.30597	0.985555	7.93815
0.690717	2.6579	0.69113	2.65785	0.66602	5.34783	0.898397	7.20482	0.455308	3.64439	0.731041	4.31722	0.986191	7.89321
0.688679	2.65811	0.689092	2.65807	0.667315	5.32456	0.899034	7.16469	0.456918	3.63437	0.729566	4.32864	0.986823	7.84881
0.686641	2.65832	0.687054	2.65828	0.668604	5.30154	0.899679	7.12512	0.458521	3.62442	0.728103	4.34024	0.987453	7.80493
0.684603	2.65854	0.685016	2.65849	0.669888	5.27876	0.900333	7.08611	0.460117	3.61454	0.72665	4.352	0.98808	7.76158
0.682565	2.65875	0.682978	2.65871	0.671167	5.25622	0.900996	7.04765	0.461705	3.60472	0.725208	4.36395	0.988704	7.71874
0.680527	2.65897	0.68094	2.65892	0.67244	5.23392	0.901669	7.00973	0.463286	3.59496	0.723778	4.37608	0.989325	7.6764
0.678488	2.65919	0.678901	2.65914	0.673708	5.21185	0.90235	6.97235	0.46486	3.58526	0.722359	4.38839	0.989944	7.63455
0.67645	2.6594	0.676863	2.65936	0.67497	5.19	0.90304	6.93548	0.466426	3.57563	0.720951	4.40089	0.99056	7.59319
0.674412	2.65962	0.674825	2.65958	0.676227	5.16837	0.903739	6.89913	0.467985	3.56605	0.719556	4.41359	0.991173	7.55231
0.672373	2.65984	0.672786	2.6598	0.677478	5.14696	0.904447	6.86328	0.469536	3.55653	0.718172	4.42648	0.991783	7.51188
0.670335	2.66007	0.670748	2.66002	0.678724	5.12576	0.905165	6.82792	0.47108	3.54707	0.7168	4.43957	0.992391	7.47192
0.668297	2.66029	0.66871	2.66025	0.679964	5.10477	0.905891	6.79305	0.472616	3.53766	0.71544	4.45286	0.992996	7.43241
0.666258	2.66052	0.666671	2.66047	0.681199	5.08398	0.906627	6.75866	0.474145	3.52831	0.714092	4.46636	0.993598	7.39335
0.66422	2.66074	0.664633	2.6607	0.682428	5.06339	0.907372	6.72474	0.475666	3.51901	0.712756	4.48007	0.994198	7.35472
0.662182	2.66097	0.662595	2.66093	0.683651	5.04301	0.908126	6.69128	0.47718	3.50976	0.711433	4.494	0.994795	7.31652
0.660144	2.6612	0.660557	2.66116	0.684868	5.02281	0.908889	6.65828	0.478685	3.50056	0.710123	4.50815	0.99539	7.27874
0.658106	2.66144	0.658519	2.66139	0.68608	5.00281	0.909662	6.62572	0.480184	3.49141	0.708825	4.52252	0.995982	7.24137
0.656068	2.66167	0.656481	2.66162	0.687286	4.98299	0.910444	6.59359	0.481674	3.48232	0.707541	4.53711	0.996572	7.20441
0.65403	2.66191	0.654443	2.66186	0.688486	4.96336	0.911235	6.5619	0.483157	3.47326	0.706269	4.55194	0.997159	7.16786
0.651992	2.66214	0.652405	2.6621	0.68968	4.9439	0.912035	6.53064	0.484633	3.46426	0.70501	4.56701	0.997744	7.1317
0.649954	2.66238	0.650367	2.66233	0.690869	4.92462	0.912845	6.49979	0.4861	3.4553	0.703765	4.58231	0.998327	7.09592
0.647917	2.66263	0.64833	2.66258	0.692052	4.90552	0.913664	6.46935	0.48756	3.44639	0.702532	4.59786	0.998908	7.06053
0.64588	2.66287	0.646292	2.66282	0.693229	4.88659	0.914493	6.43931	0.489013	3.43752	0.701313	4.61366	0.999486	7.02552
0.643842	2.66312	0.644255	2.66307	0.6944	4.86783	0.915331	6.40967	0.490458	3.4287	0.700108	4.62971	1.00006	6.99088
0.641805	2.66337	0.642218	2.66332	0.695565	4.84923	0.916178	6.38042	0.491895	3.41992	0.698916	4.64603		
0.639769	2.66362	0.640182	2.66357	0.696725	4.83079	0.917034	6.35155	0.493325	3.41119	0.697738	4.6626		
0.637732	2.66387	0.638145	2.66382	0.697879	4.81252	0.9179	6.32307	0.494747	3.4025	0.696573	4.67944		
0.635696	2.66413	0.636109	2.66408	0.699027	4.7944	0.918775	6.29495	0.496162	3.39385	0.695423	4.69655		
0.63366	2.66439	0.634073	2.66434	0.700169	4.77644	0.919659	6.26719	0.49757	3.38525	0.694286	4.71394		
0.631624	2.66465	0.632037	2.6646	0.701305	4.75863	0.920552	6.2398	0.49897	3.37668	0.693163	4.73162		
0.629589	2.66492	0.630001	2.66486	0.702435	4.74097	0.921455	6.21276	0.500363	3.36816	0.692054	4.74958		
0.627554	2.66519	0.627966	2.66513	0.70356	4.72345	0.922367	6.18607	0.501748	3.35968	0.690959	4.76783		
0.625519	2.66546	0.625931	2.6654	0.704679	4.70609	0.923289	6.15971	0.503127	3.35124	0.689878	4.78638		
0.623484	2.66573	0.623897	2.66568	0.705792	4.68886	0.924219	6.1337	0.504498	3.34284	0.688812	4.80523		
0.62145	2.66601	0.621863	2.66596	0.7069	4.67178	0.925159	6.10802	0.505862	3.33448	0.687759	4.82439		
0.619416	2.66629	0.619829	2.66624	0.708001	4.65484	0.926107	6.08266	0.507219	3.32616	0.686721	4.84386		
0.617383	2.66658	0.617795	2.66652	0.709097	4.63803	0.927065	6.05762	0.50857	3.31789	0.685697	4.86365		
0.61535	2.66687	0.615762	2.66681	0.710188	4.62136	0.928032	6.0329	0.509913	3.30965	0.684688	4.88377		
0.613318	2.66716	0.61373	2.6671	0.711272	4.60483	0.929008	6.00849	0.51125	3.30145	0.683693	4.90422		
0.611286	2.66746	0.611697	2.6674	0.712351	4.58842	0.929993	5.98438	0.51258	3.29329	0.682712	4.925		
0.609254	2.66776	0.609666	2.6677	0.713425	4.57215	0.930987	5.96057	0.513903	3.28518	0.681745	4.94612		
0.607223	2.66807	0.607634	2.668	0.714493	4.556	0.93199	5.93706	0.51522	3.2771	0.680793	4.96759		
0.605192	2.66838	0.605604	2.66831	0.715555	4.53998	0.933002	5.91384	0.516531	3.26906	0.679855	4.98942		
0.603162	2.66869	0.603574	2.66863	0.716612	4.52408	0.934022	5.89091	0.517835	3.26107	0.678932	5.0116		
0.601133	2.66901	0.601544	2.66895	0.717664	4.50831	0.935051	5.86826	0.519134	3.25311	0.678023	5.03415		
0.599104	2.66933	0.599515	2.66927	0.71871	4.49266	0.93609	5.84588	0.520426	3.2452	0.677128	5.05707		
0.597075	2.66966	0.597486	2.6696	0.719751	4.47713	0.937136	5.82378	0.521712	3.23732	0.676248	5.08038		
0.595048	2.67	0.595458	2.66993	0.720787	4.46172	0.938191	5.80195	0.522992	3.22948	0.675381	5.10406		
0.59302	2.67034	0.593431	2.67027	0.721817	4.44642	0.939255	5.78038	0.524267	3.22169	0.67453	5.12814		
0.590994	2.67068	0.591405	2.67061	0.722842	4.43124	0.940328	5.75907	0.525535	3.21394	0.673692	5.15262		
0.588968	2.67103	0.589379	2.67096	0.723862	4.41618	0.941409	5.73802	0.526799	3.20622	0.672869	5.17751		
0.586943	2.67139	0.587354	2.67132	0.724877	4.40123	0.942498	5.71722	0.528057	3.19855	0.67206	5.2028		
0.584919	2.67175	0.585329	2.67168	0.725887	4.38639	0.943595	5.69666	0.529309	3.19092	0.671265	5.22852		
0.582896	2.67212	0.583306	2.67204	0.726892	4.37166	0.944701	5.67635	0.530557	3.18333	0.670484	5.25467		
0.580873	2.67249	0.581283	2.67242	0.727892	4.35704	0.945815	5.65628	0.531799	3.17578	0.669717	5.28125		
0.578851	2.67288	0.579261	2.6728	0.728887	4.34253	0.946936	5.63645	0.533037	3.16827	0.668964	5.30827		
0.57683	2.67326	0.57724	2.67318	0.729877	4.32812	0.948066	5.61685	0.53427	3.1608	0.668225	5.33575		
0.57481	2.67366	0.57522	2.67358	0.730863	4.31382	0.949204	5.59748	0.535498	3.15338	0.6675	5.36369		
0.572791	2.67406	0.573201	2.67398	0.731844	4.29963	0.95035	5.57833	0.536721	3.146	0.666789	5.39209		
0.570773	2.67447	0.571182	2.67439	0.73282	4.28554	0.951503	5.55941	0.53794	3.13866	0.666092	5.42097		
0.568756	2.67489	0.569165	2.6748	0.733792	4.27155	0.952664	5.5407	0.539155	3.13136	0.665408	5.45033		
0.56674	2.67532	0.567149	2.67523	0.734759	4.25767	0.953833	5.52221	0.540366	3.1241	0.664738	5.48019		
0.564725	2.67575	0.565134	2.67566	0.735722	4.24388	0.955009	5.50393	0.541573	3.11689	0.664081	5.51055		
0.562712	2.67619	0.56312	2.6761	0.736681	4.2302	0.956193	5.48585	0.542776	3.10972	0.663438	5.54142		
0.560699	2.67665	0.561107	2.67655	0.737635	4.21661	0.957384	5.46798	0.543975	3.10259	0.662808	5.57281		
0.558688	2.67711	0.559095	2.67701	0.738585	4.20313	0.958582	5.45031	0.54517	3.09551	0.662191	5.60473		
0.556678	2.67758	0.557085	2.67748	0.739531	4.18973	0.959788	5.43284	0.546362	3.08847	0.661588	5.63719		
0.554669	2.67806	0.555076	2.67796	0.740473	4.17644	0.961	5.41557	0.547551	3.08147	0.660997	5.67021		
0.552662	2.67855	0.553068	2.67845	0.741411	4.16324	0.96222	5.39849	0.548736	3.07452	0.66042	5.70378		
0.550656	2.67905	0.551062	2.67895	0.742346	4.15014	0.963446	5.38159	0.549918	3.06761	0.659855	5.73793		
0.548651	2.67957	0.549057	2.67946	0.743276	4.13713	0.964679	5.36488	0.551098	3.06074	0.659304	5.77266		
0.546648	2.68009	0.547054	2.67998	0.744203	4.12421	0.965919	5.34836	0.552274	3.05392	0.658765	5.80798		
0.544646	2.68063	0.545052	2.68052	0.745126	4.11138	0.967166	5.33201	0.553448	3.04714	0.658238	5.84391		
0.542647	2.68117	0.543052	2.68106	0.746045	4.09865	0.968419	5.31584	0.554619	3.04041	0.657724	5.88045		
0.540649	2.68174	0.541053	2.68162	0.746961	4.086	0.969678	5.29985	0.555788	3.03372	0.657223	5.91763		
0.538652	2.68231	0.539057	2.68219	0.747874	4.07345	0.970944	5.28403	0.556954	3.02708	0.656733	5.95545		
0.536658	2.6829	0.537062	2.68278	0.748783	4.06098	0.972216	5.26837	0.558119	3.02048	0.656256	5.99392		
0.534665	2.6835	0.535069	2.68338	0.749689	4.04861	0.973494	5.25288	0.559281	3.01392	0.655791	6.03306		
0.532674	2.68412	0.533078	2.68399	0.750592	4.03632	0.974778	5.23756	0.560441	3.00741	0.655338	6.07288		
0.530686	2.68475	0.531089	2.68462	0.751491	4.02412	0.976067	5.22239	0.561599	3.00095	0.654896	6.1134		
0.528699	2.6854	0.529102	2.68526	0.752388	4.012	0.977363	5.20739	0.562756	2.99453	0.654466	6.15463		
0.526715	2.68606	0.527117	2.68592	0.753282	3.99997	0.978665	5.19253	0.563911	2.98816	0.654048	6.19658		
0.524733	2.68674	0.525134	2.6866	0.754173	3.98803	0.979972	5.17784	0.565065	2.98183	0.653641	6.23927		
0.522753	2.68744	0.523154	2.6873	0.755061	3.97617	0.981284	5.16329	0.566217	2.97555	0.653246	6.28272		
0.520776	2.68816	0.521176	2.68801	0.755947	3.9644	0.982602	5.14889	0.567369	2.96931	0.652861	6.32694		
0.518801	2.68889	0.519201	2.68874	0.75683	3.9527	0.983925	5.13464	0.568519	2.96312	0.652488	6.37194		
0.516829	2.68965	0.517229	2.6895	0.75771	3.94109	0.985253	5.12053	0.569668	2.95697	0.652126	6.41776		
0.51486	2.69043	0.515259	2.69027	0.758588	3.92957	0.986587	5.10656	0.570816	2.95087	0.651774	6.46439		
0.512894	2.69123	0.513292	2.69106	0.759464	3.91812	0.987925	5.09273	0.571964	2.94482	0.651433	6.51187		
0.510931	2.69205	0.511328	2.69188	0.760337	3.90676	0.989268	5.07904	0.573111	2.93881	0.651103	6.5602		
0.50897	2.69289	0.509367	2.69272	0.761208	3.89547	0.990616	5.06548	0.574257	2.93284	0.650783	6.60942		
0.507013	2.69376	0.50741	2.69358	0.762078	3.88427	0.991968	5.05205	0.575403	2.92692	0.650473	6.65953		
0.50506	2.69465	0.505456	2.69447	0.762945	3.87314	0.993325	5.03876	0.576549	2.92105	0.650174	6.71056		
0.50311	2.69557	0.503505	2.69539	0.76381	3.8621	0.994687	5.02559	0.577694	2.91523	0.649885	6.76254		
0.501163	2.69652	0.501558	2.69633	0.764673	3.85113	0.996053	5.01255	0.57884	2.90944	0.649605	6.81547		
0.499221	2.6975	0.499614	2.6973	0.765535	3.84024	0.997423	4.99963	0.579985	2.90371	0.649335	6.86939		
0.497282	2.6985	0.497675	2.6983	0.766395	3.82943	0.998797	4.98684	0.58113	2.89802	0.649075	6.92432		
0.495347	2.69954	0.495739	2.69933	0.767253	3.81869	1.00017	4.97416	0.582276	2.89237	0.648825	6.98028		
0.493417	2.70061	0.493808	2.70039	0.76811	3.80803			0.583422	2.88678	0.648583	7.03731		
0.491491	2.70171	0.491881	2.70149	0.768965	3.79745			0.584568	2.88122	0.648351	7.09541		
0.48957	2.70285	0.489959	2.70262	0.769819	3.78694			0.585715	2.87571	0.648128	7.15463		
0.487654	2.70403	0.488042	2.70379	0.770671	3.7765			0.586863	2.87025	0.647915	7.21498		
0.485743	2.70524	0.48613	2.70499	0.771523	3.76614			0.588011	2.86483	0.647709	7.2765		
0.483837	2.7065	0.484223	2.70624	0.772373	3.75586			0.58916	2.85946	0.647513	7.33922		
0.481936	2.70779	0.482321	2.70753	0.773222	3.74564			0.59031	2.85413	0.647325	7.40316		
0.480041	2.70913	0.480425	2.70886	0.774071	3.7355			0.591461	2.84885	0.647146	7.46837		
0.478153	2.71052	0.478535	2.71023	0.774918	3.72544			0.592612	2.84362	0.646975	7.53486		
0.47627	2.71195	0.476651	2.71166	0.775764	3.71544			0.593765	2.83842	0.646812	7.60269		
0.474394	2.71343	0.474774	2.71313	0.77661	3.70552			0.59492	2.83328	0.646657	7.67187		
0.472524	2.71497	0.472903	2.71465	0.777455	3.69566			0.596075	2.82817	0.64651	7.74246		
0.470662	2.71656	0.471039	2.71623	0.7783	3.68588			0.597232	2.82311	0.646371	7.81448		
0.468807	2.71821	0.469182	2.71787	0.779143	3.67617			0.59839	2.8181	0.646239	7.88798		
0.46696	2.71991	0.467333	2.71956	0.779987	3.66653			0.59955	2.81313	0.646115	7.963		
0.46512	2.72168	0.465492	2.72132	0.78083	3.65695			0.600711	2.8082	0.645998	8.03958		
0.463289	2.72352	0.46366	2.72314	0.781672	3.64745			0.601875	2.80332	0.645889	8.11777		
0.461466	2.72542	0.461835	2.72503	0.782515	3.63801			0.603039	2.79848	0.645786	8.19761		
0.459653	2.72739	0.46002	2.72699	0.783357	3.62864			0.604206	2.79369	0.64569	8.27915		
0.457849	2.72944	0.458214	2.72902	0.784199	3.61934			0.605375	2.78894	0.645602	8.36245		
0.456054	2.73156	0.456417	2.73113	0.785041	3.61011			0.606546	2.78423	0.64552	8.44754		
0.45427	2.73377	0.454631	2.73331	0.785883	3.60094			0.607718	2.77957	0.645444	8.5345		
0.452496	2.73606	0.452855	2.73559	0.786726	3.59184			0.608893	2.77495	0.645375	8.62337		
0.450733	2.73844	0.451089	2.73795	0.787568	3.58281			0.61007	2.77037	0.645312	8.71422		
0.448981	2.74091	0.449335	2.7404	0.78841	3.57384			0.611249	2.76584	0.645255	8.8071		
0.447241	2.74347	0.447593	2.74295	0.789253	3.56493			0.612431	2.76134	0.645205	8.90208		
0.445514	2.74614	0.445863	2.74559	0.790096	3.55609			0.613615	2.75689	0.64516	8.99923		
0.443799	2.74891	0.444145	2.74834	0.79094	3.54732			0.614801	2.75249	0.64512	9.09862		
0.442097	2.75179	0.442441	2.7512	0.791784	3.53861			0.61599	2.74812	0.645087	9.20033		
0.440409	2.75479	0.44075	2.75417	0.792628	3.52996			0.617182	2.7438	0.645059	9.30442		
0.438734	2.7579	0.439072	2.75726	0.793474	3.52137			0.618376	2.73952	0.645036	9.41098		
0.437074	2.76113	0.43741	2.76046	0.794319	3.51285			0.619573	2.73528	0.645018	9.52009		
0.435429	2.76449	0.435762	2.7638	0.795166	3.50439			0.620773	2.73108	0.645006	9.63185		
0.4338	2.76798	0.434129	2.76726	0.796013	3.49599			0.621976	2.72693	0.644998	9.74634		
0.432186	2.77161	0.432512	2.77086	0.796861	3.48766			0.623181	2.72281	0.644995	9.86366		
0.430589	2.77538	0.430912	2.77461	0.79771	3.47938			0.62439	2.71874	0.644997	9.96828		
0.429009	2.7793	0.429328	2.77849	0.79856	3.47117			0.625601	2.71471	0.645001	10.0593		
0.427445	2.78337	0.427761	2.78253	0.799411	3.46301			0.626816	2.71071	0.645006	10.1358		
0.425899	2.7876	0.426211	2.78673	0.800263	3.45492			0.628033	2.70676	0.645011	10.1972		
0.424372	2.79199	0.42468	2.79109	0.801116	3.44688			0.629254	2.70285	0.645015	10.2428		
0.422862	2.79655	0.423167	2.79561	0.80197	3.43891			0.630478	2.69898	0.64502	10.2851		
0.421372	2.80128	0.421672	2.8003	0.802826	3.43099			0.631706	2.69515	0.645023	10.3148		
0.4199	2.80619	0.420197	2.80518	0.803683	3.42313			0.632937	2.69136	0.645029	10.3615		
0.418448	2.81128	0.418741	2.81023	0.804541	3.41533			0.634171	2.68761	0.645038	10.4257		
0.417016	2.81655	0.417305	2.81547	0.8054	3.40759			0.635409	2.6839	0.64505	10.508		
0.415604	2.82202	0.415888	2.8209	0.806261	3.39991			0.63665	2.68023	0.645067	10.6094		
0.414212	2.82769	0.414492	2.82653	0.807123	3.39228			0.637895	2.6766	0.64509	10.7309		
0.412841	2.83356	0.413117	2.83236	0.807987	3.38471			0.639144	2.67301	0.64512	10.8738		
0.41149	2.83964	0.411762	2.83839	0.808852	3.37719			0.640397	2.66945	0.645153	11.0206		
0.41016	2.84593	0.410428	2.84463	0.809719	3.36973			0.641653	2.66594	0.64519	11.1715		
0.408852	2.85243	0.409115	2.8511	0.810588	3.36233			0.642913	2.66246	0.64523	11.3266		
0.407564	2.85916	0.407823	2.85778	0.811458	3.35498			0.644177	2.65903	0.645273	11.4862		
0.406298	2.86611	0.406553	2.86468	0.81233	3.34769			0.645445	2.65563	0.64532	11.6503		
0.405053	2.87328	0.405304	2.87181	0.813204	3.34045			0.646718	2.65227	0.645369	11.8192		
0.40383	2.8807	0.404076	2.87918	0.81408	3.33327			0.647994	2.64895	0.645421	11.9931		
0.402628	2.88835	0.40287	2.88678	0.814958	3.32614			0.649275	2.64567	0.645477	12.1723		
0.401447	2.89624	0.401685	2.89462	0.815838	3.31906			0.65056	2.64243	0.645534	12.3568		
0.400288	2.90437	0.400521	2.9027	0.816719	3.31204			0.651849	2.63923	0.645594	12.5471		
0.39915	2.91276	0.399379	2.91104	0.817603	3.30507			0.653143	2.63606	0.645657	12.7433		
0.398033	2.92139	0.398257	2.91962	0.818488	3.29815			0.654441	2.63293	0.645722	12.9458		
0.396937	2.93029	0.397158	2.92846	0.819376	3.29128			0.655744	2.62984	0.645788	13.1548		
0.395863	2.93944	0.396079	2.93757	0.820266	3.28447			0.657052	2.62679	0.645857	13.3707		
0.394809	2.94886	0.395021	2.94693	0.821158	3.27771			0.658364	2.62378	0.645928	13.5938		
0.393777	2.95855	0.393984	2.95656	0.822053	3.271			0.659682	2.62081	0.646	13.8244		
0.392765	2.96851	0.392968	2.96647	0.822949	3.26434			0.661004	2.61787	0.646074	14.0629		
0.391773	2.97874	0.391973	2.97665	0.823848	3.25773			0.662331	2.61497	0.64615	14.3098		
0.390802	2.98926	0.390998	2.9871	0.824749	3.25117			0.663664	2.61211	0.646226	14.5655		
0.389852	3.00006	0.390043	2.99784	0.825653	3.24466			0.665002	2.60929	0.646304	14.8305		
0.388921	3.01114	0.389108	3.00887	0.826559	3.2382			0.666345	2.60651	0.646384	15.1053		
0.388011	3.02252	0.388194	3.02019	0.827468	3.23179			0.667694	2.60376	0.646464	15.3903		
0.38712	3.03419	0.387299	3.0318	0.828379	3.22543			0.669048	2.60106	0.646545	15.6863		
0.386249	3.04617	0.386424	3.04371	0.829292	3.21911			0.670408	2.59839	0.646626	15.9938		
0.385398	3.05844	0.385569	3.05593	0.830209	3.21285			0.671774	2.59576	0.646709	16.3136		
0.384566	3.07103	0.384733	3.06845	0.831127	3.20663			0.673146	2.59318	0.646792	16.6464		
0.383753	3.08393	0.383916	3.08129	0.832049	3.20047			0.674524	2.59063	0.646875	16.9929		
0.382959	3.09715	0.383118	3.09444	0.832973	3.19435			0.675909	2.58812	0.646959	17.354		
0.382184	3.11069	0.382339	3.10792	0.8339	3.18827			0.6773	2.58565	0.647042	17.7308		
0.381427	3.12456	0.381579	3.12172	0.834829	3.18225			0.678697	2.58322	0.647126	18.1242		
0.380689	3.13876	0.380837	3.13586	0.835762	3.17627			0.680101	2.58083	0.64721	18.5353		
0.37997	3.1533	0.380114	3.15033	0.836697	3.17033			0.681513	2.57848	0.647294	18.9654		
0.379269	3.16819	0.37941	3.16514	0.837635	3.16444			0.682931	2.57617	0.647377	19.4158		
0.378586	3.18342	0.378723	3.18031	0.838576	3.1586			0.684357	2.5739	0.647461	19.8879		
0.377921	3.19901	0.378055	3.19583	0.839519	3.15281			0.68579	2.57167	0.647543	20.3835		
0.377274	3.21497	0.377404	3.2117	0.840466	3.14706			0.687231	2.56949	0.647625	20.9042		
0.376645	3.23129	0.376771	3.22795	0.841416	3.14135			0.68868	2.56735	0.647707	21.4521		
0.376034	3.24798	0.376156	3.24457	0.842369	3.13569			0.690137	2.56525	0.647787	22.0293		
0.37544	3.26506	0.375559	3.26157	0.843324	3.13007			0.691602	2.5632	0.647867	22.6382		
0.374863	3.28252	0.374979	3.27895	0.844283	3.1245			0.693076	2.56118	0.647946	23.2815		
0.374304	3.30038	0.374416	3.29673	0.845245	3.11897			0.694559	2.55922	0.648024	23.9623		
0.373762	3.31865	0.373871	3.31491	0.84621	3.11348			0.696051	2.5573	0.648101	24.6839		
0.373237	3.33732	0.373342	3.3335	0.847179	3.10804			0.697553	2.55542	0.648176	25.45		
0.372729	3.35641	0.372831	3.35251	0.84815	3.10264			0.699064	2.55359	0.64825	26.265		
0.372239	3.37593	0.372337	3.37194	0.849125	3.09729			0.700585	2.5518	0.648323	27.1336		
0.371765	3.39588	0.371859	3.3918	0.850103	3.09197			0.702116	2.55007	0.648394	28.0613		
0.371307	3.41628	0.371399	3.41211	0.851084	3.0867			0.703657	2.54838	0.648464	29.0545		
0.370867	3.43713	0.370955	3.43286	0.852069	3.08147			0.705209	2.54674	0.648532	30.1202		
0.370443	3.45844	0.370527	3.45408	0.853057	3.07629			0.706773	2.54514	0.648598	31.2667		
0.370035	3.48022	0.370117	3.47576	0.854048	3.07114			0.708347	2.5436	0.648662	32.5036		
0.369644	3.50248	0.369722	3.49793	0.855043	3.06604			0.709933	2.54211	0.648725	33.8421		
0.36927	3.52523	0.369344	3.52058	0.856041	3.06097			0.711531	2.54067	0.648786	35.2951		
0.368912	3.54848	0.368983	3.54373	0.857043	3.05595			0.713141	2.53927	0.648844	36.878		
0.36857	3.57225	0.368638	3.56739	0.858048	3.05097			0.714763	2.53793	0.648901	38.6091		
0.368244	3.59654	0.368308	3.59158	0.859057	3.04603			0.716397	2.53664	0.648955	40.5103		
0.367934	3.62137	0.367996	3.61629	0.860069	3.04113			0.718044	2.53541	0.649007	42.608		
0.36764	3.64674	0.367699	3.64155	0.861085	3.03626			0.719704	2.53422	0.649057	44.9341		
0.367363	3.67267	0.367418	3.66737	0.862105	3.03144			0.721377	2.53309	0.649105	47.5284		
0.367101	3.69918	0.367153	3.69376	0.863128	3.02666			0.723063	2.53201	0.64915	50.4398		
0.366855	3.72627	0.366904	3.72073	0.864155	3.02192			0.724762	2.53098	0.649193	53.7306		
0.366625	3.75396	0.366671	3.74829	0.865185	3.01721			0.726474	2.53	0.649233	57.48		
0.366411	3.78226	0.366453	3.77647	0.86622	3.01255			0.7282	2.52908	0.649271	61.7911		
0.366213	3.81119	0.366252	3.80527	0.867258	3.00792			0.729939	2.5282	0.649306	66.8005		
0.36603	3.84076	0.366066	3.83471	0.8683	3.00333			0.731692	2.52738	0.649339	72.6927		
0.365863	3.87099	0.365895	3.86481	0.869346	2.99878			0.733457	2.52661	0.649369	79.7238		
0.365711	3.90189	0.365741	3.89557	0.870396	2.99427			0.735236	2.52588	0.649396	88.2595		
0.365575	3.93349	0.365601	3.92703	0.871449	2.9898			0.737028	2.52521	0.649421	98.8407		
0.365454	3.96579	0.365477	3.95918	0.872507	2.98536			0.738832	2.52458	0.649443	112.303		
0.365349	3.99882	0.365369	3.99206	0.873568	2.98096			0.740649	2.524	0.649462	130.009		
0.365259	4.03259	0.365276	4.02568	0.874634	2.9766			0.742479	2.52346	0.649479	154.34		
0.365185	4.06712	0.365199	4.06006	0.875704	2.97227			0.744321	2.52297	0.649492	189.872		
0.365125	4.10244	0.365136	4.09522	0.876777	2.96799			0.746174	2.52252	0.649503	246.655		
0.365081	4.13856	0.365089	4.13117	0.877855	2.96373			0.74804	2.52211	0.649511	351.881		
0.365052	4.1755	0.365057	4.16795	0.878937	2.95952			0.749916	2.52174	0.649517	613.679		
0.365039	4.21329	0.36504	4.20556	0.880024	2.95534			0.751803	2.52141	0.649519	2396.99		
0.36504	4.25195	0.365038	4.24404	0.881114	2.9512			0.753702	2.52112				
0.365056	4.2915	0.365052	4.28341	0.882209	2.94709			0.75561	2.52086				
0.365088	4.33197	0.36508	4.32369	0.883308	2.94302			0.757528	2.52064				
0.365134	4.37338	0.365123	4.36491	0.884411	2.93899			0.759456	2.52045				
0.365195	4.41576	0.365181	4.40709	0.885519	2.93499			0.761393	2.52029				
0.36527	4.45913	0.365254	4.45026	0.886631	2.93103			0.763338	2.52017				
0.365361	4.50353	0.365341	4.49444	0.887747	2.9271			0.765292	2.52007				
0.365466	4.54897	0.365444	4.53968	0.888868	2.9232			0.767255	2.51999				
0.365586	4.59551	0.365561	4.58599	0.889994	2.91935			0.769225	2.51995				
0.365721	4.64316	0.365692	4.63341	0.891124	2.91552			0.771202	2.51992				
0.36587	4.69196	0.365838	4.68197	0.892259	2.91173			0.773187	2.51992				
0.366033	4.74194	0.365999	4.73171	0.893398	2.90798			0.775178	2.51995				
0.366211	4.79314	0.366174	4.78266	0.894542	2.90426			0.777176	2.51999				
0.366403	4.84559	0.366363	4.83486	0.895691	2.90057			0.77918	2.52005				
0.36661	4.89934	0.366567	4.88834	0.896845	2.89692			0.781189	2.52014				
0.366831	4.95443	0.366785	4.94315	0.898003	2.89331			0.783205	2.52024				
0.367066	5.01089	0.367017	4.99933	0.899167	2.88972			0.785225	2.52035				
0.367282	5.06126	0.367263	5.05693	0.900335	2.88617			0.787251	2.52048				
0.367475	5.10506	0.367523	5.11598	0.901508	2.88266			0.789282	2.52063				
0.36764	5.14191	0.367798	5.17654	0.902686	2.87918			0.791317	2.52079				
0.367774	5.17145	0.368086	5.23865	0.90387	2.87573			0.793356	2.52096				
0.367875	5.19341	0.368388	5.30238	0.905058	2.87231			0.7954	2.52115				
0.36797	5.21379	0.368704	5.36776	0.906252	2.86893			0.797448	2.52135				
0.368036	5.22806	0.369033	5.43486	0.907451	2.86559			0.799499	2.52156				
0.368142	5.25054	0.369377	5.50374	0.908655	2.86227			0.801554	2.52177				
0.368288	5.28143	0.369734	5.57446	0.909865	2.85899			0.803612	2.522				
0.368478	5.32106	0.370104	5.64709	0.91108	2.85574			0.805674	2.52224				
0.368714	5.36983	0.370488	5.72169	0.912301	2.85253			0.807739	2.52248				
0.369001	5.42826	0.370885	5.79834	0.913527	2.84935			0.809806	2.52274				
0.369343	5.49696	0.371296	5.87711	0.914758	2.8462			0.811876	2.523				
0.369698	5.5675	0.37172	5.95808	0.915996	2.84308			0.813949	2.52327				
0.370067	5.63994	0.372157	6.04133	0.917239	2.84			0.816025	2.52354				
0.37045	5.71435	0.372607	6.12696	0.918488	2.83695			0.818103	2.52382				
0.370846	5.79079	0.37307	6.21504	0.919743	2.83393			0.820183	2.52411				
0.371255	5.86935	0.373546	6.30569	0.921003	2.83095			0.822265	2.5244				
0.371678	5.9501	0.374035	6.399	0.92227	2.828			0.82435	2.52469				
0.372113	6.03313	0.374536	6.49508	0.923543	2.82508			0.826436	2.52499				
0.372562	6.11852	0.375051	6.59404	0.924822	2.82219			0.828524	2.5253				
0.373024	6.20636	0.375578	6.69601	0.926107	2.81934			0.830614	2.52561				
0.373499	6.29675	0.376117	6.8011	0.927398	2.81652			0.832706	2.52592				
0.373986	6.3898	0.376669	6.90947	0.928696	2.81373			0.8348	2.52624				
0.374487	6.4856	0.377233	7.02123	0.93	2.81098			0.836895	2.52655				
0.375	6.58428	0.37781	7.13656	0.931311	2.80826			0.838991	2.52688				
0.375526	6.68595	0.378398	7.2556	0.932628	2.80557			0.841089	2.5272				
0.376064	6.79074	0.378999	7.37852	0.933953	2.80291			0.843188	2.52753				
0.376615	6.89877	0.379612	7.50551	0.935283	2.80029			0.845289	2.52786				
0.377178	7.0102	0.380237	7.63676	0.936621	2.7977			0.84739	2.52819				
0.377753	7.12517	0.380873	7.77246	0.937966	2.79514			0.849493	2.52852				
0.378341	7.24385	0.381522	7.91284	0.939318	2.79261			0.851597	2.52886				
0.37894	7.36638	0.382182	8.05813	0.940676	2.79012			0.853702	2.5292				
0.379552	7.49297	0.382853	8.20857	0.942043	2.78766			0.855808	2.52953				
0.380176	7.62379	0.383536	8.36443	0.943416	2.78524			0.857915	2.52987				
0.380811	7.75906	0.38423	8.52599	0.944796	2.78284			0.860023	2.53022				
0.381458	7.89897	0.384936	8.69354	0.946185	2.78048			0.862132	2.53056				
0.382117	8.04377	0.385653	8.86742	0.94758	2.77816			0.864242	2.5309				
0.382787	8.1937	0.38638	9.04797	0.948984	2.77586			0.866352	2.53124				
0.383469	8.34902	0.387023	9.21104	0.950395	2.7736			0.868464	2.53159				
0.384162	8.51001	0.387578	9.35447	0.951814	2.77137			0.870576	2.53193				
0.384867	8.67697	0.388041	9.47628	0.95324	2.76918			0.872688	2.53228				
0.385582	8.85021	0.38841	9.57472	0.954675	2.76702			0.874802	2.53262				
0.386309	9.0301	0.388683	9.64834	0.956118	2.76489			0.876916	2.53297				
0.387047	9.21699	0.388936	9.71701	0.957568	2.76279			0.87903	2.53332				
0.387795	9.41129	0.389112	9.76532	0.959027	2.76073			0.881146	2.53366				
0.388554	9.61343	0.389388	9.84172	0.960495	2.7587			0.883261	2.53401				
0.389324	9.82386	0.389766	9.94744	0.96197	2.7567			0.885378	2.53435				
0.390104	10.0431	0.390248	10.0842	0.963454	2.75474			0.887494	2.5347				
0.390895	10.2717	0.390836	10.2544	0.964946	2.75281			0.889612	2.53505				
0.391696	10.5102	0.391533	10.461	0.966447	2.75091			0.891729	2.53539				
0.392507	10.7593	0.392342	10.7079	0.967957	2.74905			0.893848	2.53574				
0.393328	11.0197	0.393161	10.9659	0.969475	2.74722			0.895966	2.53608				
0.394159	11.2921	0.39399	11.2358	0.971002	2.74542			0.898085	2.53643				
0.395	11.5773	0.394829	11.5184	0.972537	2.74365			0.900205	2.53677				
0.395851	11.8763	0.395677	11.8146	0.974082	2.74191			0.902324	2.53712				
0.396711	12.1901	0.396536	12.1253	0.975635	2.74021			0.904444	2.53746				
0.39758	12.5198	0.397403	12.4516	0.977196	2.73854			0.906565	2.5378				
0.398459	12.8665	0.39828	12.7948	0.978767	2.7369			0.908685	2.53814				
0.399346	13.2316	0.399166	13.156	0.980346	2.7353			0.910806	2.53848				
0.400243	13.6165	0.40006	13.5368	0.981935	2.73372			0.912928	2.53882				
0.401148	14.023	0.400964	13.9388	0.983532	2.73218			0.915049	2.53916				
0.402062	14.4528	0.401876	14.3637	0.985138	2.73067			0.917171	2.5395				
0.402984	14.9079	0.402797	14.8135	0.986752	2.72919			0.919293	2.53984				
0.403915	15.3906	0.403725	15.2904	0.988376	2.72774			0.921415	2.54018				
0.404853	15.9036	0.404662	15.797	0.990008	2.72632			0.923538	2.54051				
0.405799	16.4495	0.405607	16.336	0.991649	2.72493			0.92566	2.54085				
0.406753	17.0318	0.406559	16.9107	0.993299	2.72357			0.927783	2.54118				
0.407714	17.6542	0.407518	17.5246	0.994957	2.72224			0.929906	2.54152				
0.408682	18.3207	0.408485	18.1818	0.996624	2.72094			0.932029	2.54185				
0.409656	19.0364	0.409458	18.8871	0.998299	2.71966			0.934152	2.54218				
0.410637	19.8067	0.410437	19.6458	0.999983	2.71842			0.936276	2.54251				
0.411623	20.6381	0.411423	20.4643	1.00168	2.7172			0.938399	2.54284				
0.412616	21.5382	0.412414	21.3498					0.940523	2.54317				
0.413613	22.5157	0.41341	22.3109					0.942647	2.54349				
0.414614	23.5811	0.414411	23.3575					0.94477	2.54382				
0.41562	24.7465	0.415416	24.5015					0.946894	2.54415				
0.416629	26.0268	0.416424	25.7572					0.949019	2.54447				
0.41764	27.4398	0.417435	27.1417					0.951143	2.54479				
0.418653	29.007	0.418447	28.6757					0.953267	2.54511				
0.419665	30.7551	0.41946	30.3847					0.955391	2.54543				
0.420677	32.7173	0.420472	32.3004					0.957515	2.54575				
0.421687	34.9352	0.421482	34.4626					0.95964	2.54607				
0.422692	37.4624	0.422488	36.922					0.961764	2.54639				
0.42369	40.368	0.423488	39.7444					0.963888	2.5467				
0.424678	43.744	0.424479	43.0163					0.966013	2.54701				
0.425653	47.7146	0.425457	46.8542					0.968137	2.54733				
0.426611	52.4517	0.426418	51.419					0.970261	2.54764				
0.427545	58.2013	0.427358	56.9387					0.972386	2.54795				
0.428449	65.3269	0.428269	63.748					0.97451	2.54826				
0.429315	74.3902	0.429143	72.3592					0.976635	2.54857				
0.430129	86.3074	0.429969	83.5978					0.978759	2.54887				
0.43088	102.682	0.430734	98.8857					0.980883	2.54918				
0.431549	126.597	0.431421	120.899					0.983008	2.54948				
0.432117	164.841	0.432011	155.343					0.985132	2.54978				
0.432562	235.859	0.432483	216.936					0.987256	2.55008				
0.432863	413.604	0.432815	358.833					0.98938	2.55038				
0.433003	1670.94	0.432989	1034.01					0.991504	2.55068				
								0.993628	2.55098				
								0.995752	2.55127				
								0.997876	2.55157				
								1	2.55186				
