Sym0		Asym0		Sym1		Sym2		Sym3		Sym4		Asym1		Asym2		Asym3	
467  Points		493  Points		202  Points		152  Points		130  Points		100  Points		348  Points		166  Points		133  Points	
Freq (MHz)	Vph (m/ms)	Freq (MHz)	Vph (m/ms)	Freq (MHz)	Vph (m/ms)	Freq (MHz)	Vph (m/ms)	Freq (MHz)	Vph (m/ms)	Freq (MHz)	Vph (m/ms)	Freq (MHz)	Vph (m/ms)	Freq (MHz)	Vph (m/ms)	Freq (MHz)	Vph (m/ms)
0.00161787	6.87828	0.000334119	0.182233	0.27952	670.236	0.482062	2548.36	0.559047	642.994	0.838533	1454.14	0.139864	178.701	0.419275	812.174	0.698779	1352.14
0.00802609	6.87807	0.000755836	0.273342	0.279624	207.322	0.482096	430.113	0.559145	310.44	0.838579	555.959	0.140278	81.8252	0.419361	289.627	0.698828	482.454
0.0144329	6.87736	0.00134088	0.362709	0.279839	122.713	0.48218	234.917	0.559313	204.664	0.838665	343.709	0.140998	53.2861	0.419529	176.3	0.698926	293.644
0.0208372	6.87628	0.00208226	0.449873	0.280164	87.2206	0.482314	161.62	0.559548	152.693	0.838793	248.772	0.142018	39.6947	0.419778	126.77	0.69907	211.08
0.0272379	6.8748	0.0029713	0.534383	0.280598	67.7148	0.482497	123.213	0.559852	121.807	0.838961	194.952	0.143328	31.784	0.420108	99.0115	0.699262	164.781
0.0336339	6.8729	0.00399845	0.615909	0.281141	55.3916	0.48273	99.5805	0.560224	101.345	0.839169	160.296	0.144919	26.634	0.420519	81.2641	0.699501	135.162
0.040024	6.87062	0.0051533	0.694175	0.281792	46.909	0.483014	83.576	0.560665	86.7954	0.839419	136.119	0.146779	23.032	0.42101	68.9457	0.699788	114.588
0.046407	6.86791	0.0064252	0.768994	0.28255	40.7196	0.483348	72.023	0.561173	75.9233	0.839709	118.294	0.148896	20.384	0.421582	59.9	0.700121	99.4679
0.0527818	6.86479	0.00780356	0.840265	0.283413	36.009	0.483734	63.2934	0.561748	67.4934	0.840039	104.61	0.151254	18.3645	0.422234	52.9793	0.700501	87.8883
0.0591472	6.86125	0.0092779	0.907932	0.28438	32.3075	0.484172	56.4671	0.562391	60.7681	0.840411	93.7759	0.153842	16.7804	0.422966	47.5163	0.700928	78.7379
0.0655019	6.85728	0.0108382	0.971995	0.28545	29.3251	0.484663	50.9843	0.5631	55.2796	0.840822	84.9865	0.156644	15.5099	0.423776	43.0965	0.701402	71.3261
0.0718445	6.85287	0.0124748	1.0325	0.286622	26.8732	0.485207	46.4855	0.563876	50.717	0.841274	77.7137	0.159647	14.4722	0.424665	39.4491	0.701923	65.2015
0.0781738	6.84801	0.0141792	1.08955	0.287892	24.8239	0.485805	42.7288	0.564717	46.8654	0.841767	71.5971	0.162838	13.6118	0.425631	36.3894	0.70249	60.0566
0.0844884	6.84269	0.0159431	1.14324	0.28926	23.0871	0.486459	39.5456	0.565625	43.5717	0.842299	66.3819	0.166204	12.8893	0.426675	33.7873	0.703104	55.6745
0.0907869	6.8369	0.0177591	1.19371	0.290724	21.5979	0.487169	36.815	0.566597	40.7238	0.842872	61.8831	0.169732	12.2759	0.427795	31.5484	0.703764	51.898
0.0970677	6.83063	0.0196207	1.24112	0.292282	20.308	0.487935	34.4475	0.567633	38.2377	0.843484	57.9632	0.173411	11.7502	0.428991	29.6026	0.704469	48.6102
0.103329	6.82387	0.0215218	1.28561	0.293932	19.181	0.48876	32.3762	0.568734	36.0493	0.844137	54.5175	0.17723	11.2959	0.430261	27.8967	0.705221	45.7226
0.10957	6.81658	0.0234571	1.32734	0.295672	18.1886	0.489645	30.5494	0.569898	34.1088	0.84483	51.4655	0.18118	10.9003	0.431606	26.3898	0.706019	43.1668
0.115788	6.80878	0.0254219	1.36648	0.297499	17.309	0.49059	28.9268	0.571126	32.3768	0.845562	48.7435	0.18472	10.5957	0.433024	25.0495	0.706862	40.8891
0.121982	6.80042	0.0274121	1.40318	0.299412	16.5245	0.491596	27.4767	0.572415	30.822	0.846333	46.3012	0.187805	10.3614	0.434515	23.8503	0.70775	38.8468
0.12815	6.7915	0.0294239	1.4376	0.301409	15.8212	0.492666	26.1735	0.573766	29.4189	0.847144	44.0979	0.190401	10.183	0.436077	22.7715	0.708683	37.0056
0.134289	6.782	0.0314544	1.46989	0.303488	15.1876	0.4938	24.9965	0.575179	28.1467	0.847995	42.1003	0.192481	10.051	0.437709	21.7963	0.709662	35.3375
0.140398	6.77188	0.0332367	1.49641	0.305647	14.6142	0.494999	23.9287	0.576652	26.9883	0.848884	40.2812	0.194025	9.9586	0.439411	20.9108	0.710684	33.8194
0.146475	6.76114	0.0347642	1.51788	0.307883	14.0933	0.496265	22.9559	0.578185	25.9294	0.849813	38.618	0.195019	9.90142	0.441181	20.1037	0.711752	32.4323
0.152516	6.74974	0.0360324	1.5349	0.310197	13.6184	0.497599	22.0666	0.579778	24.958	0.85078	37.0915	0.196457	9.82178	0.443019	19.3653	0.712863	31.16
0.158521	6.73766	0.0370381	1.5479	0.312585	13.184	0.499003	21.2509	0.581429	24.064	0.851786	35.6858	0.198032	9.73848	0.444923	18.6875	0.714018	29.9892
0.164485	6.72486	0.037779	1.55721	0.315047	12.7854	0.500478	20.5003	0.583138	23.2386	0.852831	34.3873	0.200191	9.63035	0.446893	18.0633	0.715217	28.9083
0.170407	6.71133	0.0382538	1.56306	0.317581	12.4187	0.502025	19.8077	0.584905	22.4746	0.853914	33.1844	0.20295	9.50149	0.448926	17.487	0.716458	27.9076
0.176284	6.69703	0.0389372	1.57133	0.320187	12.0805	0.503645	19.167	0.586729	21.7654	0.855034	32.0669	0.206328	9.35645	0.451024	16.9534	0.717743	26.9785
0.182112	6.68192	0.039681	1.58013	0.322862	11.7677	0.50534	18.573	0.588609	21.1057	0.856193	31.0262	0.210344	9.19985	0.453183	16.4582	0.719071	26.1139
0.187888	6.66598	0.0406943	1.59179	0.325607	11.478	0.507111	18.021	0.590545	20.4906	0.85739	30.0549	0.215019	9.03611	0.455404	15.9975	0.720441	25.3074
0.193609	6.64917	0.0419781	1.60605	0.328422	11.2091	0.508959	17.507	0.592536	19.9158	0.858624	29.1462	0.219761	8.8874	0.457684	15.5681	0.721853	24.5534
0.199272	6.63146	0.0435338	1.62261	0.331305	10.959	0.510886	17.0276	0.594581	19.3778	0.859896	28.2945	0.224563	8.75185	0.460023	15.167	0.723307	23.8471
0.204872	6.6128	0.0453625	1.64111	0.333874	10.7551	0.512892	16.5796	0.596681	18.8731	0.861205	27.4947	0.229422	8.62793	0.46242	14.7917	0.724803	23.1842
0.210407	6.59317	0.0474654	1.66119	0.336105	10.5909	0.514978	16.1603	0.598833	18.399	0.86255	26.7422	0.234333	8.51428	0.464874	14.4398	0.726339	22.561
0.215872	6.57253	0.049572	1.68013	0.337979	10.4613	0.517146	15.7674	0.601039	17.9528	0.863933	26.0331	0.239291	8.40975	0.467384	14.1095	0.727917	21.9741
0.221263	6.55084	0.0516815	1.69801	0.339479	10.3625	0.519396	15.3986	0.603296	17.5324	0.865352	25.3637	0.244293	8.31334	0.469947	13.7987	0.729534	21.4205
0.226576	6.52808	0.0537934	1.7149	0.340592	10.292	0.521729	15.052	0.605606	17.1355	0.866807	24.731	0.249336	8.22419	0.472565	13.5061	0.731192	20.8975
0.231807	6.5042	0.055907	1.73087	0.34131	10.2477	0.524146	14.7259	0.607966	16.7605	0.868298	24.1321	0.254415	8.14152	0.475235	13.2301	0.73289	20.4027
0.236953	6.47919	0.0580218	1.74598	0.342348	10.1853	0.526647	14.4187	0.610378	16.4056	0.869825	23.5644	0.259528	8.06469	0.477956	12.9695	0.734627	19.934
0.242008	6.45302	0.0601376	1.7603	0.343484	10.1189	0.529233	14.1291	0.612839	16.0693	0.871388	23.0255	0.264672	7.99311	0.480727	12.723	0.736404	19.4895
0.246969	6.42567	0.0622539	1.77387	0.345045	10.0312	0.531904	13.8558	0.61535	15.7504	0.872986	22.5135	0.269843	7.92626	0.483548	12.4897	0.738219	19.0674
0.251832	6.39713	0.0643704	1.78674	0.347042	9.92411	0.53466	13.5975	0.617911	15.4475	0.87462	22.0264	0.275039	7.86369	0.486417	12.2686	0.740072	18.6661
0.256594	6.36739	0.066487	1.79897	0.349495	9.80027	0.537502	13.3534	0.62052	15.1597	0.876288	21.5624	0.280258	7.80498	0.489333	12.0587	0.741964	18.2841
0.261251	6.33646	0.0686034	1.81059	0.352422	9.66239	0.540428	13.1224	0.623178	14.8858	0.87799	21.1201	0.285497	7.74979	0.492296	11.8595	0.743893	17.9202
0.2658	6.30433	0.0707195	1.82165	0.355852	9.5134	0.54344	12.9036	0.625883	14.6249	0.879728	20.698	0.290753	7.69779	0.495304	11.67	0.745859	17.5732
0.270238	6.27103	0.0728352	1.83217	0.359357	9.37362	0.546536	12.6962	0.628637	14.3763	0.881499	20.2948	0.296025	7.64869	0.498357	11.4897	0.747862	17.2419
0.274565	6.23658	0.0749503	1.8422	0.362938	9.24243	0.549716	12.4996	0.631438	14.1391	0.883304	19.9093	0.301309	7.60223	0.501453	11.318	0.749902	16.9253
0.278776	6.20101	0.0770647	1.85177	0.366598	9.11926	0.552979	12.3129	0.634286	13.9126	0.885143	19.5404	0.306606	7.55818	0.504592	11.1543	0.751978	16.6227
0.282873	6.16438	0.0791785	1.8609	0.370337	9.00359	0.556325	12.1357	0.637181	13.6962	0.887015	19.1871	0.311911	7.51633	0.507362	11.0177	0.75409	16.333
0.286853	6.12673	0.0812915	1.86962	0.374156	8.89495	0.559753	11.9672	0.640123	13.4893	0.88892	18.8485	0.317223	7.47649	0.509747	10.9056	0.756238	16.0555
0.290718	6.08812	0.0834037	1.87796	0.378056	8.79291	0.563261	11.807	0.643112	13.2913	0.890859	18.5236	0.322541	7.43849	0.511737	10.8158	0.75842	15.7895
0.294467	6.04862	0.0855151	1.88594	0.382037	8.69705	0.566849	11.6546	0.646146	13.1017	0.892829	18.2118	0.327863	7.40217	0.513321	10.7465	0.760638	15.5343
0.298102	6.00831	0.0876257	1.89357	0.3861	8.60698	0.570515	11.5095	0.649228	12.9201	0.894832	17.9122	0.333187	7.36739	0.514492	10.6965	0.76289	15.2894
0.301625	5.96725	0.0897354	1.90089	0.390244	8.52237	0.574257	11.3713	0.652355	12.746	0.896867	17.6243	0.33851	7.33402	0.515244	10.6649	0.765175	15.0541
0.305037	5.92553	0.0918443	1.90791	0.394469	8.44285	0.578074	11.2395	0.655529	12.5791	0.898934	17.3473	0.343833	7.30193	0.516329	10.62	0.767495	14.8279
0.308341	5.88323	0.0939524	1.91464	0.398774	8.36812	0.58146	11.1296	0.658749	12.4188	0.901033	17.0807	0.349152	7.27103	0.517512	10.572	0.769848	14.6104
0.31154	5.84045	0.0960596	1.92111	0.403157	8.29786	0.584389	11.0394	0.662016	12.265	0.903162	16.8239	0.354467	7.24121	0.51913	10.5079	0.772234	14.4011
0.314637	5.79725	0.098166	1.92733	0.407617	8.23179	0.58684	10.9672	0.665329	12.1172	0.905323	16.5765	0.359775	7.21238	0.521189	10.4288	0.774652	14.1994
0.317636	5.75373	0.100272	1.9333	0.41215	8.16963	0.588797	10.9115	0.668689	11.9752	0.907514	16.3379	0.365076	7.18445	0.523698	10.3359	0.777103	14.0052
0.32054	5.70997	0.102376	1.93905	0.416755	8.11112	0.590246	10.8713	0.672097	11.8387	0.909736	16.1077	0.370367	7.15735	0.526668	10.2306	0.779586	13.8179
0.323353	5.66604	0.10448	1.94458	0.421429	8.056	0.591178	10.8459	0.675552	11.7074	0.911988	15.8855	0.375648	7.13101	0.530111	10.1144	0.7821	13.6373
0.326078	5.62201	0.106584	1.94992	0.426169	8.00405	0.592524	10.8099	0.679055	11.5812	0.91427	15.6709	0.380916	7.10535	0.533591	10.003	0.784646	13.4629
0.328721	5.57797	0.108686	1.95506	0.43097	7.95503	0.593994	10.7713	0.682607	11.4596	0.916581	15.4636	0.386171	7.08032	0.537107	9.89602	0.787222	13.2946
0.331284	5.53396	0.110788	1.96002	0.43583	7.90872	0.596008	10.7199	0.685742	11.3575	0.918922	15.2632	0.391411	7.05586	0.540658	9.79334	0.789829	13.132
0.333771	5.49006	0.112889	1.9648	0.440745	7.86494	0.598576	10.6564	0.688445	11.273	0.921291	15.0693	0.396634	7.03191	0.544245	9.69469	0.792467	12.9749
0.336186	5.44633	0.114989	1.96942	0.445712	7.82349	0.601713	10.5818	0.690701	11.2049	0.92369	14.8818	0.401839	7.00842	0.547866	9.59987	0.795134	12.8229
0.338533	5.4028	0.117089	1.97389	0.450725	7.7842	0.605436	10.4974	0.692498	11.1522	0.926117	14.7002	0.407024	6.98535	0.551521	9.50869	0.797831	12.676
0.340815	5.35953	0.119188	1.9782	0.455783	7.74689	0.609762	10.4044	0.693827	11.1141	0.928573	14.5244	0.412189	6.96266	0.55521	9.42096	0.800557	12.5338
0.343037	5.31657	0.121287	1.98238	0.460881	7.71142	0.614144	10.3151	0.694681	11.0899	0.931056	14.3541	0.417331	6.94029	0.558933	9.33653	0.803313	12.3961
0.3452	5.27394	0.123385	1.98642	0.466015	7.67764	0.61858	10.2296	0.695913	11.0556	0.933567	14.189	0.42245	6.91823	0.562689	9.25522	0.806097	12.2627
0.347309	5.23169	0.125482	1.99033	0.471183	7.64542	0.623066	10.1474	0.697259	11.0187	0.936106	14.0289	0.427544	6.89642	0.566478	9.17691	0.808909	12.1336
0.349366	5.18984	0.127579	1.99412	0.47638	7.61463	0.6276	10.0685	0.699101	10.9693	0.938671	13.8736	0.432611	6.87484	0.570299	9.10144	0.81175	12.0083
0.351374	5.14841	0.129675	1.99779	0.481604	7.58517	0.632179	9.99257	0.701447	10.9082	0.941264	13.723	0.437651	6.85346	0.574153	9.0287	0.814618	11.8869
0.353336	5.10744	0.131771	2.00135	0.486851	7.55693	0.6368	9.91952	0.704312	10.8361	0.943883	13.5767	0.442661	6.83224	0.578039	8.95856	0.817514	11.7692
0.355255	5.06695	0.133866	2.00481	0.492119	7.5298	0.641459	9.84916	0.707711	10.7541	0.946529	13.4348	0.447642	6.81116	0.581957	8.8909	0.82006	11.6694
0.357134	5.02694	0.135961	2.00816	0.497405	7.5037	0.646155	9.78133	0.711663	10.6632	0.949201	13.2968	0.45259	6.79019	0.585907	8.82562	0.822247	11.5865
0.358739	4.99248	0.138055	2.01141	0.502706	7.47856	0.650882	9.71586	0.715672	10.5756	0.951899	13.1628	0.457505	6.76931	0.589888	8.76261	0.824066	11.5192
0.360086	4.96341	0.140149	2.01457	0.508019	7.45428	0.655639	9.65263	0.719738	10.4912	0.954622	13.0326	0.462386	6.7485	0.593901	8.70179	0.825512	11.4669
0.361185	4.9396	0.142242	2.01764	0.513343	7.43082	0.660422	9.59148	0.723863	10.41	0.957371	12.906	0.467232	6.72774	0.597946	8.64306	0.826579	11.4289
0.362045	4.9209	0.144335	2.02063	0.518675	7.40809	0.665228	9.5323	0.728049	10.3318	0.960145	12.7828	0.472041	6.70701	0.602021	8.58633	0.827263	11.4047
0.362673	4.90724	0.146428	2.02353	0.524012	7.38603	0.670054	9.47495	0.732296	10.2564	0.962944	12.663	0.476812	6.68628	0.606127	8.53153	0.82825	11.3704
0.363072	4.89853	0.14852	2.02635	0.529354	7.36461	0.674895	9.41931	0.736607	10.1839	0.965768	12.5464	0.481544	6.66555	0.610265	8.47858	0.829326	11.3333
0.363643	4.88606	0.150612	2.0291	0.534698	7.34376	0.67975	9.36529	0.740983	10.1141	0.968616	12.4329	0.486236	6.6448	0.614433	8.4274	0.830794	11.2836
0.364261	4.87256	0.152704	2.03177	0.540042	7.32345	0.684615	9.31277	0.745424	10.047	0.971488	12.3224	0.490887	6.62402	0.618632	8.37793	0.832659	11.2217
0.365094	4.85433	0.154795	2.03438	0.545384	7.30362	0.689486	9.26166	0.749932	9.98239	0.974384	12.2148	0.495496	6.6032	0.622861	8.33009	0.834928	11.1483
0.366138	4.83145	0.156886	2.03692	0.550724	7.28424	0.694362	9.21186	0.754509	9.92028	0.977304	12.11	0.500061	6.58231	0.62712	8.28384	0.837608	11.0642
0.367387	4.80405	0.158976	2.03939	0.556059	7.26528	0.699238	9.16329	0.759155	9.86058	0.979868	12.0208	0.504583	6.56136	0.631409	8.23909	0.840708	10.9701
0.368833	4.77229	0.161066	2.0418	0.561389	7.2467	0.704113	9.11587	0.763872	9.8032	0.982067	11.9464	0.50906	6.54034	0.635728	8.19581	0.843832	10.8786
0.370468	4.73635	0.163156	2.04415	0.566711	7.22847	0.708984	9.06953	0.768659	9.74809	0.983896	11.8858	0.513491	6.51924	0.640076	8.15392	0.846982	10.7896
0.37208	4.70096	0.165246	2.04644	0.572025	7.21056	0.713848	9.0242	0.773518	9.69516	0.985348	11.8387	0.517877	6.49805	0.644453	8.11339	0.850156	10.703
0.37367	4.66612	0.167335	2.04868	0.577329	7.19294	0.718704	8.97982	0.77845	9.64434	0.986419	11.8043	0.522215	6.47677	0.648859	8.07415	0.853355	10.6187
0.375238	4.63182	0.169424	2.05086	0.582623	7.1756	0.72355	8.93634	0.783453	9.59556	0.987106	11.7825	0.526506	6.45539	0.653293	8.03616	0.856578	10.5367
0.376787	4.59805	0.171513	2.05299	0.587904	7.1585	0.728384	8.8937	0.788528	9.54876	0.988095	11.7514	0.530749	6.43392	0.657755	7.99937	0.859825	10.4568
0.378317	4.56483	0.173602	2.05507	0.593173	7.14164	0.733205	8.85187	0.793674	9.50386	0.989174	11.7179	0.534943	6.41234	0.662244	7.96373	0.863097	10.379
0.379831	4.53214	0.17569	2.0571	0.598428	7.12498	0.738012	8.81081	0.798892	9.46078	0.990645	11.6727	0.539089	6.39067	0.666761	7.9292	0.866391	10.3032
0.381328	4.49998	0.177778	2.05909	0.603668	7.10851	0.742806	8.77047	0.80418	9.41947	0.992514	11.6164	0.543186	6.36889	0.671304	7.89574	0.86971	10.2293
0.38281	4.46834	0.179866	2.06103	0.608892	7.09222	0.747584	8.73085	0.809536	9.37985	0.994784	11.5494	0.547234	6.34701	0.675872	7.8633	0.873051	10.1573
0.384278	4.43722	0.181954	2.06293	0.6141	7.07609	0.752347	8.6919	0.81496	9.34185	0.997464	11.4724	0.551232	6.32504	0.680465	7.83185	0.876416	10.0871
0.385733	4.40662	0.184041	2.06479	0.61929	7.0601	0.757096	8.65361	0.820451	9.3054	1.00056	11.386	0.555181	6.30297	0.685083	7.80135	0.879803	10.0186
0.387176	4.37652	0.186128	2.0666	0.624462	7.04424	0.76183	8.61597	0.826005	9.27044			0.559081	6.2808	0.689725	7.77175	0.883213	9.95189
0.388607	4.34692	0.188215	2.06838	0.629614	7.02849	0.76655	8.57895	0.831623	9.2369			0.562931	6.25855	0.69439	7.74302	0.886646	9.88677
0.390028	4.31781	0.190302	2.07011	0.634747	7.01286	0.771257	8.54256	0.837301	9.20472			0.566732	6.23621	0.699076	7.71512	0.890101	9.82324
0.391439	4.28919	0.192389	2.07181	0.63986	6.99731	0.775951	8.50677	0.843038	9.17383			0.570484	6.21379	0.703784	7.68803	0.893577	9.76124
0.392841	4.26105	0.194475	2.07348	0.644951	6.98185	0.780634	8.47158	0.848832	9.14417			0.574187	6.19129	0.708513	7.66171	0.897076	9.70073
0.394235	4.23338	0.196562	2.07511	0.65002	6.96646	0.785307	8.43698	0.854681	9.11568			0.577841	6.16873	0.713261	7.63612	0.900596	9.64166
0.39562	4.20618	0.198648	2.07671	0.655067	6.95114	0.78997	8.40296	0.860582	9.08831			0.581448	6.1461	0.718028	7.61123	0.904138	9.58397
0.396999	4.17944	0.200734	2.07827	0.66009	6.93588	0.794624	8.36953	0.866534	9.062			0.585006	6.12341	0.722812	7.58702	0.9077	9.52765
0.398371	4.15314	0.202819	2.0798	0.66509	6.92066	0.799272	8.33667	0.872534	9.0367			0.588517	6.10066	0.727613	7.56345	0.911284	9.47263
0.399737	4.12729	0.204905	2.08131	0.670065	6.90548	0.803913	8.30438	0.87858	9.01235			0.591982	6.07788	0.732431	7.54049	0.914889	9.41888
0.401097	4.10188	0.206991	2.08278	0.675015	6.89033	0.80855	8.27265	0.88467	8.98892			0.5954	6.05505	0.737262	7.51812	0.918515	9.36636
0.402452	4.07689	0.209076	2.08422	0.67994	6.87522	0.813182	8.24149	0.890803	8.96635			0.598772	6.03218	0.742108	7.49632	0.922161	9.31504
0.403803	4.05233	0.211161	2.08564	0.684838	6.86012	0.817812	8.21088	0.896976	8.9446			0.602098	6.00929	0.746967	7.47504	0.925827	9.26488
0.405149	4.02818	0.213246	2.08703	0.68971	6.84504	0.82244	8.18082	0.903187	8.92362			0.60538	5.98638	0.751838	7.45428	0.929513	9.21585
0.406492	4.00443	0.215331	2.08839	0.694555	6.82996	0.827067	8.1513	0.909434	8.90339			0.608618	5.96346	0.756719	7.43401	0.93322	9.16791
0.407831	3.98109	0.217416	2.08972	0.699372	6.81489	0.831694	8.12232	0.915716	8.88386			0.611813	5.94053	0.76161	7.4142	0.936946	9.12103
0.409168	3.95813	0.2195	2.09104	0.704161	6.79983	0.836322	8.09387	0.922031	8.865			0.614964	5.9176	0.76651	7.39483	0.940692	9.07518
0.410501	3.93556	0.221585	2.09232	0.708921	6.78475	0.840951	8.06595	0.928377	8.84676			0.618074	5.89467	0.771419	7.37589	0.944457	9.03034
0.411833	3.91337	0.223669	2.09359	0.713653	6.76967	0.845584	8.03854	0.934753	8.82913			0.621142	5.87175	0.776333	7.35734	0.948242	8.98647
0.413162	3.89155	0.225754	2.09483	0.718355	6.75458	0.850219	8.01165	0.941156	8.81206			0.624169	5.84886	0.781254	7.33917	0.952046	8.94356
0.41449	3.8701	0.227838	2.09605	0.723027	6.73947	0.854858	7.98526	0.947586	8.79554			0.627156	5.82599	0.78618	7.32136	0.955869	8.90156
0.415816	3.849	0.229922	2.09724	0.72767	6.72435	0.859502	7.95936	0.95404	8.77952			0.630104	5.80314	0.79111	7.3039	0.95971	8.86045
0.417142	3.82825	0.232006	2.09842	0.732282	6.7092	0.864151	7.93396	0.960518	8.76399			0.633013	5.78034	0.796042	7.28676	0.963571	8.82022
0.418466	3.80785	0.23409	2.09957	0.736863	6.69404	0.868804	7.90903	0.967018	8.74892			0.635884	5.75757	0.800977	7.26993	0.967449	8.78084
0.41979	3.78778	0.236174	2.10071	0.741413	6.67884	0.873464	7.88458	0.973538	8.73429			0.638718	5.73485	0.805913	7.25339	0.971347	8.74229
0.421113	3.76804	0.238257	2.10182	0.745933	6.66363	0.87813	7.86058	0.980077	8.72006			0.641515	5.71218	0.810849	7.23713	0.975262	8.70453
0.422436	3.74863	0.240341	2.10292	0.75042	6.64838	0.882802	7.83704	0.986634	8.70623			0.644277	5.68957	0.815784	7.22113	0.979195	8.66756
0.42376	3.72954	0.242424	2.104	0.754876	6.6331	0.88748	7.81395	0.993206	8.69276			0.647003	5.66701	0.820718	7.20538	0.983146	8.63135
0.425083	3.71076	0.244508	2.10506	0.7593	6.6178	0.892166	7.79129	0.999794	8.67964			0.649695	5.64453	0.82565	7.18987	0.987115	8.59589
0.426407	3.69229	0.246591	2.1061	0.763692	6.60246	0.896859	7.76906	1.00639	8.66684			0.652353	5.62211	0.830578	7.17457	0.991102	8.56114
0.427732	3.67412	0.248674	2.10712	0.768051	6.58709	0.901558	7.74724					0.654978	5.59977	0.835502	7.15949	0.995105	8.5271
0.429057	3.65624	0.250757	2.10813	0.772378	6.57169	0.906265	7.72583					0.65757	5.57751	0.840421	7.1446	0.999127	8.49375
0.430384	3.63866	0.25284	2.10912	0.776673	6.55626	0.910979	7.70482					0.660131	5.55533	0.845335	7.1299	1.00316	8.46106
0.431711	3.62135	0.254923	2.1101	0.780935	6.54079	0.9157	7.6842					0.662661	5.53323	0.850242	7.11537		
0.43304	3.60433	0.257006	2.11106	0.785164	6.5253	0.920429	7.66396					0.66516	5.51123	0.855141	7.10101		
0.43437	3.58758	0.259089	2.112	0.789361	6.50977	0.925164	7.64409					0.66763	5.48931	0.860033	7.0868		
0.435701	3.5711	0.261171	2.11293	0.793525	6.49421	0.929906	7.62458					0.67007	5.4675	0.864916	7.07274		
0.437035	3.55488	0.263254	2.11385	0.797656	6.47862	0.934655	7.60542					0.672482	5.44578	0.86979	7.05881		
0.438369	3.53891	0.265337	2.11475	0.801755	6.463	0.939411	7.5866					0.674867	5.42416	0.874653	7.04501		
0.439706	3.52321	0.267419	2.11564	0.805821	6.44736	0.944173	7.56811					0.677224	5.40265	0.879506	7.03133		
0.441045	3.50775	0.269501	2.11651	0.809854	6.43168	0.948941	7.54995					0.679555	5.38125	0.884347	7.01776		
0.442385	3.49253	0.271584	2.11737	0.813855	6.41598	0.953715	7.53209					0.681859	5.35995	0.889176	7.0043		
0.443728	3.47755	0.273666	2.11822	0.817823	6.40026	0.958495	7.51455					0.684138	5.33877	0.893993	6.99093		
0.445073	3.46281	0.275748	2.11906	0.821759	6.38451	0.96328	7.4973					0.686393	5.3177	0.898796	6.97765		
0.446421	3.44829	0.27783	2.11988	0.825663	6.36874	0.968069	7.48033					0.688623	5.29674	0.903585	6.96446		
0.44777	3.43401	0.279912	2.12069	0.829534	6.35294	0.972864	7.46365					0.690829	5.2759	0.90836	6.95134		
0.449123	3.41994	0.281994	2.12149	0.833374	6.33713	0.977662	7.44723					0.693013	5.25518	0.91312	6.9383		
0.450477	3.40609	0.284076	2.12228	0.837182	6.3213	0.982465	7.43107					0.695173	5.23459	0.917864	6.92532		
0.451835	3.39246	0.286158	2.12305	0.840958	6.30546	0.98727	7.41517					0.697312	5.21411	0.922593	6.9124		
0.453195	3.37903	0.28824	2.12382	0.844703	6.2896	0.992079	7.39951					0.699429	5.19376	0.927304	6.89954		
0.454557	3.36581	0.290322	2.12457	0.848417	6.27372	0.996891	7.38408					0.701526	5.17353	0.931999	6.88673		
0.455923	3.35279	0.292404	2.12531	0.852099	6.25784	1.0017	7.36888					0.703601	5.15343	0.936676	6.87397		
0.457291	3.33996	0.294485	2.12605	0.855751	6.24195							0.705657	5.13346	0.941336	6.86125		
0.458662	3.32734	0.296567	2.12677	0.859372	6.22605							0.707693	5.11361	0.945976	6.84857		
0.460036	3.3149	0.298649	2.12748	0.862962	6.21015							0.70971	5.09389	0.950599	6.83592		
0.461413	3.30265	0.30073	2.12819	0.866523	6.19424							0.711709	5.07431	0.955202	6.82331		
0.462793	3.29058	0.302812	2.12888	0.870054	6.17833							0.71369	5.05485	0.959786	6.81073		
0.464175	3.27869	0.304893	2.12956	0.873554	6.16242							0.715653	5.03552	0.96435	6.79817		
0.465561	3.26698	0.306974	2.13024	0.877026	6.14651							0.717598	5.01633	0.968893	6.78563		
0.46695	3.25544	0.309056	2.1309	0.880468	6.1306							0.719527	4.99727	0.973416	6.77311		
0.468342	3.24408	0.311137	2.13156	0.883882	6.1147							0.72144	4.97833	0.977919	6.76061		
0.469737	3.23288	0.313218	2.13221	0.887266	6.09881							0.723336	4.95954	0.9824	6.74813		
0.471136	3.22184	0.315299	2.13285	0.890623	6.08292							0.725218	4.94087	0.98686	6.73566		
0.472537	3.21097	0.317381	2.13348	0.893951	6.06705							0.727084	4.92234	0.991299	6.7232		
0.473942	3.20025	0.319462	2.13411	0.897251	6.05118							0.728935	4.90394	0.995716	6.71075		
0.47535	3.18969	0.321543	2.13472	0.900524	6.03533							0.730772	4.88567	1.00011	6.69831		
0.476761	3.17928	0.323624	2.13533	0.90377	6.0195							0.732595	4.86754				
0.478175	3.16903	0.325705	2.13593	0.906988	6.00368							0.734404	4.84954				
0.479593	3.15892	0.327786	2.13652	0.91018	5.98787							0.7362	4.83168				
0.481014	3.14895	0.329867	2.13711	0.913345	5.97209							0.737983	4.81394				
0.482438	3.13913	0.331947	2.13768	0.916484	5.95633							0.739754	4.79634				
0.483865	3.12944	0.334028	2.13825	0.919597	5.94059							0.741512	4.77888				
0.485296	3.1199	0.336109	2.13882	0.922684	5.92488							0.743258	4.76154				
0.48673	3.11048	0.33819	2.13938	0.925746	5.90918							0.744993	4.74434				
0.488167	3.1012	0.34027	2.13993	0.928783	5.89352							0.746717	4.72726				
0.489608	3.09205	0.342351	2.14047	0.931795	5.87788							0.748429	4.71032				
0.491052	3.08303	0.344432	2.14101	0.934783	5.86227							0.750131	4.69351				
0.492499	3.07414	0.346512	2.14154	0.937746	5.8467							0.751823	4.67683				
0.493949	3.06536	0.348593	2.14206	0.940685	5.83115							0.753505	4.66028				
0.495403	3.05671	0.350673	2.14258	0.943601	5.81563							0.755176	4.64386				
0.49686	3.04818	0.352754	2.14309	0.946493	5.80015							0.756838	4.62757				
0.498321	3.03976	0.354834	2.1436	0.949362	5.78471							0.758491	4.61141				
0.499785	3.03146	0.356915	2.1441	0.952208	5.76929							0.760135	4.59537				
0.501252	3.02328	0.358995	2.14459	0.955031	5.75392							0.76177	4.57946				
0.502722	3.0152	0.361076	2.14508	0.957832	5.73858							0.763397	4.56368				
0.504196	3.00724	0.363156	2.14556	0.960611	5.72328							0.765015	4.54803				
0.505672	2.99938	0.365236	2.14604	0.963368	5.70802							0.766626	4.53249				
0.507153	2.99162	0.367317	2.14651	0.966103	5.6928							0.768229	4.51709				
0.508636	2.98397	0.369397	2.14698	0.968817	5.67763							0.769824	4.5018				
0.510123	2.97643	0.371477	2.14744	0.97151	5.66249							0.771411	4.48664				
0.511613	2.96898	0.373557	2.1479	0.974182	5.6474							0.772992	4.47161				
0.513106	2.96163	0.375637	2.14835	0.976834	5.63235							0.774566	4.45669				
0.514602	2.95438	0.377718	2.1488	0.979465	5.61734							0.776133	4.44189				
0.516102	2.94723	0.379798	2.14924	0.982076	5.60238							0.777693	4.42722				
0.517605	2.94017	0.381878	2.14968	0.984667	5.58747							0.779248	4.41266				
0.519111	2.9332	0.383958	2.15011	0.987239	5.5726							0.780796	4.39822				
0.52062	2.92632	0.386038	2.15054	0.989792	5.55778							0.782338	4.3839				
0.522133	2.91953	0.388118	2.15096	0.992326	5.54301							0.783874	4.3697				
0.523648	2.91283	0.390198	2.15138	0.99484	5.52828							0.785405	4.35561				
0.525167	2.90622	0.392278	2.15179	0.997336	5.51361							0.786931	4.34164				
0.526689	2.89969	0.394358	2.1522	0.999814	5.49898							0.788451	4.32778				
0.528214	2.89325	0.396438	2.15261	1.00227	5.48441							0.789967	4.31404				
0.529742	2.88688	0.398518	2.15301									0.791477	4.30041				
0.531273	2.8806	0.400597	2.15341									0.792983	4.28689				
0.532808	2.8744	0.402677	2.1538									0.794484	4.27348				
0.534345	2.86828	0.404757	2.15419									0.795981	4.26018				
0.535886	2.86223	0.406837	2.15458									0.797473	4.24699				
0.537429	2.85626	0.408917	2.15496									0.798962	4.23391				
0.538976	2.85037	0.410996	2.15533									0.800446	4.22093				
0.540525	2.84455	0.413076	2.15571									0.801927	4.20807				
0.542078	2.8388	0.415156	2.15608									0.803404	4.19531				
0.543634	2.83312	0.417236	2.15644									0.804877	4.18265				
0.545192	2.82752	0.419315	2.15681									0.806347	4.1701				
0.546754	2.82198	0.421395	2.15717									0.807813	4.15765				
0.548318	2.81651	0.423475	2.15752									0.809277	4.1453				
0.549886	2.81111	0.425554	2.15787									0.810737	4.13306				
0.551456	2.80577	0.427634	2.15822									0.812194	4.12091				
0.553029	2.8005	0.429713	2.15857									0.813649	4.10887				
0.554605	2.79529	0.431793	2.15891									0.8151	4.09693				
0.556184	2.79015	0.433872	2.15925									0.816549	4.08508				
0.557766	2.78507	0.435952	2.15959									0.817996	4.07333				
0.559351	2.78005	0.438032	2.15992									0.81944	4.06168				
0.560938	2.77509	0.440111	2.16025									0.820882	4.05012				
0.562529	2.77019	0.44219	2.16057									0.822322	4.03866				
0.564122	2.76534	0.44427	2.1609									0.823759	4.02729				
0.565717	2.76056	0.446349	2.16122									0.825195	4.01601				
0.567316	2.75583	0.448429	2.16153									0.826628	4.00483				
0.568917	2.75116	0.450508	2.16185									0.82806	3.99374				
0.570521	2.74654	0.452588	2.16216									0.82949	3.98274				
0.572128	2.74198	0.454667	2.16247									0.830918	3.97183				
0.573738	2.73747	0.456746	2.16277									0.832344	3.96101				
0.57535	2.73301	0.458826	2.16308									0.833769	3.95027				
0.576964	2.7286	0.460905	2.16338									0.835193	3.93963				
0.578582	2.72425	0.462984	2.16368									0.836615	3.92907				
0.580202	2.71994	0.465063	2.16397									0.838036	3.9186				
0.581825	2.71569	0.467143	2.16426									0.839456	3.90821				
0.58345	2.71148	0.469222	2.16455									0.840875	3.89791				
0.585078	2.70733	0.471301	2.16484									0.842292	3.88769				
0.586708	2.70322	0.47338	2.16512									0.843709	3.87755				
0.588341	2.69915	0.47546	2.16541									0.845124	3.8675				
0.589976	2.69514	0.477539	2.16569									0.846539	3.85752				
0.591614	2.69117	0.479618	2.16596									0.847953	3.84763				
0.593255	2.68724	0.481697	2.16624									0.849366	3.83782				
0.594898	2.68336	0.483776	2.16651									0.850779	3.82809				
0.596543	2.67952	0.485855	2.16678									0.852191	3.81843				
0.598191	2.67572	0.487934	2.16705									0.853602	3.80885				
0.599841	2.67197	0.490014	2.16732									0.855013	3.79935				
0.601494	2.66825	0.492093	2.16758									0.856423	3.78993				
0.603149	2.66458	0.494172	2.16784									0.857833	3.78058				
0.604806	2.66095	0.496251	2.1681									0.859243	3.77131				
0.606466	2.65736	0.49833	2.16836									0.860652	3.76211				
0.608128	2.65381	0.500409	2.16861									0.862061	3.75298				
0.609793	2.6503	0.502488	2.16886									0.863469	3.74393				
0.61146	2.64683	0.504567	2.16911									0.864878	3.73495				
0.613129	2.64339	0.506646	2.16936									0.866287	3.72604				
0.6148	2.63999	0.508725	2.16961									0.867695	3.7172				
0.616474	2.63663	0.510804	2.16985									0.869103	3.70843				
0.61815	2.63331	0.512883	2.1701									0.870512	3.69974				
0.619828	2.63002	0.514962	2.17034									0.87192	3.69111				
0.621508	2.62676	0.517041	2.17057									0.873329	3.68254				
0.623191	2.62354	0.51912	2.17081									0.874737	3.67405				
0.624876	2.62036	0.521198	2.17105									0.876146	3.66562				
0.626563	2.61721	0.523277	2.17128									0.877555	3.65726				
0.628252	2.61409	0.525356	2.17151									0.878965	3.64897				
0.629943	2.61101	0.527435	2.17174									0.880374	3.64074				
0.631637	2.60795	0.529514	2.17197									0.881784	3.63257				
0.633333	2.60493	0.531593	2.17219									0.883195	3.62447				
0.63503	2.60195	0.533672	2.17242									0.884605	3.61643				
0.63673	2.59899	0.53575	2.17264									0.886016	3.60846				
0.638432	2.59606	0.537829	2.17286									0.887428	3.60054				
0.640136	2.59317	0.539908	2.17308									0.88884	3.59269				
0.641842	2.5903	0.541987	2.1733									0.890252	3.5849				
0.64355	2.58747	0.544066	2.17351									0.891665	3.57717				
0.64526	2.58466	0.546144	2.17372									0.893079	3.5695				
0.646972	2.58188	0.548223	2.17394									0.894493	3.56189				
0.648686	2.57913	0.550302	2.17415									0.895908	3.55433				
0.650402	2.57641	0.552381	2.17436									0.897323	3.54684				
0.65212	2.57372	0.554459	2.17456									0.89874	3.5394				
0.65384	2.57105	0.556538	2.17477									0.900156	3.53202				
0.655562	2.56841	0.558617	2.17497									0.901574	3.5247				
0.657286	2.5658	0.560695	2.17518									0.902992	3.51743				
0.659012	2.56322	0.562774	2.17538									0.904411	3.51022				
0.66074	2.56066	0.564853	2.17558									0.905831	3.50306				
0.662469	2.55812	0.566931	2.17578									0.907252	3.49596				
0.664201	2.55562	0.56901	2.17597									0.908673	3.48891				
0.665934	2.55313	0.571089	2.17617									0.910096	3.48192				
0.667669	2.55067	0.573167	2.17636									0.911519	3.47498				
0.669406	2.54824	0.575246	2.17655									0.912943	3.46809				
0.671145	2.54583	0.577324	2.17675									0.914368	3.46125				
0.672886	2.54344	0.579403	2.17694									0.915794	3.45446				
0.674629	2.54108	0.581482	2.17712									0.917221	3.44773				
0.676373	2.53874	0.58356	2.17731									0.918649	3.44105				
0.678119	2.53643	0.585639	2.1775									0.920078	3.43441				
0.679867	2.53413	0.587717	2.17768									0.921508	3.42783				
0.681616	2.53186	0.589796	2.17786									0.922939	3.42129				
0.683368	2.52961	0.591874	2.17805									0.92437	3.41481				
0.685121	2.52738	0.593953	2.17823									0.925803	3.40837				
0.686875	2.52518	0.596032	2.17841									0.927237	3.40198				
0.688632	2.52299	0.59811	2.17859									0.928673	3.39564				
0.69039	2.52083	0.600189	2.17876									0.930109	3.38934				
0.69215	2.51869	0.602267	2.17894									0.931546	3.3831				
0.693911	2.51657	0.604346	2.17911									0.932984	3.37689				
0.695674	2.51446	0.606424	2.17929									0.934424	3.37074				
0.697439	2.51238	0.608502	2.17946									0.935865	3.36462				
0.699206	2.51032	0.610581	2.17963									0.937306	3.35856				
0.700974	2.50828	0.612659	2.1798									0.938749	3.35254				
0.702743	2.50625	0.614738	2.17997									0.940194	3.34656				
0.704515	2.50425	0.616816	2.18013									0.941639	3.34063				
0.706288	2.50227	0.618895	2.1803									0.943085	3.33473				
0.708062	2.5003	0.620973	2.18047									0.944533	3.32889				
0.709838	2.49835	0.623051	2.18063									0.945982	3.32308				
0.711616	2.49642	0.62513	2.18079									0.947432	3.31732				
0.713395	2.49451	0.627208	2.18095									0.948884	3.3116				
0.715176	2.49262	0.629287	2.18112									0.950336	3.30592				
0.716958	2.49074	0.631365	2.18127									0.95179	3.30028				
0.718741	2.48888	0.633443	2.18143									0.953245	3.29468				
0.720527	2.48704	0.635522	2.18159									0.954702	3.28912				
0.722313	2.48521	0.6376	2.18175									0.95616	3.28361				
0.724102	2.4834	0.639678	2.1819									0.957619	3.27813				
0.725891	2.48161	0.641757	2.18206									0.959079	3.27269				
0.727682	2.47984	0.643835	2.18221									0.960541	3.26729				
0.729475	2.47808	0.645913	2.18236									0.962004	3.26193				
0.731269	2.47633	0.647992	2.18252									0.963468	3.2566				
0.733065	2.47461	0.65007	2.18267									0.964933	3.25132				
0.734862	2.4729	0.652148	2.18282									0.9664	3.24607				
0.73666	2.4712	0.654227	2.18296									0.967868	3.24086				
0.73846	2.46952	0.656305	2.18311									0.969338	3.23569				
0.740261	2.46785	0.658383	2.18326									0.970809	3.23055				
0.742063	2.4662	0.660461	2.18341									0.972281	3.22545				
0.743867	2.46457	0.66254	2.18355									0.973755	3.22038				
0.745672	2.46294	0.664618	2.18369									0.97523	3.21535				
0.747479	2.46134	0.666696	2.18384									0.976706	3.21036				
0.749287	2.45974	0.668774	2.18398									0.978184	3.2054				
0.751096	2.45816	0.670853	2.18412									0.979663	3.20048				
0.752907	2.4566	0.672931	2.18426									0.981143	3.19559				
0.754719	2.45505	0.675009	2.1844									0.982625	3.19073				
0.756532	2.45351	0.677087	2.18454									0.984108	3.18591				
0.758347	2.45199	0.679165	2.18468									0.985593	3.18112				
0.760163	2.45048	0.681243	2.18481									0.987079	3.17636				
0.76198	2.44898	0.683322	2.18495									0.988566	3.17164				
0.763798	2.44749	0.6854	2.18509									0.990055	3.16695				
0.765618	2.44602	0.687478	2.18522									0.991545	3.16229				
0.767439	2.44456	0.689556	2.18535									0.993037	3.15767				
0.769261	2.44312	0.691634	2.18549									0.99453	3.15307				
0.771085	2.44168	0.693712	2.18562									0.996024	3.14851				
0.77291	2.44026	0.695791	2.18575									0.99752	3.14398				
0.774736	2.43885	0.697869	2.18588									0.999017	3.13948				
0.776563	2.43746	0.699947	2.18601									1.00052	3.13501				
0.778391	2.43607	0.702025	2.18614														
0.780221	2.4347	0.704103	2.18627														
0.782052	2.43334	0.706181	2.1864														
0.783884	2.43199	0.708259	2.18652														
0.785717	2.43065	0.710337	2.18665														
0.787551	2.42932	0.712415	2.18677														
0.789387	2.42801	0.714493	2.1869														
0.791223	2.4267	0.716572	2.18702														
0.793061	2.42541	0.71865	2.18714														
0.7949	2.42412	0.720728	2.18727														
0.79674	2.42285	0.722806	2.18739														
0.798581	2.42159	0.724884	2.18751														
0.800424	2.42034	0.726962	2.18763														
0.802267	2.4191	0.72904	2.18775														
0.804112	2.41787	0.731118	2.18787														
0.805957	2.41665	0.733196	2.18799														
0.807804	2.41544	0.735274	2.1881														
0.809652	2.41423	0.737352	2.18822														
0.811501	2.41304	0.73943	2.18834														
0.813351	2.41186	0.741508	2.18845														
0.815202	2.41069	0.743586	2.18857														
0.817054	2.40953	0.745664	2.18868														
0.818907	2.40838	0.747742	2.18879														
0.820761	2.40723	0.74982	2.18891														
0.822617	2.4061	0.751898	2.18902														
0.824473	2.40498	0.753976	2.18913														
0.82633	2.40386	0.756054	2.18924														
0.828188	2.40276	0.758132	2.18935														
0.830048	2.40166	0.760209	2.18946														
0.831908	2.40057	0.762287	2.18957														
0.833769	2.39949	0.764365	2.18968														
0.835632	2.39842	0.766443	2.18979														
0.837495	2.39735	0.768521	2.1899														
0.839359	2.3963	0.770599	2.19														
0.841225	2.39525	0.772677	2.19011														
0.843091	2.39422	0.774755	2.19021														
0.844958	2.39319	0.776833	2.19032														
0.846826	2.39217	0.778911	2.19042														
0.848695	2.39115	0.780988	2.19053														
0.850565	2.39015	0.783066	2.19063														
0.852436	2.38915	0.785144	2.19073														
0.854308	2.38816	0.787222	2.19084														
0.856181	2.38718	0.7893	2.19094														
0.858054	2.3862	0.791378	2.19104														
0.859929	2.38524	0.793455	2.19114														
0.861805	2.38428	0.795533	2.19124														
0.863681	2.38332	0.797611	2.19134														
0.865558	2.38238	0.799689	2.19144														
0.867436	2.38144	0.801767	2.19154														
0.869316	2.38051	0.803845	2.19164														
0.871196	2.37959	0.805922	2.19173														
0.873076	2.37867	0.808	2.19183														
0.874958	2.37776	0.810078	2.19193														
0.876841	2.37686	0.812156	2.19202														
0.878724	2.37597	0.814233	2.19212														
0.880608	2.37508	0.816311	2.19221														
0.882494	2.3742	0.818389	2.19231														
0.884379	2.37332	0.820467	2.1924														
0.886266	2.37245	0.822544	2.1925														
0.888154	2.37159	0.824622	2.19259														
0.890042	2.37074	0.8267	2.19268														
0.891932	2.36989	0.828778	2.19277														
0.893822	2.36904	0.830855	2.19286														
0.895713	2.36821	0.832933	2.19296														
0.897604	2.36738	0.835011	2.19305														
0.899497	2.36655	0.837089	2.19314														
0.90139	2.36574	0.839166	2.19323														
0.903284	2.36492	0.841244	2.19332														
0.905179	2.36412	0.843322	2.19341														
0.907075	2.36332	0.845399	2.19349														
0.908971	2.36252	0.847477	2.19358														
0.910868	2.36174	0.849555	2.19367														
0.912766	2.36095	0.851632	2.19376														
0.914665	2.36018	0.85371	2.19384														
0.916565	2.35941	0.855788	2.19393														
0.918465	2.35864	0.857865	2.19402														
0.920366	2.35788	0.859943	2.1941														
0.922268	2.35713	0.862021	2.19419														
0.92417	2.35638	0.864098	2.19427														
0.926073	2.35564	0.866176	2.19435														
0.927977	2.3549	0.868254	2.19444														
0.929882	2.35416	0.870331	2.19452														
0.931787	2.35344	0.872409	2.1946														
0.933693	2.35272	0.874486	2.19469														
0.9356	2.352	0.876564	2.19477														
0.937508	2.35129	0.878642	2.19485														
0.939416	2.35058	0.880719	2.19493														
0.941325	2.34988	0.882797	2.19501														
0.943235	2.34918	0.884874	2.19509														
0.945145	2.34849	0.886952	2.19517														
0.947056	2.3478	0.88903	2.19525														
0.948968	2.34712	0.891107	2.19533														
0.95088	2.34644	0.893185	2.19541														
0.952793	2.34577	0.895262	2.19549														
0.954707	2.3451	0.89734	2.19557														
0.956621	2.34444	0.899417	2.19565														
0.958536	2.34378	0.901495	2.19573														
0.960452	2.34313	0.903573	2.1958														
0.962368	2.34248	0.90565	2.19588														
0.964285	2.34183	0.907728	2.19596														
0.966203	2.34119	0.909805	2.19603														
0.968121	2.34056	0.911883	2.19611														
0.97004	2.33993	0.91396	2.19618														
0.97196	2.3393	0.916038	2.19626														
0.97388	2.33868	0.918115	2.19633														
0.975801	2.33806	0.920193	2.19641														
0.977723	2.33745	0.92227	2.19648														
0.979645	2.33684	0.924348	2.19656														
0.981567	2.33623	0.926425	2.19663														
0.983491	2.33563	0.928503	2.1967														
0.985415	2.33503	0.93058	2.19678														
0.987339	2.33444	0.932658	2.19685														
0.989264	2.33385	0.934735	2.19692														
0.99119	2.33326	0.936813	2.19699														
0.993117	2.33268	0.93889	2.19706														
0.995044	2.3321	0.940967	2.19713														
0.996971	2.33153	0.943045	2.19721														
0.998899	2.33096	0.945122	2.19728														
1.00083	2.3304	0.9472	2.19735														
		0.949277	2.19742														
		0.951355	2.19749														
		0.953432	2.19755														
		0.955509	2.19762														
		0.957587	2.19769														
		0.959664	2.19776														
		0.961742	2.19783														
		0.963819	2.1979														
		0.965896	2.19796														
		0.967974	2.19803														
		0.970051	2.1981														
		0.972129	2.19816														
		0.974206	2.19823														
		0.976283	2.1983														
		0.978361	2.19836														
		0.980438	2.19843														
		0.982515	2.19849														
		0.984593	2.19856														
		0.98667	2.19862														
		0.988747	2.19869														
		0.990825	2.19875														
		0.992902	2.19881														
		0.994979	2.19888														
		0.997057	2.19894														
		0.999134	2.199														
		1.00121	2.19907														
