Sym0		Asym0		Sym1		Sym2		Sym3		Sym4		Asym1		Asym2		Asym3	
457  Points		495  Points		182  Points		149  Points		133  Points		98  Points		303  Points		161  Points		130  Points	
Freq (MHz)	Vph (m/ms)	Freq (MHz)	Vph (m/ms)	Freq (MHz)	Vph (m/ms)	Freq (MHz)	Vph (m/ms)	Freq (MHz)	Vph (m/ms)	Freq (MHz)	Vph (m/ms)	Freq (MHz)	Vph (m/ms)	Freq (MHz)	Vph (m/ms)	Freq (MHz)	Vph (m/ms)
0.00491043	6.87828	3.89738e-008	0.00198797	0.279508	40397.8	0.514294	3364.21	0.559042	740.845	0.83853	1999.46	0.139841	201.672	0.419293	536.814	0.698774	2484.42
0.0113184	6.87795	9.02289e-005	0.094848	0.279569	297.853	0.514314	474.211	0.559141	331.579	0.83857	620.67	0.140228	86.2889	0.419407	244.87	0.698814	576.124
0.017725	6.87735	0.000352247	0.187067	0.279748	149.573	0.514364	255.108	0.559315	213.643	0.838654	367.384	0.140923	55.1171	0.419607	158.673	0.698904	325.882
0.0241295	6.87648	0.000782819	0.278119	0.280046	99.9451	0.514446	174.509	0.559564	157.638	0.83878	260.939	0.14192	40.6824	0.419891	117.414	0.699044	227.232
0.0305312	6.87534	0.00137635	0.367382	0.280463	75.1166	0.514558	132.63	0.559888	124.937	0.838949	202.344	0.143211	32.3993	0.420261	93.2285	0.699234	174.458
0.0369294	6.87394	0.00212569	0.454394	0.280997	60.23	0.514701	106.977	0.560287	103.506	0.83916	165.259	0.144785	27.0532	0.420715	77.3437	0.699474	141.601
0.0433232	6.87225	0.00302217	0.538733	0.281647	50.3203	0.514876	89.6522	0.56076	88.3814	0.839414	139.68	0.146632	23.3357	0.421254	66.1179	0.699764	119.181
0.0497118	6.87029	0.004056	0.620044	0.282413	43.2566	0.515084	77.1692	0.561306	77.1399	0.839711	120.974	0.148737	20.6142	0.421876	57.768	0.700103	102.909
0.0560946	6.86805	0.00521698	0.698096	0.283294	37.9726	0.515325	67.7486	0.561925	68.4593	0.84005	106.701	0.151088	18.5453	0.422582	51.3177	0.700493	90.5635
0.0624705	6.86553	0.0064943	0.772684	0.284288	33.8753	0.5156	60.388	0.562616	61.5564	0.840431	95.4533	0.15367	16.9266	0.423372	46.1877	0.700932	80.8781
0.0688388	6.86271	0.00787735	0.84371	0.285393	30.6088	0.51591	54.4794	0.563379	55.9377	0.840855	86.3627	0.156471	15.6309	0.424243	42.0125	0.70142	73.0782
0.0751987	6.8596	0.00935559	0.911118	0.286608	27.9466	0.516255	49.6327	0.564213	51.2769	0.841322	78.8639	0.159475	14.5745	0.425197	38.5501	0.701958	66.6632
0.0815491	6.85618	0.0109191	0.974926	0.287931	25.7374	0.516638	45.5862	0.565116	47.3497	0.84183	72.5733	0.162671	13.7	0.426232	35.6339	0.702544	61.2955
0.0878892	6.85246	0.0125584	1.03518	0.28936	23.8767	0.517058	42.1575	0.566089	43.9967	0.842381	67.2215	0.166044	12.9666	0.427347	33.1454	0.70318	56.7388
0.094218	6.84842	0.0142648	1.09197	0.290893	22.2896	0.517517	39.216	0.56713	41.1014	0.842973	62.6136	0.169582	12.3448	0.428543	30.9981	0.703865	52.8229
0.100535	6.84406	0.0160301	1.14541	0.292529	20.9213	0.518017	36.6652	0.568239	38.5769	0.843608	58.605	0.173275	11.8124	0.429817	29.1273	0.704599	49.4223
0.106838	6.83936	0.017847	1.19564	0.294264	19.7307	0.518558	34.4328	0.569414	36.3571	0.844285	55.0866	0.176609	11.4083	0.431169	27.4837	0.705381	46.4421
0.113127	6.83432	0.0197089	1.24281	0.296096	18.6862	0.519142	32.4632	0.570655	34.3905	0.845003	51.974	0.179533	11.1009	0.432599	26.029	0.706212	43.8094
0.1194	6.82892	0.0216101	1.28707	0.298024	17.7634	0.519769	30.7131	0.571961	32.6367	0.845763	49.2012	0.182003	10.869	0.434106	24.7331	0.70709	41.4673
0.125656	6.82316	0.023545	1.32859	0.300045	16.9429	0.520442	29.1481	0.573332	31.0634	0.846564	46.7158	0.183989	10.6984	0.435688	23.572	0.708017	39.3704
0.131894	6.81702	0.025509	1.36752	0.302156	16.2094	0.521162	27.7409	0.574765	29.6446	0.847406	44.4756	0.185467	10.5797	0.437344	22.5261	0.708991	37.4827
0.138113	6.81049	0.0274982	1.40403	0.304355	15.5501	0.52193	26.4691	0.576261	28.359	0.84829	42.4464	0.18642	10.5064	0.439074	21.5797	0.710013	35.7746
0.144312	6.80356	0.0295088	1.43827	0.306639	14.955	0.522747	25.3144	0.577818	27.189	0.849215	40.5999	0.187801	10.4047	0.440877	20.7195	0.711082	34.2219
0.150488	6.7962	0.0315378	1.47039	0.309007	14.4154	0.523615	24.2618	0.579435	26.12	0.850181	38.9128	0.189315	10.2988	0.442751	19.9347	0.712198	32.8047
0.15664	6.78841	0.0333186	1.49676	0.311456	13.9244	0.524535	23.2986	0.581113	25.1398	0.851187	37.3654	0.191396	10.1618	0.444695	19.2161	0.71336	31.5062
0.162766	6.78016	0.0348449	1.51812	0.313983	13.4761	0.525509	22.4143	0.58285	24.238	0.852234	35.9414	0.194063	9.99953	0.446709	18.5561	0.71457	30.3122
0.168866	6.77144	0.0361119	1.53505	0.316587	13.0654	0.526537	21.5998	0.584644	23.4057	0.853321	34.6267	0.197336	9.81808	0.448791	17.9479	0.715825	29.211
0.174937	6.76223	0.0371166	1.54798	0.319265	12.688	0.527623	20.8475	0.586497	22.6356	0.854448	33.4093	0.201241	9.62363	0.45094	17.3861	0.717126	28.1922
0.180976	6.75249	0.0378569	1.55724	0.322015	12.3404	0.528766	20.1509	0.588405	21.921	0.855616	32.279	0.205804	9.42201	0.453155	16.8656	0.718473	27.2471
0.186983	6.74223	0.0383313	1.56306	0.324835	12.0193	0.529969	19.5042	0.59037	21.2564	0.856823	31.227	0.210447	9.24042	0.455435	16.3824	0.719864	26.3683
0.192954	6.7314	0.039014	1.57129	0.327724	11.7221	0.531233	18.9026	0.59239	20.6369	0.858069	30.2454	0.215164	9.07626	0.457779	15.9328	0.721301	25.549
0.198888	6.71998	0.039757	1.58004	0.330295	11.4807	0.53256	18.3417	0.594465	20.0581	0.859356	29.3276	0.219951	8.92733	0.460185	15.5134	0.722783	24.7835
0.204782	6.70796	0.0407693	1.59164	0.332527	11.2867	0.53395	17.8179	0.596593	19.5164	0.860681	28.4677	0.224803	8.79177	0.462652	15.1217	0.724308	24.067
0.210633	6.69529	0.0420518	1.60583	0.334399	11.134	0.535405	17.3277	0.598774	19.0084	0.862045	27.6604	0.229714	8.66799	0.46518	14.755	0.725878	23.3949
0.216439	6.68196	0.0436059	1.6223	0.335896	11.0178	0.536927	16.8683	0.601008	18.5312	0.863448	26.9012	0.23468	8.55465	0.467767	14.4111	0.727491	22.7633
0.222197	6.66793	0.0454328	1.64071	0.337006	10.9349	0.538517	16.4371	0.603294	18.0822	0.864889	26.186	0.239698	8.45056	0.470411	14.0882	0.729147	22.1689
0.227904	6.65317	0.0475335	1.66069	0.337721	10.8829	0.540176	16.0319	0.60563	17.6591	0.866369	25.5112	0.244763	8.35471	0.473113	13.7845	0.730846	21.6084
0.233556	6.63765	0.0496379	1.67955	0.338754	10.8095	0.541907	15.6505	0.608017	17.2598	0.867887	24.8735	0.249873	8.26623	0.475869	13.4984	0.732588	21.0793
0.239152	6.62134	0.0517452	1.69734	0.339885	10.7316	0.543709	15.2911	0.610454	16.8825	0.869443	24.27	0.255023	8.18436	0.478681	13.2285	0.734372	20.5789
0.244686	6.6042	0.0538548	1.71415	0.341435	10.6287	0.545584	14.952	0.612941	16.5254	0.871036	23.6981	0.260211	8.10841	0.481545	12.9736	0.736198	20.1051
0.250156	6.58622	0.0559663	1.73005	0.343416	10.5033	0.547534	14.6319	0.615475	16.1872	0.872667	23.1555	0.265434	8.0378	0.484462	12.7326	0.738065	19.656
0.255558	6.56734	0.058079	1.7451	0.345842	10.3582	0.54956	14.3292	0.618058	15.8663	0.874334	22.6401	0.270689	7.97201	0.48743	12.5044	0.739973	19.2297
0.260888	6.54756	0.0601926	1.75936	0.34873	10.1967	0.551662	14.0429	0.620689	15.5617	0.876039	22.1498	0.275973	7.91058	0.490448	12.2881	0.741921	18.8245
0.266143	6.52683	0.0623068	1.77288	0.3521	10.0223	0.553842	13.7718	0.623366	15.272	0.87778	21.6831	0.281285	7.85311	0.493514	12.0829	0.74391	18.4391
0.271319	6.50513	0.0644214	1.7857	0.35553	9.85844	0.5561	13.5148	0.62609	14.9965	0.879557	21.2382	0.286621	7.79922	0.496629	11.888	0.745939	18.072
0.276412	6.48244	0.066536	1.79789	0.359019	9.70447	0.558438	13.2711	0.62886	14.734	0.881371	20.8137	0.291981	7.7486	0.499381	11.726	0.748007	17.7221
0.281419	6.45874	0.0686506	1.80947	0.362567	9.55963	0.560856	13.0399	0.631675	14.4838	0.88322	20.4084	0.29736	7.70096	0.501755	11.5933	0.750114	17.3882
0.286336	6.43401	0.0707649	1.82049	0.366175	9.42328	0.563355	12.8203	0.634536	14.2451	0.885105	20.0209	0.302759	7.65604	0.503736	11.4872	0.75226	17.0693
0.29116	6.40825	0.0728787	1.83099	0.369844	9.29482	0.565935	12.6116	0.63744	14.0171	0.887025	19.6502	0.308174	7.61359	0.505315	11.4055	0.754444	16.7645
0.295888	6.38144	0.0749921	1.84099	0.373573	9.17374	0.568597	12.4132	0.640389	13.7992	0.88898	19.2953	0.313604	7.57342	0.506483	11.3466	0.756666	16.4728
0.300517	6.3536	0.077105	1.85053	0.377364	9.05956	0.571341	12.2244	0.643381	13.5908	0.89097	18.9551	0.319047	7.53534	0.507233	11.3095	0.758926	16.1935
0.305043	6.32472	0.0792171	1.85964	0.381217	8.95184	0.574166	12.0448	0.646417	13.3914	0.892995	18.629	0.324503	7.49916	0.508315	11.2568	0.761222	15.9259
0.309466	6.29483	0.0813286	1.86834	0.385135	8.85019	0.576696	11.8952	0.649495	13.2004	0.895053	18.3159	0.329968	7.46474	0.509497	11.2004	0.763555	15.6693
0.313784	6.26394	0.0834393	1.87667	0.389116	8.75426	0.578902	11.7727	0.652615	13.0173	0.897146	18.0153	0.335442	7.43193	0.511113	11.1253	0.765925	15.423
0.317995	6.23208	0.0855494	1.88463	0.393163	8.66371	0.58076	11.6746	0.655778	12.8417	0.899272	17.7263	0.340923	7.4006	0.51317	11.0326	0.76833	15.1865
0.322098	6.1993	0.0876586	1.89226	0.397277	8.57824	0.582251	11.599	0.658982	12.6733	0.901431	17.4484	0.34641	7.37063	0.51568	10.924	0.77077	14.9593
0.326093	6.16562	0.0897671	1.89957	0.401458	8.49756	0.583359	11.5446	0.662228	12.5115	0.903623	17.181	0.351901	7.34192	0.518653	10.8012	0.773246	14.7408
0.32998	6.13111	0.0918748	1.90658	0.405706	8.42141	0.584074	11.5102	0.665514	12.3561	0.905848	16.9235	0.357395	7.31437	0.522102	10.6661	0.775756	14.5306
0.333759	6.09581	0.0939816	1.91331	0.410023	8.34954	0.58511	11.4615	0.668841	12.2067	0.908106	16.6754	0.362891	7.28789	0.52559	10.5368	0.7783	14.3282
0.337432	6.05978	0.0960878	1.91977	0.414408	8.28171	0.586245	11.4094	0.671773	12.0812	0.910396	16.4363	0.368387	7.26238	0.529117	10.413	0.780878	14.1332
0.341001	6.02309	0.0981932	1.92599	0.418862	8.2177	0.587805	11.3399	0.674297	11.9775	0.912718	16.2056	0.373883	7.23778	0.532682	10.2944	0.78349	13.9453
0.344466	5.98579	0.100298	1.93196	0.423383	8.1573	0.589806	11.2542	0.676401	11.894	0.915071	15.983	0.379377	7.21402	0.536284	10.1807	0.786135	13.7641
0.34783	5.94795	0.102402	1.93771	0.427971	8.1003	0.592266	11.1538	0.678075	11.8293	0.917456	15.7681	0.384867	7.19102	0.539922	10.0716	0.788812	13.5893
0.351096	5.90964	0.104505	1.94325	0.432626	8.0465	0.595208	11.0404	0.679312	11.7825	0.919871	15.5604	0.390353	7.16873	0.543595	9.96692	0.791521	13.4206
0.354266	5.87093	0.106607	1.94858	0.437345	7.99572	0.598658	10.9158	0.680106	11.7528	0.922318	15.3597	0.395834	7.14709	0.547303	9.86636	0.794262	13.2577
0.357343	5.83187	0.108709	1.95373	0.442128	7.94778	0.602186	10.7967	0.681252	11.7107	0.924795	15.1657	0.401308	7.12605	0.551045	9.76973	0.797035	13.1002
0.36033	5.79254	0.11081	1.95869	0.446971	7.90249	0.605791	10.6829	0.682502	11.6654	0.927302	14.9779	0.406774	7.10556	0.55482	9.67682	0.799839	12.948
0.36323	5.753	0.11291	1.96348	0.451874	7.8597	0.609471	10.574	0.68421	11.6049	0.929839	14.7962	0.412231	7.08556	0.558628	9.58744	0.802673	12.8008
0.366047	5.7133	0.11501	1.96811	0.456833	7.81924	0.613226	10.4699	0.686383	11.5298	0.932406	14.6203	0.417678	7.06603	0.562468	9.50141	0.805538	12.6584
0.368783	5.67351	0.117109	1.97258	0.461845	7.78095	0.617055	10.3703	0.689031	11.4413	0.935001	14.4499	0.423114	7.04692	0.56634	9.41858	0.808433	12.5206
0.371443	5.63367	0.119208	1.97691	0.466909	7.7447	0.620954	10.275	0.692166	11.3404	0.937626	14.2848	0.428537	7.02819	0.570242	9.33878	0.810979	12.4041
0.374028	5.59385	0.121306	1.98109	0.472021	7.71034	0.624924	10.1837	0.6958	11.2286	0.94028	14.1247	0.433947	7.0098	0.574176	9.26188	0.813168	12.3073
0.376544	5.55408	0.123404	1.98514	0.477179	7.67774	0.628961	10.0962	0.699473	11.1206	0.942962	13.9695	0.439343	6.99173	0.578139	9.18773	0.814989	12.2289
0.378992	5.5144	0.1255	1.98906	0.482379	7.64678	0.633065	10.0123	0.703185	11.0165	0.945672	13.8189	0.444723	6.97395	0.582132	9.1162	0.816438	12.168
0.381376	5.47487	0.127597	1.99286	0.487619	7.61733	0.637234	9.9319	0.706937	10.9159	0.948411	13.6728	0.450086	6.95641	0.586154	9.04719	0.817507	12.1238
0.383699	5.43552	0.129693	1.99654	0.492895	7.58929	0.641465	9.85474	0.710728	10.8188	0.951176	13.5309	0.455431	6.93911	0.590205	8.98057	0.818193	12.0958
0.385963	5.39637	0.131788	2.00011	0.498205	7.56256	0.645756	9.78067	0.714559	10.725	0.953969	13.3931	0.460757	6.922	0.594284	8.91624	0.819182	12.0558
0.388173	5.35747	0.133883	2.00358	0.503545	7.53704	0.650106	9.70954	0.718429	10.6344	0.956789	13.2593	0.466064	6.90506	0.598392	8.85409	0.82026	12.0129
0.390329	5.31885	0.135978	2.00694	0.508914	7.51263	0.654512	9.64119	0.722339	10.5468	0.959636	13.1292	0.471349	6.88828	0.602527	8.79405	0.821732	11.9552
0.392436	5.28051	0.138072	2.0102	0.514309	7.48926	0.658972	9.57547	0.726289	10.4622	0.962509	13.0028	0.476612	6.87163	0.606689	8.73601	0.823604	11.8835
0.394233	5.24737	0.140166	2.01338	0.519726	7.46685	0.663484	9.51225	0.73028	10.3803	0.965409	12.8798	0.481851	6.85508	0.610879	8.67989	0.825881	11.7985
0.395738	5.21932	0.142259	2.01646	0.525164	7.44531	0.668046	9.45141	0.734311	10.3012	0.967957	12.7755	0.487066	6.83863	0.615096	8.62562	0.828572	11.7012
0.396964	5.19626	0.144352	2.01946	0.530621	7.4246	0.672655	9.3928	0.738384	10.2247	0.970144	12.6884	0.492255	6.82224	0.61934	8.57312	0.831685	11.5927
0.397922	5.17813	0.146444	2.02237	0.536093	7.40464	0.677309	9.33632	0.742497	10.1507	0.971963	12.6178	0.497418	6.80591	0.62361	8.52232	0.834825	11.4873
0.398621	5.16486	0.148537	2.02521	0.54158	7.38538	0.682005	9.28185	0.746653	10.0791	0.973409	12.5627	0.502552	6.78962	0.627907	8.47315	0.837992	11.3849
0.399065	5.15639	0.150628	2.02796	0.547078	7.36676	0.686741	9.22928	0.750851	10.0099	0.974475	12.5227	0.507658	6.77334	0.63223	8.42555	0.841184	11.2854
0.3997	5.14424	0.15272	2.03065	0.552586	7.34874	0.691516	9.17852	0.755092	9.94296	0.975159	12.4973	0.512735	6.75707	0.636578	8.37947	0.844403	11.1887
0.400386	5.13109	0.154811	2.03327	0.558103	7.33127	0.696325	9.12946	0.759376	9.87818	0.976145	12.4611	0.51778	6.74079	0.640953	8.33483	0.847647	11.0948
0.40131	5.11328	0.156902	2.03582	0.563626	7.3143	0.701168	9.08201	0.763705	9.81553	0.97722	12.422	0.522793	6.72449	0.645354	8.2916	0.850917	11.0034
0.402466	5.09089	0.158993	2.0383	0.569154	7.2978	0.706041	9.03608	0.768078	9.75492	0.978687	12.3695	0.527773	6.70816	0.64978	8.24972	0.854212	10.9145
0.403847	5.06402	0.161083	2.04073	0.574686	7.28174	0.710942	8.99158	0.772496	9.6963	0.98055	12.304	0.532719	6.69178	0.654232	8.20913	0.857531	10.828
0.405442	5.03278	0.163173	2.04309	0.580219	7.26607	0.715868	8.94845	0.776961	9.63961	0.982815	12.2263	0.53763	6.67535	0.658709	8.1698	0.860875	10.7438
0.407241	4.99732	0.165263	2.04539	0.585753	7.25078	0.720818	8.90659	0.781472	9.58478	0.98549	12.137	0.542505	6.65885	0.663212	8.13168	0.864242	10.6619
0.409009	4.96229	0.167352	2.04764	0.591287	7.23582	0.725788	8.86594	0.786031	9.53177	0.988582	12.0369	0.547344	6.64227	0.667739	8.09472	0.867634	10.5821
0.410748	4.92768	0.169442	2.04984	0.596818	7.22118	0.730777	8.82643	0.790638	9.48053	0.991698	11.9394	0.552144	6.62562	0.672292	8.05888	0.871049	10.5044
0.412459	4.89351	0.171531	2.05198	0.602347	7.20683	0.735782	8.78798	0.795293	9.43099	0.994838	11.8444	0.556906	6.60887	0.676869	8.02413	0.874488	10.4287
0.414143	4.85977	0.17362	2.05408	0.607871	7.19275	0.740801	8.75055	0.799999	9.38312	0.998001	11.7517	0.561629	6.59203	0.681471	7.99043	0.87795	10.3549
0.415802	4.82648	0.175708	2.05612	0.61339	7.17891	0.745831	8.71407	0.804754	9.33687	1.00119	11.6613	0.566311	6.57509	0.686097	7.95774	0.881434	10.283
0.417438	4.79362	0.177796	2.05812	0.618903	7.1653	0.750871	8.67849	0.80956	9.29218			0.570953	6.55804	0.690747	7.92603	0.884941	10.2129
0.419052	4.76121	0.179885	2.06007	0.624409	7.1519	0.755919	8.64375	0.814418	9.24903			0.575553	6.54087	0.695422	7.89526	0.888471	10.1445
0.420644	4.72924	0.181972	2.06198	0.629907	7.13869	0.760972	8.6098	0.819327	9.20736			0.58011	6.5236	0.700119	7.8654	0.892022	10.0779
0.422217	4.69772	0.18406	2.06385	0.635395	7.12565	0.766029	8.57661	0.824289	9.16714			0.584625	6.5062	0.704841	7.83641	0.895595	10.0129
0.423771	4.66663	0.186148	2.06568	0.640874	7.11278	0.771088	8.54412	0.829303	9.12832			0.589096	6.48868	0.709585	7.80828	0.89919	9.94942
0.425308	4.63599	0.188235	2.06747	0.646343	7.10005	0.776147	8.5123	0.83437	9.09086			0.593524	6.47104	0.714352	7.78096	0.902807	9.8875
0.426828	4.60578	0.190322	2.06922	0.6518	7.08746	0.781206	8.48112	0.83949	9.05473			0.597907	6.45328	0.719142	7.75444	0.906444	9.82706
0.428333	4.57601	0.192409	2.07093	0.657245	7.07499	0.786262	8.45053	0.844663	9.01988			0.602245	6.43539	0.723953	7.72867	0.910102	9.76806
0.429822	4.54667	0.194496	2.07261	0.662677	7.06263	0.791315	8.42052	0.849888	8.98627			0.606539	6.41738	0.728786	7.70364	0.913782	9.71045
0.431299	4.51776	0.196583	2.07425	0.668096	7.05038	0.796363	8.39105	0.855166	8.95387			0.610787	6.39924	0.733639	7.67932	0.917481	9.65418
0.432762	4.48928	0.198669	2.07586	0.673501	7.03821	0.801406	8.3621	0.860496	8.92263			0.614989	6.38098	0.738514	7.65568	0.921201	9.59921
0.434213	4.46121	0.200756	2.07743	0.67889	7.02613	0.806443	8.33364	0.865878	8.89253			0.619146	6.3626	0.743408	7.63269	0.924941	9.54551
0.435653	4.43356	0.202842	2.07898	0.684265	7.01412	0.811474	8.30566	0.87131	8.86351			0.623257	6.34411	0.748322	7.61035	0.928702	9.49304
0.437082	4.40633	0.204928	2.08049	0.689623	7.00217	0.816498	8.27814	0.876793	8.83554			0.627322	6.3255	0.753254	7.58861	0.932481	9.44176
0.438501	4.3795	0.207014	2.08198	0.694965	6.99028	0.821515	8.25107	0.882325	8.80859			0.631341	6.30677	0.758205	7.56745	0.936281	9.39163
0.43991	4.35307	0.2091	2.08343	0.70029	6.97844	0.826525	8.22442	0.887906	8.78262			0.635314	6.28794	0.763174	7.54686	0.9401	9.34262
0.441311	4.32704	0.211185	2.08486	0.705597	6.96664	0.831528	8.1982	0.893535	8.75758			0.639241	6.269	0.768159	7.52681	0.943938	9.2947
0.442704	4.30141	0.213271	2.08626	0.710885	6.95488	0.836524	8.17238	0.899209	8.73345			0.643123	6.24996	0.773161	7.50729	0.947795	9.24784
0.44409	4.27616	0.215356	2.08763	0.716155	6.94315	0.841513	8.14697	0.90493	8.71019			0.646958	6.23082	0.778178	7.48826	0.951671	9.20201
0.445468	4.25129	0.217442	2.08898	0.721405	6.93144	0.846495	8.12194	0.910694	8.68776			0.650749	6.21158	0.78321	7.46972	0.955565	9.15717
0.44684	4.2268	0.219527	2.0903	0.726636	6.91975	0.851472	8.09731	0.916501	8.66613			0.654494	6.19226	0.788257	7.45163	0.959478	9.1133
0.448206	4.20268	0.221612	2.0916	0.731846	6.90808	0.856443	8.07305	0.922349	8.64527			0.658194	6.17286	0.793316	7.43399	0.96341	9.07037
0.449566	4.17892	0.223697	2.09287	0.737035	6.89641	0.861408	8.04917	0.928238	8.62514			0.66185	6.15337	0.798389	7.41677	0.967359	9.02836
0.450921	4.15553	0.225782	2.09413	0.742203	6.88474	0.86637	8.02566	0.934165	8.60571			0.665461	6.13382	0.803473	7.39995	0.971327	8.98725
0.452271	4.13249	0.227866	2.09535	0.747349	6.87308	0.871327	8.00251	0.94013	8.58696			0.669028	6.11419	0.808569	7.38352	0.975312	8.94699
0.453617	4.10981	0.229951	2.09656	0.752473	6.86141	0.876281	7.97973	0.946131	8.56885			0.672552	6.0945	0.813675	7.36747	0.979316	8.90758
0.454959	4.08746	0.232036	2.09775	0.757574	6.84973	0.881232	7.9573	0.952167	8.55136			0.676032	6.07475	0.81879	7.35177	0.983336	8.869
0.456298	4.06546	0.23412	2.09891	0.762652	6.83804	0.886181	7.93523	0.958236	8.53446			0.67947	6.05495	0.823915	7.33641	0.987374	8.83121
0.457633	4.04378	0.236204	2.10006	0.767706	6.82633	0.891128	7.91351	0.964337	8.51812			0.682866	6.0351	0.829048	7.32137	0.99143	8.79419
0.458965	4.02244	0.238289	2.10118	0.772737	6.81461	0.896074	7.89213	0.97047	8.50231			0.686219	6.01521	0.834188	7.30664	0.995502	8.75794
0.460295	4.00142	0.240373	2.10229	0.777743	6.80286	0.90102	7.8711	0.976632	8.48702			0.689531	5.99528	0.839334	7.29221	0.999592	8.72242
0.461622	3.98072	0.242457	2.10338	0.782724	6.79109	0.905965	7.85041	0.982822	8.47222			0.692803	5.97532	0.844486	7.27806	1.0037	8.68762
0.462947	3.96033	0.244541	2.10445	0.787681	6.77929	0.910912	7.83006	0.989039	8.45788			0.696034	5.95533	0.849644	7.26418		
0.464271	3.94024	0.246625	2.1055	0.792611	6.76746	0.915859	7.81004	0.995282	8.444			0.699225	5.93532	0.854805	7.25056		
0.465593	3.92046	0.248709	2.10653	0.797516	6.7556	0.920808	7.79035	1.00155	8.43053			0.702376	5.91529	0.85997	7.23717		
0.466913	3.90098	0.250792	2.10755	0.802395	6.7437	0.92576	7.77098					0.705489	5.89525	0.865138	7.22402		
0.468233	3.88179	0.252876	2.10855	0.807247	6.73177	0.930713	7.75194					0.708564	5.8752	0.870309	7.21109		
0.469552	3.86288	0.25496	2.10954	0.812073	6.7198	0.93567	7.73321					0.711601	5.85515	0.87548	7.19837		
0.47087	3.84426	0.257043	2.11051	0.816871	6.70779	0.940629	7.71479					0.714601	5.8351	0.880652	7.18585		
0.472187	3.82591	0.259127	2.11146	0.821642	6.69574	0.945593	7.69669					0.717564	5.81506	0.885824	7.17352		
0.473505	3.80784	0.26121	2.1124	0.826386	6.68365	0.950559	7.67888					0.720492	5.79502	0.890995	7.16136		
0.474822	3.79004	0.263293	2.11332	0.831101	6.67152	0.955531	7.66138					0.723383	5.77501	0.896165	7.14938		
0.476139	3.7725	0.265377	2.11424	0.835789	6.65934	0.960506	7.64416					0.72624	5.75501	0.901333	7.13755		
0.477457	3.75522	0.26746	2.11513	0.840448	6.64712	0.965486	7.62724					0.729063	5.73503	0.906498	7.12588		
0.478775	3.73819	0.269543	2.11601	0.845079	6.63485	0.97047	7.6106					0.731852	5.71509	0.91166	7.11435		
0.480093	3.72142	0.271626	2.11688	0.849681	6.62254	0.975459	7.59424					0.734608	5.69517	0.916817	7.10295		
0.481413	3.70489	0.273709	2.11774	0.854254	6.61019	0.980453	7.57815					0.737331	5.67529	0.92197	7.09169		
0.482733	3.6886	0.275792	2.11858	0.858799	6.59778	0.985452	7.56233					0.740022	5.65545	0.927118	7.08054		
0.484054	3.67255	0.277875	2.11942	0.863314	6.58533	0.990456	7.54677					0.742681	5.63564	0.93226	7.0695		
0.485376	3.65673	0.279957	2.12023	0.8678	6.57284	0.995465	7.53147					0.74531	5.61589	0.937395	7.05858		
0.4867	3.64114	0.28204	2.12104	0.872256	6.5603	1.00048	7.51642					0.747908	5.59618	0.942523	7.04775		
0.488024	3.62578	0.284123	2.12184	0.876683	6.54771							0.750477	5.57652	0.947644	7.03701		
0.489351	3.61064	0.286206	2.12262	0.881081	6.53508							0.753016	5.55692	0.952756	7.02636		
0.490678	3.59572	0.288288	2.12339	0.885449	6.52241							0.755527	5.53738	0.95786	7.0158		
0.492008	3.58101	0.290371	2.12416	0.889787	6.50969							0.75801	5.51789	0.962954	7.00531		
0.493338	3.56651	0.292453	2.12491	0.894095	6.49692							0.760464	5.49847	0.968039	6.99488		
0.494671	3.55222	0.294536	2.12565	0.898374	6.48412							0.762892	5.47911	0.973114	6.98453		
0.496006	3.53813	0.296618	2.12638	0.902624	6.47127							0.765294	5.45983	0.978177	6.97424		
0.497342	3.52424	0.2987	2.1271	0.906843	6.45838							0.767669	5.44061	0.98323	6.964		
0.498681	3.51055	0.300783	2.12781	0.911033	6.44545							0.770019	5.42146	0.98827	6.95381		
0.500021	3.49705	0.302865	2.12851	0.915193	6.43249							0.772343	5.40239	0.993299	6.94367		
0.501364	3.48374	0.304947	2.1292	0.919324	6.41948							0.774644	5.3834	0.998314	6.93358		
0.502709	3.47062	0.307029	2.12989	0.923425	6.40644							0.77692	5.36449	1.00332	6.92352		
0.504056	3.45768	0.309111	2.13056	0.927496	6.39336							0.779173	5.34565				
0.505406	3.44492	0.311193	2.13122	0.931538	6.38024							0.781403	5.3269				
0.506758	3.43234	0.313275	2.13188	0.935551	6.3671							0.783611	5.30823				
0.508112	3.41993	0.315357	2.13253	0.939534	6.35392							0.785796	5.28965				
0.509469	3.40769	0.317439	2.13317	0.943488	6.34071							0.78796	5.27116				
0.510828	3.39562	0.319521	2.1338	0.947414	6.32747							0.790103	5.25276				
0.51219	3.38372	0.321603	2.13442	0.95131	6.3142							0.792225	5.23444				
0.513555	3.37198	0.323685	2.13504	0.955177	6.3009							0.794327	5.21622				
0.514922	3.3604	0.325767	2.13564	0.959016	6.28758							0.79641	5.19809				
0.516291	3.34897	0.327849	2.13624	0.962826	6.27423							0.798473	5.18006				
0.517664	3.3377	0.32993	2.13683	0.966607	6.26086							0.800517	5.16212				
0.519039	3.32659	0.332012	2.13742	0.970361	6.24747							0.802543	5.14428				
0.520417	3.31562	0.334094	2.138	0.974086	6.23406							0.804551	5.12653				
0.521798	3.3048	0.336175	2.13857	0.977783	6.22063							0.806541	5.10888				
0.523181	3.29412	0.338257	2.13913	0.981452	6.20718							0.808514	5.09133				
0.524567	3.28359	0.340338	2.13969	0.985093	6.19371							0.810471	5.07388				
0.525957	3.2732	0.34242	2.14024	0.988707	6.18023							0.81241	5.05653				
0.527349	3.26294	0.344501	2.14078	0.992293	6.16674							0.814334	5.03929				
0.528743	3.25282	0.346583	2.14132	0.995853	6.15323							0.816242	5.02214				
0.530141	3.24283	0.348664	2.14185	0.999385	6.13971							0.818135	5.00509				
0.531542	3.23297	0.350746	2.14237	1.00289	6.12618							0.820013	4.98815				
0.532946	3.22324	0.352827	2.14289									0.821877	4.97131				
0.534352	3.21364	0.354908	2.1434									0.823726	4.95458				
0.535762	3.20417	0.35699	2.14391									0.825562	4.93794				
0.537174	3.19481	0.359071	2.14441									0.827384	4.92142				
0.53859	3.18558	0.361152	2.1449									0.829192	4.90499				
0.540008	3.17646	0.363234	2.14539									0.830988	4.88867				
0.541429	3.16747	0.365315	2.14588									0.832771	4.87246				
0.542854	3.15858	0.367396	2.14636									0.834542	4.85634				
0.544281	3.14981	0.369477	2.14683									0.836301	4.84034				
0.545712	3.14115	0.371558	2.1473									0.838049	4.82444				
0.547145	3.1326	0.373639	2.14776									0.839785	4.80864				
0.548581	3.12416	0.37572	2.14822									0.84151	4.79295				
0.550021	3.11583	0.377801	2.14867									0.843224	4.77736				
0.551463	3.1076	0.379882	2.14912									0.844928	4.76188				
0.552909	3.09947	0.381963	2.14956									0.846622	4.7465				
0.554357	3.09144	0.384044	2.15									0.848305	4.73122				
0.555809	3.08352	0.386125	2.15043									0.849979	4.71605				
0.557263	3.07569	0.388206	2.15086									0.851644	4.70099				
0.55872	3.06796	0.390287	2.15128									0.853299	4.68602				
0.560181	3.06032	0.392368	2.1517									0.854945	4.67116				
0.561644	3.05277	0.394449	2.15212									0.856582	4.65641				
0.563111	3.04532	0.39653	2.15253									0.858211	4.64175				
0.56458	3.03796	0.398611	2.15294									0.859832	4.6272				
0.566053	3.03069	0.400691	2.15334									0.861445	4.61275				
0.567528	3.02351	0.402772	2.15374									0.86305	4.5984				
0.569006	3.01641	0.404853	2.15413									0.864647	4.58416				
0.570488	3.0094	0.406934	2.15452									0.866237	4.57001				
0.571972	3.00248	0.409014	2.15491									0.867819	4.55597				
0.573459	2.99563	0.411095	2.15529									0.869395	4.54202				
0.574949	2.98887	0.413176	2.15567									0.870964	4.52818				
0.576443	2.98219	0.415257	2.15605									0.872526	4.51443				
0.577939	2.97558	0.417337	2.15642									0.874081	4.50078				
0.579438	2.96906	0.419418	2.15678									0.875631	4.48724				
0.580939	2.96261	0.421498	2.15715									0.877174	4.47378				
0.582444	2.95624	0.423579	2.15751									0.878712	4.46043				
0.583952	2.94994	0.42566	2.15787									0.880244	4.44717				
0.585462	2.94372	0.42774	2.15822									0.88177	4.43401				
0.586976	2.93756	0.429821	2.15857									0.88329	4.42095				
0.588492	2.93148	0.431901	2.15892									0.884806	4.40798				
0.590011	2.92547	0.433982	2.15926									0.886316	4.3951				
0.591533	2.91953	0.436062	2.1596									0.887822	4.38232				
0.593058	2.91366	0.438143	2.15994									0.889323	4.36963				
0.594585	2.90786	0.440223	2.16027									0.890819	4.35704				
0.596116	2.90212	0.442304	2.1606									0.89231	4.34454				
0.597649	2.89644	0.444384	2.16093									0.893797	4.33212				
0.599185	2.89083	0.446464	2.16126									0.89528	4.31981				
0.600724	2.88529	0.448545	2.16158									0.896759	4.30758				
0.602265	2.8798	0.450625	2.1619									0.898234	4.29544				
0.603809	2.87438	0.452706	2.16221									0.899705	4.28339				
0.605356	2.86902	0.454786	2.16253									0.901173	4.27143				
0.606906	2.86372	0.456866	2.16284									0.902636	4.25955				
0.608458	2.85848	0.458947	2.16314									0.904097	4.24777				
0.610014	2.8533	0.461027	2.16345									0.905554	4.23607				
0.611571	2.84817	0.463107	2.16375									0.907007	4.22446				
0.613132	2.8431	0.465187	2.16405									0.908458	4.21293				
0.614695	2.83809	0.467268	2.16434									0.909905	4.20149				
0.616261	2.83313	0.469348	2.16464									0.91135	4.19014				
0.617829	2.82823	0.471428	2.16493									0.912792	4.17886				
0.6194	2.82338	0.473508	2.16522									0.914231	4.16768				
0.620974	2.81858	0.475589	2.16551									0.915667	4.15657				
0.62255	2.81383	0.477669	2.16579									0.917101	4.14555				
0.624129	2.80914	0.479749	2.16607									0.918532	4.1346				
0.62571	2.8045	0.481829	2.16635									0.919962	4.12374				
0.627294	2.79991	0.483909	2.16663									0.921388	4.11296				
0.628881	2.79536	0.485989	2.1669									0.922813	4.10226				
0.63047	2.79087	0.48807	2.16717									0.924236	4.09164				
0.632061	2.78642	0.49015	2.16744									0.925656	4.08109				
0.633655	2.78202	0.49223	2.16771									0.927075	4.07063				
0.635252	2.77767	0.49431	2.16797									0.928492	4.06024				
0.636851	2.77336	0.49639	2.16824									0.929907	4.04993				
0.638452	2.7691	0.49847	2.1685									0.931321	4.03969				
0.640056	2.76488	0.50055	2.16876									0.932733	4.02953				
0.641662	2.76071	0.50263	2.16901									0.934143	4.01944				
0.643271	2.75658	0.50471	2.16927									0.935552	4.00943				
0.644882	2.7525	0.50679	2.16952									0.936959	3.9995				
0.646496	2.74845	0.50887	2.16977									0.938365	3.98963				
0.648112	2.74445	0.51095	2.17002									0.93977	3.97984				
0.64973	2.74049	0.51303	2.17026									0.941174	3.97012				
0.651351	2.73658	0.51511	2.17051									0.942577	3.96047				
0.652974	2.7327	0.51719	2.17075									0.943978	3.95089				
0.654599	2.72886	0.51927	2.17099									0.945379	3.94139				
0.656226	2.72506	0.52135	2.17123									0.946778	3.93195				
0.657856	2.7213	0.52343	2.17147									0.948177	3.92258				
0.659489	2.71758	0.52551	2.1717									0.949575	3.91328				
0.661123	2.71389	0.52759	2.17193									0.950972	3.90405				
0.66276	2.71025	0.52967	2.17217									0.952368	3.89488				
0.664399	2.70664	0.53175	2.17239									0.953764	3.88578				
0.66604	2.70306	0.53383	2.17262									0.955159	3.87675				
0.667684	2.69953	0.535909	2.17285									0.956554	3.86778				
0.669329	2.69602	0.537989	2.17307									0.957948	3.85888				
0.670977	2.69256	0.540069	2.17329									0.959341	3.85005				
0.672627	2.68913	0.542149	2.17351									0.960734	3.84128				
0.674279	2.68573	0.544229	2.17373									0.962127	3.83257				
0.675934	2.68236	0.546309	2.17395									0.963519	3.82392				
0.67759	2.67903	0.548389	2.17417									0.964912	3.81534				
0.679249	2.67573	0.550468	2.17438									0.966303	3.80682				
0.68091	2.67247	0.552548	2.17459									0.967695	3.79836				
0.682573	2.66923	0.554628	2.1748									0.969087	3.78996				
0.684238	2.66603	0.556708	2.17501									0.970478	3.78162				
0.685905	2.66286	0.558788	2.17522									0.971869	3.77335				
0.687574	2.65972	0.560867	2.17543									0.973261	3.76513				
0.689245	2.65661	0.562947	2.17563									0.974652	3.75697				
0.690918	2.65353	0.565027	2.17583									0.976043	3.74887				
0.692594	2.65048	0.567107	2.17603									0.977435	3.74083				
0.694271	2.64746	0.569186	2.17623									0.978826	3.73284				
0.69595	2.64447	0.571266	2.17643									0.980218	3.72491				
0.697632	2.6415	0.573346	2.17663									0.981609	3.71704				
0.699315	2.63857	0.575425	2.17683									0.983001	3.70923				
0.701	2.63566	0.577505	2.17702									0.984394	3.70147				
0.702687	2.63278	0.579585	2.17721									0.985786	3.69376				
0.704377	2.62993	0.581665	2.17741									0.987179	3.68611				
0.706068	2.62711	0.583744	2.1776									0.988572	3.67852				
0.707761	2.62431	0.585824	2.17778									0.989965	3.67097				
0.709456	2.62154	0.587904	2.17797									0.991359	3.66348				
0.711152	2.61879	0.589983	2.17816									0.992753	3.65605				
0.712851	2.61607	0.592063	2.17834									0.994148	3.64867				
0.714552	2.61338	0.594142	2.17853									0.995543	3.64133				
0.716254	2.61071	0.596222	2.17871									0.996938	3.63405				
0.717959	2.60806	0.598302	2.17889									0.998334	3.62683				
0.719665	2.60544	0.600381	2.17907									0.999731	3.61965				
0.721373	2.60285	0.602461	2.17925									1.00113	3.61252				
0.723083	2.60027	0.604541	2.17943														
0.724794	2.59772	0.60662	2.1796														
0.726508	2.5952	0.6087	2.17978														
0.728223	2.5927	0.610779	2.17995														
0.72994	2.59022	0.612859	2.18012														
0.731659	2.58776	0.614938	2.1803														
0.733379	2.58533	0.617018	2.18047														
0.735101	2.58292	0.619098	2.18063														
0.736825	2.58053	0.621177	2.1808														
0.738551	2.57816	0.623257	2.18097														
0.740279	2.57581	0.625336	2.18114														
0.742008	2.57348	0.627416	2.1813														
0.743739	2.57118	0.629495	2.18146														
0.745471	2.56889	0.631575	2.18163														
0.747205	2.56663	0.633654	2.18179														
0.748941	2.56438	0.635734	2.18195														
0.750679	2.56216	0.637813	2.18211														
0.752418	2.55995	0.639893	2.18227														
0.754158	2.55777	0.641972	2.18242														
0.755901	2.5556	0.644052	2.18258														
0.757645	2.55346	0.646131	2.18273														
0.75939	2.55133	0.64821	2.18289														
0.761137	2.54922	0.65029	2.18304														
0.762886	2.54713	0.652369	2.18319														
0.764636	2.54505	0.654449	2.18335														
0.766388	2.543	0.656528	2.1835														
0.768142	2.54096	0.658608	2.18365														
0.769897	2.53894	0.660687	2.18379														
0.771653	2.53694	0.662766	2.18394														
0.773411	2.53495	0.664846	2.18409														
0.775171	2.53299	0.666925	2.18423														
0.776932	2.53103	0.669005	2.18438														
0.778694	2.5291	0.671084	2.18452														
0.780458	2.52718	0.673163	2.18467														
0.782224	2.52528	0.675243	2.18481														
0.78399	2.52339	0.677322	2.18495														
0.785759	2.52152	0.679401	2.18509														
0.787529	2.51967	0.681481	2.18523														
0.7893	2.51783	0.68356	2.18537														
0.791073	2.51601	0.68564	2.18551														
0.792847	2.5142	0.687719	2.18564														
0.794622	2.51241	0.689798	2.18578														
0.796399	2.51063	0.691877	2.18591														
0.798178	2.50887	0.693957	2.18605														
0.799957	2.50712	0.696036	2.18618														
0.801738	2.50539	0.698115	2.18632														
0.803521	2.50367	0.700195	2.18645														
0.805305	2.50196	0.702274	2.18658														
0.80709	2.50027	0.704353	2.18671														
0.808876	2.49859	0.706433	2.18684														
0.810664	2.49693	0.708512	2.18697														
0.812453	2.49528	0.710591	2.1871														
0.814244	2.49364	0.71267	2.18722														
0.816036	2.49202	0.71475	2.18735														
0.817829	2.49041	0.716829	2.18748														
0.819623	2.48881	0.718908	2.1876														
0.821419	2.48723	0.720987	2.18773														
0.823216	2.48566	0.723067	2.18785														
0.825014	2.4841	0.725146	2.18797														
0.826814	2.48256	0.727225	2.1881														
0.828615	2.48102	0.729304	2.18822														
0.830417	2.4795	0.731384	2.18834														
0.83222	2.47799	0.733463	2.18846														
0.834024	2.47649	0.735542	2.18858														
0.83583	2.47501	0.737621	2.1887														
0.837637	2.47353	0.7397	2.18882														
0.839445	2.47207	0.74178	2.18893														
0.841255	2.47062	0.743859	2.18905														
0.843065	2.46918	0.745938	2.18917														
0.844877	2.46776	0.748017	2.18928														
0.84669	2.46634	0.750096	2.1894														
0.848504	2.46493	0.752176	2.18951														
0.850319	2.46354	0.754255	2.18963														
0.852136	2.46216	0.756334	2.18974														
0.853953	2.46078	0.758413	2.18985														
0.855772	2.45942	0.760492	2.18996														
0.857592	2.45807	0.762571	2.19008														
0.859413	2.45673	0.764651	2.19019														
0.861235	2.4554	0.76673	2.1903														
0.863058	2.45408	0.768809	2.19041														
0.864883	2.45277	0.770888	2.19052														
0.866708	2.45147	0.772967	2.19062														
0.868535	2.45018	0.775046	2.19073														
0.870362	2.4489	0.777125	2.19084														
0.872191	2.44762	0.779204	2.19095														
0.874021	2.44636	0.781283	2.19105														
0.875852	2.44511	0.783363	2.19116														
0.877684	2.44387	0.785442	2.19126														
0.879517	2.44264	0.787521	2.19137														
0.881351	2.44141	0.7896	2.19147														
0.883186	2.4402	0.791679	2.19157														
0.885023	2.43899	0.793758	2.19168														
0.88686	2.4378	0.795837	2.19178														
0.888698	2.43661	0.797916	2.19188														
0.890537	2.43543	0.799995	2.19198														
0.892378	2.43426	0.802074	2.19208														
0.894219	2.4331	0.804153	2.19218														
0.896061	2.43195	0.806232	2.19228														
0.897905	2.43081	0.808311	2.19238														
0.899749	2.42967	0.81039	2.19248														
0.901594	2.42854	0.81247	2.19258														
0.903441	2.42742	0.814549	2.19267														
0.905288	2.42631	0.816628	2.19277														
0.907136	2.42521	0.818707	2.19287														
0.908985	2.42412	0.820786	2.19296														
0.910836	2.42303	0.822865	2.19306														
0.912687	2.42195	0.824944	2.19315														
0.914539	2.42088	0.827023	2.19325														
0.916392	2.41982	0.829102	2.19334														
0.918246	2.41876	0.831181	2.19344														
0.920101	2.41772	0.83326	2.19353														
0.921957	2.41668	0.835339	2.19362														
0.923813	2.41564	0.837418	2.19371														
0.925671	2.41462	0.839497	2.19381														
0.92753	2.4136	0.841576	2.1939														
0.929389	2.41259	0.843655	2.19399														
0.931249	2.41159	0.845734	2.19408														
0.933111	2.41059	0.847813	2.19417														
0.934973	2.4096	0.849891	2.19426														
0.936836	2.40862	0.85197	2.19435														
0.9387	2.40765	0.854049	2.19444														
0.940565	2.40668	0.856128	2.19452														
0.94243	2.40572	0.858207	2.19461														
0.944297	2.40476	0.860286	2.1947														
0.946164	2.40381	0.862365	2.19479														
0.948033	2.40287	0.864444	2.19487														
0.949902	2.40194	0.866523	2.19496														
0.951772	2.40101	0.868602	2.19504														
0.953643	2.40009	0.870681	2.19513														
0.955514	2.39917	0.87276	2.19521														
0.957387	2.39826	0.874839	2.1953														
0.95926	2.39736	0.876918	2.19538														
0.961134	2.39647	0.878997	2.19547														
0.963009	2.39558	0.881075	2.19555														
0.964885	2.39469	0.883154	2.19563														
0.966762	2.39381	0.885233	2.19571														
0.968639	2.39294	0.887312	2.1958														
0.970517	2.39208	0.889391	2.19588														
0.972396	2.39122	0.89147	2.19596														
0.974276	2.39036	0.893549	2.19604														
0.976156	2.38951	0.895628	2.19612														
0.978038	2.38867	0.897706	2.1962														
0.97992	2.38783	0.899785	2.19628														
0.981803	2.387	0.901864	2.19636														
0.983686	2.38618	0.903943	2.19644														
0.985571	2.38536	0.906022	2.19652														
0.987456	2.38454	0.908101	2.1966														
0.989342	2.38373	0.91018	2.19667														
0.991229	2.38293	0.912258	2.19675														
0.993116	2.38213	0.914337	2.19683														
0.995004	2.38134	0.916416	2.19691														
0.996893	2.38055	0.918495	2.19698														
0.998783	2.37977	0.920574	2.19706														
1.00067	2.37899	0.922653	2.19713														
		0.924731	2.19721														
		0.92681	2.19729														
		0.928889	2.19736														
		0.930968	2.19743														
		0.933047	2.19751														
		0.935126	2.19758														
		0.937204	2.19766														
		0.939283	2.19773														
		0.941362	2.1978														
		0.943441	2.19787														
		0.945519	2.19795														
		0.947598	2.19802														
		0.949677	2.19809														
		0.951756	2.19816														
		0.953835	2.19823														
		0.955913	2.1983														
		0.957992	2.19837														
		0.960071	2.19844														
		0.96215	2.19851														
		0.964228	2.19858														
		0.966307	2.19865														
		0.968386	2.19872														
		0.970465	2.19879														
		0.972543	2.19886														
		0.974622	2.19892														
		0.976701	2.19899														
		0.97878	2.19906														
		0.980858	2.19913														
		0.982937	2.19919														
		0.985016	2.19926														
		0.987094	2.19932														
		0.989173	2.19939														
		0.991252	2.19946														
		0.993331	2.19952														
		0.995409	2.19959														
		0.997488	2.19965														
		0.999567	2.19972														
		1.00165	2.19978														
