Sym0		Asym0		Sym1		Sym2		Sym3		Sym4		Asym1		Asym2		Asym3	
462  Points		493  Points		191  Points		151  Points		132  Points		99  Points		329  Points		163  Points		131  Points	
Freq (MHz)	Vph (m/ms)	Freq (MHz)	Vph (m/ms)	Freq (MHz)	Vph (m/ms)	Freq (MHz)	Vph (m/ms)	Freq (MHz)	Vph (m/ms)	Freq (MHz)	Vph (m/ms)	Freq (MHz)	Vph (m/ms)	Freq (MHz)	Vph (m/ms)	Freq (MHz)	Vph (m/ms)
0.00635078	6.8782	0.000342672	0.184522	0.279516	818.446	0.495843	2675.38	0.559031	970.527	0.838542	1011.55	0.139877	168.878	0.419297	493.848	0.698773	3138.59
0.0127583	6.87771	0.000768653	0.275624	0.279616	219.614	0.495871	443.919	0.55911	370.836	0.8386	476.298	0.140308	79.7219	0.419415	235.529	0.698809	605.378
0.0191639	6.8769	0.00135773	0.364936	0.279829	126.912	0.495941	242.073	0.559261	229.262	0.8387	311.511	0.141045	52.4007	0.419616	154.701	0.698893	335.035
0.0255668	6.87575	0.00210289	0.452024	0.280158	89.3187	0.496051	166.437	0.559483	165.965	0.838841	231.465	0.142082	39.2128	0.4199	115.227	0.699026	231.64
0.031966	6.87426	0.00299547	0.536452	0.280599	68.9721	0.496202	126.837	0.559775	130.096	0.839024	184.168	0.14341	31.4838	0.420267	91.8452	0.699208	177.041
0.0383605	6.87243	0.00402581	0.617877	0.281154	56.2308	0.496395	102.48	0.560139	107.009	0.839249	152.94	0.14502	26.4309	0.420717	76.3897	0.699439	143.295
0.0447493	6.87025	0.00518359	0.696041	0.28182	47.511	0.49663	85.989	0.560572	90.9108	0.839515	130.783	0.146898	22.8869	0.42125	65.4194	0.699718	120.375
0.0511316	6.86774	0.00645814	0.770758	0.282598	41.1747	0.496908	74.0857	0.561076	79.0485	0.839823	114.249	0.149033	20.2762	0.421864	57.2336	0.700045	103.795
0.0575062	6.86488	0.00783874	0.841913	0.283485	36.3672	0.497228	65.0916	0.56165	69.9477	0.840173	101.439	0.151411	18.2823	0.42256	50.8949	0.70042	91.2457
0.0638722	6.86165	0.00931491	0.909453	0.284481	32.5986	0.497592	58.0581	0.562292	62.747	0.840564	91.2246	0.154017	16.7164	0.423337	45.844	0.700844	81.4188
0.0702285	6.85807	0.0108767	0.973393	0.285583	29.5681	0.498	52.4084	0.563004	56.9096	0.840996	82.8901	0.156839	15.4594	0.424194	41.7268	0.701316	73.5164
0.0765739	6.85411	0.0125147	1.03378	0.28679	27.0808	0.498453	47.7721	0.563784	52.0833	0.84147	75.9613	0.159861	14.4319	0.425132	38.3081	0.701836	67.0248
0.0829073	6.84977	0.01422	1.09071	0.288101	25.0047	0.498953	43.9	0.564632	48.0278	0.841985	70.111	0.163072	13.5796	0.426149	35.4256	0.702404	61.5983
0.0892276	6.84505	0.0159845	1.14428	0.289513	23.2474	0.499499	40.6184	0.565547	44.5732	0.84254	65.1063	0.166457	12.8635	0.427244	32.9636	0.70302	56.9954
0.0955336	6.83993	0.017801	1.19464	0.291025	21.7422	0.500093	37.8026	0.566529	41.5961	0.843137	60.7767	0.170006	12.2553	0.428417	30.8374	0.703683	53.0426
0.101824	6.83439	0.0196628	1.24192	0.292634	20.4397	0.500736	35.3608	0.567577	39.0049	0.843775	56.9949	0.173705	11.7339	0.429668	28.9837	0.704393	49.6119
0.108097	6.82844	0.0215639	1.28631	0.294338	19.3026	0.501429	33.2238	0.56869	36.7297	0.844454	53.6635	0.177546	11.2832	0.430995	27.3541	0.705151	46.6069
0.114352	6.82205	0.023499	1.32793	0.296136	18.3022	0.502173	31.3385	0.569869	34.7167	0.845173	50.707	0.180999	10.9383	0.432397	25.9109	0.705956	43.9534
0.120587	6.81521	0.0254634	1.36697	0.298024	17.4161	0.50297	29.6635	0.571111	32.9237	0.845933	48.0658	0.184016	10.6742	0.433874	24.6246	0.706807	41.5937
0.126801	6.80791	0.0274531	1.40359	0.300001	16.6263	0.50382	28.166	0.572417	31.3169	0.846733	45.6924	0.18656	10.474	0.435425	23.4715	0.707706	39.4818
0.132992	6.80013	0.0294644	1.43792	0.302065	15.9187	0.504725	26.8196	0.573786	29.8693	0.847574	43.5483	0.1886	10.3262	0.437048	22.4324	0.70865	37.5811
0.139158	6.79185	0.0314941	1.47013	0.304212	15.2816	0.505687	25.6032	0.575218	28.5587	0.848455	41.602	0.190116	10.2229	0.438744	21.4916	0.709641	35.8618
0.145297	6.78306	0.0332757	1.49658	0.306442	14.7054	0.506705	24.4991	0.57671	27.3669	0.849376	39.8277	0.191094	10.1592	0.44051	20.6363	0.710678	34.2992
0.151408	6.77372	0.0348027	1.518	0.308752	14.1821	0.507783	23.4929	0.578264	26.2788	0.850336	38.2037	0.192508	10.0705	0.442345	19.8557	0.71176	32.8733
0.157489	6.76383	0.0360703	1.53497	0.31114	13.7053	0.508921	22.5726	0.579878	25.2817	0.851337	36.7119	0.194058	9.97784	0.444249	19.1407	0.712888	31.567
0.163537	6.75336	0.0370755	1.54794	0.313604	13.2692	0.510121	21.7279	0.581551	24.3649	0.852376	35.337	0.196185	9.85783	0.446221	18.4836	0.714061	30.3662
0.169551	6.74228	0.0378161	1.55723	0.316142	12.8693	0.511384	20.9503	0.583282	23.5194	0.853456	34.066	0.198906	9.71517	0.44826	17.8781	0.715279	29.2587
0.175527	6.73057	0.0382907	1.56306	0.318752	12.5014	0.512711	20.2324	0.585072	22.7373	0.854574	32.8875	0.202241	9.55507	0.450364	17.3185	0.716541	28.2343
0.181464	6.7182	0.0389738	1.57131	0.321433	12.1621	0.514105	19.568	0.586919	22.0121	0.855731	31.7922	0.206212	9.38278	0.452532	16.7999	0.717848	27.2841
0.187358	6.70515	0.0397173	1.58009	0.324183	11.8485	0.515566	18.9515	0.588823	21.3379	0.856927	30.7715	0.210843	9.20332	0.454763	16.3184	0.719199	26.4006
0.193208	6.69138	0.04073	1.59172	0.327002	11.5579	0.517096	18.3783	0.590782	20.7097	0.858162	29.8182	0.215546	9.04092	0.457057	15.8701	0.720593	25.577
0.199009	6.67685	0.0420132	1.60595	0.329887	11.2882	0.518696	17.8443	0.592797	20.1231	0.859435	28.926	0.220316	8.89346	0.459411	15.452	0.722031	24.8076
0.20476	6.66156	0.0435681	1.62246	0.332455	11.0686	0.520367	17.3458	0.594866	19.5743	0.860746	28.0893	0.225149	8.75911	0.461825	15.0612	0.723512	24.0874
0.210456	6.64545	0.045396	1.64092	0.334684	10.8918	0.522112	16.8797	0.59699	19.0598	0.862095	27.3032	0.230039	8.63632	0.464298	14.6953	0.725035	23.412
0.216095	6.62849	0.0474978	1.66095	0.336554	10.7524	0.523931	16.4433	0.599166	18.5767	0.863482	26.5633	0.234982	8.52375	0.466829	14.3522	0.726601	22.7773
0.221673	6.61065	0.0496034	1.67985	0.33805	10.6463	0.525825	16.0339	0.601396	18.1223	0.864906	25.8657	0.239975	8.42028	0.469415	14.0298	0.728209	22.1799
0.227186	6.5919	0.0517119	1.69769	0.33916	10.5704	0.527796	15.6494	0.603677	17.6943	0.866368	25.2071	0.245013	8.3249	0.472058	13.7266	0.729859	21.6167
0.23263	6.57221	0.0538227	1.71454	0.339874	10.5229	0.529845	15.2878	0.60601	17.2905	0.867866	24.5843	0.250092	8.23675	0.474754	13.4408	0.73155	21.0849
0.238002	6.55153	0.0559352	1.73048	0.340907	10.4557	0.531972	14.9473	0.608394	16.909	0.869402	23.9945	0.255211	8.15508	0.477503	13.1713	0.733281	20.5822
0.243298	6.52984	0.058049	1.74556	0.342038	10.3845	0.534179	14.6265	0.610827	16.5482	0.870974	23.4353	0.260364	8.07923	0.480305	12.9166	0.735054	20.1061
0.248514	6.50711	0.0601638	1.75985	0.343589	10.2902	0.536467	14.3237	0.613311	16.2064	0.872583	22.9044	0.26555	8.00862	0.483157	12.6757	0.736867	19.6548
0.253646	6.48332	0.062279	1.77339	0.345573	10.1752	0.538836	14.0377	0.615844	15.8823	0.874227	22.3997	0.270766	7.94273	0.486059	12.4476	0.738719	19.2264
0.25869	6.45844	0.0643947	1.78625	0.348005	10.0421	0.541288	13.7674	0.618425	15.5746	0.875908	21.9195	0.276009	7.88113	0.48901	12.2313	0.740612	18.8193
0.263642	6.43246	0.0665103	1.79845	0.350903	9.89394	0.543822	13.5117	0.621054	15.2823	0.877624	21.4621	0.281276	7.8234	0.492009	12.0261	0.742543	18.432
0.268499	6.40535	0.0686258	1.81005	0.35429	9.73374	0.546439	13.2695	0.623732	15.0042	0.879376	21.0258	0.286566	7.76919	0.495055	11.8311	0.744513	18.0632
0.273257	6.37712	0.0707411	1.82109	0.357743	9.58332	0.549139	13.0401	0.626456	14.7393	0.881162	20.6095	0.291875	7.71818	0.498146	11.6456	0.746521	17.7115
0.277913	6.34777	0.0728559	1.83161	0.361264	9.44198	0.551923	12.8225	0.629227	14.487	0.882984	20.2116	0.297202	7.67008	0.501282	11.4691	0.748568	17.376
0.282465	6.31729	0.0749701	1.84162	0.364853	9.3091	0.554791	12.6161	0.632044	14.2462	0.88484	19.8312	0.302545	7.62464	0.504051	11.3222	0.750652	17.0555
0.286909	6.28572	0.0770838	1.85118	0.368512	9.18412	0.557742	12.42	0.634907	14.0164	0.88673	19.467	0.307902	7.58162	0.506437	11.2016	0.752773	16.7491
0.291245	6.25306	0.0791969	1.8603	0.372241	9.06653	0.560777	12.2338	0.637815	13.7968	0.888655	19.1182	0.313271	7.54082	0.508427	11.1051	0.754931	16.456
0.295469	6.21935	0.0813091	1.86901	0.376042	8.95587	0.563895	12.0567	0.640768	13.5869	0.890613	18.7839	0.31865	7.50205	0.510013	11.0307	0.757126	16.1753
0.299582	6.18463	0.0834206	1.87734	0.379915	8.8517	0.567095	11.8883	0.643766	13.386	0.892605	18.4631	0.324037	7.46513	0.511185	10.977	0.759357	15.9064
0.303583	6.14895	0.0855314	1.88531	0.383862	8.75365	0.570377	11.7281	0.646809	13.1937	0.89463	18.1551	0.329431	7.42992	0.511937	10.9431	0.761623	15.6485
0.307471	6.11236	0.0876413	1.89294	0.387884	8.66134	0.573741	11.5755	0.649896	13.0094	0.896688	17.8592	0.33483	7.39627	0.513023	10.895	0.763924	15.4009
0.311247	6.07492	0.0897504	1.90026	0.391981	8.57443	0.576737	11.4484	0.653026	12.8327	0.898778	17.5747	0.340233	7.36406	0.514208	10.8436	0.766261	15.1632
0.314913	6.03669	0.0918588	1.90727	0.396153	8.49262	0.579339	11.3442	0.6562	12.6633	0.900902	17.301	0.345638	7.33316	0.515828	10.7749	0.768632	14.9348
0.31847	5.99774	0.0939662	1.91401	0.400401	8.4156	0.581524	11.2608	0.659418	12.5006	0.903057	17.0376	0.351043	7.30347	0.517891	10.6902	0.771037	14.7151
0.321919	5.95815	0.0960729	1.92047	0.404724	8.34308	0.583271	11.1965	0.662679	12.3444	0.905244	16.7838	0.356447	7.27489	0.520405	10.5908	0.773476	14.5038
0.325263	5.91799	0.0981788	1.92668	0.409122	8.27481	0.584568	11.1502	0.665984	12.1943	0.907463	16.5392	0.361849	7.24733	0.523381	10.4782	0.775949	14.3003
0.328504	5.87734	0.100284	1.93266	0.413593	8.21052	0.585403	11.1209	0.669331	12.05	0.909713	16.3034	0.367247	7.22071	0.526833	10.3542	0.778454	14.1043
0.331646	5.83627	0.102388	1.93841	0.418136	8.14996	0.586611	11.0794	0.672721	11.9113	0.911994	16.0759	0.37264	7.19494	0.530322	10.2353	0.780992	13.9154
0.334692	5.79486	0.104492	1.94395	0.422749	8.09291	0.587933	11.0351	0.676155	11.7778	0.914306	15.8562	0.378027	7.16996	0.533847	10.1214	0.783563	13.7332
0.337645	5.75318	0.106595	1.94928	0.42743	8.03914	0.589746	10.9759	0.679182	11.6655	0.916648	15.644	0.383405	7.1457	0.537409	10.0121	0.786165	13.5574
0.340509	5.71131	0.108697	1.95442	0.432177	7.98844	0.592064	10.9029	0.681789	11.5727	0.919021	15.439	0.388774	7.1221	0.541006	9.90711	0.788799	13.3878
0.343286	5.6693	0.110798	1.95938	0.436987	7.9406	0.594904	10.8173	0.683962	11.4979	0.921423	15.2409	0.394133	7.0991	0.544638	9.80631	0.791464	13.2239
0.345981	5.62722	0.112899	1.96417	0.441857	7.89542	0.598287	10.7205	0.685693	11.44	0.923855	15.0492	0.39948	7.07665	0.548304	9.70944	0.794159	13.0655
0.348598	5.58514	0.114999	1.96879	0.446784	7.85272	0.602235	10.6141	0.686971	11.398	0.926317	14.8637	0.404814	7.05471	0.552004	9.6163	0.796886	12.9125
0.351139	5.54311	0.117099	1.97326	0.451764	7.81233	0.606253	10.5123	0.687793	11.3715	0.928807	14.6841	0.410134	7.03322	0.555737	9.52671	0.799642	12.7644
0.353608	5.50119	0.119198	1.97758	0.456795	7.77407	0.610337	10.4148	0.688977	11.3337	0.931326	14.5102	0.415438	7.01213	0.559503	9.44048	0.802428	12.6212
0.35601	5.45941	0.121296	1.98176	0.461873	7.7378	0.614487	10.3216	0.69027	11.2932	0.933874	14.3417	0.420725	6.99143	0.563301	9.35746	0.805244	12.4825
0.358346	5.41784	0.123394	1.98581	0.466995	7.70337	0.6187	10.2322	0.692038	11.2389	0.93645	14.1784	0.425993	6.97105	0.567131	9.2775	0.808089	12.3483
0.360621	5.3765	0.125491	1.98972	0.472157	7.67063	0.622973	10.1465	0.694288	11.1716	0.939054	14.0201	0.431242	6.95097	0.570992	9.20044	0.810962	12.2183
0.362838	5.33543	0.127587	1.99352	0.477356	7.63947	0.627305	10.0644	0.697031	11.0922	0.941686	13.8665	0.436471	6.93115	0.574885	9.12615	0.813864	12.0922
0.364999	5.29467	0.129683	1.99719	0.48259	7.60975	0.631694	9.9855	0.700281	11.0018	0.944345	13.7174	0.441677	6.91157	0.578808	9.05452	0.816416	11.9856
0.367108	5.25425	0.131779	2.00076	0.487854	7.58138	0.636136	9.90978	0.704052	10.9014	0.947031	13.5728	0.44686	6.89219	0.582762	8.98541	0.818608	11.8969
0.369167	5.2142	0.133874	2.00422	0.493145	7.55423	0.64063	9.837	0.707868	10.8046	0.949744	13.4323	0.452019	6.87299	0.586746	8.91871	0.820432	11.825
0.37118	5.17452	0.135969	2.00757	0.498462	7.52823	0.645172	9.76702	0.71173	10.7113	0.952484	13.2958	0.457152	6.85394	0.59076	8.85433	0.821881	11.7691
0.373148	5.13526	0.138063	2.01083	0.503801	7.50328	0.649761	9.69968	0.715639	10.6212	0.95525	13.1632	0.462258	6.83502	0.594804	8.79217	0.822951	11.7286
0.374828	5.10139	0.140157	2.014	0.509159	7.4793	0.654393	9.63483	0.719595	10.5342	0.958042	13.0344	0.467335	6.8162	0.598877	8.73212	0.823638	11.7028
0.376237	5.07278	0.14225	2.01708	0.514534	7.45621	0.659066	9.57232	0.723598	10.4503	0.960859	12.9091	0.472384	6.79746	0.60298	8.6741	0.824627	11.6662
0.377386	5.0493	0.144343	2.02007	0.519924	7.43395	0.663778	9.51203	0.72765	10.3693	0.963703	12.7872	0.477401	6.77878	0.607112	8.61804	0.825706	11.6267
0.378285	5.03087	0.146436	2.02297	0.525326	7.41244	0.668524	9.45383	0.731751	10.2911	0.966571	12.6687	0.482387	6.76014	0.611273	8.56384	0.827179	11.5737
0.37894	5.01738	0.148528	2.0258	0.530738	7.39163	0.673304	9.3976	0.735903	10.2156	0.969465	12.5533	0.48734	6.74153	0.615462	8.51144	0.82905	11.5077
0.379357	5.00878	0.15062	2.02856	0.536158	7.37147	0.678113	9.34322	0.740105	10.1428	0.972383	12.441	0.492259	6.72292	0.619681	8.46076	0.831327	11.4295
0.379953	4.99645	0.152711	2.03124	0.541585	7.3519	0.682949	9.29059	0.74436	10.0725	0.974946	12.3455	0.497143	6.70431	0.623928	8.41174	0.834016	11.3399
0.380597	4.98312	0.154803	2.03385	0.547016	7.33288	0.687809	9.2396	0.748668	10.0046	0.977146	12.2659	0.50199	6.68568	0.628203	8.36432	0.837127	11.2398
0.381466	4.96508	0.156893	2.03639	0.552449	7.31437	0.692691	9.19015	0.75303	9.93919	0.978974	12.2012	0.5068	6.66701	0.632507	8.31843	0.840263	11.1425
0.382554	4.94243	0.158984	2.03887	0.557884	7.29632	0.697591	9.14216	0.757448	9.87604	0.980427	12.1508	0.511572	6.6483	0.636839	8.27402	0.843425	11.048
0.383855	4.91527	0.161074	2.04129	0.563318	7.2787	0.702506	9.09552	0.761921	9.81514	0.981498	12.1141	0.516304	6.62953	0.641199	8.23103	0.846612	10.956
0.385359	4.88376	0.163164	2.04364	0.56875	7.26147	0.707435	9.05017	0.766452	9.7564	0.982186	12.0908	0.520996	6.61069	0.645586	8.1894	0.849824	10.8665
0.387059	4.84806	0.165254	2.04594	0.57418	7.24461	0.712374	9.00601	0.771041	9.69978	0.983176	12.0575	0.525647	6.59178	0.650001	8.1491	0.853061	10.7795
0.388732	4.81285	0.167343	2.04818	0.579604	7.22809	0.717321	8.96298	0.775689	9.6452	0.984255	12.0217	0.530256	6.57278	0.654444	8.11006	0.856322	10.6948
0.39038	4.77813	0.169433	2.05037	0.585023	7.21187	0.722274	8.921	0.780397	9.59261	0.985728	11.9735	0.534822	6.55369	0.658914	8.07225	0.859607	10.6124
0.392004	4.74391	0.171522	2.05251	0.590435	7.19594	0.727229	8.88002	0.785165	9.54195	0.987598	11.9134	0.539344	6.5345	0.66341	8.03562	0.862917	10.5321
0.393606	4.71019	0.17361	2.0546	0.595839	7.18026	0.732185	8.83997	0.789995	9.49315	0.989872	11.842	0.543822	6.51521	0.667934	8.00013	0.86625	10.4539
0.395186	4.67696	0.175699	2.05664	0.601234	7.16483	0.73714	8.80079	0.794887	9.44618	0.992555	11.7599	0.548256	6.49582	0.672483	7.96572	0.869607	10.3777
0.396748	4.64423	0.177787	2.05863	0.606618	7.14962	0.742092	8.76245	0.799841	9.40096	0.995656	11.6678	0.552644	6.47632	0.677058	7.93238	0.872987	10.3035
0.39829	4.61199	0.179875	2.06057	0.611992	7.13461	0.747039	8.72487	0.804857	9.35745	0.998779	11.578	0.556986	6.4567	0.681659	7.90005	0.87639	10.2311
0.399815	4.58023	0.181963	2.06248	0.617354	7.11978	0.75198	8.68804	0.809936	9.31559	1.00192	11.4903	0.561281	6.43697	0.686285	7.8687	0.879815	10.1606
0.401324	4.54897	0.18405	2.06434	0.622703	7.10513	0.756913	8.65191	0.815077	9.27532			0.56553	6.41713	0.690936	7.83829	0.883264	10.0919
0.402818	4.51818	0.186138	2.06616	0.628038	7.09062	0.761838	8.61644	0.82028	9.2366			0.569731	6.39717	0.695611	7.80878	0.886734	10.0248
0.404297	4.48787	0.188225	2.06794	0.633359	7.07626	0.766754	8.5816	0.825544	9.19937			0.573885	6.3771	0.700309	7.78015	0.890227	9.95938
0.405762	4.45804	0.190312	2.06969	0.638664	7.06202	0.771659	8.54737	0.83087	9.16357			0.577992	6.35692	0.705031	7.75237	0.893742	9.89556
0.407216	4.42867	0.192399	2.07139	0.643954	7.0479	0.776554	8.51373	0.836255	9.12916			0.58205	6.33663	0.709775	7.72539	0.897279	9.83328
0.408657	4.39976	0.194485	2.07306	0.649226	7.03389	0.781438	8.48065	0.8417	9.09608			0.586061	6.31623	0.71454	7.69918	0.900837	9.77249
0.410087	4.37131	0.196572	2.0747	0.654482	7.01996	0.786311	8.44812	0.847202	9.06428			0.590024	6.29572	0.719327	7.67372	0.904417	9.71315
0.411508	4.34332	0.198658	2.0763	0.659719	7.00612	0.791174	8.41612	0.852762	9.03371			0.593939	6.27511	0.724135	7.64898	0.908017	9.6552
0.412918	4.31577	0.200744	2.07787	0.664937	6.99235	0.796027	8.38464	0.858376	9.00432			0.597807	6.25441	0.728962	7.62493	0.911639	9.59862
0.41432	4.28865	0.20283	2.07941	0.670136	6.97864	0.800869	8.35367	0.864045	8.97606			0.601627	6.23361	0.733808	7.60154	0.915281	9.54335
0.415714	4.26198	0.204916	2.08092	0.675314	6.965	0.805702	8.32319	0.869766	8.94887			0.605399	6.21272	0.738672	7.57878	0.918944	9.48936
0.417099	4.23572	0.207002	2.0824	0.680472	6.9514	0.810527	8.29321	0.875537	8.92272			0.609124	6.19175	0.743554	7.55663	0.922628	9.43661
0.418478	4.20989	0.209087	2.08384	0.685609	6.93784	0.815343	8.26371	0.881358	8.89756			0.612803	6.1707	0.748452	7.53507	0.926331	9.38505
0.41985	4.18448	0.211173	2.08527	0.690724	6.92431	0.820152	8.23469	0.887226	8.87333			0.616435	6.14958	0.753366	7.51406	0.930055	9.33467
0.421217	4.15947	0.213258	2.08666	0.695816	6.91082	0.824954	8.20614	0.893139	8.85001			0.62002	6.12839	0.758295	7.49358	0.933798	9.28541
0.422577	4.13487	0.215343	2.08803	0.700885	6.89734	0.829751	8.17806	0.899097	8.82755			0.62356	6.10714	0.763238	7.47362	0.937561	9.23725
0.423933	4.11065	0.217428	2.08937	0.705931	6.88388	0.834542	8.15044	0.905096	8.8059			0.627055	6.08583	0.768194	7.45414	0.941344	9.19016
0.425284	4.08683	0.219513	2.09069	0.710953	6.87043	0.83933	8.12328	0.911136	8.78503			0.630504	6.06447	0.773162	7.43513	0.945146	9.1441
0.426631	4.06339	0.221598	2.09198	0.715951	6.85699	0.844114	8.09658	0.917215	8.76491			0.633909	6.04307	0.778142	7.41657	0.948967	9.09905
0.427973	4.04033	0.223682	2.09325	0.720923	6.84354	0.848896	8.07032	0.923332	8.74549			0.63727	6.02163	0.783132	7.39843	0.952807	9.05498
0.429313	4.01764	0.225767	2.09449	0.72587	6.8301	0.853676	8.04451	0.929483	8.72675			0.640588	6.00015	0.788132	7.3807	0.956666	9.01186
0.430649	3.99531	0.227852	2.09572	0.730791	6.81664	0.858455	8.01915	0.935669	8.70864			0.643863	5.97865	0.79314	7.36336	0.960544	8.96966
0.431983	3.97334	0.229936	2.09692	0.735686	6.80318	0.863235	7.99421	0.941887	8.69115			0.647096	5.95713	0.798156	7.34638	0.96444	8.92837
0.433314	3.95172	0.23202	2.0981	0.740554	6.78969	0.868015	7.96972	0.948136	8.67424			0.650287	5.9356	0.803179	7.32976	0.968355	8.88795
0.434643	3.93044	0.234104	2.09926	0.745395	6.77619	0.872796	7.94565	0.954414	8.65788			0.653437	5.91405	0.808208	7.31347	0.972287	8.84838
0.43597	3.9095	0.236188	2.1004	0.750208	6.76267	0.877579	7.922	0.960721	8.64205			0.656546	5.89251	0.813243	7.2975	0.976238	8.80963
0.437296	3.8889	0.238272	2.10152	0.754994	6.74913	0.882365	7.89876	0.967054	8.62671			0.659616	5.87096	0.818281	7.28184	0.980207	8.7717
0.43862	3.86862	0.240356	2.10262	0.759751	6.73555	0.887153	7.87594	0.973412	8.61186			0.662646	5.84943	0.823323	7.26646	0.984193	8.73454
0.439943	3.84866	0.24244	2.1037	0.76448	6.72195	0.891945	7.85353	0.979794	8.59745			0.665638	5.82791	0.828368	7.25135	0.988197	8.69816
0.441266	3.82902	0.244524	2.10477	0.769179	6.70832	0.896742	7.83151	0.986199	8.58348			0.668591	5.8064	0.833414	7.23651	0.992218	8.66251
0.442587	3.80969	0.246607	2.10581	0.77385	6.69466	0.901542	7.80988	0.992625	8.56992			0.671507	5.78492	0.838462	7.22191	0.996257	8.62759
0.443909	3.79067	0.248691	2.10684	0.778491	6.68096	0.906347	7.78865	0.999071	8.55674			0.674387	5.76347	0.843509	7.20755	1.00031	8.59338
0.44523	3.77194	0.250774	2.10786	0.783102	6.66722	0.911157	7.76779	1.00554	8.54393			0.677231	5.74205	0.848556	7.1934		
0.446551	3.75351	0.252857	2.10885	0.787684	6.65345	0.915972	7.74731					0.680039	5.72067	0.853601	7.17947		
0.447873	3.73536	0.254941	2.10983	0.792235	6.63964	0.920793	7.72719					0.682812	5.69933	0.858644	7.16573		
0.449195	3.7175	0.257024	2.1108	0.796756	6.62579	0.92562	7.70743					0.685551	5.67804	0.863684	7.15218		
0.450517	3.69991	0.259107	2.11175	0.801246	6.61191	0.930452	7.68803					0.688257	5.65679	0.868721	7.13881		
0.45184	3.6826	0.26119	2.11268	0.805706	6.59798	0.935291	7.66897					0.69093	5.6356	0.873753	7.1256		
0.453164	3.66556	0.263273	2.1136	0.810135	6.58401	0.940135	7.65024					0.69357	5.61448	0.878779	7.11255		
0.454489	3.64878	0.265356	2.11451	0.814532	6.57	0.944986	7.63185					0.696179	5.59341	0.8838	7.09965		
0.455815	3.63225	0.267438	2.1154	0.818899	6.55596	0.949842	7.61379					0.698757	5.57241	0.888814	7.08689		
0.457142	3.61598	0.269521	2.11628	0.823234	6.54187	0.954705	7.59603					0.701304	5.55147	0.893821	7.07426		
0.458471	3.59996	0.271604	2.11714	0.827539	6.52774	0.959574	7.57859					0.703822	5.53061	0.89882	7.06175		
0.459801	3.58419	0.273687	2.11799	0.831812	6.51358	0.964448	7.56145					0.70631	5.50983	0.903811	7.04936		
0.461133	3.56865	0.275769	2.11883	0.836053	6.49938	0.969328	7.5446					0.70877	5.48912	0.908792	7.03707		
0.462466	3.55335	0.277852	2.11966	0.840264	6.48514	0.974214	7.52804					0.711202	5.4685	0.913763	7.02489		
0.463801	3.53828	0.279934	2.12047	0.844442	6.47086	0.979106	7.51176					0.713607	5.44796	0.918724	7.0128		
0.465138	3.52343	0.282016	2.12128	0.84859	6.45654	0.984002	7.49574					0.715984	5.4275	0.923674	7.00079		
0.466478	3.50881	0.284099	2.12207	0.852706	6.4422	0.988904	7.47999					0.718336	5.40714	0.928613	6.98887		
0.467819	3.49441	0.286181	2.12285	0.856791	6.42781	0.993811	7.4645					0.720661	5.38687	0.933539	6.97702		
0.469162	3.48023	0.288263	2.12362	0.860845	6.4134	0.998722	7.44926					0.722962	5.36669	0.938453	6.96525		
0.470507	3.46625	0.290345	2.12437	0.864868	6.39895	1.00364	7.43426					0.725237	5.3466	0.943354	6.95354		
0.471855	3.45248	0.292427	2.12512	0.86886	6.38447							0.727489	5.32662	0.94824	6.94188		
0.473205	3.43892	0.294509	2.12586	0.872821	6.36997							0.729717	5.30673	0.953113	6.93029		
0.474558	3.42555	0.296591	2.12658	0.87675	6.35543							0.731923	5.28694	0.957971	6.91874		
0.475913	3.41238	0.298673	2.1273	0.88065	6.34088							0.734105	5.26726	0.962814	6.90724		
0.47727	3.39941	0.300755	2.12801	0.884519	6.32629							0.736266	5.24768	0.967641	6.89578		
0.47863	3.38662	0.302837	2.12871	0.888357	6.31169							0.738405	5.22821	0.972453	6.88435		
0.479993	3.37402	0.304919	2.12939	0.892165	6.29706							0.740523	5.20885	0.977247	6.87296		
0.481358	3.3616	0.307001	2.13007	0.895943	6.28241							0.742621	5.18959	0.982025	6.86161		
0.482726	3.34936	0.309082	2.13074	0.899691	6.26774							0.744698	5.17045	0.986786	6.85028		
0.484097	3.3373	0.311164	2.1314	0.903409	6.25306							0.746756	5.15141	0.991529	6.83897		
0.485471	3.32541	0.313246	2.13205	0.907098	6.23836							0.748795	5.13249	0.996254	6.82768		
0.486847	3.31369	0.315327	2.1327	0.910757	6.22365							0.750815	5.11368	1.00096	6.81642		
0.488227	3.30214	0.317409	2.13333	0.914387	6.20892							0.752817	5.09498				
0.489609	3.29075	0.31949	2.13396	0.917988	6.19419							0.754801	5.0764				
0.490994	3.27952	0.321572	2.13458	0.92156	6.17944							0.756768	5.05793				
0.492382	3.26846	0.323653	2.13519	0.925104	6.16469							0.758718	5.03958				
0.493773	3.25754	0.325735	2.13579	0.928619	6.14993							0.760651	5.02135				
0.495167	3.24678	0.327816	2.13639	0.932106	6.13517							0.762568	5.00323				
0.496564	3.23617	0.329897	2.13698	0.935565	6.12041							0.764469	4.98523				
0.497965	3.22571	0.331978	2.13756	0.938997	6.10564							0.766355	4.96735				
0.499368	3.2154	0.33406	2.13813	0.942401	6.09087							0.768226	4.94959				
0.500774	3.20522	0.336141	2.1387	0.945777	6.07611							0.770082	4.93194				
0.502183	3.19519	0.338222	2.13926	0.949127	6.06135							0.771925	4.91442				
0.503596	3.18529	0.340303	2.13981	0.952449	6.04659							0.773753	4.89701				
0.505011	3.17553	0.342384	2.14036	0.955746	6.03184							0.775568	4.87972				
0.50643	3.16591	0.344465	2.1409	0.959015	6.01709							0.777369	4.86255				
0.507852	3.15641	0.346546	2.14143	0.962259	6.00236							0.779158	4.8455				
0.509277	3.14704	0.348627	2.14196	0.965477	5.98763							0.780934	4.82857				
0.510705	3.1378	0.350708	2.14248	0.968669	5.97291							0.782698	4.81175				
0.512136	3.12869	0.352789	2.143	0.971836	5.95821							0.78445	4.79506				
0.51357	3.11969	0.35487	2.14351	0.974977	5.94352							0.78619	4.77848				
0.515008	3.11082	0.356951	2.14401	0.978094	5.92885							0.787919	4.76203				
0.516448	3.10206	0.359032	2.14451	0.981186	5.91419							0.789637	4.74569				
0.517892	3.09342	0.361112	2.145	0.984253	5.89955							0.791345	4.72947				
0.519339	3.0849	0.363193	2.14548	0.987297	5.88492							0.793042	4.71336				
0.520789	3.07649	0.365274	2.14596	0.990316	5.87032							0.794729	4.69738				
0.522243	3.06819	0.367355	2.14644	0.993312	5.85574							0.796406	4.68151				
0.523699	3.05999	0.369435	2.14691	0.996284	5.84118							0.798073	4.66576				
0.525159	3.05191	0.371516	2.14737	0.999232	5.82664							0.799731	4.65012				
0.526622	3.04393	0.373597	2.14783	1.00216	5.81212							0.80138	4.63461				
0.528088	3.03605	0.375677	2.14829									0.803021	4.6192				
0.529557	3.02828	0.377758	2.14874									0.804652	4.60391				
0.531029	3.0206	0.379838	2.14918									0.806276	4.58874				
0.532505	3.01303	0.381919	2.14962									0.807891	4.57368				
0.533983	3.00555	0.384	2.15006									0.809498	4.55873				
0.535465	2.99816	0.38608	2.15049									0.811098	4.5439				
0.53695	2.99087	0.38816	2.15091									0.81269	4.52918				
0.538437	2.98368	0.390241	2.15134									0.814275	4.51457				
0.539928	2.97657	0.392321	2.15175									0.815853	4.50007				
0.541422	2.96956	0.394402	2.15217									0.817424	4.48569				
0.54292	2.96263	0.396482	2.15257									0.818988	4.47141				
0.54442	2.95579	0.398562	2.15298									0.820546	4.45724				
0.545923	2.94903	0.400643	2.15338									0.822098	4.44319				
0.54743	2.94236	0.402723	2.15377									0.823644	4.42924				
0.548939	2.93577	0.404803	2.15417									0.825183	4.4154				
0.550451	2.92927	0.406884	2.15455									0.826717	4.40166				
0.551967	2.92284	0.408964	2.15494									0.828246	4.38803				
0.553485	2.91649	0.411044	2.15532									0.829769	4.37451				
0.555007	2.91022	0.413124	2.15569									0.831287	4.36109				
0.556531	2.90403	0.415204	2.15607									0.8328	4.34778				
0.558059	2.89791	0.417285	2.15643									0.834308	4.33457				
0.559589	2.89186	0.419365	2.1568									0.835811	4.32146				
0.561122	2.88589	0.421445	2.15716									0.83731	4.30845				
0.562659	2.87999	0.423525	2.15752									0.838805	4.29555				
0.564198	2.87417	0.425605	2.15787									0.840295	4.28274				
0.56574	2.86841	0.427685	2.15822									0.84178	4.27004				
0.567285	2.86272	0.429765	2.15857									0.843262	4.25744				
0.568833	2.8571	0.431845	2.15892									0.84474	4.24493				
0.570384	2.85154	0.433925	2.15926									0.846215	4.23252				
0.571938	2.84605	0.436005	2.1596									0.847685	4.22021				
0.573494	2.84063	0.438085	2.15993									0.849152	4.208				
0.575053	2.83527	0.440165	2.16026									0.850616	4.19588				
0.576616	2.82997	0.442245	2.16059									0.852077	4.18385				
0.578181	2.82473	0.444325	2.16092									0.853534	4.17192				
0.579748	2.81956	0.446405	2.16124									0.854988	4.16009				
0.581319	2.81444	0.448485	2.16156									0.85644	4.14834				
0.582892	2.80939	0.450565	2.16187									0.857888	4.13669				
0.584468	2.80439	0.452644	2.16219									0.859334	4.12513				
0.586047	2.79945	0.454724	2.1625									0.860777	4.11366				
0.587628	2.79457	0.456804	2.16281									0.862218	4.10228				
0.589213	2.78974	0.458884	2.16311									0.863656	4.09099				
0.590799	2.78497	0.460964	2.16341									0.865092	4.07979				
0.592389	2.78025	0.463043	2.16371									0.866526	4.06867				
0.593981	2.77559	0.465123	2.16401									0.867958	4.05764				
0.595576	2.77098	0.467203	2.16431									0.869388	4.0467				
0.597174	2.76642	0.469283	2.1646									0.870815	4.03584				
0.598774	2.76191	0.471362	2.16489									0.872241	4.02507				
0.600376	2.75745	0.473442	2.16517									0.873665	4.01438				
0.601982	2.75304	0.475522	2.16546									0.875088	4.00378				
0.60359	2.74868	0.477602	2.16574									0.876509	3.99326				
0.6052	2.74437	0.479681	2.16602									0.877928	3.98282				
0.606813	2.74011	0.481761	2.1663									0.879346	3.97246				
0.608428	2.7359	0.48384	2.16657									0.880762	3.96218				
0.610046	2.73173	0.48592	2.16684									0.882177	3.95198				
0.611667	2.7276	0.488	2.16711									0.883591	3.94186				
0.61329	2.72353	0.490079	2.16738									0.885003	3.93182				
0.614915	2.71949	0.492159	2.16764									0.886415	3.92186				
0.616543	2.7155	0.494238	2.16791									0.887825	3.91198				
0.618173	2.71156	0.496318	2.16817									0.889235	3.90217				
0.619806	2.70765	0.498397	2.16843									0.890643	3.89243				
0.621441	2.70379	0.500477	2.16868									0.892051	3.88278				
0.623079	2.69997	0.502557	2.16894									0.893458	3.87319				
0.624719	2.69619	0.504636	2.16919									0.894864	3.86368				
0.626361	2.69245	0.506716	2.16944									0.89627	3.85425				
0.628006	2.68875	0.508795	2.16969									0.897674	3.84488				
0.629653	2.68509	0.510875	2.16994									0.899079	3.83559				
0.631302	2.68147	0.512954	2.17018									0.900482	3.82637				
0.632953	2.67789	0.515033	2.17042									0.901886	3.81722				
0.634607	2.67435	0.517113	2.17066									0.903288	3.80814				
0.636263	2.67084	0.519192	2.1709									0.904691	3.79913				
0.637922	2.66737	0.521272	2.17114									0.906093	3.79019				
0.639583	2.66393	0.523351	2.17137									0.907495	3.78132				
0.641245	2.66054	0.52543	2.17161									0.908897	3.77251				
0.642911	2.65717	0.52751	2.17184									0.910298	3.76377				
0.644578	2.65385	0.529589	2.17207									0.911699	3.7551				
0.646247	2.65055	0.531669	2.17229									0.9131	3.7465				
0.647919	2.64729	0.533748	2.17252									0.914501	3.73796				
0.649593	2.64407	0.535827	2.17274									0.915903	3.72948				
0.651269	2.64087	0.537907	2.17296									0.917304	3.72107				
0.652947	2.63771	0.539986	2.17318									0.918705	3.71272				
0.654627	2.63458	0.542065	2.1734									0.920106	3.70443				
0.65631	2.63149	0.544144	2.17362									0.921508	3.69621				
0.657994	2.62842	0.546224	2.17384									0.922909	3.68805				
0.659681	2.62539	0.548303	2.17405									0.924311	3.67995				
0.661369	2.62239	0.550382	2.17426									0.925713	3.67191				
0.66306	2.61941	0.552462	2.17447									0.927115	3.66393				
0.664753	2.61647	0.554541	2.17468									0.928518	3.65602				
0.666448	2.61356	0.55662	2.17489									0.929921	3.64816				
0.668144	2.61067	0.558699	2.17509									0.931324	3.64036				
0.669843	2.60781	0.560778	2.1753									0.932728	3.63261				
0.671544	2.60499	0.562858	2.1755									0.934132	3.62493				
0.673247	2.60219	0.564937	2.1757									0.935536	3.6173				
0.674951	2.59942	0.567016	2.1759									0.936941	3.60973				
0.676658	2.59667	0.569095	2.1761									0.938347	3.60221				
0.678367	2.59395	0.571174	2.1763									0.939753	3.59476				
0.680077	2.59126	0.573254	2.17649									0.94116	3.58735				
0.681789	2.5886	0.575333	2.17669									0.942567	3.58				
0.683504	2.58596	0.577412	2.17688									0.943975	3.57271				
0.68522	2.58335	0.579491	2.17707									0.945383	3.56546				
0.686938	2.58076	0.58157	2.17726									0.946792	3.55827				
0.688658	2.5782	0.583649	2.17745									0.948202	3.55114				
0.69038	2.57566	0.585728	2.17764									0.949613	3.54406				
0.692103	2.57314	0.587807	2.17782									0.951024	3.53702				
0.693829	2.57065	0.589886	2.17801									0.952436	3.53004				
0.695556	2.56819	0.591966	2.17819									0.953849	3.52311				
0.697285	2.56575	0.594045	2.17837									0.955262	3.51623				
0.699016	2.56333	0.596124	2.17856									0.956677	3.5094				
0.700749	2.56093	0.598203	2.17874									0.958092	3.50262				
0.702483	2.55856	0.600282	2.17891									0.959508	3.49589				
0.70422	2.55621	0.602361	2.17909									0.960925	3.48921				
0.705957	2.55388	0.60444	2.17927									0.962343	3.48258				
0.707697	2.55157	0.606519	2.17944									0.963761	3.47599				
0.709438	2.54929	0.608598	2.17961									0.965181	3.46945				
0.711182	2.54702	0.610677	2.17979									0.966601	3.46296				
0.712926	2.54478	0.612756	2.17996									0.968023	3.45652				
0.714673	2.54256	0.614835	2.18013									0.969445	3.45012				
0.716421	2.54036	0.616914	2.1803									0.970869	3.44377				
0.718171	2.53818	0.618993	2.18046									0.972293	3.43746				
0.719922	2.53602	0.621072	2.18063									0.973719	3.4312				
0.721676	2.53388	0.623151	2.1808									0.975145	3.42498				
0.72343	2.53176	0.62523	2.18096									0.976572	3.4188				
0.725187	2.52965	0.627309	2.18112									0.978001	3.41267				
0.726945	2.52757	0.629387	2.18129									0.97943	3.40659				
0.728704	2.52551	0.631466	2.18145									0.980861	3.40054				
0.730466	2.52346	0.633545	2.18161									0.982293	3.39454				
0.732228	2.52144	0.635624	2.18177									0.983726	3.38858				
0.733993	2.51943	0.637703	2.18192									0.98516	3.38267				
0.735759	2.51744	0.639782	2.18208									0.986595	3.37679				
0.737526	2.51547	0.641861	2.18224									0.988031	3.37096				
0.739295	2.51352	0.64394	2.18239									0.989468	3.36516				
0.741066	2.51158	0.646019	2.18255									0.990907	3.35941				
0.742838	2.50966	0.648097	2.1827									0.992346	3.3537				
0.744611	2.50776	0.650176	2.18285									0.993787	3.34803				
0.746386	2.50588	0.652255	2.183									0.995229	3.34239				
0.748163	2.50401	0.654334	2.18315									0.996672	3.3368				
0.749941	2.50216	0.656413	2.1833									0.998117	3.33124				
0.75172	2.50032	0.658492	2.18345									0.999562	3.32573				
0.753501	2.4985	0.660571	2.1836									1.00101	3.32025				
0.755284	2.4967	0.662649	2.18374														
0.757068	2.49491	0.664728	2.18389														
0.758853	2.49314	0.666807	2.18403														
0.76064	2.49138	0.668886	2.18418														
0.762428	2.48964	0.670965	2.18432														
0.764217	2.48792	0.673043	2.18446														
0.766008	2.48621	0.675122	2.1846														
0.767801	2.48451	0.677201	2.18474														
0.769594	2.48283	0.67928	2.18488														
0.771389	2.48116	0.681358	2.18502														
0.773186	2.47951	0.683437	2.18515														
0.774984	2.47787	0.685516	2.18529														
0.776783	2.47625	0.687595	2.18543														
0.778583	2.47464	0.689673	2.18556														
0.780385	2.47304	0.691752	2.1857														
0.782188	2.47146	0.693831	2.18583														
0.783993	2.46989	0.695909	2.18596														
0.785798	2.46833	0.697988	2.18609														
0.787605	2.46679	0.700067	2.18622														
0.789414	2.46526	0.702146	2.18635														
0.791223	2.46374	0.704224	2.18648														
0.793034	2.46224	0.706303	2.18661														
0.794846	2.46075	0.708382	2.18674														
0.796659	2.45927	0.71046	2.18687														
0.798474	2.4578	0.712539	2.18699														
0.80029	2.45634	0.714618	2.18712														
0.802107	2.4549	0.716696	2.18724														
0.803925	2.45347	0.718775	2.18737														
0.805745	2.45205	0.720854	2.18749														
0.807565	2.45064	0.722932	2.18761														
0.809387	2.44925	0.725011	2.18774														
0.81121	2.44786	0.727089	2.18786														
0.813035	2.44649	0.729168	2.18798														
0.81486	2.44513	0.731247	2.1881														
0.816687	2.44378	0.733325	2.18822														
0.818515	2.44244	0.735404	2.18834														
0.820343	2.44111	0.737482	2.18845														
0.822173	2.43979	0.739561	2.18857														
0.824005	2.43848	0.74164	2.18869														
0.825837	2.43718	0.743718	2.1888														
0.82767	2.4359	0.745797	2.18892														
0.829505	2.43462	0.747875	2.18903														
0.831341	2.43335	0.749954	2.18915														
0.833178	2.4321	0.752032	2.18926														
0.835015	2.43085	0.754111	2.18937														
0.836854	2.42961	0.756189	2.18949														
0.838694	2.42839	0.758268	2.1896														
0.840536	2.42717	0.760346	2.18971														
0.842378	2.42596	0.762425	2.18982														
0.844221	2.42477	0.764503	2.18993														
0.846065	2.42358	0.766582	2.19004														
0.847911	2.4224	0.76866	2.19015														
0.849757	2.42123	0.770739	2.19025														
0.851604	2.42007	0.772817	2.19036														
0.853453	2.41892	0.774896	2.19047														
0.855302	2.41777	0.776974	2.19057														
0.857153	2.41664	0.779053	2.19068														
0.859004	2.41551	0.781131	2.19078														
0.860857	2.4144	0.78321	2.19089														
0.86271	2.41329	0.785288	2.19099														
0.864565	2.41219	0.787367	2.1911														
0.86642	2.4111	0.789445	2.1912														
0.868277	2.41002	0.791524	2.1913														
0.870134	2.40894	0.793602	2.1914														
0.871993	2.40788	0.795681	2.1915														
0.873852	2.40682	0.797759	2.1916														
0.875712	2.40577	0.799837	2.1917														
0.877574	2.40473	0.801916	2.1918														
0.879436	2.4037	0.803994	2.1919														
0.881299	2.40267	0.806073	2.192														
0.883163	2.40165	0.808151	2.1921														
0.885028	2.40064	0.810229	2.1922														
0.886894	2.39964	0.812308	2.19229														
0.888761	2.39864	0.814386	2.19239														
0.890629	2.39765	0.816465	2.19249														
0.892497	2.39667	0.818543	2.19258														
0.894367	2.3957	0.820621	2.19268														
0.896237	2.39473	0.8227	2.19277														
0.898109	2.39377	0.824778	2.19287														
0.899981	2.39282	0.826857	2.19296														
0.901854	2.39188	0.828935	2.19305														
0.903728	2.39094	0.831013	2.19314														
0.905603	2.39001	0.833092	2.19324														
0.907479	2.38908	0.83517	2.19333														
0.909355	2.38817	0.837248	2.19342														
0.911233	2.38726	0.839327	2.19351														
0.913111	2.38635	0.841405	2.1936														
0.91499	2.38545	0.843483	2.19369														
0.91687	2.38456	0.845561	2.19378														
0.918751	2.38368	0.84764	2.19387														
0.920632	2.3828	0.849718	2.19396														
0.922515	2.38193	0.851796	2.19405														
0.924398	2.38106	0.853875	2.19413														
0.926282	2.38021	0.855953	2.19422														
0.928167	2.37935	0.858031	2.19431														
0.930053	2.37851	0.86011	2.19439														
0.931939	2.37766	0.862188	2.19448														
0.933826	2.37683	0.864266	2.19456														
0.935714	2.376	0.866344	2.19465														
0.937603	2.37518	0.868423	2.19473														
0.939493	2.37436	0.870501	2.19482														
0.941383	2.37355	0.872579	2.1949														
0.943274	2.37274	0.874657	2.19499														
0.945166	2.37194	0.876736	2.19507														
0.947059	2.37115	0.878814	2.19515														
0.948953	2.37036	0.880892	2.19523														
0.950847	2.36958	0.88297	2.19532														
0.952742	2.3688	0.885049	2.1954														
0.954637	2.36803	0.887127	2.19548														
0.956534	2.36726	0.889205	2.19556														
0.958431	2.3665	0.891283	2.19564														
0.960329	2.36574	0.893361	2.19572														
0.962227	2.36499	0.89544	2.1958														
0.964127	2.36425	0.897518	2.19588														
0.966027	2.36351	0.899596	2.19596														
0.967928	2.36277	0.901674	2.19604														
0.969829	2.36204	0.903752	2.19611														
0.971731	2.36131	0.905831	2.19619														
0.973634	2.36059	0.907909	2.19627														
0.975538	2.35988	0.909987	2.19635														
0.977442	2.35917	0.912065	2.19642														
0.979347	2.35846	0.914143	2.1965														
0.981253	2.35776	0.916221	2.19658														
0.983159	2.35707	0.9183	2.19665														
0.985066	2.35637	0.920378	2.19673														
0.986974	2.35569	0.922456	2.1968														
0.988882	2.35501	0.924534	2.19688														
0.990791	2.35433	0.926612	2.19695														
0.992701	2.35366	0.92869	2.19702														
0.994612	2.35299	0.930768	2.1971														
0.996523	2.35232	0.932847	2.19717														
0.998434	2.35166	0.934925	2.19724														
1.00035	2.35101	0.937003	2.19732														
		0.939081	2.19739														
		0.941159	2.19746														
		0.943237	2.19753														
		0.945315	2.1976														
		0.947393	2.19767														
		0.949471	2.19775														
		0.95155	2.19782														
		0.953628	2.19789														
		0.955706	2.19796														
		0.957784	2.19802														
		0.959862	2.19809														
		0.96194	2.19816														
		0.964018	2.19823														
		0.966096	2.1983														
		0.968174	2.19837														
		0.970252	2.19844														
		0.97233	2.1985														
		0.974408	2.19857														
		0.976486	2.19864														
		0.978564	2.1987														
		0.980642	2.19877														
		0.98272	2.19883														
		0.984798	2.1989														
		0.986876	2.19897														
		0.988954	2.19903														
		0.991032	2.1991														
		0.99311	2.19916														
		0.995188	2.19922														
		0.997266	2.19929														
		0.999344	2.19935														
		1.00142	2.19942														
