Sym0		Asym0		Sym1		Sym2		Sym3		Sym4		Asym1		Asym2		Asym3	
464  Points		493  Points		194  Points		151  Points		131  Points		99  Points		336  Points		165  Points		132  Points	
Freq (MHz)	Vph (m/ms)	Freq (MHz)	Vph (m/ms)	Freq (MHz)	Vph (m/ms)	Freq (MHz)	Vph (m/ms)	Freq (MHz)	Vph (m/ms)	Freq (MHz)	Vph (m/ms)	Freq (MHz)	Vph (m/ms)	Freq (MHz)	Vph (m/ms)	Freq (MHz)	Vph (m/ms)
0.00291508	6.87831	0.000340015	0.183827	0.279538	414.077	0.491248	625.725	0.559023	1457.68	0.838539	1098.61	0.139761	725.528	0.419272	949.593	0.698771	24327
0.00932318	6.87803	0.000764608	0.274907	0.279677	174.06	0.491307	286.179	0.559087	425.098	0.838594	494.756	0.13998	124.501	0.419353	305.378	0.698797	727.596
0.0157298	6.87733	0.00135243	0.364238	0.279929	110.274	0.491409	185.544	0.559222	248.887	0.83869	319.299	0.140509	68.34	0.419516	182.009	0.698871	369.36
0.022134	6.87628	0.00209638	0.451346	0.280294	80.7722	0.491554	137.299	0.559426	175.998	0.838828	235.735	0.141341	47.3073	0.419762	129.692	0.698993	247.535
0.0285348	6.87489	0.00298786	0.535802	0.28077	63.7844	0.491744	108.989	0.559701	136.171	0.839007	186.859	0.142471	36.35	0.420091	100.782	0.699163	186.17
0.0349313	6.87316	0.00401717	0.617255	0.281358	52.7524	0.491979	90.3781	0.560045	111.077	0.839227	154.789	0.143888	29.6609	0.420502	82.4513	0.699382	149.211
0.0413223	6.87105	0.00517407	0.695457	0.282057	45.0192	0.492258	77.2138	0.56046	93.8216	0.839489	132.131	0.145583	25.1751	0.420995	69.797	0.699648	124.517
0.0477069	6.86858	0.00644775	0.770202	0.282864	39.3034	0.492583	67.4129	0.560943	81.2329	0.839792	115.275	0.147542	21.9737	0.421569	60.5408	0.699963	106.855
0.054084	6.86575	0.00782767	0.841395	0.28378	34.9111	0.492954	59.8343	0.561496	71.6462	0.840136	102.246	0.149754	19.5854	0.422225	53.4794	0.700325	93.5978
0.0604524	6.86253	0.00930324	0.908972	0.284802	31.4339	0.493371	53.8007	0.562117	64.1045	0.840521	91.875	0.152203	17.7437	0.422961	47.9179	0.700736	83.2823
0.0668112	6.85893	0.0108646	0.972955	0.285929	28.6157	0.493836	48.8848	0.562806	58.0186	0.840947	83.4255	0.154877	16.2864	0.423778	43.4266	0.701194	75.0287
0.0731592	6.85495	0.0125021	1.03338	0.28716	26.2877	0.494349	44.8034	0.563564	53.0057	0.841415	76.4095	0.157761	15.1093	0.424674	39.7257	0.701699	68.2762
0.079495	6.85057	0.0142071	1.09034	0.288492	24.3341	0.494911	41.3618	0.564389	48.8063	0.841923	70.4915	0.160841	14.1424	0.42565	36.6249	0.702253	62.6504
0.0858177	6.84578	0.0159715	1.14395	0.289923	22.6731	0.495524	38.4213	0.56528	45.2386	0.842472	65.4332	0.164105	13.3368	0.426703	33.9906	0.702853	57.892
0.0921258	6.84058	0.0177878	1.19434	0.291452	21.2447	0.496187	35.8807	0.566238	42.1709	0.843062	61.0605	0.16754	12.6576	0.427835	31.7261	0.703501	53.8155
0.098418	6.83495	0.0196495	1.24167	0.293077	20.0046	0.496903	33.6643	0.567262	39.5059	0.843693	57.2434	0.171134	12.0789	0.429043	29.7596	0.704196	50.2848
0.104693	6.82887	0.0215506	1.28608	0.294795	18.9187	0.497672	31.7146	0.568351	37.1699	0.844364	53.8827	0.174875	11.5813	0.430328	28.0369	0.704938	47.1977
0.110949	6.82234	0.0234858	1.32775	0.296605	17.9609	0.498496	29.9867	0.569505	35.1063	0.845075	50.9017	0.178754	11.1502	0.431688	26.5159	0.705726	44.4761
0.117185	6.81535	0.0254503	1.36682	0.298504	17.1106	0.499375	28.4453	0.570722	33.2705	0.845827	48.2399	0.182237	10.8195	0.433123	25.1639	0.706561	42.0591
0.123399	6.80786	0.0274402	1.40346	0.30049	16.3511	0.500311	27.0624	0.572003	31.6274	0.846619	45.8487	0.185278	10.5659	0.434631	23.9549	0.707442	39.8988
0.12959	6.79988	0.0294517	1.43782	0.30256	15.6694	0.501305	25.8152	0.573347	30.1486	0.847451	43.6894	0.18784	10.3734	0.436211	22.8677	0.708369	37.9566
0.135756	6.79138	0.0314816	1.47006	0.304714	15.0545	0.502359	24.6851	0.574753	28.811	0.848323	41.73	0.189895	10.2312	0.437864	21.8854	0.709342	36.2014
0.141894	6.78234	0.0332634	1.49652	0.306948	14.4976	0.503474	23.6568	0.57622	27.5957	0.849234	39.9441	0.191421	10.1318	0.439587	20.9939	0.710361	34.6078
0.148003	6.77274	0.0347906	1.51796	0.309261	13.9911	0.504651	22.7176	0.577748	26.4871	0.850185	38.31	0.192404	10.0703	0.441379	20.1815	0.711425	33.1547
0.154081	6.76255	0.0360583	1.53495	0.31165	13.529	0.505891	21.8568	0.579337	25.4719	0.851176	36.8093	0.193827	9.98482	0.443241	19.4385	0.712534	31.8246
0.160126	6.75177	0.0370637	1.54792	0.314115	13.1059	0.507197	21.0652	0.580984	24.5391	0.852206	35.4264	0.195385	9.89547	0.44517	18.7567	0.713688	30.6027
0.166135	6.74035	0.0378045	1.55722	0.316653	12.7174	0.508569	20.3353	0.582691	23.6793	0.853275	34.1483	0.197524	9.77963	0.447165	18.1291	0.714886	29.4764
0.172106	6.72828	0.0382791	1.56306	0.319262	12.3597	0.510009	19.6605	0.584455	22.8846	0.854382	32.9635	0.200259	9.64182	0.449226	17.5497	0.716129	28.4353
0.178037	6.71551	0.0389623	1.57132	0.321942	12.0296	0.511519	19.035	0.586277	22.1479	0.855529	31.8624	0.203609	9.487	0.451351	17.0135	0.717416	27.4702
0.183924	6.70204	0.0397059	1.5801	0.324691	11.7241	0.513099	18.454	0.588156	21.4635	0.856714	30.8365	0.207597	9.32022	0.45354	16.516	0.718746	26.5731
0.189765	6.68782	0.0407188	1.59174	0.327508	11.441	0.514751	17.9131	0.59009	20.826	0.857937	29.8786	0.212244	9.14626	0.45579	16.0533	0.72012	25.7373
0.195556	6.67283	0.0420021	1.60598	0.330393	11.1779	0.516476	17.4087	0.59208	20.231	0.859198	28.9821	0.216961	8.98866	0.458102	15.622	0.721536	24.9569
0.201296	6.65703	0.0435573	1.6225	0.33296	10.9636	0.518276	16.9375	0.594125	19.6745	0.860498	28.1415	0.221743	8.84536	0.460474	15.2194	0.722996	24.2267
0.206979	6.64038	0.0453855	1.64098	0.335189	10.7911	0.520152	16.4965	0.596224	19.1531	0.861835	27.3518	0.226586	8.71466	0.462904	14.8426	0.724498	23.542
0.212603	6.62286	0.0474876	1.66103	0.33706	10.655	0.522104	16.0832	0.598377	18.6636	0.863209	26.6087	0.231485	8.59507	0.465392	14.4895	0.726042	22.8989
0.218165	6.60443	0.0495935	1.67994	0.338556	10.5514	0.524135	15.6953	0.600583	18.2034	0.864621	25.9081	0.236435	8.48532	0.467936	14.1581	0.727628	22.2938
0.22366	6.58505	0.0517023	1.69779	0.339667	10.4773	0.526246	15.3308	0.60284	17.77	0.86607	25.2467	0.241432	8.38432	0.470536	13.8464	0.729255	21.7236
0.229085	6.56469	0.0538134	1.71466	0.340382	10.4308	0.528436	14.9878	0.60515	17.3613	0.867555	24.6213	0.246473	8.29113	0.47319	13.5529	0.730923	21.1853
0.234435	6.54332	0.0559263	1.7306	0.341416	10.3653	0.530707	14.6647	0.607511	16.9753	0.869078	24.0291	0.251555	8.20491	0.475898	13.2762	0.732632	20.6765
0.239708	6.52091	0.0580405	1.74569	0.342548	10.2957	0.53306	14.36	0.609922	16.6102	0.870636	23.4677	0.256673	8.12494	0.478657	13.0149	0.734381	20.1948
0.244898	6.49742	0.0601555	1.75999	0.344101	10.2035	0.535496	14.0724	0.612383	16.2646	0.872231	22.9347	0.261825	8.05059	0.481468	12.7679	0.736171	19.7383
0.250002	6.47284	0.0622711	1.77354	0.346088	10.0912	0.538015	13.8007	0.614894	15.9369	0.873862	22.4281	0.267008	7.98131	0.484328	12.534	0.738	19.3051
0.255017	6.44714	0.064387	1.7864	0.348524	9.96121	0.540617	13.5438	0.617453	15.6259	0.875528	21.9461	0.272219	7.91661	0.487238	12.3125	0.739868	18.8935
0.259937	6.42031	0.0665029	1.79861	0.351429	9.81646	0.543303	13.3006	0.620061	15.3305	0.87723	21.487	0.277456	7.85604	0.490195	12.1023	0.741775	18.502
0.26476	6.39233	0.0686187	1.81022	0.354827	9.65996	0.546073	13.0703	0.622718	15.0495	0.878967	21.0491	0.282716	7.79922	0.4932	11.9027	0.743721	18.1292
0.269482	6.3632	0.0707343	1.82127	0.358294	9.51305	0.548927	12.852	0.625421	14.782	0.880738	20.6312	0.287996	7.74581	0.49625	11.7129	0.745705	17.7739
0.2741	6.33292	0.0728493	1.83178	0.36183	9.37504	0.551866	12.645	0.628172	14.5271	0.882544	20.232	0.293295	7.69549	0.499345	11.5324	0.747726	17.4349
0.278612	6.30151	0.0749638	1.8418	0.365439	9.24534	0.554888	12.4485	0.630969	14.284	0.884385	19.8502	0.298611	7.648	0.502485	11.3604	0.749785	17.1112
0.283014	6.26898	0.0770778	1.85136	0.369119	9.12341	0.557994	12.2619	0.633813	14.052	0.88626	19.4848	0.303941	7.60307	0.505256	11.2172	0.751881	16.8018
0.287306	6.23536	0.079191	1.86049	0.372874	9.00875	0.561182	12.0845	0.636703	13.8304	0.888169	19.1348	0.309283	7.5605	0.507644	11.0996	0.754014	16.5058
0.291485	6.20068	0.0813035	1.8692	0.376703	8.9009	0.564454	11.9159	0.639638	13.6185	0.890111	18.7993	0.314635	7.52007	0.509635	11.0055	0.756183	16.2224
0.295551	6.16499	0.0834153	1.87753	0.380608	8.79946	0.567806	11.7555	0.642619	13.4159	0.892086	18.4775	0.319997	7.48161	0.511221	10.9329	0.758387	15.9509
0.299504	6.12834	0.0855262	1.88551	0.384589	8.70402	0.57124	11.6027	0.645645	13.2219	0.894095	18.1684	0.325365	7.44494	0.512394	10.8805	0.760628	15.6905
0.303343	6.09078	0.0876364	1.89314	0.388648	8.61424	0.574753	11.4573	0.648715	13.036	0.896136	17.8716	0.330738	7.40993	0.513147	10.8474	0.762903	15.4407
0.30707	6.05238	0.0897457	1.90046	0.392784	8.52977	0.577878	11.3361	0.65183	12.8579	0.89821	17.5862	0.336115	7.37642	0.514233	10.8005	0.765213	15.2008
0.310685	6.01322	0.0918542	1.90747	0.396998	8.4503	0.580589	11.2367	0.65499	12.687	0.900316	17.3116	0.341494	7.3443	0.515418	10.7503	0.767558	14.9703
0.314191	5.97335	0.0939618	1.91421	0.401289	8.37553	0.582863	11.1571	0.658194	12.5231	0.902454	17.0473	0.346874	7.31345	0.517038	10.6832	0.769936	14.7487
0.317589	5.93287	0.0960687	1.92067	0.405656	8.30517	0.58468	11.0958	0.661442	12.3657	0.904624	16.7928	0.352252	7.28377	0.519101	10.6005	0.772348	14.5355
0.320882	5.89184	0.0981747	1.92688	0.410097	8.23896	0.586028	11.0516	0.664734	12.2145	0.906825	16.5474	0.357628	7.25515	0.521615	10.5034	0.774794	14.3302
0.324073	5.85034	0.10028	1.93286	0.414613	8.17662	0.586896	11.0237	0.66807	12.0692	0.909057	16.3108	0.363	7.22752	0.524591	10.3934	0.777272	14.1325
0.327165	5.80847	0.102384	1.93861	0.4192	8.11792	0.58815	10.9841	0.671451	11.9294	0.91132	16.0826	0.368366	7.20079	0.528041	10.2721	0.779783	13.942
0.330161	5.76628	0.104488	1.94414	0.423856	8.06262	0.589522	10.9417	0.674875	11.795	0.913613	15.8623	0.373726	7.17488	0.531529	10.1559	0.782326	13.7583
0.333065	5.72385	0.106591	1.94948	0.428579	8.01049	0.591402	10.8852	0.678344	11.6657	0.915937	15.6495	0.379077	7.14973	0.535053	10.0444	0.7849	13.581
0.33588	5.68127	0.108693	1.95462	0.433366	7.96132	0.593805	10.8155	0.681404	11.557	0.918291	15.4438	0.384418	7.12526	0.538612	9.93744	0.787507	13.41
0.33861	5.63859	0.110795	1.95958	0.438213	7.9149	0.596746	10.7337	0.684039	11.467	0.920675	15.245	0.389749	7.10143	0.542207	9.8347	0.790144	13.2447
0.341259	5.59588	0.112896	1.96437	0.443118	7.87104	0.600245	10.6413	0.686236	11.3946	0.923088	15.0528	0.395067	7.07817	0.545837	9.73601	0.792812	13.0851
0.34383	5.5532	0.114996	1.96899	0.448077	7.82955	0.604323	10.5395	0.687986	11.3384	0.92553	14.8667	0.400371	7.05543	0.5495	9.64114	0.79551	12.9308
0.346327	5.51061	0.117096	1.97346	0.453088	7.79027	0.608466	10.4421	0.68928	11.2978	0.928001	14.6866	0.40566	7.03316	0.553198	9.5499	0.798239	12.7816
0.348754	5.46816	0.119195	1.97778	0.458145	7.75303	0.612672	10.3488	0.69011	11.272	0.930501	14.5122	0.410933	7.01132	0.556928	9.46211	0.800997	12.6372
0.351114	5.42589	0.121293	1.98196	0.463246	7.71767	0.61694	10.2594	0.691309	11.2354	0.933029	14.3432	0.416188	6.98987	0.560692	9.37761	0.803785	12.4975
0.35341	5.38386	0.123391	1.986	0.468388	7.68406	0.621267	10.1737	0.692617	11.1962	0.935585	14.1794	0.421424	6.96877	0.564487	9.29623	0.806601	12.3622
0.355646	5.3421	0.125488	1.98991	0.473566	7.65206	0.625649	10.0915	0.694406	11.1436	0.938169	14.0206	0.42664	6.94797	0.568315	9.21783	0.809447	12.2312
0.357825	5.30065	0.127585	1.99371	0.478779	7.62154	0.630086	10.0126	0.696684	11.0784	0.94078	13.8665	0.431834	6.92745	0.572174	9.14227	0.81232	12.1042
0.35995	5.25954	0.129681	1.99738	0.484022	7.5924	0.634574	9.93682	0.699462	11.0015	0.943419	13.7171	0.437005	6.90717	0.576065	9.06943	0.815222	11.9811
0.362024	5.21879	0.131776	2.00094	0.489292	7.56452	0.63911	9.86395	0.702754	10.9139	0.946085	13.572	0.442152	6.8871	0.579987	8.99917	0.817774	11.8769
0.364049	5.17844	0.133872	2.0044	0.494587	7.5378	0.643692	9.79384	0.706576	10.8167	0.948777	13.4311	0.447273	6.86721	0.58394	8.93138	0.819965	11.7902
0.366029	5.1385	0.135966	2.00776	0.499904	7.51216	0.648318	9.72634	0.710446	10.723	0.951496	13.2942	0.452368	6.84747	0.587923	8.86596	0.821789	11.7199
0.367966	5.099	0.138061	2.01101	0.505239	7.48751	0.652984	9.6613	0.714365	10.6326	0.954241	13.1613	0.457434	6.82787	0.591937	8.80281	0.823238	11.6653
0.36962	5.06494	0.140154	2.01418	0.510591	7.46377	0.657688	9.59858	0.718333	10.5455	0.957012	13.032	0.462472	6.80838	0.59598	8.74182	0.824308	11.6257
0.371007	5.03618	0.142248	2.01725	0.515957	7.44086	0.662426	9.53804	0.722353	10.4614	0.959808	12.9063	0.467478	6.78896	0.600054	8.68292	0.824994	11.6005
0.372139	5.0126	0.144341	2.02024	0.521335	7.41874	0.667197	9.47955	0.726424	10.3803	0.96263	12.7841	0.472453	6.76961	0.604158	8.626	0.825983	11.5646
0.373024	4.99408	0.146433	2.02315	0.526722	7.39732	0.671996	9.423	0.730547	10.302	0.965477	12.6652	0.477395	6.75031	0.608291	8.571	0.827062	11.526
0.37367	4.98054	0.148526	2.02598	0.532117	7.37656	0.676821	9.36827	0.734724	10.2266	0.968349	12.5495	0.482303	6.73103	0.612454	8.51784	0.828534	11.4742
0.374081	4.9719	0.150617	2.02873	0.537517	7.35641	0.681669	9.31524	0.738955	10.1538	0.971246	12.4369	0.487175	6.71176	0.616647	8.46644	0.830404	11.4097
0.374668	4.95953	0.152709	2.03141	0.542921	7.33682	0.686537	9.26382	0.743242	10.0836	0.974167	12.3272	0.492011	6.69248	0.620868	8.41674	0.83268	11.3332
0.375303	4.94615	0.1548	2.03401	0.548327	7.31773	0.691422	9.2139	0.747586	10.0159	0.976732	12.234	0.49681	6.67318	0.625119	8.36866	0.835367	11.2455
0.37616	4.92805	0.156891	2.03656	0.553733	7.29913	0.696321	9.16539	0.751988	9.95071	0.978933	12.1562	0.50157	6.65384	0.629399	8.32215	0.838476	11.1475
0.377232	4.90532	0.158982	2.03903	0.559138	7.28095	0.701232	9.11821	0.756449	9.88784	0.980763	12.093	0.50629	6.63446	0.633707	8.27715	0.84161	11.0523
0.378515	4.8781	0.161072	2.04145	0.56454	7.26318	0.706151	9.07227	0.760971	9.82726	0.982216	12.0437	0.51097	6.61503	0.638044	8.2336	0.844769	10.9597
0.379999	4.84651	0.163162	2.0438	0.569938	7.24578	0.711077	9.02749	0.765553	9.7689	0.983288	12.0078	0.515608	6.59552	0.64241	8.19145	0.847953	10.8696
0.381676	4.81074	0.165251	2.0461	0.575331	7.22872	0.716005	8.98379	0.770198	9.71269	0.983976	11.9851	0.520204	6.57594	0.646803	8.15065	0.851163	10.7819
0.383328	4.77548	0.167341	2.04834	0.580718	7.21197	0.720935	8.94112	0.774905	9.65858	0.984967	11.9526	0.524757	6.55628	0.651225	8.11113	0.854396	10.6967
0.384955	4.74073	0.16943	2.05053	0.586096	7.19551	0.725863	8.89941	0.779677	9.60649	0.986047	11.9175	0.529266	6.53652	0.655674	8.07287	0.857654	10.6137
0.38656	4.70649	0.171519	2.05266	0.591466	7.17932	0.730788	8.85861	0.784513	9.55638	0.98752	11.8704	0.53373	6.51667	0.660151	8.03581	0.860937	10.5328
0.388143	4.67276	0.173607	2.05475	0.596826	7.16336	0.735708	8.81865	0.789414	9.50817	0.989391	11.8116	0.538149	6.49672	0.664655	7.9999	0.864243	10.4541
0.389707	4.63954	0.175696	2.05678	0.602175	7.14763	0.740622	8.77949	0.79438	9.4618	0.991665	11.7418	0.542522	6.47666	0.669185	7.96511	0.867572	10.3774
0.391251	4.60683	0.177784	2.05877	0.607512	7.13211	0.745527	8.7411	0.799412	9.41723	0.994349	11.6615	0.546849	6.4565	0.673742	7.93139	0.870925	10.3027
0.392778	4.57462	0.179872	2.06072	0.612836	7.11677	0.750422	8.70342	0.804509	9.37438	0.997449	11.5714	0.551128	6.43623	0.678324	7.8987	0.874301	10.2299
0.394288	4.54291	0.18196	2.06262	0.618146	7.1016	0.755308	8.66643	0.809671	9.3332	1.00057	11.4835	0.555361	6.41585	0.682932	7.86701	0.8777	10.1589
0.395783	4.5117	0.184047	2.06448	0.623442	7.08658	0.760182	8.6301	0.814897	9.29364			0.559545	6.39536	0.687565	7.83627	0.881122	10.0897
0.397263	4.48098	0.186135	2.0663	0.628722	7.07171	0.765044	8.5944	0.820188	9.25563			0.563682	6.37475	0.692222	7.80646	0.884567	10.0223
0.398729	4.45075	0.188222	2.06808	0.633986	7.05697	0.769895	8.55931	0.825541	9.21911			0.567771	6.35404	0.696903	7.77752	0.888033	9.95643
0.400183	4.421	0.190309	2.06982	0.639233	7.04234	0.774734	8.5248	0.830957	9.18403			0.571811	6.33322	0.701607	7.74944	0.891522	9.89221
0.401625	4.39172	0.192395	2.07153	0.644462	7.02781	0.779561	8.49086	0.836433	9.15034			0.575803	6.3123	0.706333	7.72218	0.895033	9.82955
0.403055	4.36292	0.194482	2.07319	0.649673	7.01338	0.784376	8.45749	0.84197	9.11797			0.579747	6.29127	0.711081	7.6957	0.898565	9.76839
0.404476	4.33458	0.196568	2.07483	0.654865	6.99903	0.78918	8.42465	0.847564	9.08687			0.583642	6.27015	0.71585	7.66997	0.902119	9.70869
0.405887	4.3067	0.198655	2.07643	0.660037	6.98476	0.793974	8.39236	0.853215	9.05699			0.587489	6.24893	0.720639	7.64497	0.905694	9.6504
0.407288	4.27927	0.200741	2.078	0.665188	6.97055	0.798757	8.36058	0.858921	9.02827			0.591288	6.22763	0.725448	7.62066	0.909291	9.59348
0.408682	4.25228	0.202827	2.07953	0.670319	6.95639	0.803532	8.32933	0.86468	9.00066			0.595039	6.20623	0.730275	7.59702	0.912908	9.53789
0.410068	4.22574	0.204913	2.08104	0.675428	6.94228	0.808298	8.29859	0.870491	8.97411			0.598743	6.18476	0.735121	7.57401	0.916546	9.48358
0.411447	4.19962	0.206998	2.08252	0.680514	6.92822	0.813057	8.26836	0.876351	8.94857			0.602399	6.16321	0.739983	7.55161	0.920204	9.43052
0.412819	4.17394	0.209084	2.08396	0.685578	6.91418	0.817809	8.23862	0.882259	8.924			0.606008	6.1416	0.744861	7.5298	0.923883	9.37868
0.414185	4.14867	0.211169	2.08538	0.690618	6.90018	0.822555	8.20939	0.888213	8.90034			0.609571	6.11992	0.749754	7.50855	0.927582	9.328
0.415546	4.12381	0.213254	2.08678	0.695634	6.88619	0.827297	8.18064	0.894211	8.87757			0.613088	6.09818	0.754662	7.48783	0.931301	9.27847
0.416901	4.09936	0.215339	2.08814	0.700626	6.87222	0.832035	8.15239	0.900252	8.85562			0.616558	6.07639	0.759583	7.46763	0.93504	9.23004
0.418252	4.07531	0.217424	2.08948	0.705592	6.85826	0.83677	8.12461	0.906332	8.83447			0.619984	6.05456	0.764517	7.44791	0.938799	9.18269
0.419599	4.05165	0.219509	2.0908	0.710533	6.84431	0.841503	8.09732	0.912452	8.81408			0.623365	6.03268	0.769462	7.42866	0.942577	9.13638
0.420942	4.02838	0.221594	2.09209	0.715448	6.83036	0.846235	8.0705	0.918609	8.7944			0.626701	6.01078	0.774417	7.40985	0.946374	9.09109
0.422281	4.00548	0.223678	2.09335	0.720337	6.8164	0.850967	8.04414	0.924801	8.77541			0.629994	5.98884	0.779383	7.39147	0.950191	9.04678
0.423618	3.98296	0.225763	2.0946	0.725199	6.80243	0.855699	8.01826	0.931026	8.75706			0.633244	5.96689	0.784357	7.37349	0.954026	9.00344
0.424952	3.9608	0.227847	2.09582	0.730034	6.78845	0.860432	7.99283	0.937284	8.73934			0.636452	5.94492	0.789339	7.3559	0.95788	8.96102
0.426283	3.93901	0.229931	2.09702	0.73484	6.77446	0.865167	7.96785	0.943573	8.7222			0.639617	5.92295	0.794328	7.33867	0.961753	8.91951
0.427612	3.91756	0.232016	2.0982	0.739619	6.76045	0.869904	7.94332	0.94989	8.70562			0.642742	5.90097	0.799323	7.32179	0.965645	8.87888
0.42894	3.89646	0.2341	2.09936	0.744369	6.74641	0.874644	7.91923	0.956235	8.68957			0.645826	5.87899	0.804323	7.30525	0.969555	8.83911
0.430265	3.87571	0.236184	2.1005	0.749091	6.73235	0.879388	7.89558	0.962606	8.67402			0.648869	5.85702	0.809327	7.28902	0.973483	8.80017
0.43159	3.85528	0.238267	2.10161	0.753783	6.71827	0.884136	7.87236	0.969002	8.65896			0.651874	5.83507	0.814334	7.27309	0.977429	8.76204
0.432914	3.83519	0.240351	2.10271	0.758446	6.70416	0.888889	7.84955	0.975421	8.64435			0.65484	5.81314	0.819344	7.25744	0.981393	8.72471
0.434237	3.81542	0.242435	2.1038	0.763079	6.69001	0.893646	7.82717	0.981862	8.63017			0.657768	5.79123	0.824356	7.24207	0.985374	8.68814
0.435559	3.79596	0.244518	2.10486	0.767682	6.67584	0.898409	7.80519	0.988323	8.61641			0.660658	5.76935	0.829368	7.22695	0.989374	8.65233
0.436881	3.77682	0.246602	2.1059	0.772254	6.66163	0.903177	7.78361	0.994804	8.60303			0.663512	5.74751	0.83438	7.21207	0.99339	8.61724
0.438203	3.75798	0.248685	2.10693	0.776796	6.64738	0.90795	7.76242	1.0013	8.59002			0.66633	5.72571	0.839391	7.19742	0.997424	8.58286
0.439526	3.73944	0.250769	2.10794	0.781308	6.6331	0.91273	7.74162					0.669112	5.70395	0.844401	7.18299	1.00148	8.54918
0.440848	3.72119	0.252852	2.10894	0.785788	6.61879	0.917516	7.7212					0.67186	5.68225	0.849408	7.16877		
0.442171	3.70323	0.254935	2.10992	0.790237	6.60444	0.922308	7.70114					0.674573	5.66059	0.854411	7.15474		
0.443494	3.68556	0.257018	2.11088	0.794655	6.59004	0.927107	7.68145					0.677254	5.639	0.859411	7.14089		
0.444818	3.66816	0.259101	2.11183	0.799042	6.57562	0.931912	7.66212					0.679901	5.61746	0.864405	7.12721		
0.446144	3.65104	0.261184	2.11276	0.803397	6.56115	0.936723	7.64313					0.682517	5.596	0.869394	7.1137		
0.44747	3.63418	0.263267	2.11368	0.807721	6.54665	0.941541	7.62448					0.685101	5.5746	0.874377	7.10034		
0.448797	3.61759	0.26535	2.11458	0.812013	6.5321	0.946365	7.60615					0.687654	5.55327	0.879352	7.08713		
0.450126	3.60125	0.267432	2.11547	0.816273	6.51753	0.951196	7.58815					0.690177	5.53202	0.88432	7.07405		
0.451456	3.58517	0.269515	2.11635	0.820501	6.50291	0.956032	7.57047					0.69267	5.51085	0.88928	7.06109		
0.452788	3.56934	0.271598	2.11721	0.824698	6.48826	0.960875	7.55309					0.695134	5.48977	0.89423	7.04826		
0.454121	3.55375	0.27368	2.11806	0.828862	6.47358	0.965723	7.53601					0.69757	5.46877	0.899171	7.03554		
0.455457	3.5384	0.275763	2.1189	0.832995	6.45886	0.970577	7.51922					0.699979	5.44785	0.904102	7.02292		
0.456794	3.52329	0.277845	2.11973	0.837097	6.4441	0.975436	7.50271					0.70236	5.42703	0.909021	7.0104		
0.458133	3.5084	0.279927	2.12054	0.841166	6.42932	0.980301	7.48648					0.704714	5.40631	0.913929	6.99796		
0.459474	3.49374	0.28201	2.12134	0.845204	6.4145	0.98517	7.47051					0.707043	5.38567	0.918825	6.98562		
0.460817	3.47931	0.284092	2.12213	0.849211	6.39966	0.990044	7.4548					0.709346	5.36514	0.923708	6.97335		
0.462162	3.46509	0.286174	2.12291	0.853186	6.38478	0.994923	7.43934					0.711624	5.34471	0.928578	6.96115		
0.46351	3.45109	0.288256	2.12368	0.857129	6.36988	0.999805	7.42413					0.713878	5.32438	0.933435	6.94902		
0.46486	3.4373	0.290338	2.12444	0.861042	6.35496	1.00469	7.40915					0.716108	5.30415	0.938277	6.93695		
0.466213	3.42371	0.29242	2.12518	0.864923	6.34001							0.718315	5.28403	0.943104	6.92494		
0.467568	3.41033	0.294502	2.12592	0.868773	6.32503							0.720499	5.26402	0.947916	6.91298		
0.468925	3.39714	0.296584	2.12664	0.872593	6.31004							0.722661	5.24412	0.952712	6.90106		
0.470285	3.38416	0.298666	2.12736	0.876382	6.29502							0.724801	5.22433	0.957492	6.8892		
0.471648	3.37136	0.300747	2.12806	0.88014	6.27999							0.72692	5.20465	0.962255	6.87736		
0.473014	3.35875	0.302829	2.12876	0.883868	6.26495							0.729018	5.18508	0.967001	6.86557		
0.474382	3.34633	0.304911	2.12945	0.887566	6.24988							0.731096	5.16563	0.97173	6.85381		
0.475753	3.33409	0.306992	2.13012	0.891234	6.23481							0.733155	5.1463	0.976441	6.84207		
0.477127	3.32202	0.309074	2.13079	0.894872	6.21972							0.735194	5.12708	0.981134	6.83036		
0.478503	3.31014	0.311156	2.13145	0.898481	6.20462							0.737214	5.10798	0.985808	6.81868		
0.479883	3.29842	0.313237	2.1321	0.902061	6.18952							0.739216	5.089	0.990464	6.80701		
0.481265	3.28687	0.315319	2.13275	0.905611	6.17441							0.7412	5.07014	0.9951	6.79536		
0.482651	3.27549	0.3174	2.13338	0.909133	6.15929							0.743166	5.0514	0.999716	6.78372		
0.484039	3.26428	0.319481	2.13401	0.912625	6.14417							0.745116	5.03278	1.00431	6.7721		
0.485431	3.25322	0.321563	2.13462	0.91609	6.12905							0.747049	5.01428				
0.486825	3.24232	0.323644	2.13523	0.919526	6.11393							0.748965	4.9959				
0.488223	3.23158	0.325725	2.13584	0.922934	6.09881							0.750866	4.97764				
0.489623	3.22098	0.327806	2.13643	0.926315	6.0837							0.752751	4.95951				
0.491027	3.21054	0.329888	2.13702	0.929668	6.06859							0.754622	4.9415				
0.492434	3.20024	0.331969	2.1376	0.932994	6.05348							0.756477	4.92361				
0.493844	3.19009	0.33405	2.13817	0.936293	6.03838							0.758319	4.90584				
0.495257	3.18008	0.336131	2.13874	0.939565	6.02329							0.760146	4.8882				
0.496673	3.17021	0.338212	2.1393	0.942811	6.00821							0.76196	4.87069				
0.498093	3.16047	0.340293	2.13985	0.94603	5.99315							0.76376	4.85329				
0.499515	3.15087	0.342374	2.14039	0.949224	5.97809							0.765548	4.83602				
0.500941	3.1414	0.344455	2.14093	0.952391	5.96305							0.767323	4.81887				
0.50237	3.13206	0.346536	2.14147	0.955534	5.94803							0.769086	4.80185				
0.503802	3.12285	0.348616	2.14199	0.958651	5.93302							0.770837	4.78494				
0.505238	3.11377	0.350697	2.14251	0.961743	5.91803							0.772576	4.76816				
0.506676	3.10481	0.352778	2.14303	0.96481	5.90306							0.774304	4.75151				
0.508118	3.09597	0.354859	2.14353	0.967853	5.88812							0.776021	4.73497				
0.509563	3.08724	0.35694	2.14404	0.970871	5.87319							0.777728	4.71856				
0.511011	3.07864	0.35902	2.14453	0.973865	5.85829							0.779424	4.70227				
0.512462	3.07015	0.361101	2.14502	0.976836	5.84341							0.78111	4.6861				
0.513917	3.06177	0.363182	2.14551	0.979783	5.82855							0.782786	4.67005				
0.515375	3.05351	0.365262	2.14599	0.982707	5.81372							0.784452	4.65412				
0.516836	3.04536	0.367343	2.14646	0.985608	5.79892							0.786109	4.63832				
0.5183	3.03731	0.369423	2.14693	0.988487	5.78415							0.787757	4.62263				
0.519768	3.02937	0.371504	2.1474	0.991342	5.76941							0.789396	4.60706				
0.521238	3.02153	0.373584	2.14785	0.994176	5.75469							0.791027	4.59161				
0.522712	3.0138	0.375665	2.14831	0.996987	5.74001							0.792649	4.57628				
0.524189	3.00617	0.377745	2.14876	0.999777	5.72536							0.794264	4.56106				
0.525669	2.99863	0.379826	2.1492	1.00255	5.71074							0.79587	4.54596				
0.527152	2.9912	0.381906	2.14964									0.797469	4.53098				
0.528639	2.98386	0.383986	2.15007									0.79906	4.51612				
0.530128	2.97661	0.386067	2.1505									0.800644	4.50137				
0.531621	2.96946	0.388147	2.15093									0.802221	4.48673				
0.533117	2.9624	0.390227	2.15135									0.803791	4.47221				
0.534616	2.95542	0.392308	2.15177									0.805355	4.4578				
0.536118	2.94854	0.394388	2.15218									0.806912	4.4435				
0.537623	2.94175	0.396468	2.15258									0.808463	4.42932				
0.539132	2.93504	0.398548	2.15299									0.810008	4.41525				
0.540643	2.92841	0.400629	2.15339									0.811547	4.40128				
0.542158	2.92187	0.402709	2.15378									0.813081	4.38743				
0.543675	2.91541	0.404789	2.15417									0.814609	4.37369				
0.545196	2.90903	0.406869	2.15456									0.816131	4.36005				
0.54672	2.90273	0.408949	2.15494									0.817649	4.34653				
0.548246	2.89651	0.411029	2.15532									0.819162	4.33311				
0.549776	2.89036	0.413109	2.1557									0.820669	4.31979				
0.551309	2.88429	0.415189	2.15607									0.822172	4.30658				
0.552844	2.8783	0.417269	2.15644									0.823671	4.29348				
0.554383	2.87237	0.419349	2.1568									0.825165	4.28048				
0.555924	2.86652	0.421429	2.15716									0.826655	4.26758				
0.557469	2.86074	0.423509	2.15752									0.82814	4.25479				
0.559017	2.85503	0.425589	2.15787									0.829622	4.24209				
0.560567	2.84939	0.427669	2.15823									0.8311	4.2295				
0.56212	2.84382	0.429749	2.15857									0.832574	4.21701				
0.563676	2.83832	0.431829	2.15892									0.834045	4.20461				
0.565236	2.83288	0.433909	2.15926									0.835512	4.19232				
0.566798	2.8275	0.435989	2.15959									0.836976	4.18012				
0.568362	2.82219	0.438068	2.15993									0.838437	4.16802				
0.56993	2.81694	0.440148	2.16026									0.839894	4.15602				
0.5715	2.81176	0.442228	2.16059									0.841349	4.14411				
0.573074	2.80663	0.444308	2.16091									0.842801	4.1323				
0.57465	2.80157	0.446387	2.16123									0.84425	4.12058				
0.576229	2.79656	0.448467	2.16155									0.845696	4.10896				
0.57781	2.79161	0.450547	2.16187									0.84714	4.09742				
0.579394	2.78673	0.452627	2.16218									0.848581	4.08598				
0.580981	2.78189	0.454706	2.16249									0.85002	4.07463				
0.582571	2.77712	0.456786	2.1628									0.851457	4.06337				
0.584164	2.77239	0.458866	2.1631									0.852891	4.0522				
0.585759	2.76773	0.460945	2.1634									0.854324	4.04112				
0.587357	2.76311	0.463025	2.1637									0.855754	4.03012				
0.588957	2.75855	0.465105	2.164									0.857183	4.01921				
0.59056	2.75404	0.467184	2.16429									0.85861	4.00839				
0.592166	2.74958	0.469264	2.16458									0.860035	3.99766				
0.593774	2.74517	0.471343	2.16487									0.861458	3.98701				
0.595385	2.74082	0.473423	2.16516									0.86288	3.97644				
0.596999	2.73651	0.475502	2.16544									0.8643	3.96596				
0.598615	2.73225	0.477582	2.16572									0.865719	3.95556				
0.600233	2.72803	0.479661	2.166									0.867137	3.94524				
0.601855	2.72387	0.481741	2.16628									0.868553	3.935				
0.603478	2.71975	0.48382	2.16655									0.869968	3.92485				
0.605104	2.71567	0.4859	2.16682									0.871382	3.91477				
0.606733	2.71164	0.487979	2.16709									0.872795	3.90478				
0.608364	2.70766	0.490059	2.16736									0.874207	3.89486				
0.609998	2.70372	0.492138	2.16762									0.875618	3.88502				
0.611634	2.69982	0.494218	2.16789									0.877028	3.87525				
0.613272	2.69596	0.496297	2.16815									0.878438	3.86557				
0.614913	2.69215	0.498376	2.16841									0.879846	3.85596				
0.616556	2.68838	0.500456	2.16866									0.881254	3.84642				
0.618202	2.68465	0.502535	2.16892									0.882661	3.83696				
0.61985	2.68096	0.504614	2.16917									0.884068	3.82757				
0.6215	2.67731	0.506694	2.16942									0.885474	3.81826				
0.623153	2.6737	0.508773	2.16966									0.88688	3.80902				
0.624808	2.67012	0.510852	2.16991									0.888285	3.79985				
0.626465	2.66659	0.512932	2.17015									0.88969	3.79075				
0.628125	2.66309	0.515011	2.1704									0.891095	3.78172				
0.629787	2.65963	0.51709	2.17064									0.892499	3.77276				
0.631451	2.65621	0.51917	2.17087									0.893903	3.76387				
0.633117	2.65282	0.521249	2.17111									0.895307	3.75505				
0.634786	2.64947	0.523328	2.17134									0.89671	3.7463				
0.636457	2.64615	0.525407	2.17158									0.898114	3.73762				
0.63813	2.64287	0.527487	2.17181									0.899518	3.729				
0.639805	2.63962	0.529566	2.17204									0.900921	3.72045				
0.641482	2.63641	0.531645	2.17226									0.902325	3.71196				
0.643162	2.63323	0.533724	2.17249									0.903728	3.70354				
0.644844	2.63008	0.535803	2.17271									0.905132	3.69519				
0.646527	2.62697	0.537882	2.17293									0.906536	3.68689				
0.648213	2.62388	0.539962	2.17315									0.90794	3.67867				
0.649901	2.62083	0.542041	2.17337									0.909344	3.6705				
0.651592	2.61781	0.54412	2.17359									0.910749	3.6624				
0.653284	2.61482	0.546199	2.1738									0.912154	3.65435				
0.654978	2.61187	0.548278	2.17402									0.913559	3.64637				
0.656674	2.60894	0.550357	2.17423									0.914964	3.63845				
0.658373	2.60604	0.552436	2.17444									0.91637	3.63059				
0.660073	2.60317	0.554515	2.17465									0.917776	3.62279				
0.661776	2.60033	0.556594	2.17485									0.919183	3.61505				
0.66348	2.59752	0.558673	2.17506									0.92059	3.60736				
0.665186	2.59473	0.560753	2.17526									0.921998	3.59974				
0.666895	2.59198	0.562832	2.17546									0.923406	3.59217				
0.668605	2.58925	0.564911	2.17566									0.924815	3.58466				
0.670317	2.58655	0.56699	2.17586									0.926224	3.5772				
0.672032	2.58387	0.569069	2.17606									0.927634	3.5698				
0.673748	2.58122	0.571148	2.17626									0.929045	3.56246				
0.675466	2.5786	0.573227	2.17645									0.930456	3.55517				
0.677186	2.576	0.575306	2.17665									0.931868	3.54793				
0.678908	2.57343	0.577385	2.17684									0.93328	3.54075				
0.680631	2.57089	0.579464	2.17703									0.934693	3.53362				
0.682357	2.56837	0.581542	2.17722									0.936108	3.52654				
0.684084	2.56587	0.583621	2.17741									0.937522	3.51952				
0.685813	2.5634	0.5857	2.1776									0.938938	3.51255				
0.687544	2.56095	0.587779	2.17778									0.940354	3.50563				
0.689277	2.55853	0.589858	2.17796									0.941772	3.49876				
0.691012	2.55612	0.591937	2.17815									0.94319	3.49194				
0.692748	2.55375	0.594016	2.17833									0.944609	3.48517				
0.694486	2.55139	0.596095	2.17851									0.946028	3.47845				
0.696226	2.54906	0.598174	2.17869									0.947449	3.47178				
0.697968	2.54675	0.600253	2.17887									0.948871	3.46516				
0.699712	2.54446	0.602332	2.17904									0.950293	3.45859				
0.701457	2.54219	0.60441	2.17922									0.951717	3.45207				
0.703204	2.53995	0.606489	2.17939									0.953141	3.44559				
0.704952	2.53772	0.608568	2.17957									0.954567	3.43916				
0.706702	2.53552	0.610647	2.17974									0.955993	3.43278				
0.708454	2.53334	0.612726	2.17991									0.957421	3.42644				
0.710208	2.53117	0.614805	2.18008									0.958849	3.42015				
0.711963	2.52903	0.616883	2.18025									0.960279	3.4139				
0.71372	2.52691	0.618962	2.18041									0.961709	3.4077				
0.715479	2.52481	0.621041	2.18058									0.963141	3.40154				
0.717239	2.52272	0.62312	2.18074									0.964574	3.39543				
0.719001	2.52066	0.625199	2.18091									0.966008	3.38936				
0.720764	2.51862	0.627277	2.18107									0.967443	3.38334				
0.722529	2.51659	0.629356	2.18123									0.968879	3.37735				
0.724296	2.51458	0.631435	2.18139									0.970316	3.37141				
0.726064	2.51259	0.633514	2.18155									0.971754	3.36552				
0.727833	2.51062	0.635592	2.18171									0.973194	3.35966				
0.729605	2.50867	0.637671	2.18187									0.974634	3.35385				
0.731377	2.50674	0.63975	2.18203									0.976076	3.34807				
0.733152	2.50482	0.641828	2.18218									0.977519	3.34234				
0.734928	2.50292	0.643907	2.18234									0.978963	3.33665				
0.736705	2.50104	0.645986	2.18249									0.980409	3.331				
0.738484	2.49917	0.648065	2.18264									0.981855	3.32539				
0.740264	2.49732	0.650143	2.18279									0.983303	3.31981				
0.742046	2.49549	0.652222	2.18294									0.984752	3.31428				
0.743829	2.49367	0.654301	2.18309									0.986202	3.30879				
0.745614	2.49187	0.656379	2.18324									0.987654	3.30333				
0.7474	2.49009	0.658458	2.18339									0.989107	3.29791				
0.749188	2.48832	0.660537	2.18354									0.990561	3.29253				
0.750977	2.48657	0.662615	2.18368									0.992016	3.28719				
0.752767	2.48483	0.664694	2.18383									0.993472	3.28188				
0.754559	2.48311	0.666772	2.18397									0.99493	3.27662				
0.756352	2.4814	0.668851	2.18411									0.996389	3.27138				
0.758147	2.47971	0.67093	2.18426									0.99785	3.26619				
0.759943	2.47803	0.673008	2.1844									0.999311	3.26103				
0.761741	2.47637	0.675087	2.18454									1.00077	3.2559				
0.763539	2.47472	0.677165	2.18468														
0.76534	2.47309	0.679244	2.18482														
0.767141	2.47147	0.681323	2.18495														
0.768944	2.46986	0.683401	2.18509														
0.770748	2.46827	0.68548	2.18523														
0.772554	2.4667	0.687558	2.18536														
0.774361	2.46513	0.689637	2.1855														
0.776169	2.46358	0.691715	2.18563														
0.777978	2.46204	0.693794	2.18576														
0.779789	2.46052	0.695872	2.1859														
0.781601	2.45901	0.697951	2.18603														
0.783414	2.45751	0.70003	2.18616														
0.785229	2.45602	0.702108	2.18629														
0.787045	2.45455	0.704186	2.18642														
0.788862	2.45309	0.706265	2.18655														
0.79068	2.45164	0.708344	2.18667														
0.792499	2.4502	0.710422	2.1868														
0.79432	2.44878	0.7125	2.18693														
0.796142	2.44736	0.714579	2.18705														
0.797965	2.44596	0.716657	2.18718														
0.79979	2.44457	0.718736	2.1873														
0.801615	2.4432	0.720814	2.18742														
0.803442	2.44183	0.722893	2.18755														
0.80527	2.44048	0.724971	2.18767														
0.807099	2.43913	0.72705	2.18779														
0.808929	2.4378	0.729128	2.18791														
0.810761	2.43648	0.731207	2.18803														
0.812593	2.43517	0.733285	2.18815														
0.814427	2.43387	0.735363	2.18826														
0.816262	2.43258	0.737442	2.18838														
0.818098	2.4313	0.73952	2.1885														
0.819935	2.43003	0.741599	2.18862														
0.821773	2.42877	0.743677	2.18873														
0.823612	2.42752	0.745755	2.18885														
0.825452	2.42628	0.747834	2.18896														
0.827294	2.42505	0.749912	2.18907														
0.829136	2.42383	0.75199	2.18919														
0.83098	2.42263	0.754069	2.1893														
0.832825	2.42143	0.756147	2.18941														
0.83467	2.42024	0.758225	2.18952														
0.836517	2.41906	0.760304	2.18963														
0.838365	2.41789	0.762382	2.18974														
0.840214	2.41672	0.764461	2.18985														
0.842064	2.41557	0.766539	2.18996														
0.843915	2.41443	0.768617	2.19007														
0.845767	2.41329	0.770695	2.19018														
0.84762	2.41217	0.772774	2.19028														
0.849474	2.41105	0.774852	2.19039														
0.851329	2.40994	0.77693	2.1905														
0.853185	2.40885	0.779009	2.1906														
0.855042	2.40775	0.781087	2.1907														
0.8569	2.40667	0.783165	2.19081														
0.858759	2.4056	0.785243	2.19091														
0.860619	2.40453	0.787322	2.19102														
0.86248	2.40348	0.7894	2.19112														
0.864342	2.40243	0.791478	2.19122														
0.866205	2.40139	0.793556	2.19132														
0.868068	2.40035	0.795635	2.19142														
0.869933	2.39933	0.797713	2.19152														
0.871799	2.39831	0.799791	2.19162														
0.873665	2.3973	0.801869	2.19172														
0.875533	2.3963	0.803948	2.19182														
0.877401	2.39531	0.806026	2.19192														
0.879271	2.39432	0.808104	2.19202														
0.881141	2.39334	0.810182	2.19211														
0.883012	2.39237	0.812261	2.19221														
0.884884	2.3914	0.814339	2.19231														
0.886757	2.39045	0.816417	2.1924														
0.888631	2.3895	0.818495	2.1925														
0.890506	2.38855	0.820573	2.19259														
0.892381	2.38762	0.822651	2.19269														
0.894258	2.38669	0.82473	2.19278														
0.896135	2.38577	0.826808	2.19287														
0.898013	2.38485	0.828886	2.19297														
0.899892	2.38394	0.830964	2.19306														
0.901772	2.38304	0.833042	2.19315														
0.903653	2.38215	0.83512	2.19324														
0.905535	2.38126	0.837199	2.19333														
0.907417	2.38038	0.839277	2.19342														
0.9093	2.3795	0.841355	2.19351														
0.911184	2.37863	0.843433	2.1936														
0.913069	2.37777	0.845511	2.19369														
0.914955	2.37691	0.847589	2.19378														
0.916841	2.37606	0.849667	2.19387														
0.918729	2.37522	0.851745	2.19396														
0.920617	2.37438	0.853824	2.19404														
0.922506	2.37355	0.855902	2.19413														
0.924396	2.37272	0.85798	2.19422														
0.926286	2.3719	0.860058	2.1943														
0.928177	2.37109	0.862136	2.19439														
0.93007	2.37028	0.864214	2.19447														
0.931962	2.36948	0.866292	2.19456														
0.933856	2.36868	0.86837	2.19464														
0.93575	2.36789	0.870448	2.19473														
0.937645	2.36711	0.872526	2.19481														
0.939541	2.36633	0.874604	2.19489														
0.941438	2.36555	0.876682	2.19498														
0.943335	2.36478	0.87876	2.19506														
0.945233	2.36402	0.880838	2.19514														
0.947132	2.36326	0.882916	2.19522														
0.949032	2.36251	0.884994	2.1953														
0.950932	2.36176	0.887073	2.19539														
0.952833	2.36102	0.889151	2.19547														
0.954735	2.36028	0.891229	2.19555														
0.956638	2.35955	0.893307	2.19563														
0.958541	2.35883	0.895385	2.1957														
0.960445	2.35811	0.897463	2.19578														
0.962349	2.35739	0.899541	2.19586														
0.964255	2.35668	0.901619	2.19594														
0.966161	2.35597	0.903697	2.19602														
0.968067	2.35527	0.905775	2.1961														
0.969975	2.35457	0.907853	2.19617														
0.971883	2.35388	0.909931	2.19625														
0.973791	2.35319	0.912008	2.19633														
0.975701	2.35251	0.914086	2.1964														
0.977611	2.35183	0.916164	2.19648														
0.979522	2.35116	0.918242	2.19655														
0.981433	2.35049	0.92032	2.19663														
0.983345	2.34983	0.922398	2.1967														
0.985258	2.34917	0.924476	2.19678														
0.987171	2.34851	0.926554	2.19685														
0.989085	2.34786	0.928632	2.19693														
0.991	2.34722	0.93071	2.197														
0.992915	2.34658	0.932788	2.19707														
0.994831	2.34594	0.934866	2.19714														
0.996748	2.3453	0.936944	2.19722														
0.998665	2.34468	0.939022	2.19729														
1.00058	2.34405	0.9411	2.19736														
		0.943177	2.19743														
		0.945255	2.1975														
		0.947333	2.19757														
		0.949411	2.19764														
		0.951489	2.19771														
		0.953567	2.19778														
		0.955645	2.19785														
		0.957723	2.19792														
		0.9598	2.19799														
		0.961878	2.19806														
		0.963956	2.19813														
		0.966034	2.1982														
		0.968112	2.19826														
		0.97019	2.19833														
		0.972268	2.1984														
		0.974345	2.19846														
		0.976423	2.19853														
		0.978501	2.1986														
		0.980579	2.19866														
		0.982657	2.19873														
		0.984735	2.19879														
		0.986812	2.19886														
		0.98889	2.19892														
		0.990968	2.19899														
		0.993046	2.19905														
		0.995124	2.19912														
		0.997201	2.19918														
		0.999279	2.19924														
		1.00136	2.19931														
