Sym0		Asym0		Sym1		Sym2		Sym3		Sym4		Asym1		Asym2		Asym3	
472  Points		493  Points		224  Points		154  Points		127  Points		103  Points		374  Points		172  Points		135  Points	
Freq (MHz)	Vph (m/ms)	Freq (MHz)	Vph (m/ms)	Freq (MHz)	Vph (m/ms)	Freq (MHz)	Vph (m/ms)	Freq (MHz)	Vph (m/ms)	Freq (MHz)	Vph (m/ms)	Freq (MHz)	Vph (m/ms)	Freq (MHz)	Vph (m/ms)	Freq (MHz)	Vph (m/ms)
0.00138169	6.87837	0.000320063	0.178381	0.279546	351.001	0.464214	565.955	0.559023	1371.76	0.838526	4782.06	0.13976	767.915	0.419284	608.125	0.69878	1184.74
0.00778983	6.87802	0.000734744	0.269535	0.279686	161.844	0.464302	265.023	0.559085	417.472	0.838553	757.471	0.139975	125.685	0.419381	258.691	0.698831	459.3
0.0141961	6.8771	0.00131313	0.359008	0.279928	105.243	0.464453	173.069	0.559212	246.25	0.838619	411.342	0.140496	68.6889	0.419557	164.348	0.698927	284.903
0.0205994	6.87571	0.00204818	0.44629	0.280273	78.0377	0.464668	128.528	0.559404	174.672	0.838725	282.358	0.141319	47.4688	0.41981	120.477	0.699068	206.525
0.0269979	6.87379	0.00293131	0.530933	0.28072	62.0622	0.464947	102.253	0.559662	135.37	0.838869	214.977	0.142437	36.4402	0.420142	95.1354	0.699254	161.992
0.0333902	6.87134	0.00395307	0.612618	0.281268	51.5624	0.46529	84.927	0.559985	110.538	0.839053	173.58	0.143841	29.7163	0.420551	78.6379	0.699485	133.279
0.039775	6.86836	0.00510307	0.691057	0.281916	44.1418	0.465699	72.6474	0.560373	93.4315	0.839275	145.568	0.14552	25.2107	0.421038	67.048	0.699761	113.23
0.0461506	6.86485	0.00637075	0.766071	0.282664	38.6243	0.466172	63.4931	0.560826	80.9344	0.839537	125.356	0.147463	21.9967	0.421601	58.4637	0.700082	98.4411
0.0525155	6.8608	0.00774537	0.837534	0.283509	34.3648	0.466712	56.4085	0.561344	71.408	0.839838	110.086	0.149655	19.5997	0.422242	51.8531	0.700447	87.0837
0.0588681	6.85618	0.0092165	0.905396	0.284452	30.9804	0.467318	50.7652	0.561926	63.9077	0.840177	98.1447	0.152083	17.7517	0.422958	46.6084	0.700857	78.0893
0.0652067	6.85101	0.0107742	0.969666	0.28549	28.229	0.467992	46.1659	0.562572	57.8512	0.840556	88.5514	0.154734	16.2896	0.423751	42.3479	0.701311	70.7911
0.0715297	6.84526	0.0124087	1.03038	0.286622	25.9502	0.468734	42.347	0.563283	52.8598	0.840973	80.6767	0.157592	15.1086	0.424618	38.8201	0.70181	64.7518
0.0778353	6.83893	0.0141115	1.08763	0.287847	24.0338	0.469544	39.1268	0.564057	48.6765	0.84143	74.0976	0.160646	14.1385	0.42556	35.8523	0.702353	59.6724
0.0841217	6.83199	0.0158743	1.14152	0.289163	22.401	0.470425	36.376	0.564894	45.1209	0.841924	68.5194	0.163881	13.3301	0.426577	33.3224	0.70294	55.3416
0.090387	6.82444	0.0176896	1.19218	0.290568	20.9946	0.471376	34.0001	0.565794	42.0625	0.842458	63.7304	0.167285	12.6484	0.427666	31.141	0.703571	51.6059
0.0966292	6.81625	0.0195508	1.23977	0.292061	19.7715	0.472399	31.9282	0.566756	39.4048	0.84303	59.5748	0.170845	12.0675	0.428828	29.2418	0.704247	48.3512
0.102846	6.80741	0.0214519	1.28444	0.293641	18.699	0.473495	30.1064	0.567781	37.0744	0.84364	55.9351	0.174551	11.568	0.430062	27.5741	0.704965	45.4906
0.109036	6.7979	0.0233875	1.32634	0.295305	17.7517	0.474664	28.4929	0.568868	35.0151	0.844288	52.7213	0.178392	11.135	0.431367	26.0987	0.705727	42.9571
0.115197	6.78769	0.0253529	1.36564	0.297051	16.9097	0.475909	27.0545	0.570015	33.1828	0.844975	49.8632	0.182357	10.7569	0.432741	24.7848	0.706533	40.6981
0.121325	6.77677	0.0273439	1.4025	0.29888	16.1569	0.47723	25.765	0.571224	31.5424	0.8457	47.3051	0.186437	10.4247	0.434186	23.6077	0.707381	38.6716
0.127419	6.7651	0.0293568	1.43707	0.300788	15.4804	0.478628	24.6029	0.572493	30.0657	0.846462	45.0025	0.19008	10.1668	0.435699	22.5478	0.708273	36.8437
0.133476	6.75267	0.0313884	1.4695	0.302776	14.8696	0.480104	23.5509	0.573822	28.7297	0.847263	42.9191	0.193245	9.96715	0.437279	21.5886	0.709207	35.1869
0.139494	6.73943	0.0331717	1.49613	0.30484	14.316	0.48166	22.5946	0.57521	27.5157	0.848101	41.0253	0.195902	9.81446	0.438926	20.717	0.710183	33.6785
0.145469	6.72537	0.0347004	1.51769	0.306982	13.8122	0.483296	21.7219	0.576658	26.408	0.848976	39.2966	0.198027	9.70096	0.440638	19.9217	0.711202	32.2998
0.151398	6.71045	0.0359695	1.53478	0.309199	13.3522	0.485014	20.923	0.578164	25.3935	0.849889	37.7125	0.199602	9.62129	0.442416	19.1936	0.712263	31.0347
0.157279	6.69464	0.0369759	1.54784	0.311492	12.931	0.486814	20.1892	0.579728	24.4612	0.850839	36.2557	0.200615	9.57189	0.444256	18.5247	0.713365	29.8702
0.163107	6.67791	0.0377173	1.55718	0.313859	12.5441	0.488698	19.5134	0.581349	23.6018	0.851826	34.9118	0.20208	9.50297	0.44616	17.9083	0.714509	28.7947
0.16888	6.6602	0.0381926	1.56306	0.3163	12.1878	0.490667	18.8892	0.583028	22.8072	0.85285	33.6681	0.203682	9.43072	0.448125	17.3388	0.715694	27.7987
0.174594	6.64151	0.0388765	1.57136	0.318816	11.859	0.492721	18.3115	0.584763	22.0707	0.853911	32.5141	0.205876	9.33667	0.450151	16.8112	0.71692	26.8738
0.180245	6.62177	0.0396209	1.5802	0.321407	11.5549	0.494861	17.7756	0.586554	21.3862	0.855008	31.4405	0.208675	9.22423	0.452237	16.3212	0.718187	26.0128
0.185829	6.60097	0.0406349	1.59191	0.324072	11.2732	0.497088	17.2773	0.5884	20.7487	0.856142	30.4393	0.212097	9.09714	0.454381	15.8651	0.719495	25.2095
0.191341	6.57905	0.0419198	1.60623	0.326814	11.0116	0.499403	16.8133	0.590302	20.1537	0.857312	29.5036	0.216157	8.95929	0.456583	15.4397	0.720842	24.4582
0.196779	6.55599	0.0434767	1.62285	0.329633	10.7686	0.501805	16.3804	0.592259	19.5971	0.858517	28.6272	0.220873	8.81439	0.458841	15.0421	0.722229	23.7544
0.202137	6.53174	0.045307	1.64143	0.332529	10.5423	0.504296	15.9758	0.594269	19.0756	0.859759	27.8048	0.225646	8.68207	0.461155	14.6699	0.723656	23.0936
0.207411	6.50628	0.0474116	1.66159	0.335118	10.3578	0.506876	15.5972	0.596334	18.586	0.861036	27.0316	0.230472	8.56083	0.463524	14.3208	0.725122	22.4723
0.212596	6.47958	0.04952	1.6806	0.337373	10.2091	0.509545	15.2423	0.598452	18.1257	0.862348	26.3034	0.235344	8.4494	0.465946	13.9929	0.726628	21.8869
0.217689	6.4516	0.0516313	1.69855	0.339271	10.0917	0.512302	14.9093	0.600623	17.6922	0.863696	25.6165	0.24026	8.3467	0.46842	13.6843	0.728171	21.3347
0.222685	6.42234	0.0537449	1.7155	0.340795	10.0024	0.515149	14.5964	0.602846	17.2833	0.865079	24.9676	0.245215	8.25175	0.470947	13.3936	0.729753	20.8129
0.227581	6.39176	0.0558602	1.73152	0.341927	9.93859	0.518084	14.302	0.605122	16.8972	0.866496	24.3536	0.250206	8.16375	0.473523	13.1192	0.731374	20.3192
0.232371	6.35988	0.0579767	1.74669	0.342658	9.89855	0.521108	14.0247	0.60745	16.5321	0.867948	23.7719	0.255229	8.08196	0.47615	12.86	0.733031	19.8514
0.237052	6.32668	0.0600941	1.76105	0.343715	9.84207	0.524219	13.7633	0.60983	16.1864	0.869434	23.2201	0.260281	8.00574	0.478825	12.6148	0.734727	19.4076
0.241622	6.29217	0.0622121	1.77466	0.344876	9.78209	0.527417	13.5167	0.612261	15.8588	0.870954	22.696	0.265359	7.93454	0.481548	12.3826	0.736459	18.9861
0.246076	6.25638	0.0643302	1.78757	0.346471	9.70279	0.530701	13.2837	0.614743	15.5479	0.872508	22.1975	0.27046	7.86787	0.484319	12.1625	0.738228	18.5853
0.250414	6.21933	0.0664484	1.79983	0.348518	9.60615	0.534071	13.0634	0.617276	15.2525	0.874096	21.723	0.27558	7.80528	0.487135	11.9535	0.740034	18.2038
0.254632	6.18107	0.0685663	1.81149	0.351037	9.49446	0.537524	12.8549	0.61986	14.9717	0.875717	21.2708	0.280718	7.74639	0.489997	11.755	0.741876	17.8403
0.258729	6.14163	0.0706839	1.82257	0.354054	9.37029	0.541061	12.6574	0.622495	14.7045	0.877371	20.8394	0.285871	7.69085	0.492903	11.5662	0.743754	17.4935
0.262705	6.10108	0.072801	1.83312	0.357599	9.23637	0.544678	12.4703	0.625181	14.4499	0.879058	20.4274	0.291036	7.63835	0.495853	11.3865	0.745667	17.1624
0.26656	6.05949	0.0749175	1.84317	0.361234	9.11101	0.548376	12.2927	0.627918	14.2072	0.880778	20.0336	0.296211	7.58861	0.498846	11.2153	0.747616	16.846
0.270294	6.01693	0.0770333	1.85276	0.36496	8.99364	0.552152	12.1241	0.630705	13.9756	0.882531	19.6569	0.301394	7.54137	0.501882	11.052	0.749599	16.5434
0.273908	5.97349	0.0791482	1.8619	0.368777	8.88373	0.556003	11.9639	0.633544	13.7546	0.884315	19.2962	0.306582	7.49642	0.504959	10.8962	0.751617	16.2537
0.277404	5.92926	0.0812625	1.87064	0.372684	8.78077	0.559929	11.8116	0.636434	13.5434	0.886131	18.9506	0.311773	7.45356	0.508077	10.7474	0.753669	15.9762
0.280784	5.88433	0.0833759	1.87899	0.376681	8.6843	0.563927	11.6667	0.639375	13.3415	0.88798	18.6191	0.316965	7.41258	0.510828	10.6232	0.755755	15.7101
0.284052	5.8388	0.0854884	1.88698	0.380766	8.59389	0.567995	11.5286	0.642369	13.1483	0.889859	18.301	0.322157	7.37334	0.513196	10.521	0.757875	15.4549
0.287209	5.79276	0.0876001	1.89462	0.384938	8.50912	0.57213	11.397	0.645415	12.9634	0.89177	17.9955	0.327346	7.33567	0.515171	10.439	0.760028	15.2098
0.29026	5.74632	0.0897108	1.90195	0.389195	8.42961	0.576329	11.2714	0.648513	12.7864	0.893712	17.7019	0.33253	7.29944	0.516744	10.3757	0.762215	14.9743
0.293209	5.69957	0.0918207	1.90897	0.393534	8.35498	0.58059	11.1516	0.651666	12.6168	0.895684	17.4195	0.337707	7.26451	0.517906	10.33	0.764434	14.748
0.296059	5.6526	0.0939296	1.91571	0.397951	8.28489	0.58491	11.037	0.654873	12.4542	0.897687	17.1477	0.342876	7.23079	0.518652	10.3012	0.766685	14.5302
0.298815	5.6055	0.0960377	1.92218	0.402445	8.21902	0.589286	10.9275	0.658135	12.2983	0.89972	16.886	0.348035	7.19815	0.519728	10.2602	0.768968	14.3207
0.301481	5.55837	0.0981449	1.9284	0.40701	8.15704	0.593715	10.8227	0.661453	12.1488	0.901783	16.6339	0.353182	7.16649	0.520903	10.2163	0.771284	14.1188
0.304061	5.51127	0.100251	1.93437	0.411643	8.09868	0.597615	10.7349	0.664829	12.0054	0.903875	16.3908	0.358314	7.13574	0.522509	10.1576	0.77363	13.9243
0.30656	5.46428	0.102357	1.94012	0.41634	8.04365	0.600967	10.6625	0.668263	11.8677	0.905998	16.1563	0.363432	7.10581	0.524552	10.0851	0.776009	13.7367
0.308981	5.41747	0.104461	1.94565	0.421097	7.99169	0.603758	10.6044	0.671758	11.7356	0.908149	15.93	0.368532	7.07661	0.527042	9.99991	0.778418	13.5558
0.31133	5.37091	0.106565	1.95098	0.425909	7.94258	0.605976	10.5594	0.675313	11.6088	0.910329	15.7115	0.373613	7.04808	0.52999	9.90328	0.780857	13.3812
0.313609	5.32464	0.108668	1.95612	0.430773	7.89608	0.607612	10.5269	0.678932	11.487	0.912538	15.5003	0.378673	7.02016	0.533407	9.79659	0.783328	13.2126
0.315823	5.27873	0.110771	1.96107	0.435683	7.85199	0.608662	10.5063	0.682616	11.3701	0.914775	15.2963	0.383711	6.99278	0.536862	9.69416	0.785828	13.0497
0.317976	5.23322	0.112872	1.96586	0.440636	7.81011	0.610175	10.477	0.686367	11.2579	0.917041	15.0989	0.388725	6.96588	0.540354	9.59577	0.788358	12.8922
0.320071	5.18814	0.114973	1.97047	0.445627	7.77027	0.611824	10.4457	0.690186	11.1501	0.919334	14.908	0.393714	6.93941	0.543882	9.50123	0.790918	12.74
0.322111	5.14354	0.117074	1.97493	0.450653	7.73229	0.614074	10.4037	0.694077	11.0467	0.921656	14.7232	0.398675	6.91334	0.547447	9.41034	0.793507	12.5927
0.324101	5.09944	0.119173	1.97924	0.45571	7.69603	0.61693	10.3517	0.697526	10.96	0.924004	14.5442	0.403608	6.8876	0.551048	9.32292	0.796125	12.4501
0.326042	5.05588	0.121272	1.98341	0.460795	7.66135	0.6204	10.2904	0.700512	10.8885	0.92638	14.3709	0.408511	6.86216	0.554684	9.23882	0.798772	12.3121
0.327939	5.01286	0.12337	1.98744	0.465903	7.62811	0.624489	10.2206	0.703012	10.831	0.928783	14.2029	0.413382	6.83697	0.558357	9.15788	0.801447	12.1785
0.329794	4.97042	0.125468	1.99135	0.471032	7.59621	0.629204	10.1431	0.70501	10.7866	0.931212	14.04	0.418219	6.81201	0.562065	9.07994	0.804151	12.049
0.331609	4.92857	0.127565	1.99513	0.476177	7.56552	0.633939	10.0682	0.706491	10.7545	0.933668	13.882	0.423022	6.78724	0.565809	9.00488	0.806882	11.9235
0.333387	4.88732	0.129662	1.99879	0.481338	7.53596	0.63869	9.99578	0.707444	10.7342	0.93615	13.7287	0.427789	6.76263	0.569588	8.93257	0.809642	11.8017
0.334908	4.85187	0.131758	2.00234	0.48651	7.50742	0.643453	9.92559	0.708822	10.7054	0.938659	13.58	0.432518	6.73815	0.573402	8.86289	0.812429	11.6837
0.336185	4.82202	0.133853	2.00579	0.491691	7.47983	0.648223	9.85751	0.710329	10.6745	0.941193	13.4355	0.437209	6.71377	0.577251	8.79572	0.815243	11.5692
0.337228	4.79759	0.135948	2.00913	0.496878	7.45311	0.652997	9.79137	0.712395	10.6332	0.943752	13.2953	0.441859	6.68948	0.581135	8.73095	0.818085	11.458
0.338044	4.77845	0.138042	2.01237	0.50207	7.42718	0.65777	9.72705	0.715036	10.5822	0.946337	13.159	0.446468	6.66524	0.585053	8.66848	0.820953	11.3501
0.33864	4.76447	0.140136	2.01552	0.507263	7.40199	0.662539	9.66442	0.718273	10.5224	0.948948	13.0265	0.451034	6.64103	0.589006	8.60822	0.823474	11.2585
0.33902	4.75556	0.14223	2.01859	0.512457	7.37748	0.6673	9.60335	0.722129	10.4545	0.951583	12.8977	0.455556	6.61685	0.592994	8.55008	0.825639	11.1823
0.339563	4.74281	0.144323	2.02156	0.517648	7.35358	0.672049	9.54373	0.726635	10.3797	0.954243	12.7725	0.460034	6.59267	0.597015	8.49396	0.82744	11.1205
0.34015	4.72903	0.146416	2.02445	0.522836	7.33026	0.676784	9.48548	0.73123	10.3082	0.956927	12.6506	0.464466	6.56849	0.601071	8.43978	0.828872	11.0724
0.340943	4.71042	0.148508	2.02727	0.528018	7.30745	0.681503	9.42848	0.735913	10.2397	0.959635	12.5321	0.468851	6.54427	0.60516	8.38746	0.829928	11.0375
0.341937	4.6871	0.1506	2.03	0.533192	7.28513	0.686202	9.37268	0.740685	10.1742	0.962368	12.4167	0.473189	6.52003	0.609282	8.33694	0.830606	11.0153
0.343127	4.6592	0.152691	2.03267	0.538358	7.26325	0.69088	9.318	0.745548	10.1116	0.965125	12.3043	0.477478	6.49574	0.613436	8.28813	0.831582	10.9836
0.344507	4.62693	0.154782	2.03526	0.543514	7.24178	0.695535	9.26437	0.7505	10.0518	0.967906	12.1949	0.481718	6.47139	0.617624	8.24096	0.832647	10.9496
0.34607	4.59047	0.156873	2.03779	0.548658	7.22069	0.700168	9.21176	0.755542	9.99456	0.97071	12.0884	0.485909	6.447	0.621843	8.19538	0.8341	10.9038
0.347612	4.55464	0.158964	2.04025	0.553789	7.19993	0.704776	9.16011	0.760673	9.93992	0.973537	11.9845	0.490049	6.42253	0.626093	8.1513	0.835947	10.8468
0.349135	4.51942	0.161054	2.04265	0.558906	7.1795	0.709361	9.10939	0.76589	9.88773	0.976388	11.8833	0.494138	6.39801	0.630374	8.10868	0.838193	10.7791
0.35064	4.48482	0.163144	2.04499	0.564008	7.15935	0.713922	9.05956	0.771194	9.83786	0.979262	11.7847	0.498177	6.37341	0.634686	8.06746	0.840845	10.7015
0.352128	4.45082	0.165233	2.04727	0.569093	7.13946	0.71846	9.01062	0.776581	9.79022	0.982159	11.6885	0.502164	6.34874	0.639026	8.02756	0.843913	10.6147
0.353602	4.41742	0.167322	2.0495	0.574161	7.11982	0.722976	8.96253	0.78205	9.74471	0.984702	11.6066	0.506099	6.32401	0.643396	7.98895	0.847005	10.5302
0.35506	4.38461	0.169411	2.05167	0.57921	7.10039	0.727472	8.91529	0.787598	9.70122	0.986884	11.5382	0.509983	6.2992	0.647794	7.95157	0.850121	10.4479
0.356506	4.35238	0.1715	2.05379	0.58424	7.08117	0.731948	8.86888	0.793222	9.65964	0.988697	11.4826	0.513815	6.27433	0.652218	7.91536	0.853263	10.3678
0.357939	4.32074	0.173588	2.05587	0.589249	7.06214	0.736406	8.82329	0.79892	9.61988	0.990137	11.4392	0.517596	6.24939	0.65667	7.88027	0.856428	10.2898
0.359361	4.28966	0.175676	2.05789	0.594237	7.04327	0.740848	8.77852	0.804689	9.58185	0.991199	11.4076	0.521324	6.2244	0.661146	7.84627	0.859618	10.2137
0.360773	4.25914	0.177764	2.05986	0.599202	7.02455	0.745276	8.73455	0.810525	9.54545	0.991881	11.3875	0.525002	6.19934	0.665647	7.81329	0.862831	10.1397
0.362174	4.22917	0.179852	2.06179	0.604145	7.00597	0.74969	8.69139	0.816427	9.51059	0.992862	11.3589	0.528629	6.17424	0.670171	7.7813	0.866068	10.0675
0.363567	4.19974	0.181939	2.06368	0.609063	6.98751	0.754094	8.64902	0.82239	9.4772	0.993931	11.328	0.532204	6.14909	0.674718	7.75025	0.869328	9.99711
0.364952	4.17084	0.184026	2.06553	0.613957	6.96916	0.758489	8.60745	0.828413	9.44519	0.995391	11.2864	0.53573	6.1239	0.679286	7.7201	0.872612	9.9285
0.366329	4.14247	0.186113	2.06733	0.618825	6.95091	0.762876	8.56666	0.834491	9.41449	0.997244	11.2345	0.539206	6.09868	0.683874	7.69081	0.875919	9.86158
0.367699	4.11462	0.1882	2.0691	0.623668	6.93275	0.767257	8.52665	0.840623	9.38502	0.999496	11.1727	0.542632	6.07343	0.688482	7.66234	0.879248	9.79631
0.369063	4.08727	0.190287	2.07083	0.628483	6.91467	0.771634	8.48741	0.846806	9.35672	1.00215	11.1017	0.546009	6.04816	0.693107	7.63465	0.8826	9.73263
0.370421	4.06041	0.192373	2.07252	0.633272	6.89665	0.776008	8.44893	0.853036	9.32951			0.549338	6.02288	0.697749	7.60771	0.885975	9.67048
0.371774	4.03404	0.194459	2.07417	0.638032	6.8787	0.78038	8.41122	0.859312	9.30335			0.55262	5.99759	0.702407	7.58148	0.889372	9.60983
0.373122	4.00815	0.196545	2.07579	0.642763	6.86079	0.784752	8.37425	0.865631	9.27817			0.555854	5.9723	0.70708	7.55593	0.892791	9.55063
0.374467	3.98273	0.198631	2.07738	0.647465	6.84293	0.789125	8.33801	0.87199	9.25393			0.559043	5.94703	0.711765	7.53102	0.896231	9.49282
0.375807	3.95777	0.200716	2.07894	0.652138	6.82511	0.793501	8.30251	0.878388	9.23055			0.562185	5.92177	0.716463	7.50673	0.899694	9.43637
0.377145	3.93326	0.202802	2.08046	0.65678	6.80732	0.797879	8.26772	0.884822	9.20801			0.565283	5.89653	0.721172	7.48301	0.903178	9.38124
0.378479	3.9092	0.204887	2.08195	0.661392	6.78955	0.802261	8.23364	0.89129	9.18625			0.568337	5.87133	0.725891	7.45986	0.906683	9.32738
0.379811	3.88556	0.206972	2.08341	0.665972	6.7718	0.806648	8.20026	0.89779	9.16524			0.571348	5.84616	0.730618	7.43723	0.910209	9.27476
0.381141	3.86235	0.209057	2.08485	0.670521	6.75407	0.811041	8.16755	0.90432	9.14492			0.574317	5.82104	0.735353	7.4151	0.913757	9.22335
0.382469	3.83956	0.211142	2.08626	0.675037	6.73634	0.81544	8.13552	0.910878	9.12526			0.577244	5.79598	0.740094	7.39345	0.917325	9.17309
0.383796	3.81718	0.213226	2.08763	0.679521	6.71862	0.819846	8.10415	0.917462	9.10622			0.58013	5.77097	0.74484	7.37224	0.920913	9.12397
0.385121	3.79519	0.215311	2.08899	0.683972	6.7009	0.82426	8.07342	0.92407	9.08778			0.582976	5.74602	0.74959	7.35147	0.924523	9.07595
0.386446	3.7736	0.217395	2.09032	0.688391	6.68318	0.828681	8.04332	0.930701	9.06988			0.585783	5.72115	0.754343	7.33109	0.928152	9.029
0.38777	3.75239	0.21948	2.09162	0.692775	6.66546	0.83311	8.01384	0.937353	9.05251			0.588551	5.69636	0.759098	7.31111	0.931801	8.98308
0.389094	3.73156	0.221564	2.0929	0.697126	6.64773	0.837548	7.98497	0.944023	9.03563			0.591282	5.67165	0.763854	7.29148	0.935471	8.93818
0.390418	3.7111	0.223648	2.09415	0.701444	6.63	0.841995	7.95669	0.95071	9.0192			0.593977	5.64702	0.768609	7.2722	0.93916	8.89425
0.391742	3.69099	0.225731	2.09538	0.705727	6.61225	0.846451	7.92899	0.957413	9.00321			0.596635	5.62249	0.773363	7.25324	0.942869	8.85127
0.393066	3.67124	0.227815	2.09659	0.709976	6.5945	0.850916	7.90185	0.964128	8.98762			0.599258	5.59806	0.778115	7.23459	0.946597	8.80922
0.394391	3.65184	0.229899	2.09778	0.71419	6.57673	0.85539	7.87526	0.970854	8.97239			0.601847	5.57374	0.782863	7.21622	0.950344	8.76807
0.395717	3.63278	0.231982	2.09895	0.71837	6.55895	0.859873	7.84921	0.97759	8.95751			0.604403	5.54952	0.787607	7.19813	0.954111	8.7278
0.397044	3.61405	0.234066	2.1001	0.722515	6.54115	0.864365	7.82368	0.984332	8.94294			0.606925	5.52542	0.792346	7.1803	0.957897	8.68838
0.398372	3.59564	0.236149	2.10122	0.726626	6.52334	0.868867	7.79866	0.991078	8.92866			0.609416	5.50143	0.797079	7.16271	0.961701	8.64979
0.399701	3.57755	0.238232	2.10233	0.730702	6.50552	0.873378	7.77413	0.997827	8.91462			0.611876	5.47756	0.801804	7.14535	0.965524	8.61201
0.401032	3.55978	0.240315	2.10342	0.734743	6.48768	0.877897	7.75008	1.00457	8.90082			0.614305	5.45382	0.806521	7.12821	0.969365	8.57501
0.402364	3.54231	0.242398	2.10449	0.738749	6.46983	0.882425	7.72651					0.616704	5.4302	0.81123	7.11126	0.973225	8.53878
0.403699	3.52514	0.244481	2.10554	0.742721	6.45197	0.886962	7.70339					0.619074	5.40672	0.815929	7.09451	0.977103	8.50329
0.405035	3.50827	0.246564	2.10657	0.746658	6.43409	0.891507	7.68071					0.621416	5.38336	0.820617	7.07794	0.980999	8.46853
0.406373	3.49168	0.248646	2.10759	0.75056	6.41621	0.896059	7.65846					0.62373	5.36015	0.825294	7.06153	0.984913	8.43448
0.407713	3.47537	0.250729	2.10859	0.754428	6.39832	0.90062	7.63662					0.626018	5.33707	0.829959	7.04528	0.988844	8.40112
0.409055	3.45934	0.252811	2.10957	0.758262	6.38041	0.905187	7.61519					0.628279	5.31414	0.834611	7.02918	0.992793	8.36843
0.4104	3.44358	0.254894	2.11054	0.762062	6.36251	0.909761	7.59415					0.630514	5.29135	0.839249	7.01321	0.996759	8.33639
0.411747	3.42808	0.256976	2.11149	0.765828	6.34459	0.914342	7.57348					0.632725	5.2687	0.843874	6.99737	1.00074	8.30499
0.413097	3.41285	0.259058	2.11243	0.76956	6.32668	0.918928	7.55318					0.634911	5.24621	0.848483	6.98166		
0.414449	3.39787	0.26114	2.11335	0.773258	6.30876	0.92352	7.53324					0.637073	5.22386	0.853077	6.96605		
0.415804	3.38313	0.263222	2.11426	0.776923	6.29084	0.928118	7.51363					0.639212	5.20166	0.857655	6.95055		
0.417162	3.36865	0.265304	2.11516	0.780555	6.27292	0.932719	7.49436					0.641329	5.17961	0.862215	6.93515		
0.418523	3.3544	0.267386	2.11604	0.784154	6.25501	0.937325	7.47541					0.643424	5.15772	0.866759	6.91984		
0.419886	3.34038	0.269468	2.1169	0.78772	6.2371	0.941935	7.45676					0.645497	5.13599	0.871284	6.90461		
0.421253	3.32659	0.27155	2.11776	0.791254	6.21921	0.946547	7.43841					0.64755	5.1144	0.875792	6.88946		
0.422622	3.31303	0.273632	2.1186	0.794755	6.20132	0.951162	7.42035					0.649582	5.09298	0.88028	6.87438		
0.423995	3.29969	0.275713	2.11942	0.798226	6.18344	0.955779	7.40256					0.651595	5.07171	0.884748	6.85937		
0.425371	3.28657	0.277795	2.12024	0.801664	6.16558	0.960397	7.38504					0.653588	5.0506	0.889197	6.84442		
0.42675	3.27366	0.279876	2.12104	0.805072	6.14773	0.965017	7.36778					0.655563	5.02965	0.893626	6.82953		
0.428132	3.26095	0.281958	2.12184	0.808448	6.1299	0.969636	7.35076					0.65752	5.00885	0.898033	6.8147		
0.429517	3.24845	0.284039	2.12262	0.811794	6.1121	0.974256	7.33397					0.659458	4.98822	0.90242	6.79991		
0.430906	3.23615	0.28612	2.12339	0.81511	6.09431	0.978874	7.31742					0.66138	4.96774	0.906785	6.78516		
0.432298	3.22405	0.288201	2.12414	0.818395	6.07655	0.983491	7.30108					0.663285	4.94743	0.911128	6.77046		
0.433693	3.21213	0.290283	2.12489	0.821652	6.05881	0.988106	7.28496					0.665173	4.92727	0.915449	6.7558		
0.435092	3.20041	0.292364	2.12563	0.824879	6.0411	0.992719	7.26904					0.667046	4.90728	0.919747	6.74117		
0.436494	3.18887	0.294445	2.12635	0.828077	6.02342	0.997329	7.25331					0.668903	4.88744	0.924023	6.72657		
0.437899	3.17751	0.296526	2.12707	0.831246	6.00578	1.00193	7.23776					0.670745	4.86776	0.928276	6.71201		
0.439308	3.16633	0.298607	2.12778	0.834387	5.98816							0.672573	4.84824	0.932505	6.69747		
0.440721	3.15532	0.300687	2.12847	0.837501	5.97058							0.674386	4.82888	0.936711	6.68296		
0.442137	3.14448	0.302768	2.12916	0.840587	5.95304							0.676185	4.80968	0.940893	6.66847		
0.443556	3.13381	0.304849	2.12984	0.843645	5.93554							0.677971	4.79064	0.945052	6.654		
0.444979	3.1233	0.30693	2.13051	0.846677	5.91808							0.679745	4.77175	0.949186	6.63956		
0.446406	3.11296	0.30901	2.13117	0.849682	5.90066							0.681505	4.75302	0.953297	6.62513		
0.447836	3.10277	0.311091	2.13182	0.852662	5.88328							0.683253	4.73445	0.957383	6.61072		
0.449269	3.09274	0.313172	2.13246	0.855615	5.86595							0.684989	4.71603	0.961444	6.59633		
0.450706	3.08286	0.315252	2.1331	0.858543	5.84866							0.686714	4.69777	0.965481	6.58196		
0.452147	3.07313	0.317333	2.13372	0.861445	5.83142							0.688427	4.67966	0.969494	6.5676		
0.453591	3.06354	0.319413	2.13434	0.864323	5.81423							0.690129	4.66171	0.973482	6.55325		
0.455039	3.0541	0.321493	2.13495	0.867176	5.79709							0.691821	4.64391	0.977446	6.53892		
0.45649	3.0448	0.323574	2.13555	0.870005	5.78							0.693502	4.62626	0.981385	6.52461		
0.457945	3.03564	0.325654	2.13615	0.87281	5.76297							0.695173	4.60877	0.985299	6.51031		
0.459403	3.02662	0.327734	2.13673	0.875592	5.74599							0.696835	4.59142	0.989189	6.49602		
0.460865	3.01772	0.329814	2.13731	0.87835	5.72906							0.698487	4.57423	0.993055	6.48174		
0.46233	3.00896	0.331895	2.13788	0.881086	5.71219							0.70013	4.55718	0.996896	6.46748		
0.463799	3.00033	0.333975	2.13845	0.883799	5.69538							0.701764	4.54028	1.00071	6.45324		
0.465272	2.99183	0.336055	2.13901	0.886489	5.67862							0.703389	4.52353				
0.466748	2.98344	0.338135	2.13956	0.889158	5.66192							0.705006	4.50693				
0.468228	2.97518	0.340215	2.1401	0.891805	5.64529							0.706615	4.49047				
0.469711	2.96704	0.342295	2.14064	0.894431	5.62871							0.708216	4.47415				
0.471198	2.95902	0.344375	2.14117	0.897036	5.6122							0.70981	4.45798				
0.472688	2.95111	0.346455	2.1417	0.89962	5.59575							0.711396	4.44195				
0.474181	2.94331	0.348534	2.14222	0.902183	5.57936							0.712975	4.42606				
0.475678	2.93563	0.350614	2.14273	0.904726	5.56303							0.714547	4.41031				
0.477179	2.92805	0.352694	2.14324	0.90725	5.54677							0.716113	4.3947				
0.478683	2.92059	0.354774	2.14374	0.909754	5.53058							0.717672	4.37923				
0.48019	2.91322	0.356854	2.14423	0.912238	5.51445							0.719224	4.36389				
0.481701	2.90596	0.358933	2.14472	0.914704	5.49839							0.720771	4.34869				
0.483216	2.89881	0.361013	2.14521	0.917151	5.48239							0.722311	4.33363				
0.484733	2.89175	0.363092	2.14568	0.919579	5.46646							0.723846	4.3187				
0.486255	2.88479	0.365172	2.14616	0.921989	5.4506							0.725376	4.3039				
0.487779	2.87792	0.367252	2.14662	0.924381	5.43481							0.7269	4.28923				
0.489307	2.87116	0.369331	2.14709	0.926756	5.41908							0.728419	4.2747				
0.490838	2.86448	0.371411	2.14754	0.929113	5.40343							0.729934	4.26029				
0.492373	2.8579	0.37349	2.148	0.931453	5.38785							0.731443	4.24601				
0.49391	2.8514	0.375569	2.14844	0.933777	5.37233							0.732948	4.23186				
0.495452	2.845	0.377649	2.14889	0.936083	5.35689							0.734448	4.21783				
0.496996	2.83868	0.379728	2.14932	0.938373	5.34151							0.735944	4.20393				
0.498544	2.83245	0.381808	2.14976	0.940647	5.32621							0.737436	4.19015				
0.500095	2.8263	0.383887	2.15018	0.942906	5.31098							0.738924	4.17649				
0.501649	2.82023	0.385966	2.15061	0.945148	5.29582							0.740408	4.16296				
0.503206	2.81424	0.388045	2.15103	0.947375	5.28073							0.741889	4.14955				
0.504767	2.80834	0.390125	2.15144	0.949587	5.26571							0.743366	4.13625				
0.50633	2.80251	0.392204	2.15185	0.951784	5.25077							0.744839	4.12308				
0.507897	2.79676	0.394283	2.15226	0.953967	5.2359							0.746309	4.11002				
0.509467	2.79109	0.396362	2.15266	0.956135	5.2211							0.747776	4.09707				
0.511041	2.78549	0.398441	2.15305	0.958288	5.20637							0.74924	4.08425				
0.512617	2.77996	0.40052	2.15345	0.960428	5.19171							0.750702	4.07153				
0.514196	2.77451	0.402599	2.15384	0.962554	5.17713							0.75216	4.05893				
0.515779	2.76913	0.404678	2.15422	0.964666	5.16262							0.753616	4.04644				
0.517364	2.76381	0.406758	2.1546	0.966765	5.14819							0.755069	4.03406				
0.518953	2.75857	0.408836	2.15498	0.968851	5.13382							0.756519	4.0218				
0.520544	2.75339	0.410915	2.15535	0.970924	5.11953							0.757968	4.00964				
0.522139	2.74828	0.412994	2.15572	0.972984	5.10531							0.759414	3.99758				
0.523736	2.74324	0.415073	2.15609	0.975032	5.09117							0.760858	3.98564				
0.525337	2.73826	0.417152	2.15645	0.977067	5.0771							0.7623	3.9738				
0.52694	2.73334	0.419231	2.15681	0.979091	5.0631							0.76374	3.96206				
0.528546	2.72849	0.42131	2.15716	0.981102	5.04917							0.765178	3.95043				
0.530155	2.7237	0.423389	2.15752	0.983102	5.03532							0.766615	3.9389				
0.531767	2.71896	0.425468	2.15786	0.98509	5.02154							0.76805	3.92747				
0.533382	2.71429	0.427546	2.15821	0.987066	5.00783							0.769483	3.91614				
0.535	2.70968	0.429625	2.15855	0.989032	4.9942							0.770915	3.90491				
0.536621	2.70512	0.431704	2.15889	0.990987	4.98064							0.772345	3.89378				
0.538244	2.70062	0.433783	2.15922	0.992931	4.96715							0.773774	3.88275				
0.53987	2.69617	0.435861	2.15956	0.994864	4.95373							0.775202	3.87181				
0.541499	2.69178	0.43794	2.15988	0.996787	4.94038							0.776629	3.86097				
0.543131	2.68745	0.440019	2.16021	0.998699	4.92711							0.778055	3.85023				
0.544766	2.68317	0.442097	2.16053	1.0006	4.91391							0.779479	3.83957				
0.546403	2.67894	0.444176	2.16085									0.780903	3.82901				
0.548043	2.67476	0.446255	2.16117									0.782326	3.81855				
0.549685	2.67063	0.448333	2.16148									0.783748	3.80817				
0.55133	2.66655	0.450412	2.16179									0.78517	3.79788				
0.552978	2.66252	0.45249	2.1621									0.786591	3.78769				
0.554628	2.65855	0.454569	2.16241									0.788011	3.77758				
0.556281	2.65461	0.456647	2.16271									0.78943	3.76756				
0.557937	2.65073	0.458726	2.16301									0.79085	3.75762				
0.559595	2.64689	0.460804	2.1633									0.792268	3.74777				
0.561256	2.6431	0.462883	2.1636									0.793687	3.73801				
0.562919	2.63935	0.464961	2.16389									0.795105	3.72832				
0.564585	2.63565	0.46704	2.16418									0.796523	3.71873				
0.566253	2.63199	0.469118	2.16446									0.797941	3.70921				
0.567924	2.62837	0.471196	2.16475									0.799358	3.69978				
0.569597	2.6248	0.473275	2.16503									0.800776	3.69042				
0.571273	2.62126	0.475353	2.16531									0.802193	3.68115				
0.572951	2.61777	0.477431	2.16558									0.803611	3.67196				
0.574631	2.61432	0.47951	2.16586									0.805028	3.66284				
0.576314	2.61091	0.481588	2.16613									0.806446	3.6538				
0.577999	2.60754	0.483666	2.1664									0.807863	3.64484				
0.579687	2.6042	0.485745	2.16667									0.809281	3.63595				
0.581377	2.60091	0.487823	2.16693									0.8107	3.62714				
0.583069	2.59765	0.489901	2.16719									0.812118	3.6184				
0.584763	2.59443	0.491979	2.16745									0.813537	3.60974				
0.58646	2.59125	0.494058	2.16771									0.814956	3.60115				
0.588159	2.5881	0.496136	2.16797									0.816375	3.59263				
0.589861	2.58499	0.498214	2.16822									0.817795	3.58418				
0.591564	2.58192	0.500292	2.16847									0.819216	3.57581				
0.59327	2.57887	0.50237	2.16872									0.820636	3.5675				
0.594978	2.57586	0.504448	2.16897									0.822058	3.55926				
0.596688	2.57289	0.506527	2.16922									0.82348	3.5511				
0.5984	2.56995	0.508605	2.16946									0.824902	3.543				
0.600115	2.56704	0.510683	2.1697									0.826326	3.53496				
0.601831	2.56416	0.512761	2.16994									0.827749	3.527				
0.60355	2.56132	0.514839	2.17018									0.829174	3.51909				
0.605271	2.55851	0.516917	2.17041									0.830599	3.51126				
0.606994	2.55572	0.518995	2.17065									0.832025	3.50349				
0.608719	2.55297	0.521073	2.17088									0.833452	3.49578				
0.610446	2.55025	0.523151	2.17111									0.834879	3.48814				
0.612175	2.54756	0.525229	2.17134									0.836307	3.48056				
0.613906	2.54489	0.527307	2.17156									0.837737	3.47304				
0.615639	2.54226	0.529385	2.17179									0.839167	3.46558				
0.617374	2.53965	0.531463	2.17201									0.840598	3.45818				
0.619111	2.53708	0.533541	2.17223									0.842029	3.45085				
0.62085	2.53453	0.535619	2.17245									0.843462	3.44357				
0.622591	2.532	0.537697	2.17267									0.844896	3.43635				
0.624334	2.52951	0.539774	2.17288									0.84633	3.42919				
0.626079	2.52704	0.541852	2.1731									0.847766	3.42209				
0.627826	2.52459	0.54393	2.17331									0.849203	3.41505				
0.629575	2.52218	0.546008	2.17352									0.850641	3.40806				
0.631325	2.51978	0.548086	2.17373									0.852079	3.40113				
0.633078	2.51742	0.550164	2.17394									0.853519	3.39425				
0.634832	2.51507	0.552242	2.17414									0.85496	3.38743				
0.636588	2.51276	0.554319	2.17435									0.856402	3.38067				
0.638346	2.51046	0.556397	2.17455									0.857845	3.37395				
0.640106	2.50819	0.558475	2.17475									0.85929	3.3673				
0.641867	2.50595	0.560553	2.17495									0.860735	3.36069				
0.643631	2.50373	0.562631	2.17515									0.862182	3.35414				
0.645396	2.50153	0.564708	2.17535									0.86363	3.34763				
0.647163	2.49935	0.566786	2.17555									0.865079	3.34119				
0.648931	2.49719	0.568864	2.17574									0.866529	3.33479				
0.650702	2.49506	0.570941	2.17593									0.86798	3.32844				
0.652474	2.49295	0.573019	2.17612									0.869433	3.32214				
0.654248	2.49086	0.575097	2.17631									0.870887	3.31589				
0.656023	2.48879	0.577175	2.1765									0.872342	3.30969				
0.6578	2.48674	0.579252	2.17669									0.873799	3.30354				
0.659579	2.48472	0.58133	2.17688									0.875256	3.29743				
0.66136	2.48271	0.583408	2.17706									0.876715	3.29138				
0.663142	2.48072	0.585485	2.17724									0.878176	3.28537				
0.664925	2.47876	0.587563	2.17743									0.879637	3.27941				
0.666711	2.47681	0.58964	2.17761									0.881101	3.27349				
0.668498	2.47488	0.591718	2.17779									0.882565	3.26762				
0.670286	2.47297	0.593796	2.17796									0.884031	3.2618				
0.672077	2.47109	0.595873	2.17814									0.885498	3.25602				
0.673868	2.46921	0.597951	2.17832									0.886966	3.25028				
0.675662	2.46736	0.600028	2.17849									0.888436	3.24459				
0.677457	2.46553	0.602106	2.17866									0.889907	3.23894				
0.679253	2.46371	0.604183	2.17884									0.891379	3.23334				
0.681051	2.46191	0.606261	2.17901									0.892853	3.22777				
0.682851	2.46013	0.608338	2.17918									0.894329	3.22225				
0.684652	2.45837	0.610416	2.17934									0.895805	3.21678				
0.686454	2.45662	0.612493	2.17951									0.897284	3.21134				
0.688258	2.45489	0.614571	2.17968									0.898763	3.20594				
0.690063	2.45318	0.616648	2.17984									0.900244	3.20059				
0.69187	2.45149	0.618726	2.18001									0.901727	3.19528				
0.693679	2.44981	0.620803	2.18017									0.903211	3.19				
0.695488	2.44814	0.622881	2.18033									0.904696	3.18477				
0.6973	2.44649	0.624958	2.18049									0.906183	3.17958				
0.699112	2.44486	0.627036	2.18065									0.907671	3.17442				
0.700926	2.44324	0.629113	2.18081									0.90916	3.1693				
0.702742	2.44164	0.63119	2.18097									0.910652	3.16422				
0.704559	2.44006	0.633268	2.18112									0.912144	3.15918				
0.706377	2.43849	0.635345	2.18128									0.913638	3.15418				
0.708197	2.43693	0.637423	2.18143									0.915134	3.14921				
0.710017	2.43539	0.6395	2.18159									0.916631	3.14428				
0.71184	2.43386	0.641577	2.18174									0.918129	3.13939				
0.713663	2.43235	0.643655	2.18189									0.919629	3.13453				
0.715488	2.43085	0.645732	2.18204									0.921131	3.12971				
0.717315	2.42936	0.647809	2.18219									0.922634	3.12493				
0.719142	2.42789	0.649887	2.18234									0.924138	3.12017				
0.720971	2.42643	0.651964	2.18249									0.925644	3.11546				
0.722801	2.42499	0.654041	2.18263									0.927151	3.11078				
0.724633	2.42356	0.656119	2.18278									0.92866	3.10613				
0.726466	2.42214	0.658196	2.18292									0.930171	3.10152				
0.7283	2.42074	0.660273	2.18307									0.931683	3.09694				
0.730135	2.41934	0.662351	2.18321									0.933196	3.09239				
0.731972	2.41796	0.664428	2.18335									0.934711	3.08788				
0.733809	2.4166	0.666505	2.18349									0.936227	3.0834				
0.735648	2.41524	0.668582	2.18363									0.937745	3.07895				
0.737489	2.4139	0.670659	2.18377									0.939265	3.07453				
0.73933	2.41257	0.672737	2.18391									0.940786	3.07015				
0.741173	2.41125	0.674814	2.18405									0.942308	3.06579				
0.743016	2.40995	0.676891	2.18418									0.943832	3.06147				
0.744862	2.40865	0.678968	2.18432									0.945357	3.05718				
0.746708	2.40737	0.681045	2.18445									0.946884	3.05292				
0.748555	2.4061	0.683123	2.18459									0.948413	3.04869				
0.750404	2.40484	0.6852	2.18472									0.949943	3.04449				
0.752253	2.40359	0.687277	2.18485									0.951474	3.04032				
0.754104	2.40235	0.689354	2.18499									0.953007	3.03618				
0.755956	2.40112	0.691431	2.18512									0.954542	3.03207				
0.757809	2.39991	0.693508	2.18525									0.956078	3.02799				
0.759664	2.3987	0.695586	2.18538									0.957615	3.02393				
0.761519	2.39751	0.697663	2.1855									0.959154	3.01991				
0.763375	2.39632	0.69974	2.18563									0.960695	3.01591				
0.765233	2.39515	0.701817	2.18576									0.962237	3.01194				
0.767091	2.39399	0.703894	2.18589									0.963781	3.008				
0.768951	2.39283	0.705971	2.18601									0.965326	3.00409				
0.770812	2.39169	0.708048	2.18614									0.966872	3.0002				
0.772674	2.39055	0.710125	2.18626									0.96842	2.99634				
0.774537	2.38943	0.712202	2.18638									0.96997	2.99251				
0.776401	2.38832	0.714279	2.1865									0.971521	2.98871				
0.778266	2.38721	0.716356	2.18663									0.973073	2.98493				
0.780132	2.38612	0.718433	2.18675									0.974627	2.98117				
0.781999	2.38503	0.72051	2.18687									0.976183	2.97745				
0.783867	2.38395	0.722587	2.18699									0.97774	2.97374				
0.785736	2.38289	0.724664	2.18711									0.979298	2.97007				
0.787606	2.38183	0.726741	2.18722									0.980858	2.96642				
0.789477	2.38078	0.728818	2.18734									0.98242	2.96279				
0.79135	2.37974	0.730895	2.18746									0.983983	2.95919				
0.793223	2.37871	0.732972	2.18758									0.985547	2.95561				
0.795097	2.37768	0.735049	2.18769									0.987113	2.95206				
0.796972	2.37667	0.737126	2.18781									0.988681	2.94853				
0.798848	2.37566	0.739203	2.18792									0.99025	2.94503				
0.800725	2.37467	0.74128	2.18803									0.99182	2.94155				
0.802603	2.37368	0.743357	2.18815									0.993392	2.93809				
0.804482	2.3727	0.745434	2.18826									0.994965	2.93466				
0.806362	2.37172	0.747511	2.18837									0.99654	2.93125				
0.808243	2.37076	0.749588	2.18848									0.998116	2.92786				
0.810125	2.3698	0.751665	2.18859									0.999694	2.9245				
0.812007	2.36885	0.753742	2.1887									1.00127	2.92115				
0.813891	2.36791	0.755819	2.18881														
0.815775	2.36698	0.757896	2.18892														
0.817661	2.36605	0.759973	2.18903														
0.819547	2.36513	0.762049	2.18913														
0.821434	2.36422	0.764126	2.18924														
0.823323	2.36332	0.766203	2.18935														
0.825211	2.36242	0.76828	2.18945														
0.827101	2.36154	0.770357	2.18956														
0.828992	2.36065	0.772434	2.18966														
0.830884	2.35978	0.77451	2.18977														
0.832776	2.35891	0.776587	2.18987														
0.834669	2.35805	0.778664	2.18997														
0.836564	2.3572	0.780741	2.19007														
0.838459	2.35635	0.782818	2.19018														
0.840355	2.35551	0.784894	2.19028														
0.842251	2.35468	0.786971	2.19038														
0.844149	2.35385	0.789048	2.19048														
0.846047	2.35304	0.791125	2.19058														
0.847946	2.35222	0.793202	2.19068														
0.849846	2.35142	0.795278	2.19077														
0.851747	2.35061	0.797355	2.19087														
0.853648	2.34982	0.799432	2.19097														
0.855551	2.34903	0.801509	2.19107														
0.857454	2.34825	0.803585	2.19116														
0.859358	2.34748	0.805662	2.19126														
0.861263	2.34671	0.807739	2.19135														
0.863168	2.34594	0.809815	2.19145														
0.865074	2.34518	0.811892	2.19154														
0.866981	2.34443	0.813969	2.19164														
0.868889	2.34369	0.816046	2.19173														
0.870798	2.34295	0.818122	2.19182														
0.872707	2.34221	0.820199	2.19192														
0.874617	2.34148	0.822276	2.19201														
0.876528	2.34076	0.824352	2.1921														
0.878439	2.34004	0.826429	2.19219														
0.880352	2.33933	0.828505	2.19228														
0.882264	2.33862	0.830582	2.19237														
0.884178	2.33792	0.832659	2.19246														
0.886093	2.33723	0.834735	2.19255														
0.888008	2.33654	0.836812	2.19264														
0.889924	2.33585	0.838889	2.19273														
0.89184	2.33517	0.840965	2.19281														
0.893757	2.3345	0.843042	2.1929														
0.895675	2.33383	0.845118	2.19299														
0.897594	2.33316	0.847195	2.19307														
0.899513	2.3325	0.849271	2.19316														
0.901433	2.33185	0.851348	2.19325														
0.903354	2.3312	0.853425	2.19333														
0.905275	2.33055	0.855501	2.19342														
0.907197	2.32991	0.857578	2.1935														
0.90912	2.32928	0.859654	2.19358														
0.911043	2.32864	0.861731	2.19367														
0.912967	2.32802	0.863807	2.19375														
0.914892	2.3274	0.865884	2.19383														
0.916817	2.32678	0.86796	2.19391														
0.918743	2.32617	0.870037	2.194														
0.920669	2.32556	0.872113	2.19408														
0.922597	2.32496	0.87419	2.19416														
0.924524	2.32436	0.876266	2.19424														
0.926453	2.32376	0.878343	2.19432														
0.928382	2.32317	0.880419	2.1944														
0.930312	2.32258	0.882496	2.19448														
0.932242	2.322	0.884572	2.19456														
0.934173	2.32143	0.886649	2.19464														
0.936105	2.32085	0.888725	2.19472														
0.938037	2.32028	0.890802	2.19479														
0.939969	2.31972	0.892878	2.19487														
0.941903	2.31916	0.894954	2.19495														
0.943837	2.3186	0.897031	2.19502														
0.945771	2.31805	0.899107	2.1951														
0.947706	2.3175	0.901184	2.19518														
0.949642	2.31695	0.90326	2.19525														
0.951579	2.31641	0.905336	2.19533														
0.953515	2.31587	0.907413	2.1954														
0.955453	2.31534	0.909489	2.19548														
0.957391	2.31481	0.911566	2.19555														
0.959329	2.31428	0.913642	2.19563														
0.961269	2.31376	0.915718	2.1957														
0.963208	2.31324	0.917795	2.19577														
0.965149	2.31273	0.919871	2.19585														
0.967089	2.31221	0.921947	2.19592														
0.969031	2.31171	0.924024	2.19599														
0.970973	2.3112	0.9261	2.19606														
0.972915	2.3107	0.928176	2.19613														
0.974858	2.3102	0.930253	2.19621														
0.976802	2.30971	0.932329	2.19628														
0.978746	2.30922	0.934405	2.19635														
0.98069	2.30873	0.936482	2.19642														
0.982636	2.30825	0.938558	2.19649														
0.984581	2.30777	0.940634	2.19656														
0.986527	2.30729	0.94271	2.19663														
0.988474	2.30682	0.944787	2.1967														
0.990421	2.30635	0.946863	2.19676														
0.992369	2.30588	0.948939	2.19683														
0.994317	2.30542	0.951016	2.1969														
0.996266	2.30496	0.953092	2.19697														
0.998215	2.3045	0.955168	2.19704														
1.00017	2.30404	0.957244	2.1971														
		0.959321	2.19717														
		0.961397	2.19724														
		0.963473	2.1973														
		0.965549	2.19737														
		0.967625	2.19744														
		0.969702	2.1975														
		0.971778	2.19757														
		0.973854	2.19763														
		0.97593	2.19769														
		0.978006	2.19776														
		0.980083	2.19782														
		0.982159	2.19789														
		0.984235	2.19795														
		0.986311	2.19801														
		0.988387	2.19808														
		0.990463	2.19814														
		0.992539	2.1982														
		0.994616	2.19826														
		0.996692	2.19833														
		0.998768	2.19839														
		1.00084	2.19845														
