Sym0		Asym0		Sym1		Sym2		Sym3		Sym4		Asym1		Asym2		Asym3		Asym4	
427  Points		528  Points		427  Points		407  Points		354  Points		254  Points		458  Points		402  Points		347  Points		217  Points	
Freq (MHz)	Vph (m/ms)	Freq (MHz)	Vph (m/ms)	Freq (MHz)	Vph (m/ms)	Freq (MHz)	Vph (m/ms)	Freq (MHz)	Vph (m/ms)	Freq (MHz)	Vph (m/ms)	Freq (MHz)	Vph (m/ms)	Freq (MHz)	Vph (m/ms)	Freq (MHz)	Vph (m/ms)	Freq (MHz)	Vph (m/ms)
0.279509	904.841	0.000243061	0.0958995	0.27951	539.927	0.441136	2328.44	0.559017	2445.81	0.838526	17927.5	0.139763	286.757	0.419267	519.043	0.698772	1301.66	0.882273	1147.41
0.279517	225.308	0.00045394	0.130961	0.279521	192.856	0.441144	393.474	0.559025	481.812	0.838529	856.981	0.139831	98.536	0.419283	241.041	0.698778	475.836	0.882281	518.799
0.279536	128.682	0.000729308	0.16583	0.279541	117.401	0.441164	214.904	0.559045	267.236	0.838538	438.987	0.139966	59.54	0.41931	156.977	0.698791	291.136	0.882294	335.178
0.279564	90.0661	0.00106842	0.200468	0.279572	84.3923	0.441195	147.827	0.559075	184.901	0.838552	295.072	0.140166	42.7012	0.419348	116.393	0.698808	209.732	0.882313	247.562
0.279603	69.2826	0.00147032	0.234825	0.279613	65.8771	0.441239	112.669	0.559116	141.357	0.838572	222.224	0.140431	33.3236	0.419398	92.4894	0.698832	163.906	0.882338	196.262
0.279651	56.2975	0.00193407	0.268881	0.279663	54.0292	0.441293	91.0271	0.559167	114.419	0.838598	178.226	0.140762	27.3543	0.419459	76.7363	0.698862	134.518	0.882369	162.577
0.27971	47.4159	0.00245832	0.302573	0.279724	45.7975	0.44136	76.3648	0.55923	96.1086	0.83863	148.774	0.141155	23.2257	0.419532	65.573	0.698897	114.068	0.882406	138.763
0.279778	40.9585	0.00304176	0.335868	0.279795	39.7462	0.441438	65.7751	0.559304	82.8546	0.838667	127.678	0.141612	20.2036	0.419616	57.2492	0.698938	99.0181	0.882448	121.036
0.279857	36.0526	0.00368311	0.36875	0.279876	35.1107	0.441528	57.7688	0.559389	72.8169	0.83871	111.823	0.14213	17.8984	0.419711	50.8043	0.698986	87.4782	0.882496	107.327
0.279945	32.1993	0.00438064	0.401165	0.279967	31.4466	0.441629	51.5036	0.559484	64.9519	0.838759	99.473	0.142708	16.0841	0.419818	45.667	0.699038	78.3492	0.88255	96.4095
0.280044	29.0929	0.00513294	0.433105	0.280068	28.4777	0.441742	46.4678	0.559591	58.6234	0.838814	89.5812	0.143346	14.6206	0.419936	41.4763	0.699097	70.9471	0.88261	87.5095
0.280153	26.5358	0.00593828	0.464538	0.280179	26.0236	0.441866	42.3321	0.559708	53.4215	0.838874	81.4803	0.14404	13.4165	0.420066	37.9929	0.699162	64.8244	0.882675	80.1152
0.280272	24.3943	0.00679496	0.495445	0.2803	23.9613	0.442002	38.8751	0.559836	49.0701	0.83894	74.7244	0.14479	12.4094	0.420207	35.052	0.699232	59.6758	0.882746	73.8745
0.2804	22.5748	0.00770125	0.525805	0.280431	22.204	0.44215	35.9428	0.559975	45.3767	0.839011	69.0044	0.145594	11.5556	0.420359	32.536	0.699308	55.2862	0.882823	68.5371
0.280539	21.01	0.00865541	0.555608	0.280572	20.689	0.442309	33.4242	0.560125	42.2026	0.839089	64.099	0.146451	10.8233	0.420522	30.3593	0.69939	51.4993	0.882906	63.9201
0.280688	19.6501	0.00965567	0.584839	0.280723	19.3694	0.44248	31.2378	0.560286	39.4457	0.839172	59.8459	0.147239	10.2655	0.420697	28.4578	0.699478	48.1991	0.882995	59.887
0.280847	18.4573	0.0107003	0.613493	0.280884	18.2099	0.442662	29.322	0.560458	37.0289	0.83926	56.1232	0.14794	9.83959	0.420884	26.7825	0.699572	45.2974	0.883089	56.3336
0.281015	17.4028	0.0117877	0.641564	0.281055	17.1831	0.442856	27.6297	0.56064	34.8931	0.839355	52.8375	0.148539	9.5172	0.421081	25.2953	0.699671	42.7263	0.883189	53.1793
0.281194	16.4639	0.0129159	0.669044	0.281236	16.2675	0.443061	26.1239	0.560834	32.992	0.839455	49.9162	0.149026	9.27933	0.42129	23.9665	0.699776	40.4323	0.883295	50.3605
0.281383	15.6228	0.0140835	0.695938	0.281427	15.4461	0.443278	24.7757	0.561038	31.2891	0.839561	47.3019	0.149391	9.11322	0.42151	22.772	0.699887	38.373	0.883406	47.8263
0.281582	14.8649	0.0152887	0.722239	0.281628	14.7052	0.443506	23.5615	0.561253	29.755	0.839672	44.9487	0.149627	9.0106	0.421741	21.6926	0.700004	36.5142	0.883523	45.5358
0.281791	14.1785	0.0165299	0.747953	0.281839	14.0335	0.443745	22.4624	0.561479	28.3659	0.839789	42.8194	0.149971	8.86784	0.421984	20.7125	0.700127	34.828	0.883646	43.4555
0.28201	13.5541	0.0178055	0.773082	0.28206	13.4219	0.443996	21.4628	0.561715	27.1021	0.839912	40.8834	0.150351	8.71873	0.422238	19.8187	0.700255	33.2914	0.883775	41.5577
0.282238	12.9837	0.0191141	0.797632	0.282291	12.8626	0.444259	20.55	0.561962	25.9476	0.840041	39.1158	0.150876	8.52544	0.422503	19.0002	0.70039	31.8854	0.88391	39.8195
0.282477	12.4606	0.0204541	0.821608	0.282532	12.3493	0.444532	19.7131	0.56222	24.8889	0.840175	37.4953	0.151554	8.2955	0.422779	18.248	0.70053	30.5941	0.88405	38.2216
0.282726	11.9793	0.0218243	0.845021	0.282783	11.8766	0.444817	18.943	0.562489	23.9144	0.840315	36.0045	0.152396	8.03708	0.423066	17.5545	0.700676	29.4041	0.884196	36.7476
0.282985	11.5349	0.0232231	0.867876	0.283044	11.4399	0.445113	18.2322	0.562769	23.0146	0.84046	34.6284	0.153411	7.75843	0.423364	16.913	0.700827	28.3038	0.884348	35.3838
0.283254	11.1234	0.0246494	0.890182	0.283315	11.0353	0.445421	17.5741	0.563059	22.1814	0.840611	33.3542	0.154613	7.46736	0.423674	16.318	0.700985	27.2835	0.884505	34.1182
0.283532	10.7413	0.0261019	0.911952	0.283596	10.6595	0.445739	16.9631	0.563359	21.4075	0.840768	32.1711	0.155852	7.2031	0.423995	15.7647	0.701148	26.3349	0.884668	32.9407
0.283821	10.3857	0.0275793	0.933193	0.283887	10.3094	0.446069	16.3944	0.563671	20.6869	0.840931	31.0697	0.157128	6.96224	0.424326	15.2488	0.701317	25.4506	0.884837	31.8423
0.28412	10.0539	0.0290805	0.953917	0.284149	10.0233	0.44641	15.8637	0.563993	20.0144	0.841099	30.0418	0.158437	6.74194	0.424669	14.7667	0.701492	24.6244	0.885012	30.8154
0.284429	9.74356	0.0306044	0.974133	0.284378	9.79234	0.446762	15.3674	0.564326	19.3852	0.841273	29.0803	0.15978	6.5398	0.425023	14.3152	0.701673	23.8507	0.885192	29.8532
0.284747	9.45277	0.0321501	0.993858	0.284571	9.60962	0.447125	14.9023	0.564669	18.7955	0.841452	28.179	0.161154	6.35374	0.425388	13.8916	0.701859	23.1247	0.885378	28.9498
0.285076	9.17975	0.0337164	1.0131	0.284727	9.47016	0.447499	14.4656	0.565023	18.2415	0.841638	27.3324	0.162558	6.18201	0.425764	13.4933	0.702052	22.4421	0.88557	28.1001
0.285414	8.92294	0.0353024	1.03187	0.284843	9.37031	0.447884	14.0548	0.565387	17.7203	0.841828	26.5357	0.163991	6.02309	0.426151	13.1182	0.70225	21.7992	0.885767	27.2993
0.285762	8.68098	0.0369073	1.05018	0.284918	9.30757	0.44828	13.6676	0.565762	17.2289	0.842025	25.7846	0.165451	5.87566	0.426548	12.7644	0.702453	21.1926	0.88597	26.5433
0.286121	8.45263	0.0385301	1.06804	0.285027	9.21892	0.448687	13.3021	0.566147	16.765	0.842227	25.0754	0.166938	5.73858	0.426957	12.43	0.702663	20.6193	0.886179	25.8286
0.286489	8.23679	0.04017	1.08546	0.285146	9.12458	0.449105	12.9566	0.566543	16.3263	0.842435	24.4046	0.168449	5.61083	0.427376	12.1137	0.702878	20.0768	0.886393	25.1519
0.286867	8.0325	0.0418264	1.10246	0.28531	8.99951	0.449534	12.6295	0.566949	15.9108	0.842648	23.7693	0.169985	5.49155	0.427807	11.8139	0.7031	19.5625	0.886613	24.5101
0.287255	7.83886	0.0434983	1.11905	0.285521	8.84646	0.449974	12.3194	0.567366	15.5168	0.842867	23.1666	0.171543	5.37996	0.428248	11.5294	0.703326	19.0743	0.886839	23.9008
0.287653	7.65509	0.0451851	1.13524	0.285781	8.66863	0.450424	12.025	0.567793	15.1426	0.843092	22.5942	0.173123	5.27537	0.4287	11.2592	0.703559	18.6104	0.88707	23.3214
0.288061	7.48047	0.0468862	1.15103	0.286093	8.46951	0.450885	11.7452	0.56823	14.7868	0.843322	22.0498	0.174724	5.17718	0.429162	11.0021	0.703798	18.1689	0.887307	22.7699
0.288479	7.31435	0.0486008	1.16645	0.286461	8.25276	0.451357	11.4789	0.568678	14.4482	0.843558	21.5314	0.176345	5.08483	0.429636	10.7573	0.704042	17.7483	0.88755	22.2443
0.288906	7.15614	0.0503285	1.18149	0.286838	8.04762	0.451839	11.2252	0.569135	14.1255	0.8438	21.0373	0.177985	4.99785	0.43012	10.5239	0.704292	17.3472	0.887798	21.7428
0.289344	7.00531	0.0520685	1.19618	0.287225	7.85321	0.452332	10.9832	0.569604	13.8176	0.844047	20.5658	0.179643	4.9158	0.430615	10.3012	0.704547	16.9642	0.888052	21.2638
0.289791	6.86137	0.0538205	1.21051	0.287623	7.66871	0.452836	10.7522	0.570082	13.5235	0.8443	20.1153	0.181318	4.83829	0.431055	10.1153	0.704809	16.5981	0.888312	20.8059
0.290248	6.72387	0.0555837	1.22451	0.28803	7.49342	0.45335	10.5314	0.570571	13.2424	0.844558	19.6845	0.183011	4.76498	0.431436	9.96241	0.705076	16.2479	0.888577	20.3676
0.290715	6.5924	0.0573578	1.23818	0.288447	7.32668	0.453874	10.3202	0.57107	12.9735	0.844822	19.2721	0.184719	4.69555	0.431756	9.83975	0.705349	15.9126	0.888848	19.9478
0.291192	6.46659	0.0591423	1.25153	0.288874	7.16789	0.45434	10.1435	0.571579	12.7159	0.845092	18.8771	0.186442	4.6297	0.432011	9.74507	0.705628	15.5912	0.889124	19.5454
0.291679	6.3461	0.0609367	1.26457	0.28931	7.01652	0.454743	9.99805	0.572098	12.469	0.845367	18.4982	0.188179	4.56719	0.432201	9.67672	0.705912	15.2828	0.889406	19.1592
0.292176	6.2306	0.0627406	1.27731	0.289757	6.87207	0.45508	9.88114	0.572627	12.2321	0.845647	18.1347	0.189931	4.50777	0.432323	9.63352	0.706202	14.9868	0.889694	18.7883
0.292682	6.11981	0.0645536	1.28976	0.290213	6.73409	0.45535	9.79079	0.573166	12.0047	0.845934	17.7855	0.191696	4.45123	0.432499	9.57215	0.706498	14.7024	0.889987	18.4318
0.293198	6.01345	0.0663753	1.30192	0.29068	6.60218	0.45555	9.7255	0.573715	11.7862	0.846226	17.4498	0.193474	4.39737	0.432692	9.50641	0.7068	14.4289	0.890286	18.089
0.293724	5.91128	0.0682053	1.3138	0.291156	6.47595	0.455679	9.68422	0.574275	11.5762	0.846523	17.1269	0.195263	4.34602	0.432957	9.41858	0.707107	14.1657	0.89059	17.759
0.29426	5.81307	0.0700433	1.32542	0.291642	6.35507	0.455864	9.62554	0.574844	11.374	0.846826	16.816	0.197065	4.29701	0.433295	9.31002	0.70742	13.9123	0.8909	17.4411
0.294805	5.71859	0.071889	1.33678	0.292138	6.2392	0.456067	9.56265	0.575423	11.1794	0.847135	16.5166	0.198878	4.25019	0.433709	9.18237	0.707739	13.6682	0.891216	17.1348
0.295361	5.62765	0.073742	1.34788	0.292643	6.12806	0.456346	9.47855	0.576012	10.9919	0.847449	16.2279	0.200701	4.20543	0.434202	9.03747	0.708063	13.4327	0.891537	16.8393
0.295926	5.54007	0.0756021	1.35874	0.293159	6.02138	0.456701	9.37449	0.576611	10.8111	0.847769	15.9495	0.202535	4.16259	0.434778	8.8773	0.708393	13.2056	0.891863	16.5541
0.296501	5.45568	0.0774689	1.36937	0.293684	5.9189	0.457137	9.25198	0.577219	10.6367	0.848094	15.6807	0.204379	4.12156	0.435364	8.72332	0.708729	12.9863	0.892195	16.2788
0.297085	5.3743	0.0793422	1.37975	0.294219	5.82039	0.457654	9.11272	0.577838	10.4683	0.848425	15.4212	0.206232	4.08223	0.435961	8.57519	0.70907	12.7745	0.892533	16.0127
0.29768	5.29579	0.0812217	1.38992	0.294764	5.72563	0.458257	8.95853	0.578385	10.3264	0.848761	15.1704	0.208094	4.0445	0.436567	8.43259	0.709418	12.5697	0.892876	15.7555
0.298284	5.22002	0.0831072	1.39987	0.295318	5.63444	0.458871	8.81006	0.578856	10.2086	0.849103	14.9279	0.209965	4.00829	0.437185	8.29522	0.709771	12.3718	0.893224	15.5067
0.298898	5.14684	0.0849984	1.4096	0.295883	5.54661	0.459494	8.66699	0.579251	10.1135	0.84945	14.6934	0.211845	3.97349	0.437812	8.16282	0.710129	12.1802	0.893578	15.266
0.299521	5.07614	0.086895	1.41913	0.296457	5.46197	0.460127	8.52905	0.579565	10.0397	0.849803	14.4663	0.213732	3.94004	0.438449	8.03512	0.710493	11.9948	0.893938	15.0328
0.300154	5.0078	0.088797	1.42845	0.297041	5.38037	0.46077	8.39597	0.579798	9.98615	0.850161	14.2465	0.215627	3.90786	0.439097	7.9119	0.710863	11.8152	0.894303	14.807
0.300797	4.94171	0.0907041	1.43759	0.297634	5.30166	0.461423	8.26751	0.579947	9.95222	0.850525	14.0335	0.21753	3.87688	0.439754	7.79292	0.711239	11.6411	0.894673	14.5881
0.30145	4.87777	0.092616	1.44653	0.298238	5.22568	0.462086	8.14344	0.580163	9.90389	0.850894	13.827	0.21944	3.84703	0.440422	7.67799	0.71162	11.4724	0.895049	14.3758
0.302112	4.81589	0.0945326	1.45529	0.298851	5.15231	0.462758	8.02354	0.580399	9.85195	0.851269	13.6268	0.221356	3.81827	0.4411	7.5669	0.712007	11.3088	0.895431	14.1699
0.302785	4.75597	0.0964536	1.46386	0.299473	5.08142	0.46344	7.90763	0.580721	9.78229	0.85165	13.4325	0.22328	3.79053	0.441788	7.45948	0.712399	11.15	0.895818	13.97
0.303378	4.70528	0.0983791	1.47227	0.300106	5.01291	0.464132	7.7955	0.581132	9.69574	0.852035	13.244	0.225209	3.76375	0.442485	7.35554	0.712798	10.9959	0.89621	13.776
0.30389	4.66316	0.100309	1.4805	0.300748	4.94665	0.464833	7.68698	0.581634	9.59333	0.852427	13.0609	0.227145	3.7379	0.443193	7.25494	0.713201	10.8463	0.896607	13.5875
0.304317	4.62907	0.102242	1.48857	0.3014	4.88255	0.465543	7.58192	0.58223	9.47626	0.852824	12.8831	0.229087	3.71293	0.443911	7.15752	0.713611	10.7009	0.89701	13.4044
0.304658	4.60256	0.10418	1.49648	0.302062	4.82052	0.466264	7.48014	0.582922	9.34581	0.853226	12.7103	0.231034	3.68879	0.444638	7.06314	0.713972	10.5775	0.897419	13.2263
0.304909	4.58333	0.106121	1.50423	0.302733	4.76045	0.466993	7.38151	0.583624	9.21934	0.853633	12.5423	0.232987	3.66544	0.445375	6.97167	0.714284	10.4747	0.897833	13.0532
0.305071	4.57112	0.108066	1.51183	0.303414	4.70226	0.467732	7.28589	0.584335	9.09669	0.854046	12.3789	0.234945	3.64285	0.446122	6.88298	0.714543	10.3913	0.898252	12.8847
0.305305	4.55373	0.110014	1.51928	0.304105	4.64589	0.46848	7.19315	0.585056	8.9777	0.854465	12.2199	0.236909	3.62099	0.446878	6.79695	0.71475	10.3264	0.898677	12.7208
0.30556	4.53503	0.111965	1.52659	0.304805	4.59124	0.469237	7.10316	0.585786	8.86219	0.854889	12.0652	0.238877	3.59981	0.447644	6.71347	0.714903	10.2792	0.899107	12.5613
0.305908	4.50991	0.11392	1.53376	0.305515	4.53824	0.470003	7.01581	0.586525	8.75004	0.855318	11.9146	0.24085	3.57928	0.44842	6.63243	0.715002	10.2492	0.899542	12.4059
0.306353	4.47867	0.115878	1.54079	0.306235	4.48684	0.470779	6.931	0.587273	8.6411	0.855753	11.7679	0.242827	3.55938	0.449206	6.55373	0.715144	10.2064	0.899982	12.2545
0.306895	4.44166	0.117586	1.54681	0.306965	4.43696	0.471563	6.8486	0.588031	8.53523	0.856193	11.6251	0.244809	3.54009	0.450001	6.47728	0.715298	10.1604	0.900428	12.107
0.307537	4.39927	0.119044	1.55186	0.307704	4.38854	0.472357	6.76854	0.588797	8.43233	0.856639	11.4858	0.246795	3.52137	0.450805	6.40299	0.71551	10.0985	0.90088	11.9632
0.308284	4.35195	0.120251	1.55598	0.308453	4.34153	0.473159	6.69072	0.589573	8.33226	0.85709	11.3501	0.248785	3.50319	0.451619	6.33077	0.71578	10.0213	0.901336	11.8229
0.30904	4.30599	0.121206	1.55921	0.309211	4.29587	0.47397	6.61504	0.590358	8.23492	0.857546	11.2177	0.250779	3.48554	0.452442	6.26055	0.716109	9.92973	0.901798	11.6862
0.309806	4.26134	0.121909	1.56156	0.309979	4.25151	0.474791	6.54142	0.591152	8.1402	0.858008	11.0886	0.252777	3.4684	0.453275	6.19224	0.716499	9.82453	0.902265	11.5527
0.310582	4.21796	0.122359	1.56306	0.310757	4.2084	0.475619	6.46979	0.591954	8.048	0.858475	10.9626	0.254779	3.45174	0.454117	6.12577	0.716951	9.70673	0.902738	11.4225
0.311367	4.17579	0.123006	1.56521	0.311545	4.1665	0.476457	6.40007	0.592766	7.95823	0.858887	10.8553	0.256784	3.43554	0.454968	6.06108	0.717409	9.59194	0.903215	11.2954
0.312163	4.13478	0.123709	1.56752	0.312342	4.12575	0.477303	6.33219	0.593587	7.8708	0.859241	10.7656	0.258793	3.41978	0.455828	5.99809	0.717873	9.48005	0.903698	11.1713
0.312967	4.09491	0.124666	1.57064	0.313149	4.08613	0.478158	6.26608	0.594416	7.78561	0.859536	10.6927	0.260804	3.40445	0.456698	5.93675	0.718343	9.37095	0.904186	11.0501
0.313782	4.05612	0.125878	1.57455	0.313966	4.04757	0.479021	6.20168	0.595254	7.70259	0.85977	10.6357	0.26282	3.38953	0.457577	5.877	0.718817	9.26454	0.904616	10.9467
0.314606	4.01838	0.127344	1.57922	0.314792	4.01006	0.479893	6.13891	0.596102	7.62167	0.859943	10.5942	0.264838	3.37501	0.458465	5.81877	0.719298	9.16073	0.904985	10.8602
0.31544	3.98165	0.129066	1.58462	0.315628	3.97355	0.480773	6.07774	0.596957	7.54276	0.860055	10.5679	0.266859	3.36086	0.459362	5.76202	0.719784	9.05942	0.905293	10.7898
0.316284	3.94589	0.131043	1.5907	0.316474	3.93801	0.481662	6.01809	0.597822	7.46579	0.860215	10.5303	0.268883	3.34708	0.460268	5.70669	0.720275	8.96053	0.905537	10.7348
0.317137	3.91108	0.133024	1.59668	0.31733	3.9034	0.482559	5.95992	0.598695	7.3907	0.86039	10.4897	0.27091	3.33364	0.461183	5.65274	0.720772	8.86398	0.905718	10.6948
0.318	3.87718	0.135006	1.60255	0.318195	3.8697	0.483464	5.90317	0.599576	7.31742	0.86063	10.435	0.272939	3.32055	0.462107	5.60011	0.721275	8.76968	0.905834	10.6693
0.318873	3.84415	0.13699	1.60832	0.31907	3.83687	0.484377	5.84779	0.600466	7.24589	0.860934	10.3668	0.274971	3.30778	0.463039	5.54876	0.721783	8.67755	0.906001	10.6329
0.319756	3.81198	0.138976	1.61399	0.319956	3.80488	0.485299	5.79375	0.601365	7.17606	0.861304	10.2855	0.277006	3.29532	0.463981	5.49866	0.722297	8.58754	0.906184	10.5937
0.320649	3.78063	0.140965	1.61955	0.32085	3.77372	0.486228	5.74099	0.602272	7.10786	0.861743	10.1919	0.279043	3.28316	0.464931	5.44975	0.722816	8.49956	0.906433	10.5408
0.321552	3.75008	0.142955	1.62502	0.321755	3.74334	0.487166	5.68947	0.603187	7.04124	0.862251	10.0868	0.281083	3.2713	0.465891	5.40199	0.72334	8.41355	0.906749	10.4748
0.322464	3.72029	0.144946	1.63039	0.32267	3.71372	0.488112	5.63915	0.604111	6.97615	0.862765	9.98398	0.283124	3.25971	0.466858	5.35536	0.723871	8.32945	0.907135	10.3961
0.323386	3.69126	0.14694	1.63568	0.323595	3.68485	0.489065	5.59	0.605043	6.91254	0.863284	9.88343	0.285168	3.2484	0.467835	5.30982	0.724406	8.2472	0.907591	10.3055
0.324319	3.66295	0.148935	1.64087	0.324529	3.6567	0.490026	5.54197	0.605984	6.85036	0.863808	9.78505	0.287214	3.23735	0.46882	5.26532	0.724947	8.16673	0.908119	10.2035
0.325261	3.63534	0.150932	1.64597	0.325474	3.62924	0.490995	5.49503	0.606932	6.78958	0.864337	9.68879	0.289262	3.22655	0.469814	5.22184	0.725494	8.088	0.908652	10.1038
0.326214	3.60841	0.15293	1.65099	0.326428	3.60246	0.491972	5.44914	0.607889	6.73013	0.864872	9.59458	0.291312	3.21599	0.470816	5.17934	0.726046	8.01094	0.90919	10.0061
0.327176	3.58214	0.15493	1.65592	0.327393	3.57634	0.492957	5.40428	0.608854	6.67199	0.865412	9.50236	0.293364	3.20567	0.471827	5.1378	0.726603	7.93552	0.909734	9.91044
0.328149	3.55651	0.156931	1.66078	0.328368	3.55085	0.493949	5.3604	0.609827	6.61512	0.865957	9.41205	0.295417	3.19558	0.472846	5.09719	0.727166	7.86167	0.910282	9.81678
0.329132	3.5315	0.158934	1.66555	0.329353	3.52598	0.494949	5.31749	0.610808	6.55946	0.866507	9.32362	0.297473	3.1857	0.473874	5.05747	0.727735	7.78935	0.910836	9.72503
0.330125	3.50709	0.160938	1.67024	0.330349	3.50171	0.495956	5.2755	0.611797	6.505	0.867063	9.237	0.29953	3.17604	0.47491	5.01863	0.728308	7.71852	0.911395	9.63515
0.331128	3.48328	0.162943	1.67486	0.331354	3.47802	0.496971	5.23442	0.612793	6.45168	0.867624	9.15213	0.301589	3.16659	0.475954	4.98062	0.728888	7.64914	0.911958	9.54707
0.332142	3.46003	0.16495	1.6794	0.33237	3.4549	0.497993	5.19422	0.613798	6.39949	0.86819	9.06897	0.303649	3.15734	0.477007	4.94344	0.729472	7.58115	0.912527	9.46075
0.333166	3.43734	0.166957	1.68386	0.333397	3.43233	0.499023	5.15486	0.614811	6.34838	0.868761	8.98747	0.305711	3.14828	0.478068	4.90706	0.730063	7.51452	0.913101	9.37613
0.334201	3.41518	0.168966	1.68826	0.334434	3.41029	0.50006	5.11633	0.615831	6.29832	0.869337	8.90758	0.307774	3.1394	0.479137	4.87144	0.730658	7.44921	0.91368	9.29317
0.335246	3.39356	0.170976	1.69259	0.335482	3.38878	0.501104	5.0786	0.616859	6.24929	0.869919	8.82925	0.309839	3.13071	0.480214	4.83658	0.731259	7.38519	0.914264	9.21181
0.336302	3.37244	0.172987	1.69684	0.33654	3.36778	0.502155	5.04165	0.617895	6.20125	0.870506	8.75244	0.311905	3.1222	0.481299	4.80244	0.731865	7.32241	0.914853	9.13202
0.337369	3.35182	0.174999	1.70103	0.33761	3.34727	0.503214	5.00546	0.618939	6.15418	0.871098	8.67711	0.313972	3.11385	0.482392	4.76902	0.732477	7.26085	0.915446	9.05374
0.338447	3.33169	0.177012	1.70516	0.33869	3.32724	0.504279	4.97	0.61999	6.10804	0.871695	8.60322	0.316041	3.10567	0.483494	4.73628	0.733094	7.20046	0.916045	8.97695
0.339536	3.31203	0.179026	1.70922	0.339781	3.30769	0.505352	4.93525	0.621048	6.06282	0.872297	8.53072	0.318111	3.09765	0.484603	4.70421	0.733716	7.14122	0.916649	8.90159
0.340635	3.29283	0.181041	1.71322	0.340883	3.28859	0.506432	4.9012	0.622114	6.01849	0.872905	8.45958	0.320182	3.08978	0.48572	4.6728	0.734344	7.0831	0.917258	8.82763
0.341746	3.27408	0.183057	1.71715	0.341997	3.26994	0.507518	4.86782	0.623188	5.97502	0.873518	8.38976	0.322254	3.08207	0.486846	4.64201	0.734977	7.02607	0.917871	8.75503
0.342869	3.25578	0.185073	1.72103	0.343122	3.25173	0.508612	4.8351	0.624269	5.93239	0.874135	8.32123	0.324327	3.0745	0.487979	4.61185	0.735616	6.97009	0.91849	8.68376
0.344003	3.2379	0.187091	1.72484	0.344258	3.23395	0.509712	4.80302	0.625357	5.89058	0.874758	8.25395	0.326402	3.06708	0.48912	4.58228	0.736259	6.91515	0.919113	8.61378
0.345148	3.22044	0.189109	1.7286	0.345407	3.21658	0.510819	4.77157	0.626453	5.84957	0.875386	8.1879	0.328477	3.05979	0.490268	4.5533	0.736909	6.8612	0.919742	8.54506
0.346306	3.20339	0.191128	1.7323	0.346567	3.19962	0.511933	4.74071	0.627556	5.80933	0.876019	8.12303	0.330553	3.05263	0.491424	4.52488	0.737563	6.80824	0.920375	8.47756
0.347475	3.18674	0.193148	1.73595	0.347739	3.18307	0.513054	4.71045	0.628667	5.76984	0.876657	8.05932	0.33263	3.04561	0.492588	4.49702	0.738223	6.75622	0.921013	8.41125
0.348656	3.17049	0.195168	1.73954	0.348923	3.1669	0.514181	4.68076	0.629784	5.73109	0.877301	7.99674	0.334708	3.03871	0.49376	4.4697	0.738888	6.70513	0.921656	8.34611
0.34985	3.15461	0.197189	1.74308	0.350119	3.15111	0.515315	4.65163	0.630909	5.69305	0.877949	7.93526	0.336787	3.03194	0.494939	4.4429	0.739558	6.65495	0.922304	8.2821
0.351057	3.13912	0.199211	1.74657	0.351329	3.1357	0.516455	4.62304	0.63204	5.65572	0.878602	7.87485	0.338866	3.02529	0.496126	4.41662	0.740234	6.60565	0.922957	8.21919
0.352275	3.12399	0.201233	1.75	0.35255	3.12065	0.517602	4.59498	0.633179	5.61906	0.879261	7.81549	0.340947	3.01875	0.497321	4.39083	0.740915	6.55721	0.923614	8.15737
0.353507	3.10923	0.203256	1.75339	0.353785	3.10597	0.518755	4.56744	0.634325	5.58307	0.879924	7.75714	0.343027	3.01232	0.498523	4.36554	0.741601	6.5096	0.924276	8.09659
0.354752	3.09482	0.205279	1.75672	0.355033	3.09164	0.519915	4.54041	0.635477	5.54772	0.880593	7.69979	0.345109	3.00601	0.499732	4.34071	0.742292	6.46282	0.924943	8.03684
0.356011	3.08076	0.207303	1.76001	0.356295	3.07765	0.521081	4.51387	0.636637	5.513	0.881266	7.64341	0.347191	2.9998	0.500949	4.31635	0.742989	6.41683	0.925615	7.97809
0.357283	3.06704	0.209328	1.76325	0.35757	3.06401	0.522254	4.4878	0.637803	5.4789	0.881945	7.58798	0.349274	2.9937	0.502173	4.29244	0.743691	6.37162	0.926292	7.92032
0.358569	3.05365	0.211353	1.76645	0.358859	3.0507	0.523432	4.4622	0.638977	5.44539	0.882628	7.53347	0.351358	2.9877	0.503404	4.26896	0.744398	6.32718	0.926973	7.8635
0.359869	3.0406	0.213379	1.7696	0.360162	3.03772	0.524617	4.43706	0.640157	5.41247	0.883317	7.47987	0.353442	2.9818	0.504643	4.24592	0.74511	6.28347	0.927659	7.80761
0.361183	3.02787	0.215405	1.7727	0.36148	3.02506	0.525808	4.41237	0.641344	5.38013	0.88401	7.42714	0.355526	2.97599	0.505889	4.2233	0.745828	6.24049	0.92835	7.75264
0.362513	3.01546	0.217431	1.77576	0.362813	3.01272	0.527005	4.3881	0.642537	5.34834	0.884708	7.37528	0.357611	2.97028	0.507142	4.20108	0.746551	6.19822	0.929045	7.69854
0.363857	3.00337	0.219458	1.77878	0.36416	3.0007	0.528208	4.36426	0.643737	5.31709	0.885412	7.32426	0.359696	2.96465	0.508402	4.17927	0.747279	6.15664	0.929746	7.64532
0.365216	2.99158	0.221485	1.78176	0.365523	2.98898	0.529417	4.34084	0.644944	5.28638	0.88612	7.27405	0.361782	2.95912	0.50967	4.15784	0.748012	6.11574	0.93045	7.59294
0.366592	2.9801	0.223513	1.78469	0.366902	2.97757	0.530632	4.31782	0.646157	5.25618	0.886833	7.22465	0.363868	2.95368	0.510944	4.1368	0.74875	6.07549	0.93116	7.5414
0.367983	2.96892	0.225541	1.78759	0.368297	2.96646	0.531854	4.29519	0.647377	5.22649	0.887552	7.17604	0.365955	2.94831	0.512226	4.11613	0.749494	6.03589	0.931874	7.49066
0.36939	2.95804	0.227569	1.79044	0.369708	2.95564	0.533081	4.27295	0.648603	5.1973	0.888275	7.12819	0.368041	2.94303	0.513515	4.09582	0.750242	5.99693	0.932593	7.44071
0.370814	2.94745	0.229598	1.79326	0.371135	2.94512	0.534313	4.25108	0.649836	5.16859	0.889003	7.08109	0.370128	2.93784	0.51481	4.07586	0.750996	5.95858	0.933317	7.39154
0.372255	2.93716	0.231626	1.79603	0.37258	2.93489	0.535552	4.22958	0.651075	5.14035	0.889736	7.03472	0.372216	2.93272	0.516113	4.05626	0.751755	5.92083	0.934045	7.34312
0.373713	2.92714	0.233656	1.79877	0.374042	2.92494	0.536796	4.20845	0.65232	5.11257	0.890474	6.98907	0.374303	2.92767	0.517422	4.03699	0.752519	5.88367	0.934777	7.29544
0.375189	2.91741	0.235685	1.80148	0.375522	2.91527	0.538046	4.18766	0.653571	5.08525	0.891216	6.94412	0.376391	2.9227	0.518739	4.01805	0.753288	5.84709	0.935514	7.24849
0.376683	2.90796	0.237715	1.80414	0.37702	2.90588	0.539302	4.16721	0.654829	5.05837	0.891964	6.89985	0.378479	2.9178	0.520062	3.99944	0.754063	5.81108	0.936256	7.20225
0.378194	2.89878	0.239745	1.80677	0.378536	2.89676	0.540563	4.1471	0.656093	5.03192	0.892716	6.85626	0.380566	2.91298	0.521392	3.98114	0.754842	5.77562	0.937003	7.1567
0.379725	2.88988	0.241775	1.80937	0.380071	2.88792	0.54183	4.12732	0.657363	5.00589	0.893474	6.81332	0.382655	2.90822	0.522729	3.96315	0.755626	5.74069	0.937754	7.11182
0.381274	2.88124	0.243806	1.81193	0.381624	2.87934	0.543103	4.10786	0.65864	4.98027	0.894236	6.77103	0.384743	2.90353	0.524072	3.94547	0.756416	5.7063	0.938509	7.06761
0.382843	2.87286	0.245837	1.81446	0.383197	2.87102	0.544381	4.08871	0.659922	4.95506	0.895003	6.72936	0.386831	2.89891	0.525423	3.92808	0.757211	5.67243	0.939269	7.02405
0.384431	2.86475	0.247867	1.81695	0.384789	2.86297	0.545664	4.06987	0.66121	4.93024	0.895775	6.68831	0.388919	2.89435	0.52678	3.91098	0.75801	5.63906	0.940033	6.98113
0.386039	2.8569	0.249898	1.81942	0.386402	2.85517	0.546953	4.05133	0.662505	4.90581	0.896551	6.64786	0.391008	2.88985	0.528143	3.89417	0.758815	5.60619	0.940802	6.93883
0.387666	2.8493	0.25193	1.82185	0.388034	2.84763	0.548247	4.03309	0.663805	4.88176	0.897333	6.60801	0.393096	2.88542	0.529513	3.87764	0.759625	5.57381	0.941576	6.89714
0.389314	2.84194	0.253961	1.82425	0.389686	2.84033	0.549547	4.01513	0.665111	4.85808	0.898119	6.56873	0.395184	2.88104	0.53089	3.86137	0.76044	5.5419	0.942354	6.85605
0.390982	2.83484	0.255993	1.82661	0.391358	2.83328	0.550852	3.99745	0.666423	4.83476	0.89891	6.53002	0.397272	2.87673	0.532273	3.84537	0.76126	5.51046	0.943136	6.81554
0.39267	2.82798	0.258024	1.82895	0.393051	2.82647	0.552162	3.98005	0.667741	4.8118	0.899705	6.49186	0.39936	2.87247	0.533663	3.82964	0.762084	5.47947	0.943923	6.77561
0.394379	2.82135	0.260056	1.83126	0.394765	2.8199	0.553477	3.96291	0.669064	4.78918	0.900506	6.45424	0.401448	2.86826	0.535059	3.81415	0.762914	5.44894	0.944714	6.73623
0.396109	2.81496	0.262088	1.83354	0.396499	2.81356	0.554798	3.94604	0.670393	4.7669	0.901311	6.41716	0.403536	2.86411	0.536462	3.79892	0.763749	5.41884	0.94551	6.69741
0.397859	2.8088	0.26412	1.83579	0.398254	2.80745	0.556123	3.92943	0.671728	4.74496	0.902121	6.3806	0.405624	2.86002	0.537871	3.78393	0.764589	5.38918	0.94631	6.65913
0.399629	2.80287	0.266152	1.83801	0.400029	2.80157	0.557454	3.91308	0.673069	4.72334	0.902936	6.34456	0.407711	2.85598	0.539286	3.76919	0.765434	5.35993	0.947114	6.62138
0.40142	2.79715	0.268184	1.84021	0.401825	2.7959	0.55879	3.89697	0.674415	4.70205	0.903755	6.30901	0.409798	2.85198	0.540708	3.75467	0.766284	5.3311	0.947923	6.58415
0.403232	2.79165	0.270216	1.84237	0.403641	2.79045	0.560131	3.8811	0.675766	4.68106	0.904579	6.27396	0.411885	2.84804	0.542136	3.74039	0.767138	5.30268	0.948736	6.54742
0.405064	2.78636	0.272249	1.84451	0.405477	2.7852	0.561476	3.86547	0.677124	4.66039	0.905408	6.23939	0.413972	2.84415	0.54357	3.72633	0.767998	5.27465	0.949553	6.5112
0.406915	2.78127	0.274281	1.84662	0.407333	2.78016	0.562827	3.85007	0.678486	4.64001	0.906241	6.20529	0.416059	2.8403	0.54501	3.71249	0.768863	5.24701	0.950375	6.47546
0.408787	2.77638	0.276313	1.84871	0.409209	2.77531	0.564183	3.83491	0.679854	4.61993	0.90708	6.17166	0.418145	2.8365	0.546457	3.69887	0.769732	5.21976	0.951201	6.44021
0.410678	2.77169	0.278346	1.85077	0.411104	2.77066	0.565543	3.81996	0.681228	4.60014	0.907922	6.13848	0.420231	2.83275	0.54791	3.68547	0.770607	5.19288	0.952031	6.40543
0.412588	2.76718	0.280378	1.85281	0.413019	2.7662	0.566908	3.80524	0.682606	4.58063	0.90877	6.10574	0.422316	2.82904	0.549369	3.67227	0.771486	5.16637	0.952866	6.3711
0.414517	2.76285	0.282411	1.85482	0.414952	2.76191	0.568279	3.79073	0.683991	4.5614	0.909622	6.07345	0.424402	2.82537	0.550834	3.65927	0.77237	5.14022	0.953705	6.33723
0.416465	2.7587	0.284443	1.8568	0.416904	2.7578	0.569654	3.77643	0.68538	4.54244	0.910478	6.04159	0.426486	2.82175	0.552305	3.64647	0.773259	5.11442	0.954548	6.30381
0.41843	2.75472	0.286476	1.85877	0.418873	2.75385	0.571033	3.76234	0.686774	4.52375	0.91134	6.01015	0.428571	2.81817	0.553782	3.63387	0.774153	5.08898	0.955395	6.27082
0.420413	2.7509	0.288508	1.86071	0.42086	2.75007	0.572417	3.74845	0.688174	4.50532	0.912206	5.97912	0.430655	2.81463	0.555266	3.62146	0.775052	5.06387	0.956247	6.23826
0.422414	2.74724	0.290541	1.86262	0.422864	2.74645	0.573806	3.73476	0.689579	4.48715	0.913076	5.9485	0.432739	2.81113	0.556755	3.60925	0.775956	5.0391	0.957103	6.20613
0.424431	2.74374	0.292573	1.86452	0.424885	2.74297	0.5752	3.72126	0.690989	4.46923	0.913951	5.91828	0.434822	2.80767	0.55825	3.59721	0.776864	5.01466	0.957963	6.1744
0.426464	2.74037	0.294605	1.86639	0.426921	2.73964	0.576598	3.70795	0.692404	4.45155	0.914831	5.88845	0.436904	2.80425	0.559751	3.58536	0.777778	4.99054	0.958827	6.14308
0.428512	2.73715	0.296638	1.86823	0.428974	2.73645	0.578001	3.69484	0.693824	4.43412	0.915715	5.859	0.438987	2.80086	0.561258	3.57368	0.778696	4.96674	0.959696	6.11216
0.430576	2.73406	0.29867	1.87006	0.431041	2.73339	0.579408	3.68191	0.695249	4.41693	0.916604	5.82993	0.441068	2.79751	0.562771	3.56218	0.779619	4.94325	0.960568	6.08163
0.432655	2.7311	0.300702	1.87186	0.433123	2.73046	0.58082	3.66915	0.696679	4.39997	0.917497	5.80124	0.443149	2.7942	0.564289	3.55086	0.780547	4.92007	0.961445	6.05148
0.434748	2.72827	0.302734	1.87365	0.435218	2.72765	0.582236	3.65658	0.698114	4.38324	0.918395	5.77291	0.44523	2.79093	0.565814	3.5397	0.781479	4.89719	0.962326	6.02171
0.436854	2.72555	0.304767	1.87541	0.437328	2.72496	0.583657	3.64418	0.699554	4.36674	0.919297	5.74493	0.44731	2.78768	0.567344	3.5287	0.782417	4.8746	0.963211	5.99232
0.438973	2.72294	0.306799	1.87715	0.43945	2.72238	0.585082	3.63195	0.700999	4.35046	0.920204	5.71731	0.44939	2.78448	0.56888	3.51787	0.783359	4.8523	0.9641	5.96328
0.441105	2.72045	0.308831	1.87887	0.441584	2.7199	0.586511	3.61988	0.702448	4.33439	0.921116	5.69004	0.451468	2.7813	0.570422	3.5072	0.784306	4.83029	0.964993	5.93461
0.443249	2.71805	0.310862	1.88058	0.443731	2.71753	0.587945	3.60798	0.703902	4.31853	0.922032	5.6631	0.453547	2.77816	0.571969	3.49668	0.785257	4.80856	0.96589	5.90628
0.445404	2.71575	0.312894	1.88226	0.445889	2.71525	0.589383	3.59625	0.705361	4.30289	0.922952	5.6365	0.455624	2.77505	0.573522	3.48632	0.786214	4.78711	0.966791	5.8783
0.447571	2.71355	0.314926	1.88392	0.448058	2.71307	0.590825	3.58467	0.706825	4.28745	0.923877	5.61023	0.457701	2.77197	0.575081	3.47611	0.787175	4.76592	0.967697	5.85066
0.449748	2.71143	0.316958	1.88557	0.450238	2.71097	0.592272	3.57325	0.708293	4.27221	0.924806	5.58427	0.459778	2.76892	0.576645	3.46604	0.788141	4.745	0.968606	5.82336
0.451936	2.7094	0.318989	1.88719	0.452427	2.70896	0.593722	3.56198	0.709766	4.25717	0.92574	5.55864	0.461853	2.7659	0.578215	3.45612	0.789111	4.72435	0.969519	5.79638
0.454133	2.70745	0.321021	1.8888	0.454627	2.70703	0.595177	3.55086	0.711243	4.24233	0.926678	5.53332	0.463928	2.76291	0.57979	3.44635	0.790086	4.70395	0.970437	5.76973
0.45634	2.70558	0.323052	1.89039	0.456835	2.70517	0.596636	3.53989	0.712725	4.22767	0.92762	5.5083	0.466003	2.75995	0.581371	3.43671	0.791066	4.6838	0.971358	5.74339
0.458555	2.70378	0.325083	1.89196	0.459053	2.70338	0.598099	3.52906	0.714212	4.2132	0.928567	5.48359	0.468076	2.75702	0.582958	3.42721	0.792051	4.6639	0.972283	5.71737
0.460779	2.70205	0.327114	1.89351	0.461279	2.70167	0.599567	3.51837	0.715703	4.19892	0.929519	5.45917	0.470149	2.75411	0.58455	3.41785	0.79304	4.64425	0.973213	5.69165
0.463011	2.70038	0.329145	1.89505	0.463513	2.70002	0.601038	3.50783	0.717198	4.18482	0.930474	5.43504	0.472221	2.75123	0.586147	3.40862	0.794034	4.62483	0.974146	5.66623
0.465251	2.69878	0.331176	1.89657	0.465754	2.69843	0.602513	3.49742	0.718698	4.1709	0.931435	5.4112	0.474292	2.74838	0.58775	3.39952	0.795032	4.60565	0.975083	5.64111
0.467498	2.69724	0.333206	1.89807	0.468003	2.6969	0.603993	3.48715	0.720202	4.15715	0.932399	5.38764	0.476363	2.74556	0.589358	3.39055	0.796035	4.58671	0.976024	5.61629
0.469753	2.69576	0.335237	1.89955	0.470259	2.69543	0.605476	3.47701	0.721711	4.14357	0.933368	5.36436	0.478432	2.74276	0.590971	3.38171	0.797043	4.56799	0.976969	5.59175
0.472014	2.69433	0.337267	1.90102	0.472522	2.69401	0.606963	3.467	0.723223	4.13016	0.934341	5.34135	0.480501	2.73998	0.59259	3.37299	0.798055	4.5495	0.977918	5.56749
0.474282	2.69295	0.339297	1.90247	0.474791	2.69265	0.608454	3.45712	0.72474	4.11692	0.935319	5.31861	0.482569	2.73723	0.594214	3.36439	0.799072	4.53123	0.978871	5.54351
0.476555	2.69162	0.341327	1.90391	0.477066	2.69133	0.609949	3.44737	0.726262	4.10384	0.936301	5.29614	0.484636	2.73451	0.595843	3.35591	0.800094	4.51318	0.979828	5.5198
0.478835	2.69034	0.343357	1.90533	0.479347	2.69006	0.611448	3.43774	0.727787	4.09092	0.937287	5.27392	0.486703	2.7318	0.597478	3.34755	0.80112	4.49534	0.980789	5.49636
0.48112	2.6891	0.345387	1.90674	0.481633	2.68883	0.612951	3.42823	0.729317	4.07816	0.938277	5.25196	0.488768	2.72913	0.599118	3.33931	0.802151	4.47772	0.981753	5.47319
0.483411	2.68791	0.347416	1.90812	0.483925	2.68765	0.614458	3.41884	0.73085	4.06556	0.939272	5.23025	0.490833	2.72647	0.600763	3.33118	0.803186	4.4603	0.982721	5.45028
0.485707	2.68675	0.349446	1.9095	0.486222	2.6865	0.615968	3.40957	0.732388	4.05311	0.940271	5.20879	0.492897	2.72384	0.602413	3.32316	0.804225	4.44308	0.983693	5.42763
0.488007	2.68564	0.351475	1.91086	0.488524	2.68539	0.617482	3.40041	0.73393	4.04081	0.941274	5.18758	0.494959	2.72123	0.604068	3.31525	0.80527	4.42607	0.984669	5.40522
0.490313	2.68456	0.353504	1.9122	0.49083	2.68432	0.619	3.39137	0.735476	4.02865	0.942282	5.1666	0.497021	2.71864	0.605729	3.30745	0.806319	4.40926	0.985649	5.38307
0.492622	2.68352	0.355533	1.91354	0.493141	2.68329	0.620522	3.38244	0.737025	4.01664	0.943294	5.14586	0.499082	2.71607	0.607394	3.29976	0.807372	4.39264	0.986633	5.36116
0.494936	2.68251	0.357561	1.91485	0.495455	2.68229	0.622047	3.37362	0.738579	4.00477	0.94431	5.12535	0.501142	2.71352	0.609065	3.29217	0.80843	4.37621	0.98762	5.33949
0.497254	2.68153	0.35959	1.91615	0.497774	2.68132	0.623576	3.36491	0.740137	3.99305	0.94533	5.10508	0.503201	2.71099	0.610741	3.28469	0.809492	4.35997	0.988611	5.31807
0.499576	2.68058	0.361618	1.91744	0.500097	2.68038	0.625108	3.35631	0.741698	3.98146	0.946355	5.08502	0.50526	2.70849	0.612421	3.27731	0.810559	4.34392	0.989606	5.29687
0.501902	2.67967	0.363646	1.91872	0.502423	2.67946	0.626645	3.34781	0.743264	3.97001	0.947383	5.06519	0.507317	2.706	0.614107	3.27002	0.81163	4.32805	0.990604	5.2759
0.504231	2.67878	0.365674	1.91998	0.504753	2.67858	0.628184	3.33941	0.744833	3.95869	0.948416	5.04558	0.509373	2.70353	0.615797	3.26284	0.812706	4.31236	0.991606	5.25516
0.506563	2.67791	0.367702	1.92123	0.507087	2.67772	0.629728	3.33112	0.746406	3.9475	0.949453	5.02619	0.511428	2.70108	0.617493	3.25575	0.813786	4.29685	0.992612	5.23465
0.508899	2.67708	0.369729	1.92246	0.509423	2.67689	0.631275	3.32292	0.747983	3.93645	0.950495	5.007	0.513482	2.69865	0.619193	3.24875	0.81487	4.28151	0.993622	5.21435
0.511238	2.67626	0.371757	1.92368	0.511762	2.67608	0.632825	3.31483	0.749564	3.92552	0.95154	4.98803	0.515536	2.69624	0.620899	3.24185	0.815959	4.26635	0.994635	5.19427
0.51358	2.67547	0.373784	1.92489	0.514105	2.6753	0.634379	3.30683	0.751148	3.91471	0.95259	4.96926	0.517588	2.69385	0.622609	3.23505	0.817053	4.25135	0.995652	5.17441
0.515924	2.6747	0.37581	1.92609	0.51645	2.67453	0.635936	3.29892	0.752736	3.90403	0.953643	4.9507	0.519639	2.69147	0.624324	3.22833	0.818151	4.23653	0.996673	5.15475
0.518271	2.67396	0.377837	1.92727	0.518798	2.67379	0.637497	3.29111	0.754327	3.89347	0.954701	4.93233	0.521689	2.68911	0.626043	3.2217	0.819253	4.22187	0.997697	5.1353
0.520621	2.67323	0.379864	1.92844	0.521148	2.67307	0.639061	3.2834	0.755923	3.88303	0.955763	4.91416	0.523739	2.68677	0.627768	3.21516	0.820359	4.20737	0.998725	5.11606
0.522973	2.67252	0.38189	1.9296	0.523501	2.67237	0.640629	3.27577	0.757521	3.87271	0.956829	4.89619	0.525787	2.68445	0.629497	3.2087	0.82147	4.19303	0.999756	5.09702
0.525328	2.67183	0.383916	1.93075	0.525856	2.67168	0.6422	3.26823	0.759124	3.8625	0.9579	4.87841	0.527834	2.68214	0.631231	3.20233	0.822586	4.17885	1.00079	5.07817
0.527685	2.67116	0.385941	1.93189	0.528213	2.67101	0.643774	3.26079	0.76073	3.85241	0.958974	4.86082	0.52988	2.67985	0.632969	3.19605	0.823705	4.16483		
0.530044	2.67051	0.387967	1.93301	0.530573	2.67036	0.645352	3.25342	0.762339	3.84243	0.960052	4.84341	0.531925	2.67758	0.634713	3.18984	0.824829	4.15096		
0.532405	2.66987	0.389992	1.93412	0.532934	2.66973	0.646933	3.24615	0.763952	3.83256	0.961135	4.82619	0.533968	2.67532	0.636461	3.18372	0.825958	4.13723		
0.534768	2.66925	0.392017	1.93522	0.535297	2.66911	0.648518	3.23896	0.765568	3.8228	0.962221	4.80914	0.536011	2.67308	0.638213	3.17768	0.82709	4.12366		
0.537133	2.66864	0.394042	1.93631	0.537663	2.66851	0.650106	3.23185	0.767187	3.81315	0.963312	4.79228	0.538053	2.67085	0.63997	3.17171	0.828227	4.11024		
0.539499	2.66805	0.396067	1.93739	0.54003	2.66792	0.651697	3.22482	0.76881	3.8036	0.964406	4.77559	0.540094	2.66864	0.641732	3.16582	0.829369	4.09696		
0.541867	2.66747	0.398091	1.93846	0.542398	2.66734	0.653291	3.21787	0.770437	3.79416	0.965505	4.75907	0.542133	2.66644	0.643498	3.16001	0.830514	4.08382		
0.544237	2.66691	0.400115	1.93952	0.544769	2.66678	0.654888	3.21101	0.772066	3.78482	0.966608	4.74273	0.544172	2.66425	0.645269	3.15428	0.831664	4.07083		
0.546609	2.66635	0.402139	1.94056	0.54714	2.66623	0.656489	3.20422	0.773699	3.77558	0.967714	4.72655	0.546209	2.66209	0.647044	3.14861	0.832818	4.05797		
0.548982	2.66581	0.404163	1.9416	0.549514	2.6657	0.658093	3.1975	0.775336	3.76644	0.968825	4.71054	0.548245	2.65993	0.648823	3.14302	0.833977	4.04525		
0.551356	2.66529	0.406186	1.94263	0.551888	2.66517	0.6597	3.19087	0.776975	3.7574	0.96994	4.69469	0.55028	2.65779	0.650607	3.1375	0.835139	4.03266		
0.553732	2.66477	0.408209	1.94364	0.554264	2.66465	0.66131	3.18431	0.778618	3.74845	0.971058	4.679	0.552314	2.65567	0.652395	3.13206	0.836306	4.02021		
0.556109	2.66426	0.410232	1.94465	0.556642	2.66415	0.662924	3.17782	0.780263	3.7396	0.972181	4.66348	0.554347	2.65355	0.654188	3.12668	0.837477	4.00789		
0.558487	2.66377	0.412255	1.94564	0.55902	2.66366	0.66454	3.1714	0.781912	3.73085	0.973307	4.64811	0.556379	2.65145	0.655985	3.12137	0.838652	3.9957		
0.560866	2.66328	0.414277	1.94663	0.5614	2.66317	0.66616	3.16506	0.783564	3.72218	0.974438	4.63289	0.55841	2.64937	0.657786	3.11612	0.839832	3.98364		
0.563247	2.6628	0.416299	1.9476	0.563781	2.6627	0.667783	3.15879	0.785219	3.71361	0.975572	4.61783	0.560439	2.64729	0.659592	3.11095	0.841015	3.9717		
0.565629	2.66233	0.418321	1.94857	0.566162	2.66223	0.669408	3.15258	0.786878	3.70512	0.976711	4.60292	0.562468	2.64523	0.661402	3.10583	0.842203	3.95988		
0.568011	2.66188	0.420343	1.94952	0.568545	2.66177	0.671037	3.14645	0.788539	3.69673	0.977853	4.58816	0.564495	2.64319	0.663216	3.10079	0.843395	3.94819		
0.570395	2.66143	0.422364	1.95047	0.570929	2.66133	0.672669	3.14038	0.790203	3.68842	0.978999	4.57354	0.566521	2.64115	0.665034	3.0958	0.844591	3.93662		
0.572779	2.66098	0.424385	1.95141	0.573313	2.66088	0.674304	3.13438	0.79187	3.6802	0.980149	4.55907	0.568546	2.63913	0.666857	3.09088	0.845792	3.92517		
0.575164	2.66055	0.426406	1.95233	0.575699	2.66045	0.675942	3.12845	0.793541	3.67206	0.981303	4.54474	0.57057	2.63712	0.668683	3.08602	0.846996	3.91384		
0.57755	2.66012	0.428427	1.95325	0.578085	2.66003	0.677583	3.12258	0.795214	3.66401	0.982461	4.53055	0.572593	2.63512	0.670514	3.08122	0.848205	3.90262		
0.579937	2.6597	0.430447	1.95416	0.580472	2.65961	0.679227	3.11677	0.79689	3.65603	0.983622	4.51651	0.574615	2.63313	0.672348	3.07648	0.849417	3.89152		
0.582325	2.65929	0.432467	1.95507	0.58286	2.6592	0.680874	3.11103	0.798569	3.64814	0.984788	4.5026	0.576635	2.63116	0.674187	3.0718	0.850634	3.88053		
0.584713	2.65888	0.434487	1.95596	0.585248	2.65879	0.682524	3.10535	0.800251	3.64033	0.985957	4.48882	0.578654	2.6292	0.67603	3.06717	0.851855	3.86965		
0.587102	2.65848	0.436506	1.95684	0.587637	2.65839	0.684177	3.09973	0.801935	3.6326	0.987131	4.47518	0.580673	2.62725	0.677877	3.0626	0.85308	3.85889		
0.589492	2.65809	0.438526	1.95772	0.590027	2.658	0.685833	3.09417	0.803623	3.62494	0.988308	4.46167	0.58269	2.62531	0.679727	3.05809	0.854309	3.84823		
0.591882	2.6577	0.440545	1.95858	0.592417	2.65761	0.687491	3.08867	0.805313	3.61737	0.989488	4.44829	0.584706	2.62338	0.681582	3.05364	0.855542	3.83768		
0.594272	2.65732	0.442563	1.95944	0.594808	2.65723	0.689153	3.08323	0.807006	3.60986	0.990673	4.43504	0.586721	2.62146	0.68344	3.04923	0.85678	3.82723		
0.596663	2.65694	0.444582	1.96029	0.597199	2.65686	0.690818	3.07785	0.808702	3.60244	0.991862	4.42192	0.588735	2.61955	0.685303	3.04489	0.858021	3.81689		
0.599055	2.65657	0.4466	1.96114	0.599591	2.65649	0.692485	3.07252	0.8104	3.59508	0.993054	4.40892	0.590747	2.61766	0.687169	3.04059	0.859266	3.80665		
0.601447	2.6562	0.448618	1.96197	0.601983	2.65612	0.694155	3.06725	0.812101	3.5878	0.99425	4.39605	0.592759	2.61577	0.689039	3.03635	0.860515	3.79652		
0.603839	2.65584	0.450636	1.9628	0.604375	2.65576	0.695829	3.06204	0.813805	3.58059	0.99545	4.38329	0.594769	2.61389	0.690913	3.03216	0.861769	3.78648		
0.606232	2.65548	0.452653	1.96361	0.606768	2.6554	0.697505	3.05688	0.815512	3.57345	0.996653	4.37066	0.596779	2.61203	0.69279	3.02802	0.863026	3.77655		
0.608625	2.65513	0.45467	1.96442	0.609161	2.65505	0.699184	3.05178	0.817221	3.56638	0.99786	4.35815	0.598787	2.61018	0.694672	3.02392	0.864288	3.76671		
0.611018	2.65478	0.456687	1.96523	0.611555	2.6547	0.700865	3.04673	0.818932	3.55937	0.999071	4.34576	0.600794	2.60833	0.696557	3.01988	0.865553	3.75697		
0.613412	2.65443	0.458703	1.96602	0.613948	2.65436	0.70255	3.04173	0.820647	3.55244	1.00029	4.33348	0.6028	2.6065	0.698445	3.01589	0.866822	3.74732		
0.615806	2.65409	0.460719	1.96681	0.616342	2.65401	0.704238	3.03679	0.822363	3.54557			0.604805	2.60467	0.700337	3.01194	0.868096	3.73777		
0.6182	2.65375	0.462735	1.96759	0.618737	2.65368	0.705928	3.0319	0.824083	3.53877			0.606809	2.60286	0.702233	3.00804	0.869373	3.72832		
0.620594	2.65342	0.464751	1.96836	0.621131	2.65334	0.707621	3.02706	0.825804	3.53203			0.608812	2.60106	0.704133	3.00419	0.870654	3.71895		
0.622989	2.65309	0.466766	1.96913	0.623525	2.65301	0.709317	3.02226	0.827529	3.52536			0.610814	2.59926	0.706035	3.00038	0.871939	3.70968		
0.625383	2.65276	0.468782	1.96989	0.62592	2.65269	0.711015	3.01752	0.829255	3.51875			0.612814	2.59748	0.707942	2.99662	0.873228	3.70049		
0.627778	2.65243	0.470796	1.97064	0.628314	2.65236	0.712717	3.01283	0.830984	3.5122			0.614814	2.5957	0.709852	2.9929	0.874521	3.6914		
0.630172	2.65211	0.472811	1.97138	0.630709	2.65204	0.714421	3.00819	0.832716	3.50571			0.616812	2.59394	0.711765	2.98922	0.875818	3.68239		
0.632567	2.65179	0.474825	1.97212	0.633104	2.65172	0.716128	3.00359	0.83445	3.49929			0.61881	2.59218	0.713682	2.98559	0.877119	3.67347		
0.634962	2.65147	0.476839	1.97285	0.635498	2.6514	0.717838	2.99904	0.836186	3.49292			0.620806	2.59043	0.715602	2.982	0.878424	3.66464		
0.637356	2.65116	0.478853	1.97357	0.637893	2.65109	0.71955	2.99454	0.837925	3.48661			0.622802	2.5887	0.717525	2.97845	0.879733	3.65589		
0.639751	2.65085	0.480866	1.97429	0.640288	2.65078	0.721265	2.99009	0.839666	3.48036			0.624796	2.58697	0.719452	2.97494	0.881045	3.64722		
0.642145	2.65054	0.482879	1.975	0.642682	2.65047	0.722984	2.98568	0.841409	3.47417			0.62679	2.58525	0.721382	2.97148	0.882362	3.63863		
0.64454	2.65023	0.484892	1.97571	0.645076	2.65016	0.724704	2.98131	0.843155	3.46804			0.628782	2.58354	0.723316	2.96805	0.883682	3.63013		
0.646934	2.64992	0.486905	1.9764	0.647471	2.64985	0.726428	2.97699	0.844902	3.46196			0.630773	2.58183	0.725252	2.96466	0.885006	3.62171		
0.649328	2.64961	0.488917	1.97709	0.649865	2.64955	0.728154	2.97272	0.846652	3.45594			0.632764	2.58014	0.727192	2.96131	0.886334	3.61337		
0.651722	2.64931	0.490929	1.97778	0.652259	2.64924	0.729883	2.96848	0.848405	3.44997			0.634753	2.57846	0.729135	2.958	0.887666	3.6051		
0.654116	2.64901	0.492941	1.97846	0.654652	2.64894	0.731615	2.96429	0.850159	3.44406			0.636741	2.57678	0.731081	2.95473	0.889001	3.59692		
0.656509	2.64871	0.494952	1.97913	0.657046	2.64864	0.733349	2.96015	0.851916	3.4382			0.638729	2.57512	0.73303	2.95149	0.890341	3.58881		
0.658903	2.64841	0.496963	1.97979	0.659439	2.64834	0.735087	2.95604	0.853675	3.43239			0.640715	2.57346	0.734982	2.94829	0.891684	3.58077		
0.661296	2.64811	0.498974	1.98045	0.661832	2.64804	0.736827	2.95198	0.855435	3.42663			0.6427	2.57181	0.736937	2.94513	0.893031	3.57282		
0.663688	2.64781	0.500985	1.98111	0.664224	2.64775	0.738569	2.94796	0.857198	3.42093			0.644685	2.57017	0.738895	2.942	0.894382	3.56493		
0.666081	2.64752	0.502995	1.98176	0.666617	2.64745	0.740315	2.94398	0.858964	3.41527			0.646668	2.56853	0.740856	2.9389	0.895737	3.55712		
0.668472	2.64722	0.505005	1.9824	0.669008	2.64715	0.742063	2.94004	0.860731	3.40967			0.648651	2.56691	0.74282	2.93585	0.897095	3.54938		
0.670864	2.64692	0.507014	1.98303	0.6714	2.64686	0.743814	2.93613	0.8625	3.40411			0.650633	2.56529	0.744787	2.93282	0.898457	3.54172		
0.673255	2.64663	0.509024	1.98366	0.673791	2.64656	0.745568	2.93227	0.864271	3.3986			0.652613	2.56369	0.746757	2.92983	0.899823	3.53412		
0.675646	2.64633	0.511033	1.98429	0.676181	2.64627	0.747324	2.92845	0.866045	3.39315			0.654593	2.56209	0.74873	2.92687	0.901193	3.5266		
0.678036	2.64604	0.513041	1.98491	0.678571	2.64597	0.749083	2.92467	0.86782	3.38774			0.656572	2.56049	0.750705	2.92394	0.902566	3.51914		
0.680426	2.64575	0.51505	1.98552	0.680961	2.64568	0.750845	2.92092	0.869597	3.38237			0.65855	2.55891	0.752684	2.92105	0.903943	3.51175		
0.682815	2.64545	0.517058	1.98613	0.68335	2.64539	0.75261	2.91721	0.871376	3.37705			0.660528	2.55734	0.754665	2.91818	0.905324	3.50443		
0.685203	2.64516	0.519066	1.98673	0.685738	2.64509	0.754377	2.91354	0.873157	3.37178			0.662504	2.55577	0.756649	2.91535	0.906709	3.49718		
0.687591	2.64486	0.521074	1.98733	0.688126	2.6448	0.756148	2.90991	0.87494	3.36655			0.664479	2.55421	0.758635	2.91255	0.908097	3.48999		
0.689979	2.64457	0.523081	1.98792	0.690514	2.6445	0.757921	2.90631	0.876725	3.36137			0.666454	2.55266	0.760624	2.90978	0.909489	3.48287		
0.692365	2.64427	0.525088	1.98851	0.6929	2.64421	0.759697	2.90275	0.878512	3.35623			0.668428	2.55111	0.762616	2.90703	0.910885	3.47582		
0.694751	2.64398	0.527094	1.98909	0.695286	2.64391	0.761475	2.89922	0.880301	3.35114			0.670401	2.54958	0.76461	2.90432	0.912284	3.46882		
0.697137	2.64368	0.529101	1.98966	0.697671	2.64362	0.763257	2.89573	0.882091	3.34609			0.672373	2.54805	0.766607	2.90164	0.913687	3.46189		
0.699521	2.64339	0.531107	1.99024	0.700055	2.64332	0.765041	2.89228	0.883884	3.34108			0.674344	2.54653	0.768606	2.89898	0.915094	3.45503		
0.701905	2.64309	0.533113	1.9908	0.702439	2.64302	0.766828	2.88886	0.885678	3.33611			0.676315	2.54502	0.770608	2.89635	0.916505	3.44822		
0.704288	2.64279	0.535118	1.99136	0.704822	2.64272	0.768618	2.88548	0.887474	3.33119			0.678285	2.54351	0.772612	2.89375	0.917919	3.44148		
0.70667	2.64249	0.537124	1.99192	0.707204	2.64242	0.770411	2.88213	0.889272	3.3263			0.680254	2.54201	0.774619	2.89118	0.919336	3.4348		
0.709051	2.64219	0.539128	1.99247	0.709585	2.64212	0.772206	2.87881	0.891071	3.32146			0.682222	2.54052	0.776628	2.88863	0.920758	3.42817		
0.711432	2.64189	0.541133	1.99301	0.711965	2.64182	0.774005	2.87553	0.892872	3.31665			0.684189	2.53904	0.778639	2.88611	0.922183	3.42161		
0.713811	2.64158	0.543137	1.99356	0.714344	2.64152	0.775806	2.87228	0.894675	3.31189			0.686156	2.53756	0.780653	2.88362	0.923611	3.41511		
0.71619	2.64128	0.545141	1.99409	0.716723	2.64121	0.777611	2.86906	0.89648	3.30716			0.688122	2.5361	0.782669	2.88115	0.925044	3.40866		
0.718567	2.64097	0.547145	1.99462	0.7191	2.6409	0.779418	2.86588	0.898286	3.30247			0.690087	2.53464	0.784687	2.87871	0.926479	3.40227		
0.720944	2.64066	0.549149	1.99515	0.721476	2.64059	0.781228	2.86273	0.900094	3.29783			0.692052	2.53318	0.786707	2.87629	0.927919	3.39594		
0.723319	2.64035	0.551152	1.99567	0.723851	2.64028	0.783041	2.85961	0.901904	3.29321			0.694016	2.53174	0.78873	2.87389	0.929362	3.38966		
0.725693	2.64004	0.553155	1.99619	0.726225	2.63997	0.784857	2.85652	0.903715	3.28864			0.695979	2.5303	0.790755	2.87152	0.930809	3.38344		
0.728066	2.63973	0.555157	1.9967	0.728598	2.63966	0.786677	2.85347	0.905528	3.2841			0.697941	2.52887	0.792782	2.86918	0.932259	3.37727		
0.730438	2.63941	0.557159	1.99721	0.730969	2.63934	0.788499	2.85044	0.907343	3.2796			0.699903	2.52744	0.794811	2.86685	0.933713	3.37116		
0.732809	2.63909	0.559161	1.99772	0.73334	2.63902	0.790324	2.84745	0.909159	3.27514			0.701865	2.52603	0.796842	2.86455	0.93517	3.3651		
0.735178	2.63877	0.561163	1.99822	0.735709	2.6387	0.792152	2.84449	0.910976	3.27071			0.703825	2.52462	0.798875	2.86227	0.936631	3.3591		
0.737546	2.63845	0.563164	1.99871	0.738077	2.63838	0.793984	2.84156	0.912795	3.26631			0.705785	2.52322	0.800911	2.86002	0.938096	3.35315		
0.739913	2.63812	0.565166	1.9992	0.740443	2.63805	0.795818	2.83866	0.914616	3.26195			0.707744	2.52182	0.802948	2.85779	0.939564	3.34725		
0.742278	2.63779	0.567166	1.99969	0.742808	2.63772	0.797656	2.83579	0.916438	3.25763			0.709703	2.52043	0.804987	2.85557	0.941035	3.3414		
0.744642	2.63746	0.569167	2.00017	0.745172	2.63739	0.799497	2.83295	0.918262	3.25333			0.711661	2.51905	0.807028	2.85338	0.94251	3.3356		
0.747004	2.63713	0.571167	2.00065	0.747534	2.63705	0.801341	2.83014	0.920087	3.24908			0.713619	2.51768	0.809071	2.85122	0.943989	3.32985		
0.749365	2.63679	0.573167	2.00113	0.749894	2.63671	0.803188	2.82736	0.921914	3.24485			0.715576	2.51631	0.811116	2.84907	0.945471	3.32416		
0.751725	2.63645	0.575167	2.0016	0.752253	2.63637	0.805039	2.82461	0.923742	3.24066			0.717532	2.51495	0.813162	2.84694	0.946957	3.31851		
0.754082	2.6361	0.577166	2.00206	0.75461	2.63602	0.806892	2.82189	0.925572	3.2365			0.719488	2.5136	0.815211	2.84483	0.948446	3.31291		
0.756438	2.63575	0.579165	2.00253	0.756966	2.63567	0.80875	2.8192	0.927403	3.23237			0.721443	2.51225	0.817261	2.84274	0.949939	3.30736		
0.758792	2.6354	0.581163	2.00298	0.75932	2.63532	0.81061	2.81654	0.929235	3.22827			0.723398	2.51091	0.819313	2.84067	0.951435	3.30186		
0.761145	2.63504	0.583162	2.00344	0.761672	2.63496	0.812474	2.81391	0.931069	3.22421			0.725352	2.50958	0.821366	2.83862	0.952935	3.29641		
0.763495	2.63468	0.58516	2.00389	0.764022	2.6346	0.814341	2.8113	0.932904	3.22017			0.727306	2.50825	0.823421	2.83659	0.954438	3.291		
0.765844	2.63432	0.587158	2.00434	0.76637	2.63423	0.816212	2.80873	0.934741	3.21617			0.729259	2.50693	0.825478	2.83458	0.955945	3.28564		
0.768191	2.63395	0.589155	2.00478	0.768716	2.63387	0.818087	2.80618	0.936579	3.2122			0.731212	2.50562	0.827537	2.83259	0.957456	3.28033		
0.770536	2.63357	0.591153	2.00522	0.771061	2.63349	0.819965	2.80366	0.938418	3.20825			0.733164	2.50432	0.829597	2.83061	0.958969	3.27506		
0.772878	2.6332	0.59315	2.00565	0.773403	2.63311	0.821846	2.80117	0.940258	3.20434			0.735116	2.50302	0.831658	2.82865	0.960487	3.26984		
0.775219	2.63281	0.595146	2.00608	0.775743	2.63273	0.823731	2.79871	0.9421	3.20045			0.737067	2.50173	0.833721	2.82671	0.962007	3.26466		
0.777557	2.63243	0.597143	2.00651	0.778081	2.63234	0.82562	2.79627	0.943943	3.1966			0.739018	2.50044	0.835786	2.82479	0.963531	3.25953		
0.779894	2.63203	0.599139	2.00694	0.780417	2.63195	0.827513	2.79387	0.945788	3.19277			0.740969	2.49916	0.837852	2.82288	0.965059	3.25444		
0.782228	2.63164	0.601134	2.00736	0.78275	2.63155	0.829409	2.79149	0.947633	3.18897			0.742919	2.49789	0.83992	2.82099	0.96659	3.24939		
0.784559	2.63123	0.60313	2.00777	0.785081	2.63114	0.831309	2.78914	0.94948	3.1852			0.744868	2.49662	0.841988	2.81912	0.968125	3.24439		
0.786888	2.63082	0.605125	2.00819	0.78741	2.63073	0.833213	2.78682	0.951329	3.18145			0.746817	2.49536	0.844059	2.81726	0.969663	3.23943		
0.789215	2.63041	0.60712	2.0086	0.789736	2.63032	0.835121	2.78452	0.953178	3.17774			0.748766	2.49411	0.84613	2.81542	0.971204	3.23451		
0.791539	2.62999	0.609115	2.009	0.79206	2.62989	0.837033	2.78225	0.955028	3.17405			0.750715	2.49286	0.848203	2.8136	0.972749	3.22963		
0.793861	2.62956	0.611109	2.00941	0.794381	2.62947	0.838949	2.78001	0.95688	3.17039			0.752663	2.49162	0.850277	2.81179	0.974297	3.2248		
0.79618	2.62913	0.613103	2.00981	0.796699	2.62903	0.840869	2.7778	0.958733	3.16675			0.75461	2.49039	0.852353	2.80999	0.975849	3.22		
0.798496	2.62869	0.615097	2.0102	0.799015	2.62859	0.842794	2.77561	0.960587	3.16314			0.756558	2.48916	0.854429	2.80821	0.977404	3.21525		
0.80081	2.62824	0.61709	2.01059	0.801328	2.62814	0.844722	2.77345	0.962443	3.15956			0.758505	2.48794	0.856507	2.80645	0.978962	3.21054		
0.80312	2.62779	0.619083	2.01098	0.803637	2.62769	0.846655	2.77132	0.964299	3.156			0.760451	2.48673	0.858586	2.8047	0.980524	3.20587		
0.805428	2.62733	0.621076	2.01137	0.805944	2.62723	0.848592	2.76921	0.966157	3.15246			0.762398	2.48552	0.860666	2.80296	0.98209	3.20123		
0.807732	2.62687	0.623069	2.01175	0.808248	2.62676	0.850533	2.76714	0.968015	3.14895			0.764344	2.48432	0.862747	2.80124	0.983659	3.19664		
0.810034	2.62639	0.625061	2.01213	0.810549	2.62629	0.852479	2.76509	0.969875	3.14547			0.766289	2.48312	0.86483	2.79953	0.985231	3.19208		
0.812332	2.62591	0.627053	2.01251	0.812847	2.62581	0.854429	2.76306	0.971736	3.14201			0.768235	2.48193	0.866913	2.79784	0.986806	3.18756		
0.814627	2.62543	0.629045	2.01288	0.815141	2.62532	0.856383	2.76106	0.973598	3.13858			0.77018	2.48075	0.868997	2.79616	0.988385	3.18308		
0.816919	2.62493	0.631036	2.01325	0.817432	2.62482	0.858343	2.75909	0.975461	3.13517			0.772125	2.47957	0.871083	2.79449	0.989968	3.17864		
0.819208	2.62443	0.633027	2.01362	0.81972	2.62431	0.860307	2.75715	0.977325	3.13178			0.774069	2.4784	0.873169	2.79284	0.991553	3.17424		
0.821493	2.62392	0.635018	2.01398	0.822004	2.6238	0.862275	2.75523	0.97919	3.12842			0.776014	2.47724	0.875256	2.79119	0.993143	3.16987		
0.823774	2.6234	0.637008	2.01434	0.824285	2.62328	0.864249	2.75334	0.981056	3.12508			0.777958	2.47608	0.877345	2.78956	0.994735	3.16554		
0.826052	2.62287	0.638999	2.0147	0.826562	2.62275	0.866227	2.75147	0.982923	3.12176			0.779901	2.47493	0.879434	2.78795	0.996331	3.16125		
0.828327	2.62233	0.640989	2.01506	0.828836	2.62221	0.86821	2.74964	0.984791	3.11846			0.781845	2.47378	0.881524	2.78634	0.99793	3.15699		
0.830597	2.62179	0.642978	2.01541	0.831106	2.62166	0.870198	2.74782	0.98666	3.11519			0.783788	2.47264	0.883614	2.78475	0.999533	3.15277		
0.832864	2.62123	0.644968	2.01576	0.833372	2.62111	0.872191	2.74604	0.98853	3.11194			0.785732	2.47151	0.885706	2.78317	1.00114	3.14858		
0.835127	2.62067	0.646957	2.0161	0.835634	2.62054	0.874189	2.74428	0.990401	3.10871			0.787674	2.47038	0.887798	2.7816				
0.837386	2.6201	0.648946	2.01645	0.837892	2.61997	0.876193	2.74255	0.992273	3.10551			0.789617	2.46926	0.889891	2.78004				
0.839641	2.61952	0.650934	2.01679	0.840146	2.61939	0.878201	2.74084	0.994146	3.10232			0.79156	2.46814	0.891985	2.7785				
0.841892	2.61893	0.652922	2.01712	0.842396	2.6188	0.880215	2.73916	0.99602	3.09916			0.793502	2.46703	0.894079	2.77696				
0.84414	2.61833	0.65491	2.01746	0.844642	2.6182	0.882234	2.73751	0.997894	3.09602			0.795444	2.46593	0.896175	2.77544				
0.846382	2.61772	0.656898	2.01779	0.846884	2.61759	0.884258	2.73588	0.99977	3.0929			0.797386	2.46483	0.89827	2.77393				
0.848621	2.61711	0.658885	2.01812	0.849122	2.61697	0.886287	2.73428	1.00165	3.0898			0.799328	2.46373	0.900367	2.77242				
0.850855	2.61648	0.660873	2.01845	0.851355	2.61634	0.888322	2.7327					0.80127	2.46265	0.902464	2.77093				
0.853085	2.61584	0.662859	2.01877	0.853585	2.6157	0.890363	2.73115					0.803211	2.46156	0.904561	2.76945				
0.855311	2.6152	0.664846	2.01909	0.855809	2.61505	0.892409	2.72962					0.805153	2.46049	0.906659	2.76798				
0.857532	2.61454	0.666832	2.01941	0.858029	2.61439	0.89446	2.72812					0.807094	2.45942	0.908758	2.76651				
0.859749	2.61387	0.668818	2.01972	0.860245	2.61372	0.896517	2.72665					0.809035	2.45835	0.910857	2.76506				
0.861961	2.6132	0.670804	2.02004	0.862456	2.61304	0.89858	2.7252					0.810976	2.4573	0.912956	2.76362				
0.864169	2.61251	0.672789	2.02035	0.864663	2.61236	0.900648	2.72378					0.812917	2.45624	0.915056	2.76218				
0.866372	2.61181	0.674774	2.02066	0.866865	2.61166	0.902722	2.72238					0.814858	2.4552	0.917157	2.76076				
0.868571	2.61111	0.676759	2.02096	0.869063	2.61095	0.904802	2.721					0.816799	2.45415	0.919257	2.75934				
0.870765	2.61039	0.678744	2.02126	0.871256	2.61023	0.906887	2.71965					0.81874	2.45312	0.921358	2.75794				
0.872954	2.60967	0.680728	2.02156	0.873444	2.6095	0.908978	2.71833					0.82068	2.45209	0.92346	2.75654				
0.875138	2.60893	0.682712	2.02186	0.875627	2.60876	0.911075	2.71703					0.822621	2.45106	0.925562	2.75515				
0.877318	2.60818	0.684696	2.02216	0.877806	2.60802	0.913177	2.71575					0.824561	2.45004	0.927664	2.75377				
0.879493	2.60743	0.686679	2.02245	0.87998	2.60726	0.915285	2.7145					0.826502	2.44903	0.929766	2.7524				
0.881664	2.60666	0.688663	2.02274	0.88215	2.60649	0.917399	2.71327					0.828442	2.44802	0.931868	2.75104				
0.88383	2.60589	0.690646	2.02303	0.884314	2.60571	0.919518	2.71207					0.830382	2.44702	0.933971	2.74968				
0.885991	2.6051	0.692628	2.02331	0.886474	2.60493	0.921644	2.71089					0.832322	2.44602	0.936074	2.74833				
0.888147	2.60431	0.694611	2.0236	0.88863	2.60413	0.923774	2.70973					0.834263	2.44502	0.938177	2.74699				
0.890299	2.60351	0.696593	2.02388	0.89078	2.60332	0.925911	2.70859					0.836203	2.44404	0.94028	2.74566				
0.892446	2.60269	0.698575	2.02416	0.892926	2.60251	0.928053	2.70748					0.838143	2.44306	0.942383	2.74434				
0.894588	2.60187	0.700556	2.02443	0.895067	2.60169	0.930201	2.70639					0.840083	2.44208	0.944487	2.74302				
0.896726	2.60104	0.702537	2.02471	0.897204	2.60085	0.932354	2.70532					0.842023	2.44111	0.94659	2.74171				
0.898859	2.6002	0.704518	2.02498	0.899336	2.60001	0.934513	2.70428					0.843964	2.44014	0.948694	2.74041				
0.900987	2.59935	0.706499	2.02525	0.901464	2.59916	0.936678	2.70325					0.845904	2.43918	0.950797	2.73911				
0.903111	2.5985	0.70848	2.02552	0.903587	2.5983	0.938848	2.70225					0.847844	2.43822	0.952901	2.73782				
0.905231	2.59763	0.71046	2.02578	0.905705	2.59744	0.941023	2.70126					0.849784	2.43727	0.955004	2.73654				
0.907346	2.59676	0.71244	2.02604	0.907819	2.59656	0.943203	2.7003					0.851724	2.43633	0.957108	2.73527				
0.909456	2.59588	0.714419	2.02631	0.909929	2.59568	0.945389	2.69936					0.853665	2.43539	0.959211	2.734				
0.911563	2.59499	0.716399	2.02656	0.912034	2.59479	0.94758	2.69844					0.855605	2.43445	0.961314	2.73274				
0.913665	2.59409	0.718378	2.02682	0.914135	2.59389	0.949777	2.69753					0.857545	2.43352	0.963417	2.73148				
0.915762	2.59319	0.720357	2.02708	0.916232	2.59298	0.951978	2.69665					0.859486	2.4326	0.96552	2.73023				
0.917856	2.59228	0.722335	2.02733	0.918325	2.59207	0.954185	2.69579					0.861426	2.43168	0.967623	2.72899				
0.919946	2.59136	0.724313	2.02758	0.920413	2.59115	0.956396	2.69494					0.863367	2.43076	0.969726	2.72775				
0.922031	2.59043	0.726291	2.02783	0.922498	2.59023	0.958612	2.69411					0.865307	2.42985	0.971828	2.72652				
0.924112	2.5895	0.728269	2.02807	0.924578	2.58929	0.960833	2.6933					0.867248	2.42894	0.973931	2.72529				
0.92619	2.58857	0.730247	2.02832	0.926655	2.58836	0.963059	2.69251					0.869188	2.42804	0.976033	2.72407				
0.928263	2.58762	0.732224	2.02856	0.928728	2.58741	0.96529	2.69174					0.871129	2.42715	0.978134	2.72286				
0.930333	2.58668	0.734201	2.0288	0.930797	2.58646	0.967525	2.69098					0.87307	2.42626	0.980236	2.72165				
0.9324	2.58572	0.736178	2.02904	0.932862	2.58551	0.969765	2.69023					0.875011	2.42537	0.982337	2.72044				
0.934462	2.58476	0.738154	2.02927	0.934924	2.58455	0.972009	2.68951					0.876952	2.42449	0.984438	2.71925				
0.936521	2.5838	0.74013	2.02951	0.936982	2.58358	0.974257	2.6888					0.878893	2.42361	0.986538	2.71805				
0.938577	2.58283	0.742106	2.02974	0.939037	2.58261	0.97651	2.6881					0.880834	2.42274	0.988638	2.71686				
0.940629	2.58186	0.744082	2.02997	0.941088	2.58164	0.978767	2.68742					0.882775	2.42188	0.990738	2.71568				
0.942678	2.58088	0.746057	2.0302	0.943136	2.58066	0.981027	2.68676					0.884716	2.42101	0.992837	2.7145				
0.944723	2.5799	0.748032	2.03043	0.945181	2.57968	0.983292	2.68611					0.886658	2.42016	0.994936	2.71333				
0.946765	2.57892	0.750007	2.03065	0.947223	2.5787	0.985561	2.68547					0.888599	2.4193	0.997034	2.71216				
0.948805	2.57793	0.751982	2.03088	0.949261	2.57771	0.987834	2.68485					0.890541	2.41845	0.999132	2.711				
0.950841	2.57694	0.753956	2.0311	0.951297	2.57672	0.99011	2.68423					0.892483	2.41761	1.00123	2.70984				
0.952874	2.57595	0.75593	2.03132	0.95333	2.57572	0.99239	2.68364					0.894425	2.41677						
0.954905	2.57495	0.757904	2.03154	0.955359	2.57473	0.994674	2.68305					0.896367	2.41594						
0.956933	2.57395	0.759878	2.03175	0.957387	2.57373	0.996961	2.68248					0.898309	2.41511						
0.958958	2.57295	0.761851	2.03197	0.959411	2.57273	0.999251	2.68192					0.900251	2.41428						
0.96098	2.57195	0.763824	2.03218	0.961433	2.57172	1.00154	2.68137					0.902194	2.41346						
0.963	2.57094	0.765797	2.03239	0.963452	2.57072							0.904136	2.41264						
0.965017	2.56994	0.76777	2.0326	0.965469	2.56971							0.906079	2.41183						
0.967032	2.56893	0.769742	2.03281	0.967483	2.5687							0.908022	2.41102						
0.969044	2.56792	0.771714	2.03301	0.969495	2.56769							0.909965	2.41022						
0.971055	2.56691	0.773686	2.03322	0.971505	2.56668							0.911908	2.40942						
0.973063	2.5659	0.775657	2.03342	0.973512	2.56567							0.913852	2.40863						
0.975069	2.56488	0.777629	2.03362	0.975518	2.56466							0.915795	2.40784						
0.977073	2.56387	0.7796	2.03382	0.977521	2.56364							0.917739	2.40705						
0.979074	2.56286	0.781571	2.03402	0.979523	2.56263							0.919683	2.40627						
0.981074	2.56185	0.783541	2.03421	0.981522	2.56162							0.921627	2.40549						
0.983072	2.56083	0.785512	2.03441	0.98352	2.56061							0.923571	2.40472						
0.985068	2.55982	0.787482	2.0346	0.985516	2.55959							0.925515	2.40395						
0.987063	2.55881	0.789451	2.03479	0.98751	2.55858							0.92746	2.40318						
0.989056	2.5578	0.791421	2.03498	0.989502	2.55757							0.929404	2.40242						
0.991047	2.55678	0.79339	2.03517	0.991493	2.55656							0.931349	2.40167						
0.993036	2.55577	0.795359	2.03536	0.993482	2.55555							0.933294	2.40091						
0.995024	2.55476	0.797328	2.03554	0.995469	2.55454							0.93524	2.40017						
0.997011	2.55376	0.799297	2.03572	0.997456	2.55353							0.937185	2.39942						
0.998996	2.55275	0.801265	2.03591	0.99944	2.55252							0.939131	2.39868						
1.00098	2.55174	0.803233	2.03609	1.00142	2.55152							0.941077	2.39794						
		0.805201	2.03627									0.943023	2.39721						
		0.807169	2.03644									0.944969	2.39648						
		0.809136	2.03662									0.946916	2.39576						
		0.811103	2.03679									0.948862	2.39504						
		0.81307	2.03697									0.950809	2.39432						
		0.815037	2.03714									0.952756	2.39361						
		0.817003	2.03731									0.954704	2.3929						
		0.81897	2.03748									0.956651	2.3922						
		0.820936	2.03765									0.958599	2.39149						
		0.822901	2.03781									0.960547	2.3908						
		0.824867	2.03798									0.962495	2.3901						
		0.826832	2.03814									0.964443	2.38941						
		0.828797	2.03831									0.966392	2.38873						
		0.830762	2.03847									0.968341	2.38805						
		0.832726	2.03863									0.97029	2.38737						
		0.834691	2.03879									0.972239	2.38669						
		0.836655	2.03894									0.974189	2.38602						
		0.838619	2.0391									0.976139	2.38535						
		0.840582	2.03925									0.978089	2.38469						
		0.842546	2.03941									0.980039	2.38403						
		0.844509	2.03956									0.98199	2.38337						
		0.846472	2.03971									0.98394	2.38272						
		0.848435	2.03986									0.985891	2.38207						
		0.850397	2.04001									0.987843	2.38142						
		0.85236	2.04016									0.989794	2.38078						
		0.854322	2.0403									0.991746	2.38014						
		0.856284	2.04045									0.993698	2.3795						
		0.858245	2.04059									0.99565	2.37887						
		0.860207	2.04074									0.997603	2.37824						
		0.862168	2.04088									0.999555	2.37762						
		0.864129	2.04102									1.00151	2.37699						
		0.866089	2.04116																
		0.86805	2.0413																
		0.87001	2.04143																
		0.87197	2.04157																
		0.87393	2.0417																
		0.87589	2.04184																
		0.877849	2.04197																
		0.879808	2.0421																
		0.881767	2.04223																
		0.883726	2.04236																
		0.885685	2.04249																
		0.887643	2.04262																
		0.889601	2.04274																
		0.891559	2.04287																
		0.893517	2.04299																
		0.895475	2.04312																
		0.897432	2.04324																
		0.899389	2.04336																
		0.901346	2.04348																
		0.903303	2.0436																
		0.905259	2.04372																
		0.907215	2.04384																
		0.909171	2.04395																
		0.911127	2.04407																
		0.913083	2.04418																
		0.915039	2.0443																
		0.916994	2.04441																
		0.918949	2.04452																
		0.920904	2.04463																
		0.922858	2.04474																
		0.924813	2.04485																
		0.926767	2.04496																
		0.928721	2.04507																
		0.930675	2.04518																
		0.932629	2.04528																
		0.934582	2.04539																
		0.936536	2.04549																
		0.938489	2.04559																
		0.940442	2.0457																
		0.942395	2.0458																
		0.944347	2.0459																
		0.946299	2.046																
		0.948252	2.0461																
		0.950204	2.0462																
		0.952155	2.04629																
		0.954107	2.04639																
		0.956058	2.04649																
		0.95801	2.04658																
		0.959961	2.04668																
		0.961912	2.04677																
		0.963862	2.04686																
		0.965813	2.04695																
		0.967763	2.04705																
		0.969713	2.04714																
		0.971663	2.04723																
		0.973613	2.04731																
		0.975563	2.0474																
		0.977512	2.04749																
		0.979461	2.04758																
		0.98141	2.04766																
		0.983359	2.04775																
		0.985308	2.04783																
		0.987257	2.04792																
		0.989205	2.048																
		0.991153	2.04809																
		0.993101	2.04817																
		0.995049	2.04825																
		0.996997	2.04833																
		0.998944	2.04841																
		1.00089	2.04849																
