Sym0		Asym0		Sym1		Sym2		Sym3		Sym4		Asym1		Asym2		Asym3		Asym4	
417  Points		527  Points		418  Points		397  Points		347  Points		248  Points		451  Points		393  Points		339  Points		214  Points	
Freq (MHz)	Vph (m/ms)	Freq (MHz)	Vph (m/ms)	Freq (MHz)	Vph (m/ms)	Freq (MHz)	Vph (m/ms)	Freq (MHz)	Vph (m/ms)	Freq (MHz)	Vph (m/ms)	Freq (MHz)	Vph (m/ms)	Freq (MHz)	Vph (m/ms)	Freq (MHz)	Vph (m/ms)	Freq (MHz)	Vph (m/ms)
0.279512	372.659	2.01653e-005	0.0279879	0.27951	514.94	0.441506	2113.96	0.559017	2479.96	0.838526	9416.75	0.139764	283.687	0.419268	496.968	0.698772	1210.57	0.883014	1108.2
0.279526	166.212	0.000105836	0.0640575	0.279522	189.571	0.441515	387.108	0.559026	483.123	0.838529	821.49	0.139834	98.1731	0.419285	236.171	0.698779	463.098	0.883022	510.861
0.279551	106.967	0.000258526	0.100053	0.279545	116.177	0.441535	213.071	0.559046	267.639	0.838539	429.483	0.139973	59.4097	0.419313	154.897	0.698792	286.318	0.883036	331.944
0.279587	78.8652	0.000477834	0.135919	0.279578	83.7591	0.441567	146.996	0.559077	185.094	0.838554	290.748	0.140179	42.6368	0.419354	115.247	0.698812	207.22	0.883055	245.847
0.279634	62.4626	0.000763096	0.171587	0.279623	65.4919	0.441611	112.208	0.55912	141.471	0.838576	219.763	0.140453	33.2871	0.419407	91.7653	0.698837	162.369	0.883081	195.217
0.279692	51.7132	0.00111353	0.207015	0.279678	53.7711	0.441666	90.741	0.559174	114.494	0.838603	176.64	0.140793	27.3325	0.419472	76.2382	0.698869	133.481	0.883112	161.882
0.279761	44.1248	0.0015281	0.242146	0.279745	45.6132	0.441733	76.1738	0.559239	96.1622	0.838637	147.668	0.141199	23.2127	0.419549	65.2099	0.698907	113.323	0.883149	138.273
0.27984	38.4824	0.00200573	0.276944	0.279822	39.6086	0.441812	65.6412	0.559316	82.895	0.838677	126.862	0.14167	20.1966	0.419638	56.9733	0.698951	98.4564	0.883192	120.677
0.279931	34.1229	0.00254505	0.311356	0.27991	35.0047	0.441903	57.6715	0.559404	72.8488	0.838722	111.198	0.142203	17.8957	0.419739	50.5879	0.699001	87.0401	0.88324	107.055
0.280032	30.6539	0.00314482	0.345366	0.280009	31.3628	0.442005	51.4312	0.559504	64.978	0.838774	98.9785	0.142798	16.0847	0.419852	45.4931	0.699057	77.9982	0.883295	96.1979
0.280145	27.828	0.00380342	0.378923	0.280119	28.4103	0.442119	46.4128	0.559615	58.6453	0.838831	89.1805	0.143454	14.6238	0.419976	41.3338	0.69912	70.6597	0.883355	87.342
0.280268	25.4819	0.00451934	0.412004	0.280239	25.9687	0.442245	42.2898	0.559737	53.4403	0.838895	81.1492	0.144169	13.4219	0.420113	37.8743	0.699188	64.585	0.883421	79.9806
0.280402	23.5032	0.00529079	0.444573	0.280371	23.916	0.442382	38.8423	0.559871	49.0867	0.838965	74.4464	0.14494	12.4167	0.420262	34.9519	0.699263	59.4735	0.883493	73.7649
0.280547	21.8119	0.00611615	0.476613	0.280513	22.1665	0.442532	35.9172	0.560016	45.3915	0.83904	68.7677	0.145767	11.5645	0.420422	32.4508	0.699344	55.1131	0.883571	68.447
0.280702	20.3499	0.00699362	0.508101	0.280667	20.6577	0.442692	33.4042	0.560172	42.2161	0.839122	63.8952	0.146648	10.8336	0.420595	30.2861	0.699432	51.3497	0.883654	63.8454
0.280869	19.0737	0.00792141	0.539021	0.280831	19.3433	0.442865	31.2222	0.56034	39.4582	0.839209	59.6688	0.147458	10.277	0.420779	28.3944	0.699525	48.0686	0.883743	59.8247
0.281046	17.95	0.0088977	0.569357	0.281006	18.1882	0.443049	29.31	0.560519	37.0406	0.839303	55.9678	0.148179	9.85202	0.420976	26.7273	0.699625	45.1827	0.883839	56.2814
0.281234	16.9532	0.00992064	0.599097	0.281191	17.1651	0.443244	27.6205	0.560709	34.9042	0.839403	52.7003	0.148795	9.53035	0.421184	25.2471	0.69973	42.6248	0.883939	53.1354
0.281433	16.063	0.0109884	0.628233	0.281388	16.2527	0.443451	26.1171	0.56091	33.0026	0.839508	49.7942	0.149295	9.29302	0.421404	23.9242	0.699842	40.342	0.884046	50.3234
0.281643	15.2633	0.0120992	0.656756	0.281595	15.4341	0.44367	24.7707	0.561123	31.2994	0.83962	47.1928	0.14967	9.1273	0.421636	22.7348	0.69996	38.2922	0.884159	47.7949
0.281864	14.5411	0.0132514	0.684672	0.281814	14.6956	0.4439	23.5582	0.561347	29.765	0.839737	44.8507	0.149913	9.02491	0.421879	21.6598	0.700084	36.4416	0.884277	45.5093
0.282095	13.8856	0.0144431	0.711972	0.282043	14.0261	0.444142	22.4604	0.561582	28.3756	0.839861	42.7309	0.150266	8.8825	0.422135	20.6835	0.700215	34.7625	0.884401	43.4331
0.282337	13.2881	0.0156727	0.738657	0.282282	13.4164	0.444396	21.462	0.561829	27.1118	0.83999	40.8033	0.150656	8.73375	0.422402	19.793	0.700351	33.2321	0.884531	41.5388
0.28259	12.7413	0.0169385	0.764733	0.282533	12.8589	0.444661	20.5501	0.562087	25.9572	0.840126	39.0429	0.151195	8.54094	0.422681	18.9776	0.700494	31.8316	0.884667	39.8036
0.282854	12.2391	0.0182389	0.790205	0.282794	12.3472	0.444937	19.714	0.562355	24.8983	0.840267	37.4288	0.151892	8.31158	0.422972	18.2282	0.700643	30.5452	0.884808	38.2083
0.283128	11.7762	0.0195723	0.815075	0.283066	11.876	0.445225	18.9447	0.562635	23.9238	0.840415	35.9437	0.152756	8.05383	0.423275	17.537	0.700798	29.3594	0.884955	36.7366
0.283413	11.3483	0.0209373	0.839353	0.283349	11.4406	0.445524	18.2346	0.562926	23.0241	0.840568	34.5726	0.153798	7.77594	0.423589	16.8978	0.700959	28.263	0.885108	35.3748
0.283709	10.9516	0.0223325	0.863049	0.283642	11.0373	0.445834	17.577	0.563229	22.1908	0.840727	33.303	0.155032	7.48569	0.423915	16.3048	0.701126	27.2462	0.885267	34.111
0.284015	10.5828	0.0237563	0.886166	0.283946	10.6625	0.446156	16.9665	0.563542	21.417	0.840893	32.1239	0.156304	7.22219	0.424252	15.7532	0.7013	26.3007	0.885432	32.935
0.284333	10.2391	0.0252075	0.908719	0.284261	10.3135	0.44649	16.3982	0.563866	20.6965	0.841064	31.0262	0.157612	6.98207	0.424601	15.239	0.701479	25.4192	0.885602	31.8379
0.28466	9.91817	0.026685	0.930719	0.284544	10.0284	0.446834	15.8679	0.564202	20.024	0.841241	30.0016	0.158956	6.76247	0.424962	14.7584	0.701665	24.5956	0.885778	30.8122
0.284999	9.61775	0.0281872	0.952172	0.284792	9.79811	0.44719	15.3719	0.564548	19.395	0.841424	29.0431	0.160332	6.56099	0.425335	14.3084	0.701857	23.8242	0.88596	29.8511
0.285348	9.33599	0.0297132	0.973096	0.285001	9.61597	0.447557	14.9071	0.564906	18.8053	0.841613	28.1445	0.161741	6.37556	0.425718	13.8861	0.702055	23.1004	0.886148	28.9486
0.285708	9.07124	0.0312619	0.993499	0.285169	9.47694	0.447936	14.4706	0.565274	18.2515	0.841808	27.3004	0.163181	6.20444	0.426114	13.4891	0.702259	22.4198	0.886341	28.0997
0.286078	8.82203	0.032832	1.01339	0.285295	9.37741	0.448325	14.06	0.565654	17.7304	0.842009	26.5061	0.164649	6.0461	0.426521	13.1151	0.702469	21.7787	0.88654	27.2996
0.286459	8.58706	0.0344228	1.03279	0.285375	9.31487	0.448726	13.6731	0.566044	17.2392	0.842216	25.7571	0.166146	5.89922	0.426939	12.7624	0.702685	21.1738	0.886745	26.5444
0.28685	8.36516	0.0360331	1.05171	0.285493	9.2265	0.449138	13.3078	0.566445	16.7754	0.842429	25.0499	0.167669	5.76267	0.427369	12.429	0.702908	20.6021	0.886956	25.8303
0.287252	8.1553	0.037662	1.07015	0.285621	9.13246	0.449561	12.9625	0.566857	16.3368	0.842648	24.3809	0.169218	5.63544	0.42781	12.1136	0.703136	20.061	0.887172	25.1541
0.287665	7.95655	0.0393088	1.08814	0.285799	9.00779	0.449995	12.6356	0.56728	15.9215	0.842873	23.7473	0.17079	5.51665	0.428262	11.8148	0.703371	19.548	0.887394	24.5128
0.288088	7.76807	0.0409725	1.10567	0.286027	8.85523	0.45044	12.3256	0.567713	15.5276	0.843103	23.1462	0.172386	5.40552	0.428726	11.5312	0.703611	19.0612	0.887622	23.9039
0.288521	7.5891	0.0426524	1.12278	0.286308	8.67798	0.450896	12.0314	0.568158	15.1536	0.84334	22.5752	0.174005	5.30139	0.429201	11.2617	0.703858	18.5984	0.887856	23.325
0.288965	7.41896	0.0443476	1.13946	0.286644	8.47952	0.451363	11.7517	0.568613	14.798	0.843582	22.0322	0.175644	5.20363	0.429687	11.0054	0.704111	18.1581	0.888095	22.7738
0.28942	7.25704	0.0460577	1.15573	0.287041	8.2635	0.451841	11.4855	0.569079	14.4596	0.843831	21.5152	0.177304	5.1117	0.430185	10.7614	0.70437	17.7386	0.88834	22.2485
0.289884	7.10276	0.0477817	1.1716	0.287448	8.05905	0.45233	11.2319	0.569555	14.137	0.844085	21.0223	0.178983	5.02512	0.430694	10.5287	0.704635	17.3384	0.888591	21.7474
0.29036	6.95562	0.0495191	1.18708	0.287865	7.8653	0.452829	10.9901	0.570042	13.8293	0.844345	20.5519	0.18068	4.94346	0.431214	10.3067	0.704906	16.9564	0.888847	21.2687
0.290845	6.81515	0.0512693	1.20218	0.288293	7.68146	0.45334	10.7592	0.57054	13.5354	0.844611	20.1025	0.182395	4.86633	0.431676	10.1213	0.705184	16.5912	0.889109	20.811
0.291341	6.68091	0.0530317	1.21692	0.288732	7.50679	0.453861	10.5385	0.571049	13.2545	0.844883	19.6727	0.184127	4.79339	0.432076	9.96894	0.705467	16.2418	0.889377	20.373
0.291848	6.55253	0.0548058	1.23131	0.289181	7.34064	0.454393	10.3275	0.571567	12.9857	0.845161	19.2613	0.185875	4.7243	0.432412	9.84666	0.705756	15.9073	0.88965	19.9534
0.292364	6.42963	0.0565909	1.24535	0.28964	7.18244	0.454865	10.1509	0.572097	12.7283	0.845445	18.8671	0.187638	4.6588	0.43268	9.75228	0.706052	15.5866	0.889929	19.5511
0.292892	6.3119	0.0583867	1.25905	0.29011	7.03163	0.455274	10.0055	0.572637	12.4816	0.845734	18.4892	0.189416	4.59662	0.43288	9.68414	0.706353	15.279	0.890214	19.1651
0.293429	6.19901	0.0601927	1.27243	0.29059	6.88773	0.455617	9.88862	0.573187	12.2449	0.84603	18.1264	0.191208	4.53752	0.433008	9.64107	0.706661	14.9837	0.890504	18.7943
0.293977	6.0907	0.0620083	1.28549	0.291081	6.75029	0.45589	9.79832	0.573748	12.0177	0.846331	17.778	0.193014	4.48129	0.433193	9.5799	0.706974	14.6999	0.890801	18.438
0.294534	5.98669	0.0638332	1.29825	0.291582	6.61889	0.456093	9.73307	0.574319	11.7994	0.846638	17.4431	0.194833	4.42773	0.433396	9.51437	0.707294	14.4271	0.891102	18.0953
0.295103	5.88676	0.065667	1.31071	0.292093	6.49318	0.456224	9.69181	0.5749	11.5895	0.846951	17.1209	0.196664	4.37668	0.433673	9.42682	0.707619	14.1646	0.89141	17.7654
0.295681	5.79067	0.0675093	1.32288	0.292615	6.37278	0.456412	9.63317	0.575491	11.3875	0.84727	16.8107	0.198507	4.32796	0.434029	9.31861	0.707951	13.9117	0.891723	17.4477
0.296269	5.69823	0.0693598	1.33477	0.293147	6.2574	0.456619	9.57031	0.576093	11.1931	0.847595	16.5119	0.200361	4.28142	0.434464	9.19136	0.708289	13.6681	0.892042	17.1415
0.296868	5.60923	0.071218	1.34639	0.293689	6.14673	0.456901	9.48626	0.576705	11.0058	0.847925	16.2239	0.202227	4.23692	0.434981	9.04692	0.708632	13.4332	0.892366	16.8461
0.297477	5.5235	0.0730836	1.35775	0.294242	6.04051	0.457262	9.38227	0.577328	10.8252	0.848261	15.9461	0.204103	4.19435	0.435586	8.88728	0.708982	13.2066	0.892696	16.561
0.298096	5.44087	0.0749563	1.36884	0.294804	5.93847	0.457704	9.25984	0.57796	10.6509	0.848604	15.6779	0.205988	4.15358	0.436201	8.73381	0.709338	12.9878	0.893031	16.2858
0.298725	5.36118	0.0768358	1.37969	0.295377	5.8404	0.45823	9.12066	0.578602	10.4828	0.848951	15.4189	0.207884	4.1145	0.436827	8.58617	0.7097	12.7765	0.893373	16.0198
0.299365	5.2843	0.078722	1.3903	0.295961	5.74608	0.458843	8.96659	0.57917	10.341	0.849305	15.1687	0.209789	4.07702	0.437464	8.44405	0.710067	12.5723	0.893719	15.7627
0.300014	5.21007	0.0806144	1.40068	0.296554	5.6553	0.459467	8.81821	0.57966	10.2234	0.849665	14.9267	0.211702	4.04104	0.438111	8.30715	0.710441	12.3747	0.894072	15.5139
0.300674	5.13839	0.0825127	1.41082	0.297158	5.56789	0.4601	8.67525	0.58007	10.1284	0.85003	14.6926	0.213625	4.00648	0.438769	8.1752	0.710821	12.1836	0.89443	15.2732
0.301343	5.06912	0.0844168	1.42075	0.297771	5.48366	0.460744	8.53741	0.580396	10.0546	0.850401	14.4661	0.215555	3.97326	0.439438	8.04795	0.711206	11.9986	0.894793	15.0402
0.302023	5.00215	0.0863265	1.43045	0.298395	5.40245	0.461398	8.40444	0.580638	10.0012	0.850778	14.2467	0.217494	3.9413	0.440117	7.92517	0.711598	11.8194	0.895162	14.8144
0.302712	4.93739	0.0882414	1.43996	0.299029	5.32412	0.462063	8.27609	0.580793	9.96727	0.851161	14.0342	0.21944	3.91054	0.440807	7.80661	0.711995	11.6458	0.895537	14.5955
0.303412	4.87472	0.0901615	1.44925	0.299674	5.24853	0.462737	8.15213	0.581017	9.91901	0.851549	13.8281	0.221393	3.88092	0.441507	7.69209	0.712399	11.4775	0.895917	14.3833
0.304122	4.81406	0.0920863	1.45835	0.300328	5.17553	0.463421	8.03234	0.581262	9.86713	0.851943	13.6283	0.223353	3.85236	0.442218	7.58141	0.712808	11.3143	0.896303	14.1774
0.304841	4.75532	0.0940159	1.46726	0.300992	5.10501	0.464116	7.91654	0.581597	9.79755	0.852343	13.4345	0.225321	3.82483	0.442939	7.47438	0.713224	11.1559	0.896694	13.9776
0.305477	4.70563	0.0959499	1.47598	0.301666	5.03686	0.46482	7.80452	0.582024	9.71112	0.852749	13.2464	0.227294	3.79826	0.44367	7.37084	0.713645	11.0021	0.897091	13.7836
0.306024	4.66434	0.0978883	1.48452	0.302351	4.97096	0.465535	7.69612	0.582545	9.60885	0.85316	13.0637	0.229274	3.77261	0.444412	7.27062	0.714072	10.8528	0.897493	13.5952
0.306481	4.6309	0.0998307	1.49289	0.303045	4.9072	0.466259	7.59117	0.583163	9.49193	0.853577	12.8862	0.23126	3.74784	0.445164	7.17358	0.714506	10.7078	0.897901	13.4121
0.306845	4.60492	0.101777	1.50108	0.30375	4.84551	0.466993	7.48951	0.583882	9.36166	0.854	12.7138	0.233252	3.72389	0.445926	7.07957	0.714888	10.5847	0.898315	13.2341
0.307114	4.58605	0.103727	1.50911	0.304464	4.78577	0.467737	7.391	0.58461	9.23538	0.854429	12.5462	0.23525	3.70073	0.446698	6.98846	0.715217	10.4822	0.898734	13.061
0.307287	4.57409	0.105681	1.51697	0.305188	4.72792	0.46849	7.2955	0.585348	9.11291	0.854863	12.3831	0.237253	3.67833	0.44748	6.90012	0.715492	10.399	0.899158	12.8926
0.307536	4.55704	0.107639	1.52468	0.305923	4.67187	0.469253	7.20288	0.586096	8.99408	0.855303	12.2245	0.239261	3.65665	0.448273	6.81444	0.715711	10.3342	0.899588	12.7287
0.307809	4.53869	0.1096	1.53223	0.306667	4.61753	0.470026	7.11302	0.586853	8.87876	0.855748	12.0702	0.241274	3.63565	0.449075	6.7313	0.715873	10.2871	0.900023	12.5692
0.308181	4.51406	0.111564	1.53964	0.307422	4.56485	0.470808	7.0258	0.587619	8.76678	0.8562	11.9199	0.243293	3.6153	0.449887	6.65059	0.715977	10.2572	0.900464	12.4138
0.308656	4.48343	0.113278	1.54597	0.308186	4.51376	0.4716	6.94111	0.588395	8.65801	0.856657	11.7735	0.245316	3.59558	0.450709	6.57223	0.716127	10.2146	0.90091	12.2625
0.309234	4.44713	0.114741	1.55129	0.30896	4.46418	0.472402	6.85885	0.589181	8.55233	0.857119	11.631	0.247343	3.57646	0.451542	6.49611	0.716291	10.1687	0.901362	12.115
0.30992	4.40555	0.115952	1.55562	0.309744	4.41606	0.473212	6.77892	0.589976	8.44959	0.857588	11.492	0.249375	3.55791	0.452383	6.42214	0.716515	10.1069	0.901819	11.9712
0.310716	4.35913	0.11691	1.55901	0.310538	4.36934	0.474032	6.70122	0.59078	8.34969	0.858062	11.3566	0.251411	3.5399	0.453235	6.35024	0.7168	10.03	0.902282	11.831
0.311523	4.31406	0.117615	1.56149	0.311342	4.32397	0.474862	6.62568	0.591594	8.25252	0.858541	11.2245	0.253451	3.52242	0.454097	6.28032	0.717148	9.93857	0.90275	11.6943
0.312339	4.27026	0.118067	1.56306	0.312156	4.2799	0.4757	6.5522	0.592417	8.15798	0.859026	11.0957	0.255495	3.50544	0.454968	6.21232	0.71756	9.83364	0.903223	11.5609
0.313165	4.22771	0.118716	1.56531	0.31298	4.23707	0.476548	6.48071	0.593249	8.06595	0.859517	10.97	0.257543	3.48894	0.455848	6.14616	0.718038	9.71614	0.903702	11.4307
0.314001	4.18634	0.119422	1.56774	0.313814	4.19544	0.477405	6.41114	0.59409	7.97634	0.859949	10.863	0.259595	3.4729	0.456739	6.08176	0.718523	9.60164	0.904186	11.3036
0.314847	4.14611	0.120383	1.57102	0.314658	4.15496	0.478271	6.3434	0.59494	7.88908	0.860321	10.7735	0.261651	3.45731	0.457638	6.01907	0.719013	9.49004	0.904676	11.1795
0.315703	4.107	0.121599	1.57512	0.315512	4.1156	0.479146	6.27743	0.5958	7.80406	0.860631	10.7007	0.263709	3.44213	0.458548	5.95802	0.719509	9.38122	0.905171	11.0583
0.316569	4.06894	0.12307	1.58002	0.316375	4.07732	0.48003	6.21317	0.596668	7.7212	0.860877	10.6438	0.265771	3.42737	0.459466	5.89855	0.720011	9.27509	0.905606	10.955
0.317445	4.03192	0.124798	1.58568	0.317249	4.04007	0.480923	6.15056	0.597546	7.64044	0.86106	10.6025	0.267837	3.413	0.460394	5.8406	0.720518	9.17156	0.905981	10.8685
0.318331	3.99588	0.126783	1.59206	0.318133	4.00381	0.481825	6.08953	0.598432	7.56169	0.861176	10.5762	0.269905	3.399	0.461332	5.78413	0.721032	9.07052	0.906293	10.7981
0.319226	3.96081	0.128771	1.59831	0.319026	3.96853	0.482735	6.03003	0.599327	7.48488	0.861345	10.5386	0.271977	3.38537	0.462279	5.72907	0.721551	8.97189	0.906541	10.7432
0.320132	3.92665	0.130761	1.60446	0.31993	3.93417	0.483655	5.97202	0.600231	7.40995	0.861529	10.4981	0.274051	3.37208	0.463234	5.67539	0.722076	8.8756	0.906724	10.7031
0.321048	3.89339	0.132753	1.61049	0.320843	3.90072	0.484583	5.91542	0.601144	7.33683	0.86178	10.4436	0.276129	3.35913	0.4642	5.62303	0.722607	8.78156	0.906842	10.6777
0.321974	3.861	0.134747	1.61641	0.321767	3.86813	0.485519	5.86021	0.602065	7.26546	0.8621	10.3755	0.278209	3.34651	0.465174	5.57195	0.723144	8.68969	0.907012	10.6413
0.32291	3.82944	0.136743	1.62222	0.322701	3.83639	0.486465	5.80632	0.602995	7.19578	0.862489	10.2945	0.280291	3.33419	0.466157	5.5221	0.723686	8.59993	0.907197	10.6021
0.323856	3.79869	0.138741	1.62793	0.323645	3.80546	0.487418	5.75372	0.603934	7.12773	0.86295	10.2011	0.282377	3.32218	0.46715	5.47344	0.724234	8.51219	0.907449	10.5492
0.324813	3.76872	0.14074	1.63354	0.324599	3.77532	0.488381	5.70237	0.604881	7.06127	0.863483	10.0962	0.284464	3.31045	0.468151	5.42594	0.724788	8.42643	0.907771	10.4832
0.325779	3.73951	0.142742	1.63904	0.325563	3.74594	0.489352	5.65221	0.605837	6.99633	0.864023	9.99365	0.286554	3.29901	0.469161	5.37956	0.725348	8.34257	0.908162	10.4046
0.326756	3.71103	0.144745	1.64445	0.326538	3.7173	0.490331	5.60323	0.606801	6.93287	0.864567	9.89334	0.288647	3.28783	0.47018	5.33426	0.725913	8.26055	0.908625	10.314
0.327743	3.68327	0.14675	1.64976	0.327522	3.68938	0.491318	5.55536	0.607774	6.87085	0.865118	9.7952	0.290742	3.27691	0.471208	5.29001	0.726484	8.18032	0.909161	10.212
0.32874	3.65619	0.148756	1.65499	0.328517	3.66215	0.492314	5.50859	0.608755	6.81021	0.865674	9.69918	0.292838	3.26625	0.472245	5.24677	0.727061	8.10182	0.909702	10.1123
0.329748	3.62979	0.150764	1.66012	0.329523	3.6356	0.493318	5.46287	0.609745	6.75091	0.866235	9.6052	0.294937	3.25583	0.473291	5.20451	0.727644	8.025	0.910249	10.0147
0.330766	3.60403	0.152774	1.66516	0.330539	3.60971	0.49433	5.41818	0.610742	6.69292	0.866802	9.5132	0.297038	3.24564	0.474345	5.16321	0.728232	7.9498	0.910801	9.91905
0.331795	3.57891	0.154784	1.67012	0.331565	3.58444	0.495351	5.37448	0.611748	6.63619	0.867374	9.42313	0.299141	3.23568	0.475408	5.12282	0.728826	7.87617	0.911358	9.82542
0.332834	3.5544	0.156796	1.67499	0.332602	3.5598	0.496379	5.33174	0.612763	6.58068	0.867952	9.33492	0.301246	3.22593	0.47648	5.08334	0.729425	7.80408	0.91192	9.73371
0.333884	3.53048	0.15881	1.67978	0.333649	3.53575	0.497415	5.28993	0.613785	6.52636	0.868535	9.24852	0.303353	3.2164	0.47756	5.04472	0.730031	7.73347	0.912488	9.64386
0.334945	3.50715	0.160824	1.68449	0.334708	3.51229	0.49846	5.24903	0.614815	6.47318	0.869124	9.16387	0.305461	3.20708	0.478648	5.00694	0.730642	7.66429	0.91306	9.55582
0.336016	3.48437	0.16284	1.68912	0.335777	3.48939	0.499512	5.209	0.615854	6.42113	0.869718	9.08093	0.307572	3.19795	0.479745	4.96997	0.731258	7.59652	0.913638	9.46953
0.337098	3.46215	0.164857	1.69367	0.336857	3.46705	0.500572	5.16983	0.6169	6.37016	0.870318	8.99964	0.309683	3.18901	0.480851	4.93381	0.73188	7.5301	0.914222	9.38495
0.338192	3.44046	0.166875	1.69815	0.337948	3.44524	0.501639	5.13148	0.617954	6.32024	0.870923	8.91996	0.311797	3.18026	0.481965	4.89841	0.732508	7.465	0.91481	9.30202
0.339297	3.41929	0.168894	1.70255	0.33905	3.42395	0.502715	5.09393	0.619016	6.27134	0.871533	8.84184	0.313912	3.1717	0.483087	4.86376	0.733142	7.40118	0.915404	9.22071
0.340412	3.39862	0.170914	1.70689	0.340163	3.40317	0.503798	5.05716	0.620086	6.22344	0.872149	8.76523	0.316028	3.1633	0.484217	4.82983	0.733781	7.33861	0.916002	9.14095
0.34154	3.37845	0.172936	1.71115	0.341288	3.38289	0.504889	5.02115	0.621164	6.1765	0.87277	8.69011	0.318146	3.15508	0.485356	4.79661	0.734426	7.27725	0.916606	9.06272
0.342678	3.35876	0.174958	1.71534	0.342424	3.3631	0.505988	4.98588	0.62225	6.1305	0.873397	8.61641	0.320265	3.14702	0.486503	4.76408	0.735076	7.21706	0.917215	8.98596
0.343829	3.33954	0.176981	1.71947	0.343572	3.34377	0.507093	4.95132	0.623343	6.08541	0.874029	8.54411	0.322386	3.13912	0.487658	4.73221	0.735732	7.15803	0.91783	8.91064
0.344991	3.32078	0.179004	1.72353	0.344731	3.32491	0.508207	4.91746	0.624444	6.04121	0.874666	8.47317	0.324508	3.13137	0.488821	4.701	0.736393	7.1001	0.918449	8.83673
0.346165	3.30246	0.181029	1.72753	0.345903	3.3065	0.509328	4.88427	0.625552	5.99787	0.875308	8.40355	0.326631	3.12377	0.489992	4.67041	0.73706	7.04326	0.919073	8.76417
0.347352	3.28458	0.183055	1.73146	0.347087	3.28852	0.510456	4.85174	0.626668	5.95537	0.875956	8.33521	0.328755	3.11632	0.491171	4.64044	0.737733	6.98748	0.919703	8.69294
0.34855	3.26713	0.185081	1.73533	0.348282	3.27098	0.511591	4.81985	0.627792	5.91369	0.87661	8.26813	0.330881	3.10901	0.492358	4.61107	0.738411	6.93272	0.920338	8.623
0.349761	3.2501	0.187108	1.73915	0.349491	3.25386	0.512734	4.78858	0.628923	5.8728	0.877268	8.20226	0.333007	3.10184	0.493553	4.58228	0.739094	6.87897	0.920977	8.55432
0.350985	3.23348	0.189135	1.7429	0.350712	3.23714	0.513884	4.75792	0.630061	5.83268	0.877932	8.13758	0.335135	3.09479	0.494755	4.55405	0.739784	6.82619	0.921622	8.48687
0.352222	3.21726	0.191164	1.7466	0.351946	3.22084	0.515041	4.72785	0.631207	5.79332	0.878602	8.07406	0.337263	3.08788	0.495966	4.52637	0.740478	6.77436	0.922272	8.4206
0.353472	3.20143	0.193193	1.75024	0.353193	3.20492	0.516206	4.69836	0.63236	5.7547	0.879276	8.01166	0.339393	3.0811	0.497184	4.49924	0.741178	6.72345	0.922927	8.35551
0.354736	3.18599	0.195222	1.75382	0.354453	3.18939	0.517377	4.66942	0.63352	5.71678	0.879956	7.95036	0.341523	3.07444	0.49841	4.47262	0.741884	6.67345	0.923587	8.29154
0.356013	3.17093	0.197252	1.75735	0.355727	3.17425	0.518555	4.64103	0.634688	5.67957	0.880641	7.89013	0.343655	3.06789	0.499644	4.44652	0.742595	6.62433	0.924252	8.22869
0.357304	3.15624	0.199283	1.76082	0.357015	3.15947	0.51974	4.61317	0.635862	5.64303	0.881331	7.83095	0.345787	3.06146	0.500885	4.42091	0.743312	6.57607	0.924922	8.16691
0.358609	3.14191	0.201315	1.76425	0.358317	3.14506	0.520933	4.58583	0.637044	5.60716	0.882027	7.77278	0.34792	3.05514	0.502134	4.39578	0.744034	6.52865	0.925596	8.10618
0.359928	3.12793	0.203346	1.76762	0.359634	3.13101	0.522132	4.55899	0.638233	5.57193	0.882727	7.71561	0.350053	3.04894	0.503391	4.37113	0.744761	6.48204	0.926276	8.04648
0.361263	3.11432	0.205379	1.77095	0.360965	3.11731	0.523337	4.53265	0.639429	5.53732	0.883434	7.6594	0.352188	3.04283	0.504655	4.34694	0.745494	6.43622	0.926961	7.98778
0.362612	3.10104	0.207411	1.77422	0.362311	3.10396	0.52455	4.50678	0.640631	5.50334	0.884145	7.60414	0.354323	3.03684	0.505926	4.3232	0.746233	6.39119	0.927651	7.93005
0.363977	3.08811	0.209445	1.77745	0.363672	3.09096	0.525769	4.48138	0.641841	5.46995	0.884861	7.54981	0.356459	3.03094	0.507205	4.29989	0.746977	6.34691	0.928346	7.87329
0.365358	3.07551	0.211478	1.78063	0.365049	3.07828	0.526995	4.45644	0.643058	5.43715	0.885583	7.49637	0.358595	3.02514	0.508492	4.27701	0.747726	6.30338	0.929046	7.81745
0.366754	3.06324	0.213512	1.78376	0.366442	3.06594	0.528227	4.43195	0.644281	5.40491	0.886309	7.44382	0.360732	3.01944	0.509785	4.25455	0.74848	6.26057	0.92975	7.76252
0.368167	3.0513	0.215547	1.78685	0.367852	3.05393	0.529466	4.40789	0.645511	5.37323	0.887041	7.39212	0.36287	3.01382	0.511086	4.2325	0.74924	6.21847	0.93046	7.70849
0.369597	3.03968	0.217581	1.78989	0.369277	3.04223	0.530712	4.38425	0.646748	5.3421	0.887778	7.34126	0.365008	3.0083	0.512394	4.21084	0.750006	6.17705	0.931175	7.65532
0.371044	3.02837	0.219617	1.79289	0.37072	3.03086	0.531964	4.36103	0.647991	5.31149	0.888521	7.29123	0.367146	3.00287	0.51371	4.18958	0.750777	6.13631	0.931894	7.60299
0.372508	3.01738	0.221652	1.79585	0.372181	3.0198	0.533222	4.33821	0.649242	5.28141	0.889268	7.24199	0.369285	2.99752	0.515032	4.16869	0.751553	6.09623	0.932618	7.5515
0.37399	3.00669	0.223688	1.79876	0.373659	3.00904	0.534487	4.31578	0.650498	5.25183	0.89002	7.19354	0.371425	2.99226	0.516362	4.14817	0.752334	6.0568	0.933347	7.50082
0.375491	2.99631	0.225724	1.80164	0.375155	2.99859	0.535758	4.29374	0.651762	5.22274	0.890778	7.14585	0.373565	2.98708	0.517699	4.12801	0.753121	6.01799	0.934081	7.45093
0.37701	2.98623	0.22776	1.80447	0.37667	2.98845	0.537035	4.27208	0.653032	5.19414	0.891541	7.09891	0.375705	2.98197	0.519043	4.1082	0.753913	5.9798	0.93482	7.40181
0.378547	2.97644	0.229797	1.80727	0.378204	2.9786	0.538319	4.25079	0.654308	5.16601	0.892308	7.0527	0.377845	2.97695	0.520394	4.08874	0.75471	5.94221	0.935564	7.35345
0.380104	2.96695	0.231834	1.81002	0.379756	2.96904	0.539609	4.22985	0.65559	5.13833	0.893081	7.00721	0.379986	2.972	0.521751	4.06962	0.755513	5.90522	0.936312	7.30584
0.381681	2.95775	0.233871	1.81274	0.381328	2.95977	0.540904	4.20927	0.65688	5.11112	0.893859	6.96242	0.382127	2.96712	0.523116	4.05083	0.756321	5.86879	0.937066	7.25894
0.383277	2.94883	0.235908	1.81542	0.382921	2.95079	0.542206	4.18902	0.658175	5.08434	0.894642	6.91831	0.384268	2.96232	0.524488	4.03236	0.757134	5.83293	0.937824	7.21276
0.384894	2.94019	0.237945	1.81807	0.384533	2.94209	0.543514	4.16912	0.659477	5.05799	0.89543	6.87487	0.386409	2.95758	0.525866	4.0142	0.757953	5.79762	0.938587	7.16727
0.386531	2.93183	0.239983	1.82067	0.386165	2.93367	0.544828	4.14954	0.660784	5.03206	0.896223	6.83208	0.388551	2.95292	0.527252	3.99636	0.758776	5.76286	0.939354	7.12246
0.388189	2.92374	0.242021	1.82325	0.387818	2.92552	0.546148	4.13029	0.662098	5.00654	0.897021	6.78994	0.390693	2.94832	0.528644	3.97881	0.759605	5.72862	0.940127	7.07831
0.389868	2.91593	0.244059	1.82579	0.389493	2.91764	0.547473	4.11134	0.663419	4.98143	0.897824	6.74843	0.392835	2.94378	0.530043	3.96156	0.76044	5.69489	0.940904	7.03481
0.391568	2.90837	0.246097	1.82829	0.391188	2.91003	0.548805	4.09271	0.664745	4.95671	0.898632	6.70753	0.394976	2.93931	0.531448	3.9446	0.761279	5.66168	0.941685	6.99195
0.393289	2.90108	0.248135	1.83076	0.392904	2.90268	0.550142	4.07437	0.666077	4.93238	0.899444	6.66723	0.397118	2.9349	0.532861	3.92792	0.762124	5.62895	0.942472	6.94971
0.395031	2.89404	0.250174	1.8332	0.394642	2.89559	0.551485	4.05633	0.667416	4.90843	0.900262	6.62752	0.39926	2.93055	0.53428	3.91151	0.762973	5.59672	0.943263	6.90809
0.396795	2.88726	0.252212	1.8356	0.396401	2.88875	0.552834	4.03857	0.66876	4.88484	0.901085	6.58839	0.401402	2.92626	0.535705	3.89538	0.763828	5.56496	0.944059	6.86706
0.398581	2.88072	0.254251	1.83798	0.398182	2.88215	0.554189	4.0211	0.67011	4.86162	0.901913	6.54982	0.403544	2.92203	0.537137	3.87951	0.764689	5.53366	0.94486	6.82662
0.400387	2.87442	0.256289	1.84032	0.399984	2.8758	0.555549	4.0039	0.671466	4.83875	0.902746	6.51181	0.405686	2.91786	0.538576	3.8639	0.765554	5.50282	0.945665	6.78675
0.402216	2.86836	0.258328	1.84263	0.401807	2.86969	0.556914	3.98697	0.672828	4.81623	0.903583	6.47434	0.407828	2.91374	0.540021	3.84854	0.766425	5.47243	0.946475	6.74745
0.404065	2.86253	0.260367	1.84491	0.403652	2.86381	0.558285	3.9703	0.674196	4.79405	0.904426	6.4374	0.40997	2.90967	0.541472	3.83343	0.7673	5.44248	0.94729	6.7087
0.405935	2.85693	0.262406	1.84717	0.405518	2.85815	0.559662	3.9539	0.675569	4.7722	0.905273	6.40099	0.412111	2.90565	0.54293	3.81857	0.768181	5.41295	0.948109	6.67048
0.407827	2.85154	0.264445	1.84939	0.407404	2.85272	0.561044	3.93774	0.676948	4.75067	0.906126	6.36508	0.414253	2.90169	0.544395	3.80394	0.769067	5.38385	0.948933	6.6328
0.409739	2.84637	0.266484	1.85159	0.409312	2.8475	0.562432	3.92183	0.678333	4.72947	0.906983	6.32968	0.416394	2.89778	0.545866	3.78954	0.769958	5.35516	0.949761	6.59564
0.411671	2.8414	0.268523	1.85375	0.41124	2.84249	0.563825	3.90617	0.679724	4.70858	0.907845	6.29476	0.418535	2.89391	0.547343	3.77538	0.770854	5.32687	0.950594	6.55899
0.413623	2.83663	0.270562	1.85589	0.413187	2.83768	0.565223	3.89074	0.68112	4.68799	0.908712	6.26033	0.420676	2.8901	0.548826	3.76144	0.771755	5.29898	0.951432	6.52283
0.415595	2.83206	0.272601	1.858	0.415155	2.83306	0.566626	3.87555	0.682521	4.66771	0.909583	6.22637	0.422816	2.88633	0.550316	3.74772	0.772661	5.27148	0.952274	6.48717
0.417586	2.82767	0.27464	1.86009	0.417142	2.82863	0.568035	3.86058	0.683928	4.64771	0.91046	6.19287	0.424956	2.8826	0.551812	3.73421	0.773573	5.24436	0.95312	6.45199
0.419596	2.82347	0.276679	1.86215	0.419148	2.82439	0.569449	3.84584	0.685341	4.62801	0.911341	6.15983	0.427096	2.87892	0.553314	3.72091	0.774489	5.21762	0.953972	6.41728
0.421624	2.81944	0.278718	1.86418	0.421172	2.82032	0.570868	3.83131	0.686759	4.60859	0.912227	6.12724	0.429236	2.87529	0.554822	3.70783	0.77541	5.19124	0.954827	6.38303
0.42367	2.81558	0.280757	1.86619	0.423214	2.81643	0.572292	3.81701	0.688182	4.58945	0.913118	6.09508	0.431375	2.8717	0.556336	3.69494	0.776337	5.16523	0.955688	6.34923
0.425733	2.81188	0.282796	1.86818	0.425273	2.81269	0.573721	3.80291	0.689611	4.57058	0.914014	6.06335	0.433514	2.86815	0.557857	3.68225	0.777268	5.13956	0.956552	6.31588
0.427813	2.80834	0.284835	1.87014	0.427349	2.80911	0.575156	3.78901	0.691045	4.55197	0.914914	6.03204	0.435652	2.86464	0.559383	3.66976	0.778205	5.11425	0.957422	6.28297
0.42991	2.80494	0.286874	1.87207	0.429442	2.80569	0.576595	3.77532	0.692484	4.53363	0.91582	6.00114	0.43779	2.86117	0.560916	3.65746	0.779146	5.08927	0.958295	6.25049
0.432022	2.80169	0.288913	1.87398	0.43155	2.8024	0.578039	3.76183	0.693928	4.51554	0.91673	5.97065	0.439928	2.85773	0.562454	3.64535	0.780092	5.06463	0.959173	6.21843
0.434149	2.79858	0.290952	1.87587	0.433674	2.79926	0.579489	3.74853	0.695378	4.49771	0.917644	5.94056	0.442065	2.85434	0.563999	3.63342	0.781044	5.04032	0.960056	6.18678
0.43629	2.79559	0.292991	1.87774	0.435813	2.79625	0.580943	3.73543	0.696833	4.48012	0.918564	5.91086	0.444201	2.85099	0.565549	3.62167	0.782	5.01633	0.960943	6.15554
0.438446	2.79273	0.295029	1.87958	0.437965	2.79336	0.582402	3.72251	0.698293	4.46277	0.919488	5.88155	0.446337	2.84767	0.567106	3.61009	0.782961	4.99266	0.961834	6.12469
0.440615	2.78999	0.297068	1.8814	0.440132	2.79059	0.583865	3.70977	0.699758	4.44566	0.920416	5.85261	0.448473	2.84438	0.568668	3.5987	0.783927	4.9693	0.96273	6.09424
0.442797	2.78737	0.299107	1.8832	0.442311	2.78794	0.585334	3.69721	0.701228	4.42879	0.92135	5.82404	0.450608	2.84114	0.570236	3.58747	0.784898	4.94624	0.96363	6.06418
0.444992	2.78485	0.301145	1.88497	0.444503	2.7854	0.586807	3.68484	0.702702	4.41214	0.922288	5.79584	0.452742	2.83792	0.57181	3.57641	0.785874	4.92348	0.964535	6.03449
0.447199	2.78244	0.303183	1.88673	0.446707	2.78296	0.588285	3.67263	0.704182	4.39572	0.923231	5.76799	0.454876	2.83474	0.57339	3.56551	0.786855	4.90102	0.965444	6.00517
0.449417	2.78012	0.305222	1.88846	0.448923	2.78063	0.589768	3.66059	0.705667	4.37951	0.924178	5.74049	0.457009	2.83159	0.574975	3.55477	0.787841	4.87885	0.966357	5.97622
0.451646	2.7779	0.30726	1.89018	0.451149	2.77839	0.591255	3.64872	0.707157	4.36353	0.92513	5.71334	0.459142	2.82848	0.576567	3.5442	0.788832	4.85696	0.967275	5.94762
0.453886	2.77577	0.309298	1.89187	0.453387	2.77623	0.592747	3.63702	0.708651	4.34775	0.926087	5.68653	0.461273	2.82539	0.578164	3.53378	0.789827	4.83535	0.968197	5.91938
0.456135	2.77372	0.311336	1.89355	0.455634	2.77417	0.594243	3.62547	0.710151	4.33219	0.927048	5.66005	0.463404	2.82234	0.579766	3.52351	0.790827	4.81402	0.969123	5.89148
0.458394	2.77175	0.313374	1.8952	0.457891	2.77218	0.595744	3.61409	0.711655	4.31683	0.928014	5.6339	0.465535	2.81932	0.581375	3.51339	0.791833	4.79295	0.970054	5.86393
0.460663	2.76987	0.315411	1.89684	0.460157	2.77028	0.597249	3.60286	0.713163	4.30167	0.928984	5.60807	0.467665	2.81633	0.582989	3.50342	0.792843	4.77215	0.970989	5.83671
0.46294	2.76805	0.317449	1.89845	0.462432	2.76845	0.598759	3.59178	0.714677	4.28671	0.929959	5.58256	0.469794	2.81336	0.584608	3.49359	0.793857	4.75161	0.971928	5.80981
0.465225	2.7663	0.319486	1.90005	0.464716	2.76669	0.600273	3.58085	0.716195	4.27194	0.930939	5.55736	0.471922	2.81042	0.586234	3.4839	0.794877	4.73133	0.972871	5.78325
0.467518	2.76463	0.321524	1.90163	0.467008	2.76499	0.601792	3.57006	0.717718	4.25736	0.931923	5.53246	0.474049	2.80752	0.587864	3.47436	0.795901	4.7113	0.973819	5.75699
0.469819	2.76301	0.323561	1.90319	0.469307	2.76336	0.603315	3.55943	0.719245	4.24297	0.932911	5.50787	0.476176	2.80464	0.589501	3.46495	0.79693	4.69152	0.974771	5.73105
0.472128	2.76145	0.325598	1.90474	0.471614	2.76179	0.604842	3.54893	0.720777	4.22877	0.933905	5.48357	0.478301	2.80178	0.591142	3.45567	0.797964	4.67198	0.975727	5.70542
0.474443	2.75995	0.327635	1.90626	0.473927	2.76028	0.606374	3.53857	0.722313	4.21474	0.934902	5.45956	0.480426	2.79895	0.59279	3.44653	0.799003	4.65268	0.976687	5.68009
0.476765	2.75851	0.329672	1.90777	0.476248	2.75883	0.60791	3.52835	0.723854	4.20089	0.935904	5.43583	0.48255	2.79615	0.594442	3.43752	0.800046	4.63362	0.977652	5.65506
0.479093	2.75712	0.331708	1.90926	0.478574	2.75742	0.60945	3.51826	0.725399	4.18722	0.936911	5.41239	0.484673	2.79337	0.5961	3.42863	0.801094	4.61479	0.978621	5.63032
0.481427	2.75577	0.333745	1.91074	0.480907	2.75607	0.610994	3.50831	0.726949	4.17372	0.937922	5.38923	0.486796	2.79062	0.597764	3.41987	0.802147	4.59618	0.979593	5.60587
0.483766	2.75448	0.335781	1.9122	0.483246	2.75476	0.612542	3.49848	0.728503	4.16039	0.938937	5.36633	0.488917	2.78789	0.599432	3.41124	0.803205	4.5778	0.98057	5.5817
0.486112	2.75322	0.337817	1.91364	0.48559	2.7535	0.614095	3.48878	0.730061	4.14722	0.939957	5.34371	0.491037	2.78518	0.601107	3.40272	0.804267	4.55965	0.981552	5.55781
0.488462	2.75201	0.339853	1.91506	0.487939	2.75228	0.615651	3.47921	0.731624	4.13422	0.940982	5.32134	0.493157	2.7825	0.602786	3.39433	0.805334	4.5417	0.982537	5.53419
0.490818	2.75085	0.341889	1.91647	0.490293	2.7511	0.617212	3.46976	0.733191	4.12137	0.942011	5.29924	0.495275	2.77984	0.604471	3.38605	0.806406	4.52398	0.983526	5.51085
0.493178	2.74972	0.343924	1.91787	0.492652	2.74996	0.618777	3.46043	0.734762	4.10869	0.943044	5.27739	0.497393	2.7772	0.606161	3.37789	0.807482	4.50646	0.98452	5.48776
0.495543	2.74862	0.34596	1.91925	0.495016	2.74886	0.620346	3.45123	0.736337	4.09616	0.944082	5.2558	0.499509	2.77458	0.607856	3.36984	0.808563	4.48915	0.985517	5.46494
0.497912	2.74756	0.347995	1.92061	0.497384	2.7478	0.621918	3.44213	0.737917	4.08378	0.945124	5.23445	0.501625	2.77199	0.609557	3.3619	0.809648	4.47204	0.986519	5.44238
0.500285	2.74654	0.35003	1.92196	0.499756	2.74676	0.623495	3.43316	0.739501	4.07155	0.94617	5.21334	0.503739	2.76942	0.611262	3.35407	0.810738	4.45514	0.987525	5.42007
0.502662	2.74554	0.352065	1.92329	0.502133	2.74576	0.625075	3.42429	0.741089	4.05947	0.947221	5.19248	0.505853	2.76686	0.612973	3.34635	0.811833	4.43843	0.988534	5.39801
0.505043	2.74458	0.3541	1.92461	0.504513	2.74479	0.62666	3.41554	0.74268	4.04753	0.948276	5.17185	0.507965	2.76433	0.614689	3.33874	0.812932	4.42192	0.989548	5.37619
0.507427	2.74365	0.356134	1.92592	0.506896	2.74385	0.628248	3.40689	0.744276	4.03573	0.949335	5.15145	0.510076	2.76181	0.61641	3.33123	0.814036	4.40559	0.990566	5.35462
0.509815	2.74274	0.358168	1.92721	0.509283	2.74294	0.62984	3.39836	0.745876	4.02408	0.950399	5.13128	0.512186	2.75932	0.618136	3.32382	0.815145	4.38946	0.991588	5.33328
0.512206	2.74186	0.360202	1.92849	0.511674	2.74206	0.631436	3.38993	0.74748	4.01256	0.951467	5.11133	0.514295	2.75684	0.619867	3.31652	0.816258	4.37351	0.992614	5.31218
0.5146	2.74101	0.362236	1.92975	0.514067	2.7412	0.633036	3.3816	0.749088	4.00118	0.952539	5.09161	0.516403	2.75439	0.621603	3.30931	0.817376	4.35775	0.993643	5.2913
0.516997	2.74018	0.36427	1.931	0.516464	2.74036	0.63464	3.37338	0.7507	3.98994	0.953616	5.0721	0.51851	2.75195	0.623345	3.3022	0.818498	4.34216	0.994677	5.27066
0.519397	2.73937	0.366303	1.93223	0.518863	2.73955	0.636247	3.36526	0.752315	3.97882	0.954697	5.05281	0.520616	2.74953	0.625091	3.29519	0.819625	4.32675	0.995715	5.25024
0.5218	2.73859	0.368337	1.93346	0.521266	2.73876	0.637858	3.35723	0.753935	3.96783	0.955782	5.03374	0.52272	2.74712	0.626842	3.28827	0.820756	4.31152	0.996757	5.23004
0.524206	2.73782	0.37037	1.93467	0.52367	2.73799	0.639472	3.34931	0.755558	3.95697	0.956872	5.01487	0.524823	2.74474	0.628598	3.28144	0.821891	4.29646	0.997802	5.21005
0.526613	2.73708	0.372403	1.93587	0.526078	2.73724	0.64109	3.34148	0.757185	3.94624	0.957965	4.9962	0.526925	2.74237	0.630359	3.27471	0.823032	4.28156	0.998852	5.19028
0.529024	2.73636	0.374435	1.93705	0.528487	2.73652	0.642712	3.33374	0.758816	3.93563	0.959063	4.97774	0.529026	2.74002	0.632125	3.26806	0.824176	4.26684	0.999905	5.17072
0.531436	2.73565	0.376468	1.93822	0.530899	2.73581	0.644338	3.3261	0.76045	3.92514	0.960166	4.95948	0.531126	2.73768	0.633896	3.26151	0.825326	4.25228	1.00096	5.15137
0.53385	2.73496	0.3785	1.93938	0.533313	2.73511	0.645967	3.31855	0.762089	3.91477	0.961272	4.94141	0.533224	2.73536	0.635671	3.25504	0.826479	4.23788		
0.536267	2.73429	0.380532	1.94053	0.535729	2.73444	0.647599	3.31108	0.763731	3.90452	0.962383	4.92354	0.535321	2.73306	0.637452	3.24866	0.827637	4.22364		
0.538686	2.73364	0.382564	1.94167	0.538148	2.73378	0.649235	3.30371	0.765376	3.89438	0.963497	4.90586	0.537417	2.73077	0.639237	3.24236	0.8288	4.20956		
0.541106	2.733	0.384595	1.94279	0.540568	2.73314	0.650875	3.29643	0.767025	3.88436	0.964616	4.88837	0.539512	2.72849	0.641027	3.23614	0.829967	4.19563		
0.543528	2.73237	0.386627	1.9439	0.542989	2.73251	0.652518	3.28923	0.768678	3.87445	0.965739	4.87106	0.541605	2.72624	0.642821	3.23001	0.831138	4.18185		
0.545952	2.73177	0.388658	1.945	0.545413	2.7319	0.654165	3.28211	0.770335	3.86465	0.966867	4.85394	0.543697	2.72399	0.644621	3.22396	0.832314	4.16823		
0.548378	2.73117	0.390689	1.94609	0.547838	2.7313	0.655815	3.27508	0.771994	3.85495	0.967998	4.83699	0.545788	2.72176	0.646425	3.21799	0.833494	4.15475		
0.550805	2.73059	0.392719	1.94717	0.550265	2.73072	0.657468	3.26813	0.773658	3.84537	0.969133	4.82022	0.547878	2.71955	0.648233	3.21209	0.834679	4.14142		
0.553233	2.73002	0.39475	1.94824	0.552693	2.73014	0.659125	3.26126	0.775324	3.83589	0.970273	4.80363	0.549966	2.71734	0.650047	3.20628	0.835867	4.12824		
0.555663	2.72946	0.39678	1.9493	0.555123	2.72958	0.660785	3.25448	0.776995	3.82652	0.971417	4.78721	0.552053	2.71516	0.651865	3.20053	0.837061	4.1152		
0.558095	2.72891	0.39881	1.95034	0.557554	2.72903	0.662448	3.24777	0.778668	3.81724	0.972565	4.77096	0.554138	2.71298	0.653687	3.19487	0.838258	4.10229		
0.560527	2.72838	0.40084	1.95138	0.559986	2.72849	0.664115	3.24113	0.780345	3.80807	0.973716	4.75488	0.556223	2.71082	0.655514	3.18927	0.83946	4.08953		
0.562961	2.72785	0.402869	1.9524	0.562419	2.72797	0.665785	3.23458	0.782026	3.799	0.974872	4.73897	0.558306	2.70867	0.657346	3.18375	0.840667	4.0769		
0.565396	2.72734	0.404898	1.95341	0.564854	2.72745	0.667459	3.22809	0.78371	3.79002	0.976032	4.72321	0.560387	2.70654	0.659182	3.1783	0.841877	4.06441		
0.567832	2.72683	0.406928	1.95442	0.56729	2.72694	0.669136	3.22169	0.785397	3.78115	0.977196	4.70762	0.562467	2.70441	0.661022	3.17292	0.843092	4.05205		
0.570269	2.72634	0.408956	1.95541	0.569726	2.72645	0.670815	3.21535	0.787087	3.77236	0.978365	4.69219	0.564546	2.7023	0.662867	3.16761	0.844311	4.03982		
0.572707	2.72585	0.410985	1.9564	0.572164	2.72596	0.672499	3.20909	0.78878	3.76367	0.979537	4.67691	0.566624	2.70021	0.664716	3.16237	0.845535	4.02772		
0.575145	2.72537	0.413013	1.95737	0.574603	2.72548	0.674185	3.20289	0.790477	3.75508	0.980713	4.66179	0.5687	2.69812	0.66657	3.1572	0.846762	4.01574		
0.577585	2.7249	0.415041	1.95834	0.577042	2.72501	0.675875	3.19677	0.792177	3.74657	0.981893	4.64682	0.570774	2.69605	0.668428	3.15209	0.847995	4.00389		
0.580026	2.72444	0.417069	1.95929	0.579483	2.72455	0.677567	3.19072	0.79388	3.73815	0.983077	4.632	0.572848	2.69398	0.670291	3.14704	0.849231	3.99217		
0.582467	2.72399	0.419097	1.96024	0.581924	2.72409	0.679263	3.18473	0.795586	3.72982	0.984265	4.61733	0.57492	2.69193	0.672158	3.14206	0.850471	3.98057		
0.584909	2.72354	0.421124	1.96117	0.584366	2.72364	0.680962	3.17881	0.797296	3.72158	0.985457	4.6028	0.57699	2.68989	0.674029	3.13715	0.851716	3.96908		
0.587352	2.7231	0.423151	1.9621	0.586809	2.7232	0.682665	3.17296	0.799008	3.71343	0.986653	4.58842	0.579059	2.68786	0.675904	3.13229	0.852965	3.95772		
0.589795	2.72267	0.425178	1.96302	0.589252	2.72277	0.68437	3.16717	0.800724	3.70535	0.987853	4.57418	0.581127	2.68585	0.677784	3.1275	0.854218	3.94647		
0.592239	2.72225	0.427205	1.96392	0.591696	2.72234	0.686078	3.16144	0.802442	3.69737	0.989057	4.56009	0.583193	2.68384	0.679667	3.12277	0.855475	3.93534		
0.594684	2.72183	0.429231	1.96482	0.59414	2.72192	0.68779	3.15578	0.804164	3.68946	0.990265	4.54613	0.585258	2.68184	0.681555	3.11809	0.856737	3.92433		
0.597129	2.72141	0.431257	1.96572	0.596585	2.7215	0.689504	3.15018	0.805888	3.68163	0.991477	4.5323	0.587322	2.67986	0.683447	3.11348	0.858003	3.91342		
0.599575	2.721	0.433283	1.9666	0.599031	2.72109	0.691222	3.14464	0.807616	3.67389	0.992692	4.51861	0.589384	2.67788	0.685343	3.10892	0.859272	3.90263		
0.602021	2.7206	0.435309	1.96747	0.601477	2.72069	0.692943	3.13917	0.809346	3.66622	0.993912	4.50506	0.591444	2.67592	0.687244	3.10442	0.860546	3.89195		
0.604467	2.7202	0.437334	1.96834	0.603923	2.72029	0.694666	3.13375	0.81108	3.65863	0.995135	4.49164	0.593504	2.67396	0.689148	3.09998	0.861825	3.88137		
0.606914	2.71981	0.439359	1.96919	0.60637	2.7199	0.696393	3.12839	0.812816	3.65112	0.996363	4.47834	0.595562	2.67202	0.691056	3.09559	0.863107	3.87091		
0.609361	2.71942	0.441384	1.97004	0.608817	2.71951	0.698123	3.12309	0.814555	3.64368	0.997594	4.46518	0.597618	2.67008	0.692969	3.09125	0.864393	3.86054		
0.611808	2.71904	0.443408	1.97088	0.611264	2.71912	0.699855	3.11784	0.816297	3.63632	0.998829	4.45214	0.599673	2.66816	0.694885	3.08697	0.865684	3.85029		
0.614256	2.71866	0.445433	1.97172	0.613712	2.71874	0.701591	3.11266	0.818042	3.62903	1.00007	4.43923	0.601727	2.66624	0.696805	3.08274	0.866978	3.84013		
0.616704	2.71828	0.447457	1.97254	0.616159	2.71837	0.70333	3.10752	0.819789	3.62181			0.603779	2.66434	0.698729	3.07856	0.868277	3.83008		
0.619152	2.71791	0.449481	1.97336	0.618607	2.718	0.705071	3.10245	0.82154	3.61467			0.60583	2.66244	0.700658	3.07444	0.86958	3.82012		
0.6216	2.71755	0.451504	1.97417	0.621056	2.71763	0.706816	3.09743	0.823293	3.60759			0.607879	2.66055	0.702589	3.07036	0.870887	3.81027		
0.624049	2.71718	0.453528	1.97497	0.623504	2.71726	0.708563	3.09246	0.825049	3.60059			0.609927	2.65867	0.704525	3.06634	0.872198	3.80051		
0.626497	2.71682	0.455551	1.97576	0.625952	2.7169	0.710314	3.08754	0.826807	3.59365			0.611973	2.65681	0.706465	3.06236	0.873513	3.79085		
0.628946	2.71646	0.457574	1.97655	0.628401	2.71654	0.712067	3.08268	0.828568	3.58678			0.614019	2.65495	0.708408	3.05843	0.874832	3.78129		
0.631394	2.71611	0.459596	1.97733	0.630849	2.71619	0.713823	3.07787	0.830332	3.57997			0.616062	2.65309	0.710355	3.05455	0.876155	3.77182		
0.633843	2.71576	0.461618	1.9781	0.633298	2.71584	0.715582	3.07311	0.832099	3.57324			0.618105	2.65125	0.712306	3.05072	0.877482	3.76244		
0.636291	2.71541	0.46364	1.97886	0.635746	2.71549	0.717344	3.0684	0.833868	3.56656			0.620146	2.64942	0.71426	3.04693	0.878813	3.75315		
0.63874	2.71506	0.465662	1.97962	0.638195	2.71514	0.719109	3.06374	0.835639	3.55996			0.622185	2.64759	0.716218	3.04319	0.880148	3.74396		
0.641188	2.71472	0.467684	1.98037	0.640643	2.7148	0.720877	3.05912	0.837413	3.55341			0.624223	2.64578	0.71818	3.03949	0.881487	3.73485		
0.643636	2.71438	0.469705	1.98111	0.643092	2.71445	0.722648	3.05456	0.83919	3.54693			0.62626	2.64397	0.720145	3.03584	0.88283	3.72584		
0.646084	2.71404	0.471726	1.98185	0.64554	2.71411	0.724421	3.05005	0.840969	3.5405			0.628296	2.64217	0.722114	3.03223	0.884177	3.71691		
0.648532	2.7137	0.473747	1.98258	0.647988	2.71377	0.726198	3.04558	0.842751	3.53414			0.63033	2.64038	0.724086	3.02866	0.885528	3.70806		
0.65098	2.71336	0.475767	1.9833	0.650435	2.71344	0.727977	3.04116	0.844535	3.52784			0.632362	2.63859	0.726062	3.02514	0.886883	3.6993		
0.653427	2.71303	0.477788	1.98402	0.652883	2.7131	0.729759	3.03678	0.846322	3.5216			0.634393	2.63682	0.728041	3.02165	0.888242	3.69063		
0.655874	2.7127	0.479808	1.98473	0.65533	2.71277	0.731544	3.03245	0.848111	3.51542			0.636423	2.63505	0.730024	3.01821	0.889605	3.68204		
0.658321	2.71236	0.481827	1.98543	0.657777	2.71244	0.733332	3.02817	0.849903	3.50929			0.638452	2.63329	0.73201	3.01481	0.890972	3.67353		
0.660768	2.71203	0.483847	1.98613	0.660224	2.71211	0.735123	3.02393	0.851697	3.50322			0.640479	2.63154	0.734	3.01145	0.892343	3.6651		
0.663214	2.7117	0.485866	1.98682	0.66267	2.71178	0.736916	3.01973	0.853493	3.49721			0.642505	2.6298	0.735992	3.00812	0.893717	3.65675		
0.66566	2.71138	0.487885	1.9875	0.665116	2.71145	0.738713	3.01558	0.855292	3.49125			0.64453	2.62806	0.737988	3.00484	0.895096	3.64849		
0.668105	2.71105	0.489903	1.98818	0.667561	2.71112	0.740512	3.01147	0.857093	3.48534			0.646553	2.62634	0.739988	3.00159	0.896478	3.6403		
0.67055	2.71072	0.491922	1.98885	0.670006	2.71079	0.742314	3.00741	0.858896	3.47949			0.648575	2.62462	0.74199	2.99838	0.897864	3.63218		
0.672995	2.71039	0.49394	1.98951	0.672451	2.71047	0.744119	3.00338	0.860701	3.4737			0.650595	2.6229	0.743996	2.99521	0.899255	3.62415		
0.675438	2.71007	0.495958	1.99017	0.674895	2.71014	0.745927	2.9994	0.862509	3.46795			0.652615	2.6212	0.746005	2.99208	0.900649	3.61619		
0.677882	2.70974	0.497976	1.99083	0.677338	2.70981	0.747737	2.99546	0.864319	3.46226			0.654633	2.6195	0.748017	2.98898	0.902046	3.6083		
0.680325	2.70942	0.499993	1.99147	0.679781	2.70949	0.749551	2.99156	0.866131	3.45662			0.656649	2.61781	0.750032	2.98591	0.903448	3.60049		
0.682767	2.70909	0.50201	1.99211	0.682224	2.70916	0.751367	2.9877	0.867946	3.45103			0.658665	2.61613	0.75205	2.98288	0.904854	3.59275		
0.685208	2.70876	0.504027	1.99275	0.684665	2.70884	0.753186	2.98388	0.869763	3.44549			0.660679	2.61445	0.754071	2.97989	0.906263	3.58509		
0.687649	2.70844	0.506044	1.99338	0.687106	2.70851	0.755008	2.9801	0.871581	3.44			0.662692	2.61279	0.756096	2.97693	0.907676	3.57749		
0.690089	2.70811	0.50806	1.994	0.689547	2.70818	0.756833	2.97635	0.873402	3.43455			0.664704	2.61113	0.758123	2.974	0.909093	3.56997		
0.692529	2.70778	0.510076	1.99462	0.691986	2.70786	0.758661	2.97265	0.875226	3.42916			0.666714	2.60947	0.760153	2.9711	0.910514	3.56251		
0.694968	2.70746	0.512092	1.99524	0.694425	2.70753	0.760492	2.96899	0.877051	3.42381			0.668724	2.60783	0.762186	2.96824	0.911939	3.55513		
0.697405	2.70713	0.514107	1.99584	0.696863	2.7072	0.762326	2.96536	0.878878	3.41851			0.670732	2.60619	0.764222	2.96541	0.913367	3.54781		
0.699842	2.7068	0.516122	1.99645	0.6993	2.70687	0.764163	2.96177	0.880707	3.41326			0.672738	2.60456	0.76626	2.96261	0.9148	3.54056		
0.702279	2.70647	0.518138	1.99704	0.701737	2.70654	0.766002	2.95822	0.882539	3.40805			0.674744	2.60293	0.768302	2.95984	0.916236	3.53337		
0.704714	2.70613	0.520152	1.99764	0.704172	2.70621	0.767845	2.9547	0.884372	3.40289			0.676748	2.60132	0.770346	2.9571	0.917675	3.52626		
0.707148	2.7058	0.522167	1.99822	0.706607	2.70588	0.76969	2.95122	0.886208	3.39777			0.678752	2.59971	0.772393	2.95439	0.919119	3.51921		
0.709581	2.70547	0.524181	1.9988	0.70904	2.70554	0.771539	2.94778	0.888045	3.39269			0.680754	2.5981	0.774443	2.95172	0.920566	3.51222		
0.712014	2.70513	0.526195	1.99938	0.711473	2.70521	0.77339	2.94437	0.889885	3.38766			0.682755	2.59651	0.776495	2.94907	0.922017	3.50529		
0.714445	2.70479	0.528209	1.99995	0.713904	2.70487	0.775245	2.941	0.891726	3.38268			0.684754	2.59492	0.77855	2.94644	0.923472	3.49843		
0.716875	2.70445	0.530222	2.00052	0.716334	2.70453	0.777102	2.93766	0.893569	3.37773			0.686753	2.59334	0.780608	2.94385	0.92493	3.49163		
0.719304	2.70411	0.532235	2.00108	0.718764	2.70419	0.778963	2.93436	0.895415	3.37283			0.688751	2.59176	0.782668	2.94129	0.926393	3.4849		
0.721732	2.70377	0.534248	2.00164	0.721192	2.70385	0.780826	2.93109	0.897262	3.36796			0.690747	2.59019	0.784731	2.93875	0.927859	3.47822		
0.724158	2.70342	0.536261	2.00219	0.723619	2.7035	0.782693	2.92786	0.899111	3.36314			0.692742	2.58863	0.786796	2.93624	0.929328	3.4716		
0.726583	2.70308	0.538273	2.00273	0.726044	2.70315	0.784562	2.92466	0.900962	3.35836			0.694737	2.58708	0.788863	2.93375	0.930802	3.46505		
0.729007	2.70273	0.540285	2.00328	0.728468	2.7028	0.786435	2.9215	0.902814	3.35362			0.69673	2.58553	0.790933	2.93129	0.932279	3.45855		
0.73143	2.70237	0.542297	2.00381	0.730891	2.70245	0.788311	2.91836	0.904669	3.34892			0.698722	2.58399	0.793006	2.92886	0.933759	3.45211		
0.733851	2.70202	0.544309	2.00435	0.733313	2.7021	0.79019	2.91527	0.906525	3.34426			0.700713	2.58245	0.79508	2.92645	0.935244	3.44573		
0.736271	2.70166	0.54632	2.00488	0.735733	2.70174	0.792073	2.9122	0.908383	3.33963			0.702703	2.58092	0.797157	2.92407	0.936732	3.43941		
0.738689	2.7013	0.548331	2.0054	0.738152	2.70138	0.793958	2.90917	0.910243	3.33505			0.704692	2.5794	0.799237	2.92171	0.938223	3.43314		
0.741106	2.70093	0.550342	2.00592	0.740569	2.70101	0.795847	2.90617	0.912105	3.3305			0.70668	2.57789	0.801319	2.91938	0.939719	3.42693		
0.743521	2.70057	0.552353	2.00643	0.742984	2.70065	0.797739	2.9032	0.913968	3.32599			0.708667	2.57638	0.803402	2.91707	0.941218	3.42077		
0.745935	2.70019	0.554363	2.00694	0.745398	2.70028	0.799635	2.90026	0.915834	3.32152			0.710653	2.57488	0.805488	2.91478	0.942721	3.41467		
0.748347	2.69982	0.556373	2.00745	0.74781	2.6999	0.801534	2.89736	0.9177	3.31708			0.712638	2.57338	0.807577	2.91252	0.944227	3.40862		
0.750757	2.69944	0.558383	2.00795	0.750221	2.69953	0.803436	2.89449	0.919569	3.31268			0.714622	2.57189	0.809667	2.91028	0.945737	3.40263		
0.753165	2.69906	0.560393	2.00845	0.752629	2.69914	0.805341	2.89165	0.921439	3.30831			0.716605	2.57041	0.811759	2.90806	0.94725	3.39669		
0.755571	2.69867	0.562402	2.00894	0.755036	2.69876	0.80725	2.88884	0.923311	3.30398			0.718587	2.56894	0.813854	2.90587	0.948768	3.3908		
0.757976	2.69828	0.564411	2.00943	0.757441	2.69837	0.809163	2.88606	0.925185	3.29968			0.720568	2.56747	0.81595	2.90369	0.950289	3.38497		
0.760379	2.69789	0.56642	2.00991	0.759844	2.69797	0.811079	2.88331	0.92706	3.29542			0.722549	2.56601	0.818049	2.90154	0.951813	3.37918		
0.762779	2.69749	0.568428	2.01039	0.762245	2.69758	0.812998	2.88059	0.928937	3.29119			0.724528	2.56455	0.820149	2.89941	0.953341	3.37345		
0.765178	2.69708	0.570436	2.01087	0.764644	2.69717	0.814921	2.87791	0.930815	3.287			0.726507	2.5631	0.822251	2.8973	0.954873	3.36777		
0.767574	2.69667	0.572444	2.01134	0.767041	2.69676	0.816848	2.87525	0.932695	3.28283			0.728484	2.56166	0.824355	2.89521	0.956408	3.36213		
0.769968	2.69626	0.574452	2.01181	0.769436	2.69635	0.818778	2.87262	0.934577	3.2787			0.730461	2.56022	0.826461	2.89314	0.957947	3.35655		
0.77236	2.69584	0.57646	2.01228	0.771828	2.69593	0.820713	2.87003	0.93646	3.27461			0.732437	2.55879	0.828569	2.89109	0.959489	3.35101		
0.77475	2.69541	0.578467	2.01274	0.774218	2.69551	0.82265	2.86746	0.938344	3.27054			0.734412	2.55737	0.830679	2.88905	0.961035	3.34553		
0.777137	2.69498	0.580474	2.01319	0.776606	2.69508	0.824592	2.86493	0.94023	3.26651			0.736386	2.55595	0.83279	2.88704	0.962585	3.34009		
0.779522	2.69455	0.58248	2.01365	0.778992	2.69465	0.826538	2.86242	0.942118	3.26251			0.73836	2.55454	0.834903	2.88505	0.964138	3.3347		
0.781904	2.69411	0.584487	2.0141	0.781374	2.6942	0.828487	2.85994	0.944007	3.25853			0.740332	2.55313	0.837018	2.88308	0.965695	3.32935		
0.784284	2.69366	0.586493	2.01454	0.783755	2.69376	0.830441	2.8575	0.945898	3.25459			0.742304	2.55173	0.839135	2.88112	0.967255	3.32405		
0.786661	2.6932	0.588499	2.01498	0.786132	2.69331	0.832398	2.85508	0.94779	3.25068			0.744275	2.55034	0.841253	2.87918	0.968819	3.3188		
0.789035	2.69274	0.590505	2.01542	0.788507	2.69285	0.83436	2.85269	0.949683	3.2468			0.746245	2.54895	0.843372	2.87726	0.970386	3.31359		
0.791407	2.69228	0.59251	2.01586	0.79088	2.69238	0.836325	2.85033	0.951578	3.24295			0.748215	2.54757	0.845494	2.87536	0.971957	3.30843		
0.793776	2.6918	0.594515	2.01629	0.793249	2.69191	0.838295	2.848	0.953475	3.23913			0.750184	2.5462	0.847616	2.87347	0.973531	3.30332		
0.796141	2.69132	0.59652	2.01671	0.795615	2.69143	0.840269	2.8457	0.955372	3.23533			0.752152	2.54483	0.84974	2.8716	0.975109	3.29824		
0.798504	2.69084	0.598525	2.01714	0.797979	2.69094	0.842248	2.84343	0.957271	3.23157			0.754119	2.54347	0.851866	2.86975	0.976691	3.29321		
0.800864	2.69034	0.600529	2.01756	0.800339	2.69045	0.84423	2.84119	0.959172	3.22783			0.756085	2.54211	0.853993	2.86792	0.978276	3.28823		
0.80322	2.68984	0.602533	2.01797	0.802697	2.68995	0.846218	2.83897	0.961074	3.22412			0.758051	2.54076	0.856122	2.8661	0.979864	3.28329		
0.805574	2.68933	0.604537	2.01839	0.805051	2.68944	0.848209	2.83679	0.962977	3.22044			0.760017	2.53942	0.858252	2.86429	0.981456	3.27839		
0.807924	2.68881	0.606541	2.0188	0.807401	2.68893	0.850205	2.83463	0.964881	3.21679			0.761981	2.53808	0.860383	2.8625	0.983052	3.27353		
0.810271	2.68829	0.608544	2.0192	0.809749	2.6884	0.852206	2.8325	0.966787	3.21316			0.763945	2.53675	0.862515	2.86073	0.984651	3.26871		
0.812614	2.68775	0.610548	2.01961	0.812093	2.68787	0.854211	2.8304	0.968694	3.20956			0.765908	2.53543	0.864649	2.85897	0.986253	3.26394		
0.814954	2.68721	0.61255	2.02001	0.814434	2.68733	0.856221	2.82833	0.970602	3.20599			0.767871	2.53411	0.866784	2.85723	0.98786	3.2592		
0.81729	2.68666	0.614553	2.0204	0.816771	2.68678	0.858236	2.82629	0.972512	3.20244			0.769833	2.5328	0.86892	2.8555	0.989469	3.25451		
0.819622	2.6861	0.616555	2.0208	0.819104	2.68622	0.860256	2.82427	0.974423	3.19892			0.771794	2.53149	0.871057	2.85379	0.991082	3.24985		
0.821951	2.68553	0.618558	2.02119	0.821434	2.68566	0.86228	2.82229	0.976335	3.19542			0.773755	2.53019	0.873196	2.85209	0.992699	3.24524		
0.824276	2.68495	0.620559	2.02157	0.823759	2.68508	0.86431	2.82033	0.978248	3.19195			0.775715	2.52889	0.875335	2.8504	0.994319	3.24067		
0.826597	2.68437	0.622561	2.02196	0.826081	2.6845	0.866344	2.8184	0.980163	3.1885			0.777674	2.5276	0.877476	2.84873	0.995942	3.23613		
0.828914	2.68377	0.624562	2.02234	0.828399	2.68391	0.868384	2.8165	0.982079	3.18508			0.779634	2.52632	0.879618	2.84707	0.997569	3.23163		
0.831228	2.68317	0.626564	2.02271	0.830713	2.6833	0.870429	2.81463	0.983995	3.18169			0.781592	2.52504	0.88176	2.84543	0.9992	3.22718		
0.833537	2.68255	0.628565	2.02309	0.833023	2.68269	0.872479	2.81278	0.985914	3.17831			0.78355	2.52377	0.883904	2.84379	1.00083	3.22276		
0.835842	2.68193	0.630565	2.02346	0.835329	2.68207	0.874534	2.81096	0.987833	3.17496			0.785507	2.52251	0.886049	2.84217				
0.838142	2.6813	0.632566	2.02383	0.837631	2.68144	0.876594	2.80917	0.989753	3.17164			0.787464	2.52125	0.888194	2.84057				
0.840439	2.68065	0.634566	2.02419	0.839928	2.6808	0.87866	2.80741	0.991675	3.16834			0.78942	2.51999	0.890341	2.83897				
0.842731	2.68	0.636566	2.02456	0.842221	2.68015	0.880731	2.80567	0.993597	3.16506			0.791376	2.51875	0.892488	2.83739				
0.845018	2.67934	0.638565	2.02492	0.84451	2.67948	0.882808	2.80397	0.995521	3.1618			0.793331	2.5175	0.894636	2.83582				
0.847301	2.67866	0.640565	2.02527	0.846794	2.67881	0.88489	2.80229	0.997446	3.15857			0.795286	2.51627	0.896785	2.83426				
0.84958	2.67798	0.642564	2.02563	0.849073	2.67813	0.886977	2.80064	0.999372	3.15536			0.797241	2.51504	0.898935	2.83271				
0.851854	2.67728	0.644563	2.02598	0.851348	2.67744	0.889071	2.79901	1.0013	3.15217			0.799194	2.51381	0.901085	2.83118				
0.854123	2.67658	0.646561	2.02633	0.853619	2.67674	0.891169	2.79741					0.801148	2.51259	0.903236	2.82965				
0.856388	2.67586	0.64856	2.02667	0.855885	2.67602	0.893274	2.79584					0.803101	2.51138	0.905388	2.82814				
0.858648	2.67514	0.650558	2.02701	0.858146	2.6753	0.895384	2.7943					0.805053	2.51017	0.907541	2.82664				
0.860903	2.6744	0.652556	2.02735	0.860402	2.67456	0.8975	2.79278					0.807005	2.50897	0.909694	2.82515				
0.863154	2.67365	0.654553	2.02769	0.862653	2.67382	0.899622	2.79129					0.808957	2.50777	0.911847	2.82366				
0.865399	2.67289	0.656551	2.02802	0.8649	2.67306	0.901749	2.78983					0.810908	2.50658	0.914002	2.82219				
0.86764	2.67212	0.658548	2.02836	0.867142	2.6723	0.903882	2.78839					0.812859	2.5054	0.916156	2.82073				
0.869876	2.67135	0.660545	2.02868	0.869379	2.67152	0.906021	2.78698					0.81481	2.50422	0.918312	2.81928				
0.872107	2.67056	0.662542	2.02901	0.871611	2.67073	0.908166	2.78559					0.81676	2.50305	0.920467	2.81784				
0.874333	2.66975	0.664538	2.02934	0.873838	2.66993	0.910317	2.78423					0.81871	2.50188	0.922624	2.81641				
0.876554	2.66894	0.666534	2.02966	0.87606	2.66913	0.912474	2.7829					0.820659	2.50071	0.92478	2.81498				
0.87877	2.66812	0.66853	2.02998	0.878277	2.66831	0.914636	2.78159					0.822608	2.49956	0.926937	2.81357				
0.880981	2.66729	0.670526	2.03029	0.88049	2.66748	0.916804	2.78031					0.824557	2.49841	0.929095	2.81216				
0.883187	2.66645	0.672521	2.0306	0.882697	2.66664	0.918978	2.77905					0.826505	2.49726	0.931252	2.81077				
0.885389	2.6656	0.674517	2.03092	0.8849	2.66579	0.921158	2.77781					0.828453	2.49612	0.933411	2.80938				
0.887585	2.66474	0.676512	2.03122	0.887097	2.66493	0.923344	2.7766					0.830401	2.49498	0.935569	2.808				
0.889777	2.66386	0.678506	2.03153	0.88929	2.66406	0.925535	2.77542					0.832348	2.49385	0.937727	2.80663				
0.891963	2.66298	0.680501	2.03183	0.891477	2.66318	0.927732	2.77425					0.834295	2.49273	0.939886	2.80527				
0.894145	2.66209	0.682495	2.03214	0.89366	2.66229	0.929935	2.77311					0.836242	2.49161	0.942045	2.80392				
0.896322	2.66119	0.684489	2.03244	0.895838	2.66139	0.932143	2.772					0.838189	2.49049	0.944204	2.80257				
0.898494	2.66028	0.686483	2.03273	0.898011	2.66048	0.934357	2.77091					0.840135	2.48939	0.946364	2.80124				
0.900661	2.65936	0.688477	2.03303	0.90018	2.65957	0.936577	2.76983					0.842081	2.48828	0.948523	2.79991				
0.902824	2.65843	0.69047	2.03332	0.902343	2.65864	0.938802	2.76879					0.844027	2.48718	0.950682	2.79859				
0.904982	2.6575	0.692463	2.03361	0.904502	2.65771	0.941033	2.76776					0.845972	2.48609	0.952842	2.79727				
0.907135	2.65655	0.694456	2.0339	0.906657	2.65676	0.943269	2.76676					0.847917	2.485	0.955002	2.79596				
0.909284	2.6556	0.696449	2.03418	0.908806	2.65581	0.94551	2.76577					0.849862	2.48392	0.957161	2.79466				
0.911428	2.65464	0.698441	2.03446	0.910952	2.65485	0.947757	2.76481					0.851807	2.48285	0.959321	2.79337				
0.913568	2.65367	0.700433	2.03474	0.913092	2.65389	0.950009	2.76387					0.853752	2.48177	0.96148	2.79208				
0.915703	2.65269	0.702425	2.03502	0.915229	2.65291	0.952266	2.76294					0.855696	2.48071	0.96364	2.7908				
0.917834	2.65171	0.704417	2.0353	0.917361	2.65193	0.954529	2.76204					0.85764	2.47965	0.965799	2.78953				
0.919961	2.65072	0.706408	2.03557	0.919488	2.65094	0.956796	2.76116					0.859584	2.47859	0.967958	2.78826				
0.922084	2.64972	0.708399	2.03585	0.921612	2.64994	0.959068	2.76029					0.861528	2.47754	0.970118	2.787				
0.924202	2.64872	0.71039	2.03612	0.923731	2.64894	0.961345	2.75945					0.863471	2.47649	0.972277	2.78575				
0.926316	2.64771	0.712381	2.03638	0.925846	2.64793	0.963627	2.75862					0.865415	2.47545	0.974435	2.7845				
0.928427	2.64669	0.714372	2.03665	0.927957	2.64692	0.965913	2.75781					0.867358	2.47442	0.976594	2.78326				
0.930533	2.64567	0.716362	2.03691	0.930065	2.6459	0.968205	2.75702					0.869301	2.47338	0.978752	2.78202				
0.932635	2.64464	0.718352	2.03717	0.932168	2.64487	0.9705	2.75624					0.871244	2.47236	0.98091	2.78079				
0.934734	2.64361	0.720342	2.03743	0.934268	2.64384	0.9728	2.75548					0.873186	2.47134	0.983068	2.77957				
0.936829	2.64257	0.722331	2.03769	0.936364	2.6428	0.975105	2.75474					0.875129	2.47032	0.985225	2.77835				
0.938921	2.64153	0.724321	2.03795	0.938456	2.64176	0.977414	2.75401					0.877072	2.46931	0.987382	2.77713				
0.941009	2.64048	0.72631	2.0382	0.940544	2.64071	0.979727	2.7533					0.879014	2.4683	0.989539	2.77593				
0.943093	2.63943	0.728299	2.03845	0.94263	2.63966	0.982044	2.75261					0.880956	2.4673	0.991695	2.77472				
0.945174	2.63837	0.730287	2.0387	0.944712	2.63861	0.984365	2.75193					0.882898	2.46631	0.993851	2.77353				
0.947252	2.63731	0.732276	2.03895	0.94679	2.63755	0.98669	2.75126					0.88484	2.46531	0.996007	2.77233				
0.949327	2.63625	0.734264	2.0392	0.948865	2.63649	0.989019	2.75061					0.886782	2.46433	0.998162	2.77114				
0.951398	2.63518	0.736252	2.03944	0.950937	2.63542	0.991351	2.74997					0.888724	2.46335	1.00032	2.76996				
0.953466	2.63412	0.73824	2.03968	0.953006	2.63435	0.993687	2.74934					0.890665	2.46237						
0.955532	2.63304	0.740227	2.03992	0.955072	2.63328	0.996027	2.74873					0.892607	2.4614						
0.957594	2.63197	0.742215	2.04016	0.957136	2.63221	0.99837	2.74813					0.894548	2.46043						
0.959654	2.63089	0.744202	2.0404	0.959196	2.63113	1.00072	2.74755					0.89649	2.45947						
0.961711	2.62982	0.746189	2.04063	0.961253	2.63006							0.898431	2.45851						
0.963765	2.62874	0.748175	2.04087	0.963308	2.62898							0.900372	2.45755						
0.965816	2.62765	0.750162	2.0411	0.96536	2.6279							0.902313	2.4566						
0.967865	2.62657	0.752148	2.04133	0.96741	2.62681							0.904254	2.45566						
0.969912	2.62549	0.754134	2.04155	0.969457	2.62573							0.906196	2.45472						
0.971956	2.6244	0.75612	2.04178	0.971501	2.62464							0.908137	2.45379						
0.973998	2.62331	0.758105	2.042	0.973544	2.62356							0.910078	2.45286						
0.976037	2.62223	0.76009	2.04223	0.975584	2.62247							0.912018	2.45193						
0.978075	2.62114	0.762076	2.04245	0.977622	2.62138							0.913959	2.45101						
0.98011	2.62005	0.76406	2.04267	0.979657	2.62029							0.9159	2.45009						
0.982143	2.61896	0.766045	2.04288	0.981691	2.61921							0.917841	2.44918						
0.984174	2.61788	0.768029	2.0431	0.983722	2.61812							0.919782	2.44827						
0.986203	2.61679	0.770014	2.04331	0.985752	2.61703							0.921723	2.44737						
0.98823	2.6157	0.771998	2.04352	0.98778	2.61594							0.923664	2.44647						
0.990256	2.61461	0.773981	2.04374	0.989806	2.61486							0.925604	2.44557						
0.99228	2.61353	0.775965	2.04394	0.99183	2.61377							0.927545	2.44468						
0.994301	2.61244	0.777948	2.04415	0.993852	2.61268							0.929486	2.4438						
0.996322	2.61136	0.779931	2.04436	0.995872	2.6116							0.931427	2.44292						
0.99834	2.61028	0.781914	2.04456	0.997891	2.61052							0.933368	2.44204						
1.00036	2.60919	0.783897	2.04477	0.999909	2.60943							0.935308	2.44117						
		0.785879	2.04497	1.00192	2.60835							0.937249	2.4403						
		0.787862	2.04517									0.93919	2.43943						
		0.789844	2.04536									0.941131	2.43857						
		0.791826	2.04556									0.943072	2.43772						
		0.793807	2.04576									0.945013	2.43687						
		0.795788	2.04595									0.946954	2.43602						
		0.79777	2.04614									0.948895	2.43518						
		0.799751	2.04633									0.950836	2.43434						
		0.801731	2.04652									0.952777	2.4335						
		0.803712	2.04671									0.954719	2.43267						
		0.805692	2.0469									0.95666	2.43185						
		0.807672	2.04708									0.958601	2.43102						
		0.809652	2.04727									0.960543	2.4302						
		0.811632	2.04745									0.962484	2.42939						
		0.813612	2.04763									0.964426	2.42858						
		0.815591	2.04781									0.966367	2.42777						
		0.81757	2.04799									0.968309	2.42697						
		0.819549	2.04816									0.970251	2.42617						
		0.821527	2.04834									0.972193	2.42538						
		0.823506	2.04851									0.974135	2.42459						
		0.825484	2.04869									0.976077	2.4238						
		0.827462	2.04886									0.978019	2.42302						
		0.82944	2.04903									0.979961	2.42224						
		0.831418	2.0492									0.981903	2.42146						
		0.833395	2.04937									0.983846	2.42069						
		0.835372	2.04953									0.985788	2.41992						
		0.837349	2.0497									0.987731	2.41916						
		0.839326	2.04986									0.989674	2.4184						
		0.841303	2.05002									0.991617	2.41764						
		0.843279	2.05019									0.99356	2.41689						
		0.845256	2.05035									0.995503	2.41614						
		0.847232	2.05051									0.997446	2.41539						
		0.849208	2.05066									0.999389	2.41465						
		0.851183	2.05082									1.00133	2.41391						
		0.853159	2.05098																
		0.855134	2.05113																
		0.857109	2.05128																
		0.859084	2.05144																
		0.861058	2.05159																
		0.863033	2.05174																
		0.865007	2.05188																
		0.866981	2.05203																
		0.868955	2.05218																
		0.870929	2.05232																
		0.872902	2.05247																
		0.874876	2.05261																
		0.876849	2.05275																
		0.878822	2.05289																
		0.880794	2.05303																
		0.882767	2.05317																
		0.884739	2.05331																
		0.886711	2.05345																
		0.888683	2.05358																
		0.890655	2.05372																
		0.892627	2.05385																
		0.894598	2.05399																
		0.896569	2.05412																
		0.89854	2.05425																
		0.900511	2.05438																
		0.902482	2.05451																
		0.904452	2.05463																
		0.906423	2.05476																
		0.908393	2.05489																
		0.910363	2.05501																
		0.912332	2.05514																
		0.914302	2.05526																
		0.916271	2.05538																
		0.918241	2.0555																
		0.92021	2.05562																
		0.922178	2.05574																
		0.924147	2.05586																
		0.926116	2.05598																
		0.928084	2.0561																
		0.930052	2.05621																
		0.93202	2.05633																
		0.933988	2.05644																
		0.935955	2.05656																
		0.937923	2.05667																
		0.93989	2.05678																
		0.941857	2.05689																
		0.943824	2.057																
		0.945791	2.05711																
		0.947757	2.05722																
		0.949724	2.05733																
		0.95169	2.05743																
		0.953656	2.05754																
		0.955622	2.05764																
		0.957588	2.05775																
		0.959553	2.05785																
		0.961519	2.05796																
		0.963484	2.05806																
		0.965449	2.05816																
		0.967414	2.05826																
		0.969378	2.05836																
		0.971343	2.05846																
		0.973307	2.05856																
		0.975272	2.05866																
		0.977236	2.05875																
		0.979199	2.05885																
		0.981163	2.05894																
		0.983127	2.05904																
		0.98509	2.05913																
		0.987053	2.05923																
		0.989016	2.05932																
		0.990979	2.05941																
		0.992942	2.0595																
		0.994905	2.05959																
		0.996867	2.05968																
		0.998829	2.05977																
		1.00079	2.05986																
