Sym0		Asym0		Sym1		Sym2		Sym3		Sym4		Asym1		Asym2		Asym3		Asym4	
425  Points		528  Points		425  Points		405  Points		352  Points		253  Points		456  Points		400  Points		345  Points		216  Points	
Freq (MHz)	Vph (m/ms)	Freq (MHz)	Vph (m/ms)	Freq (MHz)	Vph (m/ms)	Freq (MHz)	Vph (m/ms)	Freq (MHz)	Vph (m/ms)	Freq (MHz)	Vph (m/ms)	Freq (MHz)	Vph (m/ms)	Freq (MHz)	Vph (m/ms)	Freq (MHz)	Vph (m/ms)	Freq (MHz)	Vph (m/ms)
0.279509	678.788	0.000132872	0.0711214	0.27951	533.457	0.441215	2274.39	0.559017	2335.56	0.838526	14502.2	0.139763	292.877	0.419267	513.31	0.698772	1276.88	0.882432	1137.96
0.279519	208.057	0.0002982	0.106502	0.279521	192.024	0.441224	391.959	0.559026	477.373	0.838529	847.414	0.139831	99.2481	0.419283	239.798	0.698779	472.484	0.88244	516.911
0.279539	122.865	0.000528701	0.141681	0.279542	117.093	0.441244	214.468	0.559045	265.865	0.838538	436.463	0.139965	59.799	0.419311	156.449	0.698791	289.878	0.882453	334.41
0.279569	87.1784	0.000823903	0.176677	0.279573	84.2331	0.441275	147.629	0.559076	184.244	0.838553	293.929	0.140166	42.8342	0.41935	116.103	0.698809	209.078	0.882473	247.154
0.27961	67.5621	0.001183	0.211437	0.279615	65.7803	0.441319	112.559	0.559117	140.973	0.838573	221.575	0.140433	33.4047	0.4194	92.3063	0.698833	163.507	0.882498	196.014
0.27966	55.157	0.00160491	0.245898	0.279667	53.9644	0.441373	90.9586	0.55917	114.167	0.8386	177.809	0.140764	27.4091	0.419462	76.6104	0.698863	134.249	0.882529	162.411
0.279721	46.605	0.00208858	0.28003	0.279729	45.7512	0.44144	76.3187	0.559233	95.9312	0.838632	148.483	0.14116	23.2655	0.419536	65.4812	0.698899	113.875	0.882565	138.646
0.279792	40.3528	0.00263273	0.31379	0.279801	39.7116	0.441518	65.7427	0.559308	82.723	0.83867	127.463	0.141619	20.234	0.419621	57.1795	0.698941	98.8725	0.882608	120.95
0.279873	35.5831	0.003236	0.347144	0.279884	35.0841	0.441608	57.7451	0.559393	72.7154	0.838713	111.659	0.14214	17.9226	0.419718	50.7497	0.698989	87.3648	0.882656	107.262
0.279965	31.8249	0.00389693	0.380059	0.279977	31.4255	0.44171	51.4858	0.55949	64.8714	0.838763	99.3433	0.142722	16.1041	0.419826	45.6231	0.699043	78.2583	0.88271	96.3583
0.280067	28.7876	0.00461392	0.412503	0.28008	28.4607	0.441823	46.4542	0.559598	58.558	0.838818	89.4761	0.143363	14.6376	0.419946	41.4403	0.699102	70.8727	0.88277	87.4688
0.280179	26.2821	0.00538533	0.444449	0.280193	26.0097	0.441948	42.3215	0.559716	53.3673	0.838879	81.3935	0.144061	13.4312	0.420077	37.963	0.699168	64.7624	0.882835	80.0824
0.280301	24.1803	0.00620961	0.475884	0.280316	23.9498	0.442084	38.8668	0.559846	49.0246	0.838946	74.6515	0.144815	12.4225	0.42022	35.0267	0.699239	59.6234	0.882907	73.8477
0.280433	22.392	0.0070849	0.506779	0.28045	22.1945	0.442232	35.9362	0.559986	45.3379	0.839018	68.9423	0.145624	11.5674	0.420374	32.5145	0.699317	55.2414	0.882984	68.5149
0.280576	20.8521	0.00800953	0.537121	0.280594	20.681	0.442392	33.419	0.560138	42.1693	0.839096	64.0456	0.146486	10.834	0.420539	30.3408	0.6994	51.4606	0.883067	63.9016
0.280729	19.5124	0.00898167	0.566893	0.280748	19.3627	0.442563	31.2337	0.560301	39.4168	0.839181	59.7995	0.147278	10.2756	0.420717	28.4418	0.699489	48.1653	0.883156	59.8714
0.280892	18.3363	0.00999954	0.596085	0.280912	18.2043	0.442746	29.3187	0.560474	37.0036	0.83927	56.0824	0.147983	9.84918	0.420905	26.7685	0.699584	45.2677	0.88325	56.3205
0.281065	17.2957	0.0110615	0.624696	0.281086	17.1784	0.44294	27.6271	0.560659	34.8708	0.839366	52.8015	0.148587	9.52645	0.421105	25.2831	0.699685	42.7	0.88335	53.1682
0.281248	16.3685	0.0121658	0.652713	0.281271	16.2636	0.443145	26.1219	0.560854	32.9723	0.839467	49.8842	0.149076	9.28834	0.421317	23.9557	0.699792	40.4089	0.883456	50.351
0.281442	15.5373	0.0133105	0.680134	0.281466	15.443	0.443363	24.7741	0.56106	31.2716	0.839574	47.2733	0.149443	9.12208	0.421539	22.7625	0.699904	38.3521	0.883568	47.8182
0.281646	14.7879	0.0144942	0.70696	0.281671	14.7026	0.443591	23.5603	0.561278	29.7393	0.839687	44.923	0.149681	9.01936	0.421774	21.6842	0.700023	36.4954	0.883686	45.5289
0.28186	14.109	0.0157151	0.733192	0.281886	14.0315	0.443831	22.4616	0.561506	28.3518	0.839806	42.7961	0.150027	8.87647	0.422019	20.7051	0.700147	34.811	0.883809	43.4495
0.282084	13.491	0.0169717	0.758832	0.282112	13.4203	0.444083	21.4623	0.561745	27.0895	0.83993	40.8624	0.150409	8.72724	0.422276	19.8121	0.700278	33.276	0.883938	41.5526
0.282319	12.9262	0.0182622	0.783881	0.282347	12.8615	0.444346	20.5497	0.561994	25.9362	0.840061	39.0966	0.150937	8.5338	0.422544	18.9944	0.700414	31.8714	0.884073	39.8151
0.282563	12.4081	0.0195855	0.808351	0.282593	12.3486	0.44462	19.713	0.562255	24.8785	0.840196	37.4778	0.151619	8.30368	0.422824	18.2429	0.700556	30.5814	0.884213	38.2179
0.282818	11.9311	0.0209397	0.832243	0.282849	11.8763	0.444905	18.9431	0.562527	23.905	0.840338	35.9885	0.152465	8.04508	0.423115	17.55	0.700704	29.3924	0.884359	36.7445
0.283083	11.4907	0.0223238	0.85557	0.283115	11.4399	0.445202	18.2325	0.562809	23.0061	0.840485	34.6137	0.153487	7.76626	0.423417	16.909	0.700858	28.2931	0.884512	35.3811
0.283358	11.0827	0.0237361	0.878335	0.283391	11.0356	0.44551	17.5745	0.563102	22.1736	0.840638	33.3407	0.154696	7.47503	0.42373	16.3145	0.701018	27.2738	0.884669	34.116
0.283643	10.7038	0.0251756	0.900553	0.283678	10.66	0.44583	16.9637	0.563406	21.4005	0.840797	32.1587	0.155942	7.21064	0.424055	15.7616	0.701184	26.3259	0.884833	32.9388
0.283938	10.351	0.0266409	0.922232	0.283974	10.3102	0.44616	16.395	0.56372	20.6805	0.840962	31.0582	0.157225	6.96968	0.424391	15.2461	0.701355	25.4424	0.885002	31.8408
0.284243	10.0218	0.0281308	0.943383	0.284241	10.0244	0.446502	15.8644	0.564046	20.0086	0.841132	30.0311	0.158542	6.74931	0.424738	14.7644	0.701532	24.6168	0.885177	30.8142
0.284559	9.71379	0.0296442	0.964016	0.284474	9.79354	0.446855	15.3682	0.564382	19.38	0.841308	29.0704	0.159892	6.54711	0.425096	14.3133	0.701716	23.8437	0.885358	29.8522
0.284885	9.42514	0.0311801	0.984142	0.284671	9.61096	0.447219	14.9032	0.564728	18.7907	0.84149	28.1698	0.161274	6.36102	0.425465	13.89	0.701905	23.1183	0.885544	28.9491
0.28522	9.15408	0.0327372	1.00377	0.28483	9.4716	0.447594	14.4666	0.565086	18.2372	0.841678	27.3239	0.162686	6.18926	0.425845	13.492	0.7021	22.4362	0.885736	28.0995
0.285566	8.89908	0.0343148	1.02292	0.284948	9.37183	0.44798	14.0558	0.565453	17.7164	0.841871	26.5278	0.164127	6.03033	0.426237	13.1172	0.702301	21.7937	0.885934	27.2989
0.285922	8.65876	0.0359118	1.0416	0.285024	9.30914	0.448378	13.6687	0.565832	17.2254	0.84207	25.7773	0.165595	5.88289	0.426639	12.7637	0.702507	21.1876	0.886137	26.5432
0.286288	8.43194	0.0375274	1.05982	0.285135	9.22056	0.448786	13.3033	0.566221	16.7618	0.842274	25.0686	0.16709	5.74581	0.427053	12.4296	0.70272	20.6147	0.886346	25.8286
0.286664	8.21752	0.0391606	1.07759	0.285256	9.12628	0.449205	12.9578	0.566621	16.3235	0.842485	24.3983	0.16861	5.61808	0.427477	12.1134	0.702938	20.0725	0.886561	25.152
0.28705	8.01453	0.0408107	1.09492	0.285424	9.00131	0.449635	12.6308	0.567031	15.9083	0.842701	23.7633	0.170153	5.49882	0.427913	11.8139	0.703163	19.5586	0.886782	24.5104
0.287446	7.82212	0.042477	1.11184	0.285639	8.84838	0.450076	12.3207	0.567452	15.5145	0.842922	23.1611	0.17172	5.38725	0.428359	11.5296	0.703393	19.0707	0.887008	23.9011
0.287852	7.63948	0.0441586	1.12834	0.285904	8.67069	0.450528	12.0263	0.567883	15.1407	0.84315	22.589	0.173309	5.28268	0.428817	11.2596	0.703629	18.6071	0.88724	23.3219
0.288269	7.46592	0.0458549	1.14443	0.286222	8.47173	0.45099	11.7465	0.568324	14.7852	0.843383	22.045	0.174919	5.18451	0.429285	11.0027	0.703871	18.1659	0.887478	22.7705
0.288695	7.30079	0.0475651	1.16014	0.286596	8.25516	0.451463	11.4803	0.568777	14.4468	0.843622	21.527	0.176548	5.09219	0.429764	10.7581	0.704118	17.7456	0.887721	22.2449
0.289131	7.14351	0.0492889	1.17547	0.28698	8.05019	0.451947	11.2266	0.569239	14.1243	0.843866	21.0332	0.178197	5.00524	0.430254	10.5249	0.704372	17.3447	0.88797	21.7435
0.289577	6.99355	0.0510253	1.19043	0.287374	7.85593	0.452442	10.9846	0.569712	13.8166	0.844117	20.5619	0.179864	4.92323	0.430754	10.3023	0.704631	16.962	0.888224	21.2646
0.290034	6.85042	0.052774	1.20504	0.287779	7.67159	0.452947	10.7537	0.570195	13.5227	0.844372	20.1117	0.181549	4.84576	0.431199	10.1165	0.704896	16.5961	0.888484	20.8068
0.2905	6.71369	0.0545343	1.21929	0.288193	7.49645	0.453462	10.5329	0.570688	13.2418	0.844634	19.6812	0.18325	4.77248	0.431585	9.96378	0.705167	16.2461	0.88875	20.3686
0.290976	6.58295	0.0563058	1.23321	0.288618	7.32985	0.453989	10.3218	0.571192	12.9731	0.844901	19.2691	0.184967	4.70308	0.431909	9.84122	0.705444	15.911	0.889022	19.9488
0.291462	6.45783	0.0580879	1.2468	0.289052	7.1712	0.454456	10.1451	0.571706	12.7157	0.845174	18.8743	0.186699	4.63727	0.432167	9.74661	0.705727	15.5898	0.889299	19.5464
0.291958	6.33799	0.0598802	1.26007	0.289497	7.01996	0.45486	9.99964	0.57223	12.4689	0.845453	18.4957	0.188446	4.57479	0.432359	9.67831	0.706015	15.2816	0.889581	19.1602
0.292464	6.2231	0.0616824	1.27304	0.289951	6.87565	0.455199	9.88274	0.572764	12.2322	0.845737	18.1323	0.190207	4.51541	0.432482	9.63514	0.706309	14.9858	0.88987	18.7894
0.29298	6.1129	0.0634938	1.2857	0.290415	6.7378	0.45547	9.7924	0.573308	12.005	0.846027	17.7833	0.191981	4.45891	0.432661	9.57382	0.706609	14.7015	0.890164	18.433
0.293506	6.00709	0.0653142	1.29807	0.29089	6.60601	0.45567	9.72713	0.573863	11.7867	0.846322	17.4478	0.193768	4.40509	0.432856	9.50813	0.706915	14.4282	0.890463	18.0902
0.294042	5.90545	0.0671432	1.31016	0.291374	6.4799	0.455799	9.68585	0.574427	11.5767	0.846623	17.1251	0.195568	4.35378	0.433124	9.42037	0.707226	14.1652	0.890768	17.7602
0.294588	5.80774	0.0689803	1.32197	0.291868	6.35913	0.455986	9.62718	0.575002	11.3747	0.84693	16.8144	0.197379	4.30481	0.433466	9.3119	0.707544	13.9119	0.891079	17.4424
0.295143	5.71374	0.0708252	1.33352	0.292373	6.24338	0.456189	9.5643	0.575586	11.1802	0.847242	16.5151	0.199201	4.25803	0.433885	9.18434	0.707867	13.6679	0.891395	17.1361
0.295709	5.62326	0.0726777	1.34481	0.292887	6.13236	0.456469	9.48021	0.576181	10.9928	0.84756	16.2266	0.201034	4.21331	0.434384	9.03955	0.708196	13.4326	0.891717	16.8406
0.296284	5.53611	0.0745374	1.35585	0.293411	6.02578	0.456826	9.37617	0.576785	10.8122	0.847884	15.9483	0.202878	4.17051	0.434967	8.87951	0.70853	13.2056	0.892044	16.5555
0.296869	5.45213	0.0764041	1.36664	0.293945	5.92341	0.457262	9.25368	0.577399	10.6379	0.848213	15.6797	0.204731	4.12951	0.435559	8.72565	0.708871	12.9864	0.892377	16.2802
0.297464	5.37115	0.0782773	1.37719	0.294489	5.825	0.457782	9.11444	0.578023	10.4697	0.848547	15.4203	0.206594	4.09022	0.436163	8.57764	0.709217	12.7747	0.892715	16.0141
0.298069	5.29303	0.0801569	1.38752	0.295043	5.73035	0.458387	8.96028	0.578575	10.3278	0.848888	15.1697	0.208466	4.05254	0.436777	8.43516	0.709569	12.5701	0.893059	15.757
0.298683	5.21762	0.0820425	1.39762	0.295606	5.63926	0.459003	8.81183	0.579052	10.2101	0.849234	14.9273	0.210347	4.01635	0.437401	8.2979	0.709927	12.3722	0.893409	15.5082
0.299308	5.14479	0.0839341	1.4075	0.29618	5.55153	0.459629	8.66879	0.579449	10.1151	0.849585	14.6929	0.212236	3.9816	0.438035	8.16561	0.71029	12.1808	0.893764	15.2674
0.299942	5.07443	0.0858312	1.41717	0.296763	5.46699	0.460265	8.53088	0.579767	10.0413	0.849942	14.466	0.214134	3.94818	0.43868	8.03802	0.71066	11.9955	0.894124	15.0343
0.300586	5.00641	0.0877337	1.42664	0.297356	5.38548	0.46091	8.39782	0.580001	9.9878	0.850305	14.2462	0.216039	3.91604	0.439335	7.9149	0.711034	11.816	0.89449	14.8085
0.30124	4.94063	0.0896415	1.43591	0.297959	5.30685	0.461566	8.26939	0.580152	9.95389	0.850673	14.0333	0.217951	3.88509	0.44	7.79603	0.711415	11.642	0.894862	14.5896
0.301904	4.87699	0.0915541	1.44498	0.298572	5.23097	0.462231	8.14535	0.58037	9.9056	0.851047	13.827	0.219871	3.85529	0.440675	7.68119	0.711802	11.4734	0.895239	14.3773
0.302577	4.8154	0.0934716	1.45387	0.299195	5.15769	0.462906	8.02548	0.580608	9.8537	0.851427	13.6269	0.221798	3.82656	0.441361	7.5702	0.712194	11.3099	0.895621	14.1714
0.30326	4.75575	0.0953937	1.46257	0.299828	5.08689	0.463591	7.90959	0.580933	9.78408	0.851812	13.4327	0.223731	3.79885	0.442056	7.46287	0.712592	11.1512	0.896009	13.9716
0.303864	4.7053	0.0973202	1.47109	0.30047	5.01846	0.464286	7.79749	0.581348	9.69759	0.852202	13.2443	0.225671	3.77212	0.442762	7.35903	0.712995	10.9972	0.896402	13.7776
0.304384	4.66338	0.0992509	1.47944	0.301122	4.95229	0.46499	7.68901	0.581855	9.59526	0.852598	13.0613	0.227617	3.7463	0.443477	7.25852	0.713404	10.8476	0.896801	13.5891
0.304818	4.62944	0.101186	1.48762	0.301784	4.88827	0.465704	7.58397	0.582456	9.47827	0.852999	12.8836	0.229569	3.72136	0.444203	7.1612	0.713819	10.7023	0.897205	13.406
0.305164	4.60306	0.103124	1.49563	0.302455	4.82631	0.466427	7.48222	0.583154	9.34791	0.853406	12.7109	0.231527	3.69726	0.444938	7.06691	0.714186	10.579	0.897615	13.2279
0.30542	4.58391	0.105067	1.50349	0.303137	4.76632	0.46716	7.38362	0.583862	9.22153	0.853819	12.543	0.23349	3.67395	0.445684	6.97552	0.714501	10.4763	0.89803	13.0548
0.305584	4.57176	0.107013	1.51119	0.303828	4.70822	0.467902	7.28803	0.58458	9.09897	0.854237	12.3797	0.235459	3.65139	0.446439	6.88691	0.714765	10.393	0.89845	12.8864
0.305821	4.55445	0.108962	1.51874	0.304529	4.65192	0.468654	7.19532	0.585307	8.98006	0.854661	12.2208	0.237432	3.62956	0.447204	6.80096	0.714974	10.328	0.898876	12.7225
0.30608	4.53583	0.110915	1.52614	0.30524	4.59734	0.469414	7.10536	0.586043	8.86464	0.85509	12.0662	0.239411	3.60841	0.447978	6.71756	0.715129	10.2809	0.899307	12.5629
0.306434	4.51083	0.112872	1.5334	0.30596	4.54442	0.470185	7.01804	0.586789	8.75257	0.855524	11.9157	0.241394	3.58792	0.448763	6.6366	0.715229	10.2509	0.899744	12.4075
0.306886	4.47973	0.114831	1.54052	0.30669	4.49309	0.470964	6.93326	0.587544	8.64371	0.855964	11.7691	0.243382	3.56806	0.449557	6.55799	0.715373	10.2082	0.900186	12.2562
0.307436	4.44288	0.116541	1.54661	0.30743	4.44328	0.471752	6.8509	0.588308	8.53792	0.856409	11.6262	0.245375	3.54879	0.45036	6.48161	0.71553	10.1622	0.900633	12.1086
0.308089	4.40068	0.118	1.55172	0.30818	4.39494	0.47255	6.77087	0.589081	8.43509	0.85686	11.4871	0.247371	3.5301	0.451173	6.4074	0.715744	10.1003	0.901086	11.9649
0.308847	4.35358	0.119208	1.5559	0.308939	4.348	0.473356	6.69307	0.589864	8.3351	0.857317	11.3514	0.249372	3.51196	0.451996	6.33526	0.716018	10.0232	0.901544	11.8246
0.309615	4.30783	0.120164	1.55916	0.309709	4.30241	0.474172	6.61743	0.590655	8.23783	0.857778	11.2191	0.251377	3.49435	0.452828	6.26511	0.716351	9.93166	0.902007	11.6879
0.310393	4.26338	0.120867	1.56155	0.310487	4.25811	0.474996	6.54385	0.591456	8.14318	0.858246	11.0901	0.253386	3.47723	0.45367	6.19687	0.716746	9.82652	0.902476	11.5545
0.311181	4.22019	0.121317	1.56306	0.311276	4.21507	0.475829	6.47225	0.592266	8.05106	0.858718	10.9642	0.255398	3.4606	0.454521	6.13048	0.717205	9.70879	0.902949	11.4243
0.311978	4.17821	0.121965	1.56523	0.312074	4.17323	0.476671	6.40256	0.593084	7.96135	0.859135	10.857	0.257414	3.44443	0.455381	6.06586	0.717669	9.59408	0.903429	11.2972
0.312785	4.13739	0.122669	1.56757	0.312883	4.13255	0.477522	6.33472	0.593912	7.87399	0.859493	10.7673	0.259433	3.42871	0.456251	6.00294	0.718139	9.48225	0.903913	11.173
0.313602	4.09769	0.123627	1.57073	0.313701	4.09299	0.478382	6.26864	0.594749	7.78887	0.859791	10.6944	0.261456	3.41341	0.45713	5.94167	0.718614	9.37322	0.904403	11.0518
0.314428	4.05908	0.124839	1.57469	0.314528	4.0545	0.47925	6.20427	0.595594	7.70591	0.860029	10.6375	0.263482	3.39853	0.458018	5.88198	0.719096	9.26688	0.904834	10.9485
0.315264	4.0215	0.126307	1.57941	0.315366	4.01705	0.480127	6.14154	0.596448	7.62505	0.860204	10.596	0.265511	3.38403	0.458915	5.82382	0.719582	9.16314	0.905205	10.862
0.31611	3.98494	0.12803	1.58487	0.316213	3.9806	0.481012	6.0804	0.597311	7.5462	0.860317	10.5697	0.267543	3.36991	0.459822	5.76714	0.720075	9.0619	0.905513	10.7916
0.316966	3.94934	0.13001	1.59102	0.31707	3.94512	0.481906	6.02079	0.598183	7.46929	0.860479	10.5321	0.269579	3.35616	0.460737	5.71187	0.720573	8.96307	0.905759	10.7366
0.317832	3.91468	0.131992	1.59707	0.317937	3.91057	0.482808	5.96265	0.599063	7.39426	0.860656	10.4915	0.271616	3.34276	0.461662	5.65798	0.721076	8.86658	0.90594	10.6966
0.318707	3.88093	0.133976	1.603	0.318814	3.87693	0.483718	5.90594	0.599952	7.32104	0.860898	10.4369	0.273657	3.32969	0.462595	5.60542	0.721585	8.77234	0.906056	10.6711
0.319593	3.84805	0.135962	1.60883	0.3197	3.84415	0.484637	5.85061	0.60085	7.24957	0.861206	10.3687	0.2757	3.31695	0.463538	5.55413	0.7221	8.68028	0.906224	10.6347
0.320488	3.81603	0.13795	1.61456	0.320597	3.81222	0.485564	5.7966	0.601756	7.17979	0.861581	10.2875	0.277746	3.30452	0.464489	5.50409	0.722621	8.59032	0.906407	10.5955
0.321393	3.78482	0.13994	1.62018	0.321503	3.78111	0.486499	5.74388	0.60267	7.11165	0.862025	10.1939	0.279794	3.2924	0.465449	5.45524	0.723146	8.5024	0.906657	10.5427
0.322308	3.7544	0.141932	1.62571	0.322419	3.75079	0.487443	5.6924	0.603593	7.04509	0.862539	10.0889	0.281845	3.28056	0.466418	5.40755	0.723678	8.41646	0.906975	10.4766
0.323234	3.72475	0.143926	1.63114	0.323346	3.72123	0.488394	5.64212	0.604525	6.98005	0.863058	9.9861	0.283898	3.269	0.467396	5.36097	0.724215	8.33241	0.907362	10.398
0.324169	3.69585	0.145921	1.63647	0.324282	3.69242	0.489353	5.59301	0.605464	6.9165	0.863583	9.8856	0.285953	3.25772	0.468383	5.31549	0.724757	8.25022	0.907819	10.3073
0.325114	3.66766	0.147918	1.64172	0.325228	3.66432	0.490321	5.54501	0.606412	6.85437	0.864113	9.78729	0.28801	3.24669	0.469378	5.27105	0.725306	8.16981	0.908349	10.2054
0.326069	3.64018	0.149917	1.64687	0.326185	3.63691	0.491296	5.49811	0.607369	6.79364	0.864649	9.69109	0.29007	3.23592	0.470382	5.22762	0.725859	8.09113	0.908884	10.1056
0.327034	3.61337	0.151917	1.65194	0.327151	3.61019	0.492279	5.45227	0.608333	6.73424	0.86519	9.59693	0.292131	3.22539	0.471394	5.18519	0.726418	8.01413	0.909424	10.0079
0.32801	3.58722	0.153919	1.65692	0.328128	3.58412	0.49327	5.40744	0.609306	6.67615	0.865736	9.50476	0.294194	3.2151	0.472415	5.1437	0.726983	7.93876	0.90997	9.9123
0.328995	3.56171	0.155923	1.66182	0.329115	3.55868	0.494269	5.36361	0.610286	6.61933	0.866287	9.41452	0.296259	3.20504	0.473444	5.10314	0.727553	7.86497	0.91052	9.81865
0.329991	3.53682	0.157927	1.66663	0.330112	3.53386	0.495275	5.32074	0.611275	6.56372	0.866844	9.32614	0.298326	3.19519	0.474482	5.06348	0.728129	7.7927	0.911076	9.72692
0.330998	3.51253	0.159933	1.67137	0.33112	3.50964	0.496289	5.27879	0.612272	6.5093	0.867406	9.23957	0.300395	3.18556	0.475529	5.02469	0.72871	7.72193	0.911637	9.63704
0.332014	3.48882	0.16194	1.67603	0.332138	3.48601	0.497311	5.23776	0.613277	6.45604	0.867974	9.15476	0.302465	3.17613	0.476583	4.98674	0.729297	7.65259	0.912203	9.54898
0.333042	3.46569	0.163949	1.68061	0.333166	3.46294	0.49834	5.19759	0.614289	6.40389	0.868546	9.07165	0.304537	3.16691	0.477646	4.94961	0.729889	7.58465	0.912774	9.46266
0.334079	3.4431	0.165958	1.68511	0.334205	3.44042	0.499377	5.15828	0.61531	6.35282	0.869124	8.9902	0.30661	3.15787	0.478718	4.91327	0.730486	7.51807	0.91335	9.37806
0.335128	3.42106	0.167969	1.68955	0.335255	3.41844	0.500421	5.11979	0.616338	6.30281	0.869707	8.91036	0.308685	3.14903	0.479797	4.87771	0.731089	7.45282	0.913931	9.2951
0.336187	3.39954	0.169981	1.69391	0.336315	3.39698	0.501472	5.08211	0.617374	6.25382	0.870296	8.83208	0.310762	3.14036	0.480885	4.8429	0.731698	7.38884	0.914517	9.21375
0.337257	3.37853	0.171994	1.6982	0.337387	3.37603	0.502531	5.0452	0.618418	6.20583	0.870889	8.75532	0.31284	3.13187	0.481981	4.80881	0.732312	7.32611	0.915108	9.13397
0.338338	3.35801	0.174008	1.70243	0.338469	3.35558	0.503597	5.00905	0.61947	6.1588	0.871488	8.68004	0.314919	3.12355	0.483085	4.77543	0.732931	7.2646	0.915704	9.05571
0.33943	3.33798	0.176023	1.70658	0.339562	3.3356	0.50467	4.97363	0.620529	6.11271	0.872092	8.6062	0.316999	3.1154	0.484197	4.74275	0.733556	7.20426	0.916305	8.97892
0.340533	3.31843	0.178039	1.71068	0.340666	3.3161	0.505751	4.93893	0.621596	6.06753	0.872701	8.53374	0.319081	3.1074	0.485317	4.71073	0.734186	7.14507	0.916912	8.90358
0.341647	3.29933	0.180056	1.71471	0.341782	3.29706	0.506838	4.90492	0.62267	6.02324	0.873316	8.46265	0.321164	3.09956	0.486445	4.67936	0.734822	7.087	0.917523	8.82963
0.342773	3.28068	0.182074	1.71867	0.342909	3.27847	0.507933	4.87159	0.623752	5.97981	0.873935	8.39288	0.323248	3.09187	0.48758	4.64862	0.735463	7.03001	0.918139	8.75704
0.34391	3.26247	0.184092	1.72258	0.344048	3.26031	0.509034	4.83891	0.624841	5.93722	0.87456	8.3244	0.325333	3.08433	0.488724	4.6185	0.736109	6.97408	0.91876	8.68578
0.345059	3.24469	0.186112	1.72642	0.345198	3.24258	0.510143	4.80688	0.625938	5.89545	0.87519	8.25717	0.327419	3.07693	0.489876	4.58898	0.736761	6.91918	0.919386	8.61581
0.346219	3.22733	0.188132	1.73021	0.34636	3.22527	0.511258	4.77546	0.627042	5.85447	0.875825	8.19116	0.329506	3.06967	0.491035	4.56004	0.737418	6.86528	0.920017	8.5471
0.347392	3.21038	0.190153	1.73394	0.347534	3.20837	0.512381	4.74466	0.628153	5.81427	0.876466	8.12634	0.331594	3.06254	0.492202	4.53167	0.738081	6.81236	0.920653	8.47961
0.348577	3.19383	0.192174	1.73761	0.34872	3.19187	0.51351	4.71444	0.629272	5.77482	0.877111	8.06267	0.333683	3.05554	0.493377	4.50385	0.738749	6.76039	0.921294	8.41332
0.349774	3.17768	0.194197	1.74122	0.349919	3.17576	0.514646	4.68479	0.630398	5.73611	0.877762	8.00014	0.335773	3.04867	0.49456	4.47658	0.739422	6.70935	0.92194	8.34819
0.350984	3.1619	0.19622	1.74479	0.351131	3.16003	0.515788	4.65571	0.631531	5.69811	0.878417	7.9387	0.337864	3.04192	0.49575	4.44982	0.740101	6.65921	0.92259	8.28419
0.352207	3.14651	0.198243	1.7483	0.352355	3.14468	0.516937	4.62717	0.632671	5.66081	0.879078	7.87833	0.339956	3.03529	0.496948	4.42358	0.740784	6.60995	0.923246	8.2213
0.353442	3.13148	0.200267	1.75176	0.353592	3.1297	0.518093	4.59916	0.633818	5.62419	0.879744	7.81901	0.342048	3.02878	0.498153	4.39784	0.741474	6.56155	0.923906	8.15948
0.354691	3.11682	0.202292	1.75516	0.354842	3.11507	0.519255	4.57166	0.634972	5.58823	0.880415	7.76071	0.344141	3.02238	0.499366	4.37258	0.742168	6.51399	0.924572	8.09872
0.355953	3.10251	0.204318	1.75852	0.356106	3.10081	0.520424	4.54468	0.636133	5.55292	0.881091	7.7034	0.346235	3.01609	0.500587	4.34779	0.742868	6.46725	0.925242	8.03898
0.357229	3.08855	0.206344	1.76183	0.357383	3.08689	0.5216	4.51818	0.637301	5.51824	0.881772	7.64707	0.34833	3.0099	0.501814	4.32347	0.743573	6.4213	0.925917	7.98024
0.358518	3.07493	0.20837	1.76509	0.358675	3.07331	0.522781	4.49216	0.638476	5.48417	0.882458	7.59168	0.350425	3.00382	0.50305	4.2996	0.744284	6.37613	0.926596	7.92248
0.359822	3.06165	0.210397	1.76831	0.35998	3.06007	0.523969	4.46661	0.639658	5.4507	0.883149	7.53721	0.35252	2.99784	0.504292	4.27617	0.744999	6.33173	0.927281	7.86568
0.361141	3.0487	0.212424	1.77147	0.361301	3.04716	0.525164	4.44151	0.640847	5.41781	0.883845	7.48365	0.354616	2.99196	0.505542	4.25316	0.74572	6.28806	0.92797	7.8098
0.362474	3.03607	0.214452	1.7746	0.362636	3.03457	0.526364	4.41687	0.642042	5.3855	0.884547	7.43096	0.356713	2.98618	0.506799	4.23058	0.746447	6.24512	0.928664	7.75484
0.363822	3.02377	0.216481	1.77767	0.363986	3.02231	0.527571	4.39265	0.643244	5.35374	0.885253	7.37914	0.35881	2.98049	0.508063	4.2084	0.747178	6.20289	0.929363	7.70076
0.365186	3.01178	0.218509	1.78071	0.365351	3.01036	0.528784	4.36886	0.644453	5.32253	0.885964	7.32815	0.360908	2.97489	0.509335	4.18663	0.747915	6.16135	0.930066	7.64755
0.366566	3.0001	0.220538	1.7837	0.366733	2.99872	0.530003	4.34548	0.645668	5.29185	0.88668	7.27799	0.363006	2.96938	0.510614	4.16524	0.748657	6.12049	0.930775	7.59519
0.367961	2.98873	0.222568	1.78665	0.36813	2.98739	0.531228	4.32251	0.64689	5.26168	0.887402	7.22863	0.365105	2.96396	0.5119	4.14423	0.749404	6.08028	0.931488	7.54365
0.369373	2.97767	0.224598	1.78956	0.369544	2.97636	0.53246	4.29993	0.648119	5.23203	0.888128	7.18005	0.367203	2.95862	0.513192	4.12359	0.750156	6.04072	0.932205	7.49293
0.370802	2.9669	0.226628	1.79243	0.370975	2.96562	0.533697	4.27773	0.649353	5.20286	0.888859	7.13224	0.369302	2.95336	0.514492	4.10332	0.750914	6.00179	0.932928	7.44299
0.372247	2.95643	0.228658	1.79526	0.372422	2.95519	0.53494	4.25591	0.650595	5.17418	0.889595	7.08518	0.371402	2.94818	0.515799	4.0834	0.751676	5.96348	0.933655	7.39384
0.37371	2.94625	0.230689	1.79805	0.373887	2.94504	0.536189	4.23446	0.651842	5.14597	0.890336	7.03885	0.373502	2.94308	0.517113	4.06383	0.752444	5.92577	0.934386	7.34543
0.375191	2.93635	0.23272	1.80081	0.37537	2.93518	0.537444	4.21337	0.653097	5.11823	0.891082	6.99324	0.375602	2.93806	0.518434	4.04459	0.753217	5.88865	0.935123	7.29777
0.37669	2.92674	0.234751	1.80352	0.376871	2.9256	0.538705	4.19263	0.654357	5.09093	0.891833	6.94833	0.377702	2.93311	0.519762	4.02569	0.753996	5.85211	0.935864	7.25083
0.378207	2.91741	0.236783	1.8062	0.378391	2.9163	0.539971	4.17224	0.655624	5.06408	0.892589	6.9041	0.379802	2.92824	0.521096	4.00711	0.754779	5.81613	0.936609	7.2046
0.379742	2.90835	0.238815	1.80885	0.379929	2.90728	0.541243	4.15217	0.656896	5.03766	0.89335	6.86054	0.381902	2.92343	0.522438	3.98885	0.755568	5.78071	0.93736	7.15907
0.381297	2.89957	0.240847	1.81145	0.381486	2.89853	0.542521	4.13244	0.658175	5.01166	0.894115	6.81764	0.384003	2.9187	0.523786	3.97089	0.756361	5.74582	0.938114	7.11421
0.382872	2.89106	0.242879	1.81403	0.383062	2.89005	0.543805	4.11303	0.65946	4.98607	0.894886	6.77538	0.386104	2.91403	0.525141	3.95324	0.75716	5.71147	0.938874	7.07001
0.384465	2.88281	0.244912	1.81657	0.384659	2.88184	0.545094	4.09393	0.660752	4.96089	0.895661	6.73375	0.388205	2.90942	0.526502	3.93589	0.757964	5.67763	0.939638	7.02647
0.386079	2.87483	0.246944	1.81907	0.386275	2.87389	0.546388	4.07513	0.662049	4.9361	0.896441	6.69274	0.390305	2.90488	0.527871	3.91882	0.758773	5.6443	0.940406	6.98356
0.387713	2.8671	0.248977	1.82155	0.387911	2.86619	0.547688	4.05664	0.663352	4.9117	0.897226	6.65233	0.392406	2.90041	0.529246	3.90204	0.759587	5.61146	0.941179	6.94128
0.389367	2.85963	0.25101	1.82399	0.389567	2.85875	0.548994	4.03844	0.664661	4.88767	0.898016	6.6125	0.394507	2.89599	0.530627	3.88554	0.760406	5.57911	0.941957	6.8996
0.391041	2.85241	0.253043	1.82639	0.391244	2.85156	0.550305	4.02053	0.665976	4.86402	0.898811	6.57326	0.396608	2.89164	0.532015	3.8693	0.76123	5.54724	0.942739	6.85852
0.392737	2.84544	0.255076	1.82877	0.392942	2.84462	0.551621	4.0029	0.667297	4.84072	0.899611	6.53458	0.398709	2.88734	0.53341	3.85333	0.76206	5.51583	0.943526	6.81803
0.394452	2.83871	0.25711	1.83112	0.39466	2.83792	0.552943	3.98555	0.668624	4.81779	0.900415	6.49646	0.400809	2.8831	0.534811	3.83763	0.762894	5.48488	0.944317	6.77812
0.396189	2.83222	0.259143	1.83344	0.3964	2.83145	0.55427	3.96846	0.669956	4.7952	0.901224	6.45888	0.40291	2.87892	0.536219	3.82217	0.763733	5.45438	0.945112	6.73876
0.397946	2.82596	0.261177	1.83572	0.398159	2.82522	0.555602	3.95164	0.671295	4.77294	0.902038	6.42183	0.40501	2.87479	0.537633	3.80697	0.764578	5.42432	0.945913	6.69996
0.399725	2.81993	0.263211	1.83798	0.39994	2.81922	0.55694	3.93508	0.672639	4.75103	0.902857	6.38531	0.407111	2.87071	0.539053	3.79201	0.765427	5.39469	0.946717	6.66169
0.401523	2.81412	0.265244	1.84021	0.401741	2.81344	0.558282	3.91877	0.673988	4.72944	0.90368	6.3493	0.409211	2.86669	0.54048	3.77729	0.766282	5.36548	0.947526	6.62396
0.403343	2.80853	0.267278	1.84241	0.403563	2.80788	0.55963	3.9027	0.675343	4.70816	0.904508	6.31378	0.411311	2.86271	0.541913	3.76281	0.767141	5.33668	0.948339	6.58674
0.405183	2.80316	0.269312	1.84459	0.405406	2.80253	0.560983	3.88688	0.676704	4.68721	0.905341	6.27876	0.41341	2.85879	0.543353	3.74855	0.768005	5.30829	0.949157	6.55004
0.407043	2.79799	0.271346	1.84673	0.407268	2.79739	0.562341	3.8713	0.67807	4.66655	0.906179	6.24423	0.41551	2.85491	0.544798	3.73452	0.768875	5.28029	0.949979	6.51383
0.408923	2.79303	0.27338	1.84885	0.409151	2.79245	0.563704	3.85595	0.679442	4.6462	0.907021	6.21016	0.417609	2.85108	0.54625	3.72071	0.769749	5.25269	0.950806	6.47811
0.410823	2.78826	0.275414	1.85094	0.411053	2.7877	0.565072	3.84083	0.680819	4.62615	0.907869	6.17656	0.419708	2.8473	0.547708	3.70712	0.770628	5.22547	0.951636	6.44287
0.412742	2.78369	0.277448	1.85301	0.412975	2.78315	0.566445	3.82594	0.682202	4.60638	0.90872	6.14341	0.421807	2.84357	0.549173	3.69374	0.771513	5.19862	0.952472	6.40811
0.41468	2.77929	0.279482	1.85505	0.414915	2.77878	0.567823	3.81126	0.68359	4.58689	0.909577	6.11071	0.423905	2.83987	0.550643	3.68056	0.772402	5.17214	0.953311	6.3738
0.416637	2.77508	0.281516	1.85707	0.416874	2.77459	0.569206	3.79679	0.684983	4.56769	0.910438	6.07845	0.426003	2.83623	0.55212	3.66759	0.773296	5.14602	0.954155	6.33995
0.418612	2.77104	0.28355	1.85906	0.418851	2.77057	0.570593	3.78254	0.686382	4.54875	0.911304	6.04662	0.4281	2.83262	0.553603	3.65482	0.774195	5.12026	0.955003	6.30654
0.420605	2.76717	0.285585	1.86103	0.420846	2.76671	0.571985	3.7685	0.687785	4.53009	0.912174	6.01521	0.430197	2.82906	0.555091	3.64225	0.775099	5.09484	0.955856	6.27358
0.422616	2.76345	0.287619	1.86298	0.422859	2.76302	0.573383	3.75465	0.689194	4.51168	0.913049	5.98421	0.432294	2.82553	0.556586	3.62986	0.776008	5.06977	0.956713	6.24103
0.424643	2.75989	0.289653	1.8649	0.424888	2.75948	0.574784	3.74101	0.690608	4.49353	0.913929	5.95363	0.434391	2.82205	0.558087	3.61767	0.776921	5.04503	0.957574	6.20891
0.426686	2.75648	0.291687	1.86679	0.426933	2.75608	0.576191	3.72756	0.692028	4.47563	0.914813	5.92343	0.436486	2.8186	0.559593	3.60566	0.77784	5.02062	0.958439	6.17721
0.428745	2.75321	0.293721	1.86867	0.428994	2.75283	0.577602	3.7143	0.693452	4.45798	0.915702	5.89364	0.438582	2.8152	0.561106	3.59383	0.778763	4.99653	0.959309	6.14591
0.43082	2.75008	0.295755	1.87052	0.43107	2.74971	0.579018	3.70123	0.694881	4.44057	0.916596	5.86422	0.440677	2.81183	0.562625	3.58218	0.779692	4.97276	0.960182	6.115
0.432909	2.74708	0.297788	1.87235	0.433162	2.74673	0.580438	3.68835	0.696316	4.4234	0.917494	5.83519	0.442771	2.8085	0.564149	3.5707	0.780625	4.9493	0.96106	6.08449
0.435012	2.7442	0.299822	1.87416	0.435267	2.74387	0.581863	3.67564	0.697755	4.40647	0.918397	5.80652	0.444865	2.8052	0.565679	3.5594	0.781563	4.92615	0.961942	6.05437
0.43713	2.74145	0.301856	1.87595	0.437386	2.74112	0.583293	3.66311	0.699199	4.38976	0.919304	5.77822	0.446958	2.80194	0.567215	3.54826	0.782505	4.9033	0.962829	6.02462
0.43926	2.73881	0.30389	1.87771	0.439518	2.7385	0.584727	3.65075	0.700649	4.37328	0.920216	5.75028	0.449051	2.79871	0.568757	3.53729	0.783453	4.88074	0.963719	5.99524
0.441403	2.73627	0.305923	1.87946	0.441662	2.73598	0.586165	3.63857	0.702103	4.35701	0.921132	5.72268	0.451143	2.79552	0.570305	3.52648	0.784405	4.85847	0.964614	5.96622
0.443559	2.73385	0.307957	1.88119	0.443819	2.73356	0.587608	3.62655	0.703561	4.34097	0.922053	5.69544	0.453235	2.79236	0.571858	3.51583	0.785362	4.83649	0.965513	5.93757
0.445726	2.73152	0.30999	1.88289	0.445987	2.73124	0.589055	3.6147	0.705025	4.32514	0.922978	5.66853	0.455326	2.78923	0.573417	3.50534	0.786324	4.81479	0.966416	5.90926
0.447904	2.72928	0.312024	1.88458	0.448167	2.72902	0.590507	3.60301	0.706493	4.30951	0.923908	5.64196	0.457416	2.78613	0.574981	3.495	0.787291	4.79336	0.967323	5.8813
0.450093	2.72714	0.314057	1.88624	0.450357	2.72689	0.591963	3.59147	0.707966	4.29409	0.924843	5.61571	0.459505	2.78306	0.576552	3.48481	0.788262	4.77221	0.968234	5.85368
0.452292	2.72508	0.31609	1.88789	0.452558	2.72484	0.593423	3.5801	0.709444	4.27887	0.925781	5.58979	0.461594	2.78003	0.578128	3.47476	0.789238	4.75131	0.96915	5.8264
0.454501	2.7231	0.318123	1.88952	0.454768	2.72287	0.594888	3.56887	0.710926	4.26386	0.926725	5.56419	0.463683	2.77702	0.579709	3.46487	0.790219	4.73069	0.970069	5.79944
0.45672	2.7212	0.320156	1.89113	0.456988	2.72098	0.596356	3.5578	0.712413	4.24903	0.927673	5.53889	0.46577	2.77405	0.581296	3.45511	0.791205	4.71031	0.970992	5.77281
0.458947	2.71938	0.322189	1.89272	0.459216	2.71917	0.597829	3.54687	0.713905	4.2344	0.928625	5.5139	0.467857	2.7711	0.582889	3.4455	0.792195	4.69019	0.97192	5.74649
0.461183	2.71763	0.324222	1.89429	0.461453	2.71742	0.599306	3.53609	0.715401	4.21995	0.929582	5.48922	0.469943	2.76818	0.584487	3.43602	0.79319	4.67032	0.972852	5.72049
0.463428	2.71594	0.326254	1.89585	0.463698	2.71574	0.600788	3.52545	0.716901	4.20569	0.930543	5.46483	0.472028	2.76529	0.58609	3.42668	0.79419	4.6507	0.973787	5.69479
0.46568	2.71432	0.328287	1.89738	0.465951	2.71413	0.602273	3.51494	0.718406	4.1916	0.931508	5.44073	0.474113	2.76242	0.587699	3.41747	0.795194	4.63131	0.974727	5.6694
0.467939	2.71276	0.330319	1.89891	0.468212	2.71257	0.603762	3.50458	0.719916	4.1777	0.932478	5.41692	0.476197	2.75958	0.589313	3.40839	0.796203	4.61216	0.97567	5.6443
0.470206	2.71125	0.332351	1.90041	0.47048	2.71108	0.605256	3.49435	0.721429	4.16397	0.933452	5.39338	0.47828	2.75677	0.590933	3.39944	0.797217	4.59324	0.976618	5.61949
0.47248	2.70981	0.334383	1.9019	0.472754	2.70964	0.606753	3.48426	0.722947	4.15041	0.934431	5.37013	0.480362	2.75398	0.592558	3.39062	0.798235	4.57455	0.977569	5.59497
0.47476	2.70841	0.336415	1.90337	0.475035	2.70825	0.608255	3.47429	0.72447	4.13703	0.935414	5.34715	0.482443	2.75122	0.594189	3.38192	0.799258	4.55609	0.978525	5.57073
0.477046	2.70706	0.338447	1.90482	0.477322	2.70691	0.60976	3.46445	0.725996	4.1238	0.936402	5.32444	0.484524	2.74848	0.595825	3.37334	0.800285	4.53784	0.979484	5.54678
0.479338	2.70577	0.340478	1.90626	0.479615	2.70561	0.61127	3.45474	0.727527	4.11074	0.937394	5.30199	0.486603	2.74576	0.597466	3.36488	0.801318	4.51982	0.980448	5.52309
0.481636	2.70451	0.34251	1.90768	0.481913	2.70437	0.612783	3.44515	0.729062	4.09785	0.93839	5.2798	0.488682	2.74307	0.599112	3.35654	0.802354	4.50201	0.981415	5.49967
0.483939	2.7033	0.344541	1.90909	0.484217	2.70316	0.6143	3.43569	0.730602	4.0851	0.93939	5.25787	0.49076	2.7404	0.600763	3.34831	0.803396	4.48441	0.982386	5.47652
0.486248	2.70214	0.346572	1.91048	0.486526	2.702	0.615822	3.42634	0.732145	4.07252	0.940395	5.23618	0.492837	2.73776	0.60242	3.3402	0.804442	4.46701	0.983362	5.45363
0.488561	2.70101	0.348603	1.91185	0.48884	2.70087	0.617346	3.41711	0.733693	4.06009	0.941404	5.21475	0.494913	2.73513	0.604082	3.3322	0.805492	4.44982	0.984341	5.431
0.490879	2.69991	0.350633	1.91321	0.491158	2.69979	0.618875	3.408	0.735244	4.0478	0.942417	5.19356	0.496988	2.73253	0.605749	3.32431	0.806547	4.43284	0.985323	5.40862
0.493201	2.69886	0.352664	1.91456	0.493481	2.69873	0.620408	3.399	0.7368	4.03567	0.943435	5.17261	0.499062	2.72995	0.607421	3.31653	0.807607	4.41605	0.98631	5.38649
0.495528	2.69784	0.354694	1.91589	0.495809	2.69772	0.621944	3.39011	0.738359	4.02367	0.944457	5.1519	0.501135	2.72739	0.609098	3.30886	0.808671	4.39945	0.987301	5.3646
0.497859	2.69685	0.356724	1.91721	0.49814	2.69673	0.623484	3.38133	0.739923	4.01183	0.945483	5.13141	0.503207	2.72485	0.610781	3.30129	0.809739	4.38305	0.988295	5.34296
0.500194	2.69589	0.358754	1.91851	0.500475	2.69577	0.625028	3.37266	0.741491	4.00012	0.946514	5.11116	0.505279	2.72233	0.612468	3.29382	0.810812	4.36684	0.989293	5.32155
0.502532	2.69496	0.360784	1.9198	0.502814	2.69485	0.626575	3.3641	0.743062	3.98855	0.947548	5.09114	0.507349	2.71983	0.614161	3.28646	0.81189	4.35081	0.990295	5.30038
0.504874	2.69406	0.362814	1.92108	0.505156	2.69395	0.628126	3.35564	0.744637	3.97712	0.948587	5.07133	0.509418	2.71736	0.615858	3.27919	0.812972	4.33496	0.991301	5.27943
0.507219	2.69318	0.364843	1.92234	0.507502	2.69308	0.629681	3.34728	0.746217	3.96581	0.949631	5.05174	0.511487	2.7149	0.61756	3.27202	0.814059	4.3193	0.992311	5.25872
0.509568	2.69233	0.366872	1.92359	0.509851	2.69223	0.631239	3.33903	0.7478	3.95465	0.950678	5.03237	0.513554	2.71245	0.619268	3.26495	0.81515	4.30381	0.993324	5.23822
0.51192	2.69151	0.368901	1.92482	0.512203	2.69141	0.632801	3.33088	0.749386	3.94361	0.951729	5.01322	0.51562	2.71003	0.62098	3.25797	0.816245	4.2885	0.994341	5.21795
0.514274	2.69071	0.37093	1.92605	0.514558	2.69061	0.634366	3.32282	0.750977	3.93269	0.952785	4.99427	0.517685	2.70763	0.622697	3.25109	0.817345	4.27336	0.995362	5.19789
0.516632	2.68993	0.372959	1.92726	0.516916	2.68984	0.635935	3.31486	0.752571	3.92191	0.953845	4.97552	0.519749	2.70524	0.624419	3.2443	0.81845	4.25839	0.996387	5.17805
0.518992	2.68917	0.374987	1.92845	0.519276	2.68908	0.637507	3.307	0.754169	3.91124	0.954909	4.95698	0.521812	2.70287	0.626146	3.2376	0.819558	4.24359	0.997415	5.15842
0.521355	2.68844	0.377015	1.92964	0.521639	2.68835	0.639083	3.29923	0.755771	3.9007	0.955977	4.93864	0.523874	2.70052	0.627877	3.23099	0.820672	4.22895	0.998447	5.13899
0.52372	2.68772	0.379043	1.93081	0.524005	2.68764	0.640663	3.29155	0.757376	3.89028	0.95705	4.9205	0.525935	2.69818	0.629613	3.22446	0.821789	4.21448	0.999482	5.11977
0.526088	2.68702	0.381071	1.93197	0.526373	2.68694	0.642246	3.28396	0.758985	3.87998	0.958126	4.90255	0.527995	2.69587	0.631355	3.21802	0.822911	4.20016	1.00052	5.10075
0.528457	2.68634	0.383098	1.93312	0.528743	2.68626	0.643832	3.27646	0.760597	3.86979	0.959207	4.88479	0.530054	2.69356	0.6331	3.21167	0.824038	4.186		
0.530829	2.68568	0.385125	1.93425	0.531115	2.6856	0.645421	3.26905	0.762213	3.85971	0.960292	4.86722	0.532112	2.69128	0.634851	3.2054	0.825168	4.172		
0.533203	2.68504	0.387152	1.93538	0.533489	2.68496	0.647015	3.26173	0.763832	3.84975	0.96138	4.84984	0.534168	2.68901	0.636606	3.19921	0.826303	4.15815		
0.535579	2.68441	0.389179	1.93649	0.535865	2.68433	0.648611	3.25449	0.765455	3.8399	0.962473	4.83264	0.536224	2.68675	0.638366	3.19311	0.827443	4.14446		
0.537957	2.68379	0.391206	1.93759	0.538243	2.68372	0.650211	3.24734	0.767082	3.83016	0.96357	4.81562	0.538278	2.68452	0.64013	3.18708	0.828587	4.13091		
0.540337	2.68319	0.393232	1.93868	0.540623	2.68312	0.651814	3.24027	0.768711	3.82052	0.964671	4.79878	0.540331	2.68229	0.641899	3.18113	0.829735	4.11751		
0.542718	2.6826	0.395258	1.93976	0.543005	2.68253	0.65342	3.23328	0.770345	3.81099	0.965777	4.78211	0.542383	2.68008	0.643673	3.17526	0.830887	4.10425		
0.545101	2.68203	0.397284	1.94083	0.545388	2.68196	0.65503	3.22637	0.771981	3.80156	0.966886	4.76562	0.544434	2.67789	0.645451	3.16946	0.832044	4.09114		
0.547485	2.68147	0.39931	1.94188	0.547773	2.6814	0.656643	3.21954	0.773621	3.79224	0.967999	4.74929	0.546484	2.67571	0.647234	3.16374	0.833205	4.07816		
0.549871	2.68092	0.401335	1.94293	0.550159	2.68086	0.658259	3.21278	0.775264	3.78302	0.969116	4.73314	0.548532	2.67354	0.649021	3.1581	0.83437	4.06533		
0.552259	2.68039	0.40336	1.94397	0.552546	2.68032	0.659878	3.20611	0.776911	3.7739	0.970237	4.71715	0.55058	2.67139	0.650813	3.15252	0.83554	4.05263		
0.554647	2.67986	0.405385	1.94499	0.554935	2.6798	0.661501	3.19951	0.778561	3.76487	0.971363	4.70133	0.552626	2.66925	0.652609	3.14702	0.836714	4.04006		
0.557037	2.67935	0.40741	1.94601	0.557325	2.67929	0.663127	3.19298	0.780213	3.75594	0.972492	4.68566	0.554671	2.66713	0.654409	3.14159	0.837892	4.02763		
0.559429	2.67885	0.409434	1.94701	0.559717	2.67879	0.664756	3.18653	0.78187	3.74711	0.973625	4.67016	0.556715	2.66502	0.656214	3.13622	0.839074	4.01533		
0.561821	2.67835	0.411458	1.94801	0.562109	2.67829	0.666388	3.18015	0.783529	3.73837	0.974762	4.65481	0.558758	2.66292	0.658023	3.13093	0.84026	4.00316		
0.564215	2.67787	0.413482	1.94899	0.564503	2.67781	0.668023	3.17384	0.785191	3.72972	0.975903	4.63962	0.5608	2.66084	0.659837	3.1257	0.841451	3.99112		
0.566609	2.6774	0.415506	1.94997	0.566898	2.67734	0.669661	3.16761	0.786857	3.72116	0.977049	4.62458	0.56284	2.65876	0.661654	3.12054	0.842646	3.9792		
0.569005	2.67693	0.417529	1.95093	0.569293	2.67687	0.671303	3.16144	0.788526	3.7127	0.978198	4.60969	0.564879	2.6567	0.663476	3.11544	0.843845	3.96741		
0.571401	2.67647	0.419553	1.95189	0.57169	2.67642	0.672947	3.15534	0.790197	3.70432	0.979351	4.59495	0.566917	2.65466	0.665303	3.11041	0.845049	3.95574		
0.573799	2.67602	0.421575	1.95284	0.574087	2.67597	0.674595	3.14931	0.791872	3.69602	0.980507	4.58035	0.568954	2.65262	0.667133	3.10544	0.846256	3.94419		
0.576197	2.67558	0.423598	1.95377	0.576486	2.67553	0.676246	3.14334	0.79355	3.68782	0.981668	4.5659	0.57099	2.6506	0.668968	3.10054	0.847468	3.93276		
0.578596	2.67515	0.42562	1.9547	0.578885	2.6751	0.6779	3.13744	0.795231	3.6797	0.982833	4.5516	0.573025	2.64859	0.670807	3.09569	0.848684	3.92145		
0.580996	2.67472	0.427643	1.95562	0.581285	2.67467	0.679556	3.1316	0.796915	3.67166	0.984002	4.53743	0.575058	2.64659	0.67265	3.0909	0.849904	3.91025		
0.583396	2.6743	0.429665	1.95653	0.583685	2.67425	0.681216	3.12583	0.798601	3.6637	0.985174	4.5234	0.57709	2.6446	0.674497	3.08618	0.851128	3.89917		
0.585798	2.67389	0.431686	1.95743	0.586087	2.67384	0.682879	3.12012	0.800291	3.65583	0.98635	4.50951	0.579121	2.64263	0.676348	3.08151	0.852356	3.8882		
0.588199	2.67348	0.433707	1.95832	0.588489	2.67344	0.684545	3.11448	0.801983	3.64803	0.987531	4.49576	0.581151	2.64066	0.678203	3.0769	0.853589	3.87734		
0.590602	2.67308	0.435729	1.95921	0.590891	2.67304	0.686213	3.10889	0.803679	3.64032	0.988715	4.48214	0.583179	2.63871	0.680062	3.07235	0.854825	3.8666		
0.593005	2.67269	0.437749	1.96008	0.593294	2.67264	0.687885	3.10336	0.805377	3.63268	0.989903	4.46865	0.585207	2.63677	0.681925	3.06786	0.856066	3.85596		
0.595408	2.6723	0.43977	1.96095	0.595698	2.67226	0.68956	3.0979	0.807078	3.62512	0.991094	4.45529	0.587233	2.63483	0.683792	3.06341	0.85731	3.84543		
0.597813	2.67192	0.44179	1.96181	0.598102	2.67187	0.691237	3.09249	0.808781	3.61763	0.99229	4.44206	0.589258	2.63291	0.685663	3.05903	0.858559	3.835		
0.600217	2.67154	0.44381	1.96266	0.600507	2.6715	0.692918	3.08714	0.810488	3.61022	0.993489	4.42896	0.591282	2.631	0.687538	3.0547	0.859812	3.82468		
0.602622	2.67117	0.44583	1.9635	0.602911	2.67112	0.694601	3.08185	0.812197	3.60288	0.994692	4.41598	0.593305	2.6291	0.689417	3.05042	0.861069	3.81446		
0.605027	2.6708	0.44785	1.96433	0.605317	2.67075	0.696288	3.07661	0.813909	3.59561	0.995899	4.40312	0.595326	2.62722	0.691299	3.04619	0.86233	3.80435		
0.607433	2.67043	0.449869	1.96516	0.607722	2.67039	0.697977	3.07143	0.815624	3.58842	0.99711	4.39039	0.597346	2.62534	0.693186	3.04201	0.863595	3.79433		
0.609839	2.67008	0.451888	1.96598	0.610128	2.67003	0.699669	3.06631	0.817341	3.58129	0.998324	4.37778	0.599365	2.62347	0.695076	3.03788	0.864863	3.78441		
0.612245	2.66972	0.453906	1.96679	0.612535	2.66968	0.701364	3.06123	0.819061	3.57424	0.999542	4.36529	0.601383	2.62161	0.69697	3.03381	0.866136	3.7746		
0.614651	2.66937	0.455925	1.96759	0.614941	2.66933	0.703062	3.05622	0.820783	3.56725	1.00076	4.35291	0.6034	2.61976	0.698867	3.02978	0.867413	3.76487		
0.617058	2.66902	0.457943	1.96839	0.617348	2.66898	0.704762	3.05125	0.822509	3.56033			0.605416	2.61792	0.700769	3.0258	0.868694	3.75525		
0.619465	2.66868	0.459961	1.96917	0.619755	2.66864	0.706466	3.04634	0.824236	3.55348			0.60743	2.61609	0.702673	3.02187	0.869979	3.74572		
0.621872	2.66834	0.461979	1.96995	0.622162	2.6683	0.708172	3.04148	0.825967	3.54669			0.609444	2.61427	0.704582	3.01799	0.871268	3.73628		
0.624279	2.668	0.463996	1.97073	0.624569	2.66796	0.709882	3.03667	0.827699	3.53997			0.611456	2.61247	0.706494	3.01415	0.872561	3.72693		
0.626686	2.66766	0.466013	1.97149	0.626976	2.66762	0.711593	3.03191	0.829435	3.53331			0.613467	2.61067	0.70841	3.01035	0.873858	3.71768		
0.629094	2.66733	0.46803	1.97225	0.629383	2.66729	0.713308	3.0272	0.831172	3.52672			0.615477	2.60887	0.710329	3.00661	0.875159	3.70851		
0.631501	2.667	0.470046	1.973	0.631791	2.66697	0.715026	3.02253	0.832913	3.52019			0.617485	2.60709	0.712252	3.0029	0.876464	3.69943		
0.633908	2.66668	0.472062	1.97374	0.634198	2.66664	0.716746	3.01792	0.834655	3.51372			0.619493	2.60532	0.714178	2.99924	0.877772	3.69045		
0.636316	2.66636	0.474078	1.97448	0.636605	2.66632	0.71847	3.01336	0.8364	3.50731			0.621499	2.60356	0.716107	2.99562	0.879085	3.68154		
0.638723	2.66603	0.476094	1.97521	0.639013	2.666	0.720196	3.00884	0.838148	3.50096			0.623505	2.6018	0.71804	2.99205	0.880401	3.67273		
0.64113	2.66572	0.478109	1.97594	0.64142	2.66568	0.721924	3.00437	0.839898	3.49466			0.625509	2.60006	0.719977	2.98852	0.881722	3.66399		
0.643537	2.6654	0.480124	1.97665	0.643827	2.66536	0.723656	2.99994	0.84165	3.48843			0.627512	2.59832	0.721917	2.98502	0.883046	3.65534		
0.645944	2.66508	0.482139	1.97736	0.646234	2.66505	0.72539	2.99556	0.843404	3.48226			0.629514	2.59659	0.72386	2.98157	0.884374	3.64678		
0.648351	2.66477	0.484154	1.97807	0.648641	2.66473	0.727127	2.99122	0.845161	3.47614			0.631515	2.59488	0.725806	2.97816	0.885706	3.63829		
0.650758	2.66446	0.486168	1.97876	0.651048	2.66442	0.728867	2.98693	0.84692	3.47008			0.633515	2.59317	0.727755	2.97478	0.887042	3.62989		
0.653164	2.66415	0.488182	1.97945	0.653454	2.66411	0.73061	2.98269	0.848682	3.46407			0.635514	2.59146	0.729708	2.97145	0.888382	3.62156		
0.65557	2.66384	0.490196	1.98014	0.65586	2.6638	0.732355	2.97848	0.850445	3.45812			0.637511	2.58977	0.731664	2.96815	0.889726	3.61332		
0.657976	2.66353	0.492209	1.98082	0.658266	2.6635	0.734104	2.97432	0.852211	3.45222			0.639508	2.58809	0.733623	2.9649	0.891073	3.60515		
0.660382	2.66323	0.494222	1.98149	0.660672	2.66319	0.735855	2.97021	0.853979	3.44637			0.641504	2.58641	0.735585	2.96167	0.892424	3.59706		
0.662787	2.66292	0.496235	1.98216	0.663077	2.66288	0.737608	2.96613	0.855749	3.44058			0.643498	2.58474	0.737551	2.95849	0.89378	3.58904		
0.665192	2.66262	0.498248	1.98281	0.665482	2.66258	0.739365	2.9621	0.857522	3.43484			0.645492	2.58308	0.739519	2.95534	0.895139	3.5811		
0.667597	2.66231	0.50026	1.98347	0.667887	2.66228	0.741124	2.9581	0.859296	3.42915			0.647484	2.58143	0.74149	2.95223	0.896501	3.57323		
0.670001	2.66201	0.502272	1.98412	0.670291	2.66197	0.742886	2.95415	0.861073	3.42351			0.649476	2.57979	0.743465	2.94915	0.897868	3.56544		
0.672405	2.66171	0.504284	1.98476	0.672694	2.66167	0.744651	2.95024	0.862851	3.41792			0.651466	2.57815	0.745442	2.9461	0.899238	3.55772		
0.674808	2.66141	0.506295	1.98539	0.675098	2.66137	0.746419	2.94636	0.864632	3.41238			0.653456	2.57653	0.747422	2.94309	0.900612	3.55007		
0.677211	2.66111	0.508306	1.98603	0.677501	2.66107	0.748189	2.94253	0.866415	3.40689			0.655444	2.57491	0.749405	2.94011	0.90199	3.54249		
0.679614	2.6608	0.510317	1.98665	0.679903	2.66077	0.749962	2.93874	0.8682	3.40145			0.657432	2.5733	0.751391	2.93717	0.903372	3.53498		
0.682015	2.6605	0.512328	1.98727	0.682305	2.66047	0.751738	2.93498	0.869987	3.39605			0.659418	2.5717	0.75338	2.93426	0.904757	3.52754		
0.684417	2.6602	0.514338	1.98788	0.684706	2.66016	0.753517	2.93126	0.871776	3.3907			0.661404	2.5701	0.755372	2.93138	0.906146	3.52017		
0.686817	2.6599	0.516348	1.98849	0.687106	2.65986	0.755298	2.92758	0.873567	3.3854			0.663388	2.56851	0.757366	2.92853	0.907539	3.51287		
0.689217	2.6596	0.518358	1.98909	0.689506	2.65956	0.757082	2.92394	0.875359	3.38014			0.665372	2.56693	0.759363	2.92571	0.908936	3.50563		
0.691617	2.6593	0.520367	1.98969	0.691906	2.65926	0.75887	2.92033	0.877154	3.37493			0.667355	2.56536	0.761363	2.92292	0.910336	3.49846		
0.694015	2.65899	0.522376	1.99028	0.694304	2.65896	0.760659	2.91676	0.878951	3.36977			0.669337	2.5638	0.763366	2.92016	0.91174	3.49135		
0.696413	2.65869	0.524385	1.99087	0.696702	2.65865	0.762452	2.91323	0.88075	3.36464			0.671317	2.56224	0.765371	2.91744	0.913148	3.48431		
0.69881	2.65839	0.526394	1.99145	0.699099	2.65835	0.764248	2.90973	0.88255	3.35956			0.673297	2.56069	0.767378	2.91474	0.914559	3.47734		
0.701207	2.65808	0.528402	1.99203	0.701495	2.65804	0.766046	2.90627	0.884352	3.35453			0.675277	2.55915	0.769389	2.91207	0.915974	3.47042		
0.703602	2.65778	0.53041	1.9926	0.703891	2.65774	0.767848	2.90284	0.886157	3.34953			0.677255	2.55762	0.771402	2.90943	0.917393	3.46357		
0.705997	2.65747	0.532418	1.99316	0.706285	2.65743	0.769652	2.89945	0.887963	3.34458			0.679232	2.55609	0.773417	2.90681	0.918816	3.45678		
0.708391	2.65716	0.534425	1.99373	0.708679	2.65712	0.771459	2.89609	0.889771	3.33967			0.681209	2.55457	0.775435	2.90423	0.920242	3.45006		
0.710784	2.65685	0.536432	1.99428	0.711072	2.65681	0.773269	2.89277	0.89158	3.3348			0.683184	2.55306	0.777455	2.90167	0.921672	3.44339		
0.713176	2.65654	0.538439	1.99483	0.713464	2.6565	0.775082	2.88948	0.893392	3.32997			0.685159	2.55156	0.779477	2.89914	0.923105	3.43678		
0.715567	2.65623	0.540446	1.99538	0.715855	2.65619	0.776898	2.88622	0.895205	3.32518			0.687133	2.55006	0.781502	2.89663	0.924542	3.43023		
0.717957	2.65591	0.542452	1.99592	0.718245	2.65588	0.778716	2.883	0.89702	3.32043			0.689106	2.54857	0.78353	2.89415	0.925983	3.42374		
0.720346	2.6556	0.544458	1.99646	0.720633	2.65556	0.780538	2.87981	0.898837	3.31572			0.691079	2.54709	0.785559	2.8917	0.927428	3.41731		
0.722734	2.65528	0.546463	1.99699	0.723021	2.65524	0.782363	2.87666	0.900655	3.31105			0.69305	2.54561	0.787591	2.88927	0.928876	3.41094		
0.72512	2.65496	0.548469	1.99752	0.725407	2.65492	0.78419	2.87353	0.902475	3.30642			0.695021	2.54415	0.789626	2.88686	0.930327	3.40462		
0.727506	2.65464	0.550474	1.99804	0.727793	2.6546	0.786021	2.87044	0.904297	3.30182			0.696991	2.54269	0.791662	2.88448	0.931783	3.39836		
0.72989	2.65432	0.552479	1.99856	0.730177	2.65428	0.787855	2.86738	0.90612	3.29726			0.69896	2.54123	0.793701	2.88212	0.933241	3.39215		
0.732273	2.65399	0.554483	1.99907	0.73256	2.65395	0.789692	2.86436	0.907945	3.29274			0.700929	2.53979	0.795741	2.87979	0.934704	3.386		
0.734655	2.65366	0.556488	1.99958	0.734941	2.65362	0.791532	2.86136	0.909772	3.28825			0.702896	2.53835	0.797784	2.87748	0.93617	3.3799		
0.737035	2.65333	0.558492	2.00009	0.737322	2.65329	0.793375	2.85839	0.9116	3.2838			0.704863	2.53691	0.799829	2.8752	0.93764	3.37386		
0.739414	2.653	0.560495	2.00059	0.7397	2.65296	0.795221	2.85546	0.91343	3.27939			0.70683	2.53549	0.801876	2.87293	0.939113	3.36787		
0.741792	2.65266	0.562499	2.00108	0.742078	2.65262	0.79707	2.85256	0.915262	3.27501			0.708795	2.53407	0.803925	2.87069	0.94059	3.36194		
0.744168	2.65232	0.564502	2.00157	0.744454	2.65228	0.798923	2.84969	0.917095	3.27067			0.71076	2.53266	0.805976	2.86847	0.94207	3.35605		
0.746542	2.65198	0.566505	2.00206	0.746828	2.65193	0.800779	2.84685	0.918929	3.26636			0.712725	2.53126	0.808029	2.86627	0.943554	3.35022		
0.748915	2.65163	0.568507	2.00254	0.749201	2.65159	0.802638	2.84403	0.920766	3.26208			0.714688	2.52986	0.810084	2.8641	0.945041	3.34444		
0.751287	2.65128	0.570509	2.00302	0.751572	2.65124	0.8045	2.84125	0.922603	3.25784			0.716651	2.52847	0.81214	2.86194	0.946532	3.3387		
0.753656	2.65093	0.572511	2.0035	0.753942	2.65088	0.806366	2.8385	0.924442	3.25363			0.718613	2.52708	0.814199	2.85981	0.948027	3.33302		
0.756024	2.65057	0.574513	2.00397	0.756309	2.65053	0.808235	2.83578	0.926283	3.24945			0.720575	2.52571	0.816259	2.85769	0.949525	3.32739		
0.758391	2.65021	0.576514	2.00444	0.758675	2.65016	0.810107	2.83309	0.928125	3.2453			0.722536	2.52434	0.818322	2.8556	0.951027	3.32181		
0.760755	2.64984	0.578516	2.0049	0.76104	2.6498	0.811983	2.83043	0.929968	3.24119			0.724496	2.52297	0.820386	2.85352	0.952532	3.31627		
0.763118	2.64947	0.580516	2.00536	0.763402	2.64943	0.813862	2.82779	0.931813	3.23711			0.726456	2.52162	0.822451	2.85147	0.954041	3.31078		
0.765478	2.6491	0.582517	2.00581	0.765762	2.64906	0.815745	2.82519	0.93366	3.23306			0.728415	2.52027	0.824519	2.84943	0.955553	3.30535		
0.767837	2.64872	0.584517	2.00627	0.768121	2.64868	0.817631	2.82261	0.935508	3.22904			0.730374	2.51892	0.826588	2.84741	0.957069	3.29995		
0.770193	2.64834	0.586517	2.00671	0.770477	2.64829	0.819521	2.82007	0.937357	3.22505			0.732332	2.51759	0.828659	2.84541	0.958588	3.29461		
0.772548	2.64795	0.588517	2.00716	0.772831	2.64791	0.821415	2.81755	0.939207	3.22109			0.73429	2.51626	0.830731	2.84343	0.960111	3.28931		
0.7749	2.64756	0.590516	2.0076	0.775183	2.64751	0.823312	2.81506	0.941059	3.21716			0.736247	2.51493	0.832805	2.84147	0.961637	3.28405		
0.777251	2.64717	0.592515	2.00803	0.777533	2.64712	0.825213	2.8126	0.942912	3.21326			0.738203	2.51362	0.83488	2.83952	0.963167	3.27885		
0.779598	2.64676	0.594514	2.00846	0.779881	2.64671	0.827118	2.81017	0.944767	3.20939			0.740159	2.51231	0.836957	2.8376	0.9647	3.27368		
0.781944	2.64636	0.596513	2.00889	0.782226	2.64631	0.829026	2.80777	0.946623	3.20555			0.742114	2.511	0.839036	2.83569	0.966236	3.26856		
0.784287	2.64594	0.598511	2.00932	0.784569	2.64589	0.830938	2.80539	0.94848	3.20174			0.744069	2.50971	0.841116	2.83379	0.967777	3.26349		
0.786628	2.64552	0.600509	2.00974	0.78691	2.64547	0.832855	2.80304	0.950338	3.19796			0.746023	2.50841	0.843197	2.83192	0.96932	3.25846		
0.788966	2.6451	0.602507	2.01016	0.789247	2.64505	0.834775	2.80072	0.952198	3.1942			0.747977	2.50713	0.84528	2.83006	0.970867	3.25347		
0.791302	2.64467	0.604504	2.01057	0.791583	2.64462	0.836699	2.79843	0.954059	3.19047			0.749931	2.50585	0.847364	2.82821	0.972418	3.24852		
0.793635	2.64423	0.606501	2.01098	0.793915	2.64418	0.838627	2.79617	0.955921	3.18677			0.751884	2.50458	0.84945	2.82638	0.973972	3.24362		
0.795965	2.64379	0.608498	2.01139	0.796245	2.64374	0.84056	2.79393	0.957785	3.18309			0.753836	2.50332	0.851537	2.82457	0.975529	3.23875		
0.798292	2.64334	0.610495	2.01179	0.798572	2.64329	0.842496	2.79172	0.959649	3.17945			0.755788	2.50206	0.853625	2.82277	0.97709	3.23393		
0.800617	2.64288	0.612491	2.01219	0.800897	2.64283	0.844437	2.78954	0.961515	3.17583			0.75774	2.5008	0.855714	2.82099	0.978654	3.22915		
0.802939	2.64242	0.614487	2.01259	0.803218	2.64236	0.846382	2.78739	0.963382	3.17223			0.759691	2.49956	0.857804	2.81922	0.980222	3.22441		
0.805257	2.64195	0.616483	2.01298	0.805536	2.64189	0.848331	2.78526	0.965251	3.16866			0.761642	2.49832	0.859896	2.81747	0.981794	3.21971		
0.807573	2.64147	0.618478	2.01338	0.807852	2.64142	0.850285	2.78316	0.96712	3.16512			0.763592	2.49708	0.861989	2.81573	0.983368	3.21505		
0.809885	2.64099	0.620473	2.01376	0.810164	2.64093	0.852243	2.78109	0.968991	3.1616			0.765542	2.49586	0.864083	2.81401	0.984946	3.21043		
0.812195	2.6405	0.622468	2.01415	0.812472	2.64044	0.854206	2.77905	0.970862	3.15811			0.767492	2.49464	0.866178	2.8123	0.986528	3.20585		
0.814501	2.64	0.624463	2.01453	0.814778	2.63994	0.856173	2.77703	0.972735	3.15464			0.769441	2.49342	0.868275	2.8106	0.988113	3.20131		
0.816803	2.63949	0.626457	2.0149	0.81708	2.63943	0.858145	2.77504	0.974609	3.15119			0.77139	2.49221	0.870372	2.80892	0.989701	3.19681		
0.819103	2.63897	0.628451	2.01528	0.819379	2.63891	0.860122	2.77307	0.976484	3.14777			0.773339	2.49101	0.87247	2.80725	0.991293	3.19234		
0.821398	2.63845	0.630445	2.01565	0.821674	2.63839	0.862103	2.77114	0.97836	3.14438			0.775287	2.48981	0.874569	2.80559	0.992888	3.18791		
0.82369	2.63792	0.632438	2.01602	0.823966	2.63785	0.864089	2.76923	0.980237	3.141			0.777235	2.48862	0.87667	2.80395	0.994486	3.18352		
0.825979	2.63738	0.634431	2.01638	0.826254	2.63731	0.86608	2.76735	0.982116	3.13766			0.779182	2.48744	0.878771	2.80232	0.996088	3.17917		
0.828264	2.63683	0.636424	2.01675	0.828539	2.63676	0.868076	2.76549	0.983995	3.13433			0.78113	2.48626	0.880873	2.8007	0.997694	3.17485		
0.830545	2.63627	0.638417	2.01711	0.830819	2.6362	0.870077	2.76366	0.985875	3.13103			0.783077	2.48509	0.882976	2.7991	0.999303	3.17057		
0.832822	2.63571	0.640409	2.01746	0.833096	2.63564	0.872083	2.76186	0.987757	3.12775			0.785023	2.48392	0.885079	2.7975	1.00091	3.16633		
0.835095	2.63513	0.642402	2.01781	0.835369	2.63506	0.874094	2.76009	0.989639	3.12449			0.78697	2.48276	0.887184	2.79592				
0.837364	2.63454	0.644393	2.01816	0.837637	2.63447	0.87611	2.75834	0.991522	3.12125			0.788916	2.4816	0.889289	2.79435				
0.83963	2.63395	0.646385	2.01851	0.839902	2.63388	0.878132	2.75662	0.993407	3.11804			0.790862	2.48045	0.891395	2.79279				
0.841891	2.63335	0.648376	2.01886	0.842163	2.63327	0.880158	2.75492	0.995292	3.11485			0.792807	2.47931	0.893502	2.79125				
0.844148	2.63273	0.650367	2.0192	0.844419	2.63266	0.88219	2.75325	0.997178	3.11168			0.794752	2.47817	0.89561	2.78971				
0.846401	2.63211	0.652358	2.01954	0.846672	2.63204	0.884227	2.75161	0.999065	3.10853			0.796698	2.47704	0.897718	2.78819				
0.848649	2.63148	0.654348	2.01987	0.84892	2.6314	0.88627	2.74999	1.00095	3.1054			0.798642	2.47592	0.899827	2.78667				
0.850893	2.63084	0.656338	2.02021	0.851163	2.63076	0.888318	2.7484					0.800587	2.4748	0.901937	2.78517				
0.853133	2.63019	0.658328	2.02054	0.853402	2.63011	0.890372	2.74684					0.802531	2.47368	0.904047	2.78368				
0.855368	2.62952	0.660318	2.02086	0.855637	2.62944	0.892431	2.7453					0.804476	2.47258	0.906158	2.78219				
0.857599	2.62885	0.662307	2.02119	0.857867	2.62877	0.894496	2.74379					0.80642	2.47147	0.908269	2.78072				
0.859825	2.62817	0.664296	2.02151	0.860093	2.62809	0.896566	2.7423					0.808363	2.47038	0.910381	2.77926				
0.862047	2.62748	0.666285	2.02183	0.862314	2.6274	0.898642	2.74084					0.810307	2.46929	0.912493	2.77781				
0.864264	2.62678	0.668274	2.02215	0.864531	2.62669	0.900724	2.7394					0.81225	2.4682	0.914606	2.77636				
0.866477	2.62607	0.670262	2.02246	0.866743	2.62598	0.902811	2.73799					0.814194	2.46712	0.916719	2.77493				
0.868684	2.62534	0.67225	2.02278	0.86895	2.62526	0.904904	2.73661					0.816137	2.46605	0.918832	2.77351				
0.870887	2.62461	0.674238	2.02308	0.871152	2.62452	0.907003	2.73525					0.81808	2.46498	0.920946	2.77209				
0.873086	2.62387	0.676225	2.02339	0.87335	2.62378	0.909108	2.73391					0.820023	2.46392	0.923061	2.77069				
0.875279	2.62312	0.678212	2.0237	0.875543	2.62303	0.911218	2.7326					0.821965	2.46286	0.925175	2.76929				
0.877468	2.62235	0.680199	2.024	0.877731	2.62226	0.913334	2.73132					0.823908	2.46181	0.92729	2.7679				
0.879652	2.62158	0.682186	2.0243	0.879915	2.62149	0.915456	2.73006					0.82585	2.46076	0.929406	2.76652				
0.881832	2.6208	0.684172	2.02459	0.882094	2.62071	0.917583	2.72882					0.827792	2.45972	0.931521	2.76515				
0.884006	2.62001	0.686158	2.02489	0.884268	2.61991	0.919716	2.72761					0.829735	2.45868	0.933637	2.76379				
0.886176	2.61921	0.688144	2.02518	0.886437	2.61911	0.921855	2.72642					0.831677	2.45765	0.935753	2.76243				
0.888341	2.6184	0.69013	2.02547	0.888601	2.6183	0.924	2.72525					0.833619	2.45663	0.937869	2.76108				
0.890501	2.61757	0.692115	2.02576	0.890761	2.61748	0.92615	2.72411					0.835561	2.45561	0.939985	2.75974				
0.892657	2.61674	0.6941	2.02604	0.892916	2.61664	0.928306	2.72298					0.837502	2.45459	0.942102	2.75841				
0.894808	2.61591	0.696085	2.02633	0.895067	2.6158	0.930467	2.72189					0.839444	2.45358	0.944218	2.75709				
0.896954	2.61506	0.698069	2.02661	0.897212	2.61495	0.932635	2.72081					0.841386	2.45258	0.946335	2.75577				
0.899096	2.6142	0.700054	2.02688	0.899353	2.6141	0.934807	2.71976					0.843327	2.45158	0.948452	2.75446				
0.901233	2.61333	0.702038	2.02716	0.90149	2.61323	0.936986	2.71872					0.845269	2.45059	0.950568	2.75316				
0.903365	2.61246	0.704021	2.02743	0.903622	2.61235	0.939169	2.71771					0.84721	2.4496	0.952685	2.75187				
0.905493	2.61158	0.706005	2.0277	0.905749	2.61147	0.941358	2.71672					0.849152	2.44862	0.954802	2.75058				
0.907616	2.61068	0.707988	2.02797	0.907872	2.61058	0.943553	2.71575					0.851093	2.44764	0.956919	2.7493				
0.909735	2.60979	0.709971	2.02824	0.90999	2.60968	0.945753	2.71481					0.853034	2.44667	0.959035	2.74802				
0.91185	2.60888	0.711954	2.02851	0.912104	2.60877	0.947958	2.71388					0.854976	2.4457	0.961152	2.74675				
0.91396	2.60796	0.713936	2.02877	0.914214	2.60785	0.950168	2.71297					0.856917	2.44474	0.963268	2.74549				
0.916066	2.60704	0.715918	2.02903	0.916319	2.60693	0.952383	2.71208					0.858858	2.44378	0.965385	2.74424				
0.918168	2.60611	0.7179	2.02929	0.918421	2.606	0.954603	2.71121					0.8608	2.44283	0.967501	2.74299				
0.920265	2.60518	0.719882	2.02954	0.920518	2.60507	0.956829	2.71036					0.862741	2.44188	0.969617	2.74174				
0.922359	2.60424	0.721863	2.0298	0.922611	2.60412	0.959059	2.70952					0.864682	2.44094	0.971733	2.74051				
0.924448	2.60329	0.723844	2.03005	0.9247	2.60317	0.961294	2.70871					0.866624	2.44	0.973848	2.73928				
0.926534	2.60233	0.725825	2.0303	0.926785	2.60222	0.963534	2.70791					0.868565	2.43907	0.975964	2.73805				
0.928616	2.60137	0.727806	2.03055	0.928866	2.60126	0.965778	2.70713					0.870506	2.43814	0.978079	2.73683				
0.930694	2.60041	0.729786	2.0308	0.930944	2.60029	0.968027	2.70636					0.872448	2.43722	0.980194	2.73562				
0.932768	2.59944	0.731766	2.03104	0.933017	2.59932	0.970281	2.70562					0.874389	2.4363	0.982308	2.73441				
0.934838	2.59846	0.733746	2.03128	0.935087	2.59834	0.972538	2.70489					0.87633	2.43539	0.984423	2.7332				
0.936905	2.59748	0.735725	2.03152	0.937154	2.59736	0.974801	2.70417					0.878272	2.43448	0.986536	2.73201				
0.938969	2.59649	0.737705	2.03176	0.939217	2.59637	0.977067	2.70347					0.880213	2.43358	0.98865	2.73081				
0.941029	2.5955	0.739684	2.032	0.941277	2.59538	0.979338	2.70279					0.882155	2.43268	0.990763	2.72963				
0.943086	2.59451	0.741663	2.03223	0.943333	2.59439	0.981613	2.70212					0.884096	2.43178	0.992876	2.72844				
0.945139	2.59351	0.743641	2.03246	0.945386	2.59339	0.983891	2.70146					0.886038	2.43089	0.994988	2.72727				
0.947189	2.59251	0.74562	2.0327	0.947436	2.59238	0.986174	2.70082					0.88798	2.43001	0.9971	2.72609				
0.949236	2.5915	0.747598	2.03292	0.949483	2.59138	0.98846	2.70019					0.889921	2.42913	0.999211	2.72492				
0.951281	2.59049	0.749575	2.03315	0.951527	2.59037	0.99075	2.69958					0.891863	2.42826	1.00132	2.72376				
0.953322	2.58948	0.751553	2.03338	0.953567	2.58936	0.993044	2.69897					0.893805	2.42739						
0.95536	2.58847	0.75353	2.0336	0.955605	2.58834	0.995342	2.69838					0.895747	2.42652						
0.957395	2.58745	0.755507	2.03382	0.95764	2.58733	0.997642	2.69781					0.897689	2.42566						
0.959428	2.58643	0.757484	2.03404	0.959673	2.58631	0.999947	2.69724					0.899631	2.4248						
0.961458	2.58541	0.759461	2.03426	0.961703	2.58529	1.00225	2.69669					0.901573	2.42395						
0.963486	2.58439	0.761437	2.03448	0.96373	2.58426							0.903516	2.4231						
0.965511	2.58336	0.763413	2.03469	0.965755	2.58324							0.905458	2.42226						
0.967533	2.58234	0.765389	2.0349	0.967777	2.58221							0.907401	2.42142						
0.969554	2.58131	0.767365	2.03512	0.969797	2.58119							0.909343	2.42059						
0.971572	2.58028	0.76934	2.03533	0.971814	2.58016							0.911286	2.41976						
0.973587	2.57925	0.771315	2.03553	0.97383	2.57913							0.913229	2.41893						
0.975601	2.57822	0.77329	2.03574	0.975843	2.5781							0.915172	2.41811						
0.977612	2.57719	0.775264	2.03594	0.977854	2.57707							0.917115	2.41729						
0.979622	2.57616	0.777239	2.03615	0.979864	2.57604							0.919058	2.41648						
0.981629	2.57513	0.779213	2.03635	0.981871	2.57501							0.921001	2.41567						
0.983635	2.5741	0.781187	2.03655	0.983876	2.57398							0.922945	2.41487						
0.985639	2.57307	0.783161	2.03675	0.98588	2.57295							0.924888	2.41407						
0.98764	2.57204	0.785134	2.03694	0.987881	2.57192							0.926832	2.41327						
0.989641	2.57101	0.787107	2.03714	0.989881	2.57089							0.928776	2.41248						
0.991639	2.56999	0.78908	2.03733	0.99188	2.56986							0.93072	2.41169						
0.993636	2.56896	0.791053	2.03752	0.993876	2.56883							0.932664	2.41091						
0.995632	2.56793	0.793025	2.03771	0.995872	2.56781							0.934608	2.41013						
0.997625	2.56691	0.794997	2.0379	0.997865	2.56678							0.936553	2.40936						
0.999618	2.56588	0.796969	2.03809	0.999858	2.56576							0.938497	2.40859						
1.00161	2.56486	0.798941	2.03828	1.00185	2.56473							0.940442	2.40782						
		0.800913	2.03846									0.942387	2.40706						
		0.802884	2.03864									0.944332	2.4063						
		0.804855	2.03883									0.946277	2.40555						
		0.806826	2.03901									0.948223	2.4048						
		0.808796	2.03918									0.950168	2.40405						
		0.810767	2.03936									0.952114	2.40331						
		0.812737	2.03954									0.95406	2.40257						
		0.814707	2.03971									0.956006	2.40184						
		0.816676	2.03988									0.957952	2.4011						
		0.818646	2.04006									0.959899	2.40038						
		0.820615	2.04023									0.961845	2.39965						
		0.822584	2.04039									0.963792	2.39894						
		0.824552	2.04056									0.965739	2.39822						
		0.826521	2.04073									0.967686	2.39751						
		0.828489	2.04089									0.969634	2.3968						
		0.830457	2.04106									0.971581	2.3961						
		0.832425	2.04122									0.973529	2.3954						
		0.834393	2.04138									0.975477	2.3947						
		0.83636	2.04154									0.977425	2.39401						
		0.838327	2.0417									0.979374	2.39332						
		0.840294	2.04186									0.981322	2.39263						
		0.842261	2.04201									0.983271	2.39195						
		0.844227	2.04217									0.98522	2.39127						
		0.846194	2.04232									0.987169	2.3906						
		0.84816	2.04247									0.989119	2.38992						
		0.850126	2.04262									0.991069	2.38926						
		0.852091	2.04277									0.993018	2.38859						
		0.854057	2.04292									0.994969	2.38793						
		0.856022	2.04307									0.996919	2.38727						
		0.857987	2.04322									0.998869	2.38662						
		0.859952	2.04336									1.00082	2.38597						
		0.861916	2.04351																
		0.86388	2.04365																
		0.865844	2.04379																
		0.867808	2.04393																
		0.869772	2.04407																
		0.871736	2.04421																
		0.873699	2.04435																
		0.875662	2.04448																
		0.877625	2.04462																
		0.879587	2.04475																
		0.88155	2.04488																
		0.883512	2.04502																
		0.885474	2.04515																
		0.887436	2.04528																
		0.889397	2.04541																
		0.891359	2.04553																
		0.89332	2.04566																
		0.895281	2.04579																
		0.897242	2.04591																
		0.899202	2.04603																
		0.901163	2.04616																
		0.903123	2.04628																
		0.905083	2.0464																
		0.907043	2.04652																
		0.909002	2.04664																
		0.910962	2.04676																
		0.912921	2.04687																
		0.91488	2.04699																
		0.916839	2.04711																
		0.918797	2.04722																
		0.920756	2.04733																
		0.922714	2.04745																
		0.924672	2.04756																
		0.92663	2.04767																
		0.928587	2.04778																
		0.930545	2.04789																
		0.932502	2.048																
		0.934459	2.0481																
		0.936416	2.04821																
		0.938373	2.04831																
		0.940329	2.04842																
		0.942285	2.04852																
		0.944241	2.04863																
		0.946197	2.04873																
		0.948153	2.04883																
		0.950109	2.04893																
		0.952064	2.04903																
		0.954019	2.04913																
		0.955974	2.04923																
		0.957929	2.04933																
		0.959884	2.04942																
		0.961838	2.04952																
		0.963793	2.04961																
		0.965747	2.04971																
		0.967701	2.0498																
		0.969654	2.04989																
		0.971608	2.04999																
		0.973561	2.05008																
		0.975515	2.05017																
		0.977468	2.05026																
		0.979421	2.05035																
		0.981373	2.05044																
		0.983326	2.05053																
		0.985278	2.05061																
		0.98723	2.0507																
		0.989182	2.05078																
		0.991134	2.05087																
		0.993086	2.05095																
		0.995037	2.05104																
		0.996989	2.05112																
		0.99894	2.0512																
		1.00089	2.05129																
