Sym0		Asym0		Sym1		Sym2		Sym3		Sym4		Asym1		Asym2		Asym3		Asym4	
422  Points		526  Points		422  Points		402  Points		350  Points		251  Points		454  Points		398  Points		343  Points		215  Points	
Freq (MHz)	Vph (m/ms)	Freq (MHz)	Vph (m/ms)	Freq (MHz)	Vph (m/ms)	Freq (MHz)	Vph (m/ms)	Freq (MHz)	Vph (m/ms)	Freq (MHz)	Vph (m/ms)	Freq (MHz)	Vph (m/ms)	Freq (MHz)	Vph (m/ms)	Freq (MHz)	Vph (m/ms)	Freq (MHz)	Vph (m/ms)
0.27951	525.572	0.000338212	0.113762	0.27951	526.572	0.441316	2214.69	0.559017	2227.31	0.838526	12086.6	0.139763	289.482	0.419267	507.225	0.698772	1251.63	0.882634	1127.2
0.279521	190.993	0.000582376	0.149148	0.279521	191.125	0.441325	390.22	0.559026	472.678	0.838529	837.632	0.139832	98.8562	0.419284	238.462	0.698779	468.984	0.882642	514.742
0.279543	116.709	0.000891451	0.184323	0.279543	116.758	0.441345	213.969	0.559046	264.403	0.838538	433.854	0.139968	59.6574	0.419312	155.879	0.698792	288.557	0.882655	333.528
0.279575	84.0346	0.00126457	0.219236	0.279575	84.0601	0.441376	147.403	0.559077	183.54	0.838553	292.744	0.140171	42.7625	0.419351	115.789	0.69881	208.39	0.882675	246.687
0.279618	65.6596	0.0017008	0.25386	0.279618	65.6751	0.44142	112.434	0.559119	140.561	0.838574	220.901	0.14044	33.362	0.419403	92.1082	0.698835	163.086	0.8827	195.729
0.279671	53.8834	0.00219885	0.28813	0.279671	53.8939	0.441475	90.8807	0.559172	113.897	0.838601	177.375	0.140775	27.3813	0.419466	76.4741	0.698865	133.965	0.882731	162.222
0.279735	45.6934	0.00275748	0.322017	0.279735	45.7009	0.441542	76.2668	0.559237	95.7408	0.838634	148.18	0.141174	23.2463	0.419541	65.382	0.698902	113.671	0.882768	138.512
0.279809	39.6684	0.0033753	0.355488	0.279809	39.6741	0.44162	65.7062	0.559312	82.5815	0.838672	127.24	0.141637	20.2204	0.419627	57.1041	0.698945	98.7188	0.88281	120.852
0.279893	35.0507	0.00405078	0.388507	0.279893	35.0551	0.44171	57.7186	0.559399	72.6064	0.838716	111.488	0.142163	17.9128	0.419725	50.6905	0.698993	87.2449	0.882859	107.187
0.279988	31.3991	0.00478235	0.421047	0.279988	31.4026	0.441812	51.4662	0.559497	64.7848	0.838767	99.208	0.142749	16.097	0.419835	45.5756	0.699048	78.1623	0.882913	96.3008
0.280094	28.4394	0.00556836	0.453083	0.280093	28.4423	0.441926	46.4392	0.559606	58.4876	0.838823	89.3665	0.143395	14.6325	0.419957	41.4014	0.699109	70.7941	0.882973	87.4232
0.280209	25.9923	0.00640702	0.484586	0.280209	25.9948	0.442051	42.31	0.559726	53.3091	0.838885	81.3029	0.144099	13.4278	0.42009	37.9305	0.699175	64.6969	0.883039	80.0457
0.280336	23.9354	0.00729667	0.515545	0.280336	23.9375	0.442188	38.8579	0.559857	48.9757	0.838952	74.5754	0.14486	12.4203	0.420235	34.9993	0.699248	59.5681	0.88311	73.8178
0.280473	22.1825	0.00823547	0.545937	0.280472	22.1843	0.442336	35.9293	0.56	45.2963	0.839026	68.8776	0.145675	11.5663	0.420391	32.4912	0.699326	55.194	0.883187	68.4903
0.28062	20.671	0.00922169	0.575754	0.28062	20.6725	0.442496	33.4136	0.560153	42.1335	0.839106	63.9898	0.146544	10.8338	0.420559	30.3208	0.699411	51.4197	0.883271	63.8812
0.280777	19.3543	0.0102536	0.604988	0.280777	19.3556	0.442668	31.2294	0.560318	39.3857	0.839191	59.751	0.147342	10.276	0.420739	28.4244	0.699502	48.1296	0.88336	59.8545
0.280945	18.1972	0.0113292	0.633621	0.280945	18.1984	0.442851	29.3155	0.560493	36.9765	0.839282	56.0399	0.148053	9.85013	0.42093	26.7534	0.699598	45.2363	0.883454	56.3063
0.281124	17.1725	0.012447	0.661659	0.281124	17.1735	0.443045	27.6246	0.56068	34.8469	0.839379	52.764	0.148661	9.52778	0.421133	25.2699	0.699701	42.6722	0.883555	53.1562
0.281313	16.2587	0.0136051	0.689095	0.281313	16.2596	0.443252	26.1201	0.560878	32.9511	0.839482	49.8508	0.149154	9.28995	0.421348	23.9441	0.69981	40.3842	0.883661	50.3409
0.281512	15.4388	0.014802	0.71593	0.281512	15.4397	0.443469	24.7728	0.561086	31.2527	0.839591	47.2434	0.149524	9.12389	0.421574	22.7524	0.699924	38.33	0.883773	47.8097
0.281722	14.6993	0.0160358	0.742163	0.281722	14.7	0.443699	23.5594	0.561306	29.7225	0.839705	44.8962	0.149764	9.02129	0.421811	21.6753	0.700045	36.4755	0.883891	45.5217
0.281942	14.0288	0.017305	0.767797	0.281942	14.0295	0.443939	22.461	0.561537	28.3367	0.839825	42.7719	0.150112	8.87857	0.42206	20.6972	0.700171	34.7931	0.884014	43.4434
0.282173	13.4182	0.0186081	0.792838	0.282172	13.4188	0.444191	21.4621	0.561779	27.0759	0.839952	40.8404	0.150497	8.72951	0.422321	19.8051	0.700304	33.2598	0.884144	41.5475
0.282414	12.8599	0.0199436	0.817296	0.282413	12.8605	0.444455	20.5497	0.562032	25.924	0.840084	39.0766	0.151029	8.53629	0.422593	18.9882	0.700442	31.8567	0.884279	39.8108
0.282665	12.3475	0.02131	0.841172	0.282665	12.348	0.44473	19.7133	0.562296	24.8675	0.840222	37.4596	0.151716	8.30645	0.422877	18.2374	0.700587	30.568	0.88442	38.2143
0.282926	11.8756	0.0227058	0.864477	0.282926	11.8761	0.445016	18.9436	0.56257	23.8951	0.840365	35.9718	0.152569	8.04815	0.423172	17.5452	0.700738	29.3802	0.884566	36.7415
0.283198	11.4396	0.0241297	0.887218	0.283198	11.4401	0.445314	18.2331	0.562856	22.9971	0.840515	34.5984	0.153598	7.76966	0.423478	16.9049	0.700894	28.282	0.884719	35.3787
0.283481	11.0357	0.0255805	0.909408	0.28348	11.0361	0.445623	17.5753	0.563152	22.1655	0.84067	33.3267	0.154815	7.47879	0.423796	16.3109	0.701056	27.2635	0.884877	34.114
0.283774	10.6604	0.027057	0.931058	0.283773	10.6608	0.445943	16.9646	0.56346	21.3931	0.840831	32.1458	0.156071	7.21472	0.424125	15.7585	0.701225	26.3166	0.885041	32.9373
0.284076	10.3109	0.0285578	0.952176	0.284076	10.3113	0.446275	16.3961	0.563778	20.6738	0.840998	31.0463	0.157363	6.97406	0.424466	15.2435	0.701399	25.4338	0.88521	31.8396
0.28439	9.98466	0.0300819	0.972774	0.284349	10.0257	0.446618	15.8656	0.564107	20.0025	0.841171	30.0201	0.158689	6.75397	0.424817	14.7622	0.70158	24.6089	0.885386	30.8133
0.284713	9.6794	0.0316282	0.992864	0.284587	9.79511	0.446972	15.3695	0.564447	19.3745	0.841349	29.0602	0.160049	6.55202	0.425181	14.3114	0.701766	23.8365	0.885567	29.8517
0.285047	9.39322	0.0331956	1.01246	0.284788	9.61269	0.447337	14.9045	0.564798	18.7857	0.841534	28.1604	0.16144	6.36617	0.425555	13.8885	0.701958	23.1116	0.885754	28.9488
0.285392	9.12443	0.0347833	1.03157	0.284951	9.47345	0.447713	14.4679	0.565159	18.2328	0.841724	27.3151	0.162862	6.19464	0.425941	13.4909	0.702156	22.4301	0.885946	28.0994
0.285746	8.8715	0.0363902	1.0502	0.285071	9.37377	0.448101	14.0572	0.565531	17.7124	0.84192	26.5197	0.164313	6.03592	0.426338	13.1164	0.702361	21.7881	0.886144	27.299
0.286111	8.6331	0.0380155	1.06838	0.285149	9.31113	0.448499	13.6702	0.565914	17.2218	0.842122	25.7697	0.165791	5.88868	0.426746	12.7631	0.702571	21.1824	0.886348	26.5435
0.286486	8.40804	0.0396582	1.08611	0.285262	9.22262	0.448908	13.3048	0.566308	16.7586	0.842329	25.0616	0.167296	5.75179	0.427165	12.4293	0.702787	20.61	0.886558	25.8291
0.286871	8.19525	0.0413176	1.1034	0.285386	9.12843	0.449329	12.9594	0.566712	16.3206	0.842543	24.3918	0.168826	5.62424	0.427596	12.1134	0.703009	20.0682	0.886773	25.1526
0.287266	7.99378	0.042993	1.12027	0.285557	9.00357	0.44976	12.6324	0.567127	15.9058	0.842762	23.7573	0.17038	5.50515	0.428037	11.8141	0.703237	19.5546	0.886995	24.5111
0.287672	7.80277	0.0446836	1.13672	0.285776	8.85077	0.450203	12.3224	0.567552	15.5124	0.842987	23.1555	0.171957	5.39373	0.42849	11.5301	0.703471	19.0671	0.887221	23.902
0.288088	7.62145	0.0463886	1.15278	0.286047	8.67324	0.450656	12.0281	0.567988	15.1388	0.843217	22.5839	0.173556	5.28932	0.428953	11.2603	0.70371	18.6038	0.887454	23.3229
0.288514	7.44911	0.0481076	1.16844	0.286372	8.47446	0.45112	11.7483	0.568435	14.7836	0.843454	22.0402	0.175177	5.19129	0.429428	11.0036	0.703956	18.163	0.887692	22.7715
0.28895	7.28513	0.0498397	1.18372	0.286754	8.25809	0.451595	11.4821	0.568892	14.4454	0.843696	21.5225	0.176817	5.09912	0.429914	10.7592	0.704208	17.7429	0.887936	22.2461
0.289397	7.12893	0.0515845	1.19864	0.287146	8.0533	0.452081	11.2284	0.56936	14.1232	0.843944	21.0291	0.178477	5.0123	0.43041	10.5262	0.704465	17.3423	0.888185	21.7448
0.289853	6.97997	0.0533413	1.2132	0.287549	7.85923	0.452577	10.9865	0.569838	13.8157	0.844198	20.5581	0.180154	4.93041	0.430918	10.3038	0.704729	16.9598	0.888441	21.266
0.29032	6.8378	0.0551097	1.22741	0.287962	7.67507	0.453084	10.7556	0.570326	13.5221	0.844457	20.1082	0.18185	4.85306	0.431369	10.1182	0.704998	16.5942	0.888701	20.8081
0.290797	6.70196	0.056889	1.24128	0.288385	7.5001	0.453602	10.5349	0.570825	13.2415	0.844723	19.678	0.183562	4.77991	0.43176	9.96556	0.705274	16.2445	0.888968	20.37
0.291283	6.57206	0.0586789	1.25482	0.288818	7.33366	0.45413	10.3237	0.571334	12.9729	0.844994	19.2661	0.18529	4.71062	0.432088	9.8431	0.705555	15.9095	0.88924	19.9503
0.291781	6.44773	0.0604788	1.26805	0.289261	7.17517	0.454599	10.1471	0.571854	12.7157	0.84527	18.8715	0.187033	4.64492	0.43235	9.74857	0.705842	15.5885	0.889518	19.548
0.292288	6.32864	0.0622883	1.28097	0.289715	7.02409	0.455005	10.0017	0.572384	12.4691	0.845553	18.4932	0.188791	4.58255	0.432544	9.68033	0.706135	15.2806	0.889801	19.1619
0.292805	6.21447	0.0641071	1.29358	0.290178	6.87992	0.455345	9.88477	0.572924	12.2326	0.845841	18.13	0.190563	4.52327	0.432669	9.6372	0.706434	14.9849	0.89009	18.7911
0.293332	6.10494	0.0659346	1.30591	0.290652	6.74222	0.455617	9.79445	0.573474	12.0056	0.846135	17.7812	0.192349	4.46686	0.43285	9.57593	0.706739	14.7008	0.890385	18.4347
0.293869	5.99978	0.0677707	1.31795	0.291136	6.61057	0.455818	9.72919	0.574035	11.7874	0.846434	17.446	0.194147	4.41314	0.433048	9.5103	0.70705	14.4277	0.890685	18.0919
0.294416	5.89875	0.0696147	1.32972	0.29163	6.4846	0.455948	9.68792	0.574605	11.5776	0.84674	17.1234	0.195958	4.36192	0.433319	9.42261	0.707366	14.1649	0.890991	17.762
0.294974	5.80162	0.0714666	1.34123	0.292134	6.36397	0.456135	9.62926	0.575186	11.3757	0.847051	16.8129	0.19778	4.31304	0.433666	9.31423	0.707689	13.9118	0.891303	17.4442
0.295541	5.70817	0.0733258	1.35247	0.292648	6.24835	0.45634	9.56638	0.575777	11.1814	0.847367	16.5138	0.199614	4.26634	0.434091	9.18679	0.708017	13.6679	0.89162	17.1379
0.296118	5.61822	0.0751921	1.36346	0.293172	6.13745	0.45662	9.48231	0.576378	10.9941	0.84769	16.2255	0.201458	4.2217	0.434597	9.04213	0.708351	13.4327	0.891943	16.8425
0.296705	5.53158	0.0770652	1.37421	0.293706	6.031	0.456978	9.37829	0.576989	10.8136	0.848018	15.9474	0.203313	4.17898	0.435187	8.88223	0.708691	13.2059	0.892271	16.5574
0.297303	5.44808	0.0789448	1.38472	0.294251	5.92875	0.457417	9.25582	0.57761	10.6395	0.848352	15.679	0.205178	4.13807	0.435788	8.72851	0.709037	12.9868	0.892605	16.2821
0.29791	5.36757	0.0808307	1.395	0.294805	5.83047	0.457939	9.1166	0.57824	10.4714	0.848691	15.4197	0.207053	4.09885	0.436399	8.58063	0.709389	12.7753	0.892944	16.0161
0.298527	5.28989	0.0827226	1.40506	0.295369	5.73593	0.458547	8.96247	0.578798	10.3296	0.849036	15.1692	0.208936	4.06124	0.437021	8.43828	0.709746	12.5708	0.893289	15.7589
0.299154	5.2149	0.0846202	1.4149	0.295943	5.64495	0.459165	8.81405	0.57928	10.2121	0.849387	14.927	0.210829	4.02513	0.437653	8.30115	0.71011	12.373	0.893639	15.5102
0.299791	5.14248	0.0865234	1.42453	0.296528	5.55733	0.459794	8.67104	0.579682	10.1171	0.849743	14.6927	0.21273	3.99044	0.438296	8.16899	0.710479	12.1817	0.893995	15.2694
0.300438	5.07251	0.0884319	1.43396	0.297122	5.4729	0.460432	8.53315	0.580002	10.0434	0.850106	14.4659	0.214639	3.95709	0.43895	8.04152	0.710854	11.9965	0.894357	15.0363
0.301094	5.00487	0.0903454	1.44318	0.297726	5.39151	0.461081	8.40013	0.58024	9.9899	0.850473	14.2463	0.216556	3.92502	0.439613	7.91852	0.711235	11.8171	0.894724	14.8105
0.301761	4.93945	0.0922638	1.45222	0.29834	5.31298	0.46174	8.27173	0.580392	9.95602	0.850847	14.0335	0.218481	3.89414	0.440287	7.79976	0.711621	11.6433	0.895097	14.5916
0.302437	4.87616	0.0941869	1.46106	0.298964	5.2372	0.462408	8.14771	0.580612	9.90777	0.851226	13.8273	0.220412	3.8644	0.440971	7.68504	0.712014	11.4748	0.895475	14.3794
0.303124	4.8149	0.0961145	1.46972	0.299598	5.16402	0.463087	8.02788	0.580852	9.8559	0.85161	13.6273	0.222351	3.83573	0.441666	7.57416	0.712412	11.3114	0.895858	14.1735
0.30382	4.75557	0.0980464	1.4782	0.300242	5.09333	0.463775	7.91202	0.581181	9.78634	0.852001	13.4333	0.224296	3.80808	0.44237	7.46694	0.712816	11.1528	0.896248	13.9737
0.304434	4.7054	0.0999825	1.48651	0.300896	5.02499	0.464473	7.79995	0.581601	9.69992	0.852396	13.245	0.226248	3.78141	0.443085	7.3632	0.713226	10.9989	0.896642	13.7797
0.304964	4.6637	0.101923	1.49465	0.301559	4.95892	0.465181	7.69149	0.582113	9.59767	0.852798	13.0621	0.228206	3.75565	0.44381	7.2628	0.713642	10.8494	0.897042	13.5912
0.305407	4.62994	0.103867	1.50263	0.302233	4.895	0.465899	7.58649	0.58272	9.48077	0.853205	12.8845	0.230171	3.73077	0.444545	7.16557	0.714063	10.7042	0.897448	13.4081
0.305759	4.6037	0.105814	1.51044	0.302916	4.83313	0.466626	7.48477	0.583426	9.35051	0.853618	12.7118	0.23214	3.70672	0.44529	7.07138	0.714435	10.581	0.897859	13.2301
0.306019	4.58465	0.107765	1.51811	0.303609	4.77324	0.467362	7.38621	0.584141	9.22424	0.854036	12.544	0.234116	3.68347	0.446044	6.9801	0.714756	10.4783	0.898275	13.0569
0.306187	4.57257	0.10972	1.52562	0.304312	4.71522	0.468108	7.29065	0.584866	9.10178	0.85446	12.3808	0.236097	3.66097	0.446809	6.89158	0.715023	10.395	0.898697	12.8885
0.306428	4.55535	0.111678	1.53298	0.305025	4.65901	0.468864	7.19797	0.5856	8.98296	0.854889	12.222	0.238083	3.63919	0.447584	6.80573	0.715236	10.3302	0.899124	12.7246
0.306692	4.53683	0.113639	1.5402	0.305748	4.60452	0.469629	7.10804	0.586344	8.86764	0.855324	12.0675	0.240073	3.61809	0.448368	6.72242	0.715394	10.283	0.899557	12.5651
0.307053	4.51196	0.11535	1.54638	0.30648	4.55169	0.470404	7.02076	0.587098	8.75566	0.855764	11.9171	0.242069	3.59765	0.449163	6.64156	0.715495	10.2531	0.899995	12.4097
0.307512	4.48103	0.116811	1.55157	0.307223	4.50044	0.471187	6.93601	0.58786	8.64688	0.85621	11.7706	0.24407	3.57784	0.449967	6.56303	0.715641	10.2104	0.900438	12.2583
0.308073	4.44437	0.11802	1.5558	0.307975	4.45071	0.47198	6.85368	0.588632	8.54119	0.856662	11.6279	0.246075	3.55863	0.45078	6.48675	0.7158	10.1644	0.900887	12.1108
0.308738	4.4024	0.118977	1.55911	0.308737	4.40245	0.472782	6.77369	0.589413	8.43844	0.857119	11.4888	0.248084	3.53999	0.451604	6.41262	0.716018	10.1026	0.901341	11.967
0.309509	4.35554	0.119681	1.56152	0.309509	4.35559	0.473594	6.69593	0.590204	8.33853	0.857582	11.3532	0.250097	3.52189	0.452437	6.34057	0.716296	10.0256	0.901801	11.8268
0.310291	4.31003	0.120131	1.56306	0.31029	4.31008	0.474414	6.62032	0.591003	8.24135	0.85805	11.221	0.252114	3.50432	0.45328	6.2705	0.716634	9.93406	0.902266	11.6901
0.311082	4.26581	0.120779	1.56526	0.311082	4.26586	0.475244	6.54678	0.591812	8.14678	0.858523	11.092	0.254136	3.48726	0.454132	6.20235	0.717035	9.829	0.902736	11.5567
0.311884	4.22285	0.121484	1.56763	0.311883	4.2229	0.476082	6.47522	0.59263	8.05473	0.859002	10.9662	0.256161	3.47067	0.454993	6.13604	0.717501	9.71136	0.903212	11.4265
0.312695	4.18109	0.122443	1.57084	0.312694	4.18113	0.476929	6.40557	0.593457	7.96511	0.859424	10.859	0.258189	3.45455	0.455864	6.0715	0.717972	9.59672	0.903693	11.2994
0.313516	4.14048	0.123657	1.57484	0.313515	4.14052	0.477785	6.33777	0.594293	7.87781	0.859787	10.7694	0.260222	3.43887	0.456745	6.00866	0.71845	9.48497	0.904179	11.1753
0.314346	4.10099	0.125126	1.57963	0.314345	4.10103	0.478651	6.27173	0.595137	7.79277	0.86009	10.6966	0.262257	3.42362	0.457634	5.94747	0.718932	9.37602	0.904671	11.0541
0.315187	4.06258	0.126851	1.58516	0.315186	4.06262	0.479524	6.2074	0.595991	7.70989	0.86033	10.6397	0.264296	3.40878	0.458533	5.88786	0.719421	9.26976	0.905104	10.9507
0.316037	4.0252	0.128833	1.59139	0.316036	4.02524	0.480407	6.14471	0.596854	7.6291	0.860508	10.5983	0.266338	3.39432	0.459442	5.82978	0.719915	9.16609	0.905476	10.8642
0.316898	3.98882	0.130817	1.59752	0.316897	3.98886	0.481298	6.08361	0.597725	7.55032	0.860622	10.5719	0.268383	3.38025	0.460359	5.77317	0.720415	9.06492	0.905785	10.7938
0.317768	3.95341	0.132803	1.60353	0.317767	3.95345	0.482198	6.02404	0.598605	7.47348	0.860787	10.5343	0.270431	3.36654	0.461286	5.71798	0.720921	8.96617	0.906032	10.7389
0.318648	3.91893	0.134791	1.60943	0.318647	3.91897	0.483106	5.96595	0.599494	7.39852	0.860966	10.4938	0.272482	3.35318	0.462221	5.66416	0.721432	8.86975	0.906214	10.6988
0.319537	3.88536	0.136781	1.61522	0.319537	3.88539	0.484022	5.90928	0.600392	7.32537	0.861212	10.4392	0.274536	3.34015	0.463166	5.61167	0.721949	8.77558	0.906331	10.6734
0.320437	3.85265	0.138774	1.62092	0.320436	3.85269	0.484948	5.85398	0.601298	7.25396	0.861524	10.371	0.276592	3.32745	0.46412	5.56046	0.722471	8.68359	0.906499	10.637
0.321347	3.82079	0.140768	1.62651	0.321346	3.82083	0.485881	5.80002	0.602213	7.18425	0.861904	10.2899	0.278651	3.31507	0.465083	5.51048	0.722999	8.5937	0.906683	10.5978
0.322267	3.78975	0.142764	1.632	0.322266	3.78978	0.486823	5.74734	0.603136	7.11617	0.862354	10.1964	0.280712	3.30298	0.466054	5.4617	0.723533	8.50585	0.906934	10.5449
0.323197	3.75949	0.144761	1.6374	0.323196	3.75952	0.487773	5.69591	0.604068	7.04967	0.862875	10.0914	0.282776	3.29118	0.467035	5.41408	0.724073	8.41997	0.907253	10.4789
0.324136	3.73	0.146761	1.6427	0.324135	3.73003	0.488731	5.64567	0.605008	6.98469	0.863401	9.98873	0.284842	3.27967	0.468024	5.36758	0.724618	8.33599	0.907641	10.4003
0.325086	3.70124	0.148762	1.64791	0.325085	3.70128	0.489698	5.5966	0.605957	6.9212	0.863933	9.8883	0.28691	3.26842	0.469022	5.32215	0.725168	8.25386	0.908101	10.3096
0.326046	3.67321	0.150764	1.65303	0.326045	3.67324	0.490672	5.54866	0.606914	6.85914	0.864471	9.79005	0.288981	3.25743	0.470029	5.27778	0.725725	8.17351	0.908633	10.2077
0.327017	3.64587	0.152768	1.65807	0.327016	3.6459	0.491655	5.5018	0.607879	6.79846	0.865013	9.69392	0.291054	3.2467	0.471045	5.23443	0.726287	8.0949	0.90917	10.1079
0.327997	3.61921	0.154774	1.66302	0.327996	3.61924	0.492645	5.456	0.608852	6.73913	0.865562	9.59983	0.293128	3.23621	0.472069	5.19205	0.726854	8.01796	0.909713	10.0103
0.328988	3.5932	0.156781	1.66789	0.328987	3.59323	0.493644	5.41123	0.609834	6.68109	0.866115	9.50772	0.295205	3.22595	0.473102	5.15063	0.727427	7.94265	0.91026	9.91465
0.329989	3.56783	0.158789	1.67267	0.329988	3.56785	0.49465	5.36744	0.610824	6.62432	0.866674	9.41754	0.297284	3.21592	0.474143	5.11014	0.728006	7.86892	0.910813	9.821
0.331	3.54307	0.160798	1.67738	0.330999	3.5431	0.495664	5.32461	0.611822	6.56877	0.867238	9.32922	0.299364	3.20612	0.475193	5.07054	0.72859	7.79672	0.911371	9.72928
0.332022	3.51891	0.162809	1.682	0.332021	3.51894	0.496686	5.28272	0.612828	6.51441	0.867808	9.24271	0.301446	3.19652	0.476252	5.0318	0.72918	7.726	0.911934	9.63942
0.333054	3.49534	0.164821	1.68656	0.333053	3.49537	0.497716	5.24173	0.613842	6.46119	0.868383	9.15796	0.30353	3.18713	0.477318	4.99392	0.729775	7.65672	0.912503	9.55136
0.334097	3.47233	0.166834	1.69103	0.334096	3.47236	0.498753	5.20161	0.614864	6.4091	0.868963	9.07491	0.305616	3.17794	0.478393	4.95685	0.730376	7.58884	0.913076	9.46506
0.335151	3.44988	0.168848	1.69544	0.33515	3.4499	0.499798	5.16235	0.615894	6.35809	0.869549	8.99352	0.307703	3.16894	0.479477	4.92057	0.730982	7.52232	0.913655	9.38046
0.336215	3.42796	0.170863	1.69977	0.336214	3.42798	0.500851	5.12391	0.616931	6.30813	0.87014	8.91373	0.309791	3.16013	0.480569	4.88507	0.731594	7.45712	0.914238	9.29751
0.33729	3.40656	0.17288	1.70403	0.337289	3.40658	0.501911	5.08627	0.617977	6.25919	0.870736	8.83551	0.311881	3.1515	0.481669	4.85031	0.732211	7.3932	0.914827	9.21618
0.338377	3.38567	0.174897	1.70823	0.338375	3.3857	0.502978	5.04942	0.61903	6.21124	0.871337	8.75881	0.313973	3.14304	0.482777	4.81628	0.732834	7.33053	0.915421	9.1364
0.339474	3.36528	0.176915	1.71236	0.339473	3.3653	0.504053	5.01332	0.620091	6.16426	0.871944	8.68358	0.316066	3.13475	0.483893	4.78296	0.733463	7.26907	0.91602	9.05815
0.340582	3.34537	0.178934	1.71642	0.340581	3.34539	0.505135	4.97795	0.62116	6.11822	0.872556	8.60979	0.31816	3.12663	0.485017	4.75033	0.734097	7.20879	0.916624	8.98138
0.341702	3.32593	0.180954	1.72042	0.341701	3.32595	0.506225	4.9433	0.622236	6.07309	0.873173	8.5374	0.320256	3.11867	0.48615	4.71837	0.734736	7.14965	0.917233	8.90604
0.342833	3.30695	0.182975	1.72436	0.342832	3.30697	0.507321	4.90934	0.62332	6.02885	0.873796	8.46636	0.322352	3.11087	0.48729	4.68705	0.735381	7.09163	0.917847	8.8321
0.343976	3.28842	0.184996	1.72824	0.343975	3.28844	0.508425	4.87606	0.624411	5.98546	0.874424	8.39664	0.32445	3.10321	0.488439	4.65637	0.736031	7.0347	0.918466	8.75953
0.345131	3.27033	0.187019	1.73206	0.34513	3.27035	0.509536	4.84344	0.62551	5.94292	0.875057	8.32821	0.326549	3.0957	0.489595	4.6263	0.736687	6.97882	0.91909	8.68828
0.346297	3.25267	0.189042	1.73582	0.346296	3.25269	0.510654	4.81146	0.626617	5.9012	0.875695	8.26103	0.32865	3.08833	0.490759	4.59683	0.737348	6.92397	0.919719	8.61832
0.347476	3.23543	0.191066	1.73952	0.347475	3.23544	0.511779	4.78009	0.62773	5.86026	0.876339	8.19507	0.330751	3.0811	0.491932	4.56795	0.738014	6.87013	0.920353	8.54962
0.348667	3.21859	0.19309	1.74316	0.348665	3.21861	0.512911	4.74934	0.628852	5.82011	0.876987	8.1303	0.332853	3.074	0.493111	4.53963	0.738686	6.81726	0.920993	8.48215
0.34987	3.20216	0.195116	1.74675	0.349869	3.20218	0.51405	4.71917	0.62998	5.7807	0.877641	8.06669	0.334956	3.06704	0.494299	4.51186	0.739364	6.76534	0.921637	8.41586
0.351086	3.18612	0.197141	1.75029	0.351084	3.18613	0.515196	4.68958	0.631115	5.74203	0.8783	8.0042	0.33706	3.06019	0.495494	4.48464	0.740047	6.71434	0.922286	8.35074
0.352314	3.17046	0.199168	1.75378	0.352313	3.17048	0.516349	4.66055	0.632258	5.70408	0.878965	7.94282	0.339165	3.05348	0.496697	4.45793	0.740735	6.66425	0.92294	8.28676
0.353556	3.15518	0.201195	1.75721	0.353555	3.1552	0.517508	4.63206	0.633408	5.66682	0.879634	7.8825	0.341271	3.04688	0.497908	4.43174	0.741429	6.61504	0.923598	8.22388
0.354811	3.14027	0.203222	1.76059	0.35481	3.14029	0.518675	4.6041	0.634565	5.63024	0.880308	7.82323	0.343377	3.04039	0.499126	4.40604	0.742127	6.56669	0.924262	8.16208
0.35608	3.12572	0.205251	1.76392	0.356078	3.12574	0.519848	4.57667	0.635729	5.59432	0.880988	7.76498	0.345484	3.03402	0.500352	4.38083	0.742832	6.51918	0.924931	8.10133
0.357362	3.11153	0.207279	1.76721	0.357361	3.11155	0.521027	4.54973	0.6369	5.55905	0.881673	7.70772	0.347592	3.02776	0.501585	4.3561	0.743542	6.47249	0.925605	8.0416
0.358659	3.09769	0.209308	1.77044	0.358657	3.09771	0.522213	4.52329	0.638078	5.52441	0.882363	7.65143	0.349701	3.02161	0.502826	4.33182	0.744257	6.42659	0.926283	7.98288
0.359969	3.08419	0.211338	1.77363	0.359968	3.08421	0.523406	4.49732	0.639263	5.49038	0.883058	7.59608	0.35181	3.01556	0.504074	4.308	0.744977	6.38147	0.926966	7.92513
0.361295	3.07103	0.213368	1.77678	0.361293	3.07105	0.524605	4.47183	0.640455	5.45695	0.883758	7.54166	0.35392	3.00961	0.505329	4.28461	0.745703	6.33711	0.927654	7.86834
0.362635	3.05821	0.215398	1.77987	0.362633	3.05822	0.52581	4.44679	0.641654	5.42411	0.884463	7.48815	0.356031	3.00376	0.506592	4.26165	0.746434	6.29349	0.928347	7.81248
0.36399	3.04571	0.217429	1.78293	0.363989	3.04572	0.527022	4.42219	0.642859	5.39183	0.885174	7.43551	0.358142	2.998	0.507862	4.23911	0.74717	6.2506	0.929045	7.75753
0.365361	3.03353	0.21946	1.78594	0.36536	3.03354	0.528241	4.39803	0.644072	5.36011	0.885889	7.38373	0.360254	2.99234	0.50914	4.21698	0.747912	6.20841	0.929748	7.70346
0.366748	3.02167	0.221492	1.78891	0.366747	3.02168	0.529465	4.37429	0.64529	5.32893	0.886609	7.33279	0.362366	2.98677	0.510424	4.19524	0.748659	6.16692	0.930455	7.65027
0.368151	3.01012	0.223524	1.79184	0.36815	3.01014	0.530696	4.35097	0.646516	5.29829	0.887335	7.28267	0.364478	2.98129	0.511716	4.1739	0.749411	6.1261	0.931168	7.59792
0.369571	2.99889	0.225556	1.79472	0.369569	2.9989	0.531933	4.32805	0.647748	5.26816	0.888065	7.23336	0.366591	2.97589	0.513015	4.15293	0.750168	6.08594	0.931884	7.5464
0.371007	2.98795	0.227588	1.79757	0.371006	2.98796	0.533176	4.30553	0.648987	5.23854	0.888801	7.18483	0.368704	2.97058	0.514321	4.13234	0.750931	6.04642	0.932606	7.49569
0.372461	2.97732	0.229621	1.80038	0.372459	2.97733	0.534425	4.28339	0.650232	5.20941	0.889542	7.13706	0.370818	2.96535	0.515634	4.11211	0.751699	6.00754	0.933333	7.44577
0.373932	2.96698	0.231654	1.80315	0.373931	2.96699	0.53568	4.26163	0.651483	5.18077	0.890287	7.09004	0.372932	2.9602	0.516954	4.09223	0.752472	5.96927	0.934064	7.39663
0.375421	2.95694	0.233688	1.80588	0.37542	2.95695	0.536942	4.24023	0.652741	5.1526	0.891038	7.04375	0.375046	2.95512	0.518281	4.07269	0.75325	5.93161	0.9348	7.34824
0.376929	2.94719	0.235721	1.80857	0.376927	2.9472	0.538209	4.2192	0.654006	5.12489	0.891793	6.99818	0.377161	2.95013	0.519615	4.0535	0.754034	5.89453	0.935541	7.3006
0.378455	2.93772	0.237755	1.81123	0.378453	2.93773	0.539482	4.19851	0.655276	5.09763	0.892554	6.95331	0.379275	2.9452	0.520956	4.03464	0.754823	5.85803	0.936286	7.25368
0.38	2.92853	0.239789	1.81385	0.379998	2.92854	0.540761	4.17817	0.656553	5.07081	0.893319	6.90913	0.38139	2.94035	0.522304	4.0161	0.755617	5.82209	0.937036	7.20746
0.381564	2.91962	0.241823	1.81643	0.381562	2.91963	0.542046	4.15816	0.657836	5.04442	0.89409	6.86562	0.383505	2.93557	0.523659	3.99787	0.756416	5.78671	0.937791	7.16194
0.383148	2.91099	0.243858	1.81899	0.383146	2.911	0.543337	4.13848	0.659126	5.01845	0.894865	6.82276	0.38562	2.93086	0.52502	3.97996	0.757221	5.75187	0.93855	7.1171
0.384751	2.90262	0.245892	1.8215	0.38475	2.90263	0.544633	4.11913	0.660421	4.9929	0.895645	6.78054	0.387736	2.92622	0.526388	3.96234	0.75803	5.71755	0.939314	7.07292
0.386375	2.89453	0.247927	1.82399	0.386373	2.89454	0.545935	4.10008	0.661723	4.96774	0.89643	6.73895	0.389851	2.92164	0.527763	3.94502	0.758845	5.68376	0.940083	7.0294
0.388019	2.8867	0.249962	1.82644	0.388017	2.8867	0.547243	4.08135	0.66303	4.94299	0.897221	6.69798	0.391967	2.91713	0.529145	3.928	0.759665	5.65046	0.940856	6.98651
0.389684	2.87912	0.251997	1.82886	0.389682	2.87913	0.548556	4.06291	0.664344	4.91862	0.898016	6.65761	0.394082	2.91267	0.530533	3.91125	0.76049	5.61767	0.941634	6.94424
0.391369	2.87181	0.254032	1.83125	0.391367	2.87181	0.549875	4.04477	0.665664	4.89462	0.898815	6.61783	0.396198	2.90828	0.531928	3.89478	0.76132	5.58536	0.942416	6.90258
0.393075	2.86474	0.256068	1.8336	0.393073	2.86475	0.551199	4.02691	0.666989	4.871	0.89962	6.57862	0.398313	2.90395	0.533329	3.87858	0.762155	5.55353	0.943203	6.86152
0.394802	2.85792	0.258103	1.83593	0.3948	2.85793	0.552529	4.00934	0.668321	4.84774	0.90043	6.53998	0.400429	2.89968	0.534737	3.86265	0.762995	5.52216	0.943995	6.82105
0.39655	2.85134	0.260139	1.83823	0.396548	2.85135	0.553864	3.99204	0.669658	4.82483	0.901244	6.5019	0.402544	2.89546	0.536152	3.84698	0.763841	5.49125	0.944791	6.78115
0.398319	2.84501	0.262174	1.84049	0.398318	2.84501	0.555205	3.97501	0.671001	4.80227	0.902064	6.46436	0.404659	2.8913	0.537573	3.83156	0.764691	5.46079	0.945592	6.74181
0.40011	2.8389	0.26421	1.84273	0.400108	2.83891	0.556551	3.95824	0.67235	4.78005	0.902888	6.42735	0.406775	2.88719	0.539	3.81639	0.765547	5.43077	0.946397	6.70303
0.401921	2.83302	0.266246	1.84494	0.401919	2.83303	0.557903	3.94173	0.673704	4.75816	0.903717	6.39087	0.40889	2.88314	0.540434	3.80146	0.766407	5.40117	0.947207	6.66478
0.403753	2.82737	0.268281	1.84712	0.403751	2.82737	0.559259	3.92548	0.675064	4.7366	0.90455	6.35489	0.411004	2.87914	0.541874	3.78678	0.767273	5.372	0.948021	6.62707
0.405605	2.82193	0.270317	1.84928	0.405603	2.82193	0.560621	3.90947	0.67643	4.71536	0.905389	6.31942	0.413119	2.87519	0.543321	3.77233	0.768143	5.34324	0.94884	6.58987
0.407478	2.8167	0.272353	1.8514	0.407476	2.81671	0.561988	3.89371	0.677801	4.69443	0.906232	6.28444	0.415234	2.87128	0.544774	3.7581	0.769019	5.31489	0.949663	6.55318
0.409371	2.81168	0.274389	1.85351	0.409369	2.81168	0.56336	3.87818	0.679178	4.67381	0.90708	6.24994	0.417348	2.86743	0.546233	3.7441	0.7699	5.28693	0.95049	6.51699
0.411284	2.80686	0.276425	1.85558	0.411282	2.80686	0.564738	3.86289	0.680561	4.65348	0.907933	6.21591	0.419462	2.86362	0.547698	3.73032	0.770786	5.25936	0.951322	6.4813
0.413217	2.80223	0.278461	1.85763	0.413215	2.80223	0.56612	3.84782	0.681949	4.63346	0.908791	6.18235	0.421575	2.85986	0.54917	3.71676	0.771676	5.23218	0.952159	6.44608
0.415169	2.79779	0.280497	1.85965	0.415167	2.79779	0.567508	3.83298	0.683342	4.61372	0.909653	6.14924	0.423689	2.85615	0.550648	3.70341	0.772572	5.20537	0.953	6.41133
0.417139	2.79353	0.282533	1.86165	0.417137	2.79353	0.5689	3.81835	0.684741	4.59426	0.91052	6.11658	0.425802	2.85248	0.552132	3.69027	0.773473	5.17893	0.953845	6.37705
0.419128	2.78944	0.284569	1.86362	0.419126	2.78945	0.570298	3.80395	0.686145	4.57508	0.911392	6.08435	0.427915	2.84885	0.553622	3.67733	0.774378	5.15285	0.954695	6.34322
0.421135	2.78553	0.286605	1.86557	0.421133	2.78553	0.5717	3.78975	0.687554	4.55617	0.912268	6.05256	0.430027	2.84526	0.555118	3.66459	0.775289	5.12712	0.955549	6.30983
0.42316	2.78177	0.28864	1.8675	0.423157	2.78178	0.573107	3.77576	0.688969	4.53753	0.913149	6.02118	0.432139	2.84172	0.55662	3.65204	0.776204	5.10174	0.956407	6.27688
0.425201	2.77818	0.290676	1.8694	0.425199	2.77818	0.574519	3.76197	0.690388	4.51915	0.914035	5.99022	0.43425	2.83821	0.558128	3.63969	0.777125	5.0767	0.95727	6.24436
0.427259	2.77473	0.292712	1.87128	0.427257	2.77474	0.575936	3.74838	0.691813	4.50103	0.914926	5.95967	0.436361	2.83475	0.559642	3.62752	0.77805	5.052	0.958137	6.21226
0.429333	2.77143	0.294748	1.87314	0.42933	2.77143	0.577358	3.73498	0.693244	4.48316	0.915821	5.92951	0.438472	2.83132	0.561162	3.61554	0.77898	5.02762	0.959009	6.18058
0.431422	2.76827	0.296783	1.87498	0.431419	2.76827	0.578784	3.72178	0.694679	4.46553	0.916721	5.89975	0.440582	2.82794	0.562689	3.60374	0.779915	5.00357	0.959884	6.1493
0.433526	2.76524	0.298819	1.87679	0.433523	2.76524	0.580216	3.70876	0.696119	4.44815	0.917625	5.87037	0.442692	2.82459	0.564221	3.59212	0.780855	4.97983	0.960764	6.11842
0.435644	2.76233	0.300855	1.87858	0.435642	2.76233	0.581651	3.69593	0.697564	4.43101	0.918534	5.84137	0.444801	2.82127	0.565758	3.58067	0.7818	4.95641	0.961649	6.08793
0.437776	2.75955	0.30289	1.88035	0.437774	2.75955	0.583092	3.68328	0.699015	4.4141	0.919448	5.81274	0.446909	2.81799	0.567302	3.56939	0.78275	4.93329	0.962537	6.05782
0.439921	2.75688	0.304925	1.8821	0.439919	2.75688	0.584537	3.6708	0.70047	4.39741	0.920366	5.78447	0.449017	2.81475	0.568852	3.55828	0.783705	4.91047	0.96343	6.02809
0.44208	2.75432	0.306961	1.88383	0.442077	2.75433	0.585986	3.6585	0.70193	4.38096	0.921289	5.75656	0.451125	2.81154	0.570407	3.54734	0.784664	4.88795	0.964327	5.99874
0.44425	2.75187	0.308996	1.88554	0.444248	2.75187	0.587441	3.64637	0.703395	4.36472	0.922216	5.72901	0.453232	2.80836	0.571968	3.53655	0.785628	4.86572	0.965229	5.96974
0.446432	2.74952	0.311031	1.88723	0.44643	2.74952	0.588899	3.6344	0.704865	4.3487	0.923148	5.7018	0.455338	2.80522	0.573535	3.52593	0.786597	4.84377	0.966134	5.94111
0.448626	2.74727	0.313066	1.8889	0.448623	2.74727	0.590362	3.6226	0.70634	4.33289	0.924085	5.67492	0.457443	2.80211	0.575107	3.51546	0.787571	4.8221	0.967044	5.91283
0.45083	2.7451	0.315101	1.89055	0.450827	2.7451	0.59183	3.61096	0.707819	4.31729	0.925026	5.64838	0.459548	2.79902	0.576686	3.50515	0.78855	4.8007	0.967958	5.88489
0.453044	2.74302	0.317136	1.89218	0.453042	2.74303	0.593302	3.59948	0.709303	4.3019	0.925971	5.62217	0.461653	2.79597	0.578269	3.49498	0.789533	4.77958	0.968876	5.8573
0.455269	2.74103	0.31917	1.89379	0.455266	2.74103	0.594778	3.58816	0.710792	4.2867	0.926921	5.59628	0.463756	2.79295	0.579859	3.48496	0.790521	4.75872	0.969798	5.83003
0.457502	2.73911	0.321205	1.89538	0.4575	2.73912	0.596259	3.57698	0.712285	4.27171	0.927876	5.57071	0.465859	2.78996	0.581454	3.47509	0.791514	4.73813	0.970725	5.8031
0.459745	2.73727	0.323239	1.89696	0.459743	2.73727	0.597744	3.56596	0.713783	4.25691	0.928835	5.54545	0.467961	2.787	0.583055	3.46536	0.792512	4.71779	0.971655	5.77649
0.461997	2.7355	0.325273	1.89852	0.461994	2.7355	0.599233	3.55508	0.715286	4.24229	0.929799	5.52049	0.470063	2.78407	0.584661	3.45577	0.793514	4.6977	0.97259	5.7502
0.464256	2.7338	0.327308	1.90006	0.464254	2.7338	0.600726	3.54435	0.716793	4.22787	0.930767	5.49584	0.472163	2.78116	0.586272	3.44632	0.794522	4.67786	0.973529	5.72421
0.466524	2.73216	0.329342	1.90158	0.466521	2.73217	0.602224	3.53376	0.718305	4.21363	0.931739	5.47148	0.474263	2.77829	0.587889	3.437	0.795534	4.65826	0.974472	5.69854
0.468799	2.73059	0.331375	1.90309	0.468796	2.73059	0.603726	3.52331	0.719821	4.19957	0.932716	5.44742	0.476362	2.77543	0.589512	3.42781	0.79655	4.63891	0.975418	5.67317
0.471081	2.72907	0.333409	1.90457	0.471078	2.72907	0.605231	3.513	0.721342	4.18569	0.933697	5.42364	0.47846	2.77261	0.59114	3.41876	0.797571	4.61979	0.97637	5.64809
0.47337	2.72761	0.335443	1.90605	0.473367	2.72761	0.606742	3.50282	0.722867	4.17199	0.934683	5.40014	0.480558	2.76981	0.592773	3.40983	0.798597	4.6009	0.977325	5.62331
0.475665	2.7262	0.337476	1.9075	0.475663	2.7262	0.608256	3.49278	0.724396	4.15845	0.935674	5.37691	0.482654	2.76703	0.594412	3.40103	0.799628	4.58224	0.978284	5.59882
0.477967	2.72484	0.339509	1.90894	0.477965	2.72484	0.609774	3.48286	0.72593	4.14509	0.936668	5.35396	0.48475	2.76428	0.596056	3.39235	0.800663	4.56381	0.979247	5.5746
0.480275	2.72353	0.341542	1.91037	0.480272	2.72353	0.611296	3.47307	0.727468	4.13189	0.937667	5.33128	0.486845	2.76156	0.597706	3.3838	0.801703	4.5456	0.980214	5.55067
0.482588	2.72227	0.343575	1.91177	0.482586	2.72227	0.612822	3.46341	0.72901	4.11885	0.938671	5.30887	0.488939	2.75885	0.59936	3.37536	0.802748	4.5276	0.981185	5.52701
0.484907	2.72105	0.345608	1.91317	0.484904	2.72105	0.614352	3.45387	0.730556	4.10597	0.939678	5.28671	0.491032	2.75617	0.60102	3.36704	0.803797	4.50982	0.98216	5.50362
0.487231	2.71987	0.347641	1.91454	0.487228	2.71987	0.615887	3.44446	0.732107	4.09326	0.940691	5.2648	0.493124	2.75352	0.602685	3.35884	0.804851	4.49225	0.98314	5.48049
0.489559	2.71873	0.349673	1.91591	0.489557	2.71873	0.617425	3.43516	0.733662	4.08069	0.941707	5.24315	0.495215	2.75088	0.604356	3.35075	0.805909	4.47489	0.984123	5.45763
0.491893	2.71762	0.351705	1.91725	0.49189	2.71762	0.618967	3.42598	0.735221	4.06828	0.942728	5.22175	0.497305	2.74827	0.606031	3.34277	0.806972	4.45773	0.98511	5.43502
0.494231	2.71656	0.353737	1.91859	0.494228	2.71656	0.620512	3.41691	0.736784	4.05602	0.943753	5.20059	0.499395	2.74568	0.607712	3.33491	0.808039	4.44077	0.986101	5.41266
0.496573	2.71552	0.355769	1.9199	0.49657	2.71552	0.622062	3.40796	0.738351	4.0439	0.944783	5.17967	0.501483	2.74311	0.609398	3.32715	0.809112	4.42401	0.987096	5.39056
0.498919	2.71452	0.357801	1.92121	0.498917	2.71452	0.623615	3.39912	0.739922	4.03193	0.945816	5.15899	0.50357	2.74056	0.611089	3.31949	0.810188	4.40744	0.988094	5.36869
0.501269	2.71356	0.359832	1.9225	0.501267	2.71356	0.625172	3.39039	0.741497	4.02011	0.946854	5.13853	0.505656	2.73803	0.612785	3.31195	0.811269	4.39107	0.989097	5.34707
0.503623	2.71262	0.361863	1.92377	0.503621	2.71262	0.626733	3.38177	0.743076	4.00842	0.947897	5.11831	0.507742	2.73552	0.614486	3.3045	0.812355	4.37488	0.990104	5.32569
0.505981	2.71171	0.363894	1.92504	0.505978	2.71171	0.628298	3.37325	0.744659	3.99687	0.948943	5.09831	0.509826	2.73303	0.616193	3.29716	0.813445	4.35889	0.991114	5.30454
0.508342	2.71082	0.365925	1.92629	0.508339	2.71082	0.629866	3.36484	0.746246	3.98546	0.949994	5.07854	0.511909	2.73056	0.617904	3.28991	0.81454	4.34307	0.992129	5.28362
0.510706	2.70996	0.367956	1.92752	0.510703	2.70997	0.631438	3.35653	0.747837	3.97418	0.951049	5.05898	0.513991	2.72811	0.61962	3.28276	0.81564	4.32743	0.993147	5.26293
0.513073	2.70913	0.369986	1.92874	0.51307	2.70913	0.633014	3.34833	0.749432	3.96303	0.952109	5.03964	0.516072	2.72568	0.621341	3.27571	0.816743	4.31197	0.994169	5.24247
0.515443	2.70832	0.372017	1.92995	0.51544	2.70832	0.634593	3.34022	0.75103	3.95202	0.953172	5.02051	0.518152	2.72326	0.623067	3.26876	0.817852	4.29669	0.995195	5.22222
0.517816	2.70754	0.374047	1.93115	0.517813	2.70754	0.636176	3.33221	0.752632	3.94112	0.95424	5.00159	0.520231	2.72086	0.624798	3.26189	0.818964	4.28158	0.996224	5.20219
0.520191	2.70677	0.376076	1.93234	0.520189	2.70677	0.637763	3.3243	0.754238	3.93036	0.955312	4.98287	0.522309	2.71848	0.626534	3.25512	0.820081	4.26664	0.997258	5.18237
0.52257	2.70603	0.378106	1.93351	0.522567	2.70603	0.639353	3.31648	0.755848	3.91972	0.956388	4.96436	0.524386	2.71612	0.628274	3.24844	0.821203	4.25186	0.998295	5.16277
0.52495	2.7053	0.380135	1.93467	0.524948	2.7053	0.640946	3.30875	0.757461	3.90919	0.957468	4.94605	0.526462	2.71378	0.63002	3.24185	0.822329	4.23725	0.999336	5.14337
0.527333	2.7046	0.382165	1.93582	0.527331	2.7046	0.642543	3.30112	0.759078	3.89879	0.958553	4.92793	0.528536	2.71145	0.63177	3.23534	0.823459	4.2228	1.00038	5.12417
0.529718	2.70391	0.384193	1.93695	0.529716	2.70391	0.644144	3.29358	0.760699	3.88851	0.959641	4.91001	0.530609	2.70914	0.633525	3.22893	0.824594	4.20852		
0.532106	2.70324	0.386222	1.93808	0.532103	2.70324	0.645748	3.28613	0.762323	3.87834	0.960734	4.89228	0.532682	2.70684	0.635285	3.22259	0.825734	4.19439		
0.534495	2.70259	0.388251	1.93919	0.534493	2.70259	0.647355	3.27876	0.763951	3.86829	0.961831	4.87474	0.534753	2.70456	0.637049	3.21634	0.826877	4.18041		
0.536887	2.70195	0.390279	1.94029	0.536884	2.70195	0.648966	3.27148	0.765582	3.85834	0.962932	4.85738	0.536823	2.70229	0.638819	3.21017	0.828025	4.16659		
0.53928	2.70133	0.392307	1.94138	0.539277	2.70133	0.650581	3.26429	0.767217	3.84851	0.964037	4.84021	0.538891	2.70004	0.640592	3.20409	0.829178	4.15292		
0.541675	2.70072	0.394335	1.94246	0.541672	2.70072	0.652198	3.25718	0.768855	3.83879	0.965147	4.82322	0.540959	2.69781	0.642371	3.19808	0.830334	4.13939		
0.544071	2.70013	0.396362	1.94353	0.544069	2.70013	0.653819	3.25015	0.770497	3.82917	0.96626	4.8064	0.543025	2.69559	0.644154	3.19215	0.831496	4.12602		
0.54647	2.69955	0.39839	1.94458	0.546467	2.69955	0.655444	3.2432	0.772142	3.81966	0.967377	4.78976	0.54509	2.69338	0.645942	3.1863	0.832661	4.11279		
0.54887	2.69898	0.400417	1.94563	0.548867	2.69898	0.657071	3.23634	0.773791	3.81026	0.968499	4.7733	0.547154	2.69119	0.647734	3.18052	0.833831	4.0997		
0.551271	2.69843	0.402444	1.94667	0.551268	2.69843	0.658702	3.22955	0.775443	3.80095	0.969624	4.757	0.549217	2.68902	0.649531	3.17482	0.835005	4.08675		
0.553674	2.69788	0.40447	1.94769	0.553671	2.69788	0.660336	3.22284	0.777098	3.79175	0.970754	4.74087	0.551278	2.68685	0.651332	3.16919	0.836183	4.07394		
0.556078	2.69735	0.406497	1.94871	0.556075	2.69735	0.661974	3.21621	0.778756	3.78265	0.971888	4.72491	0.553339	2.6847	0.653138	3.16364	0.837366	4.06127		
0.558483	2.69683	0.408523	1.94971	0.55848	2.69683	0.663615	3.20965	0.780418	3.77364	0.973025	4.70911	0.555398	2.68257	0.654948	3.15815	0.838553	4.04873		
0.560889	2.69632	0.410549	1.95071	0.560887	2.69632	0.665258	3.20317	0.782083	3.76473	0.974167	4.69347	0.557456	2.68045	0.656763	3.15274	0.839744	4.03632		
0.563297	2.69582	0.412574	1.95169	0.563295	2.69582	0.666906	3.19676	0.783752	3.75592	0.975312	4.67799	0.559512	2.67834	0.658582	3.14739	0.840939	4.02405		
0.565706	2.69533	0.4146	1.95267	0.565703	2.69533	0.668556	3.19042	0.785423	3.7472	0.976462	4.66267	0.561568	2.67624	0.660405	3.14212	0.842139	4.0119		
0.568116	2.69485	0.416625	1.95363	0.568113	2.69485	0.670209	3.18415	0.787098	3.73857	0.977616	4.6475	0.563622	2.67415	0.662233	3.13691	0.843343	3.99988		
0.570527	2.69438	0.41865	1.95459	0.570524	2.69438	0.671866	3.17796	0.788776	3.73003	0.978773	4.63249	0.565675	2.67208	0.664065	3.13176	0.844551	3.98799		
0.572938	2.69391	0.420674	1.95553	0.572936	2.69391	0.673526	3.17183	0.790457	3.72158	0.979935	4.61762	0.567726	2.67002	0.665901	3.12669	0.845764	3.97622		
0.575351	2.69346	0.422699	1.95647	0.575348	2.69346	0.675189	3.16577	0.792141	3.71322	0.9811	4.60291	0.569777	2.66798	0.667742	3.12167	0.84698	3.96458		
0.577764	2.69301	0.424723	1.9574	0.577762	2.69301	0.676855	3.15978	0.793828	3.70495	0.98227	4.58834	0.571826	2.66594	0.669587	3.11672	0.848201	3.95305		
0.580179	2.69257	0.426747	1.95832	0.580176	2.69257	0.678524	3.15385	0.795518	3.69676	0.983443	4.57391	0.573874	2.66392	0.671436	3.11183	0.849426	3.94165		
0.582594	2.69214	0.42877	1.95923	0.582591	2.69214	0.680196	3.14799	0.797211	3.68866	0.98462	4.55963	0.57592	2.6619	0.673289	3.10701	0.850655	3.93036		
0.58501	2.69171	0.430794	1.96013	0.585007	2.69171	0.681871	3.14219	0.798907	3.68064	0.985802	4.54549	0.577966	2.6599	0.675147	3.10224	0.851888	3.91918		
0.587426	2.69129	0.432817	1.96102	0.587423	2.69129	0.683549	3.13646	0.800606	3.67271	0.986987	4.53148	0.58001	2.65791	0.677008	3.09753	0.853126	3.90813		
0.589843	2.69088	0.43484	1.9619	0.58984	2.69088	0.68523	3.13079	0.802308	3.66485	0.988176	4.51762	0.582053	2.65594	0.678874	3.09288	0.854368	3.89718		
0.59226	2.69047	0.436862	1.96278	0.592258	2.69048	0.686915	3.12518	0.804013	3.65707	0.989368	4.50389	0.584094	2.65397	0.680743	3.08829	0.855613	3.88635		
0.594679	2.69007	0.438885	1.96364	0.594676	2.69007	0.688602	3.11964	0.805721	3.64938	0.990565	4.49029	0.586135	2.65201	0.682617	3.08376	0.856863	3.87562		
0.597097	2.68968	0.440907	1.9645	0.597095	2.68968	0.690292	3.11415	0.807432	3.64176	0.991766	4.47682	0.588174	2.65007	0.684495	3.07928	0.858117	3.86501		
0.599516	2.68929	0.442928	1.96535	0.599514	2.68929	0.691985	3.10872	0.809145	3.63421	0.99297	4.46349	0.590211	2.64813	0.686376	3.07486	0.859375	3.8545		
0.601936	2.6889	0.44495	1.96619	0.601933	2.68891	0.693682	3.10335	0.810862	3.62675	0.994178	4.45028	0.592248	2.64621	0.688262	3.07049	0.860637	3.84409		
0.604356	2.68853	0.446971	1.96703	0.604353	2.68853	0.695381	3.09804	0.812581	3.61935	0.99539	4.4372	0.594283	2.64429	0.690152	3.06617	0.861904	3.8338		
0.606776	2.68815	0.448992	1.96785	0.606773	2.68815	0.697083	3.09279	0.814303	3.61203	0.996606	4.42425	0.596317	2.64239	0.692045	3.06191	0.863174	3.8236		
0.609197	2.68778	0.451013	1.96867	0.609194	2.68778	0.698788	3.08759	0.816027	3.60479	0.997826	4.41142	0.59835	2.64049	0.693942	3.0577	0.864448	3.81351		
0.611618	2.68741	0.453034	1.96948	0.611615	2.68741	0.700496	3.08244	0.817755	3.59761	0.999049	4.39871	0.600381	2.63861	0.695844	3.05354	0.865727	3.80351		
0.614039	2.68705	0.455054	1.97028	0.614036	2.68705	0.702206	3.07735	0.819485	3.5905	1.00028	4.38612	0.602411	2.63674	0.697749	3.04944	0.867009	3.79362		
0.61646	2.68669	0.457074	1.97108	0.616457	2.68669	0.70392	3.07232	0.821217	3.58347			0.60444	2.63487	0.699657	3.04538	0.868296	3.78382		
0.618882	2.68634	0.459094	1.97186	0.618879	2.68634	0.705637	3.06734	0.822953	3.5765			0.606468	2.63302	0.70157	3.04137	0.869586	3.77412		
0.621303	2.68599	0.461113	1.97264	0.621301	2.68599	0.707356	3.06241	0.824691	3.5696			0.608495	2.63117	0.703486	3.03741	0.870881	3.76452		
0.623725	2.68564	0.463132	1.97342	0.623723	2.68564	0.709078	3.05753	0.826431	3.56276			0.61052	2.62934	0.705406	3.03349	0.872179	3.75501		
0.626147	2.6853	0.465151	1.97418	0.626145	2.6853	0.710804	3.05271	0.828174	3.556			0.612544	2.62751	0.707329	3.02963	0.873482	3.74559		
0.628569	2.68496	0.46717	1.97494	0.628567	2.68496	0.712532	3.04793	0.82992	3.54929			0.614566	2.62569	0.709256	3.0258	0.874788	3.73627		
0.630991	2.68462	0.469188	1.97569	0.630989	2.68462	0.714262	3.04321	0.831668	3.54265			0.616588	2.62389	0.711187	3.02203	0.876099	3.72703		
0.633413	2.68428	0.471206	1.97643	0.633411	2.68428	0.715996	3.03854	0.833419	3.53608			0.618608	2.62209	0.713121	3.0183	0.877413	3.71789		
0.635835	2.68395	0.473224	1.97717	0.635833	2.68395	0.717733	3.03391	0.835172	3.52956			0.620627	2.6203	0.715059	3.01461	0.878732	3.70884		
0.638257	2.68362	0.475241	1.9779	0.638255	2.68362	0.719472	3.02933	0.836928	3.52311			0.622645	2.61852	0.717	3.01097	0.880054	3.69987		
0.640679	2.68329	0.477259	1.97862	0.640677	2.68329	0.721214	3.0248	0.838686	3.51672			0.624662	2.61674	0.718945	3.00737	0.88138	3.69099		
0.643101	2.68297	0.479276	1.97934	0.643099	2.68297	0.722959	3.02032	0.840447	3.51039			0.626677	2.61498	0.720893	3.00381	0.882711	3.68219		
0.645523	2.68264	0.481292	1.98005	0.64552	2.68264	0.724707	3.01588	0.84221	3.50411			0.628691	2.61323	0.722845	3.0003	0.884045	3.67348		
0.647945	2.68232	0.483309	1.98075	0.647942	2.68232	0.726458	3.01149	0.843975	3.4979			0.630704	2.61148	0.7248	2.99682	0.885383	3.66485		
0.650366	2.682	0.485325	1.98145	0.650363	2.682	0.728211	3.00714	0.845743	3.49174			0.632716	2.60974	0.726758	2.99339	0.886725	3.6563		
0.652787	2.68168	0.487341	1.98214	0.652785	2.68168	0.729967	3.00284	0.847513	3.48564			0.634727	2.60801	0.728719	2.98999	0.888071	3.64784		
0.655208	2.68136	0.489357	1.98283	0.655205	2.68136	0.731726	2.99858	0.849285	3.4796			0.636736	2.60629	0.730684	2.98664	0.88942	3.63945		
0.657629	2.68105	0.491372	1.9835	0.657626	2.68105	0.733488	2.99437	0.85106	3.47361			0.638745	2.60458	0.732652	2.98332	0.890774	3.63115		
0.660049	2.68073	0.493387	1.98418	0.660047	2.68073	0.735253	2.9902	0.852837	3.46768			0.640752	2.60287	0.734624	2.98004	0.892131	3.62292		
0.662469	2.68042	0.495402	1.98484	0.662467	2.68042	0.73702	2.98608	0.854616	3.4618			0.642758	2.60118	0.736598	2.9768	0.893493	3.61477		
0.664889	2.6801	0.497416	1.9855	0.664886	2.6801	0.73879	2.98199	0.856397	3.45597			0.644763	2.59949	0.738576	2.9736	0.894858	3.6067		
0.667308	2.67979	0.499431	1.98616	0.667306	2.67979	0.740563	2.97795	0.858181	3.45019			0.646766	2.59781	0.740556	2.97043	0.896227	3.59871		
0.669727	2.67948	0.501445	1.9868	0.669724	2.67948	0.742339	2.97395	0.859966	3.44447			0.648769	2.59614	0.74254	2.9673	0.8976	3.59079		
0.672145	2.67917	0.503458	1.98744	0.672143	2.67917	0.744118	2.96999	0.861754	3.4388			0.65077	2.59448	0.744527	2.9642	0.898976	3.58294		
0.674563	2.67886	0.505472	1.98808	0.674561	2.67886	0.745899	2.96607	0.863544	3.43318			0.652771	2.59282	0.746517	2.96114	0.900357	3.57516		
0.676981	2.67855	0.507485	1.98871	0.676978	2.67855	0.747683	2.96219	0.865337	3.42761			0.65477	2.59117	0.74851	2.95811	0.901741	3.56746		
0.679398	2.67824	0.509498	1.98934	0.679395	2.67824	0.74947	2.95835	0.867131	3.42209			0.656768	2.58953	0.750506	2.95512	0.903129	3.55983		
0.681814	2.67793	0.51151	1.98996	0.681812	2.67793	0.75126	2.95455	0.868927	3.41661			0.658765	2.5879	0.752504	2.95216	0.904521	3.55227		
0.68423	2.67762	0.513523	1.99057	0.684228	2.67762	0.753053	2.95078	0.870726	3.41119			0.660761	2.58627	0.754506	2.94923	0.905916	3.54478		
0.686645	2.67731	0.515535	1.99118	0.686643	2.67731	0.754848	2.94706	0.872526	3.40581			0.662756	2.58466	0.756511	2.94634	0.907316	3.53736		
0.68906	2.677	0.517547	1.99178	0.689057	2.677	0.756646	2.94337	0.874329	3.40048			0.66475	2.58305	0.758518	2.94347	0.908719	3.53001		
0.691474	2.67669	0.519558	1.99238	0.691471	2.67669	0.758447	2.93973	0.876134	3.3952			0.666743	2.58145	0.760528	2.94064	0.910126	3.52273		
0.693887	2.67638	0.521569	1.99297	0.693884	2.67638	0.760251	2.93612	0.87794	3.38996			0.668735	2.57985	0.762541	2.93784	0.911536	3.51551		
0.696299	2.67606	0.52358	1.99356	0.696297	2.67606	0.762058	2.93254	0.879749	3.38476			0.670726	2.57826	0.764556	2.93507	0.912951	3.50836		
0.698711	2.67575	0.525591	1.99414	0.698708	2.67575	0.763868	2.929	0.881559	3.37961			0.672716	2.57669	0.766574	2.93233	0.914369	3.50127		
0.701122	2.67544	0.527601	1.99471	0.701119	2.67544	0.76568	2.9255	0.883372	3.37451			0.674704	2.57511	0.768595	2.92962	0.915791	3.49425		
0.703532	2.67512	0.529611	1.99528	0.703529	2.67512	0.767496	2.92204	0.885186	3.36945			0.676692	2.57355	0.770619	2.92694	0.917216	3.48729		
0.705941	2.67481	0.531621	1.99585	0.705938	2.67481	0.769314	2.91861	0.887002	3.36443			0.678679	2.57199	0.772645	2.92428	0.918645	3.4804		
0.708349	2.67449	0.533631	1.99641	0.708346	2.67449	0.771136	2.91521	0.88882	3.35945			0.680665	2.57044	0.774674	2.92166	0.920078	3.47356		
0.710756	2.67417	0.53564	1.99697	0.710753	2.67417	0.77296	2.91185	0.89064	3.35452			0.68265	2.5689	0.776705	2.91906	0.921515	3.46679		
0.713162	2.67385	0.537649	1.99752	0.71316	2.67385	0.774787	2.90853	0.892462	3.34963			0.684634	2.56736	0.778739	2.91649	0.922955	3.46008		
0.715567	2.67353	0.539658	1.99807	0.715565	2.67353	0.776617	2.90524	0.894286	3.34478			0.686617	2.56583	0.780775	2.91395	0.924399	3.45344		
0.717972	2.67321	0.541666	1.99861	0.717969	2.67321	0.77845	2.90198	0.896111	3.33997			0.688599	2.56431	0.782813	2.91144	0.925847	3.44685		
0.720375	2.67288	0.543674	1.99915	0.720372	2.67288	0.780286	2.89876	0.897939	3.33519			0.69058	2.5628	0.784854	2.90895	0.927298	3.44032		
0.722777	2.67256	0.545682	1.99968	0.722774	2.67256	0.782125	2.89557	0.899768	3.33046			0.69256	2.56129	0.786898	2.90648	0.928753	3.43385		
0.725177	2.67223	0.54769	2.00021	0.725175	2.67223	0.783967	2.89241	0.901599	3.32577			0.69454	2.55979	0.788943	2.90405	0.930212	3.42743		
0.727577	2.6719	0.549697	2.00073	0.727574	2.6719	0.785812	2.88929	0.903431	3.32112			0.696518	2.5583	0.790991	2.90163	0.931674	3.42108		
0.729975	2.67156	0.551704	2.00125	0.729972	2.67156	0.787661	2.88619	0.905266	3.3165			0.698496	2.55681	0.793041	2.89925	0.93314	3.41478		
0.732372	2.67123	0.553711	2.00176	0.732369	2.67123	0.789512	2.88313	0.907101	3.31192			0.700473	2.55534	0.795094	2.89688	0.93461	3.40853		
0.734768	2.67089	0.555718	2.00227	0.734765	2.67089	0.791367	2.88011	0.908939	3.30738			0.702449	2.55386	0.797149	2.89454	0.936083	3.40234		
0.737162	2.67055	0.557724	2.00278	0.737159	2.67055	0.793224	2.87711	0.910779	3.30288			0.704424	2.5524	0.799205	2.89223	0.93756	3.39621		
0.739555	2.6702	0.55973	2.00328	0.739552	2.6702	0.795085	2.87415	0.912619	3.29841			0.706398	2.55094	0.801264	2.88993	0.93904	3.39013		
0.741946	2.66986	0.561735	2.00377	0.741943	2.66986	0.796949	2.87122	0.914462	3.29398			0.708371	2.54949	0.803325	2.88766	0.940524	3.38411		
0.744336	2.66951	0.563741	2.00427	0.744333	2.66951	0.798816	2.86832	0.916306	3.28958			0.710344	2.54804	0.805388	2.88542	0.942012	3.37813		
0.746724	2.66915	0.565746	2.00476	0.746722	2.66915	0.800687	2.86545	0.918152	3.28522			0.712316	2.54661	0.807453	2.88319	0.943503	3.37221		
0.749111	2.6688	0.567751	2.00524	0.749108	2.6688	0.80256	2.86261	0.92	3.28089			0.714287	2.54518	0.809521	2.88099	0.944998	3.36635		
0.751496	2.66843	0.569755	2.00572	0.751493	2.66843	0.804437	2.8598	0.921849	3.2766			0.716257	2.54375	0.81159	2.8788	0.946496	3.36053		
0.753879	2.66807	0.57176	2.00619	0.753876	2.66807	0.806318	2.85702	0.923699	3.27234			0.718227	2.54233	0.813661	2.87664	0.947998	3.35477		
0.75626	2.6677	0.573764	2.00667	0.756258	2.6677	0.808202	2.85427	0.925551	3.26811			0.720196	2.54092	0.815734	2.8745	0.949503	3.34905		
0.75864	2.66733	0.575767	2.00713	0.758638	2.66733	0.810089	2.85156	0.927405	3.26392			0.722164	2.53952	0.817808	2.87239	0.951012	3.34339		
0.761018	2.66695	0.577771	2.0076	0.761015	2.66695	0.81198	2.84887	0.92926	3.25976			0.724131	2.53812	0.819885	2.87029	0.952525	3.33777		
0.763394	2.66657	0.579774	2.00806	0.763391	2.66657	0.813874	2.84621	0.931117	3.25563			0.726098	2.53673	0.821963	2.86821	0.954041	3.33221		
0.765768	2.66619	0.581777	2.00851	0.765765	2.66619	0.815772	2.84358	0.932975	3.25154			0.728064	2.53535	0.824044	2.86615	0.955561	3.32669		
0.768139	2.6658	0.58378	2.00897	0.768137	2.6658	0.817673	2.84098	0.934835	3.24747			0.730029	2.53397	0.826126	2.86411	0.957084	3.32122		
0.770509	2.6654	0.585782	2.00941	0.770507	2.6654	0.819578	2.83841	0.936696	3.24344			0.731994	2.5326	0.828209	2.86209	0.958611	3.3158		
0.772877	2.66501	0.587784	2.00986	0.772874	2.66501	0.821487	2.83587	0.938558	3.23944			0.733958	2.53123	0.830295	2.86008	0.960141	3.31042		
0.775242	2.6646	0.589786	2.0103	0.77524	2.6646	0.823399	2.83336	0.940422	3.23547			0.735921	2.52988	0.832382	2.8581	0.961675	3.30509		
0.777605	2.66419	0.591787	2.01073	0.777603	2.66419	0.825315	2.83088	0.942288	3.23153			0.737884	2.52852	0.83447	2.85614	0.963212	3.29981		
0.779966	2.66378	0.593789	2.01117	0.779963	2.66378	0.827235	2.82842	0.944154	3.22762			0.739846	2.52718	0.836561	2.85419	0.964753	3.29457		
0.782324	2.66336	0.59579	2.0116	0.782322	2.66336	0.829159	2.826	0.946022	3.22373			0.741807	2.52584	0.838652	2.85226	0.966297	3.28938		
0.78468	2.66293	0.59779	2.01202	0.784678	2.66293	0.831086	2.8236	0.947892	3.21988			0.743768	2.52451	0.840746	2.85035	0.967845	3.28423		
0.787033	2.6625	0.599791	2.01245	0.787031	2.6625	0.833018	2.82124	0.949762	3.21606			0.745728	2.52318	0.84284	2.84845	0.969396	3.27913		
0.789384	2.66206	0.601791	2.01286	0.789382	2.66206	0.834954	2.8189	0.951635	3.21226			0.747688	2.52186	0.844937	2.84657	0.970951	3.27407		
0.791732	2.66162	0.603791	2.01328	0.79173	2.66162	0.836893	2.81659	0.953508	3.2085			0.749647	2.52055	0.847034	2.84471	0.97251	3.26906		
0.794078	2.66116	0.605791	2.01369	0.794075	2.66117	0.838837	2.8143	0.955383	3.20476			0.751606	2.51924	0.849133	2.84286	0.974071	3.26408		
0.79642	2.66071	0.60779	2.0141	0.796417	2.66071	0.840785	2.81205	0.957259	3.20105			0.753563	2.51794	0.851234	2.84103	0.975637	3.25915		
0.79876	2.66024	0.609789	2.0145	0.798757	2.66024	0.842737	2.80982	0.959136	3.19736			0.755521	2.51665	0.853336	2.83922	0.977205	3.25426		
0.801096	2.65977	0.611788	2.01491	0.801094	2.65977	0.844694	2.80762	0.961015	3.19371			0.757478	2.51536	0.855439	2.83742	0.978778	3.24942		
0.80343	2.65929	0.613786	2.0153	0.803428	2.6593	0.846654	2.80545	0.962894	3.19007			0.759434	2.51408	0.857543	2.83564	0.980353	3.24461		
0.805761	2.65881	0.615785	2.0157	0.805758	2.65881	0.84862	2.80331	0.964775	3.18647			0.76139	2.5128	0.859649	2.83387	0.981932	3.23985		
0.808088	2.65832	0.617783	2.01609	0.808086	2.65832	0.850589	2.80119	0.966658	3.18289			0.763345	2.51153	0.861755	2.83212	0.983515	3.23513		
0.810412	2.65782	0.61978	2.01648	0.81041	2.65782	0.852563	2.79911	0.968541	3.17934			0.7653	2.51027	0.863863	2.83038	0.985101	3.23044		
0.812733	2.65731	0.621778	2.01686	0.812731	2.65731	0.854542	2.79705	0.970426	3.17581			0.767255	2.50901	0.865972	2.82865	0.986691	3.2258		
0.815051	2.65679	0.623775	2.01725	0.815048	2.65679	0.856525	2.79502	0.972311	3.17231			0.769209	2.50776	0.868083	2.82694	0.988284	3.2212		
0.817365	2.65627	0.625772	2.01763	0.817362	2.65627	0.858513	2.79301	0.974198	3.16884			0.771162	2.50652	0.870194	2.82525	0.98988	3.21663		
0.819675	2.65574	0.627769	2.018	0.819673	2.65574	0.860506	2.79103	0.976086	3.16539			0.773115	2.50528	0.872307	2.82356	0.99148	3.21211		
0.821982	2.6552	0.629765	2.01837	0.82198	2.6552	0.862504	2.78908	0.977976	3.16196			0.775068	2.50405	0.87442	2.82189	0.993083	3.20762		
0.824286	2.65465	0.631761	2.01874	0.824283	2.65465	0.864506	2.78716	0.979866	3.15856			0.77702	2.50282	0.876535	2.82024	0.99469	3.20317		
0.826585	2.65409	0.633757	2.01911	0.826583	2.65409	0.866513	2.78527	0.981757	3.15518			0.778972	2.5016	0.87865	2.8186	0.9963	3.19876		
0.828881	2.65352	0.635753	2.01947	0.828879	2.65352	0.868526	2.7834	0.98365	3.15182			0.780923	2.50039	0.880766	2.81697	0.997914	3.19438		
0.831173	2.65295	0.637748	2.01983	0.831171	2.65295	0.870543	2.78156	0.985544	3.14849			0.782874	2.49918	0.882884	2.81535	0.999531	3.19004		
0.833461	2.65236	0.639743	2.02019	0.833459	2.65236	0.872566	2.77975	0.987438	3.14518			0.784825	2.49798	0.885002	2.81374	1.00115	3.18574		
0.835745	2.65177	0.641738	2.02055	0.835743	2.65177	0.874593	2.77796	0.989334	3.1419			0.786775	2.49678	0.887121	2.81215				
0.838025	2.65116	0.643733	2.0209	0.838022	2.65117	0.876626	2.7762	0.991231	3.13863			0.788725	2.49559	0.889241	2.81057				
0.840301	2.65055	0.645727	2.02125	0.840298	2.65055	0.878664	2.77447	0.993129	3.13539			0.790675	2.4944	0.891362	2.809				
0.842572	2.64993	0.647721	2.02159	0.84257	2.64993	0.880708	2.77277	0.995028	3.13218			0.792624	2.49322	0.893483	2.80744				
0.844839	2.6493	0.649715	2.02193	0.844837	2.6493	0.882756	2.77109	0.996928	3.12898			0.794573	2.49205	0.895605	2.8059				
0.847102	2.64865	0.651708	2.02227	0.8471	2.64865	0.884811	2.76944	0.998829	3.12581			0.796521	2.49088	0.897728	2.80436				
0.849361	2.648	0.653701	2.02261	0.849358	2.648	0.88687	2.76781	1.00073	3.12265			0.79847	2.48972	0.899852	2.80284				
0.851615	2.64734	0.655694	2.02295	0.851613	2.64734	0.888935	2.76621					0.800417	2.48857	0.901976	2.80133				
0.853865	2.64667	0.657687	2.02328	0.853862	2.64667	0.891006	2.76464					0.802365	2.48742	0.904101	2.79982				
0.85611	2.64598	0.659679	2.02361	0.856107	2.64599	0.893082	2.7631					0.804312	2.48627	0.906227	2.79833				
0.85835	2.64529	0.661671	2.02393	0.858348	2.64529	0.895164	2.76158					0.806259	2.48513	0.908353	2.79685				
0.860586	2.64459	0.663663	2.02426	0.860584	2.64459	0.897252	2.76008					0.808206	2.484	0.91048	2.79538				
0.862817	2.64388	0.665655	2.02458	0.862815	2.64388	0.899345	2.75862					0.810153	2.48287	0.912607	2.79392				
0.865044	2.64315	0.667646	2.0249	0.865041	2.64315	0.901444	2.75718					0.812099	2.48175	0.914735	2.79247				
0.867266	2.64242	0.669637	2.02521	0.867263	2.64242	0.903549	2.75576					0.814045	2.48063	0.916863	2.79103				
0.869483	2.64168	0.671628	2.02553	0.86948	2.64168	0.905659	2.75437					0.815991	2.47952	0.918991	2.78959				
0.871695	2.64092	0.673619	2.02584	0.871693	2.64092	0.907776	2.75301					0.817936	2.47842	0.92112	2.78817				
0.873902	2.64016	0.675609	2.02615	0.8739	2.64016	0.909897	2.75167					0.819881	2.47732	0.92325	2.78676				
0.876105	2.63938	0.677599	2.02645	0.876103	2.63938	0.912025	2.75035					0.821826	2.47623	0.92538	2.78535				
0.878303	2.6386	0.679589	2.02676	0.878301	2.6386	0.914159	2.74906					0.823771	2.47514	0.92751	2.78396				
0.880496	2.6378	0.681579	2.02706	0.880494	2.6378	0.916298	2.7478					0.825716	2.47405	0.92964	2.78257				
0.882684	2.637	0.683568	2.02736	0.882682	2.637	0.918443	2.74655					0.82766	2.47298	0.931771	2.78119				
0.884868	2.63618	0.685557	2.02765	0.884865	2.63618	0.920594	2.74534					0.829605	2.4719	0.933902	2.77982				
0.887046	2.63536	0.687546	2.02795	0.887044	2.63536	0.922751	2.74414					0.831549	2.47084	0.936033	2.77846				
0.88922	2.63452	0.689534	2.02824	0.889217	2.63452	0.924913	2.74297					0.833493	2.46978	0.938164	2.77711				
0.891389	2.63368	0.691523	2.02853	0.891386	2.63368	0.927081	2.74183					0.835436	2.46872	0.940296	2.77576				
0.893553	2.63283	0.693511	2.02882	0.893551	2.63283	0.929254	2.7407					0.83738	2.46767	0.942428	2.77442				
0.895712	2.63196	0.695499	2.0291	0.89571	2.63196	0.931434	2.7396					0.839323	2.46663	0.944559	2.77309				
0.897867	2.63109	0.697486	2.02938	0.897865	2.63109	0.933619	2.73853					0.841267	2.46559	0.946692	2.77177				
0.900017	2.63021	0.699473	2.02966	0.900015	2.63021	0.935809	2.73747					0.84321	2.46455	0.948824	2.77046				
0.902163	2.62932	0.70146	2.02994	0.90216	2.62932	0.938005	2.73644					0.845153	2.46352	0.950956	2.76915				
0.904303	2.62842	0.703447	2.03022	0.904301	2.62842	0.940206	2.73542					0.847096	2.4625	0.953088	2.76785				
0.90644	2.62752	0.705434	2.03049	0.906437	2.62752	0.942413	2.73443					0.849039	2.46148	0.95522	2.76655				
0.908571	2.6266	0.70742	2.03076	0.908569	2.6266	0.944625	2.73346					0.850981	2.46046	0.957352	2.76527				
0.910699	2.62568	0.709406	2.03103	0.910696	2.62568	0.946843	2.73251					0.852924	2.45946	0.959484	2.76399				
0.912821	2.62475	0.711392	2.0313	0.912819	2.62475	0.949066	2.73158					0.854867	2.45845	0.961616	2.76271				
0.91494	2.62381	0.713377	2.03156	0.914938	2.62381	0.951293	2.73067					0.856809	2.45745	0.963748	2.76145				
0.917054	2.62287	0.715362	2.03182	0.917052	2.62287	0.953526	2.72978					0.858751	2.45646	0.96588	2.76019				
0.919164	2.62192	0.717347	2.03208	0.919162	2.62192	0.955764	2.72891					0.860694	2.45547	0.968011	2.75893				
0.92127	2.62096	0.719332	2.03234	0.921268	2.62096	0.958007	2.72805					0.862636	2.45449	0.970143	2.75769				
0.923372	2.61999	0.721317	2.0326	0.92337	2.61999	0.960255	2.72722					0.864578	2.45351	0.972274	2.75644				
0.92547	2.61902	0.723301	2.03285	0.925467	2.61902	0.962508	2.7264					0.86652	2.45254	0.974405	2.75521				
0.927563	2.61804	0.725285	2.03311	0.927561	2.61804	0.964765	2.7256					0.868462	2.45157	0.976536	2.75398				
0.929653	2.61706	0.727269	2.03336	0.929651	2.61706	0.967027	2.72482					0.870404	2.45061	0.978667	2.75275				
0.931739	2.61607	0.729252	2.0336	0.931737	2.61607	0.969293	2.72406					0.872346	2.44965	0.980797	2.75153				
0.933822	2.61508	0.731236	2.03385	0.93382	2.61508	0.971564	2.72331					0.874288	2.44869	0.982927	2.75032				
0.9359	2.61408	0.733219	2.03409	0.935898	2.61408	0.973839	2.72257					0.87623	2.44775	0.985057	2.74911				
0.937976	2.61307	0.735201	2.03434	0.937973	2.61308	0.976119	2.72186					0.878171	2.4468	0.987186	2.74791				
0.940047	2.61207	0.737184	2.03458	0.940045	2.61207	0.978403	2.72116					0.880113	2.44586	0.989315	2.74671				
0.942116	2.61105	0.739166	2.03482	0.942113	2.61105	0.980691	2.72047					0.882055	2.44493	0.991444	2.74552				
0.94418	2.61004	0.741148	2.03505	0.944178	2.61004	0.982983	2.7198					0.883997	2.444	0.993572	2.74433				
0.946242	2.60902	0.74313	2.03529	0.94624	2.60902	0.985279	2.71914					0.885939	2.44307	0.9957	2.74315				
0.948301	2.60799	0.745112	2.03552	0.948298	2.60799	0.987579	2.7185					0.88788	2.44216	0.997827	2.74197				
0.950356	2.60696	0.747093	2.03575	0.950354	2.60697	0.989882	2.71787					0.889822	2.44124	0.999954	2.7408				
0.952408	2.60593	0.749074	2.03598	0.952406	2.60593	0.992189	2.71725					0.891764	2.44033	1.00208	2.73963				
0.954458	2.6049	0.751055	2.03621	0.954455	2.6049	0.9945	2.71665					0.893706	2.43942						
0.956504	2.60386	0.753036	2.03643	0.956502	2.60387	0.996815	2.71606					0.895648	2.43852						
0.958548	2.60283	0.755016	2.03666	0.958546	2.60283	0.999132	2.71548					0.89759	2.43763						
0.960589	2.60179	0.756996	2.03688	0.960586	2.60179	1.00145	2.71492					0.899531	2.43673						
0.962627	2.60074	0.758976	2.0371	0.962625	2.60075							0.901473	2.43585						
0.964663	2.5997	0.760956	2.03732	0.964661	2.5997							0.903415	2.43496						
0.966696	2.59865	0.762935	2.03754	0.966694	2.59866							0.905357	2.43409						
0.968727	2.59761	0.764914	2.03775	0.968725	2.59761							0.907299	2.43321						
0.970755	2.59656	0.766893	2.03797	0.970753	2.59656							0.909241	2.43234						
0.972781	2.59551	0.768872	2.03818	0.972779	2.59551							0.911184	2.43148						
0.974805	2.59446	0.77085	2.03839	0.974803	2.59446							0.913126	2.43062						
0.976827	2.59341	0.772829	2.0386	0.976825	2.59341							0.915068	2.42976						
0.978847	2.59236	0.774807	2.0388	0.978844	2.59236							0.91701	2.42891						
0.980864	2.59131	0.776784	2.03901	0.980862	2.59131							0.918953	2.42806						
0.98288	2.59026	0.778762	2.03921	0.982878	2.59026							0.920895	2.42722						
0.984894	2.58921	0.780739	2.03942	0.984891	2.58921							0.922838	2.42638						
0.986905	2.58816	0.782716	2.03962	0.986903	2.58816							0.924781	2.42555						
0.988915	2.58711	0.784693	2.03981	0.988913	2.58711							0.926723	2.42472						
0.990924	2.58606	0.78667	2.04001	0.990922	2.58606							0.928666	2.42389						
0.992931	2.58501	0.788646	2.04021	0.992928	2.58501							0.930609	2.42307						
0.994936	2.58396	0.790622	2.0404	0.994933	2.58397							0.932552	2.42226						
0.996939	2.58292	0.792598	2.0406	0.996937	2.58292							0.934495	2.42144						
0.998941	2.58187	0.794574	2.04079	0.998939	2.58187							0.936438	2.42063						
1.00094	2.58083	0.796549	2.04098	1.00094	2.58083							0.938382	2.41983						
		0.798525	2.04116									0.940325	2.41903						
		0.8005	2.04135									0.942269	2.41823						
		0.802474	2.04154									0.944212	2.41744						
		0.804449	2.04172									0.946156	2.41665						
		0.806423	2.0419									0.9481	2.41587						
		0.808398	2.04208									0.950044	2.41509						
		0.810371	2.04226									0.951988	2.41431						
		0.812345	2.04244									0.953932	2.41354						
		0.814319	2.04262									0.955877	2.41277						
		0.816292	2.0428									0.957821	2.41201						
		0.818265	2.04297									0.959766	2.41125						
		0.820238	2.04314									0.961711	2.41049						
		0.82221	2.04331									0.963656	2.40974						
		0.824182	2.04348									0.965601	2.40899						
		0.826155	2.04365									0.967546	2.40825						
		0.828127	2.04382									0.969492	2.40751						
		0.830098	2.04399									0.971437	2.40677						
		0.83207	2.04415									0.973383	2.40604						
		0.834041	2.04431									0.975329	2.40531						
		0.836012	2.04448									0.977275	2.40458						
		0.837983	2.04464									0.979221	2.40386						
		0.839953	2.0448									0.981168	2.40314						
		0.841924	2.04496									0.983114	2.40243						
		0.843894	2.04511									0.985061	2.40171						
		0.845864	2.04527									0.987008	2.40101						
		0.847834	2.04542									0.988955	2.4003						
		0.849803	2.04558									0.990902	2.3996						
		0.851773	2.04573									0.99285	2.39891						
		0.853742	2.04588									0.994798	2.39821						
		0.855711	2.04603									0.996745	2.39753						
		0.857679	2.04618									0.998693	2.39684						
		0.859648	2.04633									1.00064	2.39616						
		0.861616	2.04648																
		0.863584	2.04662																
		0.865552	2.04677																
		0.86752	2.04691																
		0.869487	2.04705																
		0.871455	2.04719																
		0.873422	2.04733																
		0.875389	2.04747																
		0.877355	2.04761																
		0.879322	2.04774																
		0.881288	2.04788																
		0.883254	2.04802																
		0.88522	2.04815																
		0.887185	2.04828																
		0.889151	2.04841																
		0.891116	2.04854																
		0.893081	2.04867																
		0.895046	2.0488																
		0.897011	2.04893																
		0.898975	2.04905																
		0.900939	2.04918																
		0.902903	2.0493																
		0.904867	2.04943																
		0.906831	2.04955																
		0.908795	2.04967																
		0.910758	2.04979																
		0.912721	2.04991																
		0.914684	2.05003																
		0.916647	2.05015																
		0.918609	2.05027																
		0.920571	2.05038																
		0.922534	2.0505																
		0.924496	2.05061																
		0.926457	2.05073																
		0.928419	2.05084																
		0.93038	2.05095																
		0.932342	2.05106																
		0.934303	2.05117																
		0.936263	2.05128																
		0.938224	2.05139																
		0.940185	2.0515																
		0.942145	2.0516																
		0.944105	2.05171																
		0.946065	2.05181																
		0.948025	2.05192																
		0.949984	2.05202																
		0.951944	2.05212																
		0.953903	2.05222																
		0.955862	2.05233																
		0.957821	2.05243																
		0.95978	2.05252																
		0.961738	2.05262																
		0.963696	2.05272																
		0.965655	2.05282																
		0.967613	2.05291																
		0.96957	2.05301																
		0.971528	2.0531																
		0.973486	2.0532																
		0.975443	2.05329																
		0.9774	2.05338																
		0.979357	2.05348																
		0.981314	2.05357																
		0.98327	2.05366																
		0.985227	2.05375																
		0.987183	2.05384																
		0.989139	2.05393																
		0.991095	2.05401																
		0.993051	2.0541																
		0.995007	2.05419																
		0.996962	2.05427																
		0.998917	2.05436																
		1.00087	2.05444																
