Sym0		Asym0		Sym1		Sym2		Sym3		Sym4		Asym1		Asym2		Asym3		Asym4	
424  Points		527  Points		424  Points		404  Points		351  Points		252  Points		455  Points		399  Points		344  Points		216  Points	
Freq (MHz)	Vph (m/ms)	Freq (MHz)	Vph (m/ms)	Freq (MHz)	Vph (m/ms)	Freq (MHz)	Vph (m/ms)	Freq (MHz)	Vph (m/ms)	Freq (MHz)	Vph (m/ms)	Freq (MHz)	Vph (m/ms)	Freq (MHz)	Vph (m/ms)	Freq (MHz)	Vph (m/ms)	Freq (MHz)	Vph (m/ms)
0.27951	623.732	0.000251358	0.0978891	0.27951	531.319	0.441245	2255.99	0.559017	2301.09	0.838526	13652.8	0.139763	291.828	0.419267	511.42	0.698772	1268.94	0.882492	1134.68
0.27952	202.577	0.000466073	0.133183	0.279521	191.747	0.441254	391.431	0.559026	475.916	0.838529	844.344	0.139831	99.1276	0.419283	239.385	0.698779	471.393	0.8825	516.252
0.27954	120.934	0.000745776	0.168302	0.279542	116.99	0.441274	214.317	0.559045	265.413	0.838538	435.648	0.139966	59.7555	0.419311	156.273	0.698791	289.467	0.882514	334.142
0.279571	86.2019	0.00108967	0.203188	0.279574	84.1798	0.441305	147.56	0.559076	184.026	0.838553	293.559	0.140168	42.8122	0.41935	116.006	0.69881	208.864	0.882533	247.012
0.279612	66.9745	0.00149686	0.237802	0.279616	65.7479	0.441349	112.521	0.559118	140.846	0.838573	221.365	0.140435	33.3916	0.419401	92.2452	0.698834	163.376	0.882558	195.927
0.279663	54.7651	0.00196607	0.272072	0.279668	53.9427	0.441404	90.9349	0.55917	114.084	0.8386	177.674	0.140768	27.4006	0.419463	76.5684	0.698864	134.161	0.882589	162.353
0.279725	46.3252	0.00249626	0.305991	0.279731	45.7357	0.44147	76.3029	0.559234	95.8725	0.838632	148.389	0.141165	23.2596	0.419537	65.4506	0.6989	113.812	0.882626	138.605
0.279797	40.1431	0.00308607	0.339515	0.279803	39.7001	0.441549	65.7316	0.559309	82.6793	0.83867	127.394	0.141625	20.2298	0.419623	57.1563	0.698942	98.8248	0.882668	120.92
0.279879	35.4202	0.00373396	0.3726	0.279887	35.0751	0.441639	57.737	0.559395	72.6818	0.838714	111.606	0.142147	17.9196	0.41972	50.7314	0.69899	87.3276	0.882716	107.239
0.279972	31.6948	0.00443835	0.405216	0.27998	31.4185	0.44174	51.4798	0.559492	64.8447	0.838764	99.3011	0.14273	16.1019	0.419829	45.6084	0.699044	78.2285	0.88277	96.3408
0.280075	28.6813	0.00519777	0.437349	0.280084	28.4551	0.441854	46.4496	0.5596	58.5363	0.838819	89.4419	0.143372	14.636	0.419949	41.4283	0.699104	70.8483	0.88283	87.4549
0.280188	26.1937	0.00601047	0.468966	0.280198	26.0051	0.441978	42.3179	0.559719	53.3494	0.838881	81.3652	0.144073	13.4301	0.420081	37.953	0.69917	64.7421	0.882896	80.0712
0.280311	24.1056	0.0068747	0.500046	0.280322	23.946	0.442115	38.8641	0.559849	49.0095	0.838948	74.6278	0.144829	12.4218	0.420224	35.0182	0.699242	59.6063	0.882967	73.8385
0.280445	22.3281	0.00778878	0.530578	0.280457	22.1914	0.442263	35.9341	0.55999	45.3251	0.839021	68.9222	0.14564	11.567	0.420379	32.5073	0.69932	55.2267	0.883045	68.5074
0.280589	20.7969	0.00875086	0.560538	0.280601	20.6784	0.442423	33.4173	0.560143	42.1583	0.839099	64.0282	0.146503	10.8339	0.420545	30.3346	0.699403	51.4479	0.883128	63.8953
0.280743	19.4642	0.00975922	0.589923	0.280757	19.3605	0.442594	31.2324	0.560306	39.4072	0.839184	59.7844	0.147298	10.2757	0.420723	28.4364	0.699493	48.1542	0.883216	59.8662
0.280908	18.2939	0.0108121	0.618722	0.280922	18.2025	0.442777	29.3177	0.56048	36.9952	0.839274	56.0692	0.148005	9.84945	0.420913	26.7638	0.699588	45.258	0.883311	56.3161
0.281083	17.2582	0.0119077	0.646925	0.281098	17.1769	0.442971	27.6263	0.560665	34.8634	0.83937	52.7898	0.148609	9.52684	0.421114	25.279	0.69969	42.6914	0.883411	53.1645
0.281268	16.3351	0.0130444	0.674537	0.281284	16.2624	0.443177	26.1213	0.560861	32.9658	0.839472	49.8738	0.1491	9.28882	0.421326	23.9521	0.699797	40.4012	0.883517	50.3479
0.281463	15.5073	0.0142204	0.701549	0.28148	15.4419	0.443394	24.7737	0.561068	31.2657	0.839579	47.264	0.149468	9.12262	0.42155	22.7594	0.69991	38.3452	0.883629	47.8156
0.281669	14.7609	0.015434	0.72796	0.281686	14.7018	0.443623	23.56	0.561286	29.7341	0.839693	44.9146	0.149706	9.01993	0.421785	21.6815	0.70003	36.4892	0.883747	45.5266
0.281885	14.0846	0.0166837	0.753782	0.281903	14.0309	0.443863	22.4614	0.561515	28.3471	0.839812	42.7886	0.150053	8.8771	0.422032	20.7026	0.700155	34.8054	0.88387	43.4476
0.282111	13.4689	0.0179679	0.77901	0.28213	13.4198	0.444115	21.4622	0.561755	27.0853	0.839937	40.8555	0.150435	8.72792	0.42229	19.8099	0.700286	33.2709	0.883999	41.551
0.282347	12.9061	0.0192851	0.803652	0.282367	12.8612	0.444378	20.5497	0.562006	25.9324	0.840068	39.0904	0.150965	8.53455	0.422559	18.9924	0.700423	31.8669	0.884134	39.8138
0.282594	12.3897	0.0206337	0.827716	0.282615	12.3484	0.444653	19.713	0.562267	24.8751	0.840204	37.4721	0.151649	8.30451	0.42284	18.2412	0.700565	30.5772	0.884275	38.2167
0.28285	11.9143	0.0220124	0.851209	0.282872	11.8762	0.444938	18.9433	0.56254	23.9019	0.840346	35.9833	0.152497	8.046	0.423132	17.5485	0.700714	29.3886	0.884421	36.7435
0.283117	11.4752	0.0234198	0.874137	0.28314	11.4399	0.445236	18.2327	0.562823	23.0034	0.840494	34.6089	0.15352	7.76728	0.423435	16.9077	0.700869	28.2897	0.884573	35.3804
0.283395	11.0684	0.0248545	0.896513	0.283418	11.0358	0.445544	17.5748	0.563117	22.1711	0.840648	33.3363	0.154732	7.47616	0.42375	16.3134	0.70103	27.2706	0.884731	34.1154
0.283682	10.6906	0.0263155	0.918348	0.283707	10.6602	0.445864	16.9639	0.563422	21.3982	0.840808	32.1546	0.155981	7.21187	0.424076	15.7607	0.701196	26.323	0.884895	32.9383
0.28398	10.3388	0.0278014	0.939649	0.284005	10.3105	0.446195	16.3953	0.563738	20.6785	0.840973	31.0545	0.157266	6.971	0.424413	15.2453	0.701368	25.4397	0.885064	31.8404
0.284287	10.0105	0.029311	0.960429	0.284273	10.0248	0.446537	15.8648	0.564064	20.0067	0.841144	30.0277	0.158586	6.75072	0.424762	14.7637	0.701547	24.6144	0.885239	30.8139
0.284606	9.70334	0.0308433	0.980698	0.284508	9.794	0.44689	15.3686	0.564401	19.3783	0.841321	29.0672	0.159939	6.54859	0.425121	14.3127	0.701731	23.8415	0.88542	29.852
0.284934	9.41545	0.0323972	1.00047	0.284707	9.61147	0.447254	14.9036	0.564749	18.7892	0.841503	28.1669	0.161324	6.36257	0.425492	13.8895	0.701921	23.1162	0.885606	28.949
0.285272	9.14507	0.0339717	1.01975	0.284867	9.47215	0.44763	14.467	0.565108	18.2358	0.841692	27.3211	0.162739	6.19089	0.425874	13.4917	0.702117	22.4343	0.885799	28.0995
0.28562	8.8907	0.0355659	1.03856	0.284985	9.37241	0.448016	14.0562	0.565477	17.7151	0.841886	26.5252	0.164183	6.03202	0.426267	13.117	0.702319	21.792	0.885997	27.2989
0.285979	8.65097	0.0371789	1.0569	0.285062	9.30973	0.448414	13.6691	0.565857	17.2243	0.842085	25.7749	0.165654	5.88464	0.426672	12.7635	0.702527	21.186	0.8862	26.5432
0.286348	8.42468	0.0388097	1.0748	0.285174	9.22117	0.448822	13.3037	0.566247	16.7608	0.842291	25.0664	0.167152	5.74762	0.427087	12.4295	0.70274	20.6132	0.886409	25.8287
0.286726	8.21076	0.0404576	1.09225	0.285296	9.12692	0.449242	12.9583	0.566648	16.3226	0.842502	24.3962	0.168675	5.61994	0.427513	12.1134	0.70296	20.0712	0.886625	25.1521
0.287115	8.00823	0.0421218	1.10928	0.285464	9.00199	0.449672	12.6313	0.56706	15.9075	0.842719	23.7614	0.170222	5.50073	0.427951	11.8139	0.703185	19.5573	0.886845	24.5106
0.287514	7.81624	0.0438015	1.12589	0.28568	8.8491	0.450114	12.3212	0.567482	15.5139	0.842942	23.1593	0.171792	5.38921	0.428399	11.5298	0.703416	19.0696	0.887072	23.9014
0.287924	7.634	0.0454961	1.1421	0.285947	8.67145	0.450566	12.0268	0.567915	15.1401	0.84317	22.5874	0.173384	5.28469	0.428858	11.2598	0.703654	18.6061	0.887304	23.3221
0.288343	7.46081	0.0472049	1.15791	0.286267	8.47255	0.451029	11.747	0.568358	14.7847	0.843405	22.0435	0.174997	5.18656	0.429328	11.003	0.703897	18.165	0.887541	22.7708
0.288772	7.29603	0.0489271	1.17334	0.286644	8.25604	0.451503	11.4808	0.568812	14.4463	0.843644	21.5256	0.17663	5.09429	0.429809	10.7584	0.704145	17.7448	0.887785	22.2453
0.289211	7.13908	0.0506622	1.1884	0.28703	8.05112	0.451987	11.2271	0.569276	14.1239	0.84389	21.0319	0.178282	5.00738	0.430301	10.5253	0.7044	17.344	0.888034	21.7439
0.289661	6.98942	0.0524097	1.2031	0.287427	7.85692	0.452482	10.9852	0.56975	13.8163	0.844141	20.5607	0.179952	4.9254	0.430804	10.3028	0.704661	16.9613	0.888289	21.265
0.29012	6.84659	0.054169	1.21744	0.287834	7.67264	0.452988	10.7542	0.570235	13.5225	0.844398	20.1106	0.18164	4.84797	0.431251	10.117	0.704927	16.5955	0.888549	20.8072
0.290589	6.71013	0.0559396	1.23145	0.288251	7.49755	0.453504	10.5335	0.57073	13.2417	0.844661	19.6802	0.183344	4.77473	0.431638	9.96431	0.705199	16.2456	0.888815	20.369
0.291069	6.57964	0.0577209	1.24513	0.288678	7.331	0.454031	10.3223	0.571235	12.973	0.844929	19.2681	0.185065	4.70536	0.431963	9.84178	0.705478	15.9105	0.889087	19.9493
0.291558	6.45476	0.0595125	1.25848	0.289115	7.1724	0.454499	10.1457	0.571751	12.7157	0.845203	18.8734	0.1868	4.63959	0.432223	9.7472	0.705762	15.5893	0.889364	19.5468
0.292058	6.33515	0.0613139	1.27152	0.289563	7.02121	0.454903	10.0002	0.572276	12.469	0.845483	18.4949	0.188551	4.57714	0.432415	9.67891	0.706051	15.2813	0.889647	19.1607
0.292567	6.22048	0.0631248	1.28426	0.29002	6.87693	0.455243	9.88334	0.572812	12.2323	0.845768	18.1316	0.190315	4.51779	0.432539	9.63575	0.706347	14.9855	0.889935	18.7899
0.293086	6.11048	0.0649447	1.29671	0.290487	6.73913	0.455514	9.79301	0.573359	12.0052	0.846059	17.7826	0.192093	4.46132	0.432718	9.57445	0.706648	14.7013	0.89023	18.4335
0.293616	6.00487	0.0667733	1.30887	0.290964	6.60739	0.455714	9.72774	0.573915	11.7869	0.846356	17.4472	0.193883	4.40753	0.432914	9.50878	0.706956	14.428	0.890529	18.0907
0.294155	5.90341	0.0686101	1.32075	0.291452	6.48132	0.455844	9.68647	0.574481	11.577	0.846658	17.1245	0.195686	4.35624	0.433183	9.42104	0.707269	14.1651	0.890835	17.7607
0.294704	5.80588	0.0704547	1.33237	0.291949	6.36059	0.45603	9.6278	0.575058	11.375	0.846966	16.8139	0.1975	4.3073	0.433527	9.31259	0.707588	13.9119	0.891146	17.4429
0.295263	5.71204	0.072307	1.34372	0.292456	6.24488	0.456234	9.56492	0.575644	11.1806	0.84728	16.5147	0.199326	4.26055	0.433947	9.18507	0.707912	13.6679	0.891462	17.1366
0.295832	5.62173	0.0741666	1.35482	0.292973	6.1339	0.456514	9.48084	0.57624	10.9932	0.847599	16.2262	0.201163	4.21585	0.434448	9.04032	0.708243	13.4326	0.891784	16.8412
0.296411	5.53473	0.0760331	1.36568	0.2935	6.02736	0.456872	9.3768	0.576847	10.8126	0.847924	15.948	0.20301	4.17307	0.435033	8.88033	0.708579	13.2056	0.892112	16.556
0.297	5.4509	0.0779063	1.37629	0.294038	5.92502	0.457309	9.25432	0.577463	10.6384	0.848255	15.6795	0.204867	4.1321	0.435629	8.72651	0.708921	12.9865	0.892445	16.2807
0.297599	5.37006	0.079786	1.38667	0.294585	5.82666	0.457829	9.11508	0.578089	10.4702	0.848591	15.4201	0.206733	4.09284	0.436234	8.57854	0.709269	12.7749	0.892784	16.0147
0.298207	5.29207	0.0816717	1.39683	0.295141	5.73204	0.458435	8.96094	0.578643	10.3283	0.848933	15.1695	0.208609	4.05517	0.436851	8.43609	0.709623	12.5703	0.893128	15.7575
0.298826	5.21679	0.0835633	1.40676	0.295708	5.64098	0.459052	8.8125	0.579121	10.2107	0.84928	14.9272	0.210493	4.01901	0.437477	8.29888	0.709982	12.3725	0.893478	15.5088
0.299454	5.14409	0.0854606	1.41648	0.296285	5.55328	0.459678	8.66946	0.57952	10.1157	0.849633	14.6928	0.212386	3.98427	0.438114	8.16663	0.710347	12.1811	0.893833	15.268
0.300092	5.07384	0.0873634	1.426	0.296872	5.46878	0.460315	8.53156	0.579838	10.0419	0.849992	14.4659	0.214287	3.95088	0.438762	8.03908	0.710718	11.9958	0.894194	15.0349
0.30074	5.00594	0.0892713	1.43532	0.297468	5.3873	0.460962	8.39851	0.580073	9.98842	0.850356	14.2462	0.216196	3.91876	0.439419	7.91599	0.711095	11.8163	0.89456	14.8091
0.301397	4.94027	0.0911843	1.44444	0.298075	5.30871	0.461618	8.27009	0.580225	9.95453	0.850726	14.0334	0.218112	3.88783	0.440087	7.79715	0.711478	11.6424	0.894932	14.5902
0.302065	4.87674	0.093102	1.45336	0.298691	5.23285	0.462284	8.14605	0.580443	9.90625	0.851101	13.8271	0.220035	3.85805	0.440765	7.68235	0.711866	11.4738	0.895309	14.3779
0.302742	4.81524	0.0950244	1.46211	0.299317	5.1596	0.462961	8.0262	0.580682	9.85436	0.851482	13.627	0.221966	3.82934	0.441453	7.57139	0.71226	11.3103	0.895692	14.172
0.303429	4.7557	0.0969512	1.47067	0.299953	5.08884	0.463646	7.91032	0.581008	9.78475	0.851869	13.4329	0.223903	3.80165	0.442151	7.4641	0.71266	11.1517	0.89608	13.9722
0.304036	4.70533	0.0988823	1.47906	0.300599	5.02044	0.464342	7.79823	0.581425	9.69829	0.852261	13.2445	0.225846	3.77493	0.44286	7.36029	0.713065	10.9977	0.896474	13.7782
0.304559	4.66347	0.100817	1.48728	0.301254	4.95429	0.465047	7.68975	0.581933	9.59598	0.852659	13.0615	0.227796	3.74913	0.443578	7.25981	0.713476	10.8482	0.896873	13.5897
0.304996	4.62959	0.102757	1.49533	0.30192	4.89031	0.465762	7.58472	0.582536	9.47902	0.853062	12.8838	0.229751	3.72421	0.444306	7.16252	0.713893	10.7029	0.897278	13.4066
0.305344	4.60325	0.104699	1.50323	0.302595	4.82838	0.466487	7.48299	0.583237	9.34869	0.85347	12.7111	0.231713	3.70012	0.445045	7.06826	0.714261	10.5796	0.897688	13.2286
0.305601	4.58413	0.106646	1.51096	0.30328	4.76842	0.467221	7.3844	0.583947	9.22235	0.853885	12.5433	0.23368	3.67683	0.445793	6.9769	0.714578	10.4769	0.898103	13.0554
0.305766	4.572	0.108596	1.51855	0.303975	4.71034	0.467964	7.28882	0.584667	9.09981	0.854304	12.38	0.235652	3.65429	0.446551	6.88832	0.714843	10.3936	0.898524	12.887
0.306005	4.55472	0.11055	1.52598	0.304679	4.65406	0.468717	7.19611	0.585396	8.98093	0.85473	12.2212	0.237629	3.63247	0.447319	6.8024	0.715054	10.3287	0.89895	12.7231
0.306265	4.53613	0.112506	1.53327	0.305394	4.59952	0.469479	7.10617	0.586134	8.86554	0.855161	12.0666	0.239612	3.61134	0.448096	6.71903	0.715209	10.2815	0.899382	12.5636
0.306621	4.51117	0.114466	1.54042	0.306118	4.54662	0.47025	7.01886	0.586882	8.7535	0.855597	11.9161	0.241599	3.59087	0.448884	6.6381	0.71531	10.2516	0.899819	12.4082
0.307075	4.48012	0.116176	1.54654	0.306852	4.49532	0.471031	6.93408	0.58764	8.64466	0.856039	11.7695	0.243591	3.57102	0.449681	6.55951	0.715454	10.2089	0.900261	12.2568
0.307629	4.44333	0.117636	1.55167	0.307595	4.44553	0.471821	6.85174	0.588406	8.5389	0.856486	11.6267	0.245587	3.55177	0.450488	6.48317	0.715612	10.1628	0.900709	12.1093
0.308285	4.4012	0.118844	1.55587	0.308349	4.39721	0.47262	6.77172	0.589182	8.4361	0.856939	11.4876	0.247587	3.5331	0.451304	6.40898	0.715827	10.101	0.901162	11.9655
0.309048	4.35417	0.1198	1.55915	0.309112	4.3503	0.473428	6.69393	0.589967	8.33613	0.857397	11.3519	0.249592	3.51497	0.45213	6.33686	0.716102	10.0239	0.901621	11.8253
0.30982	4.30849	0.120504	1.56154	0.309885	4.30473	0.474245	6.6183	0.590761	8.23889	0.857861	11.2197	0.2516	3.49737	0.452965	6.26674	0.716437	9.93237	0.902084	11.6886
0.310602	4.26411	0.120954	1.56306	0.310667	4.26046	0.475071	6.54473	0.591564	8.14427	0.85833	11.0907	0.253613	3.48027	0.45381	6.19853	0.716834	9.82726	0.902554	11.5551
0.311393	4.22099	0.121602	1.56524	0.31146	4.21744	0.475905	6.47314	0.592376	8.05216	0.858804	10.9648	0.255629	3.46365	0.454664	6.13216	0.717294	9.70956	0.903028	11.4249
0.312195	4.17908	0.122306	1.56759	0.312262	4.17562	0.476749	6.40347	0.593197	7.96248	0.859222	10.8576	0.257649	3.4475	0.455528	6.06756	0.717761	9.59487	0.903508	11.2978
0.313006	4.13832	0.123265	1.57076	0.313074	4.13497	0.477601	6.33563	0.594027	7.87514	0.859582	10.768	0.259672	3.43179	0.4564	6.00467	0.718233	9.48307	0.903993	11.1737
0.313827	4.09869	0.124477	1.57473	0.313896	4.09542	0.478463	6.26957	0.594866	7.79004	0.859882	10.695	0.261699	3.4165	0.457283	5.94342	0.718711	9.37406	0.904483	11.0525
0.314658	4.06013	0.125945	1.57948	0.314728	4.05696	0.479332	6.20521	0.595714	7.70711	0.86012	10.6381	0.263729	3.40163	0.458174	5.88376	0.719194	9.26774	0.904915	10.9491
0.315498	4.02262	0.127669	1.58496	0.315569	4.01953	0.480211	6.1425	0.596571	7.62627	0.860296	10.5967	0.265762	3.38715	0.459075	5.82562	0.719683	9.16402	0.905286	10.8627
0.316348	3.98611	0.12965	1.59114	0.31642	3.9831	0.481098	6.08137	0.597437	7.54744	0.860409	10.5703	0.267798	3.37304	0.459984	5.76896	0.720178	9.0628	0.905595	10.7923
0.317209	3.95057	0.131632	1.5972	0.317281	3.94764	0.481993	6.02177	0.598311	7.47056	0.860572	10.5327	0.269837	3.3593	0.460903	5.71372	0.720678	8.964	0.90584	10.7373
0.318079	3.91597	0.133617	1.60316	0.318152	3.91311	0.482897	5.96364	0.599194	7.39555	0.86075	10.4922	0.271879	3.34591	0.461831	5.65985	0.721184	8.86753	0.906022	10.6972
0.318959	3.88227	0.135604	1.60901	0.319033	3.87949	0.48381	5.90695	0.600085	7.32235	0.860993	10.4376	0.273923	3.33286	0.462768	5.60731	0.721695	8.77331	0.906138	10.6718
0.319848	3.84945	0.137592	1.61476	0.319923	3.84674	0.48473	5.85162	0.600985	7.2509	0.861302	10.3694	0.27597	3.32013	0.463714	5.55605	0.722213	8.68127	0.906306	10.6354
0.320748	3.81747	0.139583	1.62041	0.320824	3.81483	0.485659	5.79763	0.601894	7.18114	0.861679	10.2882	0.27802	3.30772	0.464669	5.50602	0.722735	8.59134	0.906489	10.5962
0.321658	3.78631	0.141576	1.62595	0.321734	3.78374	0.486597	5.74492	0.602811	7.11301	0.862124	10.1947	0.280072	3.2956	0.465633	5.45719	0.723264	8.50344	0.90674	10.5433
0.322577	3.75594	0.14357	1.6314	0.322655	3.75343	0.487542	5.69346	0.603737	7.04647	0.86264	10.0896	0.282127	3.28378	0.466605	5.40952	0.723797	8.41751	0.907058	10.4773
0.323507	3.72634	0.145566	1.63676	0.323585	3.7239	0.488496	5.64319	0.604671	6.98145	0.863162	9.98689	0.284184	3.27223	0.467586	5.36297	0.724337	8.33349	0.907445	10.3987
0.324446	3.69748	0.147564	1.64202	0.324525	3.6951	0.489457	5.59409	0.605613	6.91792	0.863689	9.88641	0.286243	3.26096	0.468576	5.3175	0.724882	8.25131	0.907903	10.308
0.325396	3.66934	0.149564	1.64719	0.325476	3.66702	0.490427	5.54611	0.606564	6.85581	0.864222	9.78812	0.288304	3.24995	0.469575	5.27308	0.725432	8.17092	0.908434	10.2061
0.326356	3.6419	0.151565	1.65227	0.326436	3.63964	0.491404	5.49923	0.607523	6.79509	0.864759	9.69194	0.290368	3.23919	0.470583	5.22968	0.725989	8.09227	0.90897	10.1063
0.327326	3.61514	0.153567	1.65727	0.327407	3.61293	0.49239	5.45339	0.60849	6.73572	0.865302	9.5978	0.292433	3.22867	0.471599	5.18726	0.72655	8.01529	0.909511	10.0086
0.328306	3.58903	0.155571	1.66218	0.328388	3.58688	0.493383	5.40858	0.609466	6.67765	0.865851	9.50565	0.2945	3.21839	0.472623	5.1458	0.727118	7.93993	0.910057	9.913
0.329296	3.56356	0.157576	1.66701	0.329379	3.56146	0.494384	5.36476	0.610449	6.62083	0.866405	9.41542	0.296569	3.20833	0.473656	5.10526	0.72769	7.86616	0.910608	9.81935
0.330297	3.53871	0.159583	1.67176	0.330381	3.53666	0.495393	5.32191	0.611441	6.56525	0.866964	9.32706	0.29864	3.1985	0.474698	5.06561	0.728269	7.79391	0.911164	9.72762
0.331308	3.51446	0.161591	1.67644	0.331393	3.51246	0.496409	5.27998	0.61244	6.51085	0.867528	9.24051	0.300713	3.18888	0.475748	5.02684	0.728852	7.72315	0.911726	9.63775
0.332329	3.4908	0.1636	1.68103	0.332415	3.48884	0.497433	5.23895	0.613448	6.4576	0.868098	9.15572	0.302788	3.17946	0.476806	4.98891	0.729442	7.65384	0.912292	9.54969
0.333361	3.4677	0.16561	1.68555	0.333448	3.46579	0.498465	5.1988	0.614463	6.40546	0.868673	9.07263	0.304864	3.17025	0.477873	4.9518	0.730036	7.58592	0.912864	9.46338
0.334404	3.44516	0.167622	1.69	0.334491	3.44329	0.499504	5.15951	0.615487	6.35441	0.869253	8.9912	0.306941	3.16122	0.478948	4.91548	0.730637	7.51936	0.913441	9.37877
0.335457	3.42315	0.169634	1.69437	0.335545	3.42133	0.500551	5.12103	0.616518	6.30442	0.869838	8.91137	0.30902	3.15239	0.480031	4.87994	0.731242	7.45411	0.914023	9.29582
0.336521	3.40167	0.171648	1.69868	0.33661	3.39989	0.501605	5.08336	0.617557	6.25544	0.870429	8.83311	0.311101	3.14373	0.481122	4.84514	0.731853	7.39016	0.91461	9.21448
0.337596	3.38069	0.173663	1.70292	0.337686	3.37896	0.502666	5.04647	0.618604	6.20746	0.871025	8.75637	0.313183	3.13525	0.482222	4.81107	0.73247	7.32745	0.915202	9.1347
0.338682	3.36021	0.175678	1.70709	0.338773	3.35852	0.503735	5.01033	0.619658	6.16045	0.871626	8.68111	0.315266	3.12694	0.48333	4.77771	0.733092	7.26595	0.915799	9.05644
0.339778	3.34022	0.177695	1.71119	0.339871	3.33857	0.504811	4.97493	0.62072	6.11437	0.872233	8.60728	0.317351	3.1188	0.484445	4.74504	0.73372	7.20563	0.916401	8.97966
0.340887	3.3207	0.179713	1.71523	0.34098	3.31909	0.505894	4.94025	0.62179	6.06921	0.872844	8.53484	0.319437	3.11081	0.485569	4.71304	0.734353	7.14646	0.917008	8.90431
0.342006	3.30164	0.181731	1.71921	0.3421	3.30006	0.506984	4.90625	0.622867	6.02493	0.873461	8.46377	0.321524	3.10299	0.486701	4.68169	0.734991	7.0884	0.91762	8.83037
0.343137	3.28303	0.18375	1.72312	0.343232	3.28149	0.508081	4.87294	0.623952	5.98152	0.874083	8.39401	0.323612	3.09531	0.487841	4.65097	0.735635	7.03143	0.918237	8.75779
0.344279	3.26485	0.18577	1.72698	0.344375	3.26335	0.509186	4.84028	0.625044	5.93894	0.874711	8.32555	0.325701	3.08777	0.488988	4.62086	0.736284	6.97551	0.918859	8.68653
0.345433	3.24711	0.187791	1.73077	0.345531	3.24564	0.510297	4.80826	0.626143	5.89719	0.875343	8.25833	0.327792	3.08038	0.490144	4.59136	0.736939	6.92063	0.919486	8.61656
0.3466	3.22978	0.189813	1.73451	0.346698	3.22835	0.511416	4.77686	0.62725	5.85622	0.875981	8.19234	0.329883	3.07313	0.491307	4.56244	0.737599	6.86675	0.920118	8.54786
0.347778	3.21287	0.191835	1.73819	0.347877	3.21147	0.512541	4.74607	0.628365	5.81603	0.876624	8.12753	0.331976	3.06601	0.492478	4.53408	0.738264	6.81384	0.920755	8.48037
0.348968	3.19635	0.193858	1.74182	0.349068	3.19499	0.513673	4.71587	0.629486	5.7766	0.877272	8.06388	0.334069	3.05902	0.493657	4.50628	0.738935	6.76188	0.921397	8.41408
0.350171	3.18023	0.195882	1.74539	0.350272	3.1789	0.514812	4.68624	0.630615	5.7379	0.877925	8.00136	0.336163	3.05216	0.494843	4.47902	0.739611	6.71086	0.922044	8.34895
0.351387	3.16449	0.197906	1.74891	0.351489	3.1632	0.515957	4.65717	0.631751	5.69992	0.878583	7.93994	0.338258	3.04542	0.496037	4.45228	0.740293	6.66073	0.922695	8.28496
0.352615	3.14913	0.199931	1.75237	0.352718	3.14787	0.51711	4.62864	0.632894	5.66263	0.879246	7.87959	0.340354	3.0388	0.497239	4.42605	0.74098	6.61149	0.923352	8.22207
0.353856	3.13414	0.201957	1.75579	0.353961	3.1329	0.518269	4.60065	0.634044	5.62602	0.879915	7.82028	0.342451	3.03229	0.498448	4.40032	0.741672	6.5631	0.924013	8.16026
0.355111	3.11951	0.203983	1.75915	0.355217	3.1183	0.519434	4.57317	0.635201	5.59007	0.880588	7.762	0.344548	3.0259	0.499665	4.37508	0.742369	6.51556	0.924679	8.0995
0.356379	3.10524	0.206009	1.76247	0.356486	3.10406	0.520606	4.5462	0.636365	5.55477	0.881267	7.7047	0.346646	3.01962	0.500889	4.35031	0.743072	6.46883	0.925351	8.03977
0.357661	3.09131	0.208036	1.76574	0.357769	3.09016	0.521785	4.51972	0.637537	5.5201	0.881951	7.64838	0.348745	3.01345	0.502121	4.326	0.74378	6.4229	0.926027	7.98103
0.358957	3.07773	0.210064	1.76896	0.359066	3.07661	0.52297	4.49372	0.638715	5.48605	0.88264	7.59301	0.350844	3.00738	0.50336	4.30214	0.744494	6.37775	0.926707	7.92328
0.360268	3.06449	0.212092	1.77213	0.360378	3.06339	0.524161	4.46818	0.6399	5.45259	0.883334	7.53855	0.352944	3.00141	0.504607	4.27872	0.745212	6.33335	0.927393	7.86648
0.361593	3.05157	0.21412	1.77526	0.361704	3.05051	0.525359	4.44311	0.641091	5.41972	0.884033	7.485	0.355045	2.99554	0.50586	4.25573	0.745936	6.2897	0.928083	7.8106
0.362933	3.03899	0.216149	1.77835	0.363046	3.03795	0.526563	4.41847	0.64229	5.38741	0.884737	7.43233	0.357146	2.98976	0.507121	4.23316	0.746666	6.24678	0.928779	7.75564
0.364288	3.02672	0.218179	1.78139	0.364402	3.02571	0.527773	4.39427	0.643495	5.35567	0.885446	7.38052	0.359247	2.98408	0.50839	4.211	0.7474	6.20456	0.929478	7.70157
0.365659	3.01477	0.220208	1.78438	0.365774	3.01379	0.52899	4.3705	0.644706	5.32447	0.88616	7.32955	0.361349	2.97849	0.509665	4.18924	0.74814	6.16303	0.930183	7.64836
0.367045	3.00314	0.222239	1.78734	0.367162	3.00218	0.530212	4.34714	0.645925	5.2938	0.886879	7.2794	0.363452	2.97299	0.510948	4.16786	0.748885	6.12218	0.930893	7.59601
0.368448	2.99181	0.224269	1.79026	0.368566	2.99087	0.531441	4.32418	0.64715	5.26364	0.887603	7.23006	0.365555	2.96757	0.512238	4.14687	0.749635	6.08199	0.931607	7.54448
0.369867	2.98078	0.2263	1.79313	0.369987	2.97987	0.532676	4.30162	0.648381	5.234	0.888332	7.18149	0.367658	2.96224	0.513534	4.12624	0.750391	6.04245	0.932326	7.49376
0.371303	2.97005	0.228331	1.79597	0.371424	2.96917	0.533917	4.27944	0.649619	5.20484	0.889066	7.1337	0.369761	2.95699	0.514838	4.10598	0.751152	6.00353	0.933049	7.44383
0.372757	2.95962	0.230362	1.79876	0.372879	2.95876	0.535164	4.25764	0.650864	5.17617	0.889805	7.08665	0.371865	2.95182	0.516149	4.08607	0.751917	5.96523	0.933778	7.39467
0.374227	2.94948	0.232394	1.80152	0.374351	2.94864	0.536416	4.23621	0.652115	5.14798	0.890549	7.04033	0.373969	2.94673	0.517467	4.06651	0.752689	5.92754	0.934511	7.34628
0.375716	2.93963	0.234426	1.80424	0.375842	2.93882	0.537675	4.21513	0.653372	5.12024	0.891298	6.99473	0.376074	2.94172	0.518792	4.04729	0.753465	5.89043	0.935248	7.29862
0.377223	2.93006	0.236458	1.80692	0.37735	2.92927	0.538939	4.19441	0.654635	5.09296	0.892051	6.94983	0.378178	2.93677	0.520124	4.0284	0.754246	5.8539	0.935991	7.25169
0.378749	2.92077	0.238491	1.80957	0.378877	2.92001	0.54021	4.17403	0.655905	5.06612	0.89281	6.90562	0.380283	2.93191	0.521462	4.00983	0.755033	5.81794	0.936738	7.20546
0.380293	2.91176	0.240523	1.81218	0.380423	2.91102	0.541486	4.15398	0.657181	5.0397	0.893574	6.86207	0.382388	2.92711	0.522808	3.99158	0.755825	5.78252	0.937489	7.15993
0.381857	2.90302	0.242556	1.81476	0.381988	2.9023	0.542767	4.13427	0.658463	5.01371	0.894342	6.81919	0.384493	2.92238	0.52416	3.97364	0.756622	5.74765	0.938245	7.11508
0.38344	2.89456	0.244589	1.8173	0.383573	2.89386	0.544055	4.11487	0.659751	4.98814	0.895116	6.77694	0.386598	2.91772	0.525519	3.956	0.757424	5.71331	0.939006	7.07089
0.385043	2.88635	0.246622	1.81981	0.385178	2.88568	0.545348	4.09579	0.661046	4.96296	0.895894	6.73532	0.388703	2.91312	0.526885	3.93866	0.758231	5.67948	0.939772	7.02735
0.386665	2.87842	0.248656	1.82229	0.386802	2.87776	0.546646	4.07701	0.662346	4.93818	0.896677	6.69432	0.390809	2.90859	0.528257	3.9216	0.759043	5.64616	0.940542	6.98445
0.388308	2.87074	0.250689	1.82473	0.388447	2.87011	0.54795	4.05854	0.663652	4.91379	0.897466	6.65392	0.392914	2.90412	0.529636	3.90483	0.75986	5.61334	0.941316	6.94217
0.389972	2.86331	0.252723	1.82715	0.390112	2.8627	0.54926	4.04035	0.664965	4.88977	0.898258	6.61411	0.395019	2.89972	0.531021	3.88834	0.760683	5.581	0.942095	6.9005
0.391656	2.85614	0.254757	1.82953	0.391798	2.85555	0.550575	4.02246	0.666283	4.86613	0.899056	6.57488	0.397124	2.89537	0.532414	3.87211	0.761511	5.54914	0.942879	6.85943
0.393361	2.84921	0.256791	1.83188	0.393504	2.84864	0.551896	4.00485	0.667607	4.84285	0.899859	6.53622	0.39923	2.89108	0.533812	3.85616	0.762343	5.51775	0.943667	6.81894
0.395086	2.84253	0.258825	1.8342	0.395232	2.84198	0.553221	3.98751	0.668937	4.81992	0.900666	6.4981	0.401335	2.88684	0.535217	3.84046	0.763181	5.48681	0.94446	6.77903
0.396833	2.83608	0.260859	1.83649	0.39698	2.83555	0.554553	3.97044	0.670273	4.79734	0.901478	6.46054	0.40344	2.88267	0.536629	3.82502	0.764024	5.45632	0.945257	6.73968
0.3986	2.82987	0.262894	1.83875	0.398749	2.82936	0.555889	3.95363	0.671614	4.77509	0.902295	6.4235	0.405545	2.87854	0.538047	3.80982	0.764871	5.42627	0.946058	6.70088
0.400388	2.82389	0.264928	1.84098	0.400539	2.8234	0.557231	3.93709	0.672961	4.75319	0.903117	6.38699	0.40765	2.87447	0.539472	3.79488	0.765724	5.39665	0.946864	6.66262
0.402197	2.81813	0.266962	1.84318	0.402349	2.81765	0.558578	3.92079	0.674314	4.7316	0.903944	6.35099	0.409754	2.87046	0.540903	3.78017	0.766582	5.36745	0.947675	6.62489
0.404027	2.81258	0.268997	1.84536	0.404181	2.81213	0.55993	3.90475	0.675672	4.71034	0.904775	6.31549	0.411859	2.86649	0.54234	3.76569	0.767445	5.33866	0.94849	6.58768
0.405877	2.80725	0.271031	1.84751	0.406032	2.80682	0.561287	3.88895	0.677036	4.68939	0.905611	6.28048	0.413963	2.86257	0.543783	3.75145	0.768313	5.31028	0.949309	6.55098
0.407747	2.80213	0.273066	1.84963	0.407904	2.80171	0.562649	3.87338	0.678406	4.66875	0.906452	6.24595	0.416067	2.8587	0.545233	3.73742	0.769185	5.2823	0.950133	6.51478
0.409637	2.79721	0.275101	1.85173	0.409796	2.79681	0.564016	3.85805	0.679781	4.64841	0.907298	6.2119	0.41817	2.85488	0.546689	3.72362	0.770063	5.25471	0.950961	6.47907
0.411547	2.79249	0.277135	1.8538	0.411707	2.7921	0.565389	3.84294	0.681161	4.62836	0.908148	6.17831	0.420274	2.85111	0.548151	3.71004	0.770946	5.2275	0.951794	6.44384
0.413476	2.78795	0.27917	1.85584	0.413638	2.78758	0.566766	3.82806	0.682547	4.6086	0.909003	6.14517	0.422377	2.84738	0.54962	3.69667	0.771834	5.20066	0.952631	6.40908
0.415424	2.7836	0.281205	1.85786	0.415588	2.78324	0.568148	3.8134	0.683938	4.58912	0.909863	6.11249	0.42448	2.84369	0.551094	3.6835	0.772726	5.17419	0.953472	6.37478
0.417391	2.77943	0.283239	1.85985	0.417556	2.77908	0.569536	3.79896	0.685335	4.56992	0.910727	6.08024	0.426582	2.84005	0.552575	3.67054	0.773624	5.14809	0.954318	6.34093
0.419375	2.77542	0.285274	1.86182	0.419542	2.7751	0.570928	3.78472	0.686737	4.551	0.911596	6.04842	0.428684	2.83645	0.554062	3.65778	0.774526	5.12233	0.955168	6.30753
0.421378	2.77159	0.287308	1.86377	0.421546	2.77127	0.572325	3.77069	0.688144	4.53234	0.91247	6.01702	0.430786	2.83289	0.555555	3.64521	0.775434	5.09693	0.956022	6.27457
0.423398	2.76791	0.289343	1.86569	0.423567	2.76761	0.573726	3.75687	0.689556	4.51394	0.913348	5.98603	0.432887	2.82937	0.557053	3.63284	0.776346	5.07187	0.95688	6.24204
0.425434	2.76438	0.291378	1.86759	0.425605	2.7641	0.575133	3.74324	0.690973	4.4958	0.914231	5.95545	0.434988	2.8259	0.558558	3.62065	0.777263	5.04714	0.957743	6.20992
0.427487	2.76101	0.293412	1.86947	0.427659	2.76073	0.576544	3.7298	0.692396	4.47791	0.915119	5.92527	0.437088	2.82246	0.560069	3.60865	0.778185	5.02274	0.958611	6.17822
0.429555	2.75777	0.295447	1.87132	0.429729	2.75751	0.57796	3.71656	0.693823	4.46027	0.916011	5.89548	0.439188	2.81906	0.561586	3.59683	0.779112	4.99866	0.959482	6.14693
0.431639	2.75467	0.297481	1.87315	0.431814	2.75442	0.57938	3.70351	0.695256	4.44287	0.916908	5.86608	0.441287	2.81569	0.563108	3.58519	0.780044	4.9749	0.960358	6.11603
0.433737	2.7517	0.299515	1.87496	0.433913	2.75146	0.580805	3.69064	0.696694	4.4257	0.917809	5.83706	0.443386	2.81237	0.564637	3.57372	0.780981	4.95145	0.961238	6.08553
0.435849	2.74885	0.30155	1.87675	0.436026	2.74862	0.582235	3.67795	0.698136	4.40878	0.918715	5.8084	0.445484	2.80908	0.566171	3.56243	0.781922	4.92831	0.962122	6.05541
0.437975	2.74612	0.303584	1.87852	0.438153	2.7459	0.583669	3.66543	0.699584	4.39208	0.919626	5.78011	0.447582	2.80582	0.567711	3.5513	0.782869	4.90547	0.96301	6.02566
0.440114	2.74351	0.305618	1.88027	0.440293	2.74329	0.585108	3.6531	0.701037	4.3756	0.920541	5.75218	0.449679	2.8026	0.569257	3.54034	0.78382	4.88292	0.963903	5.99629
0.442265	2.741	0.307652	1.88199	0.442446	2.74079	0.586551	3.64093	0.702494	4.35935	0.92146	5.7246	0.451776	2.79941	0.570809	3.52953	0.784776	4.86067	0.964799	5.96728
0.444429	2.73859	0.309686	1.8837	0.44461	2.7384	0.587998	3.62893	0.703956	4.34331	0.922385	5.69736	0.453872	2.79625	0.572366	3.51889	0.785736	4.83869	0.9657	5.93863
0.446604	2.73629	0.31172	1.88539	0.446786	2.7361	0.589451	3.61709	0.705423	4.32748	0.923313	5.67046	0.455967	2.79313	0.573929	3.5084	0.786702	4.817	0.966605	5.91034
0.44879	2.73407	0.313754	1.88705	0.448973	2.73389	0.590907	3.60541	0.706895	4.31187	0.924247	5.6439	0.458062	2.79004	0.575498	3.49807	0.787672	4.79558	0.967514	5.88238
0.450987	2.73195	0.315788	1.8887	0.451171	2.73178	0.592368	3.5939	0.708371	4.29645	0.925185	5.61767	0.460156	2.78698	0.577072	3.48789	0.788647	4.77444	0.968428	5.85477
0.453194	2.72991	0.317821	1.89033	0.453379	2.72975	0.593833	3.58253	0.709852	4.28124	0.926127	5.59176	0.46225	2.78395	0.578652	3.47785	0.789627	4.75356	0.969345	5.82749
0.45541	2.72796	0.319855	1.89194	0.455596	2.72779	0.595302	3.57132	0.711338	4.26623	0.927074	5.56616	0.464342	2.78095	0.580238	3.46796	0.790612	4.73294	0.970267	5.80054
0.457636	2.72607	0.321888	1.89353	0.457823	2.72592	0.596776	3.56026	0.712828	4.25141	0.928025	5.54088	0.466434	2.77797	0.581829	3.45822	0.791601	4.71258	0.971192	5.77392
0.459871	2.72427	0.323921	1.89511	0.460058	2.72412	0.598254	3.54935	0.714323	4.23679	0.928981	5.5159	0.468525	2.77503	0.583426	3.44861	0.792595	4.69247	0.972122	5.74761
0.462114	2.72253	0.325954	1.89666	0.462302	2.72239	0.599736	3.53859	0.715822	4.22235	0.929941	5.49122	0.470616	2.77211	0.585028	3.43914	0.793594	4.6726	0.973056	5.72161
0.464366	2.72086	0.327987	1.8982	0.464554	2.72072	0.601222	3.52796	0.717326	4.20809	0.930905	5.46684	0.472706	2.76923	0.586635	3.4298	0.794597	4.65299	0.973993	5.69592
0.466625	2.71925	0.33002	1.89972	0.466814	2.71912	0.602712	3.51748	0.718835	4.19402	0.931874	5.44275	0.474795	2.76636	0.588249	3.4206	0.795605	4.63361	0.974935	5.67053
0.468891	2.7177	0.332053	1.90123	0.469081	2.71758	0.604207	3.50713	0.720347	4.18012	0.932848	5.41895	0.476883	2.76353	0.589867	3.41153	0.796618	4.61447	0.975881	5.64544
0.471165	2.71621	0.334085	1.90271	0.471355	2.71609	0.605705	3.49691	0.721865	4.1664	0.933825	5.39543	0.47897	2.76072	0.591491	3.40259	0.797635	4.59556	0.976831	5.62064
0.473445	2.71478	0.336118	1.90419	0.473636	2.71466	0.607208	3.48683	0.723386	4.15285	0.934808	5.37218	0.481057	2.75794	0.59312	3.39377	0.798657	4.57688	0.977785	5.59613
0.475732	2.71339	0.33815	1.90564	0.475923	2.71328	0.608714	3.47688	0.724912	4.13947	0.935794	5.34921	0.483142	2.75518	0.594755	3.38508	0.799684	4.55843	0.978743	5.5719
0.478025	2.71206	0.340182	1.90708	0.478217	2.71195	0.610225	3.46706	0.726442	4.12625	0.936785	5.32651	0.485227	2.75244	0.596395	3.37651	0.800715	4.54019	0.979704	5.54795
0.480323	2.71077	0.342214	1.9085	0.480516	2.71066	0.611739	3.45736	0.727976	4.1132	0.937781	5.30407	0.487311	2.74973	0.59804	3.36806	0.801751	4.52217	0.98067	5.52427
0.482627	2.70953	0.344246	1.90991	0.48282	2.70943	0.613258	3.44779	0.729515	4.10031	0.93878	5.28189	0.489394	2.74704	0.59969	3.35972	0.802791	4.50437	0.98164	5.50086
0.484937	2.70833	0.346277	1.9113	0.48513	2.70823	0.61478	3.43834	0.731057	4.08757	0.939784	5.25997	0.491476	2.74438	0.601346	3.3515	0.803837	4.48678	0.982614	5.47772
0.487252	2.70717	0.348309	1.91268	0.487445	2.70707	0.616306	3.42901	0.732604	4.07499	0.940793	5.23829	0.493558	2.74174	0.603007	3.3434	0.804886	4.4694	0.983591	5.45484
0.489571	2.70605	0.35034	1.91404	0.489765	2.70595	0.617836	3.41979	0.734155	4.06257	0.941805	5.21687	0.495638	2.73912	0.604673	3.33541	0.80594	4.45222	0.984573	5.43221
0.491895	2.70496	0.352371	1.91538	0.49209	2.70487	0.61937	3.41069	0.73571	4.05029	0.942822	5.19569	0.497717	2.73652	0.606344	3.32752	0.806999	4.43524	0.985558	5.40984
0.494224	2.70391	0.354402	1.91672	0.494419	2.70383	0.620908	3.40171	0.737269	4.03816	0.943843	5.17475	0.499796	2.73394	0.60802	3.31975	0.808063	4.41846	0.986547	5.38772
0.496556	2.7029	0.356432	1.91803	0.496752	2.70281	0.622449	3.39283	0.738833	4.02617	0.944869	5.15404	0.501873	2.73138	0.609702	3.31208	0.809131	4.40187	0.98754	5.36584
0.498893	2.70191	0.358463	1.91934	0.499089	2.70183	0.623995	3.38407	0.7404	4.01433	0.945899	5.13357	0.50395	2.72885	0.611388	3.30452	0.810203	4.38548	0.988537	5.3442
0.501234	2.70096	0.360493	1.92063	0.501429	2.70088	0.625543	3.37542	0.741971	4.00263	0.946933	5.11333	0.506025	2.72633	0.61308	3.29706	0.81128	4.36927	0.989538	5.3228
0.503578	2.70004	0.362523	1.9219	0.503774	2.69996	0.627096	3.36687	0.743546	3.99107	0.947971	5.09331	0.5081	2.72384	0.614776	3.2897	0.812361	4.35325	0.990542	5.30163
0.505925	2.69914	0.364553	1.92316	0.506122	2.69907	0.628652	3.35842	0.745124	3.97964	0.949014	5.07351	0.510173	2.72136	0.616478	3.28244	0.813447	4.33742	0.991551	5.2807
0.508276	2.69827	0.366583	1.92441	0.508473	2.6982	0.630212	3.35008	0.746707	3.96835	0.95006	5.05394	0.512246	2.7189	0.618184	3.27528	0.814538	4.32176	0.992563	5.25999
0.510631	2.69743	0.368612	1.92565	0.510828	2.69736	0.631776	3.34184	0.748294	3.95718	0.951111	5.03457	0.514317	2.71646	0.619896	3.26821	0.815633	4.30628	0.993579	5.2395
0.512988	2.69661	0.370642	1.92687	0.513185	2.69654	0.633343	3.3337	0.749884	3.94615	0.952167	5.01542	0.516388	2.71404	0.621612	3.26124	0.816732	4.29098	0.994599	5.21924
0.515348	2.69581	0.372671	1.92808	0.515546	2.69575	0.634914	3.32566	0.751478	3.93525	0.953226	4.99648	0.518457	2.71164	0.623334	3.25436	0.817836	4.27585	0.995622	5.19919
0.517711	2.69504	0.374699	1.92928	0.517909	2.69498	0.636488	3.31772	0.753076	3.92446	0.95429	4.97775	0.520526	2.70926	0.62506	3.24758	0.818944	4.26089	0.996649	5.17935
0.520077	2.69429	0.376728	1.93046	0.520275	2.69423	0.638066	3.30986	0.754677	3.91381	0.955357	4.95922	0.522593	2.70689	0.626791	3.24088	0.820057	4.24609	0.99768	5.15973
0.522445	2.69356	0.378757	1.93163	0.522643	2.69349	0.639647	3.30211	0.756282	3.90327	0.956429	4.94088	0.524659	2.70454	0.628526	3.23428	0.821174	4.23147	0.998715	5.14031
0.524816	2.69284	0.380785	1.93279	0.525014	2.69278	0.641232	3.29444	0.757891	3.89286	0.957505	4.92275	0.526724	2.70221	0.630267	3.22776	0.822295	4.217	0.999754	5.1211
0.527189	2.69215	0.382813	1.93394	0.527387	2.69209	0.64282	3.28687	0.759504	3.88256	0.958585	4.90481	0.528788	2.69989	0.632012	3.22133	0.823421	4.20269	1.0008	5.10209
0.529564	2.69147	0.384841	1.93508	0.529763	2.69142	0.644412	3.27939	0.76112	3.87238	0.95967	4.88706	0.530851	2.69759	0.633762	3.21498	0.824552	4.18854		
0.531941	2.69081	0.386868	1.9362	0.53214	2.69076	0.646007	3.27199	0.762739	3.86231	0.960758	4.8695	0.532913	2.69531	0.635517	3.20872	0.825686	4.17455		
0.53432	2.69017	0.388895	1.93732	0.534519	2.69012	0.647605	3.26468	0.764362	3.85235	0.961851	4.85212	0.534973	2.69304	0.637277	3.20253	0.826825	4.16071		
0.536702	2.68954	0.390922	1.93842	0.536901	2.68949	0.649207	3.25745	0.765989	3.84251	0.962947	4.83493	0.537033	2.69079	0.639041	3.19643	0.827969	4.14702		
0.539085	2.68893	0.392949	1.93951	0.539284	2.68888	0.650812	3.25031	0.767619	3.83277	0.964048	4.81792	0.539091	2.68855	0.640809	3.19041	0.829116	4.13348		
0.541469	2.68833	0.394976	1.94059	0.541669	2.68828	0.652421	3.24326	0.769252	3.82314	0.965153	4.80109	0.541148	2.68633	0.642583	3.18447	0.830268	4.12009		
0.543856	2.68775	0.397002	1.94165	0.544056	2.6877	0.654032	3.23628	0.770889	3.81361	0.966262	4.78443	0.543204	2.68412	0.644361	3.1786	0.831425	4.10684		
0.546244	2.68718	0.399028	1.94271	0.546444	2.68713	0.655647	3.22938	0.772529	3.80419	0.967375	4.76794	0.545259	2.68192	0.646143	3.17281	0.832585	4.09373		
0.548634	2.68662	0.401054	1.94376	0.548833	2.68657	0.657266	3.22257	0.774173	3.79488	0.968491	4.75163	0.547313	2.67975	0.64793	3.1671	0.83375	4.08076		
0.551025	2.68607	0.40308	1.94479	0.551225	2.68603	0.658888	3.21583	0.775819	3.78566	0.969612	4.73548	0.549365	2.67758	0.649721	3.16146	0.83492	4.06794		
0.553417	2.68554	0.405105	1.94582	0.553617	2.68549	0.660512	3.20916	0.77747	3.77654	0.970737	4.7195	0.551417	2.67543	0.651517	3.15589	0.836093	4.05524		
0.555811	2.68501	0.407131	1.94683	0.556011	2.68497	0.66214	3.20258	0.779123	3.76752	0.971866	4.70368	0.553467	2.67329	0.653318	3.15039	0.837271	4.04269		
0.558206	2.6845	0.409156	1.94784	0.558406	2.68446	0.663772	3.19606	0.78078	3.7586	0.972999	4.68803	0.555516	2.67117	0.655122	3.14497	0.838453	4.03027		
0.560602	2.684	0.41118	1.94883	0.560803	2.68396	0.665406	3.18963	0.782439	3.74977	0.974136	4.67253	0.557564	2.66906	0.656931	3.13961	0.839639	4.01797		
0.562999	2.68351	0.413205	1.94982	0.5632	2.68347	0.667044	3.18326	0.784102	3.74104	0.975277	4.65719	0.559611	2.66696	0.658745	3.13432	0.84083	4.00581		
0.565398	2.68302	0.415229	1.95079	0.565599	2.68298	0.668685	3.17696	0.785769	3.7324	0.976422	4.642	0.561656	2.66488	0.660563	3.1291	0.842025	3.99378		
0.567797	2.68255	0.417253	1.95176	0.567998	2.68251	0.670329	3.17074	0.787438	3.72385	0.977571	4.62697	0.5637	2.6628	0.662385	3.12394	0.843224	3.98187		
0.570198	2.68208	0.419277	1.95271	0.570399	2.68205	0.671976	3.16458	0.78911	3.71539	0.978724	4.61209	0.565743	2.66075	0.664211	3.11885	0.844427	3.97008		
0.572599	2.68163	0.4213	1.95366	0.5728	2.68159	0.673626	3.1585	0.790786	3.70701	0.979881	4.59736	0.567785	2.6587	0.666042	3.11382	0.845634	3.95842		
0.575002	2.68118	0.423323	1.9546	0.575203	2.68114	0.675279	3.15248	0.792464	3.69873	0.981042	4.58277	0.569826	2.65666	0.667877	3.10886	0.846846	3.94688		
0.577405	2.68074	0.425346	1.95553	0.577606	2.6807	0.676935	3.14652	0.794146	3.69053	0.982206	4.56833	0.571865	2.65464	0.669716	3.10396	0.848061	3.93545		
0.579809	2.68031	0.427369	1.95645	0.58001	2.68027	0.678594	3.14063	0.79583	3.68241	0.983375	4.55403	0.573903	2.65263	0.671559	3.09912	0.849281	3.92415		
0.582213	2.67988	0.429391	1.95735	0.582415	2.67984	0.680257	3.13481	0.797518	3.67438	0.984547	4.53987	0.57594	2.65063	0.673406	3.09434	0.850505	3.91296		
0.584619	2.67946	0.431413	1.95826	0.58482	2.67943	0.681922	3.12905	0.799208	3.66643	0.985723	4.52585	0.577976	2.64864	0.675257	3.08962	0.851734	3.90188		
0.587025	2.67905	0.433435	1.95915	0.587226	2.67901	0.683591	3.12335	0.800902	3.65856	0.986904	4.51197	0.580011	2.64667	0.677113	3.08496	0.852966	3.89092		
0.589431	2.67864	0.435457	1.96003	0.589633	2.67861	0.685262	3.11772	0.802598	3.65077	0.988088	4.49822	0.582044	2.6447	0.678973	3.08035	0.854202	3.88007		
0.591839	2.67824	0.437478	1.96091	0.59204	2.67821	0.686936	3.11214	0.804297	3.64306	0.989275	4.48461	0.584076	2.64275	0.680836	3.07581	0.855443	3.86933		
0.594246	2.67785	0.439499	1.96177	0.594448	2.67781	0.688614	3.10663	0.805999	3.63543	0.990467	4.47112	0.586107	2.6408	0.682704	3.07132	0.856687	3.8587		
0.596655	2.67746	0.44152	1.96263	0.596856	2.67743	0.690294	3.10117	0.807704	3.62787	0.991663	4.45777	0.588137	2.63887	0.684575	3.06688	0.857936	3.84817		
0.599063	2.67707	0.443541	1.96348	0.599265	2.67704	0.691977	3.09578	0.809411	3.62039	0.992862	4.44455	0.590166	2.63695	0.68645	3.0625	0.859189	3.83776		
0.601473	2.6767	0.445561	1.96432	0.601674	2.67666	0.693663	3.09044	0.811121	3.61298	0.994065	4.43145	0.592193	2.63504	0.68833	3.05817	0.860446	3.82744		
0.603882	2.67632	0.447581	1.96516	0.604084	2.67629	0.695352	3.08516	0.812834	3.60565	0.995272	4.41848	0.594219	2.63314	0.690213	3.0539	0.861707	3.81723		
0.606292	2.67595	0.449601	1.96598	0.606494	2.67592	0.697044	3.07993	0.81455	3.59839	0.996483	4.40563	0.596244	2.63125	0.6921	3.04968	0.862972	3.80712		
0.608702	2.67559	0.451621	1.9668	0.608904	2.67556	0.698739	3.07476	0.816269	3.5912	0.997698	4.39291	0.598268	2.62937	0.693991	3.0455	0.864241	3.79711		
0.611113	2.67523	0.45364	1.96761	0.611315	2.6752	0.700437	3.06965	0.81799	3.58408	0.998916	4.3803	0.60029	2.6275	0.695885	3.04138	0.865514	3.7872		
0.613524	2.67487	0.455659	1.96841	0.613725	2.67484	0.702138	3.06459	0.819714	3.57703	1.00014	4.36782	0.602312	2.62564	0.697784	3.03731	0.866791	3.77739		
0.615935	2.67452	0.457677	1.96921	0.616137	2.67449	0.703841	3.05958	0.82144	3.57005			0.604332	2.62379	0.699686	3.03329	0.868072	3.76768		
0.618346	2.67417	0.459696	1.97	0.618548	2.67414	0.705547	3.05463	0.823169	3.56314			0.606351	2.62195	0.701592	3.02932	0.869357	3.75806		
0.620757	2.67383	0.461714	1.97078	0.620959	2.6738	0.707257	3.04973	0.824901	3.55629			0.608368	2.62011	0.703501	3.02539	0.870646	3.74853		
0.623169	2.67349	0.463732	1.97155	0.623371	2.67346	0.708969	3.04488	0.826635	3.54951			0.610385	2.61829	0.705414	3.02151	0.871939	3.7391		
0.625581	2.67315	0.46575	1.97231	0.625782	2.67312	0.710684	3.04008	0.828372	3.54279			0.6124	2.61648	0.707331	3.01768	0.873236	3.72976		
0.627992	2.67281	0.467767	1.97307	0.628194	2.67278	0.712401	3.03533	0.830111	3.53614			0.614414	2.61468	0.709251	3.01389	0.874537	3.72051		
0.630404	2.67248	0.469784	1.97382	0.630606	2.67245	0.714122	3.03063	0.831853	3.52955			0.616428	2.61289	0.711175	3.01015	0.875842	3.71135		
0.632816	2.67215	0.471801	1.97457	0.633018	2.67212	0.715845	3.02598	0.833597	3.52302			0.618439	2.6111	0.713102	3.00645	0.877151	3.70228		
0.635228	2.67182	0.473817	1.9753	0.63543	2.67179	0.717571	3.02138	0.835343	3.51656			0.62045	2.60933	0.715033	3.00279	0.878464	3.6933		
0.63764	2.6715	0.475834	1.97603	0.637841	2.67147	0.7193	3.01682	0.837092	3.51015			0.62246	2.60756	0.716967	2.99918	0.879781	3.6844		
0.640051	2.67117	0.477849	1.97676	0.640253	2.67115	0.721032	3.01231	0.838844	3.50381			0.624468	2.60581	0.718905	2.99561	0.881101	3.67559		
0.642463	2.67085	0.479865	1.97748	0.642665	2.67083	0.722767	3.00785	0.840598	3.49752			0.626476	2.60406	0.720845	2.99208	0.882426	3.66687		
0.644875	2.67054	0.481881	1.97819	0.645076	2.67051	0.724504	3.00344	0.842354	3.4913			0.628482	2.60232	0.72279	2.9886	0.883754	3.65822		
0.647286	2.67022	0.483896	1.97889	0.647488	2.67019	0.726244	2.99907	0.844112	3.48513			0.630487	2.60059	0.724737	2.98515	0.885087	3.64966		
0.649697	2.6699	0.485911	1.97959	0.649899	2.66988	0.727987	2.99474	0.845873	3.47901			0.632491	2.59887	0.726688	2.98174	0.886423	3.64118		
0.652108	2.66959	0.487925	1.98028	0.65231	2.66956	0.729733	2.99046	0.847636	3.47296			0.634494	2.59715	0.728643	2.97837	0.887763	3.63279		
0.654519	2.66928	0.489939	1.98096	0.654721	2.66925	0.731481	2.98622	0.849401	3.46696			0.636495	2.59545	0.7306	2.97505	0.889107	3.62447		
0.65693	2.66897	0.491953	1.98164	0.657131	2.66894	0.733233	2.98203	0.851169	3.46101			0.638496	2.59375	0.732561	2.97175	0.890455	3.61623		
0.65934	2.66866	0.493967	1.98231	0.659541	2.66863	0.734987	2.97788	0.852939	3.45512			0.640495	2.59206	0.734524	2.9685	0.891807	3.60806		
0.66175	2.66835	0.495981	1.98298	0.661951	2.66833	0.736743	2.97377	0.854711	3.44928			0.642494	2.59038	0.736491	2.96528	0.893162	3.59998		
0.664159	2.66804	0.497994	1.98364	0.664361	2.66802	0.738503	2.96971	0.856485	3.44349			0.644491	2.58871	0.738461	2.9621	0.894521	3.59197		
0.666569	2.66774	0.500007	1.98429	0.66677	2.66771	0.740265	2.96568	0.858262	3.43775			0.646488	2.58705	0.740434	2.95896	0.895884	3.58403		
0.668977	2.66743	0.502019	1.98494	0.669179	2.66741	0.74203	2.9617	0.86004	3.43207			0.648483	2.5854	0.74241	2.95585	0.897251	3.57617		
0.671386	2.66713	0.504032	1.98558	0.671587	2.6671	0.743798	2.95776	0.861821	3.42644			0.650477	2.58375	0.744389	2.95278	0.898622	3.56838		
0.673794	2.66682	0.506044	1.98622	0.673995	2.6668	0.745569	2.95385	0.863604	3.42085			0.65247	2.58211	0.746371	2.94974	0.899997	3.56067		
0.676201	2.66652	0.508055	1.98685	0.676403	2.66649	0.747342	2.94999	0.865389	3.41532			0.654462	2.58048	0.748356	2.94673	0.901375	3.55303		
0.678608	2.66621	0.510067	1.98747	0.67881	2.66619	0.749119	2.94617	0.867175	3.40983			0.656453	2.57886	0.750344	2.94376	0.902757	3.54545		
0.681015	2.66591	0.512078	1.98809	0.681216	2.66588	0.750898	2.94238	0.868964	3.40439			0.658444	2.57724	0.752335	2.94082	0.904143	3.53795		
0.683421	2.66561	0.514089	1.9887	0.683622	2.66558	0.75268	2.93864	0.870756	3.399			0.660433	2.57563	0.754328	2.93791	0.905533	3.53052		
0.685826	2.6653	0.5161	1.98931	0.686027	2.66528	0.754464	2.93493	0.872549	3.39366			0.662421	2.57404	0.756325	2.93504	0.906926	3.52315		
0.688231	2.665	0.51811	1.98992	0.688432	2.66497	0.756252	2.93126	0.874344	3.38836			0.664408	2.57244	0.758324	2.9322	0.908323	3.51585		
0.690635	2.66469	0.52012	1.99051	0.690836	2.66467	0.758042	2.92762	0.876141	3.38311			0.666394	2.57086	0.760326	2.92938	0.909724	3.50862		
0.693038	2.66439	0.52213	1.9911	0.693239	2.66436	0.759835	2.92403	0.87794	3.37791			0.668379	2.56928	0.76233	2.9266	0.911129	3.50146		
0.695441	2.66408	0.524139	1.99169	0.695642	2.66406	0.761631	2.92047	0.87974	3.37275			0.670364	2.56771	0.764337	2.92385	0.912537	3.49436		
0.697842	2.66378	0.526148	1.99227	0.698043	2.66375	0.76343	2.91694	0.881543	3.36763			0.672347	2.56615	0.766347	2.92113	0.913949	3.48732		
0.700244	2.66347	0.528157	1.99285	0.700444	2.66344	0.765231	2.91346	0.883348	3.36256			0.674329	2.5646	0.76836	2.91843	0.915365	3.48035		
0.702644	2.66316	0.530166	1.99342	0.702845	2.66313	0.767036	2.91	0.885155	3.35752			0.676311	2.56305	0.770375	2.91577	0.916784	3.47345		
0.705043	2.66285	0.532174	1.99399	0.705244	2.66283	0.768843	2.90659	0.886963	3.35254			0.678291	2.56152	0.772392	2.91313	0.918207	3.4666		
0.707442	2.66254	0.534182	1.99455	0.707642	2.66252	0.770653	2.90321	0.888773	3.34759			0.680271	2.55998	0.774413	2.91052	0.919634	3.45982		
0.709839	2.66223	0.53619	1.9951	0.71004	2.6622	0.772467	2.89986	0.890585	3.34268			0.68225	2.55846	0.776435	2.90794	0.921064	3.45309		
0.712236	2.66192	0.538198	1.99566	0.712437	2.66189	0.774283	2.89654	0.892399	3.33782			0.684228	2.55694	0.77846	2.90539	0.922499	3.44643		
0.714632	2.6616	0.540205	1.9962	0.714832	2.66158	0.776102	2.89326	0.894215	3.333			0.686205	2.55544	0.780488	2.90286	0.923936	3.43983		
0.717027	2.66129	0.542212	1.99674	0.717227	2.66126	0.777924	2.89002	0.896032	3.32821			0.688181	2.55393	0.782518	2.90036	0.925378	3.43329		
0.71942	2.66097	0.544219	1.99728	0.71962	2.66094	0.779748	2.88681	0.897852	3.32347			0.690156	2.55244	0.78455	2.89788	0.926823	3.4268		
0.721813	2.66065	0.546225	1.99781	0.722013	2.66062	0.781576	2.88363	0.899673	3.31876			0.692131	2.55095	0.786584	2.89544	0.928272	3.42038		
0.724204	2.66033	0.548231	1.99834	0.724404	2.6603	0.783407	2.88048	0.901495	3.3141			0.694105	2.54947	0.788621	2.89301	0.929724	3.41401		
0.726594	2.66	0.550237	1.99886	0.726794	2.65998	0.785241	2.87737	0.90332	3.30947			0.696078	2.548	0.79066	2.89061	0.93118	3.4077		
0.728983	2.65968	0.552242	1.99938	0.729183	2.65965	0.787078	2.87429	0.905146	3.30488			0.69805	2.54653	0.792701	2.88824	0.932639	3.40144		
0.731371	2.65935	0.554248	1.9999	0.731571	2.65932	0.788918	2.87124	0.906974	3.30032			0.700021	2.54507	0.794745	2.88588	0.934103	3.39524		
0.733757	2.65902	0.556253	2.0004	0.733957	2.65899	0.790761	2.86822	0.908803	3.29581			0.701992	2.54362	0.79679	2.88356	0.935569	3.3891		
0.736143	2.65869	0.558257	2.00091	0.736342	2.65866	0.792608	2.86523	0.910634	3.29133			0.703961	2.54218	0.798838	2.88125	0.93704	3.383		
0.738526	2.65835	0.560262	2.00141	0.738726	2.65832	0.794457	2.86228	0.912467	3.28688			0.70593	2.54074	0.800888	2.87897	0.938514	3.37697		
0.740909	2.65801	0.562266	2.00191	0.741108	2.65798	0.79631	2.85935	0.914301	3.28247			0.707899	2.53931	0.80294	2.87671	0.939991	3.37098		
0.743289	2.65767	0.564269	2.0024	0.743489	2.65764	0.798165	2.85646	0.916137	3.2781			0.709866	2.53788	0.804993	2.87448	0.941473	3.36505		
0.745669	2.65732	0.566273	2.00289	0.745868	2.6573	0.800024	2.8536	0.917974	3.27376			0.711833	2.53647	0.807049	2.87226	0.942957	3.35917		
0.748047	2.65698	0.568276	2.00337	0.748245	2.65695	0.801887	2.85077	0.919813	3.26945			0.713799	2.53506	0.809107	2.87007	0.944446	3.35334		
0.750423	2.65662	0.570279	2.00385	0.750621	2.6566	0.803752	2.84797	0.921654	3.26518			0.715765	2.53365	0.811167	2.8679	0.945937	3.34757		
0.752797	2.65627	0.572282	2.00432	0.752996	2.65624	0.805621	2.8452	0.923496	3.26095			0.717729	2.53226	0.813228	2.86574	0.947433	3.34184		
0.75517	2.65591	0.574284	2.0048	0.755368	2.65588	0.807493	2.84245	0.925339	3.25674			0.719693	2.53087	0.815292	2.86361	0.948932	3.33616		
0.757541	2.65555	0.576286	2.00526	0.757739	2.65552	0.809369	2.83974	0.927184	3.25257			0.721657	2.52948	0.817357	2.8615	0.950434	3.33054		
0.75991	2.65518	0.578288	2.00573	0.760108	2.65515	0.811248	2.83706	0.929031	3.24843			0.72362	2.52811	0.819424	2.85941	0.95194	3.32496		
0.762277	2.65481	0.58029	2.00619	0.762475	2.65478	0.81313	2.83441	0.930879	3.24432			0.725582	2.52674	0.821493	2.85734	0.95345	3.31943		
0.764643	2.65444	0.582291	2.00664	0.764841	2.6544	0.815016	2.83179	0.932728	3.24025			0.727543	2.52538	0.823564	2.85529	0.954963	3.31395		
0.767006	2.65406	0.584292	2.00709	0.767204	2.65402	0.816906	2.82919	0.934579	3.2362			0.729504	2.52402	0.825636	2.85326	0.95648	3.30851		
0.769368	2.65367	0.586293	2.00754	0.769565	2.65364	0.818799	2.82663	0.936431	3.23219			0.731464	2.52267	0.82771	2.85125	0.958	3.30313		
0.771727	2.65328	0.588293	2.00798	0.771924	2.65325	0.820695	2.82409	0.938285	3.2282			0.733424	2.52133	0.829786	2.84925	0.959523	3.29778		
0.774084	2.65289	0.590293	2.00842	0.774281	2.65286	0.822596	2.82159	0.94014	3.22425			0.735383	2.51999	0.831863	2.84728	0.961051	3.29249		
0.776439	2.65249	0.592293	2.00886	0.776636	2.65246	0.8245	2.81911	0.941996	3.22033			0.737342	2.51866	0.833942	2.84532	0.962581	3.28724		
0.778792	2.65209	0.594293	2.00929	0.778989	2.65205	0.826407	2.81666	0.943854	3.21643			0.7393	2.51734	0.836023	2.84338	0.964115	3.28204		
0.781142	2.65168	0.596292	2.00972	0.781339	2.65164	0.828319	2.81424	0.945713	3.21257			0.741257	2.51602	0.838105	2.84146	0.965653	3.27688		
0.78349	2.65126	0.598291	2.01015	0.783687	2.65123	0.830235	2.81184	0.947573	3.20873			0.743214	2.51471	0.840188	2.83955	0.967194	3.27176		
0.785836	2.65084	0.60029	2.01057	0.786032	2.65081	0.832154	2.80948	0.949435	3.20493			0.74517	2.51341	0.842273	2.83766	0.968739	3.26669		
0.788179	2.65042	0.602288	2.01099	0.788375	2.65038	0.834077	2.80714	0.951298	3.20115			0.747126	2.51211	0.844359	2.83579	0.970287	3.26167		
0.790519	2.64998	0.604287	2.0114	0.790715	2.64995	0.836004	2.80483	0.953162	3.1974			0.749082	2.51082	0.846447	2.83393	0.971838	3.25668		
0.792857	2.64955	0.606284	2.01181	0.793053	2.64951	0.837936	2.80255	0.955028	3.19367			0.751036	2.50953	0.848536	2.83209	0.973393	3.25174		
0.795192	2.6491	0.608282	2.01222	0.795387	2.64906	0.839871	2.8003	0.956894	3.18998			0.752991	2.50825	0.850626	2.83027	0.974952	3.24684		
0.797524	2.64865	0.610279	2.01262	0.797719	2.64861	0.841811	2.79808	0.958762	3.18631			0.754945	2.50698	0.852718	2.82846	0.976514	3.24198		
0.799854	2.64819	0.612276	2.01302	0.800049	2.64815	0.843755	2.79588	0.960632	3.18266			0.756898	2.50572	0.854811	2.82667	0.978079	3.23717		
0.80218	2.64773	0.614273	2.01342	0.802375	2.64769	0.845703	2.79371	0.962502	3.17905			0.758851	2.50446	0.856905	2.82489	0.979648	3.23239		
0.804504	2.64725	0.61627	2.01382	0.804698	2.64721	0.847655	2.79157	0.964374	3.17546			0.760804	2.5032	0.859001	2.82313	0.98122	3.22766		
0.806824	2.64678	0.618266	2.01421	0.807018	2.64674	0.849612	2.78945	0.966247	3.17189			0.762756	2.50196	0.861098	2.82138	0.982796	3.22296		
0.809142	2.64629	0.620262	2.01459	0.809335	2.64625	0.851573	2.78736	0.968121	3.16836			0.764707	2.50072	0.863195	2.81964	0.984375	3.21831		
0.811456	2.6458	0.622258	2.01498	0.811649	2.64575	0.853539	2.7853	0.969996	3.16484			0.766659	2.49948	0.865294	2.81792	0.985958	3.21369		
0.813766	2.64529	0.624253	2.01536	0.81396	2.64525	0.85551	2.78327	0.971872	3.16135			0.76861	2.49825	0.867394	2.81622	0.987544	3.20912		
0.816074	2.64478	0.626248	2.01574	0.816267	2.64474	0.857485	2.78127	0.97375	3.15789			0.77056	2.49703	0.869496	2.81453	0.989133	3.20458		
0.818378	2.64427	0.628243	2.01611	0.81857	2.64422	0.859464	2.77929	0.975628	3.15445			0.77251	2.49582	0.871598	2.81285	0.990726	3.20008		
0.820678	2.64374	0.630238	2.01648	0.820871	2.6437	0.861448	2.77734	0.977508	3.15104			0.77446	2.49461	0.873701	2.81118	0.992322	3.19562		
0.822975	2.64321	0.632232	2.01685	0.823167	2.64316	0.863438	2.77541	0.979389	3.14765			0.776409	2.4934	0.875805	2.80953	0.993922	3.1912		
0.825269	2.64267	0.634226	2.01722	0.82546	2.64262	0.865432	2.77352	0.98127	3.14428			0.778358	2.4922	0.87791	2.80789	0.995525	3.18681		
0.827558	2.64211	0.63622	2.01758	0.82775	2.64207	0.867431	2.77165	0.983153	3.14094			0.780307	2.49101	0.880016	2.80627	0.997132	3.18246		
0.829844	2.64156	0.638213	2.01794	0.830035	2.64151	0.869435	2.76981	0.985037	3.13761			0.782255	2.48983	0.882123	2.80465	0.998742	3.17815		
0.832126	2.64099	0.640206	2.0183	0.832317	2.64094	0.871444	2.76799	0.986922	3.13432			0.784203	2.48865	0.884231	2.80305	1.00035	3.17388		
0.834404	2.64041	0.642199	2.01865	0.834595	2.64036	0.873458	2.7662	0.988808	3.13104			0.786151	2.48747	0.88634	2.80146				
0.836678	2.63982	0.644192	2.019	0.836868	2.63977	0.875477	2.76444	0.990695	3.12779			0.788098	2.4863	0.888449	2.79988				
0.838948	2.63923	0.646184	2.01935	0.839138	2.63918	0.877501	2.7627	0.992584	3.12456			0.790045	2.48514	0.89056	2.79832				
0.841214	2.63862	0.648176	2.01969	0.841404	2.63857	0.879531	2.761	0.994473	3.12135			0.791992	2.48399	0.89267	2.79676				
0.843476	2.63801	0.650168	2.02004	0.843665	2.63795	0.881566	2.75931	0.996363	3.11817			0.793938	2.48284	0.894782	2.79522				
0.845734	2.63738	0.65216	2.02038	0.845922	2.63733	0.883606	2.75766	0.998254	3.115			0.795885	2.48169	0.896895	2.79369				
0.847987	2.63675	0.654151	2.02071	0.848175	2.63669	0.885652	2.75603	1.00015	3.11186			0.797831	2.48055	0.899008	2.79217				
0.850236	2.6361	0.656142	2.02105	0.850424	2.63605	0.887703	2.75443					0.799776	2.47942	0.901122	2.79066				
0.85248	2.63545	0.658133	2.02138	0.852668	2.63539	0.88976	2.75285					0.801722	2.47829	0.903236	2.78916				
0.85472	2.63478	0.660123	2.02171	0.854907	2.63473	0.891822	2.7513					0.803667	2.47717	0.905351	2.78767				
0.856956	2.63411	0.662114	2.02203	0.857142	2.63405	0.89389	2.74977					0.805612	2.47606	0.907467	2.78619				
0.859187	2.63343	0.664104	2.02235	0.859373	2.63337	0.895963	2.74828					0.807557	2.47495	0.909583	2.78472				
0.861413	2.63273	0.666093	2.02267	0.861599	2.63267	0.898042	2.7468					0.809501	2.47384	0.911699	2.78326				
0.863635	2.63203	0.668083	2.02299	0.86382	2.63197	0.900127	2.74535					0.811446	2.47274	0.913816	2.78181				
0.865852	2.63131	0.670072	2.02331	0.866037	2.63125	0.902217	2.74393					0.81339	2.47165	0.915934	2.78037				
0.868064	2.63059	0.672061	2.02362	0.868249	2.63053	0.904313	2.74254					0.815334	2.47056	0.918052	2.77894				
0.870272	2.62985	0.674049	2.02393	0.870457	2.62979	0.906415	2.74117					0.817278	2.46948	0.92017	2.77752				
0.872475	2.62911	0.676038	2.02424	0.872659	2.62905	0.908523	2.73982					0.819221	2.46841	0.922289	2.77611				
0.874673	2.62835	0.678026	2.02454	0.874857	2.62829	0.910636	2.7385					0.821165	2.46733	0.924408	2.77471				
0.876867	2.62759	0.680013	2.02484	0.87705	2.62752	0.912755	2.7372					0.823108	2.46627	0.926528	2.77331				
0.879055	2.62681	0.682001	2.02514	0.879238	2.62675	0.91488	2.73593					0.825051	2.46521	0.928647	2.77193				
0.881239	2.62603	0.683988	2.02544	0.881422	2.62596	0.917011	2.73468					0.826994	2.46416	0.930768	2.77055				
0.883418	2.62523	0.685975	2.02574	0.883601	2.62517	0.919147	2.73346					0.828937	2.46311	0.932888	2.76918				
0.885593	2.62443	0.687962	2.02603	0.885774	2.62436	0.921289	2.73226					0.83088	2.46206	0.935008	2.76782				
0.887762	2.62361	0.689949	2.02632	0.887944	2.62354	0.923437	2.73108					0.832823	2.46103	0.937129	2.76647				
0.889927	2.62279	0.691935	2.02661	0.890108	2.62272	0.92559	2.72993					0.834765	2.45999	0.93925	2.76512				
0.892087	2.62196	0.693921	2.02689	0.892268	2.62189	0.927749	2.7288					0.836707	2.45897	0.941371	2.76379				
0.894242	2.62111	0.695906	2.02718	0.894423	2.62104	0.929914	2.72769					0.83865	2.45794	0.943492	2.76246				
0.896393	2.62026	0.697892	2.02746	0.896573	2.62019	0.932084	2.7266					0.840592	2.45693	0.945613	2.76114				
0.898539	2.6194	0.699877	2.02774	0.898718	2.61933	0.93426	2.72554					0.842534	2.45592	0.947735	2.75982				
0.90068	2.61853	0.701862	2.02801	0.900859	2.61846	0.936442	2.7245					0.844476	2.45491	0.949856	2.75852				
0.902817	2.61765	0.703847	2.02829	0.902996	2.61758	0.938629	2.72348					0.846418	2.45391	0.951978	2.75722				
0.904949	2.61677	0.705831	2.02856	0.905128	2.61669	0.940821	2.72248					0.84836	2.45291	0.954099	2.75593				
0.907077	2.61587	0.707815	2.02883	0.907255	2.6158	0.943019	2.7215					0.850302	2.45192	0.95622	2.75464				
0.9092	2.61497	0.709799	2.0291	0.909378	2.61489	0.945222	2.72055					0.852244	2.45094	0.958342	2.75336				
0.911319	2.61406	0.711783	2.02936	0.911496	2.61398	0.94743	2.71961					0.854185	2.44996	0.960463	2.75209				
0.913433	2.61314	0.713766	2.02962	0.91361	2.61306	0.949644	2.71869					0.856127	2.44898	0.962584	2.75082				
0.915544	2.61221	0.715749	2.02989	0.91572	2.61213	0.951862	2.71779					0.858069	2.44801	0.964705	2.74956				
0.91765	2.61128	0.717732	2.03014	0.917826	2.6112	0.954086	2.71692					0.86001	2.44704	0.966826	2.74831				
0.919751	2.61034	0.719715	2.0304	0.919927	2.61026	0.956315	2.71606					0.861952	2.44608	0.968947	2.74706				
0.921849	2.60939	0.721697	2.03066	0.922024	2.60931	0.958548	2.71522					0.863893	2.44513	0.971068	2.74582				
0.923943	2.60844	0.723679	2.03091	0.924117	2.60836	0.960787	2.71439					0.865835	2.44418	0.973188	2.74459				
0.926032	2.60748	0.725661	2.03116	0.926207	2.6074	0.96303	2.71359					0.867776	2.44323	0.975308	2.74336				
0.928118	2.60652	0.727642	2.03141	0.928292	2.60643	0.965278	2.7128					0.869718	2.44229	0.977428	2.74214				
0.9302	2.60554	0.729624	2.03166	0.930374	2.60546	0.967531	2.71203					0.871659	2.44136	0.979548	2.74092				
0.932278	2.60457	0.731605	2.0319	0.932451	2.60449	0.969788	2.71128					0.873601	2.44043	0.981667	2.73971				
0.934352	2.60359	0.733586	2.03214	0.934526	2.6035	0.972049	2.71054					0.875542	2.4395	0.983786	2.7385				
0.936423	2.6026	0.735566	2.03239	0.936596	2.60252	0.974315	2.70982					0.877484	2.43858	0.985905	2.7373				
0.93849	2.60161	0.737546	2.03262	0.938663	2.60153	0.976585	2.70911					0.879426	2.43767	0.988024	2.7361				
0.940554	2.60061	0.739527	2.03286	0.940727	2.60053	0.978859	2.70842					0.881367	2.43675	0.990142	2.73491				
0.942615	2.59961	0.741506	2.0331	0.942787	2.59953	0.981138	2.70774					0.883309	2.43585	0.992259	2.73372				
0.944672	2.59861	0.743486	2.03333	0.944844	2.59853	0.98342	2.70708					0.88525	2.43495	0.994376	2.73254				
0.946726	2.5976	0.745465	2.03356	0.946898	2.59752	0.985707	2.70643					0.887192	2.43405	0.996493	2.73137				
0.948777	2.59659	0.747444	2.03379	0.948948	2.59651	0.987997	2.7058					0.889134	2.43316	0.998609	2.7302				
0.950824	2.59558	0.749423	2.03402	0.950996	2.59549	0.990291	2.70518					0.891076	2.43227	1.00073	2.72903				
0.952869	2.59456	0.751402	2.03425	0.95304	2.59448	0.992588	2.70457					0.893018	2.43139						
0.954911	2.59354	0.75338	2.03447	0.955082	2.59346	0.994889	2.70398					0.894959	2.43051						
0.95695	2.59252	0.755358	2.03469	0.957121	2.59243	0.997194	2.70339					0.896901	2.42964						
0.958987	2.59149	0.757336	2.03491	0.959157	2.59141	0.999502	2.70283					0.898843	2.42877						
0.96102	2.59047	0.759314	2.03513	0.96119	2.59038	1.00181	2.70227					0.900786	2.4279						
0.963051	2.58944	0.761291	2.03535	0.963221	2.58935							0.902728	2.42704						
0.96508	2.58841	0.763268	2.03556	0.965249	2.58832							0.90467	2.42619						
0.967106	2.58738	0.765245	2.03578	0.967275	2.58729							0.906612	2.42534						
0.969129	2.58635	0.767221	2.03599	0.969299	2.58626							0.908555	2.42449						
0.971151	2.58531	0.769198	2.0362	0.97132	2.58522							0.910497	2.42365						
0.97317	2.58428	0.771174	2.03641	0.973338	2.58419							0.91244	2.42281						
0.975187	2.58324	0.77315	2.03662	0.975355	2.58315							0.914383	2.42198						
0.977201	2.58221	0.775126	2.03682	0.97737	2.58212							0.916325	2.42115						
0.979214	2.58117	0.777101	2.03703	0.979382	2.58108							0.918268	2.42032						
0.981225	2.58013	0.779076	2.03723	0.981393	2.58005							0.920211	2.4195						
0.983234	2.5791	0.781051	2.03743	0.983401	2.57901							0.922154	2.41869						
0.98524	2.57806	0.783026	2.03763	0.985408	2.57797							0.924098	2.41787						
0.987246	2.57702	0.785	2.03782	0.987413	2.57694							0.926041	2.41707						
0.989249	2.57599	0.786974	2.03802	0.989416	2.5759							0.927985	2.41626						
0.991251	2.57495	0.788948	2.03821	0.991418	2.57487							0.929928	2.41546						
0.993251	2.57392	0.790922	2.03841	0.993418	2.57383							0.931872	2.41467						
0.995249	2.57289	0.792896	2.0386	0.995416	2.5728							0.933816	2.41388						
0.997246	2.57185	0.794869	2.03879	0.997413	2.57177							0.93576	2.41309						
0.999241	2.57082	0.796842	2.03898	0.999408	2.57074							0.937704	2.41231						
1.00124	2.56979	0.798815	2.03916	1.0014	2.56971							0.939648	2.41153						
		0.800787	2.03935									0.941593	2.41076						
		0.80276	2.03953									0.943537	2.40999						
		0.804732	2.03971									0.945482	2.40922						
		0.806704	2.03989									0.947427	2.40846						
		0.808676	2.04007									0.949372	2.4077						
		0.810647	2.04025									0.951317	2.40695						
		0.812618	2.04043									0.953263	2.4062						
		0.814589	2.0406									0.955208	2.40545						
		0.81656	2.04078									0.957154	2.40471						
		0.81853	2.04095									0.9591	2.40397						
		0.820501	2.04112									0.961046	2.40324						
		0.822471	2.04129									0.962992	2.40251						
		0.824441	2.04146									0.964938	2.40178						
		0.82641	2.04163									0.966885	2.40106						
		0.82838	2.04179									0.968832	2.40034						
		0.830349	2.04196									0.970779	2.39962						
		0.832318	2.04212									0.972726	2.39891						
		0.834287	2.04228									0.974673	2.3982						
		0.836255	2.04244									0.97662	2.3975						
		0.838223	2.0426									0.978568	2.3968						
		0.840191	2.04276									0.980516	2.3961						
		0.842159	2.04292									0.982464	2.39541						
		0.844127	2.04307									0.984412	2.39472						
		0.846094	2.04322									0.986361	2.39403						
		0.848061	2.04338									0.988309	2.39335						
		0.850028	2.04353									0.990258	2.39267						
		0.851995	2.04368									0.992207	2.39199						
		0.853962	2.04383									0.994157	2.39132						
		0.855928	2.04398									0.996106	2.39065						
		0.857894	2.04413									0.998056	2.38999						
		0.85986	2.04427									1.00001	2.38933						
		0.861826	2.04442																
		0.863791	2.04456																
		0.865757	2.0447																
		0.867722	2.04484																
		0.869686	2.04498																
		0.871651	2.04512																
		0.873616	2.04526																
		0.87558	2.0454																
		0.877544	2.04553																
		0.879508	2.04567																
		0.881471	2.0458																
		0.883435	2.04594																
		0.885398	2.04607																
		0.887361	2.0462																
		0.889324	2.04633																
		0.891286	2.04646																
		0.893249	2.04658																
		0.895211	2.04671																
		0.897173	2.04684																
		0.899134	2.04696																
		0.901096	2.04709																
		0.903057	2.04721																
		0.905019	2.04733																
		0.90698	2.04745																
		0.90894	2.04757																
		0.910901	2.04769																
		0.912861	2.04781																
		0.914822	2.04792																
		0.916782	2.04804																
		0.918741	2.04816																
		0.920701	2.04827																
		0.92266	2.04838																
		0.92462	2.0485																
		0.926579	2.04861																
		0.928538	2.04872																
		0.930496	2.04883																
		0.932455	2.04894																
		0.934413	2.04904																
		0.936371	2.04915																
		0.938329	2.04926																
		0.940287	2.04936																
		0.942244	2.04947																
		0.944202	2.04957																
		0.946159	2.04968																
		0.948116	2.04978																
		0.950073	2.04988																
		0.952029	2.04998																
		0.953986	2.05008																
		0.955942	2.05018																
		0.957898	2.05028																
		0.959854	2.05037																
		0.96181	2.05047																
		0.963765	2.05057																
		0.96572	2.05066																
		0.967676	2.05076																
		0.969631	2.05085																
		0.971586	2.05094																
		0.97354	2.05104																
		0.975495	2.05113																
		0.977449	2.05122																
		0.979403	2.05131																
		0.981357	2.0514																
		0.983311	2.05149																
		0.985265	2.05158																
		0.987218	2.05166																
		0.989171	2.05175																
		0.991124	2.05183																
		0.993077	2.05192																
		0.99503	2.052																
		0.996983	2.05209																
		0.998935	2.05217																
		1.00089	2.05225																
