Sym0		Asym0		Sym1		Sym2		Sym3		Sym4		Asym1		Asym2		Asym3		Asym4	
419  Points		526  Points		419  Points		399  Points		348  Points		249  Points		452  Points		395  Points		340  Points		214  Points	
Freq (MHz)	Vph (m/ms)	Freq (MHz)	Vph (m/ms)	Freq (MHz)	Vph (m/ms)	Freq (MHz)	Vph (m/ms)	Freq (MHz)	Vph (m/ms)	Freq (MHz)	Vph (m/ms)	Freq (MHz)	Vph (m/ms)	Freq (MHz)	Vph (m/ms)	Freq (MHz)	Vph (m/ms)	Freq (MHz)	Vph (m/ms)
0.279511	418.385	0.000176654	0.0825659	0.27951	519.203	0.441434	2150.77	0.559017	2564.92	0.838526	10254.3	0.139764	285.819	0.419268	500.733	0.698772	1225.44	0.88287	1115.27
0.279524	174.728	0.00036348	0.118349	0.279522	190.146	0.441443	388.273	0.559026	486.26	0.838529	827.386	0.139833	98.4265	0.419284	237.017	0.698779	465.259	0.882878	512.313
0.279548	110.43	0.000616301	0.153962	0.279544	116.393	0.441463	213.408	0.559045	268.599	0.838538	431.089	0.139971	59.5018	0.419313	155.261	0.698792	287.142	0.882892	332.538
0.279583	80.7306	0.000934372	0.18935	0.279577	83.8707	0.441495	147.149	0.559076	185.553	0.838554	291.483	0.140176	42.6836	0.419353	115.448	0.698811	207.652	0.882911	246.162
0.279628	63.6263	0.00131689	0.224483	0.279621	65.5599	0.441539	112.293	0.559118	141.738	0.838575	220.182	0.140448	33.3149	0.419406	91.8925	0.698836	162.634	0.882937	195.409
0.279684	52.5076	0.00176279	0.259309	0.279676	53.8167	0.441594	90.7935	0.559172	114.668	0.838602	176.911	0.140786	27.3506	0.41947	76.3258	0.698868	133.66	0.882968	162.01
0.279751	44.7012	0.00227077	0.293771	0.279741	45.6458	0.441661	76.2087	0.559237	96.2854	0.838636	147.857	0.14119	23.2252	0.419546	65.2738	0.698905	113.451	0.883005	138.363
0.279828	38.9194	0.00283957	0.327841	0.279817	39.6329	0.44174	65.6656	0.559313	82.9864	0.838675	127.002	0.141657	20.2054	0.419634	57.0219	0.698948	98.5533	0.883047	120.742
0.279916	34.4655	0.00346779	0.361487	0.279904	35.0234	0.44183	57.6892	0.5594	72.9192	0.83872	111.305	0.142188	17.902	0.419734	50.626	0.698998	87.1158	0.883096	107.104
0.280015	30.9296	0.00415383	0.394671	0.280001	31.3776	0.441932	51.4443	0.559499	65.0338	0.838771	99.0632	0.14278	16.0892	0.419845	45.5237	0.699054	78.0588	0.88315	96.2365
0.280125	28.0545	0.00489616	0.427369	0.280109	28.4222	0.442046	46.4227	0.559609	58.6906	0.838828	89.2492	0.143432	14.627	0.419969	41.3589	0.699116	70.7094	0.88321	87.3724
0.280246	25.6712	0.00569291	0.459543	0.280228	25.9783	0.442172	42.2973	0.559731	53.4778	0.838891	81.2059	0.144143	13.4241	0.420104	37.8952	0.699183	64.6263	0.883276	80.005
0.280377	23.6636	0.00654255	0.491186	0.280358	23.924	0.442309	38.8481	0.559863	49.1182	0.83896	74.494	0.14491	12.418	0.420252	34.9695	0.699257	59.5084	0.883348	73.7847
0.280518	21.9496	0.00744311	0.522265	0.280498	22.1731	0.442458	35.9217	0.560007	45.4183	0.839035	68.8083	0.145733	11.5652	0.420411	32.4658	0.699338	55.143	0.883426	68.4632
0.280671	20.4693	0.00839296	0.552777	0.280649	20.6632	0.442618	33.4077	0.560162	42.2391	0.839116	63.9302	0.146609	10.8337	0.420581	30.299	0.699424	51.3755	0.883509	63.8588
0.280834	19.1781	0.00939023	0.582702	0.280811	19.3479	0.44279	31.2249	0.560328	39.4782	0.839202	59.6991	0.147415	10.2766	0.420764	28.4056	0.699516	48.0911	0.883598	59.8358
0.281008	18.042	0.0104331	0.612029	0.280983	18.1919	0.442974	29.312	0.560506	37.0581	0.839295	55.9945	0.148131	9.8513	0.420959	26.737	0.699615	45.2025	0.883693	56.2907
0.281192	17.0349	0.0115198	0.640757	0.281166	17.1682	0.443169	27.622	0.560694	34.9195	0.839394	52.7238	0.148745	9.52937	0.421165	25.2556	0.699719	42.6423	0.883794	53.1432
0.281388	16.1359	0.0126485	0.668878	0.28136	16.2553	0.443376	26.1182	0.560894	33.0162	0.839498	49.8151	0.149242	9.29186	0.421383	23.9316	0.69983	40.3576	0.8839	50.3299
0.281593	15.3288	0.0138176	0.696389	0.281564	15.4362	0.443594	24.7715	0.561105	31.3114	0.839609	47.2115	0.149615	9.12601	0.421612	22.7413	0.699947	38.3062	0.884013	47.8004
0.28181	14.6001	0.0150252	0.723287	0.281779	14.6972	0.443824	23.5586	0.561328	29.7757	0.839725	44.8675	0.149857	9.02354	0.421854	21.6655	0.70007	36.4541	0.884131	45.5139
0.282037	13.939	0.0162698	0.749581	0.282005	14.0273	0.444066	22.4606	0.561561	28.3853	0.839847	42.7461	0.150209	8.88101	0.422107	20.6886	0.700199	34.7738	0.884255	43.4369
0.282275	13.3366	0.0175497	0.77527	0.282241	13.4173	0.444318	21.462	0.561806	27.1204	0.839976	40.817	0.150596	8.73215	0.422372	19.7975	0.700334	33.2424	0.884384	41.542
0.282523	12.7856	0.0188634	0.800363	0.282488	12.8595	0.444583	20.55	0.562061	25.9649	0.84011	39.0553	0.151133	8.53918	0.422648	18.9815	0.700475	31.8409	0.88452	39.8063
0.282782	12.2795	0.0202093	0.82486	0.282745	12.3475	0.444859	19.7137	0.562328	24.9053	0.84025	37.4402	0.151826	8.30964	0.422936	18.2316	0.700622	30.5536	0.884661	38.2105
0.283052	11.8133	0.021586	0.848775	0.283014	11.876	0.445146	18.9443	0.562606	23.9302	0.840396	35.9541	0.152686	8.05169	0.423236	17.5401	0.700775	29.3671	0.884808	36.7384
0.283332	11.3824	0.022992	0.872112	0.283292	11.4404	0.445445	18.234	0.562895	23.0298	0.840548	34.5821	0.153723	7.77357	0.423547	16.9004	0.700935	28.27	0.884961	35.3762
0.283623	10.983	0.0244261	0.894882	0.283582	11.0368	0.445754	17.5764	0.563195	22.196	0.840706	33.3117	0.154951	7.48309	0.42387	16.307	0.7011	27.2526	0.88512	34.1121
0.283924	10.6118	0.0258869	0.917097	0.283881	10.6619	0.446076	16.9658	0.563505	21.4217	0.84087	32.132	0.156216	7.21938	0.424205	15.7552	0.701272	26.3066	0.885284	32.9358
0.284236	10.266	0.0273731	0.938763	0.284192	10.3127	0.446408	16.3974	0.563827	20.7007	0.841039	31.0336	0.157519	6.97906	0.42455	15.2406	0.701449	25.4246	0.885454	31.8385
0.284558	9.94301	0.0288837	0.959898	0.284471	10.0274	0.446752	15.867	0.56416	20.0278	0.841215	30.0084	0.158856	6.75928	0.424908	14.7598	0.701633	24.6005	0.88563	30.8126
0.284891	9.64078	0.0304174	0.980507	0.284715	9.79697	0.447108	15.371	0.564504	19.3984	0.841396	29.0494	0.160226	6.55762	0.425277	14.3095	0.701823	23.8288	0.885811	29.8513
0.285234	9.35737	0.0319732	1.00061	0.284921	9.61472	0.447474	14.9061	0.564859	18.8084	0.841583	28.1504	0.161628	6.37204	0.425657	13.887	0.702018	23.1045	0.885999	28.9487
0.285588	9.09111	0.03355	1.02021	0.285087	9.47562	0.447852	14.4696	0.565224	18.2543	0.841777	27.3059	0.163061	6.20076	0.426049	13.4897	0.70222	22.4236	0.886192	28.0996
0.285953	8.84051	0.0351468	1.03932	0.285211	9.37603	0.44824	14.059	0.565601	17.7329	0.841976	26.5111	0.164523	6.04228	0.426452	13.1156	0.702428	21.7822	0.886391	27.2994
0.286327	8.60426	0.0367628	1.05796	0.285291	9.31345	0.44864	13.672	0.565988	17.2414	0.842181	25.7618	0.166013	5.89527	0.426866	12.7626	0.702642	21.177	0.886595	26.544
0.286713	8.38118	0.038397	1.07613	0.285406	9.22504	0.449051	13.3067	0.566386	16.7774	0.842392	25.0542	0.167529	5.75859	0.427292	12.4291	0.702862	20.605	0.886805	25.8298
0.287108	8.17023	0.0400486	1.09386	0.285533	9.13094	0.449473	12.9614	0.566795	16.3385	0.842608	24.3849	0.169071	5.63123	0.427729	12.1135	0.703088	20.0636	0.887021	25.1535
0.287514	7.97046	0.0417167	1.11114	0.285708	9.0062	0.449906	12.6344	0.567215	15.923	0.842831	23.751	0.170637	5.51233	0.428178	11.8145	0.70332	19.5505	0.887243	24.5122
0.287931	7.78104	0.0434007	1.128	0.285933	8.85355	0.45035	12.3244	0.567645	15.5289	0.84306	23.1496	0.172226	5.4011	0.428637	11.5307	0.703559	19.0634	0.887471	23.9032
0.288358	7.60119	0.0450997	1.14445	0.28621	8.67619	0.450805	12.0301	0.568086	15.1547	0.843294	22.5784	0.173837	5.29686	0.429108	11.2612	0.703803	18.6004	0.887704	23.3242
0.288795	7.43023	0.0468131	1.16049	0.286542	8.47761	0.451271	11.7504	0.568538	14.799	0.843534	22.0352	0.175469	5.199	0.42959	11.0047	0.704053	18.1599	0.887943	22.7729
0.289243	7.26754	0.0485402	1.17614	0.286933	8.26146	0.451748	11.4842	0.569	14.4603	0.84378	21.5179	0.177121	5.10698	0.430083	10.7606	0.704309	17.7402	0.888187	22.2476
0.2897	7.11254	0.0502804	1.19141	0.287335	8.05689	0.452236	11.2306	0.569473	14.1376	0.844032	21.0248	0.178793	5.02031	0.430587	10.5278	0.704572	17.3398	0.888437	21.7464
0.290169	6.96472	0.0520331	1.20631	0.287747	7.86302	0.452734	10.9887	0.569957	13.8297	0.84429	20.5542	0.180483	4.93857	0.431103	10.3056	0.70484	16.9576	0.888693	21.2676
0.290647	6.82361	0.0537977	1.22085	0.288169	7.67905	0.453243	10.7578	0.570451	13.5357	0.844553	20.1046	0.18219	4.86136	0.431561	10.1201	0.705114	16.5923	0.888955	20.8099
0.291136	6.68878	0.0555738	1.23504	0.288602	7.50427	0.453763	10.5371	0.570955	13.2546	0.844823	19.6746	0.183915	4.78833	0.431958	9.96766	0.705394	16.2428	0.889222	20.3718
0.291635	6.55983	0.0573608	1.24889	0.289045	7.33802	0.454294	10.326	0.571471	12.9857	0.845098	19.2631	0.185655	4.71917	0.43229	9.84531	0.705681	15.9081	0.889495	19.9522
0.292144	6.4364	0.0591582	1.26242	0.289498	7.17971	0.454765	10.1495	0.571996	12.7282	0.845379	18.8688	0.187411	4.65359	0.432556	9.75088	0.705973	15.5873	0.889774	19.5499
0.292664	6.31815	0.0609655	1.27563	0.289962	7.02879	0.455172	10.004	0.572532	12.4813	0.845666	18.4906	0.189182	4.59134	0.432754	9.6827	0.706271	15.2796	0.890058	19.1638
0.293194	6.20479	0.0627823	1.28852	0.290436	6.88479	0.455514	9.88716	0.573078	12.2446	0.845959	18.1277	0.190967	4.53217	0.432881	9.63961	0.706576	14.9841	0.890348	18.7931
0.293734	6.09602	0.0646082	1.30112	0.29092	6.74726	0.455787	9.79686	0.573635	12.0172	0.846257	17.7792	0.192765	4.47588	0.433064	9.5784	0.706886	14.7002	0.890644	18.4367
0.294284	5.99158	0.0664429	1.31342	0.291415	6.61577	0.455989	9.7316	0.574202	11.7988	0.846562	17.4441	0.194576	4.42226	0.433265	9.51283	0.707202	14.4273	0.890945	18.094
0.294844	5.89124	0.0682859	1.32544	0.291919	6.48996	0.45612	9.69034	0.574779	11.5888	0.846872	17.1218	0.196399	4.37114	0.433541	9.42523	0.707524	14.1646	0.891252	17.7641
0.295415	5.79476	0.0701369	1.33719	0.292435	6.36947	0.456308	9.63169	0.575366	11.3867	0.847188	16.8115	0.198234	4.32236	0.433893	9.31695	0.707853	13.9117	0.891564	17.4464
0.295995	5.70194	0.0719955	1.34866	0.29296	6.254	0.456513	9.56883	0.575964	11.1922	0.847509	16.5126	0.200081	4.27576	0.434324	9.18964	0.708187	13.668	0.891882	17.1401
0.296586	5.61259	0.0738614	1.35988	0.293495	6.14325	0.456795	9.48477	0.576571	11.0048	0.847837	16.2245	0.201939	4.23121	0.434837	9.04512	0.708527	13.433	0.892206	16.8447
0.297187	5.52652	0.0757343	1.37085	0.294041	6.03694	0.457155	9.38077	0.577189	10.8241	0.84817	15.9465	0.203807	4.18858	0.435436	8.88538	0.708873	13.2063	0.892535	16.5596
0.297797	5.44356	0.0776139	1.38157	0.294597	5.93482	0.457596	9.25832	0.577817	10.6498	0.848509	15.6783	0.205685	4.14776	0.436046	8.73181	0.709225	12.9874	0.89287	16.2844
0.298418	5.36356	0.0794999	1.39206	0.295163	5.83667	0.45812	9.11913	0.578455	10.4815	0.848854	15.4192	0.207572	4.10863	0.436667	8.58408	0.709583	12.776	0.893211	16.0184
0.299049	5.28638	0.0813921	1.40232	0.295739	5.74227	0.458731	8.96503	0.579019	10.3396	0.849204	15.1688	0.209469	4.0711	0.437298	8.44188	0.709947	12.5717	0.893557	15.7612
0.29969	5.21187	0.0832903	1.41235	0.296325	5.65142	0.459353	8.81664	0.579506	10.222	0.849561	14.9268	0.211375	4.03507	0.43794	8.30489	0.710317	12.3741	0.893908	15.5125
0.300341	5.13991	0.085194	1.42216	0.296921	5.56393	0.459985	8.67366	0.579912	10.1269	0.849923	14.6926	0.213289	4.00046	0.438592	8.17287	0.710692	12.1829	0.894266	15.2718
0.301002	5.07038	0.0871033	1.43176	0.297528	5.47962	0.460627	8.53581	0.580236	10.0532	0.85029	14.466	0.215212	3.9672	0.439255	8.04553	0.711074	11.9978	0.894628	15.0387
0.301673	5.00316	0.0890177	1.44116	0.298144	5.39835	0.461279	8.40281	0.580476	9.99966	0.850664	14.2465	0.217142	3.9352	0.439928	7.92267	0.711462	11.8186	0.894997	14.8129
0.302354	4.93815	0.0909371	1.45036	0.298771	5.31995	0.461941	8.27444	0.58063	9.96576	0.851043	14.0339	0.21908	3.90439	0.440612	7.80404	0.711855	11.6449	0.895371	14.594
0.303045	4.87525	0.0928613	1.45936	0.299408	5.24428	0.462613	8.15046	0.580853	9.91747	0.851428	13.8278	0.221025	3.87472	0.441306	7.68944	0.712255	11.4765	0.89575	14.3818
0.303746	4.81437	0.0947902	1.46818	0.300054	5.17121	0.463295	8.03066	0.581096	9.86557	0.851818	13.6279	0.222978	3.84613	0.442011	7.57868	0.71266	11.3132	0.896135	14.1759
0.304457	4.75541	0.0967235	1.47681	0.300711	5.10063	0.463987	7.91483	0.581429	9.79595	0.852215	13.434	0.224937	3.81855	0.442726	7.47158	0.713071	11.1547	0.896525	13.9761
0.305085	4.70554	0.098661	1.48527	0.301377	5.03241	0.464689	7.8028	0.581852	9.70947	0.852617	13.2458	0.226902	3.79194	0.443451	7.36797	0.713488	11.0009	0.896921	13.7821
0.305626	4.66409	0.100603	1.49355	0.302054	4.96644	0.465401	7.69438	0.58237	9.60715	0.853024	13.0631	0.228874	3.76625	0.444186	7.26768	0.713911	10.8515	0.897323	13.5937
0.306077	4.63054	0.102548	1.50166	0.302741	4.90263	0.466123	7.5894	0.582984	9.49017	0.853438	12.8856	0.230852	3.74144	0.444932	7.17057	0.71434	10.7064	0.89773	13.4106
0.306437	4.60445	0.104497	1.50961	0.303437	4.84087	0.466854	7.48772	0.583698	9.35983	0.853857	12.713	0.232835	3.71745	0.445687	7.07649	0.714718	10.5833	0.898142	13.2326
0.306702	4.58552	0.10645	1.5174	0.304144	4.78107	0.467596	7.38919	0.584421	9.23348	0.854281	12.5453	0.234825	3.69426	0.446453	6.98532	0.715044	10.4807	0.89856	13.0595
0.306873	4.57351	0.108407	1.52503	0.30486	4.72316	0.468346	7.29367	0.585154	9.11094	0.854712	12.3822	0.236819	3.67182	0.447229	6.89691	0.715316	10.3975	0.898984	12.891
0.30712	4.5564	0.110367	1.53251	0.305586	4.66705	0.469107	7.20103	0.585896	8.99206	0.855148	12.2236	0.238819	3.6501	0.448014	6.81117	0.715533	10.3327	0.899413	12.7272
0.307389	4.53799	0.112329	1.53985	0.306323	4.61266	0.469876	7.11114	0.586648	8.87667	0.855589	12.0692	0.240824	3.62906	0.44881	6.72796	0.715693	10.2856	0.899847	12.5676
0.307757	4.51327	0.114043	1.54612	0.307069	4.55992	0.470656	7.0239	0.58741	8.76463	0.856036	11.9188	0.242834	3.60868	0.449616	6.6472	0.715796	10.2557	0.900287	12.4122
0.308226	4.48252	0.115505	1.55139	0.307825	4.50876	0.471445	6.93919	0.588181	8.6558	0.856489	11.7724	0.244848	3.58893	0.450431	6.56878	0.715945	10.213	0.900732	12.2609
0.308798	4.44609	0.116715	1.55569	0.308591	4.45913	0.472243	6.8569	0.588961	8.55006	0.856948	11.6298	0.246867	3.56977	0.451256	6.49259	0.716107	10.1671	0.901183	12.1134
0.309476	4.40436	0.117673	1.55905	0.309367	4.41096	0.47305	6.77695	0.589751	8.44727	0.857412	11.4908	0.248891	3.55119	0.452091	6.41857	0.716328	10.1053	0.901639	11.9696
0.310263	4.35778	0.118377	1.5615	0.310153	4.36419	0.473867	6.69923	0.590549	8.34731	0.857882	11.3553	0.250918	3.53315	0.452936	6.34661	0.716611	10.0283	0.9021	11.8294
0.31106	4.31254	0.118829	1.56306	0.310948	4.31876	0.474693	6.62366	0.591358	8.25009	0.858357	11.2232	0.25295	3.51563	0.45379	6.27664	0.716955	9.93687	0.902567	11.6927
0.311867	4.26859	0.119477	1.56529	0.311754	4.27464	0.475528	6.55016	0.592175	8.15549	0.858838	11.0943	0.254985	3.49862	0.454654	6.20858	0.717363	9.83189	0.903039	11.5593
0.312683	4.22588	0.120183	1.5677	0.312569	4.23176	0.476372	6.47864	0.593002	8.0634	0.859324	10.9686	0.257025	3.48209	0.455528	6.14236	0.717837	9.71433	0.903517	11.4291
0.31351	4.18437	0.121143	1.57095	0.313394	4.19008	0.477226	6.40904	0.593837	7.97375	0.859753	10.8615	0.259068	3.46602	0.456411	6.07791	0.718316	9.59978	0.904	11.302
0.314347	4.144	0.122358	1.57502	0.31423	4.14955	0.478088	6.34128	0.594682	7.88643	0.860121	10.772	0.261115	3.45039	0.457303	6.01516	0.718802	9.48813	0.904488	11.1779
0.315193	4.10474	0.123829	1.57987	0.315075	4.11014	0.478959	6.27528	0.595536	7.80136	0.860428	10.6991	0.263165	3.43519	0.458205	5.95406	0.719293	9.37926	0.904982	11.0567
0.31605	4.06655	0.125556	1.58548	0.31593	4.07181	0.479839	6.211	0.596399	7.71846	0.860672	10.6423	0.265218	3.42039	0.459117	5.89454	0.719789	9.27308	0.905417	10.9534
0.316916	4.0294	0.12754	1.59181	0.316795	4.03451	0.480728	6.14836	0.59727	7.63765	0.860853	10.6009	0.267275	3.40599	0.460037	5.83654	0.720292	9.16949	0.90579	10.8669
0.317792	3.99324	0.129526	1.59802	0.31767	3.99821	0.481626	6.0873	0.598151	7.55885	0.860969	10.5746	0.269334	3.39197	0.460967	5.78002	0.7208	9.06841	0.906101	10.7965
0.318678	3.95803	0.131514	1.60411	0.318554	3.96288	0.482533	6.02778	0.59904	7.482	0.861136	10.537	0.271397	3.37831	0.461906	5.72491	0.721315	8.96974	0.906349	10.7415
0.319575	3.92376	0.133505	1.61009	0.319449	3.92848	0.483448	5.96973	0.599938	7.40702	0.861318	10.4965	0.273463	3.36499	0.462855	5.67118	0.721835	8.8734	0.906532	10.7015
0.320481	3.89038	0.135498	1.61597	0.320354	3.89498	0.484372	5.91311	0.600845	7.33385	0.861567	10.4419	0.275531	3.35201	0.463812	5.61877	0.72236	8.77931	0.906649	10.676
0.321397	3.85787	0.137492	1.62174	0.321269	3.86235	0.485304	5.85786	0.601761	7.26244	0.861884	10.3738	0.277602	3.33936	0.464779	5.56764	0.722891	8.68739	0.906818	10.6397
0.322323	3.8262	0.139489	1.6274	0.322193	3.83056	0.486245	5.80395	0.602685	7.19272	0.86227	10.2927	0.279676	3.32702	0.465754	5.51774	0.723429	8.59758	0.907003	10.6005
0.323259	3.79534	0.141487	1.63296	0.323128	3.79958	0.487194	5.75132	0.603618	7.12463	0.862726	10.1993	0.281752	3.31498	0.466739	5.46904	0.723971	8.50981	0.907255	10.5476
0.324206	3.76526	0.143487	1.63843	0.324073	3.7694	0.488152	5.69993	0.604559	7.05812	0.863255	10.0944	0.283831	3.30322	0.467733	5.42149	0.72452	8.424	0.907575	10.4816
0.325162	3.73594	0.145489	1.6438	0.325028	3.73998	0.489118	5.64975	0.605509	6.99314	0.86379	9.99179	0.285912	3.29175	0.468735	5.37507	0.725074	8.34009	0.907965	10.403
0.326129	3.70736	0.147492	1.64907	0.325994	3.7113	0.490092	5.60073	0.606467	6.92964	0.86433	9.89144	0.287996	3.28055	0.469746	5.32972	0.725634	8.25803	0.908427	10.3123
0.327106	3.6795	0.149497	1.65426	0.326969	3.68333	0.491075	5.55284	0.607434	6.86758	0.864875	9.79326	0.290081	3.26961	0.470767	5.28542	0.726199	8.17776	0.908961	10.2104
0.328093	3.65232	0.151504	1.65935	0.327955	3.65607	0.492066	5.50603	0.608409	6.8069	0.865426	9.6972	0.292169	3.25892	0.471795	5.24214	0.726771	8.09922	0.909501	10.1106
0.32909	3.62582	0.153512	1.66436	0.328951	3.62947	0.493065	5.46029	0.609392	6.74757	0.865982	9.60318	0.294259	3.24847	0.472833	5.19984	0.727348	8.02235	0.910046	10.013
0.330098	3.59997	0.155521	1.66929	0.329957	3.60353	0.494072	5.41556	0.610384	6.68954	0.866544	9.51114	0.296351	3.23825	0.473879	5.15849	0.72793	7.94711	0.910597	9.91738
0.331117	3.57476	0.157532	1.67413	0.330974	3.57823	0.495087	5.37183	0.611383	6.63277	0.867112	9.42102	0.298444	3.22827	0.474934	5.11807	0.728518	7.87345	0.911152	9.82375
0.332145	3.55015	0.159544	1.67888	0.332001	3.55354	0.49611	5.32906	0.612391	6.57722	0.867684	9.33277	0.30054	3.2185	0.475997	5.07854	0.729112	7.80131	0.911713	9.73204
0.333185	3.52615	0.161557	1.68356	0.333039	3.52945	0.497141	5.28722	0.613407	6.52286	0.868262	9.24633	0.302638	3.20894	0.477069	5.03987	0.729712	7.73066	0.912279	9.64218
0.334235	3.50272	0.163571	1.68816	0.334088	3.50595	0.498179	5.24628	0.614431	6.46965	0.868846	9.16164	0.304737	3.19959	0.47815	5.00205	0.730317	7.66145	0.91285	9.55414
0.335296	3.47986	0.165587	1.69269	0.335147	3.48301	0.499226	5.20622	0.615463	6.41756	0.869435	9.07866	0.306838	3.19044	0.479239	4.96505	0.730927	7.59363	0.913426	9.46784
0.336367	3.45755	0.167603	1.69714	0.336217	3.46062	0.50028	5.16701	0.616504	6.36655	0.870029	8.99734	0.30894	3.18148	0.480336	4.92884	0.731544	7.52718	0.914008	9.38325
0.33745	3.43577	0.169621	1.70152	0.337298	3.43877	0.501342	5.12863	0.617551	6.3166	0.870629	8.91762	0.311045	3.17271	0.481441	4.8934	0.732165	7.46204	0.914594	9.30032
0.338543	3.41452	0.17164	1.70583	0.33839	3.41745	0.502412	5.09105	0.618607	6.26767	0.871234	8.83946	0.31315	3.16412	0.482555	4.85872	0.732793	7.39818	0.915186	9.219
0.339648	3.39377	0.173659	1.71006	0.339494	3.39663	0.503489	5.05425	0.619671	6.21973	0.871845	8.76282	0.315257	3.1557	0.483677	4.82475	0.733426	7.33557	0.915783	9.13923
0.340764	3.37351	0.17568	1.71423	0.340608	3.3763	0.504574	5.0182	0.620742	6.17276	0.87246	8.68765	0.317366	3.14745	0.484808	4.7915	0.734064	7.27418	0.916385	9.06099
0.341891	3.35374	0.177702	1.71834	0.341734	3.35646	0.505667	4.98289	0.621821	6.12673	0.873081	8.61392	0.319476	3.13937	0.485946	4.75893	0.734709	7.21396	0.916992	8.98423
0.34303	3.33444	0.179724	1.72238	0.342871	3.3371	0.506766	4.9483	0.622908	6.08161	0.873708	8.54159	0.321587	3.13145	0.487093	4.72702	0.735358	7.15488	0.917604	8.90891
0.344181	3.31559	0.181747	1.72635	0.34402	3.31819	0.507873	4.9144	0.624003	6.03738	0.87434	8.47061	0.323699	3.12368	0.488247	4.69577	0.736014	7.09692	0.918222	8.83498
0.345343	3.2972	0.183771	1.73026	0.345181	3.29973	0.508988	4.88118	0.625104	5.994	0.874977	8.40095	0.325813	3.11606	0.48941	4.66515	0.736674	7.04005	0.918844	8.76242
0.346518	3.27924	0.185796	1.73412	0.346353	3.28171	0.51011	4.84862	0.626214	5.95147	0.875619	8.33258	0.327928	3.10858	0.49058	4.63514	0.737341	6.98423	0.919472	8.69118
0.347704	3.26171	0.187822	1.73791	0.347538	3.26413	0.511239	4.81669	0.627331	5.90976	0.876267	8.26546	0.330044	3.10125	0.491759	4.60573	0.738012	6.92944	0.920104	8.62124
0.348903	3.2446	0.189848	1.74164	0.348735	3.24696	0.512375	4.78539	0.628455	5.86884	0.87692	8.19956	0.332161	3.09406	0.492945	4.57691	0.73869	6.87565	0.920742	8.55255
0.350114	3.2279	0.191875	1.74532	0.349945	3.2302	0.513518	4.75469	0.629587	5.8287	0.877578	8.13485	0.334279	3.087	0.494139	4.54864	0.739372	6.82283	0.921385	8.48508
0.351339	3.2116	0.193902	1.74894	0.351167	3.21384	0.514668	4.72459	0.630726	5.78931	0.878241	8.07129	0.336398	3.08006	0.495341	4.52094	0.74006	6.77097	0.922032	8.41882
0.352576	3.19569	0.195931	1.75251	0.352403	3.19788	0.515826	4.69505	0.631872	5.75065	0.87891	8.00886	0.338518	3.07326	0.496551	4.49376	0.740754	6.72003	0.922685	8.35371
0.353826	3.18017	0.197959	1.75602	0.353651	3.1823	0.51699	4.66608	0.633026	5.71271	0.879584	7.94753	0.340639	3.06657	0.497768	4.46712	0.741453	6.67	0.923343	8.28974
0.35509	3.16502	0.199989	1.75948	0.354913	3.16711	0.518161	4.63765	0.634187	5.67546	0.880263	7.88726	0.34276	3.06001	0.498994	4.44098	0.742158	6.62085	0.924005	8.22687
0.356367	3.15025	0.202019	1.76289	0.356189	3.15228	0.519339	4.60976	0.635355	5.6389	0.880948	7.82805	0.344883	3.05356	0.500226	4.41534	0.742868	6.57255	0.924673	8.16508
0.357659	3.13583	0.204049	1.76625	0.357478	3.13782	0.520524	4.58238	0.63653	5.60299	0.881637	7.76985	0.347006	3.04722	0.501467	4.39018	0.743583	6.52509	0.925345	8.10435
0.358964	3.12178	0.20608	1.76956	0.358782	3.12372	0.521716	4.55551	0.637712	5.56774	0.882332	7.71264	0.34913	3.041	0.502714	4.3655	0.744304	6.47845	0.926023	8.04464
0.360284	3.10808	0.208111	1.77282	0.3601	3.10996	0.522914	4.52912	0.638901	5.53311	0.883032	7.65641	0.351255	3.03487	0.50397	4.34127	0.74503	6.43261	0.926706	7.98593
0.361619	3.09472	0.210143	1.77603	0.361432	3.09656	0.524119	4.50322	0.640096	5.4991	0.883737	7.60112	0.353381	3.02886	0.505232	4.3175	0.745762	6.38754	0.927393	7.9282
0.362969	3.0817	0.212176	1.7792	0.36278	3.08349	0.525331	4.47779	0.641299	5.46568	0.884448	7.54675	0.355507	3.02294	0.506503	4.29416	0.746499	6.34323	0.928085	7.87142
0.364334	3.06901	0.214208	1.78232	0.364143	3.07076	0.526549	4.45281	0.642509	5.43285	0.885163	7.49328	0.357634	3.01712	0.50778	4.27126	0.747241	6.29967	0.928782	7.81558
0.365715	3.05666	0.216241	1.78539	0.365522	3.05836	0.527774	4.42828	0.643726	5.40059	0.885884	7.4407	0.359761	3.0114	0.509065	4.24877	0.747989	6.25683	0.929485	7.76064
0.367112	3.04462	0.218275	1.78842	0.366917	3.04628	0.529005	4.40418	0.644949	5.36889	0.886609	7.38897	0.361889	3.00577	0.510357	4.22668	0.748742	6.21469	0.930192	7.70659
0.368526	3.03291	0.220309	1.79141	0.368328	3.03452	0.530243	4.3805	0.646179	5.33773	0.88734	7.33808	0.364017	3.00023	0.511656	4.205	0.749501	6.17325	0.930903	7.65341
0.369956	3.02152	0.222343	1.79436	0.369756	3.02308	0.531487	4.35724	0.647415	5.3071	0.888076	7.28802	0.366146	2.99478	0.512963	4.1837	0.750264	6.13248	0.93162	7.60108
0.371404	3.01043	0.224377	1.79726	0.371201	3.01195	0.532737	4.33439	0.648659	5.27699	0.888817	7.23875	0.368275	2.98941	0.514277	4.16278	0.751034	6.09237	0.932342	7.54958
0.372868	2.99965	0.226412	1.80013	0.372663	3.00113	0.533994	4.31192	0.649909	5.24738	0.889563	7.19027	0.370405	2.98413	0.515597	4.14224	0.751808	6.05291	0.933068	7.49889
0.374351	2.98917	0.228447	1.80295	0.374144	2.99061	0.535257	4.28985	0.651165	5.21827	0.890314	7.14255	0.372535	2.97893	0.516925	4.12205	0.752588	6.01407	0.933799	7.44899
0.375852	2.97899	0.230482	1.80574	0.375642	2.98039	0.536526	4.26815	0.652428	5.18964	0.891071	7.09558	0.374665	2.97381	0.51826	4.10222	0.753373	5.97585	0.934535	7.39986
0.377371	2.96911	0.232518	1.80848	0.377159	2.97047	0.537801	4.24681	0.653697	5.16149	0.891832	7.04934	0.376796	2.96876	0.519602	4.08273	0.754163	5.93823	0.935276	7.35149
0.37891	2.95952	0.234554	1.81119	0.378694	2.96084	0.539082	4.22584	0.654973	5.13379	0.892598	7.00382	0.378926	2.9638	0.520951	4.06358	0.754959	5.90121	0.936021	7.30386
0.380467	2.95022	0.23659	1.81387	0.380249	2.95149	0.540369	4.20522	0.656255	5.10655	0.89337	6.959	0.381058	2.9589	0.522307	4.04476	0.755759	5.86475	0.936772	7.25696
0.382044	2.9412	0.238626	1.8165	0.381823	2.94243	0.541662	4.18494	0.657543	5.07975	0.894146	6.91486	0.383189	2.95408	0.52367	4.02627	0.756565	5.82887	0.937527	7.21076
0.383641	2.93246	0.240662	1.8191	0.383417	2.93366	0.542962	4.165	0.658838	5.05338	0.894927	6.87139	0.385321	2.94933	0.525039	4.00808	0.757377	5.79353	0.938287	7.16526
0.385258	2.92399	0.242699	1.82167	0.385032	2.92515	0.544267	4.14538	0.660138	5.02743	0.895714	6.82858	0.387452	2.94465	0.526416	3.99021	0.758193	5.75873	0.939051	7.12044
0.386895	2.9158	0.244736	1.8242	0.386666	2.91692	0.545578	4.12609	0.661445	5.00189	0.896505	6.78641	0.389584	2.94003	0.527799	3.97264	0.759015	5.72447	0.93982	7.07628
0.388553	2.90788	0.246773	1.82669	0.388321	2.90896	0.546895	4.10711	0.662759	4.97675	0.897301	6.74487	0.391716	2.93548	0.529189	3.95536	0.759842	5.69071	0.940594	7.03277
0.390232	2.90022	0.24881	1.82916	0.389997	2.90127	0.548217	4.08843	0.664078	4.95201	0.898103	6.70394	0.393848	2.93099	0.530585	3.93838	0.760674	5.65747	0.941373	6.9899
0.391932	2.89282	0.250847	1.83159	0.391694	2.89384	0.549546	4.07006	0.665403	4.92766	0.898909	6.66362	0.39598	2.92657	0.531989	3.92167	0.761511	5.62472	0.942156	6.94765
0.393653	2.88568	0.252884	1.83399	0.393412	2.88666	0.550879	4.05198	0.666734	4.90369	0.89972	6.62388	0.398112	2.9222	0.533399	3.90524	0.762354	5.59246	0.942944	6.90601
0.395395	2.87879	0.254922	1.83636	0.395151	2.87973	0.552219	4.03419	0.668071	4.88008	0.900536	6.58472	0.400244	2.9179	0.534815	3.88908	0.763201	5.56067	0.943737	6.86497
0.397159	2.87214	0.256959	1.83869	0.396912	2.87306	0.553564	4.01667	0.669414	4.85684	0.901357	6.54613	0.402376	2.91365	0.536238	3.87319	0.764054	5.52935	0.944534	6.82452
0.398943	2.86574	0.258997	1.841	0.398694	2.86662	0.554915	3.99944	0.670763	4.83395	0.902183	6.50809	0.404508	2.90946	0.537668	3.85756	0.764912	5.49848	0.945336	6.78464
0.400749	2.85958	0.261034	1.84328	0.400497	2.86042	0.556271	3.98247	0.672118	4.8114	0.903014	6.47059	0.40664	2.90532	0.539104	3.84218	0.765775	5.46806	0.946142	6.74533
0.402577	2.85364	0.263072	1.84552	0.402321	2.85446	0.557633	3.96577	0.673478	4.7892	0.903849	6.43363	0.408772	2.90124	0.540546	3.82705	0.766643	5.43808	0.946953	6.70656
0.404425	2.84794	0.26511	1.84774	0.404166	2.84872	0.559	3.94932	0.674845	4.76733	0.90469	6.39719	0.410904	2.89721	0.541995	3.81216	0.767516	5.40853	0.947769	6.66834
0.406294	2.84245	0.267148	1.84993	0.406032	2.8432	0.560373	3.93313	0.676217	4.74579	0.905535	6.36126	0.413035	2.89324	0.543451	3.79751	0.768394	5.37941	0.948589	6.63064
0.408184	2.83718	0.269186	1.8521	0.407919	2.8379	0.561751	3.91718	0.677594	4.72456	0.906385	6.32583	0.415166	2.88931	0.544912	3.78309	0.769278	5.35069	0.949414	6.59347
0.410094	2.83211	0.271223	1.85423	0.409827	2.83281	0.563134	3.90148	0.678977	4.70365	0.90724	6.29089	0.417297	2.88543	0.54638	3.76891	0.770166	5.32238	0.950243	6.5568
0.412024	2.82725	0.273261	1.85634	0.411754	2.82792	0.564522	3.88602	0.680366	4.68305	0.9081	6.25643	0.419428	2.8816	0.547855	3.75494	0.77106	5.29446	0.951077	6.52063
0.413974	2.82259	0.275299	1.85842	0.413701	2.82323	0.565916	3.87079	0.68176	4.66274	0.908965	6.22245	0.421559	2.87782	0.549335	3.7412	0.771958	5.26694	0.951915	6.48496
0.415943	2.81811	0.277337	1.86048	0.415668	2.81873	0.567315	3.85578	0.68316	4.64273	0.909834	6.18892	0.423689	2.87408	0.550822	3.72767	0.772862	5.23979	0.952758	6.44976
0.417932	2.81382	0.279375	1.86251	0.417654	2.81441	0.568719	3.841	0.684565	4.62301	0.910708	6.15586	0.425819	2.87039	0.552315	3.71436	0.773771	5.21303	0.953606	6.41504
0.419938	2.80971	0.281413	1.86451	0.419658	2.81027	0.570128	3.82644	0.685976	4.60357	0.911587	6.12324	0.427949	2.86674	0.553814	3.70125	0.774684	5.18662	0.954457	6.38077
0.421963	2.80576	0.283451	1.86649	0.42168	2.8063	0.571542	3.81209	0.687392	4.58441	0.912471	6.09105	0.430078	2.86313	0.555319	3.68834	0.775603	5.16058	0.955314	6.34697
0.424005	2.80199	0.285489	1.86845	0.42372	2.8025	0.572961	3.79796	0.688813	4.56552	0.91336	6.0593	0.432207	2.85957	0.556831	3.67563	0.776526	5.1349	0.956174	6.3136
0.426065	2.79837	0.287526	1.87038	0.425777	2.79886	0.574386	3.78403	0.69024	4.54689	0.914253	6.02797	0.434336	2.85605	0.558348	3.66312	0.777455	5.10956	0.95704	6.28068
0.428141	2.7949	0.289564	1.87229	0.427851	2.79537	0.575815	3.7703	0.691672	4.52853	0.915151	5.99705	0.436464	2.85256	0.559871	3.6508	0.778389	5.08456	0.957909	6.24818
0.430233	2.79157	0.291602	1.87417	0.42994	2.79203	0.577249	3.75677	0.693109	4.51043	0.916053	5.96653	0.438591	2.84912	0.561401	3.63867	0.779327	5.0599	0.958783	6.21611
0.43234	2.78839	0.29364	1.87603	0.432046	2.78883	0.578687	3.74344	0.694551	4.49257	0.916961	5.93642	0.440718	2.84572	0.562936	3.62672	0.78027	5.03556	0.959662	6.18444
0.434462	2.78534	0.295677	1.87787	0.434166	2.78576	0.580131	3.7303	0.695998	4.47497	0.917873	5.90669	0.442845	2.84235	0.564478	3.61495	0.781219	5.01155	0.960544	6.15319
0.436599	2.78242	0.297715	1.87969	0.4363	2.78282	0.58158	3.71734	0.697451	4.4576	0.918789	5.87736	0.444971	2.83902	0.566025	3.60336	0.782172	4.98785	0.961432	6.12233
0.438749	2.77962	0.299752	1.88149	0.438449	2.78	0.583033	3.70457	0.698908	4.44048	0.919711	5.84839	0.447097	2.83572	0.567578	3.59194	0.78313	4.96447	0.962323	6.09186
0.440913	2.77694	0.30179	1.88326	0.440611	2.7773	0.584491	3.69198	0.700371	4.42358	0.920637	5.8198	0.449222	2.83246	0.569137	3.5807	0.784093	4.94138	0.963219	6.06178
0.443089	2.77436	0.303827	1.88502	0.442785	2.77472	0.585954	3.67956	0.701838	4.40692	0.921568	5.79157	0.451347	2.82924	0.570702	3.56962	0.785061	4.9186	0.964119	6.03208
0.445278	2.7719	0.305864	1.88675	0.444972	2.77223	0.587421	3.66732	0.70331	4.39048	0.922503	5.7637	0.453471	2.82605	0.572272	3.5587	0.786034	4.89612	0.965024	6.00275
0.447478	2.76953	0.307901	1.88846	0.447171	2.76986	0.588893	3.65525	0.704788	4.37426	0.923443	5.73619	0.455594	2.82289	0.573849	3.54795	0.787012	4.87392	0.965932	5.97378
0.44969	2.76726	0.309938	1.89015	0.449381	2.76757	0.590369	3.64334	0.70627	4.35825	0.924387	5.70901	0.457717	2.81976	0.575431	3.53735	0.787994	4.85201	0.966846	5.94517
0.451913	2.76509	0.311975	1.89183	0.451602	2.76538	0.59185	3.6316	0.707757	4.34246	0.925336	5.68218	0.459839	2.81667	0.577019	3.52691	0.788982	4.83038	0.967763	5.91691
0.454145	2.763	0.314012	1.89348	0.453834	2.76328	0.593336	3.62002	0.709249	4.32688	0.92629	5.65568	0.46196	2.81361	0.578612	3.51663	0.789974	4.80903	0.968685	5.889
0.456388	2.76099	0.316048	1.89511	0.456075	2.76127	0.594826	3.6086	0.710745	4.31151	0.927248	5.6295	0.464081	2.81057	0.580212	3.50649	0.790971	4.78794	0.969611	5.86143
0.45864	2.75906	0.318085	1.89673	0.458326	2.75933	0.59632	3.59733	0.712246	4.29633	0.928211	5.60365	0.4662	2.80757	0.581816	3.4965	0.791973	4.76712	0.970541	5.8342
0.460901	2.75721	0.320121	1.89833	0.460586	2.75747	0.597819	3.58622	0.713752	4.28135	0.929178	5.57812	0.46832	2.8046	0.583427	3.48666	0.792979	4.74656	0.971475	5.80729
0.463171	2.75543	0.322157	1.8999	0.462854	2.75568	0.599322	3.57525	0.715263	4.26657	0.93015	5.55289	0.470438	2.80165	0.585043	3.47696	0.793991	4.72625	0.972414	5.7807
0.465449	2.75372	0.324194	1.90146	0.465131	2.75395	0.60083	3.56443	0.716778	4.25197	0.931127	5.52797	0.472556	2.79873	0.586664	3.46739	0.795007	4.7062	0.973356	5.75444
0.467734	2.75207	0.32623	1.90301	0.467416	2.7523	0.602342	3.55376	0.718297	4.23757	0.932108	5.50336	0.474673	2.79584	0.588291	3.45797	0.796028	4.6864	0.974303	5.72848
0.470027	2.75049	0.328265	1.90453	0.469708	2.7507	0.603858	3.54323	0.719821	4.22335	0.933093	5.47903	0.476789	2.79298	0.589924	3.44868	0.797054	4.66684	0.975255	5.70283
0.472328	2.74896	0.330301	1.90604	0.472007	2.74917	0.605379	3.53284	0.72135	4.20931	0.934083	5.455	0.478904	2.79014	0.591562	3.43952	0.798084	4.64752	0.97621	5.67749
0.474635	2.74749	0.332337	1.90753	0.474313	2.74769	0.606903	3.52258	0.722883	4.19544	0.935077	5.43126	0.481019	2.78733	0.593205	3.43049	0.799119	4.62843	0.977169	5.65244
0.476948	2.74607	0.334372	1.909	0.476626	2.74627	0.608432	3.51246	0.724421	4.18175	0.936076	5.4078	0.483132	2.78455	0.594854	3.42159	0.800159	4.60958	0.978133	5.62768
0.479268	2.7447	0.336407	1.91046	0.478945	2.74489	0.609965	3.50247	0.725963	4.16824	0.937079	5.38461	0.485245	2.78179	0.596508	3.41281	0.801203	4.59096	0.979101	5.60321
0.481594	2.74339	0.338442	1.9119	0.48127	2.74357	0.611502	3.49261	0.727509	4.15489	0.938087	5.36169	0.487357	2.77905	0.598168	3.40416	0.802253	4.57256	0.980072	5.57903
0.483925	2.74211	0.340477	1.91333	0.4836	2.74229	0.613043	3.48288	0.72906	4.14171	0.939099	5.33905	0.489467	2.77634	0.599832	3.39563	0.803306	4.55438	0.981048	5.55512
0.486262	2.74088	0.342512	1.91474	0.485936	2.74105	0.614588	3.47327	0.730615	4.12869	0.940116	5.31667	0.491577	2.77365	0.601503	3.38722	0.804365	4.53642	0.982028	5.53149
0.488604	2.7397	0.344546	1.91613	0.488277	2.73986	0.616138	3.46379	0.732174	4.11583	0.941137	5.29454	0.493686	2.77098	0.603178	3.37893	0.805428	4.51867	0.983012	5.50813
0.49095	2.73855	0.346581	1.91751	0.490623	2.7387	0.617691	3.45443	0.733737	4.10313	0.942162	5.27267	0.495794	2.76833	0.604859	3.37075	0.806496	4.50113	0.984	5.48503
0.493302	2.73744	0.348615	1.91887	0.492974	2.73759	0.619248	3.44519	0.735305	4.09058	0.943192	5.25106	0.497901	2.76571	0.606545	3.36269	0.807568	4.48381	0.984993	5.46219
0.495658	2.73636	0.350649	1.92022	0.495329	2.73651	0.620809	3.43606	0.736877	4.07819	0.944226	5.22969	0.500008	2.76311	0.608236	3.35474	0.808646	4.46668	0.985989	5.43961
0.498018	2.73532	0.352683	1.92155	0.497689	2.73546	0.622374	3.42705	0.738452	4.06594	0.945264	5.20856	0.502113	2.76053	0.609932	3.34689	0.809727	4.44975	0.986989	5.41728
0.500382	2.73431	0.354717	1.92287	0.500052	2.73445	0.623943	3.41816	0.740032	4.05385	0.946307	5.18767	0.504217	2.75797	0.611634	3.33916	0.810814	4.43303	0.987993	5.3952
0.50275	2.73334	0.35675	1.92418	0.50242	2.73347	0.625516	3.40937	0.741616	4.0419	0.947354	5.16702	0.50632	2.75543	0.61334	3.33153	0.811904	4.41649	0.989001	5.37337
0.505122	2.73239	0.358783	1.92547	0.504791	2.73252	0.627093	3.40069	0.743204	4.03009	0.948405	5.14661	0.508422	2.75291	0.615052	3.324	0.813	4.40015	0.990013	5.35178
0.507497	2.73147	0.360816	1.92674	0.507166	2.7316	0.628673	3.39213	0.744797	4.01842	0.949461	5.12642	0.510523	2.75041	0.616769	3.31658	0.8141	4.384	0.99103	5.33043
0.509875	2.73058	0.362849	1.92801	0.509544	2.73071	0.630257	3.38366	0.746392	4.00689	0.950521	5.10645	0.512622	2.74793	0.61849	3.30926	0.815204	4.36803	0.99205	5.30931
0.512257	2.72972	0.364882	1.92926	0.511925	2.72984	0.631845	3.37531	0.747992	3.99549	0.951586	5.08671	0.514721	2.74547	0.620217	3.30204	0.816313	4.35225	0.993074	5.28842
0.514642	2.72888	0.366914	1.93049	0.51431	2.729	0.633437	3.36705	0.749596	3.98423	0.952654	5.06718	0.516819	2.74303	0.621949	3.29492	0.817427	4.33664	0.994102	5.26775
0.51703	2.72806	0.368946	1.93172	0.516697	2.72818	0.635032	3.3589	0.751204	3.9731	0.953727	5.04787	0.518915	2.7406	0.623686	3.28789	0.818545	4.32121	0.995133	5.24732
0.51942	2.72727	0.370978	1.93293	0.519087	2.72738	0.636631	3.35084	0.752815	3.9621	0.954804	5.02878	0.521011	2.73819	0.625428	3.28096	0.819668	4.30596	0.996169	5.2271
0.521814	2.7265	0.37301	1.93412	0.52148	2.7266	0.638234	3.34288	0.754431	3.95122	0.955885	5.00989	0.523105	2.7358	0.627174	3.27412	0.820795	4.29088	0.997209	5.2071
0.52421	2.72575	0.375042	1.93531	0.523876	2.72585	0.63984	3.33502	0.75605	3.94048	0.956971	4.99121	0.525198	2.73343	0.628926	3.26737	0.821926	4.27597	0.998252	5.18731
0.526608	2.72502	0.377073	1.93648	0.526274	2.72512	0.64145	3.32726	0.757672	3.92985	0.958061	4.97273	0.52729	2.73108	0.630682	3.26071	0.823063	4.26123	0.9993	5.16773
0.529008	2.7243	0.379104	1.93764	0.528674	2.7244	0.643064	3.31958	0.759299	3.91935	0.959155	4.95444	0.529381	2.72874	0.632443	3.25414	0.824203	4.24665	1.00035	5.14836
0.531411	2.72361	0.381136	1.93879	0.531076	2.72371	0.644681	3.312	0.760929	3.90896	0.960253	4.93636	0.53147	2.72641	0.634209	3.24766	0.825348	4.23223		
0.533816	2.72293	0.383166	1.93993	0.533481	2.72303	0.646301	3.30451	0.762563	3.8987	0.961355	4.91847	0.533558	2.72411	0.63598	3.24126	0.826497	4.21797		
0.536223	2.72227	0.385197	1.94105	0.535888	2.72236	0.647926	3.29711	0.764201	3.88855	0.962462	4.90077	0.535646	2.72182	0.637756	3.23495	0.827651	4.20387		
0.538632	2.72163	0.387227	1.94216	0.538296	2.72172	0.649553	3.28979	0.765842	3.87851	0.963573	4.88326	0.537731	2.71954	0.639536	3.22872	0.828809	4.18993		
0.541043	2.721	0.389257	1.94326	0.540707	2.72109	0.651184	3.28256	0.767486	3.86858	0.964687	4.86593	0.539816	2.71728	0.641321	3.22258	0.829972	4.17613		
0.543455	2.72039	0.391287	1.94435	0.543119	2.72047	0.652819	3.27542	0.769135	3.85877	0.965806	4.84879	0.5419	2.71503	0.643111	3.21651	0.831139	4.16249		
0.545869	2.71979	0.393317	1.94543	0.545533	2.71987	0.654456	3.26836	0.770786	3.84906	0.966929	4.83183	0.543982	2.7128	0.644906	3.21053	0.83231	4.149		
0.548285	2.7192	0.395346	1.9465	0.547949	2.71928	0.656098	3.26138	0.772441	3.83947	0.968057	4.81504	0.546063	2.71059	0.646705	3.20462	0.833486	4.13565		
0.550702	2.71863	0.397375	1.94756	0.550366	2.71871	0.657742	3.25448	0.7741	3.82997	0.969188	4.79843	0.548142	2.70838	0.648508	3.19879	0.834666	4.12245		
0.553121	2.71807	0.399404	1.9486	0.552784	2.71814	0.65939	3.24766	0.775762	3.82059	0.970323	4.782	0.550221	2.70619	0.650317	3.19303	0.835851	4.10939		
0.555541	2.71752	0.401433	1.94964	0.555204	2.71759	0.661042	3.24093	0.777427	3.8113	0.971463	4.76573	0.552298	2.70402	0.652129	3.18735	0.83704	4.09647		
0.557963	2.71698	0.403461	1.95066	0.557625	2.71705	0.662696	3.23426	0.779096	3.80211	0.972606	4.74963	0.554374	2.70186	0.653947	3.18175	0.838233	4.08369		
0.560385	2.71645	0.405489	1.95168	0.560048	2.71652	0.664354	3.22768	0.780768	3.79303	0.973754	4.7337	0.556448	2.69971	0.655769	3.17621	0.83943	4.07104		
0.562809	2.71593	0.407517	1.95268	0.562472	2.71601	0.666015	3.22117	0.782444	3.78404	0.974906	4.71793	0.558521	2.69757	0.657595	3.17075	0.840632	4.05853		
0.565234	2.71543	0.409545	1.95367	0.564896	2.7155	0.66768	3.21473	0.784122	3.77515	0.976061	4.70232	0.560593	2.69545	0.659426	3.16536	0.841838	4.04616		
0.56766	2.71493	0.411573	1.95466	0.567322	2.715	0.669347	3.20837	0.785804	3.76635	0.977221	4.68687	0.562664	2.69334	0.661261	3.16004	0.843048	4.03391		
0.570087	2.71444	0.4136	1.95563	0.569749	2.71451	0.671018	3.20208	0.78749	3.75765	0.978385	4.67157	0.564733	2.69125	0.663101	3.15478	0.844263	4.02179		
0.572515	2.71397	0.415627	1.9566	0.572177	2.71403	0.672692	3.19586	0.789178	3.74904	0.979552	4.65643	0.566801	2.68916	0.664945	3.14959	0.845482	4.0098		
0.574944	2.7135	0.417654	1.95755	0.574606	2.71356	0.67437	3.18971	0.79087	3.74052	0.980724	4.64145	0.568868	2.68709	0.666793	3.14447	0.846705	3.99794		
0.577374	2.71303	0.41968	1.9585	0.577036	2.7131	0.67605	3.18363	0.792564	3.73209	0.9819	4.62661	0.570933	2.68503	0.668646	3.13941	0.847932	3.98619		
0.579805	2.71258	0.421706	1.95944	0.579466	2.71264	0.677734	3.17761	0.794262	3.72375	0.983079	4.61192	0.572997	2.68298	0.670503	3.13442	0.849164	3.97458		
0.582236	2.71213	0.423732	1.96036	0.581898	2.71219	0.67942	3.17167	0.795963	3.71549	0.984263	4.59738	0.57506	2.68094	0.672364	3.12949	0.850399	3.96308		
0.584669	2.71169	0.425758	1.96128	0.58433	2.71175	0.68111	3.16579	0.797667	3.70732	0.98545	4.58298	0.577121	2.67891	0.674229	3.12462	0.851639	3.9517		
0.587101	2.71126	0.427784	1.96219	0.586763	2.71132	0.682803	3.15997	0.799374	3.69924	0.986642	4.56873	0.579181	2.6769	0.676099	3.11982	0.852884	3.94044		
0.589535	2.71084	0.429809	1.96309	0.589196	2.71089	0.684499	3.15422	0.801084	3.69124	0.987837	4.55461	0.58124	2.67489	0.677973	3.11507	0.854132	3.92929		
0.591969	2.71042	0.431834	1.96398	0.59163	2.71047	0.686198	3.14853	0.802797	3.68332	0.989037	4.54064	0.583297	2.6729	0.679851	3.11039	0.855384	3.91826		
0.594404	2.71	0.433859	1.96487	0.594065	2.71006	0.6879	3.1429	0.804513	3.67548	0.99024	4.5268	0.585353	2.67092	0.681733	3.10576	0.856641	3.90734		
0.596839	2.7096	0.435883	1.96574	0.5965	2.70965	0.689605	3.13734	0.806232	3.66772	0.991447	4.51309	0.587407	2.66895	0.683619	3.10119	0.857902	3.89653		
0.599274	2.70919	0.437907	1.96661	0.598935	2.70925	0.691313	3.13184	0.807954	3.66004	0.992658	4.49952	0.58946	2.66699	0.685509	3.09667	0.859167	3.88583		
0.60171	2.7088	0.439931	1.96746	0.601371	2.70885	0.693024	3.12639	0.809679	3.65244	0.993873	4.48609	0.591512	2.66503	0.687404	3.09222	0.860436	3.87524		
0.604147	2.70841	0.441955	1.96831	0.603808	2.70846	0.694739	3.12101	0.811407	3.64491	0.995092	4.47278	0.593563	2.66309	0.689302	3.08782	0.861709	3.86476		
0.606584	2.70802	0.443979	1.96915	0.606244	2.70807	0.696456	3.11568	0.813137	3.63746	0.996314	4.4596	0.595612	2.66116	0.691204	3.08347	0.862987	3.85438		
0.609021	2.70764	0.446002	1.96999	0.608681	2.70769	0.698176	3.11041	0.814871	3.63009	0.997541	4.44654	0.597659	2.65924	0.693111	3.07917	0.864268	3.84411		
0.611458	2.70726	0.448025	1.97081	0.611119	2.70731	0.699899	3.1052	0.816607	3.62278	0.998771	4.43361	0.599706	2.65733	0.695021	3.07493	0.865553	3.83394		
0.613896	2.70689	0.450048	1.97163	0.613557	2.70694	0.701625	3.10004	0.818346	3.61555	1	4.42081	0.601751	2.65543	0.696935	3.07074	0.866843	3.82387		
0.616334	2.70652	0.45207	1.97244	0.615995	2.70657	0.703354	3.09494	0.820087	3.6084			0.603795	2.65354	0.698853	3.0666	0.868137	3.8139		
0.618772	2.70615	0.454092	1.97324	0.618433	2.7062	0.705086	3.08989	0.821832	3.60131			0.605837	2.65166	0.700775	3.06252	0.869434	3.80403		
0.62121	2.70579	0.456114	1.97403	0.620871	2.70584	0.706821	3.0849	0.823579	3.59429			0.607878	2.64979	0.7027	3.05848	0.870736	3.79426		
0.623649	2.70543	0.458136	1.97482	0.623309	2.70548	0.708558	3.07996	0.825329	3.58734			0.609917	2.64792	0.70463	3.05449	0.872042	3.78459		
0.626087	2.70508	0.460157	1.9756	0.625748	2.70513	0.710299	3.07507	0.827081	3.58046			0.611956	2.64607	0.706563	3.05055	0.873352	3.77501		
0.628526	2.70473	0.462178	1.97637	0.628187	2.70478	0.712043	3.07024	0.828836	3.57364			0.613993	2.64422	0.708499	3.04666	0.874666	3.76552		
0.630965	2.70438	0.464199	1.97714	0.630625	2.70443	0.713789	3.06545	0.830594	3.56689			0.616028	2.64239	0.71044	3.04281	0.875984	3.75613		
0.633403	2.70403	0.46622	1.97789	0.633064	2.70408	0.715538	3.06072	0.832354	3.5602			0.618062	2.64056	0.712384	3.03901	0.877306	3.74683		
0.635842	2.70369	0.46824	1.97864	0.635503	2.70374	0.71729	3.05603	0.834117	3.55358			0.620095	2.63874	0.714332	3.03525	0.878632	3.73762		
0.638281	2.70335	0.47026	1.97939	0.637941	2.7034	0.719045	3.0514	0.835882	3.54702			0.622127	2.63693	0.716283	3.03154	0.879961	3.7285		
0.640719	2.70301	0.47228	1.98012	0.64038	2.70306	0.720803	3.04681	0.83765	3.54053			0.624157	2.63513	0.718238	3.02788	0.881295	3.71947		
0.643158	2.70267	0.4743	1.98085	0.642818	2.70272	0.722564	3.04227	0.83942	3.53409			0.626186	2.63334	0.720197	3.02426	0.882633	3.71052		
0.645596	2.70234	0.476319	1.98158	0.645256	2.70239	0.724328	3.03778	0.841193	3.52772			0.628214	2.63156	0.722159	3.02068	0.883975	3.70167		
0.648034	2.70201	0.478338	1.98229	0.647694	2.70205	0.726094	3.03334	0.842968	3.52141			0.63024	2.62978	0.724124	3.01714	0.885321	3.69289		
0.650472	2.70168	0.480357	1.983	0.650132	2.70172	0.727863	3.02894	0.844746	3.51515			0.632265	2.62801	0.726093	3.01364	0.88667	3.6842		
0.652909	2.70135	0.482376	1.9837	0.65257	2.70139	0.729635	3.02459	0.846526	3.50895			0.634289	2.62625	0.728065	3.01019	0.888024	3.6756		
0.655347	2.70102	0.484394	1.9844	0.655008	2.70107	0.73141	3.02028	0.848309	3.50282			0.636311	2.6245	0.730041	3.00678	0.889381	3.66708		
0.657784	2.7007	0.486412	1.98509	0.657445	2.70074	0.733188	3.01602	0.850094	3.49673			0.638332	2.62276	0.73202	3.0034	0.890743	3.65863		
0.660221	2.70037	0.48843	1.98578	0.659882	2.70042	0.734969	3.0118	0.851881	3.49071			0.640352	2.62103	0.734002	3.00007	0.892108	3.65027		
0.662657	2.70005	0.490447	1.98645	0.662318	2.70009	0.736752	3.00762	0.853671	3.48474			0.642371	2.6193	0.735987	2.99677	0.893477	3.64199		
0.665093	2.69972	0.492464	1.98712	0.664754	2.69977	0.738538	3.00349	0.855462	3.47882			0.644388	2.61758	0.737976	2.99351	0.89485	3.63379		
0.667529	2.6994	0.494481	1.98779	0.66719	2.69945	0.740327	2.9994	0.857257	3.47296			0.646404	2.61587	0.739968	2.99029	0.896227	3.62566		
0.669964	2.69908	0.496498	1.98845	0.669625	2.69913	0.742119	2.99536	0.859053	3.46715			0.648419	2.61417	0.741963	2.98711	0.897608	3.61761		
0.672399	2.69876	0.498514	1.9891	0.67206	2.6988	0.743914	2.99135	0.860852	3.46139			0.650433	2.61247	0.743962	2.98396	0.898992	3.60964		
0.674833	2.69844	0.50053	1.98975	0.674494	2.69848	0.745712	2.98739	0.862653	3.45569			0.652445	2.61079	0.745963	2.98085	0.900381	3.60174		
0.677267	2.69812	0.502546	1.99039	0.676928	2.69816	0.747512	2.98346	0.864456	3.45003			0.654457	2.60911	0.747968	2.97777	0.901773	3.59392		
0.6797	2.6978	0.504562	1.99103	0.679362	2.69784	0.749315	2.97958	0.866261	3.44443			0.656466	2.60744	0.749975	2.97473	0.903169	3.58616		
0.682133	2.69748	0.506577	1.99166	0.681794	2.69752	0.751122	2.97574	0.868068	3.43888			0.658475	2.60577	0.751986	2.97172	0.904569	3.57848		
0.684565	2.69716	0.508592	1.99228	0.684226	2.6972	0.752931	2.97194	0.869878	3.43337			0.660483	2.60411	0.753999	2.96875	0.905973	3.57088		
0.686996	2.69684	0.510607	1.9929	0.686658	2.69688	0.754742	2.96817	0.87169	3.42792			0.662489	2.60246	0.756016	2.96581	0.907381	3.56334		
0.689427	2.69652	0.512622	1.99352	0.689089	2.69656	0.756557	2.96445	0.873504	3.42251			0.664494	2.60082	0.758035	2.9629	0.908792	3.55587		
0.691857	2.6962	0.514636	1.99412	0.691519	2.69624	0.758375	2.96076	0.875319	3.41715			0.666498	2.59919	0.760057	2.96003	0.910207	3.54847		
0.694286	2.69588	0.51665	1.99473	0.693948	2.69592	0.760195	2.95711	0.877137	3.41184			0.668501	2.59756	0.762082	2.95718	0.911626	3.54114		
0.696715	2.69555	0.518663	1.99532	0.696377	2.6956	0.762018	2.9535	0.878957	3.40657			0.670503	2.59594	0.76411	2.95437	0.913049	3.53388		
0.699142	2.69523	0.520677	1.99592	0.698804	2.69528	0.763845	2.94993	0.880779	3.40135			0.672504	2.59433	0.766141	2.95159	0.914476	3.52668		
0.701569	2.69491	0.52269	1.9965	0.701231	2.69495	0.765674	2.94639	0.882604	3.39618			0.674503	2.59272	0.768175	2.94884	0.915906	3.51955		
0.703995	2.69458	0.524703	1.99708	0.703657	2.69463	0.767506	2.94289	0.88443	3.39105			0.676502	2.59113	0.770211	2.94612	0.91734	3.51249		
0.70642	2.69426	0.526716	1.99766	0.706082	2.6943	0.769341	2.93942	0.886258	3.38596			0.678499	2.58953	0.77225	2.94343	0.918778	3.50549		
0.708844	2.69393	0.528728	1.99823	0.708507	2.69397	0.771179	2.93599	0.888088	3.38092			0.680495	2.58795	0.774291	2.94077	0.920219	3.49855		
0.711267	2.6936	0.53074	1.9988	0.71093	2.69365	0.77302	2.9326	0.88992	3.37592			0.68249	2.58637	0.776335	2.93813	0.921664	3.49168		
0.713689	2.69327	0.532752	1.99936	0.713352	2.69331	0.774864	2.92924	0.891753	3.37096			0.684484	2.5848	0.778382	2.93553	0.923113	3.48486		
0.71611	2.69294	0.534764	1.99992	0.715773	2.69298	0.77671	2.92592	0.893589	3.36605			0.686477	2.58324	0.780431	2.93295	0.924566	3.47812		
0.71853	2.6926	0.536775	2.00047	0.718193	2.69265	0.77856	2.92263	0.895427	3.36117			0.688469	2.58169	0.782483	2.9304	0.926022	3.47143		
0.720949	2.69227	0.538786	2.00101	0.720612	2.69231	0.780413	2.91937	0.897266	3.35634			0.69046	2.58014	0.784537	2.92788	0.927482	3.4648		
0.723366	2.69193	0.540797	2.00156	0.72303	2.69198	0.782269	2.91615	0.899108	3.35154			0.69245	2.57859	0.786594	2.92538	0.928946	3.45823		
0.725782	2.69159	0.542807	2.00209	0.725446	2.69163	0.784128	2.91297	0.900951	3.34679			0.694438	2.57706	0.788653	2.92291	0.930413	3.45172		
0.728197	2.69124	0.544818	2.00263	0.727861	2.69129	0.78599	2.90981	0.902796	3.34208			0.696426	2.57553	0.790715	2.92047	0.931884	3.44527		
0.730611	2.6909	0.546828	2.00315	0.730275	2.69095	0.787856	2.90669	0.904642	3.3374			0.698413	2.57401	0.792778	2.91805	0.933359	3.43888		
0.733023	2.69055	0.548837	2.00368	0.732688	2.6906	0.789724	2.9036	0.906491	3.33277			0.700399	2.5725	0.794845	2.91565	0.934837	3.43254		
0.735434	2.6902	0.550847	2.0042	0.735099	2.69025	0.791596	2.90055	0.908341	3.32817			0.702384	2.57099	0.796913	2.91329	0.936319	3.42626		
0.737844	2.68985	0.552856	2.00471	0.737508	2.6899	0.79347	2.89753	0.910193	3.32361			0.704368	2.56949	0.798984	2.91094	0.937805	3.42004		
0.740252	2.68949	0.554865	2.00522	0.739917	2.68954	0.795348	2.89454	0.912047	3.31909			0.706351	2.56799	0.801057	2.90862	0.939295	3.41387		
0.742658	2.68913	0.556874	2.00573	0.742323	2.68918	0.79723	2.89158	0.913902	3.3146			0.708333	2.56651	0.803132	2.90632	0.940788	3.40776		
0.745063	2.68877	0.558882	2.00623	0.744728	2.68882	0.799114	2.88865	0.91576	3.31015			0.710314	2.56502	0.805209	2.90405	0.942284	3.4017		
0.747466	2.6884	0.56089	2.00673	0.747132	2.68845	0.801002	2.88576	0.917618	3.30574			0.712294	2.56355	0.807288	2.9018	0.943784	3.39569		
0.749868	2.68803	0.562898	2.00722	0.749534	2.68808	0.802893	2.88289	0.919479	3.30136			0.714274	2.56208	0.809369	2.89957	0.945288	3.38974		
0.752268	2.68766	0.564906	2.00771	0.751934	2.68771	0.804787	2.88006	0.921341	3.29702			0.716252	2.56062	0.811453	2.89736	0.946796	3.38384		
0.754666	2.68728	0.566913	2.00819	0.754332	2.68733	0.806685	2.87726	0.923205	3.29271			0.71823	2.55917	0.813538	2.89518	0.948307	3.37799		
0.757062	2.6869	0.56892	2.00867	0.756728	2.68695	0.808587	2.87449	0.92507	3.28843			0.720206	2.55772	0.815626	2.89301	0.949821	3.3722		
0.759456	2.68651	0.570927	2.00915	0.759123	2.68657	0.810491	2.87175	0.926937	3.28419			0.722182	2.55628	0.817715	2.89087	0.95134	3.36645		
0.761848	2.68612	0.572933	2.00962	0.761515	2.68618	0.8124	2.86904	0.928805	3.27998			0.724157	2.55484	0.819806	2.88875	0.952861	3.36076		
0.764239	2.68573	0.57494	2.01009	0.763906	2.68578	0.814312	2.86636	0.930676	3.27581			0.726131	2.55342	0.8219	2.88665	0.954387	3.35511		
0.766627	2.68533	0.576946	2.01055	0.766295	2.68538	0.816227	2.86371	0.932547	3.27167			0.728105	2.55199	0.823995	2.88457	0.955916	3.34951		
0.769013	2.68492	0.578951	2.01101	0.768681	2.68498	0.818146	2.86109	0.93442	3.26756			0.730077	2.55058	0.826091	2.8825	0.957448	3.34397		
0.771397	2.68452	0.580957	2.01147	0.771065	2.68457	0.820069	2.8585	0.936295	3.26348			0.732049	2.54917	0.82819	2.88046	0.958984	3.33847		
0.773779	2.6841	0.582962	2.01192	0.773447	2.68416	0.821996	2.85594	0.938171	3.25944			0.73402	2.54777	0.83029	2.87844	0.960524	3.33302		
0.776158	2.68368	0.584967	2.01237	0.775827	2.68374	0.823926	2.85341	0.940049	3.25542			0.735991	2.54637	0.832393	2.87644	0.962067	3.32762		
0.778535	2.68326	0.586972	2.01282	0.778204	2.68332	0.82586	2.85091	0.941928	3.25144			0.73796	2.54498	0.834496	2.87445	0.963614	3.32226		
0.78091	2.68282	0.588976	2.01326	0.780579	2.68289	0.827798	2.84844	0.943808	3.24749			0.739929	2.5436	0.836602	2.87249	0.965164	3.31695		
0.783282	2.68239	0.59098	2.01369	0.782952	2.68245	0.82974	2.846	0.94569	3.24356			0.741897	2.54222	0.838709	2.87054	0.966718	3.31169		
0.785651	2.68195	0.592984	2.01413	0.785321	2.68201	0.831686	2.84358	0.947574	3.23967			0.743864	2.54085	0.840817	2.86861	0.968276	3.30647		
0.788018	2.6815	0.594988	2.01456	0.787689	2.68156	0.833636	2.8412	0.949459	3.23581			0.745831	2.53949	0.842927	2.86669	0.969837	3.30129		
0.790382	2.68104	0.596991	2.01499	0.790053	2.6811	0.83559	2.83885	0.951345	3.23197			0.747797	2.53813	0.845039	2.8648	0.971401	3.29617		
0.792744	2.68058	0.598994	2.01541	0.792415	2.68064	0.837548	2.83652	0.953232	3.22817			0.749762	2.53678	0.847152	2.86292	0.972969	3.29108		
0.795102	2.68011	0.600997	2.01583	0.794774	2.68018	0.83951	2.83422	0.955121	3.22439			0.751727	2.53543	0.849267	2.86106	0.974541	3.28604		
0.797458	2.67964	0.603	2.01624	0.79713	2.6797	0.841476	2.83195	0.957012	3.22064			0.753691	2.53409	0.851383	2.85921	0.976116	3.28105		
0.79981	2.67915	0.605002	2.01666	0.799483	2.67922	0.843447	2.82971	0.958903	3.21692			0.755654	2.53276	0.853501	2.85738	0.977694	3.27609		
0.80216	2.67866	0.607004	2.01707	0.801833	2.67873	0.845422	2.8275	0.960796	3.21323			0.757616	2.53143	0.855619	2.85557	0.979276	3.27118		
0.804506	2.67817	0.609006	2.01747	0.80418	2.67824	0.847402	2.82532	0.96269	3.20956			0.759578	2.53011	0.857739	2.85377	0.980862	3.26631		
0.80685	2.67766	0.611008	2.01788	0.806523	2.67773	0.849386	2.82316	0.964586	3.20593			0.76154	2.5288	0.859861	2.85199	0.982451	3.26148		
0.809189	2.67715	0.613009	2.01827	0.808864	2.67722	0.851374	2.82104	0.966483	3.20231			0.763501	2.52749	0.861984	2.85022	0.984043	3.2567		
0.811526	2.67663	0.61501	2.01867	0.811201	2.6767	0.853368	2.81894	0.968381	3.19873			0.765461	2.52619	0.864108	2.84847	0.985639	3.25195		
0.813859	2.6761	0.617011	2.01906	0.813535	2.67618	0.855365	2.81687	0.97028	3.19517			0.767421	2.52489	0.866233	2.84673	0.987239	3.24725		
0.816189	2.67557	0.619011	2.01945	0.815865	2.67564	0.857368	2.81483	0.972181	3.19164			0.76938	2.5236	0.868359	2.84501	0.988841	3.24258		
0.818515	2.67502	0.621012	2.01984	0.818191	2.6751	0.859375	2.81281	0.974083	3.18813			0.771338	2.52232	0.870487	2.8433	0.990448	3.23796		
0.820837	2.67447	0.623012	2.02022	0.820514	2.67455	0.861387	2.81083	0.975985	3.18464			0.773296	2.52104	0.872615	2.8416	0.992058	3.23337		
0.823156	2.67391	0.625011	2.0206	0.822834	2.67398	0.863404	2.80887	0.97789	3.18119			0.775254	2.51977	0.874745	2.83992	0.993671	3.22883		
0.825471	2.67333	0.627011	2.02098	0.825149	2.67341	0.865426	2.80694	0.979795	3.17775			0.77721	2.5185	0.876876	2.83826	0.995288	3.22432		
0.827782	2.67275	0.62901	2.02135	0.827461	2.67284	0.867453	2.80504	0.981702	3.17434			0.779167	2.51724	0.879007	2.8366	0.996908	3.21985		
0.830089	2.67217	0.631009	2.02172	0.829768	2.67225	0.869485	2.80316	0.983609	3.17096			0.781123	2.51599	0.88114	2.83496	0.998532	3.21542		
0.832392	2.67157	0.633008	2.02209	0.832072	2.67165	0.871522	2.80131	0.985518	3.1676			0.783078	2.51474	0.883274	2.83333	1.00016	3.21102		
0.834692	2.67096	0.635006	2.02246	0.834372	2.67104	0.873564	2.79949	0.987428	3.16426			0.785033	2.51349	0.885409	2.83172				
0.836987	2.67034	0.637005	2.02282	0.836667	2.67043	0.875612	2.7977	0.989339	3.16095			0.786988	2.51226	0.887544	2.83011				
0.839277	2.66971	0.639003	2.02318	0.838959	2.6698	0.877665	2.79594	0.991251	3.15766			0.788942	2.51103	0.889681	2.82852				
0.841564	2.66908	0.641	2.02353	0.841246	2.66917	0.879723	2.7942	0.993165	3.15439			0.790895	2.5098	0.891818	2.82694				
0.843846	2.66843	0.642998	2.02389	0.843528	2.66852	0.881786	2.79249	0.995079	3.15115			0.792848	2.50858	0.893956	2.82538				
0.846124	2.66777	0.644995	2.02424	0.845807	2.66786	0.883855	2.79081	0.996994	3.14793			0.794801	2.50737	0.896095	2.82382				
0.848397	2.6671	0.646992	2.02458	0.848081	2.6672	0.88593	2.78916	0.998911	3.14473			0.796753	2.50616	0.898234	2.82228				
0.850666	2.66643	0.648989	2.02493	0.85035	2.66652	0.88801	2.78753	1.00083	3.14155			0.798705	2.50496	0.900375	2.82075				
0.85293	2.66574	0.650985	2.02527	0.852615	2.66584	0.890096	2.78593					0.800656	2.50377	0.902516	2.81922				
0.85519	2.66504	0.652981	2.02561	0.854875	2.66514	0.892187	2.78435					0.802607	2.50258	0.904658	2.81771				
0.857445	2.66433	0.654977	2.02594	0.857131	2.66443	0.894284	2.78281					0.804558	2.50139	0.9068	2.81621				
0.859695	2.66361	0.656973	2.02628	0.859382	2.66371	0.896386	2.78128					0.806508	2.50021	0.908943	2.81472				
0.86194	2.66288	0.658968	2.02661	0.861628	2.66299	0.898494	2.77979					0.808458	2.49904	0.911086	2.81325				
0.864181	2.66214	0.660964	2.02694	0.863869	2.66225	0.900609	2.77832					0.810408	2.49787	0.913231	2.81178				
0.866417	2.66139	0.662958	2.02726	0.866106	2.6615	0.902728	2.77688					0.812357	2.49671	0.915375	2.81032				
0.868648	2.66063	0.664953	2.02758	0.868338	2.66074	0.904854	2.77546					0.814306	2.49555	0.91752	2.80887				
0.870875	2.65986	0.666948	2.02791	0.870565	2.65997	0.906985	2.77407					0.816255	2.4944	0.919666	2.80743				
0.873096	2.65908	0.668942	2.02822	0.872787	2.65919	0.909122	2.77271					0.818203	2.49326	0.921812	2.806				
0.875313	2.65829	0.670936	2.02854	0.875004	2.6584	0.911265	2.77137					0.820151	2.49212	0.923958	2.80458				
0.877524	2.65749	0.67293	2.02885	0.877217	2.6576	0.913414	2.77006					0.822098	2.49098	0.926105	2.80317				
0.879731	2.65667	0.674923	2.02916	0.879424	2.65679	0.915569	2.76877					0.824046	2.48986	0.928252	2.80177				
0.881933	2.65585	0.676916	2.02947	0.881627	2.65596	0.917729	2.7675					0.825993	2.48873	0.9304	2.80037				
0.88413	2.65502	0.678909	2.02977	0.883825	2.65513	0.919895	2.76626					0.827939	2.48762	0.932548	2.79899				
0.886322	2.65417	0.680902	2.03008	0.886017	2.65429	0.922067	2.76505					0.829886	2.4865	0.934696	2.79761				
0.88851	2.65332	0.682894	2.03038	0.888205	2.65344	0.924245	2.76386					0.831832	2.4854	0.936844	2.79625				
0.890692	2.65246	0.684886	2.03068	0.890388	2.65258	0.926428	2.76269					0.833778	2.48429	0.938993	2.79489				
0.892869	2.65159	0.686879	2.03097	0.892567	2.65171	0.928617	2.76154					0.835724	2.4832	0.941141	2.79354				
0.895042	2.6507	0.68887	2.03126	0.89474	2.65083	0.930812	2.76042					0.837669	2.48211	0.94329	2.79219				
0.89721	2.64981	0.690862	2.03156	0.896909	2.64994	0.933013	2.75932					0.839615	2.48102	0.945439	2.79086				
0.899373	2.64891	0.692853	2.03184	0.899072	2.64904	0.935219	2.75825					0.84156	2.47994	0.947588	2.78953				
0.901532	2.648	0.694844	2.03213	0.901232	2.64813	0.93743	2.75719					0.843505	2.47887	0.949738	2.78821				
0.903686	2.64709	0.696835	2.03242	0.903386	2.64721	0.939648	2.75616					0.845449	2.4778	0.951887	2.7869				
0.905835	2.64616	0.698825	2.0327	0.905536	2.64629	0.94187	2.75515					0.847394	2.47673	0.954036	2.78559				
0.907979	2.64522	0.700816	2.03298	0.907681	2.64535	0.944098	2.75416					0.849338	2.47568	0.956186	2.78429				
0.910119	2.64428	0.702806	2.03325	0.909822	2.64441	0.946331	2.75319					0.851282	2.47462	0.958335	2.783				
0.912255	2.64333	0.704795	2.03353	0.911958	2.64346	0.94857	2.75225					0.853226	2.47357	0.960484	2.78172				
0.914386	2.64237	0.706785	2.0338	0.91409	2.64251	0.950813	2.75132					0.85517	2.47253	0.962634	2.78044				
0.916513	2.64141	0.708774	2.03407	0.916217	2.64154	0.953062	2.75041					0.857113	2.47149	0.964783	2.77917				
0.918636	2.64043	0.710763	2.03434	0.91834	2.64057	0.955316	2.74952					0.859057	2.47046	0.966932	2.7779				
0.920754	2.63945	0.712752	2.03461	0.920459	2.63959	0.957575	2.74865					0.861	2.46943	0.969081	2.77664				
0.922868	2.63847	0.714741	2.03487	0.922574	2.63861	0.959839	2.7478					0.862943	2.46841	0.971229	2.77539				
0.924978	2.63748	0.716729	2.03514	0.924685	2.63761	0.962107	2.74697					0.864886	2.46739	0.973378	2.77414				
0.927084	2.63648	0.718717	2.0354	0.926791	2.63662	0.964381	2.74616					0.866829	2.46638	0.975526	2.7729				
0.929186	2.63547	0.720705	2.03566	0.928894	2.63561	0.966659	2.74536					0.868771	2.46537	0.977674	2.77167				
0.931285	2.63446	0.722693	2.03591	0.930993	2.6346	0.968941	2.74458					0.870714	2.46436	0.979822	2.77044				
0.933379	2.63345	0.72468	2.03617	0.933088	2.63359	0.971228	2.74382					0.872656	2.46337	0.98197	2.76922				
0.93547	2.63242	0.726667	2.03642	0.935179	2.63257	0.97352	2.74307					0.874599	2.46237	0.984117	2.768				
0.937557	2.6314	0.728654	2.03667	0.937267	2.63154	0.975816	2.74234					0.876541	2.46139	0.986264	2.76679				
0.93964	2.63037	0.730641	2.03692	0.939351	2.63051	0.978116	2.74163					0.878483	2.4604	0.98841	2.76558				
0.941721	2.62933	0.732627	2.03716	0.941431	2.62948	0.98042	2.74093					0.880425	2.45942	0.990557	2.76438				
0.943797	2.62829	0.734614	2.03741	0.943508	2.62844	0.982728	2.74024					0.882367	2.45845	0.992702	2.76318				
0.945871	2.62725	0.7366	2.03765	0.945582	2.6274	0.98504	2.73957					0.884309	2.45748	0.994848	2.76199				
0.947941	2.62621	0.738585	2.03789	0.947653	2.62635	0.987356	2.73892					0.886251	2.45652	0.996993	2.76081				
0.950008	2.62516	0.740571	2.03813	0.94972	2.6253	0.989676	2.73827					0.888193	2.45556	0.999137	2.75962				
0.952071	2.6241	0.742556	2.03837	0.951784	2.62425	0.992	2.73765					0.890135	2.4546	1.00128	2.75845				
0.954132	2.62305	0.744541	2.0386	0.953846	2.62319	0.994327	2.73703					0.892076	2.45365						
0.95619	2.62199	0.746526	2.03884	0.955904	2.62214	0.996658	2.73643					0.894018	2.45271						
0.958245	2.62093	0.748511	2.03907	0.957959	2.62108	0.998992	2.73584					0.89596	2.45177						
0.960297	2.61986	0.750495	2.0393	0.960012	2.62001	1.00133	2.73526					0.897901	2.45083						
0.962347	2.6188	0.752479	2.03953	0.962062	2.61895							0.899843	2.4499						
0.964394	2.61773	0.754463	2.03975	0.964109	2.61788							0.901784	2.44898						
0.966438	2.61666	0.756447	2.03998	0.966154	2.61681							0.903726	2.44806						
0.96848	2.61559	0.75843	2.0402	0.968196	2.61574							0.905667	2.44714						
0.97052	2.61452	0.760414	2.04042	0.970236	2.61467							0.907609	2.44623						
0.972557	2.61345	0.762397	2.04064	0.972273	2.6136							0.90955	2.44532						
0.974591	2.61238	0.76438	2.04086	0.974308	2.61253							0.911491	2.44441						
0.976624	2.61131	0.766362	2.04108	0.976341	2.61146							0.913433	2.44352						
0.978654	2.61023	0.768344	2.04129	0.978372	2.61038							0.915374	2.44262						
0.980683	2.60916	0.770327	2.0415	0.9804	2.60931							0.917316	2.44173						
0.982709	2.60808	0.772308	2.04171	0.982427	2.60823							0.919257	2.44085						
0.984733	2.60701	0.77429	2.04192	0.984452	2.60716							0.921199	2.43996						
0.986756	2.60594	0.776271	2.04213	0.986474	2.60609							0.92314	2.43909						
0.988776	2.60486	0.778253	2.04234	0.988495	2.60501							0.925082	2.43822						
0.990795	2.60379	0.780234	2.04254	0.990514	2.60394							0.927023	2.43735						
0.992812	2.60272	0.782215	2.04274	0.992532	2.60287							0.928965	2.43648						
0.994828	2.60165	0.784195	2.04295	0.994547	2.6018							0.930906	2.43562						
0.996841	2.60058	0.786175	2.04315	0.996561	2.60073							0.932848	2.43477						
0.998854	2.59951	0.788156	2.04334	0.998574	2.59966							0.93479	2.43392						
1.00086	2.59844	0.790135	2.04354	1.00058	2.59859							0.936732	2.43307						
		0.792115	2.04374									0.938673	2.43223						
		0.794095	2.04393									0.940615	2.43139						
		0.796074	2.04412									0.942557	2.43056						
		0.798053	2.04431									0.944499	2.42973						
		0.800032	2.0445									0.946441	2.4289						
		0.80201	2.04469									0.948384	2.42808						
		0.803989	2.04488									0.950326	2.42726						
		0.805967	2.04506									0.952268	2.42645						
		0.807945	2.04525									0.954211	2.42564						
		0.809922	2.04543									0.956153	2.42484						
		0.8119	2.04561									0.958096	2.42404						
		0.813877	2.04579									0.960038	2.42324						
		0.815854	2.04597									0.961981	2.42245						
		0.817831	2.04614									0.963924	2.42166						
		0.819808	2.04632									0.965867	2.42087						
		0.821784	2.04649									0.96781	2.42009						
		0.82376	2.04667									0.969753	2.41931						
		0.825736	2.04684									0.971696	2.41854						
		0.827712	2.04701									0.97364	2.41777						
		0.829688	2.04718									0.975583	2.417						
		0.831663	2.04734									0.977527	2.41624						
		0.833638	2.04751									0.979471	2.41548						
		0.835613	2.04768									0.981414	2.41473						
		0.837588	2.04784									0.983358	2.41398						
		0.839563	2.048									0.985303	2.41323						
		0.841537	2.04816									0.987247	2.41249						
		0.843511	2.04832									0.989191	2.41175						
		0.845485	2.04848									0.991136	2.41101						
		0.847459	2.04864									0.993081	2.41028						
		0.849433	2.0488									0.995025	2.40955						
		0.851406	2.04895									0.99697	2.40883						
		0.853379	2.0491									0.998915	2.40811						
		0.855352	2.04926									1.00086	2.40739						
		0.857325	2.04941																
		0.859297	2.04956																
		0.86127	2.04971																
		0.863242	2.04986																
		0.865214	2.05																
		0.867185	2.05015																
		0.869157	2.0503																
		0.871128	2.05044																
		0.873099	2.05058																
		0.87507	2.05072																
		0.877041	2.05086																
		0.879012	2.051																
		0.880982	2.05114																
		0.882952	2.05128																
		0.884922	2.05142																
		0.886892	2.05155																
		0.888862	2.05169																
		0.890831	2.05182																
		0.8928	2.05195																
		0.894769	2.05208																
		0.896738	2.05221																
		0.898707	2.05234																
		0.900675	2.05247																
		0.902643	2.0526																
		0.904611	2.05272																
		0.906579	2.05285																
		0.908547	2.05297																
		0.910515	2.0531																
		0.912482	2.05322																
		0.914449	2.05334																
		0.916416	2.05346																
		0.918383	2.05358																
		0.920349	2.0537																
		0.922316	2.05382																
		0.924282	2.05394																
		0.926248	2.05405																
		0.928214	2.05417																
		0.93018	2.05428																
		0.932145	2.0544																
		0.93411	2.05451																
		0.936075	2.05462																
		0.93804	2.05473																
		0.940005	2.05484																
		0.94197	2.05495																
		0.943934	2.05506																
		0.945899	2.05517																
		0.947863	2.05527																
		0.949827	2.05538																
		0.95179	2.05548																
		0.953754	2.05559																
		0.955717	2.05569																
		0.95768	2.0558																
		0.959643	2.0559																
		0.961606	2.056																
		0.963569	2.0561																
		0.965532	2.0562																
		0.967494	2.0563																
		0.969456	2.0564																
		0.971418	2.05649																
		0.97338	2.05659																
		0.975342	2.05669																
		0.977303	2.05678																
		0.979265	2.05688																
		0.981226	2.05697																
		0.983187	2.05706																
		0.985148	2.05716																
		0.987108	2.05725																
		0.989069	2.05734																
		0.991029	2.05743																
		0.992989	2.05752																
		0.99495	2.05761																
		0.996909	2.0577																
		0.998869	2.05779																
		1.00083	2.05787																
