Sym0		Asym0		Sym1		Sym2		Sym3		Sym4		Asym1		Asym2		Asym3		Asym4	
426  Points		528  Points		426  Points		406  Points		353  Points		254  Points		457  Points		401  Points		346  Points		217  Points	
Freq (MHz)	Vph (m/ms)	Freq (MHz)	Vph (m/ms)	Freq (MHz)	Vph (m/ms)	Freq (MHz)	Vph (m/ms)	Freq (MHz)	Vph (m/ms)	Freq (MHz)	Vph (m/ms)	Freq (MHz)	Vph (m/ms)	Freq (MHz)	Vph (m/ms)	Freq (MHz)	Vph (m/ms)	Freq (MHz)	Vph (m/ms)
0.279509	829.404	0.000209522	0.0891111	0.27951	538.083	0.441156	2313.29	0.559017	2413.28	0.838526	16779.2	0.139763	285.923	0.419267	517.397	0.698772	1294.43	0.882314	1144.8
0.279518	220.319	0.000407929	0.124257	0.279521	192.62	0.441165	393.055	0.559026	480.536	0.838529	854.187	0.139832	98.4377	0.419283	240.686	0.698779	474.866	0.882322	518.278
0.279537	127.04	0.000671076	0.159225	0.279542	117.314	0.441185	214.783	0.559045	266.843	0.838538	438.253	0.139966	59.5043	0.41931	156.826	0.698791	290.772	0.882335	334.966
0.279566	89.2586	0.000998195	0.193963	0.279572	84.3472	0.441216	147.772	0.559075	184.713	0.838552	294.74	0.140167	42.6831	0.419349	116.31	0.698809	209.543	0.882355	247.449
0.279605	68.8041	0.00138843	0.228434	0.279613	65.8497	0.441259	112.638	0.559116	141.247	0.838573	222.035	0.140433	33.3128	0.419399	92.4372	0.698833	163.791	0.88238	196.194
0.279654	55.9814	0.00184075	0.2626	0.279664	54.0108	0.441314	91.008	0.559168	114.347	0.838599	178.105	0.140764	27.3472	0.41946	76.7004	0.698862	134.44	0.88241	162.531
0.279713	47.1916	0.00235391	0.29641	0.279726	45.7844	0.441381	76.3519	0.559231	96.0579	0.83863	148.69	0.141159	23.2208	0.419533	65.5468	0.698898	114.013	0.882447	138.73
0.279782	40.7913	0.00292667	0.329836	0.279797	39.7364	0.441459	65.766	0.559305	82.817	0.838668	127.615	0.141616	20.2001	0.419617	57.2294	0.698939	98.9761	0.882489	121.012
0.279861	35.9231	0.00355761	0.362843	0.279878	35.1032	0.441548	57.7621	0.55939	72.7879	0.838711	111.775	0.142135	17.8958	0.419713	50.7887	0.698986	87.4455	0.882538	107.309
0.279951	32.0961	0.00424526	0.395405	0.279969	31.4406	0.44165	51.4986	0.559486	64.9289	0.83876	99.4354	0.142715	16.0822	0.41982	45.6545	0.69904	78.323	0.882591	96.3952
0.28005	29.0089	0.00498794	0.427482	0.280071	28.4729	0.441763	46.4639	0.559593	58.6047	0.838815	89.5507	0.143353	14.6193	0.419939	41.4661	0.699099	70.9256	0.882651	87.4981
0.28016	26.466	0.00578402	0.459054	0.280182	26.0197	0.441887	42.329	0.55971	53.406	0.838875	81.4551	0.144049	13.4155	0.420069	37.9844	0.699163	64.8065	0.882717	80.106
0.280279	24.3354	0.00663192	0.490106	0.280304	23.958	0.442024	38.8727	0.559839	49.0571	0.838941	74.7033	0.1448	12.4088	0.42021	35.0447	0.699234	59.6607	0.882788	73.8669
0.280409	22.5246	0.0075298	0.520615	0.280436	22.2013	0.442171	35.9409	0.559978	45.3656	0.839013	68.9864	0.145606	11.5553	0.420363	32.5299	0.69931	55.2733	0.882865	68.5308
0.280549	20.9666	0.00847592	0.550564	0.280578	20.6867	0.442331	33.4227	0.560129	42.1931	0.839091	64.0835	0.146464	10.8231	0.420527	30.3541	0.699393	51.4882	0.882948	63.9148
0.280699	19.6123	0.00946858	0.579946	0.280729	19.3675	0.442501	31.2366	0.56029	39.4374	0.839174	59.8325	0.147254	10.2655	0.420703	28.4532	0.699481	48.1894	0.883036	59.8825
0.280859	18.4241	0.010506	0.608749	0.280891	18.2083	0.442684	29.321	0.560462	37.0217	0.839263	56.1114	0.147956	9.83975	0.420889	26.7785	0.699575	45.2889	0.883131	56.3299
0.281029	17.3734	0.0115864	0.636964	0.281063	17.1817	0.442878	27.6289	0.560645	34.8867	0.839358	52.827	0.148557	9.51745	0.421088	25.2918	0.699675	42.7187	0.883231	53.1761
0.281209	16.4377	0.0127082	0.664593	0.281245	16.2664	0.443083	26.1233	0.560839	32.9864	0.839458	49.9069	0.149044	9.27964	0.421297	23.9634	0.69978	40.4256	0.883337	50.3577
0.281399	15.5993	0.0138695	0.691627	0.281437	15.4452	0.4433	24.7752	0.561044	31.2841	0.839564	47.2936	0.14941	9.11359	0.421518	22.7693	0.699892	38.367	0.883448	47.824
0.281599	14.8437	0.0150689	0.718074	0.28164	14.7045	0.443528	23.5611	0.56126	29.7505	0.839676	44.9412	0.149647	9.01099	0.42175	21.6902	0.700009	36.5088	0.883565	45.5338
0.28181	14.1594	0.0163045	0.743927	0.281852	14.0329	0.443768	22.4621	0.561486	28.3618	0.839794	42.8126	0.149991	8.86827	0.421993	20.7104	0.700132	34.8231	0.883689	43.4537
0.28203	13.5368	0.017575	0.769196	0.282074	13.4214	0.444019	21.4626	0.561723	27.0985	0.839917	40.8773	0.150372	8.71921	0.422248	19.8168	0.700261	33.2869	0.883817	41.5562
0.28226	12.9679	0.0188787	0.793882	0.282306	12.8623	0.444281	20.5498	0.561971	25.9444	0.840046	39.1102	0.150897	8.52598	0.422514	18.9985	0.700396	31.8814	0.883952	39.8182
0.282501	12.4462	0.0202142	0.817995	0.282549	12.3491	0.444555	19.713	0.56223	24.8859	0.840181	37.4902	0.151577	8.2961	0.422791	18.2465	0.700537	30.5904	0.884092	38.2204
0.282751	11.9661	0.0215801	0.841538	0.282801	11.8765	0.44484	18.943	0.562499	23.9117	0.840321	35.9998	0.15242	8.03775	0.423079	17.5532	0.700683	29.4007	0.884238	36.7467
0.283011	11.5228	0.0229749	0.864521	0.283064	11.4399	0.445136	18.2323	0.56278	23.0122	0.840467	34.6241	0.153437	7.75919	0.423379	16.9119	0.700836	28.3007	0.88439	35.383
0.283282	11.1122	0.0243974	0.886954	0.283336	11.0354	0.445444	17.5742	0.563071	22.1791	0.840619	33.3503	0.154641	7.4682	0.423689	16.317	0.700994	27.2807	0.884548	34.1175
0.283562	10.7311	0.0258464	0.908846	0.283618	10.6596	0.445763	16.9632	0.563372	21.4054	0.840776	32.1675	0.155883	7.20402	0.424011	15.7638	0.701158	26.3323	0.884711	32.9401
0.283853	10.3762	0.0273205	0.930205	0.283911	10.3096	0.446093	16.3945	0.563684	20.6851	0.840939	31.0664	0.15716	6.96323	0.424344	15.248	0.701328	25.4482	0.88488	31.8418
0.284153	10.0451	0.0288187	0.951045	0.284174	10.0236	0.446434	15.8639	0.564007	20.0127	0.841108	30.0387	0.158472	6.743	0.424688	14.766	0.701503	24.6222	0.885054	30.815
0.284464	9.7354	0.0303398	0.971377	0.284404	9.79264	0.446786	15.3676	0.564341	19.3837	0.841283	29.0774	0.159817	6.54092	0.425043	14.3146	0.701685	23.8487	0.885235	29.8529
0.284784	9.44519	0.0318827	0.991209	0.284599	9.60996	0.44715	14.9025	0.564685	18.7941	0.841463	28.1763	0.161193	6.35492	0.425409	13.8911	0.701872	23.1228	0.885421	28.9496
0.285115	9.17271	0.0334465	1.01056	0.284755	9.47053	0.447524	14.4658	0.56504	18.2403	0.841649	27.3299	0.162599	6.18324	0.425786	13.4929	0.702065	22.4404	0.885613	28.0998
0.285455	8.9164	0.0350303	1.02943	0.284872	9.3707	0.447909	14.055	0.565405	17.7191	0.84184	26.5334	0.164034	6.02437	0.426174	13.1179	0.702264	21.7976	0.88581	27.2991
0.285806	8.67489	0.036633	1.04784	0.284947	9.30798	0.448306	13.6679	0.565781	17.2279	0.842037	25.7825	0.165497	5.87699	0.426573	12.7641	0.702468	21.1911	0.886013	26.5432
0.286166	8.44696	0.0382539	1.0658	0.285056	9.21935	0.448713	13.3024	0.566167	16.7641	0.84224	25.0734	0.166986	5.73995	0.426983	12.4299	0.702679	20.618	0.886222	25.8285
0.286537	8.23151	0.039892	1.08332	0.285176	9.12502	0.449131	12.9569	0.566564	16.3254	0.842448	24.4027	0.1685	5.61225	0.427404	12.1136	0.702895	20.0755	0.886437	25.1518
0.286917	8.02757	0.0415467	1.10041	0.285341	8.99998	0.449561	12.6298	0.566971	15.91	0.842663	23.7675	0.170038	5.49302	0.427836	11.8139	0.703117	19.5613	0.886657	24.5101
0.287307	7.83427	0.0432171	1.11709	0.285553	8.84696	0.450001	12.3197	0.567389	15.5161	0.842882	23.165	0.171598	5.38146	0.428278	11.5295	0.703345	19.0733	0.886883	23.9008
0.287707	7.65081	0.0449025	1.13336	0.285814	8.66917	0.450451	12.0253	0.567817	15.142	0.843108	22.5927	0.173181	5.27691	0.428732	11.2593	0.703578	18.6094	0.887114	23.3215
0.288117	7.47648	0.0466022	1.14923	0.286128	8.4701	0.450913	11.7455	0.568256	14.7863	0.843339	22.0484	0.174784	5.17875	0.429196	11.0022	0.703818	18.168	0.887352	22.77
0.288537	7.31063	0.0483157	1.16473	0.286497	8.2534	0.451385	11.4792	0.568704	14.4478	0.843576	21.5301	0.176408	5.08643	0.429671	10.7575	0.704063	17.7475	0.887594	22.2444
0.288967	7.15268	0.0500423	1.17985	0.286877	8.04831	0.451868	11.2255	0.569164	14.1251	0.843818	21.0361	0.17805	4.99948	0.430156	10.5242	0.704314	17.3465	0.887843	21.743
0.289407	7.00209	0.0517814	1.19461	0.287266	7.85394	0.452361	10.9836	0.569633	13.8173	0.844066	20.5646	0.179711	4.91746	0.430653	10.3015	0.70457	16.9635	0.888097	21.264
0.289857	6.85837	0.0535324	1.20902	0.287665	7.66949	0.452865	10.7526	0.570113	13.5233	0.84432	20.1142	0.181389	4.83999	0.431094	10.1156	0.704833	16.5975	0.888357	20.8061
0.290317	6.72108	0.0552948	1.22309	0.288074	7.49424	0.453379	10.5318	0.570603	13.2422	0.844579	19.6835	0.183083	4.76671	0.431477	9.96276	0.705101	16.2474	0.888622	20.3678
0.290786	6.58981	0.0570682	1.23683	0.288493	7.32753	0.453904	10.3206	0.571103	12.9733	0.844844	19.2712	0.184794	4.6973	0.431797	9.84013	0.705375	15.9121	0.888893	19.9481
0.291266	6.46419	0.0588521	1.25024	0.288922	7.16878	0.45437	10.1439	0.571613	12.7158	0.845114	18.8762	0.18652	4.63148	0.432054	9.74547	0.705655	15.5907	0.88917	19.5456
0.291755	6.34387	0.0606459	1.26334	0.289361	7.01745	0.454774	9.99846	0.572134	12.4689	0.84539	18.4975	0.18826	4.56899	0.432244	9.67713	0.70594	15.2824	0.889452	19.1594
0.292254	6.22854	0.0624494	1.27614	0.28981	6.87303	0.455112	9.88155	0.572664	12.2321	0.845672	18.134	0.190014	4.50959	0.432366	9.63394	0.706231	14.9865	0.88974	18.7885
0.292763	6.11791	0.0642619	1.28865	0.290268	6.73509	0.455382	9.7912	0.573205	12.0048	0.845959	17.7848	0.191782	4.45307	0.432543	9.57258	0.706528	14.7021	0.890033	18.4321
0.293282	6.0117	0.0660833	1.30087	0.290737	6.60321	0.455582	9.72592	0.573756	11.7863	0.846252	17.4492	0.193562	4.39924	0.432737	9.50686	0.706831	14.4287	0.890332	18.0892
0.29381	5.90968	0.067913	1.31281	0.291215	6.47702	0.45571	9.68464	0.574316	11.5763	0.84655	17.1263	0.195355	4.34791	0.433002	9.41905	0.707139	14.1655	0.890637	17.7593
0.294349	5.8116	0.0697508	1.32448	0.291704	6.35617	0.455896	9.62597	0.574887	11.3742	0.846854	16.8155	0.197159	4.29892	0.433342	9.31051	0.707454	13.9122	0.890947	17.4414
0.294897	5.71725	0.0715963	1.33589	0.292202	6.24033	0.4561	9.56307	0.575467	11.1796	0.847164	16.5161	0.198974	4.25213	0.433757	9.18289	0.707774	13.6681	0.891262	17.1351
0.295455	5.62644	0.0734492	1.34705	0.29271	6.12922	0.456378	9.47898	0.576058	10.9921	0.847479	16.2275	0.2008	4.20738	0.434252	9.03801	0.708099	13.4327	0.891584	16.8396
0.296023	5.53898	0.0753091	1.35795	0.293227	6.02257	0.456734	9.37493	0.576658	10.8113	0.8478	15.9491	0.202637	4.16456	0.43483	8.87788	0.708431	13.2055	0.89191	16.5545
0.296601	5.4547	0.077176	1.36862	0.293755	5.92012	0.45717	9.25242	0.577268	10.637	0.848126	15.6804	0.204483	4.12355	0.435418	8.72394	0.708768	12.9863	0.892243	16.2791
0.297188	5.37343	0.0790492	1.37906	0.294292	5.82164	0.457688	9.11316	0.577888	10.4687	0.848458	15.4209	0.206339	4.08424	0.436016	8.57584	0.70911	12.7745	0.89258	16.0131
0.297785	5.29503	0.0809287	1.38926	0.29484	5.72691	0.458292	8.95899	0.578437	10.3267	0.848795	15.1702	0.208204	4.04653	0.436625	8.43327	0.709459	12.5698	0.892924	15.7559
0.298392	5.21935	0.0828142	1.39925	0.295397	5.63574	0.458906	8.81052	0.57891	10.209	0.849138	14.9277	0.210078	4.01033	0.437243	8.29594	0.709813	12.3719	0.893273	15.5071
0.299009	5.14627	0.0847055	1.40903	0.295964	5.54794	0.45953	8.66746	0.579305	10.1139	0.849487	14.6932	0.21196	3.97555	0.437873	8.16356	0.710173	12.1803	0.893627	15.2663
0.299636	5.07566	0.0866024	1.41859	0.29654	5.46333	0.460164	8.52953	0.57962	10.0401	0.849841	14.4662	0.21385	3.94211	0.438512	8.0359	0.710539	11.9949	0.893987	15.0332
0.300272	5.00741	0.0885045	1.42796	0.297127	5.38176	0.460807	8.39645	0.579853	9.98657	0.8502	14.2464	0.215748	3.90994	0.439162	7.91271	0.71091	11.8154	0.894352	14.8073
0.300918	4.94141	0.0904117	1.43713	0.297723	5.30307	0.461461	8.268	0.580003	9.95265	0.850566	14.0334	0.217653	3.87898	0.439821	7.79376	0.711287	11.6414	0.894723	14.5885
0.301573	4.87755	0.0923238	1.4461	0.298329	5.22711	0.462124	8.14394	0.580219	9.90434	0.850936	13.827	0.219566	3.84915	0.440491	7.67885	0.711669	11.4727	0.895099	14.3762
0.302239	4.81575	0.0942407	1.4549	0.298944	5.15377	0.462798	8.02405	0.580456	9.85241	0.851312	13.6268	0.221485	3.8204	0.441171	7.56779	0.712058	11.3091	0.895481	14.1703
0.302914	4.7559	0.0961621	1.46351	0.29957	5.08291	0.46348	7.90814	0.580779	9.78275	0.851694	13.4325	0.223412	3.79267	0.441861	7.46039	0.712452	11.1503	0.895868	13.9704
0.30351	4.70528	0.0980877	1.47194	0.300205	5.01441	0.464173	7.79602	0.581191	9.69622	0.852081	13.244	0.225344	3.76591	0.442561	7.35648	0.712851	10.9962	0.89626	13.7764
0.304024	4.66322	0.100018	1.48021	0.30085	4.94818	0.464875	7.68752	0.581695	9.59384	0.852473	13.061	0.227283	3.74008	0.443271	7.25591	0.713257	10.8466	0.896658	13.5879
0.304453	4.62916	0.101952	1.48831	0.301505	4.88411	0.465586	7.58246	0.582292	9.47679	0.852871	12.8832	0.229227	3.71512	0.44399	7.15851	0.713668	10.7012	0.897062	13.4048
0.304795	4.60269	0.103889	1.49625	0.302169	4.82209	0.466307	7.48069	0.582986	9.34636	0.853275	12.7104	0.231177	3.69099	0.44472	7.06416	0.71403	10.5779	0.89747	13.2267
0.305048	4.58348	0.105831	1.50403	0.302843	4.76204	0.467038	7.38207	0.583689	9.21992	0.853684	12.5424	0.233133	3.66766	0.445459	6.97271	0.714343	10.4751	0.897884	13.0536
0.305211	4.57129	0.107776	1.51166	0.303527	4.70388	0.467777	7.28646	0.584402	9.0973	0.854098	12.3791	0.235094	3.64508	0.446208	6.88404	0.714604	10.3917	0.898304	12.8852
0.305445	4.55392	0.109725	1.51913	0.304221	4.64753	0.468526	7.19372	0.585124	8.97832	0.854518	12.2201	0.23706	3.62323	0.446967	6.79803	0.714811	10.3268	0.898729	12.7213
0.305701	4.53524	0.111677	1.52647	0.304924	4.5929	0.469284	7.10375	0.585856	8.86284	0.854944	12.0655	0.239031	3.60206	0.447736	6.71457	0.714965	10.2796	0.899159	12.5617
0.306051	4.51016	0.113632	1.53366	0.305637	4.53992	0.470052	7.01641	0.586597	8.75071	0.855374	11.9149	0.241007	3.58155	0.448514	6.63356	0.715064	10.2496	0.899595	12.4063
0.306498	4.47895	0.11559	1.54071	0.306359	4.48854	0.470828	6.9316	0.587347	8.64179	0.855811	11.7682	0.242987	3.56166	0.449301	6.55488	0.715206	10.2069	0.900036	12.2549
0.307042	4.44198	0.117299	1.54675	0.307092	4.43868	0.471614	6.84921	0.588106	8.53595	0.856252	11.6254	0.244972	3.54238	0.450099	6.47845	0.715361	10.1609	0.900482	12.1074
0.307688	4.39965	0.118757	1.55182	0.307834	4.39028	0.472408	6.76916	0.588875	8.43306	0.856699	11.4861	0.246961	3.52366	0.450905	6.40418	0.715574	10.099	0.900934	11.9636
0.308437	4.35238	0.119964	1.55596	0.308585	4.34329	0.473212	6.69134	0.589652	8.33302	0.857152	11.3504	0.248954	3.5055	0.451722	6.33199	0.715845	10.0218	0.901391	11.8234
0.309197	4.30648	0.120919	1.5592	0.309347	4.29765	0.474024	6.61568	0.590439	8.2357	0.85761	11.2181	0.250951	3.48786	0.452547	6.26178	0.716175	9.93024	0.901853	11.6866
0.309966	4.26189	0.121622	1.56156	0.310118	4.25331	0.474846	6.54207	0.591235	8.141	0.858073	11.089	0.252952	3.47073	0.453383	6.19349	0.716566	9.82505	0.90232	11.5532
0.310745	4.21856	0.122072	1.56306	0.310899	4.21022	0.475676	6.47045	0.592039	8.04882	0.858542	10.963	0.254957	3.45408	0.454227	6.12705	0.71702	9.70727	0.902793	11.423
0.311534	4.17644	0.122719	1.56521	0.311689	4.16833	0.476515	6.40074	0.592853	7.95907	0.858954	10.8558	0.256965	3.43789	0.455081	6.06237	0.71748	9.5925	0.903271	11.2959
0.312332	4.13549	0.123423	1.56753	0.312489	4.1276	0.477362	6.33287	0.593675	7.87165	0.859309	10.7661	0.258976	3.42214	0.455944	5.99941	0.717946	9.48063	0.903755	11.1717
0.31314	4.09566	0.12438	1.57067	0.313299	4.08799	0.478218	6.26677	0.594507	7.78649	0.859605	10.6931	0.260991	3.40683	0.456816	5.93809	0.718417	9.37155	0.904243	11.0505
0.313958	4.05692	0.125592	1.57459	0.314119	4.04946	0.479083	6.20237	0.595347	7.70349	0.859841	10.6362	0.263009	3.39192	0.457697	5.87835	0.718893	9.26516	0.904673	10.9471
0.314785	4.01923	0.127059	1.57927	0.314948	4.01196	0.479956	6.13962	0.596196	7.62258	0.860015	10.5947	0.26503	3.3774	0.458588	5.82014	0.719375	9.16137	0.905043	10.8607
0.315622	3.98254	0.128781	1.58469	0.315788	3.97547	0.480837	6.07845	0.597054	7.54368	0.860126	10.5684	0.267055	3.36326	0.459487	5.76341	0.719863	9.06008	0.905351	10.7903
0.316469	3.94683	0.130759	1.59079	0.316637	3.93995	0.481728	6.01881	0.59792	7.46673	0.860287	10.5307	0.269082	3.34949	0.460396	5.7081	0.720356	8.96121	0.905596	10.7353
0.317326	3.91206	0.13274	1.59679	0.317495	3.90535	0.482626	5.96065	0.598795	7.39166	0.860463	10.4901	0.271112	3.33607	0.461313	5.65416	0.720855	8.86467	0.905777	10.6952
0.318193	3.87819	0.134722	1.60268	0.318364	3.87167	0.483532	5.90391	0.599679	7.31839	0.860703	10.4355	0.273144	3.32298	0.46224	5.60155	0.72136	8.77038	0.905893	10.6698
0.319069	3.84521	0.136707	1.60846	0.319242	3.83885	0.484447	5.84855	0.600571	7.24688	0.861008	10.3673	0.275179	3.31022	0.463175	5.55022	0.721869	8.67828	0.90606	10.6334
0.319956	3.81308	0.138694	1.61414	0.32013	3.80688	0.48537	5.79451	0.601471	7.17706	0.86138	10.286	0.277217	3.29777	0.46412	5.50013	0.722385	8.58828	0.906242	10.5942
0.320852	3.78177	0.140683	1.61972	0.321028	3.77573	0.486301	5.74177	0.602381	7.10888	0.86182	10.1925	0.279257	3.28563	0.465073	5.45124	0.722906	8.50032	0.906492	10.5413
0.321758	3.75125	0.142673	1.62521	0.321936	3.74537	0.48724	5.69026	0.603298	7.04227	0.86233	10.0873	0.281299	3.27377	0.466035	5.4035	0.723432	8.41433	0.906809	10.4753
0.322673	3.7215	0.144666	1.6306	0.322854	3.71577	0.488188	5.63995	0.604224	6.9772	0.862845	9.98454	0.283344	3.26219	0.467005	5.35689	0.723964	8.33024	0.907195	10.3966
0.323599	3.6925	0.14666	1.6359	0.323782	3.68691	0.489143	5.59081	0.605158	6.91361	0.863365	9.884	0.285391	3.25089	0.467984	5.31136	0.724502	8.24801	0.907651	10.306
0.324535	3.66423	0.148655	1.6411	0.32472	3.65877	0.490106	5.54279	0.606101	6.85145	0.863891	9.78564	0.28744	3.23985	0.468972	5.26687	0.725045	8.16756	0.90818	10.204
0.325481	3.63665	0.150653	1.64622	0.325668	3.63133	0.491077	5.49586	0.607051	6.79067	0.864422	9.6894	0.289491	3.22905	0.469969	5.22341	0.725593	8.08884	0.908713	10.1042
0.326437	3.60975	0.152652	1.65125	0.326625	3.60457	0.492055	5.44998	0.60801	6.73124	0.864958	9.5952	0.291544	3.21851	0.470974	5.18093	0.726147	8.0118	0.909252	10.0066
0.327403	3.58352	0.154652	1.6562	0.327593	3.57846	0.493041	5.40513	0.608977	6.67312	0.8655	9.50299	0.293599	3.20819	0.471987	5.13941	0.726707	7.93639	0.909796	9.91092
0.328379	3.55792	0.156654	1.66106	0.328572	3.55298	0.494035	5.36127	0.609952	6.61625	0.866047	9.41271	0.295656	3.19811	0.473009	5.09881	0.727272	7.86256	0.910345	9.81727
0.329366	3.53294	0.158657	1.66584	0.32956	3.52812	0.495037	5.31836	0.610935	6.56061	0.866599	9.32429	0.297715	3.18825	0.47404	5.05911	0.727842	7.79025	0.910899	9.72552
0.330362	3.50857	0.160662	1.67055	0.330559	3.50387	0.496046	5.27639	0.611926	6.50616	0.867156	9.23768	0.299775	3.17859	0.475079	5.02027	0.728418	7.71944	0.911459	9.63564
0.331369	3.48478	0.162667	1.67518	0.331568	3.48019	0.497063	5.23532	0.612925	6.45286	0.867719	9.15283	0.301837	3.16915	0.476126	4.98229	0.728999	7.65006	0.912023	9.54757
0.332387	3.46157	0.164674	1.67973	0.332587	3.45709	0.498087	5.19513	0.613932	6.40068	0.868287	9.06969	0.3039	3.1599	0.477181	4.94512	0.729586	7.58209	0.912592	9.46125
0.333415	3.4389	0.166683	1.68421	0.333617	3.43453	0.499118	5.15578	0.614947	6.34958	0.86886	8.9882	0.305965	3.15085	0.478245	4.90875	0.730178	7.51548	0.913167	9.37663
0.334453	3.41678	0.168692	1.68861	0.334658	3.41251	0.500157	5.11727	0.615969	6.29954	0.869438	8.90832	0.308032	3.14199	0.479317	4.87315	0.730776	7.45018	0.913746	9.29367
0.335502	3.39518	0.170702	1.69295	0.335709	3.39101	0.501203	5.07955	0.617	6.25052	0.870022	8.83001	0.3101	3.1333	0.480397	4.8383	0.731379	7.38617	0.914331	9.21232
0.336562	3.3741	0.172714	1.69722	0.336771	3.37002	0.502257	5.04261	0.618038	6.20249	0.87061	8.75321	0.312169	3.12479	0.481485	4.80418	0.731987	7.32341	0.91492	9.13253
0.337633	3.35351	0.174727	1.70142	0.337844	3.34953	0.503317	5.00643	0.619083	6.15543	0.871204	8.67789	0.31424	3.11646	0.482581	4.77076	0.732601	7.26186	0.915515	9.05426
0.338714	3.3334	0.17674	1.70555	0.338927	3.32952	0.504385	4.97098	0.620137	6.10931	0.871803	8.60401	0.316312	3.10828	0.483685	4.73804	0.73322	7.20149	0.916114	8.97747
0.339807	3.31377	0.178755	1.70962	0.340022	3.30998	0.50546	4.93625	0.621197	6.0641	0.872408	8.53153	0.318385	3.10027	0.484798	4.70598	0.733844	7.14226	0.916719	8.90211
0.340911	3.2946	0.18077	1.71362	0.341128	3.2909	0.506542	4.90221	0.622266	6.01978	0.873017	8.4604	0.320459	3.09241	0.485918	4.67458	0.734474	7.08415	0.917328	8.82816
0.342026	3.27588	0.182786	1.71757	0.342246	3.27227	0.50763	4.86884	0.623342	5.97632	0.873632	8.3906	0.322534	3.08471	0.487046	4.64381	0.73511	7.02713	0.917942	8.75556
0.343152	3.2576	0.184803	1.72145	0.343374	3.25407	0.508726	4.83613	0.624425	5.9337	0.874251	8.32208	0.324611	3.07715	0.488182	4.61366	0.73575	6.97117	0.918562	8.68429
0.34429	3.23975	0.186821	1.72528	0.344514	3.2363	0.509829	4.80407	0.625516	5.8919	0.874876	8.25482	0.326688	3.06973	0.489326	4.5841	0.736396	6.91624	0.919186	8.61432
0.34544	3.22231	0.18884	1.72904	0.345666	3.21895	0.510938	4.77262	0.626614	5.8509	0.875506	8.18877	0.328767	3.06245	0.490477	4.55513	0.737048	6.8623	0.919815	8.5456
0.346601	3.20529	0.19086	1.73275	0.34683	3.20201	0.512054	4.74178	0.627719	5.81067	0.876141	8.12392	0.330846	3.0553	0.491637	4.52673	0.737704	6.80935	0.920449	8.4781
0.347775	3.18867	0.19288	1.7364	0.348006	3.18546	0.513177	4.71153	0.628831	5.77119	0.876781	8.06022	0.332927	3.04829	0.492804	4.49888	0.738366	6.75735	0.921088	8.4118
0.348961	3.17244	0.194901	1.74	0.349194	3.16931	0.514307	4.68185	0.629951	5.73245	0.877426	7.99765	0.335008	3.0414	0.493978	4.47157	0.739033	6.70627	0.921732	8.34666
0.350159	3.1566	0.196922	1.74355	0.350395	3.15354	0.515443	4.65273	0.631078	5.69443	0.878077	7.93618	0.33709	3.03463	0.495161	4.44479	0.739706	6.6561	0.92238	8.28265
0.35137	3.14113	0.198945	1.74704	0.351608	3.13814	0.516586	4.62416	0.632212	5.6571	0.878732	7.87579	0.339173	3.02798	0.49635	4.41851	0.740384	6.60681	0.923034	8.21975
0.352593	3.12603	0.200967	1.75048	0.352834	3.12312	0.517735	4.59611	0.633353	5.62045	0.879392	7.81643	0.341256	3.02145	0.497548	4.39274	0.741067	6.55838	0.923692	8.15793
0.35383	3.11129	0.202991	1.75387	0.354073	3.10845	0.518891	4.56859	0.634501	5.58447	0.880058	7.7581	0.34334	3.01504	0.498753	4.36745	0.741756	6.51079	0.924355	8.09715
0.355079	3.09691	0.205015	1.75722	0.355326	3.09413	0.520053	4.54156	0.635656	5.54913	0.880728	7.70076	0.345425	3.00873	0.499965	4.34264	0.742449	6.46402	0.925023	8.03741
0.356342	3.08288	0.207039	1.76051	0.356591	3.08017	0.521222	4.51503	0.636818	5.51442	0.881404	7.6444	0.347511	3.00253	0.501185	4.31829	0.743148	6.41804	0.925695	7.97866
0.357619	3.06918	0.209065	1.76376	0.357871	3.06654	0.522397	4.48898	0.637987	5.48033	0.882085	7.58898	0.349597	2.99643	0.502412	4.29439	0.743852	6.37284	0.926373	7.92089
0.35891	3.05583	0.21109	1.76696	0.359165	3.05325	0.523578	4.4634	0.639162	5.44683	0.88277	7.53448	0.351684	2.99044	0.503646	4.27093	0.744562	6.32841	0.927055	7.86408
0.360215	3.0428	0.213116	1.77011	0.360472	3.04029	0.524765	4.43827	0.640345	5.41392	0.883461	7.48089	0.353771	2.98454	0.504888	4.24789	0.745277	6.28471	0.927742	7.80819
0.361535	3.0301	0.215143	1.77322	0.361795	3.02765	0.525959	4.41358	0.641534	5.38159	0.884156	7.42817	0.355859	2.97874	0.506137	4.22528	0.745997	6.24175	0.928434	7.75322
0.362869	3.01772	0.21717	1.77629	0.363132	3.01533	0.527159	4.38934	0.64273	5.3498	0.884857	7.37632	0.357947	2.97303	0.507393	4.20308	0.746722	6.19949	0.92913	7.69913
0.364219	3.00565	0.219197	1.77931	0.364485	3.00333	0.528364	4.36551	0.643932	5.31857	0.885562	7.32531	0.360036	2.96742	0.508657	4.18127	0.747452	6.15792	0.929831	7.64591
0.365584	2.9939	0.221225	1.78229	0.365853	2.99163	0.529576	4.3421	0.645141	5.28786	0.886273	7.27512	0.362125	2.96189	0.509927	4.15986	0.748188	6.11702	0.930537	7.59354
0.366964	2.98245	0.223253	1.78523	0.367236	2.98024	0.530794	4.31909	0.646357	5.25767	0.886988	7.22573	0.364214	2.95645	0.511205	4.13882	0.748928	6.07679	0.931247	7.542
0.368361	2.9713	0.225281	1.78813	0.368636	2.96915	0.532018	4.29647	0.647579	5.22799	0.887709	7.17712	0.366304	2.9511	0.51249	4.11816	0.749674	6.0372	0.931963	7.49126
0.369774	2.96045	0.22731	1.79099	0.370053	2.95836	0.533248	4.27425	0.648807	5.19881	0.888434	7.12928	0.368394	2.94583	0.513781	4.09786	0.750425	5.99825	0.932682	7.44132
0.371204	2.94989	0.229339	1.79381	0.371486	2.94786	0.534483	4.25239	0.650043	5.17011	0.889164	7.08219	0.370485	2.94063	0.51508	4.07792	0.751181	5.95991	0.933407	7.39215
0.372651	2.93963	0.231369	1.79659	0.372936	2.93765	0.535725	4.23091	0.651284	5.14188	0.8899	7.03584	0.372575	2.93552	0.516386	4.05832	0.751943	5.92217	0.934136	7.34374
0.374115	2.92965	0.233398	1.79933	0.374404	2.92773	0.536972	4.20978	0.652532	5.11411	0.89064	6.9902	0.374666	2.93048	0.517698	4.03906	0.752709	5.88502	0.93487	7.29606
0.375597	2.91995	0.235428	1.80204	0.375889	2.91808	0.538225	4.18901	0.653786	5.08679	0.891385	6.94526	0.376757	2.92552	0.519018	4.02013	0.753481	5.84845	0.935608	7.24912
0.377097	2.91053	0.237459	1.80471	0.377393	2.90872	0.539484	4.16857	0.655046	5.05992	0.892134	6.901	0.378849	2.92063	0.520344	4.00153	0.754258	5.81245	0.936351	7.20287
0.378616	2.90138	0.239489	1.80734	0.378915	2.89963	0.540748	4.14848	0.656312	5.03348	0.892889	6.85742	0.38094	2.91581	0.521677	3.98324	0.75504	5.777	0.937098	7.15733
0.380153	2.89251	0.24152	1.80994	0.380456	2.89081	0.542018	4.12871	0.657585	5.00746	0.893649	6.81449	0.383032	2.91105	0.523017	3.96526	0.755827	5.74209	0.93785	7.11246
0.381709	2.88391	0.243551	1.81251	0.382016	2.88225	0.543293	4.10926	0.658863	4.98185	0.894413	6.77221	0.385123	2.90637	0.524364	3.94759	0.756619	5.7077	0.938607	7.06825
0.383284	2.87557	0.245582	1.81504	0.383595	2.87397	0.544574	4.09013	0.660148	4.95664	0.895182	6.73055	0.387215	2.90175	0.525717	3.93021	0.757416	5.67384	0.939368	7.0247
0.384879	2.86749	0.247613	1.81754	0.385194	2.86594	0.545861	4.0713	0.661439	4.93183	0.895956	6.68951	0.389306	2.8972	0.527077	3.91312	0.758218	5.64048	0.940133	6.98178
0.386494	2.85967	0.249645	1.82	0.386813	2.85817	0.547153	4.05277	0.662736	4.90741	0.896735	6.64907	0.391398	2.89271	0.528444	3.89631	0.759026	5.60762	0.940903	6.93948
0.388129	2.85211	0.251677	1.82243	0.388451	2.85065	0.54845	4.03454	0.664038	4.88337	0.897519	6.60922	0.39349	2.88828	0.529817	3.87979	0.759838	5.57525	0.941678	6.8978
0.389784	2.84479	0.253709	1.82484	0.39011	2.84339	0.549753	4.01659	0.665347	4.85969	0.898308	6.56996	0.395582	2.88391	0.531197	3.86353	0.760655	5.54335	0.942457	6.85671
0.391459	2.83772	0.255741	1.82721	0.39179	2.83637	0.551061	3.99893	0.666661	4.83638	0.899101	6.53125	0.397673	2.8796	0.532583	3.84754	0.761478	5.51192	0.943241	6.81621
0.393155	2.8309	0.257773	1.82955	0.393489	2.82959	0.552374	3.98154	0.667981	4.81342	0.899899	6.4931	0.399765	2.87535	0.533976	3.83181	0.762305	5.48094	0.944029	6.77628
0.394871	2.82431	0.259805	1.83186	0.39521	2.82305	0.553692	3.96442	0.669307	4.79081	0.900702	6.4555	0.401856	2.87115	0.535375	3.81634	0.763138	5.45042	0.944821	6.73691
0.396608	2.81795	0.261837	1.83414	0.396951	2.81674	0.555016	3.94756	0.670639	4.76854	0.901509	6.41843	0.403947	2.867	0.536781	3.80111	0.763975	5.42033	0.945618	6.69809
0.398366	2.81183	0.26387	1.83639	0.398713	2.81066	0.556345	3.93097	0.671976	4.74661	0.902322	6.38188	0.406038	2.86291	0.538193	3.78613	0.764818	5.39067	0.946419	6.65982
0.400145	2.80593	0.265902	1.83861	0.400495	2.8048	0.557679	3.91462	0.673319	4.725	0.903139	6.34584	0.408129	2.85888	0.539612	3.77139	0.765665	5.36144	0.947225	6.62207
0.401943	2.80025	0.267935	1.84081	0.402298	2.79916	0.559018	3.89852	0.674668	4.70371	0.903961	6.3103	0.41022	2.85489	0.541037	3.75689	0.766517	5.33262	0.948035	6.58484
0.403763	2.79478	0.269968	1.84298	0.404121	2.79374	0.560362	3.88267	0.676022	4.68273	0.904787	6.27526	0.412311	2.85095	0.542468	3.74261	0.767375	5.3042	0.948849	6.54812
0.405602	2.78952	0.272001	1.84512	0.405965	2.78852	0.561711	3.86705	0.677382	4.66206	0.905618	6.2407	0.414401	2.84706	0.543905	3.72856	0.768237	5.27618	0.949668	6.5119
0.407462	2.78447	0.274033	1.84724	0.407828	2.7835	0.563065	3.85167	0.678747	4.64169	0.906454	6.20661	0.416491	2.84322	0.545349	3.71473	0.769104	5.24855	0.950491	6.47617
0.409341	2.77962	0.276066	1.84932	0.409711	2.77869	0.564424	3.83652	0.680117	4.62162	0.907295	6.17298	0.41858	2.83943	0.546798	3.70112	0.769977	5.22131	0.951318	6.44092
0.41124	2.77495	0.278099	1.85139	0.411614	2.77406	0.565788	3.82158	0.681493	4.60183	0.90814	6.13982	0.42067	2.83568	0.548254	3.68772	0.770854	5.19444	0.95215	6.40614
0.413158	2.77048	0.280132	1.85342	0.413535	2.76962	0.567157	3.80687	0.682874	4.58233	0.90899	6.10709	0.422759	2.83198	0.549716	3.67453	0.771736	5.16794	0.952986	6.37183
0.415094	2.76618	0.282165	1.85544	0.415476	2.76536	0.56853	3.79238	0.684261	4.56311	0.909844	6.07481	0.424848	2.82832	0.551185	3.66154	0.772623	5.14179	0.953826	6.33796
0.417049	2.76206	0.284198	1.85742	0.417434	2.76127	0.569909	3.77809	0.685653	4.54416	0.910704	6.04295	0.426936	2.8247	0.552659	3.64875	0.773514	5.11601	0.954671	6.30454
0.419022	2.75811	0.286231	1.85939	0.419411	2.75735	0.571292	3.76401	0.68705	4.52547	0.911567	6.01152	0.429024	2.82112	0.554139	3.63615	0.774411	5.09057	0.955519	6.27156
0.421013	2.75432	0.288264	1.86133	0.421405	2.7536	0.57268	3.75013	0.688452	4.50705	0.912436	5.9805	0.431111	2.81759	0.555626	3.62375	0.775313	5.06547	0.956372	6.23901
0.423021	2.75069	0.290296	1.86325	0.423416	2.74999	0.574072	3.73645	0.68986	4.48888	0.913309	5.94989	0.433198	2.81409	0.557118	3.61154	0.776219	5.04071	0.95723	6.20687
0.425045	2.74721	0.292329	1.86514	0.425443	2.74654	0.575469	3.72297	0.691272	4.47097	0.914186	5.91968	0.435285	2.81064	0.558616	3.59951	0.77713	5.01628	0.958091	6.17515
0.427085	2.74387	0.294362	1.86701	0.427486	2.74323	0.576871	3.70968	0.69269	4.4533	0.915069	5.88985	0.437371	2.80722	0.560121	3.58767	0.778046	4.99217	0.958957	6.14384
0.429141	2.74067	0.296395	1.86886	0.429545	2.74006	0.578277	3.69658	0.694112	4.43588	0.915955	5.86042	0.439457	2.80384	0.561631	3.576	0.778967	4.96838	0.959827	6.11292
0.431212	2.73761	0.298428	1.87069	0.431619	2.73702	0.579688	3.68366	0.69554	4.41869	0.916847	5.83136	0.441542	2.80049	0.563147	3.56451	0.779893	4.9449	0.960701	6.0824
0.433297	2.73467	0.30046	1.8725	0.433707	2.73411	0.581104	3.67092	0.696973	4.40174	0.917743	5.80267	0.443627	2.79719	0.564668	3.55318	0.780824	4.92172	0.961579	6.05226
0.435396	2.73186	0.302493	1.87428	0.435809	2.73132	0.582523	3.65835	0.69841	4.38501	0.918643	5.77435	0.445711	2.79391	0.566196	3.54203	0.781759	4.89885	0.962461	6.02249
0.437509	2.72916	0.304525	1.87604	0.437925	2.72865	0.583948	3.64596	0.699852	4.36852	0.919548	5.74638	0.447794	2.79068	0.567729	3.53104	0.782699	4.87627	0.963348	5.9931
0.439635	2.72658	0.306558	1.87779	0.440053	2.72608	0.585376	3.63375	0.7013	4.35224	0.920457	5.71877	0.449877	2.78747	0.569269	3.52022	0.783644	4.85398	0.964238	5.96407
0.441774	2.7241	0.30859	1.87951	0.442194	2.72362	0.586809	3.6217	0.702752	4.33618	0.921371	5.6915	0.451959	2.7843	0.570813	3.50955	0.784594	4.83198	0.965133	5.9354
0.443924	2.72172	0.310623	1.88121	0.444346	2.72127	0.588247	3.60981	0.704208	4.32033	0.92229	5.66458	0.454041	2.78116	0.572364	3.49904	0.785548	4.81026	0.966032	5.90708
0.446086	2.71944	0.312655	1.8829	0.44651	2.719	0.589688	3.59809	0.70567	4.30469	0.923213	5.63798	0.456122	2.77805	0.57392	3.48868	0.786507	4.78881	0.966935	5.87911
0.448258	2.71725	0.314687	1.88456	0.448685	2.71683	0.591134	3.58652	0.707136	4.28926	0.92414	5.61172	0.458203	2.77498	0.575482	3.47848	0.787471	4.76763	0.967842	5.85148
0.450442	2.71515	0.316719	1.8862	0.45087	2.71475	0.592585	3.57511	0.708607	4.27402	0.925072	5.58577	0.460282	2.77193	0.577049	3.46842	0.78844	4.74672	0.968752	5.82418
0.452635	2.71314	0.318751	1.88783	0.453066	2.71275	0.594039	3.56385	0.710082	4.25899	0.926008	5.56015	0.462362	2.76892	0.578622	3.4585	0.789413	4.72607	0.969667	5.79721
0.454838	2.7112	0.320783	1.88944	0.455271	2.71083	0.595498	3.55274	0.711562	4.24415	0.926949	5.53483	0.46444	2.76593	0.580201	3.44873	0.790391	4.70568	0.970587	5.77056
0.457051	2.70934	0.322815	1.89103	0.457485	2.70899	0.596961	3.54178	0.713047	4.2295	0.927894	5.50982	0.466518	2.76298	0.581785	3.4391	0.791374	4.68554	0.97151	5.74423
0.459272	2.70755	0.324846	1.8926	0.459708	2.70721	0.598428	3.53097	0.714536	4.21504	0.928844	5.48512	0.468595	2.76005	0.583375	3.42961	0.792361	4.66565	0.972437	5.71821
0.461501	2.70584	0.326878	1.89415	0.461939	2.70551	0.599899	3.5203	0.716029	4.20076	0.929798	5.46071	0.470671	2.75714	0.58497	3.42026	0.793353	4.646	0.973368	5.6925
0.463739	2.70418	0.328909	1.89569	0.464178	2.70387	0.601374	3.50976	0.717527	4.18666	0.930756	5.43659	0.472746	2.75427	0.58657	3.41103	0.79435	4.62659	0.974303	5.66708
0.465984	2.70259	0.33094	1.89721	0.466425	2.70229	0.602853	3.49937	0.71903	4.17275	0.931719	5.41275	0.474821	2.75142	0.588176	3.40194	0.795351	4.60742	0.975242	5.64197
0.468237	2.70106	0.332971	1.89871	0.468679	2.70077	0.604336	3.48911	0.720537	4.159	0.932686	5.3892	0.476895	2.7486	0.589787	3.39297	0.796357	4.58849	0.976185	5.61715
0.470496	2.69959	0.335002	1.9002	0.47094	2.69931	0.605823	3.47898	0.722048	4.14543	0.933658	5.36593	0.478968	2.7458	0.591404	3.38414	0.797368	4.56978	0.977131	5.59261
0.472763	2.69817	0.337033	1.90167	0.473207	2.6979	0.607315	3.46898	0.723563	4.13203	0.934634	5.34293	0.48104	2.74303	0.593026	3.37542	0.798383	4.55129	0.978082	5.56836
0.475036	2.6968	0.339063	1.90312	0.475481	2.69654	0.60881	3.45911	0.725083	4.11879	0.935614	5.3202	0.483112	2.74029	0.594653	3.36683	0.799403	4.53303	0.979037	5.54439
0.477314	2.69548	0.341094	1.90455	0.477761	2.69523	0.610309	3.44937	0.726606	4.10572	0.936599	5.29773	0.485182	2.73756	0.596286	3.35836	0.800427	4.51499	0.979995	5.52069
0.479599	2.69421	0.343124	1.90598	0.480047	2.69396	0.611811	3.43975	0.728134	4.09281	0.937588	5.27552	0.487252	2.73486	0.597924	3.35	0.801456	4.49716	0.980958	5.49726
0.481889	2.69298	0.345154	1.90738	0.482338	2.69274	0.613318	3.43026	0.729667	4.08005	0.938581	5.25357	0.489321	2.73219	0.599567	3.34176	0.80249	4.47954	0.981924	5.47409
0.484185	2.69179	0.347184	1.90877	0.484635	2.69156	0.614829	3.42088	0.731203	4.06745	0.939578	5.23187	0.491389	2.72954	0.601215	3.33364	0.803528	4.46213	0.982894	5.45119
0.486485	2.69064	0.349214	1.91015	0.486936	2.69042	0.616343	3.41162	0.732743	4.05501	0.94058	5.21041	0.493456	2.72691	0.602868	3.32563	0.804571	4.44492	0.983868	5.42854
0.488791	2.68953	0.351244	1.91151	0.489243	2.68932	0.617861	3.40247	0.734288	4.04271	0.941586	5.1892	0.495522	2.7243	0.604527	3.31772	0.805618	4.42791	0.984846	5.40614
0.491101	2.68846	0.353273	1.91285	0.491554	2.68826	0.619383	3.39344	0.735836	4.03056	0.942596	5.16823	0.497587	2.72171	0.60619	3.30993	0.80667	4.4111	0.985828	5.38399
0.493415	2.68743	0.355302	1.91418	0.493869	2.68723	0.620909	3.38453	0.737389	4.01855	0.943611	5.1475	0.499652	2.71914	0.607859	3.30224	0.807726	4.39449	0.986813	5.36209
0.495734	2.68642	0.357331	1.9155	0.496188	2.68623	0.622438	3.37572	0.738945	4.00669	0.94463	5.127	0.501715	2.7166	0.609533	3.29466	0.808787	4.37807	0.987802	5.34043
0.498056	2.68545	0.35936	1.9168	0.498512	2.68526	0.623971	3.36702	0.740506	3.99497	0.945653	5.10673	0.503777	2.71407	0.611212	3.28718	0.809852	4.36184	0.988795	5.31901
0.500383	2.68451	0.361389	1.91809	0.500839	2.68433	0.625507	3.35843	0.74207	3.98339	0.94668	5.08668	0.505839	2.71157	0.612896	3.2798	0.810922	4.34579	0.989792	5.29782
0.502713	2.68359	0.363417	1.91937	0.50317	2.68342	0.627048	3.34994	0.743638	3.97194	0.947712	5.06686	0.507899	2.70909	0.614584	3.27252	0.811996	4.32993	0.990793	5.27686
0.505046	2.68271	0.365446	1.92063	0.505504	2.68254	0.628591	3.34155	0.74521	3.96063	0.948747	5.04726	0.509959	2.70662	0.616278	3.26534	0.813075	4.31425	0.991797	5.25612
0.507383	2.68185	0.367474	1.92188	0.507841	2.68168	0.630139	3.33327	0.746786	3.94945	0.949787	5.02787	0.512017	2.70417	0.617977	3.25826	0.814158	4.29874	0.992805	5.23561
0.509723	2.68102	0.369502	1.92311	0.510182	2.68085	0.63169	3.32509	0.748365	3.93839	0.950831	5.00869	0.514075	2.70175	0.61968	3.25127	0.815245	4.28341	0.993816	5.21532
0.512067	2.68021	0.371529	1.92433	0.512526	2.68005	0.633244	3.317	0.749949	3.92747	0.95188	4.98973	0.516131	2.69934	0.621389	3.24437	0.816337	4.26826	0.994832	5.19525
0.514413	2.67942	0.373557	1.92554	0.514872	2.67927	0.634802	3.30901	0.751536	3.91667	0.952932	4.97096	0.518187	2.69694	0.623102	3.23757	0.817434	4.25327	0.995851	5.17539
0.516761	2.67865	0.375584	1.92674	0.517222	2.67851	0.636364	3.30112	0.753126	3.90599	0.953989	4.95241	0.520241	2.69457	0.62482	3.23085	0.818535	4.23845	0.996873	5.15574
0.519113	2.67791	0.377611	1.92792	0.519574	2.67777	0.637929	3.29332	0.754721	3.89544	0.955049	4.93405	0.522295	2.69222	0.626543	3.22423	0.81964	4.2238	0.9979	5.1363
0.521467	2.67719	0.379638	1.92909	0.521928	2.67705	0.639497	3.28561	0.756319	3.885	0.956114	4.91589	0.524347	2.68988	0.628271	3.21769	0.820749	4.2093	0.99893	5.11706
0.523823	2.67648	0.381665	1.93025	0.524285	2.67634	0.641069	3.278	0.75792	3.87469	0.957183	4.89792	0.526398	2.68755	0.630003	3.21124	0.821863	4.19497	0.999964	5.09803
0.526182	2.67579	0.383691	1.9314	0.526644	2.67566	0.642644	3.27047	0.759525	3.86449	0.958256	4.88015	0.528449	2.68525	0.631741	3.20488	0.822982	4.1808	1.001	5.07919
0.528543	2.67513	0.385717	1.93254	0.529006	2.675	0.644223	3.26304	0.761134	3.8544	0.959333	4.86256	0.530498	2.68296	0.633483	3.1986	0.824104	4.16678		
0.530906	2.67447	0.387743	1.93366	0.531369	2.67435	0.645805	3.25568	0.762746	3.84442	0.960415	4.84516	0.532546	2.68069	0.635229	3.1924	0.825231	4.15292		
0.533271	2.67384	0.389769	1.93477	0.533735	2.67372	0.64739	3.24842	0.764361	3.83456	0.9615	4.82794	0.534593	2.67843	0.63698	3.18628	0.826363	4.1392		
0.535638	2.67322	0.391794	1.93587	0.536102	2.6731	0.648979	3.24124	0.76598	3.8248	0.962589	4.8109	0.536639	2.67619	0.638736	3.18024	0.827498	4.12564		
0.538007	2.67261	0.39382	1.93696	0.538471	2.6725	0.650571	3.23414	0.767603	3.81516	0.963683	4.79405	0.538684	2.67396	0.640496	3.17428	0.828638	4.11222		
0.540378	2.67202	0.395844	1.93804	0.540842	2.67191	0.652166	3.22712	0.769228	3.80561	0.96478	4.77736	0.540728	2.67175	0.642261	3.1684	0.829783	4.09894		
0.54275	2.67145	0.397869	1.93911	0.543215	2.67134	0.653764	3.22018	0.770857	3.79617	0.965882	4.76085	0.54277	2.66955	0.644031	3.16259	0.830931	4.08581		
0.545124	2.67088	0.399894	1.94017	0.545589	2.67077	0.655366	3.21333	0.77249	3.78684	0.966987	4.74451	0.544812	2.66737	0.645804	3.15686	0.832084	4.07282		
0.547499	2.67033	0.401918	1.94121	0.547965	2.67023	0.656971	3.20655	0.774126	3.7776	0.968097	4.72834	0.546852	2.6652	0.647583	3.1512	0.833241	4.05997		
0.549876	2.66979	0.403942	1.94225	0.550342	2.66969	0.658579	3.19985	0.775765	3.76847	0.96921	4.71234	0.548892	2.66305	0.649366	3.14561	0.834403	4.04726		
0.552255	2.66927	0.405966	1.94328	0.55272	2.66916	0.66019	3.19322	0.777407	3.75943	0.970328	4.6965	0.55093	2.66091	0.651153	3.1401	0.835568	4.03468		
0.554634	2.66875	0.40799	1.94429	0.5551	2.66865	0.661805	3.18667	0.779052	3.75049	0.971449	4.68082	0.552967	2.65878	0.652945	3.13465	0.836738	4.02223		
0.557015	2.66824	0.410013	1.9453	0.557481	2.66815	0.663422	3.18019	0.780701	3.74164	0.972575	4.66529	0.555003	2.65667	0.654741	3.12928	0.837912	4.00992		
0.559397	2.66775	0.412036	1.94629	0.559864	2.66765	0.665043	3.17379	0.782353	3.73289	0.973704	4.64993	0.557038	2.65457	0.656541	3.12397	0.839091	3.99773		
0.56178	2.66726	0.414059	1.94728	0.562247	2.66717	0.666667	3.16745	0.784008	3.72423	0.974838	4.63472	0.559071	2.65249	0.658345	3.11873	0.840273	3.98567		
0.564165	2.66679	0.416081	1.94825	0.564632	2.66669	0.668294	3.16119	0.785666	3.71566	0.975975	4.61967	0.561104	2.65042	0.660154	3.11356	0.84146	3.97374		
0.56655	2.66632	0.418104	1.94922	0.567017	2.66623	0.669924	3.15499	0.787327	3.70718	0.977116	4.60476	0.563135	2.64836	0.661968	3.10845	0.842651	3.96193		
0.568936	2.66586	0.420126	1.95017	0.569404	2.66577	0.671557	3.14887	0.788991	3.69879	0.978261	4.59	0.565165	2.64631	0.663785	3.10341	0.843846	3.95025		
0.571324	2.66541	0.422147	1.95112	0.571791	2.66532	0.673193	3.14281	0.790658	3.69049	0.97941	4.57539	0.567194	2.64427	0.665606	3.09843	0.845045	3.93868		
0.573712	2.66497	0.424169	1.95206	0.57418	2.66488	0.674833	3.13682	0.792328	3.68227	0.980563	4.56093	0.569222	2.64225	0.667432	3.09351	0.846249	3.92724		
0.576101	2.66453	0.42619	1.95299	0.576569	2.66445	0.676475	3.13089	0.794001	3.67414	0.98172	4.54661	0.571249	2.64024	0.669262	3.08865	0.847456	3.91591		
0.578491	2.66411	0.428211	1.9539	0.578959	2.66403	0.67812	3.12503	0.795677	3.66609	0.982881	4.53243	0.573275	2.63824	0.671096	3.08386	0.848668	3.9047		
0.580881	2.66369	0.430232	1.95481	0.58135	2.66361	0.679769	3.11924	0.797356	3.65812	0.984046	4.51838	0.575299	2.63626	0.672934	3.07912	0.849884	3.8936		
0.583273	2.66328	0.432253	1.95572	0.583741	2.6632	0.68142	3.1135	0.799038	3.65023	0.985214	4.50448	0.577323	2.63428	0.674776	3.07444	0.851104	3.88262		
0.585665	2.66287	0.434273	1.95661	0.586133	2.66279	0.683074	3.10783	0.800723	3.64243	0.986386	4.49071	0.579345	2.63232	0.676622	3.06982	0.852328	3.87175		
0.588057	2.66247	0.436293	1.95749	0.588526	2.66239	0.684731	3.10222	0.80241	3.6347	0.987563	4.47707	0.581366	2.63037	0.678472	3.06526	0.853556	3.86099		
0.590451	2.66207	0.438312	1.95837	0.590919	2.662	0.686392	3.09667	0.804101	3.62705	0.988743	4.46357	0.583386	2.62843	0.680326	3.06075	0.854788	3.85033		
0.592844	2.66169	0.440332	1.95923	0.593313	2.66161	0.688055	3.09118	0.805794	3.61948	0.989926	4.4502	0.585405	2.6265	0.682184	3.0563	0.856024	3.83979		
0.595239	2.6613	0.442351	1.96009	0.595708	2.66123	0.689721	3.08575	0.80749	3.61198	0.991114	4.43695	0.587423	2.62458	0.684046	3.0519	0.857265	3.82935		
0.597633	2.66093	0.44437	1.96094	0.598103	2.66085	0.69139	3.08038	0.809188	3.60455	0.992305	4.42383	0.589439	2.62267	0.685912	3.04756	0.858509	3.81901		
0.600029	2.66055	0.446388	1.96179	0.600498	2.66048	0.693061	3.07506	0.81089	3.5972	0.993501	4.41084	0.591455	2.62077	0.687782	3.04327	0.859758	3.80878		
0.602424	2.66019	0.448407	1.96262	0.602893	2.66012	0.694736	3.0698	0.812594	3.58992	0.9947	4.39797	0.593469	2.61889	0.689655	3.03903	0.86101	3.79865		
0.60482	2.65982	0.450425	1.96345	0.60529	2.65975	0.696414	3.0646	0.814301	3.58272	0.995902	4.38523	0.595482	2.61701	0.691532	3.03484	0.862267	3.78862		
0.607217	2.65947	0.452443	1.96426	0.607686	2.6594	0.698094	3.05945	0.81601	3.57558	0.997109	4.3726	0.597494	2.61515	0.693413	3.0307	0.863527	3.77869		
0.609613	2.65911	0.45446	1.96507	0.610083	2.65904	0.699777	3.05435	0.817722	3.56852	0.998319	4.36009	0.599505	2.61329	0.695298	3.02662	0.864792	3.76886		
0.61201	2.65876	0.456477	1.96588	0.61248	2.65869	0.701464	3.04931	0.819437	3.56152	0.999533	4.3477	0.601515	2.61145	0.697186	3.02258	0.86606	3.75912		
0.614407	2.65842	0.458494	1.96667	0.614877	2.65835	0.703153	3.04433	0.821154	3.55459	1.00075	4.33543	0.603524	2.60961	0.699079	3.01859	0.867333	3.74948		
0.616805	2.65807	0.460511	1.96746	0.617274	2.65801	0.704844	3.03939	0.822874	3.54772			0.605531	2.60779	0.700974	3.01465	0.868609	3.73994		
0.619202	2.65774	0.462527	1.96824	0.619672	2.65767	0.706539	3.03451	0.824596	3.54092			0.607538	2.60597	0.702873	3.01075	0.86989	3.73049		
0.6216	2.6574	0.464544	1.96901	0.62207	2.65733	0.708236	3.02967	0.826321	3.53419			0.609543	2.60416	0.704776	3.0069	0.871174	3.72113		
0.623998	2.65707	0.466559	1.96978	0.624468	2.657	0.709937	3.02489	0.828048	3.52752			0.611547	2.60237	0.706683	3.0031	0.872463	3.71186		
0.626396	2.65674	0.468575	1.97054	0.626866	2.65667	0.71164	3.02016	0.829778	3.52092			0.613551	2.60058	0.708593	2.99934	0.873755	3.70268		
0.628794	2.65641	0.47059	1.97129	0.629264	2.65635	0.713346	3.01547	0.83151	3.51437			0.615553	2.59881	0.710506	2.99562	0.875051	3.69359		
0.631192	2.65609	0.472605	1.97203	0.631662	2.65603	0.715054	3.01084	0.833244	3.50789			0.617554	2.59704	0.712423	2.99195	0.876351	3.68459		
0.63359	2.65577	0.47462	1.97277	0.63406	2.65571	0.716766	3.00625	0.834981	3.50147			0.619554	2.59528	0.714343	2.98832	0.877655	3.67567		
0.635989	2.65545	0.476634	1.9735	0.636458	2.65539	0.71848	3.00171	0.836721	3.49511			0.621553	2.59353	0.716267	2.98474	0.878963	3.66684		
0.638387	2.65513	0.478649	1.97422	0.638856	2.65507	0.720197	2.99722	0.838462	3.4888			0.62355	2.59179	0.718194	2.98119	0.880275	3.65809		
0.640785	2.65482	0.480663	1.97494	0.641254	2.65476	0.721917	2.99277	0.840206	3.48256			0.625547	2.59006	0.720124	2.97769	0.881591	3.64943		
0.643183	2.65451	0.482676	1.97565	0.643652	2.65445	0.723639	2.98837	0.841953	3.47637			0.627543	2.58834	0.722058	2.97423	0.882911	3.64085		
0.645581	2.6542	0.484689	1.97635	0.64605	2.65414	0.725364	2.98401	0.843701	3.47024			0.629538	2.58663	0.723994	2.9708	0.884234	3.63235		
0.647978	2.65389	0.486702	1.97705	0.648448	2.65383	0.727092	2.9797	0.845452	3.46417			0.631531	2.58492	0.725934	2.96742	0.885561	3.62394		
0.650376	2.65358	0.488715	1.97774	0.650845	2.65352	0.728823	2.97543	0.847205	3.45815			0.633524	2.58323	0.727878	2.96407	0.886893	3.6156		
0.652773	2.65328	0.490728	1.97843	0.653242	2.65322	0.730557	2.97121	0.848961	3.45219			0.635516	2.58154	0.729824	2.96077	0.888228	3.60734		
0.65517	2.65298	0.49274	1.97911	0.65564	2.65292	0.732293	2.96703	0.850718	3.44628			0.637506	2.57986	0.731774	2.9575	0.889566	3.59916		
0.657567	2.65267	0.494752	1.97978	0.658036	2.65261	0.734032	2.96289	0.852478	3.44042			0.639496	2.57819	0.733726	2.95427	0.890909	3.59105		
0.659963	2.65237	0.496763	1.98044	0.660433	2.65231	0.735773	2.95879	0.85424	3.43462			0.641485	2.57653	0.735682	2.95107	0.892256	3.58303		
0.66236	2.65207	0.498774	1.9811	0.662829	2.65201	0.737518	2.95474	0.856004	3.42886			0.643472	2.57488	0.737641	2.94791	0.893606	3.57507		
0.664756	2.65177	0.500785	1.98176	0.665225	2.65171	0.739265	2.95072	0.85777	3.42316			0.645459	2.57324	0.739603	2.94478	0.89496	3.56719		
0.667151	2.65147	0.502796	1.98241	0.66762	2.65142	0.741015	2.94675	0.859538	3.41751			0.647445	2.5716	0.741567	2.94169	0.896318	3.55939		
0.669546	2.65118	0.504807	1.98305	0.670015	2.65112	0.742768	2.94281	0.861308	3.41191			0.649429	2.56998	0.743535	2.93864	0.89768	3.55165		
0.671941	2.65088	0.506817	1.98368	0.67241	2.65082	0.744523	2.93892	0.863081	3.40636			0.651413	2.56836	0.745506	2.93562	0.899045	3.54399		
0.674336	2.65058	0.508827	1.98431	0.674804	2.65053	0.746282	2.93507	0.864855	3.40086			0.653396	2.56675	0.747479	2.93263	0.900414	3.5364		
0.676729	2.65029	0.510836	1.98494	0.677198	2.65023	0.748043	2.93125	0.866632	3.39541			0.655378	2.56514	0.749455	2.92967	0.901787	3.52888		
0.679123	2.64999	0.512845	1.98556	0.679591	2.64993	0.749806	2.92748	0.86841	3.39			0.657359	2.56355	0.751435	2.92675	0.903164	3.52143		
0.681516	2.64969	0.514854	1.98617	0.681984	2.64964	0.751573	2.92374	0.870191	3.38464			0.659339	2.56196	0.753416	2.92386	0.904544	3.51405		
0.683908	2.6494	0.516863	1.98678	0.684376	2.64934	0.753342	2.92004	0.871973	3.37933			0.661318	2.56038	0.755401	2.921	0.905928	3.50673		
0.6863	2.6491	0.518871	1.98738	0.686768	2.64904	0.755114	2.91637	0.873757	3.37406			0.663297	2.55881	0.757388	2.91817	0.907316	3.49948		
0.688691	2.64881	0.52088	1.98798	0.689159	2.64875	0.756889	2.91275	0.875543	3.36883			0.665274	2.55725	0.759378	2.91537	0.908708	3.4923		
0.691081	2.64851	0.522887	1.98857	0.691549	2.64845	0.758667	2.90916	0.877332	3.36366			0.667251	2.5557	0.761371	2.91261	0.910103	3.48518		
0.693471	2.64821	0.524895	1.98916	0.693939	2.64815	0.760447	2.9056	0.879122	3.35852			0.669227	2.55415	0.763366	2.90987	0.911502	3.47813		
0.69586	2.64791	0.526902	1.98974	0.696328	2.64786	0.76223	2.90209	0.880914	3.35343			0.671202	2.55261	0.765364	2.90716	0.912905	3.47114		
0.698248	2.64762	0.528909	1.99031	0.698716	2.64756	0.764017	2.8986	0.882707	3.34839			0.673176	2.55108	0.767365	2.90448	0.914311	3.46422		
0.700636	2.64732	0.530916	1.99089	0.701103	2.64726	0.765805	2.89516	0.884503	3.34338			0.675149	2.54955	0.769368	2.90183	0.915721	3.45736		
0.703023	2.64702	0.532922	1.99145	0.70349	2.64696	0.767597	2.89175	0.8863	3.33842			0.677121	2.54804	0.771373	2.8992	0.917135	3.45056		
0.705409	2.64672	0.534928	1.99201	0.705876	2.64666	0.769392	2.88837	0.8881	3.3335			0.679093	2.54653	0.773381	2.89661	0.918552	3.44382		
0.707794	2.64641	0.536934	1.99257	0.708261	2.64635	0.771189	2.88503	0.889901	3.32862			0.681064	2.54503	0.775392	2.89404	0.919973	3.43714		
0.710178	2.64611	0.538939	1.99312	0.710645	2.64605	0.77299	2.88172	0.891703	3.32378			0.683034	2.54353	0.777404	2.89149	0.921398	3.43052		
0.712561	2.64581	0.540944	1.99367	0.713028	2.64575	0.774793	2.87844	0.893508	3.31897			0.685003	2.54205	0.779419	2.88898	0.922826	3.42396		
0.714944	2.6455	0.542949	1.99421	0.71541	2.64544	0.776599	2.8752	0.895314	3.31421			0.686972	2.54057	0.781437	2.88649	0.924258	3.41746		
0.717325	2.64519	0.544954	1.99474	0.717791	2.64513	0.778408	2.87199	0.897122	3.30949			0.688939	2.5391	0.783457	2.88402	0.925694	3.41102		
0.719705	2.64488	0.546958	1.99527	0.720171	2.64482	0.78022	2.86881	0.898932	3.30481			0.690906	2.53763	0.785478	2.88158	0.927133	3.40463		
0.722085	2.64457	0.548962	1.9958	0.72255	2.64451	0.782035	2.86567	0.900743	3.30016			0.692873	2.53618	0.787503	2.87917	0.928576	3.3983		
0.724463	2.64426	0.550966	1.99632	0.724928	2.6442	0.783853	2.86256	0.902556	3.29556			0.694838	2.53473	0.789529	2.87678	0.930022	3.39203		
0.72684	2.64394	0.552969	1.99684	0.727305	2.64388	0.785674	2.85948	0.90437	3.29099			0.696803	2.53328	0.791558	2.87441	0.931472	3.38581		
0.729215	2.64363	0.554972	1.99736	0.729681	2.64356	0.787498	2.85643	0.906187	3.28645			0.698767	2.53185	0.793588	2.87207	0.932926	3.37965		
0.73159	2.64331	0.556975	1.99786	0.732055	2.64324	0.789325	2.85342	0.908004	3.28196			0.700731	2.53042	0.795621	2.86975	0.934383	3.37354		
0.733963	2.64298	0.558978	1.99837	0.734428	2.64292	0.791155	2.85043	0.909824	3.2775			0.702694	2.529	0.797656	2.86745	0.935844	3.36749		
0.736335	2.64266	0.56098	1.99887	0.7368	2.6426	0.792988	2.84748	0.911645	3.27307			0.704656	2.52759	0.799693	2.86518	0.937308	3.36149		
0.738706	2.64233	0.562982	1.99937	0.73917	2.64227	0.794825	2.84455	0.913467	3.26868			0.706617	2.52618	0.801732	2.86293	0.938776	3.35554		
0.741075	2.642	0.564983	1.99986	0.741539	2.64194	0.796664	2.84166	0.915291	3.26432			0.708578	2.52478	0.803773	2.8607	0.940247	3.34964		
0.743443	2.64167	0.566985	2.00034	0.743907	2.6416	0.798507	2.8388	0.917117	3.26			0.710538	2.52339	0.805816	2.85849	0.941722	3.3438		
0.74581	2.64133	0.568986	2.00083	0.746273	2.64127	0.800352	2.83597	0.918944	3.25571			0.712498	2.522	0.807861	2.8563	0.943201	3.33801		
0.748175	2.64099	0.570987	2.00131	0.748637	2.64093	0.802201	2.83317	0.920773	3.25146			0.714457	2.52062	0.809907	2.85414	0.944683	3.33227		
0.750538	2.64065	0.572987	2.00178	0.751	2.64058	0.804054	2.8304	0.922603	3.24724			0.716416	2.51925	0.811956	2.85199	0.946168	3.32657		
0.752899	2.64031	0.574987	2.00225	0.753362	2.64024	0.805909	2.82765	0.924434	3.24305			0.718373	2.51789	0.814006	2.84987	0.947657	3.32093		
0.755259	2.63996	0.576987	2.00272	0.755721	2.63989	0.807768	2.82494	0.926267	3.23889			0.720331	2.51653	0.816058	2.84776	0.94915	3.31534		
0.757618	2.6396	0.578987	2.00318	0.758079	2.63953	0.80963	2.82226	0.928102	3.23477			0.722287	2.51518	0.818112	2.84568	0.950646	3.30979		
0.759974	2.63925	0.580986	2.00364	0.760436	2.63918	0.811496	2.8196	0.929938	3.23068			0.724243	2.51383	0.820168	2.84361	0.952146	3.30429		
0.762329	2.63889	0.582985	2.00409	0.76279	2.63881	0.813365	2.81698	0.931775	3.22662			0.726199	2.5125	0.822225	2.84157	0.953649	3.29884		
0.764682	2.63852	0.584984	2.00454	0.765142	2.63845	0.815238	2.81438	0.933613	3.22259			0.728154	2.51117	0.824284	2.83954	0.955156	3.29344		
0.767033	2.63815	0.586982	2.00499	0.767493	2.63808	0.817114	2.81182	0.935453	3.21859			0.730109	2.50984	0.826345	2.83753	0.956666	3.28809		
0.769382	2.63778	0.58898	2.00543	0.769841	2.6377	0.818993	2.80928	0.937295	3.21462			0.732063	2.50853	0.828407	2.83554	0.95818	3.28278		
0.771729	2.6374	0.590978	2.00587	0.772188	2.63732	0.820876	2.80677	0.939137	3.21068			0.734016	2.50722	0.830471	2.83357	0.959697	3.27751		
0.774073	2.63702	0.592976	2.00631	0.774532	2.63694	0.822763	2.80428	0.940981	3.20677			0.735969	2.50591	0.832536	2.83161	0.961217	3.27229		
0.776416	2.63663	0.594973	2.00674	0.776875	2.63655	0.824654	2.80183	0.942827	3.20289			0.737922	2.50462	0.834603	2.82968	0.962741	3.26712		
0.778756	2.63623	0.59697	2.00717	0.779215	2.63616	0.826548	2.7994	0.944673	3.19903			0.739874	2.50332	0.836672	2.82776	0.964269	3.26199		
0.781095	2.63584	0.598966	2.00759	0.781552	2.63576	0.828446	2.79701	0.946521	3.19521			0.741826	2.50204	0.838742	2.82585	0.9658	3.2569		
0.783431	2.63543	0.600963	2.00801	0.783888	2.63535	0.830348	2.79464	0.94837	3.19142			0.743777	2.50076	0.840813	2.82397	0.967334	3.25186		
0.785764	2.63502	0.602959	2.00843	0.786221	2.63494	0.832253	2.79229	0.950221	3.18765			0.745728	2.49949	0.842885	2.8221	0.968872	3.24686		
0.788095	2.63461	0.604955	2.00884	0.788551	2.63453	0.834163	2.78998	0.952072	3.18391			0.747678	2.49823	0.84496	2.82025	0.970414	3.24191		
0.790423	2.63419	0.60695	2.00925	0.790879	2.63411	0.836076	2.78769	0.953925	3.1802			0.749628	2.49697	0.847035	2.81841	0.971959	3.23699		
0.792749	2.63376	0.608945	2.00966	0.793204	2.63368	0.837994	2.78543	0.955779	3.17651			0.751578	2.49572	0.849112	2.81659	0.973507	3.23212		
0.795073	2.63333	0.61094	2.01006	0.795527	2.63324	0.839915	2.7832	0.957635	3.17285			0.753527	2.49447	0.85119	2.81478	0.975059	3.22729		
0.797393	2.63289	0.612935	2.01046	0.797847	2.6328	0.841841	2.781	0.959491	3.16922			0.755476	2.49324	0.853269	2.81299	0.976614	3.2225		
0.799711	2.63245	0.614929	2.01086	0.800164	2.63236	0.843771	2.77882	0.961349	3.16561			0.757424	2.492	0.855349	2.81121	0.978172	3.21775		
0.802026	2.63199	0.616923	2.01125	0.802479	2.6319	0.845705	2.77667	0.963208	3.16203			0.759372	2.49078	0.857431	2.80945	0.979734	3.21304		
0.804338	2.63153	0.618917	2.01164	0.80479	2.63144	0.847643	2.77454	0.965068	3.15848			0.76132	2.48956	0.859514	2.8077	0.9813	3.20837		
0.806647	2.63107	0.620911	2.01203	0.807098	2.63098	0.849586	2.77245	0.966929	3.15495			0.763267	2.48835	0.861597	2.80597	0.982869	3.20374		
0.808953	2.6306	0.622904	2.01241	0.809404	2.6305	0.851533	2.77038	0.968791	3.15145			0.765214	2.48714	0.863682	2.80425	0.984441	3.19915		
0.811255	2.63012	0.624897	2.01279	0.811706	2.63002	0.853485	2.76834	0.970654	3.14797			0.767161	2.48594	0.865769	2.80255	0.986017	3.1946		
0.813555	2.62963	0.626889	2.01317	0.814005	2.62953	0.855441	2.76632	0.972518	3.14451			0.769108	2.48474	0.867856	2.80086	0.987596	3.19008		
0.815851	2.62913	0.628882	2.01354	0.8163	2.62903	0.857401	2.76433	0.974384	3.14108			0.771054	2.48355	0.869944	2.79918	0.989178	3.18561		
0.818144	2.62863	0.630874	2.01391	0.818593	2.62853	0.859367	2.76237	0.976251	3.13767			0.772999	2.48237	0.872033	2.79752	0.990764	3.18117		
0.820434	2.62812	0.632866	2.01428	0.820882	2.62802	0.861337	2.76044	0.978118	3.13429			0.774945	2.4812	0.874123	2.79586	0.992353	3.17677		
0.82272	2.6276	0.634857	2.01464	0.823167	2.6275	0.863311	2.75853	0.979987	3.13093			0.77689	2.48003	0.876214	2.79423	0.993946	3.17241		
0.825002	2.62707	0.636848	2.01501	0.825449	2.62697	0.865291	2.75665	0.981856	3.1276			0.778835	2.47886	0.878306	2.7926	0.995542	3.16808		
0.827281	2.62654	0.638839	2.01536	0.827727	2.62643	0.867275	2.75479	0.983727	3.12428			0.78078	2.4777	0.880399	2.79099	0.997141	3.16379		
0.829556	2.62599	0.64083	2.01572	0.830001	2.62588	0.869265	2.75296	0.985599	3.12099			0.782724	2.47655	0.882493	2.78938	0.998744	3.15953		
0.831828	2.62544	0.64282	2.01607	0.832272	2.62533	0.871259	2.75116	0.987472	3.11772			0.784668	2.47541	0.884587	2.78779	1.00035	3.15531		
0.834095	2.62488	0.64481	2.01642	0.834539	2.62477	0.873258	2.74939	0.989345	3.11448			0.786612	2.47427	0.886683	2.78622				
0.836359	2.62431	0.6468	2.01677	0.836802	2.62419	0.875263	2.74764	0.99122	3.11125			0.788556	2.47313	0.888779	2.78465				
0.838619	2.62373	0.648789	2.01711	0.839061	2.62361	0.877272	2.74592	0.993095	3.10805			0.7905	2.47201	0.890875	2.7831				
0.840874	2.62314	0.650779	2.01745	0.841316	2.62302	0.879287	2.74422	0.994972	3.10487			0.792443	2.47088	0.892973	2.78155				
0.843126	2.62254	0.652768	2.01779	0.843566	2.62242	0.881307	2.74255	0.996849	3.10171			0.794386	2.46977	0.895071	2.78002				
0.845373	2.62193	0.654756	2.01812	0.845813	2.62181	0.883333	2.74091	0.998728	3.09857			0.796329	2.46866	0.89717	2.7785				
0.847617	2.62131	0.656745	2.01846	0.848055	2.62119	0.885363	2.73929	1.00061	3.09546			0.798272	2.46755	0.89927	2.77699				
0.849856	2.62069	0.658733	2.01878	0.850294	2.62056	0.8874	2.7377					0.800214	2.46645	0.90137	2.77549				
0.85209	2.62005	0.660721	2.01911	0.852527	2.61992	0.889441	2.73613					0.802157	2.46536	0.90347	2.774				
0.854321	2.6194	0.662708	2.01944	0.854757	2.61928	0.891488	2.73459					0.804099	2.46427	0.905572	2.77252				
0.856546	2.61875	0.664695	2.01976	0.856982	2.61862	0.893541	2.73307					0.806041	2.46319	0.907674	2.77105				
0.858768	2.61808	0.666682	2.02008	0.859202	2.61795	0.895599	2.73159					0.807983	2.46212	0.909776	2.76959				
0.860985	2.61741	0.668669	2.02039	0.861418	2.61727	0.897663	2.73012					0.809925	2.46105	0.911879	2.76814				
0.863197	2.61672	0.670655	2.02071	0.86363	2.61658	0.899732	2.72868					0.811866	2.45998	0.913982	2.7667				
0.865405	2.61602	0.672642	2.02102	0.865837	2.61589	0.901807	2.72727					0.813808	2.45892	0.916086	2.76527				
0.867608	2.61532	0.674627	2.02132	0.868039	2.61518	0.903888	2.72588					0.815749	2.45787	0.91819	2.76385				
0.869807	2.6146	0.676613	2.02163	0.870236	2.61446	0.905974	2.72452					0.817691	2.45682	0.920294	2.76244				
0.872	2.61388	0.678598	2.02193	0.872429	2.61373	0.908066	2.72318					0.819632	2.45578	0.922399	2.76103				
0.87419	2.61314	0.680583	2.02223	0.874618	2.613	0.910164	2.72187					0.821573	2.45474	0.924504	2.75964				
0.876374	2.61239	0.682568	2.02253	0.876801	2.61225	0.912267	2.72058					0.823514	2.45371	0.926609	2.75825				
0.878554	2.61164	0.684553	2.02283	0.87898	2.61149	0.914377	2.71931					0.825455	2.45269	0.928715	2.75687				
0.880729	2.61087	0.686537	2.02312	0.881154	2.61072	0.916492	2.71807					0.827396	2.45167	0.930821	2.7555				
0.882899	2.6101	0.688521	2.02341	0.883323	2.60995	0.918612	2.71685					0.829337	2.45065	0.932927	2.75414				
0.885065	2.60931	0.690504	2.0237	0.885488	2.60916	0.920739	2.71566					0.831278	2.44964	0.935034	2.75279				
0.887225	2.60852	0.692488	2.02399	0.887648	2.60836	0.922871	2.71449					0.833219	2.44864	0.93714	2.75144				
0.889382	2.60771	0.694471	2.02427	0.889803	2.60756	0.925009	2.71334					0.835159	2.44764	0.939247	2.75011				
0.891533	2.6069	0.696454	2.02455	0.891954	2.60674	0.927152	2.71221					0.8371	2.44665	0.941354	2.74878				
0.89368	2.60608	0.698436	2.02483	0.8941	2.60592	0.929301	2.71111					0.839041	2.44566	0.943461	2.74745				
0.895822	2.60525	0.700418	2.02511	0.896241	2.60508	0.931456	2.71003					0.840981	2.44468	0.945568	2.74614				
0.897959	2.60441	0.7024	2.02538	0.898377	2.60424	0.933616	2.70897					0.842922	2.4437	0.947675	2.74483				
0.900092	2.60356	0.704382	2.02566	0.900509	2.60339	0.935782	2.70794					0.844862	2.44273	0.949782	2.74353				
0.902221	2.6027	0.706364	2.02593	0.902637	2.60253	0.937953	2.70692					0.846803	2.44176	0.951889	2.74224				
0.904344	2.60183	0.708345	2.02619	0.90476	2.60166	0.940129	2.70593					0.848743	2.4408	0.953996	2.74095				
0.906464	2.60096	0.710326	2.02646	0.906878	2.60079	0.942311	2.70495					0.850684	2.43984	0.956103	2.73967				
0.908579	2.60008	0.712307	2.02672	0.908992	2.5999	0.944499	2.704					0.852624	2.43889	0.95821	2.7384				
0.910689	2.59919	0.714287	2.02698	0.911102	2.59901	0.946691	2.70307					0.854565	2.43795	0.960317	2.73713				
0.912795	2.59829	0.716267	2.02724	0.913207	2.59811	0.948889	2.70215					0.856506	2.437	0.962424	2.73587				
0.914897	2.59738	0.718247	2.0275	0.915308	2.5972	0.951092	2.70126					0.858446	2.43607	0.964531	2.73462				
0.916995	2.59647	0.720227	2.02776	0.917405	2.59629	0.9533	2.70039					0.860387	2.43514	0.966637	2.73337				
0.919089	2.59555	0.722206	2.02801	0.919498	2.59537	0.955513	2.69953					0.862327	2.43421	0.968744	2.73213				
0.921178	2.59462	0.724185	2.02826	0.921587	2.59444	0.957731	2.69869					0.864268	2.43329	0.97085	2.73089				
0.923263	2.59369	0.726164	2.02851	0.923671	2.59351	0.959953	2.69787					0.866209	2.43237	0.972956	2.72966				
0.925345	2.59275	0.728142	2.02876	0.925752	2.59257	0.962181	2.69707					0.86815	2.43146	0.975062	2.72844				
0.927422	2.59181	0.730121	2.029	0.927829	2.59162	0.964413	2.69629					0.870091	2.43056	0.977167	2.72722				
0.929496	2.59086	0.732099	2.02924	0.929902	2.59067	0.96665	2.69552					0.872032	2.42965	0.979272	2.72601				
0.931566	2.5899	0.734077	2.02948	0.931971	2.58971	0.968891	2.69477					0.873972	2.42876	0.981377	2.7248				
0.933633	2.58894	0.736054	2.02972	0.934037	2.58875	0.971137	2.69403					0.875914	2.42786	0.983482	2.7236				
0.935695	2.58797	0.738031	2.02996	0.936099	2.58778	0.973388	2.69331					0.877855	2.42698	0.985586	2.7224				
0.937755	2.587	0.740008	2.03019	0.938158	2.58681	0.975642	2.69261					0.879796	2.4261	0.98769	2.72121				
0.93981	2.58603	0.741985	2.03043	0.940213	2.58584	0.977901	2.69192					0.881737	2.42522	0.989794	2.72002				
0.941863	2.58505	0.743961	2.03066	0.942264	2.58486	0.980164	2.69125					0.883678	2.42434	0.991897	2.71884				
0.943912	2.58406	0.745938	2.03089	0.944313	2.58387	0.98243	2.69059					0.88562	2.42348	0.994	2.71766				
0.945958	2.58308	0.747914	2.03112	0.946358	2.58288	0.984701	2.68995					0.887561	2.42261	0.996102	2.71649				
0.948001	2.58209	0.749889	2.03134	0.948401	2.58189	0.986976	2.68931					0.889503	2.42175	0.998204	2.71532				
0.950041	2.58109	0.751865	2.03157	0.95044	2.5809	0.989254	2.6887					0.891445	2.4209	1.00031	2.71416				
0.952077	2.58009	0.75384	2.03179	0.952476	2.5799	0.991537	2.68809					0.893387	2.42005						
0.954111	2.57909	0.755815	2.03201	0.954509	2.5789	0.993822	2.6875					0.895329	2.4192						
0.956142	2.57809	0.757789	2.03223	0.95654	2.5779	0.996111	2.68692					0.897271	2.41836						
0.958171	2.57709	0.759764	2.03244	0.958568	2.57689	0.998404	2.68636					0.899213	2.41753						
0.960196	2.57608	0.761738	2.03266	0.960593	2.57588	1.0007	2.6858					0.901155	2.4167						
0.962219	2.57507	0.763712	2.03287	0.962615	2.57487							0.903098	2.41587						
0.96424	2.57406	0.765686	2.03308	0.964635	2.57386							0.90504	2.41505						
0.966258	2.57305	0.767659	2.03329	0.966653	2.57285							0.906983	2.41423						
0.968274	2.57203	0.769632	2.0335	0.968668	2.57184							0.908926	2.41341						
0.970287	2.57102	0.771605	2.03371	0.970681	2.57082							0.910869	2.41261						
0.972298	2.57	0.773578	2.03391	0.972692	2.5698							0.912812	2.4118						
0.974307	2.56899	0.77555	2.03411	0.9747	2.56879							0.914755	2.411						
0.976314	2.56797	0.777522	2.03432	0.976707	2.56777							0.916699	2.4102						
0.978319	2.56695	0.779494	2.03452	0.978711	2.56675							0.918642	2.40941						
0.980322	2.56594	0.781466	2.03471	0.980714	2.56574							0.920586	2.40862						
0.982323	2.56492	0.783437	2.03491	0.982714	2.56472							0.92253	2.40784						
0.984322	2.5639	0.785408	2.03511	0.984713	2.5637							0.924474	2.40706						
0.986319	2.56288	0.787379	2.0353	0.98671	2.56268							0.926418	2.40629						
0.988315	2.56187	0.78935	2.03549	0.988705	2.56167							0.928363	2.40552						
0.990308	2.56085	0.79132	2.03568	0.990699	2.56065							0.930307	2.40475						
0.992301	2.55983	0.793291	2.03587	0.992691	2.55963							0.932252	2.40399						
0.994291	2.55882	0.795261	2.03606	0.994681	2.55862							0.934197	2.40323						
0.99628	2.55781	0.79723	2.03624	0.99667	2.55761							0.936142	2.40247						
0.998268	2.55679	0.7992	2.03643	0.998657	2.55659							0.938088	2.40172						
1.00025	2.55578	0.801169	2.03661	1.00064	2.55558							0.940033	2.40098						
		0.803138	2.03679									0.941979	2.40023						
		0.805107	2.03697									0.943925	2.3995						
		0.807075	2.03715									0.945871	2.39876						
		0.809044	2.03733									0.947817	2.39803						
		0.811012	2.0375									0.949763	2.3973						
		0.812979	2.03768									0.95171	2.39658						
		0.814947	2.03785									0.953657	2.39586						
		0.816914	2.03802									0.955604	2.39515						
		0.818881	2.03819									0.957551	2.39444						
		0.820848	2.03836									0.959499	2.39373						
		0.822815	2.03853									0.961446	2.39303						
		0.824781	2.03869									0.963394	2.39233						
		0.826747	2.03886									0.965342	2.39163						
		0.828713	2.03902									0.967291	2.39094						
		0.830679	2.03918									0.969239	2.39025						
		0.832645	2.03934									0.971188	2.38957						
		0.83461	2.0395									0.973137	2.38889						
		0.836575	2.03966									0.975086	2.38821						
		0.83854	2.03982									0.977036	2.38754						
		0.840504	2.03997									0.978985	2.38687						
		0.842468	2.04013									0.980935	2.3862						
		0.844433	2.04028									0.982885	2.38554						
		0.846396	2.04043									0.984836	2.38488						
		0.84836	2.04058									0.986786	2.38422						
		0.850324	2.04073									0.988737	2.38357						
		0.852287	2.04088									0.990688	2.38292						
		0.85425	2.04103									0.992639	2.38228						
		0.856212	2.04117									0.994591	2.38163						
		0.858175	2.04132									0.996543	2.381						
		0.860137	2.04146									0.998495	2.38036						
		0.862099	2.0416									1.00045	2.37973						
		0.864061	2.04174																
		0.866023	2.04188																
		0.867985	2.04202																
		0.869946	2.04216																
		0.871907	2.0423																
		0.873868	2.04243																
		0.875828	2.04257																
		0.877788	2.0427																
		0.879749	2.04283																
		0.881709	2.04296																
		0.883668	2.04309																
		0.885628	2.04322																
		0.887587	2.04335																
		0.889546	2.04348																
		0.891505	2.0436																
		0.893464	2.04373																
		0.895422	2.04385																
		0.897381	2.04398																
		0.899339	2.0441																
		0.901297	2.04422																
		0.903254	2.04434																
		0.905212	2.04446																
		0.907169	2.04458																
		0.909126	2.04469																
		0.911083	2.04481																
		0.91304	2.04493																
		0.914996	2.04504																
		0.916952	2.04515																
		0.918908	2.04527																
		0.920864	2.04538																
		0.92282	2.04549																
		0.924775	2.0456																
		0.926731	2.04571																
		0.928686	2.04582																
		0.930641	2.04592																
		0.932595	2.04603																
		0.93455	2.04614																
		0.936504	2.04624																
		0.938458	2.04634																
		0.940412	2.04645																
		0.942366	2.04655																
		0.944319	2.04665																
		0.946273	2.04675																
		0.948226	2.04685																
		0.950179	2.04695																
		0.952132	2.04705																
		0.954084	2.04715																
		0.956037	2.04724																
		0.957989	2.04734																
		0.959941	2.04743																
		0.961893	2.04753																
		0.963844	2.04762																
		0.965796	2.04771																
		0.967747	2.04781																
		0.969698	2.0479																
		0.971649	2.04799																
		0.9736	2.04808																
		0.975551	2.04817																
		0.977501	2.04825																
		0.979451	2.04834																
		0.981401	2.04843																
		0.983351	2.04852																
		0.985301	2.0486																
		0.987251	2.04869																
		0.9892	2.04877																
		0.991149	2.04885																
		0.993098	2.04894																
		0.995047	2.04902																
		0.996996	2.0491																
		0.998944	2.04918																
		1.00089	2.04926																
