Sym0		Asym0		Sym1		Sym2		Sym3		Sym4		Asym1		Asym2		Asym3		Asym4	
420  Points		526  Points		421  Points		400  Points		349  Points		250  Points		453  Points		396  Points		342  Points		215  Points	
Freq (MHz)	Vph (m/ms)	Freq (MHz)	Vph (m/ms)	Freq (MHz)	Vph (m/ms)	Freq (MHz)	Vph (m/ms)	Freq (MHz)	Vph (m/ms)	Freq (MHz)	Vph (m/ms)	Freq (MHz)	Vph (m/ms)	Freq (MHz)	Vph (m/ms)	Freq (MHz)	Vph (m/ms)	Freq (MHz)	Vph (m/ms)
0.279511	462.428	0.000245069	0.0970517	0.27951	522.591	0.441379	2180.13	0.559017	2168.48	0.838525	11026.9	0.139763	287.508	0.419267	503.721	0.698772	1237.44	0.882759	1120.81
0.279523	181.965	0.000458614	0.132669	0.279522	190.598	0.441387	389.179	0.559026	469.972	0.838529	832.09	0.139833	98.6255	0.419284	237.684	0.698779	466.977	0.882767	513.445
0.279546	113.276	0.000737621	0.16808	0.279544	116.562	0.441407	213.669	0.559046	263.554	0.838538	432.362	0.13997	59.574	0.419312	155.547	0.698792	287.796	0.882781	333
0.279579	82.2406	0.00108136	0.203255	0.279576	83.9584	0.441439	147.267	0.559077	183.131	0.838554	292.064	0.140174	42.7202	0.419352	115.606	0.698811	207.993	0.8828	246.407
0.279623	64.5599	0.00148892	0.238155	0.27962	65.6132	0.441483	112.358	0.55912	140.321	0.838575	220.514	0.140444	33.3368	0.419404	91.9923	0.698836	162.843	0.882826	195.558
0.279678	53.1412	0.00195916	0.272727	0.279673	53.8524	0.441538	90.8341	0.559174	113.739	0.838602	177.125	0.140781	27.3648	0.419468	76.3944	0.698867	133.801	0.882857	162.109
0.279743	45.1591	0.00249074	0.306919	0.279738	45.6713	0.441605	76.2357	0.559239	95.6296	0.838635	148.006	0.141183	23.235	0.419543	65.3239	0.698904	113.553	0.882893	138.433
0.279819	39.2656	0.00308251	0.340722	0.279813	39.652	0.441684	65.6845	0.559315	82.499	0.838674	127.112	0.141648	20.2124	0.419631	57.0599	0.698947	98.6299	0.882936	120.793
0.279905	34.7363	0.00373281	0.374078	0.279899	35.0381	0.441774	57.7029	0.559402	72.5427	0.838718	111.389	0.142176	17.907	0.41973	50.6559	0.698996	87.1756	0.882985	107.143
0.280003	31.1471	0.00444014	0.406964	0.279995	31.3892	0.441876	51.4545	0.559501	64.7342	0.838769	99.1301	0.142765	16.0928	0.419841	45.5477	0.699051	78.1067	0.883039	96.2665
0.28011	28.233	0.00520283	0.439351	0.280102	28.4315	0.44199	46.4304	0.559611	58.4465	0.838826	89.3033	0.143415	14.6296	0.419963	41.3786	0.699112	70.7486	0.883099	87.3961
0.280229	25.8202	0.00601921	0.471216	0.280219	25.9859	0.442115	42.3032	0.559732	53.2751	0.838888	81.2507	0.144122	13.4258	0.420097	37.9116	0.69918	64.659	0.883165	80.024
0.280357	23.7898	0.00688755	0.50254	0.280347	23.9302	0.442252	38.8527	0.559864	48.9471	0.838957	74.5316	0.144887	12.4191	0.420244	34.9833	0.699253	59.5361	0.883236	73.8002
0.280497	22.0577	0.00780604	0.533303	0.280486	22.1783	0.442401	35.9252	0.560007	45.272	0.839031	68.8403	0.145706	11.5657	0.420401	32.4775	0.699332	55.1666	0.883314	68.4758
0.280647	20.563	0.00877297	0.563494	0.280635	20.6675	0.442561	33.4104	0.560162	42.1126	0.839111	63.9577	0.146578	10.8337	0.420571	30.3091	0.699418	51.396	0.883397	63.8693
0.280807	19.2599	0.00978639	0.593095	0.280795	19.3515	0.442733	31.227	0.560328	39.3676	0.839197	59.7231	0.147381	10.2763	0.420752	28.4143	0.699509	48.1089	0.883486	59.8445
0.280979	18.1141	0.0108447	0.622103	0.280965	18.1949	0.442916	29.3136	0.560505	36.9606	0.839289	56.0155	0.148095	9.85074	0.420945	26.7446	0.699607	45.2182	0.883581	56.298
0.28116	17.0988	0.0119459	0.650509	0.281146	17.1706	0.443111	27.6232	0.560693	34.833	0.839387	52.7423	0.148705	9.52862	0.42115	25.2622	0.699711	42.6562	0.883682	53.1492
0.281353	16.193	0.0130884	0.678308	0.281338	16.2573	0.443318	26.119	0.560892	32.9388	0.839491	49.8316	0.149201	9.29096	0.421366	23.9374	0.69982	40.3699	0.883788	50.335
0.281555	15.3799	0.0142705	0.705505	0.28154	15.4378	0.443536	24.7721	0.561102	31.2418	0.8396	47.2263	0.149572	9.12501	0.421594	22.7464	0.699936	38.3172	0.8839	47.8047
0.281769	14.6462	0.0154904	0.732094	0.281752	14.6985	0.443765	23.559	0.561324	29.7127	0.839716	44.8807	0.149813	9.02248	0.421834	21.67	0.700058	36.464	0.884018	45.5175
0.281993	13.9808	0.0167466	0.75808	0.281975	14.0283	0.444006	22.4608	0.561556	28.328	0.839837	42.758	0.150164	8.87986	0.422085	20.6925	0.700186	34.7827	0.884142	43.4399
0.282227	13.3746	0.0180374	0.78347	0.282209	13.418	0.444259	21.462	0.5618	27.0681	0.839965	40.8278	0.15055	8.73091	0.422348	19.801	0.70032	33.2504	0.884272	41.5446
0.282472	12.8201	0.0193612	0.808263	0.282453	12.8599	0.444523	20.5498	0.562054	25.9169	0.840098	39.0652	0.151084	8.53783	0.422622	18.9846	0.70046	31.8482	0.884407	39.8084
0.282727	12.3112	0.0207167	0.832471	0.282708	12.3477	0.444798	19.7135	0.56232	24.8611	0.840237	37.4492	0.151775	8.30814	0.422908	18.2343	0.700606	30.5603	0.884548	38.2122
0.282993	11.8423	0.0221024	0.856101	0.282973	11.876	0.445085	18.944	0.562597	23.8893	0.840382	35.9623	0.152631	8.05003	0.423206	17.5424	0.700758	29.3732	0.884695	36.7398
0.283269	11.409	0.0235169	0.879162	0.283248	11.4403	0.445383	18.2336	0.562884	22.9919	0.840532	34.5897	0.153665	7.77174	0.423515	16.9025	0.700916	28.2755	0.884847	35.3774
0.283556	11.0075	0.0249588	0.901661	0.283534	11.0365	0.445693	17.5759	0.563183	22.1607	0.840689	33.3186	0.154887	7.48108	0.423835	16.3088	0.70108	27.2577	0.885006	34.113
0.283853	10.6344	0.0264269	0.923611	0.283831	10.6614	0.446014	16.9652	0.563492	21.3888	0.840852	32.1383	0.156148	7.2172	0.424167	15.7567	0.70125	26.3112	0.88517	32.9365
0.284161	10.2869	0.02792	0.945023	0.284138	10.312	0.446346	16.3967	0.563813	20.6699	0.84102	31.0395	0.157446	6.97672	0.424511	15.2419	0.701426	25.4289	0.88534	31.839
0.284479	9.9624	0.0294369	0.965905	0.284414	10.0266	0.446689	15.8663	0.564144	19.999	0.841194	30.0138	0.158778	6.7568	0.424866	14.7609	0.701608	24.6044	0.885515	30.8129
0.284808	9.65876	0.0309765	0.986272	0.284655	9.7961	0.447044	15.3703	0.564487	19.3713	0.841374	29.0544	0.160143	6.55501	0.425232	14.3104	0.701796	23.8323	0.885697	29.8514
0.285147	9.37407	0.0325378	1.00614	0.284859	9.61376	0.44741	14.9054	0.56484	18.7829	0.84156	28.155	0.16154	6.3693	0.425609	13.8877	0.70199	23.1078	0.885884	28.9487
0.285496	9.10662	0.0341197	1.02551	0.285023	9.4746	0.447787	14.4688	0.565204	18.2302	0.841752	27.3101	0.162968	6.1979	0.425998	13.4902	0.70219	22.4266	0.886076	28.0995
0.285856	8.85494	0.0357213	1.0444	0.285146	9.37497	0.448175	14.0581	0.565578	17.7101	0.84195	26.515	0.164425	6.03931	0.426399	13.1159	0.702397	21.7849	0.886275	27.2992
0.286226	8.61769	0.0373416	1.06282	0.285225	9.31236	0.448574	13.6711	0.565964	17.2198	0.842153	25.7655	0.165909	5.8922	0.42681	12.7628	0.702609	21.1795	0.886479	26.5437
0.286606	8.39369	0.0389798	1.08079	0.285339	9.2239	0.448984	13.3058	0.56636	16.7568	0.842363	25.0576	0.16742	5.75542	0.427233	12.4292	0.702827	20.6073	0.886689	25.8294
0.286997	8.18188	0.0406351	1.09831	0.285465	9.12976	0.449406	12.9604	0.566767	16.319	0.842578	24.3881	0.168956	5.62797	0.427667	12.1135	0.703051	20.0657	0.886905	25.1531
0.287398	7.98132	0.0423067	1.1154	0.285638	9.00496	0.449838	12.6335	0.567185	15.9044	0.842799	23.7539	0.170517	5.50898	0.428112	11.8143	0.703281	19.5524	0.887127	24.5117
0.28781	7.79116	0.0439937	1.13207	0.28586	8.85225	0.450281	12.3235	0.567613	15.5111	0.843026	23.1523	0.1721	5.39766	0.428568	11.5304	0.703517	19.0651	0.887354	23.9026
0.288231	7.61063	0.0456956	1.14833	0.286134	8.67481	0.450735	12.0291	0.568052	15.1377	0.843258	22.5809	0.173706	5.29334	0.429036	11.2607	0.70376	18.602	0.887586	23.3235
0.288663	7.43903	0.0474116	1.1642	0.286463	8.47614	0.4512	11.7494	0.568502	14.7827	0.843497	22.0375	0.175333	5.1954	0.429514	11.0042	0.704008	18.1613	0.887825	22.7723
0.289106	7.27573	0.049141	1.17968	0.28685	8.25988	0.451676	11.4832	0.568962	14.4447	0.843741	21.52	0.176979	5.10331	0.430004	10.7599	0.704262	17.7414	0.888069	22.2469
0.289558	7.12017	0.0508833	1.19478	0.287247	8.05521	0.452163	11.2296	0.569433	14.1226	0.843991	21.0267	0.178645	5.01657	0.430505	10.527	0.704522	17.341	0.888319	21.7456
0.290021	6.97182	0.052638	1.20952	0.287654	7.86125	0.45266	10.9877	0.569914	13.8153	0.844247	20.556	0.18033	4.93476	0.431016	10.3048	0.704788	16.9586	0.888575	21.2668
0.290494	6.83022	0.0544044	1.22391	0.288072	7.67719	0.453169	10.7568	0.570406	13.5218	0.844509	20.1062	0.182031	4.85749	0.431471	10.1192	0.70506	16.5932	0.888836	20.8091
0.290977	6.69492	0.056182	1.23795	0.2885	7.50232	0.453687	10.5361	0.570908	13.2413	0.844776	19.6761	0.18375	4.7844	0.431865	9.96667	0.705338	16.2435	0.889103	20.371
0.291471	6.56553	0.0579704	1.25166	0.288939	7.33598	0.454217	10.325	0.571421	12.9728	0.845049	19.2645	0.185485	4.71518	0.432196	9.84427	0.705622	15.9087	0.889375	19.9513
0.291974	6.44168	0.059769	1.26505	0.289388	7.17758	0.454687	10.1483	0.571944	12.7158	0.845328	18.87	0.187235	4.64954	0.43246	9.7498	0.705912	15.5878	0.889654	19.549
0.292488	6.32304	0.0615773	1.27812	0.289846	7.02659	0.455094	10.0029	0.572477	12.4693	0.845613	18.4918	0.189	4.58724	0.432656	9.68158	0.706208	15.28	0.889938	19.1629
0.293012	6.2093	0.063395	1.29088	0.290316	6.88251	0.455435	9.88604	0.573021	12.2329	0.845904	18.1288	0.190778	4.52802	0.432782	9.63847	0.70651	14.9845	0.890227	18.7921
0.293546	6.10017	0.0652218	1.30335	0.290795	6.7449	0.455707	9.79573	0.573575	12.0059	0.8462	17.7801	0.192571	4.47167	0.432964	9.57724	0.706817	14.7005	0.890522	18.4358
0.29409	5.9954	0.0670571	1.31553	0.291285	6.61334	0.455909	9.73047	0.574139	11.7879	0.846502	17.445	0.194376	4.418	0.433164	9.51164	0.707131	14.4275	0.890823	18.093
0.294644	5.89474	0.0689006	1.32744	0.291784	6.48745	0.456039	9.6892	0.574713	11.5782	0.84681	17.1225	0.196193	4.36684	0.433437	9.424	0.707451	14.1647	0.891129	17.7631
0.295208	5.79795	0.0707519	1.33907	0.292294	6.3669	0.456227	9.63055	0.575298	11.3764	0.847124	16.8122	0.198022	4.31801	0.433787	9.31568	0.707776	13.9117	0.891441	17.4453
0.295783	5.70484	0.0726108	1.35044	0.292814	6.25136	0.456432	9.56768	0.575892	11.1822	0.847443	16.5132	0.199863	4.27137	0.434215	9.1883	0.708107	13.6679	0.891759	17.1391
0.296367	5.61521	0.0744769	1.36155	0.293345	6.14054	0.456713	9.48362	0.576497	10.995	0.847768	16.2249	0.201715	4.22677	0.434725	9.04371	0.708445	13.4329	0.892082	16.8437
0.296962	5.52887	0.0763499	1.37242	0.293885	6.03416	0.457072	9.3796	0.577112	10.8145	0.848099	15.9469	0.203576	4.1841	0.43532	8.8839	0.708788	13.2061	0.892411	16.5586
0.297566	5.44566	0.0782295	1.38304	0.294435	5.93199	0.457512	9.25715	0.577737	10.6405	0.848436	15.6786	0.205448	4.14324	0.435925	8.73027	0.709137	12.9871	0.892746	16.2833
0.298181	5.36543	0.0801156	1.39343	0.294996	5.83377	0.458035	9.11794	0.578372	10.4725	0.848778	15.4194	0.20733	4.10407	0.436542	8.58247	0.709492	12.7757	0.893086	16.0173
0.298805	5.28801	0.0820076	1.4036	0.295566	5.73931	0.458645	8.96383	0.578933	10.3308	0.849126	15.169	0.209221	4.0665	0.437169	8.44019	0.709853	12.5713	0.893431	15.7601
0.29944	5.21328	0.0839055	1.41354	0.296147	5.6484	0.459265	8.81543	0.579417	10.2133	0.84948	14.9269	0.21112	4.03043	0.437806	8.30314	0.71022	12.3736	0.893782	15.5114
0.300084	5.14111	0.085809	1.42327	0.296738	5.56085	0.459895	8.67243	0.579822	10.1183	0.849839	14.6926	0.213028	3.99579	0.438454	8.17105	0.710593	12.1823	0.894139	15.2707
0.300738	5.07137	0.0877179	1.43279	0.297338	5.47649	0.460536	8.53456	0.580145	10.0446	0.850204	14.4659	0.214945	3.96248	0.439112	8.04366	0.710971	11.9972	0.894501	15.0376
0.301403	5.00395	0.0896319	1.4421	0.297949	5.39515	0.461186	8.40155	0.580383	9.99121	0.850575	14.2464	0.216869	3.93044	0.439781	7.92073	0.711356	11.8179	0.894869	14.8118
0.302077	4.93875	0.0915509	1.45122	0.29857	5.3167	0.461847	8.27317	0.580537	9.95734	0.850951	14.0337	0.2188	3.89961	0.44046	7.80204	0.711746	11.6441	0.895242	14.5929
0.302761	4.87567	0.0934746	1.46015	0.299201	5.24097	0.462517	8.14917	0.580758	9.90911	0.851334	13.8276	0.220739	3.8699	0.44115	7.68738	0.712142	11.4757	0.895621	14.3807
0.303455	4.81461	0.0954028	1.4689	0.299841	5.16786	0.463198	8.02935	0.581	9.85727	0.851721	13.6276	0.222685	3.84127	0.44185	7.57657	0.712544	11.3123	0.896005	14.1748
0.304159	4.75548	0.0973356	1.47746	0.300492	5.09722	0.463888	7.91351	0.581331	9.78774	0.852115	13.4337	0.224638	3.81367	0.44256	7.46941	0.712952	11.1538	0.896395	13.975
0.304781	4.70547	0.0992724	1.48584	0.301153	5.02895	0.464588	7.80146	0.581753	9.70136	0.852514	13.2454	0.226597	3.78703	0.44328	7.36574	0.713366	11	0.89679	13.781
0.305317	4.6639	0.101213	1.49406	0.301823	4.96293	0.465298	7.69302	0.582268	9.59916	0.852919	13.0626	0.228562	3.7613	0.444011	7.2654	0.713785	10.8505	0.897191	13.5925
0.305764	4.63025	0.103158	1.50211	0.302504	4.89907	0.466018	7.58804	0.582879	9.48231	0.853329	12.885	0.230534	3.73646	0.444751	7.16824	0.714211	10.7054	0.897598	13.4094
0.30612	4.6041	0.105107	1.51	0.303194	4.83726	0.466747	7.48634	0.583589	9.35212	0.853745	12.7125	0.232511	3.71244	0.445502	7.07411	0.714586	10.5822	0.898009	13.2314
0.306383	4.58511	0.107059	1.51773	0.303894	4.77742	0.467486	7.38779	0.584309	9.22591	0.854167	12.5447	0.234494	3.68922	0.446262	6.98288	0.71491	10.4796	0.898427	13.0583
0.306553	4.57307	0.109014	1.5253	0.304604	4.71946	0.468235	7.29225	0.585039	9.1035	0.854594	12.3816	0.236482	3.66675	0.447033	6.89442	0.715179	10.3964	0.898849	12.8899
0.306797	4.55591	0.110973	1.53273	0.305325	4.6633	0.468993	7.19959	0.585778	8.98474	0.855027	12.2228	0.238475	3.645	0.447813	6.80863	0.715394	10.3315	0.899277	12.726
0.307063	4.53745	0.112935	1.54001	0.306055	4.60886	0.469761	7.10969	0.586526	8.86947	0.855465	12.0684	0.240474	3.62394	0.448604	6.72538	0.715553	10.2844	0.899711	12.5664
0.307428	4.51266	0.114648	1.54624	0.306794	4.55608	0.470538	7.02243	0.587284	8.75755	0.855909	11.918	0.242477	3.60353	0.449404	6.64456	0.715655	10.2545	0.90015	12.411
0.307892	4.48182	0.116109	1.55147	0.307544	4.50488	0.471324	6.9377	0.588051	8.64883	0.856359	11.7715	0.244485	3.58375	0.450214	6.56609	0.715803	10.2118	0.900594	12.2597
0.308459	4.44529	0.117319	1.55574	0.308304	4.4552	0.47212	6.85539	0.588828	8.54319	0.856814	11.6289	0.246497	3.56457	0.451034	6.48986	0.715964	10.1658	0.901044	12.1122
0.309131	4.40344	0.118276	1.55908	0.309073	4.40699	0.472925	6.77542	0.589614	8.44049	0.857275	11.4898	0.248514	3.54596	0.451864	6.41579	0.716184	10.104	0.901499	11.9684
0.309911	4.35673	0.11898	1.56151	0.309852	4.36017	0.473739	6.69768	0.590409	8.34063	0.857742	11.3543	0.250535	3.52789	0.452703	6.34379	0.716464	10.027	0.90196	11.8282
0.310701	4.31137	0.119431	1.56306	0.310641	4.31471	0.474562	6.6221	0.591214	8.2435	0.858214	11.2221	0.25256	3.51035	0.453552	6.27377	0.716805	9.93555	0.902426	11.6915
0.3115	4.26729	0.12008	1.56528	0.31144	4.27054	0.475395	6.54858	0.592027	8.14898	0.858691	11.0932	0.254589	3.49332	0.45441	6.20567	0.71721	9.83053	0.902897	11.5581
0.31231	4.22447	0.120785	1.56767	0.312249	4.22762	0.476236	6.47704	0.59285	8.05698	0.859174	10.9675	0.256622	3.47676	0.455278	6.13941	0.71768	9.71294	0.903374	11.4279
0.313129	4.18283	0.121745	1.5709	0.313068	4.1859	0.477087	6.40742	0.593682	7.9674	0.859599	10.8603	0.258658	3.46067	0.456156	6.07491	0.718156	9.59835	0.903856	11.3008
0.313959	4.14236	0.122959	1.57494	0.313896	4.14534	0.477946	6.33963	0.594523	7.88015	0.859965	10.7708	0.260698	3.44502	0.457043	6.01213	0.718637	9.48665	0.904343	11.1767
0.314798	4.10299	0.124429	1.57976	0.314735	4.10589	0.478815	6.27362	0.595372	7.79515	0.86027	10.6979	0.262741	3.42979	0.457939	5.95098	0.719125	9.37774	0.904836	11.0555
0.315647	4.0647	0.126155	1.58533	0.315583	4.06752	0.479692	6.20931	0.596231	7.71232	0.860513	10.641	0.264788	3.41497	0.458844	5.89142	0.719617	9.27152	0.90527	10.9521
0.316505	4.02744	0.128138	1.59162	0.316441	4.03018	0.480578	6.14665	0.597099	7.63157	0.860692	10.5996	0.266837	3.40055	0.459759	5.83338	0.720116	9.1679	0.905643	10.8657
0.317374	3.99117	0.130123	1.59778	0.317309	3.99385	0.481472	6.08557	0.597975	7.55283	0.860807	10.5733	0.26889	3.3865	0.460683	5.77682	0.720621	9.06677	0.905953	10.7953
0.318253	3.95588	0.13211	1.60384	0.318187	3.95848	0.482376	6.02603	0.598861	7.47603	0.860973	10.5358	0.270946	3.37281	0.461617	5.72167	0.721131	8.96807	0.9062	10.7403
0.319142	3.92151	0.1341	1.60978	0.319075	3.92404	0.483288	5.96796	0.599755	7.40111	0.861154	10.4952	0.273005	3.35948	0.462559	5.6679	0.721647	8.87169	0.906383	10.7002
0.32004	3.88804	0.136092	1.61562	0.319973	3.89051	0.484208	5.91131	0.600657	7.328	0.861401	10.4407	0.275066	3.34648	0.463511	5.61545	0.722168	8.77756	0.9065	10.6748
0.320949	3.85543	0.138085	1.62135	0.32088	3.85784	0.485137	5.85605	0.601569	7.25664	0.861716	10.3725	0.277131	3.3338	0.464471	5.56429	0.722695	8.68561	0.906669	10.6384
0.321867	3.82367	0.14008	1.62699	0.321798	3.82602	0.486075	5.80211	0.602489	7.18696	0.862099	10.2914	0.279197	3.32144	0.465441	5.51435	0.723228	8.59577	0.906853	10.5992
0.322796	3.79273	0.142078	1.63252	0.322726	3.79501	0.48702	5.74946	0.603417	7.11892	0.862552	10.198	0.281267	3.30938	0.46642	5.46561	0.723767	8.50795	0.907104	10.5464
0.323734	3.76257	0.144077	1.63795	0.323664	3.76479	0.487975	5.69805	0.604355	7.05245	0.863078	10.093	0.283339	3.2976	0.467407	5.41803	0.724311	8.42211	0.907424	10.4803
0.324683	3.73317	0.146077	1.64329	0.324612	3.73534	0.488937	5.64784	0.6053	6.98752	0.863608	9.99036	0.285413	3.28611	0.468403	5.37157	0.724861	8.33818	0.907813	10.4017
0.325642	3.70451	0.14808	1.64853	0.32557	3.70662	0.489908	5.5988	0.606254	6.92406	0.864145	9.88997	0.287489	3.27489	0.469409	5.32619	0.725417	8.25608	0.908274	10.3111
0.326611	3.67656	0.150083	1.65369	0.326538	3.67863	0.490887	5.55088	0.607216	6.86203	0.864686	9.79176	0.289568	3.26392	0.470423	5.28186	0.725978	8.17578	0.908807	10.2091
0.32759	3.64931	0.152089	1.65876	0.327517	3.65133	0.491873	5.50405	0.608187	6.80139	0.865234	9.69566	0.291648	3.25321	0.471445	5.23854	0.726545	8.0972	0.909346	10.1094
0.32858	3.62274	0.154096	1.66374	0.328506	3.6247	0.492869	5.45828	0.609166	6.74209	0.865786	9.60161	0.293731	3.24275	0.472477	5.19621	0.727117	8.0203	0.90989	10.0117
0.32958	3.59681	0.156104	1.66864	0.329505	3.59873	0.493871	5.41353	0.610153	6.68409	0.866344	9.50954	0.295816	3.23251	0.473517	5.15482	0.727695	7.94503	0.910439	9.9161
0.33059	3.57152	0.158113	1.67345	0.330514	3.57339	0.494882	5.36978	0.611149	6.62735	0.866907	9.41939	0.297903	3.22251	0.474565	5.11436	0.728279	7.87133	0.910993	9.82246
0.33161	3.54685	0.160124	1.67818	0.331534	3.54867	0.495901	5.32698	0.612152	6.57184	0.867476	9.33111	0.299991	3.21272	0.475622	5.0748	0.728868	7.79916	0.911553	9.73074
0.332642	3.52277	0.162136	1.68284	0.332564	3.52455	0.496928	5.28511	0.613164	6.51751	0.86805	9.24464	0.302082	3.20314	0.476688	5.03611	0.729463	7.72848	0.912117	9.64088
0.333683	3.49928	0.164149	1.68742	0.333605	3.50101	0.497963	5.24415	0.614183	6.46433	0.86863	9.15992	0.304174	3.19378	0.477762	4.99826	0.730064	7.65924	0.912687	9.55283
0.334736	3.47635	0.166164	1.69192	0.334657	3.47804	0.499005	5.20406	0.615211	6.41226	0.869215	9.07691	0.306267	3.18461	0.478844	4.96122	0.73067	7.59139	0.913262	9.46654
0.335799	3.45397	0.168179	1.69635	0.335719	3.45562	0.500055	5.16483	0.616246	6.36128	0.869805	8.99555	0.308363	3.17563	0.479935	4.92498	0.731282	7.52491	0.913842	9.38194
0.336873	3.43213	0.170196	1.70071	0.336793	3.43374	0.501112	5.12642	0.61729	6.31135	0.870401	8.9158	0.31046	3.16684	0.481034	4.88951	0.731899	7.45974	0.914428	9.299
0.337958	3.4108	0.172213	1.70499	0.337877	3.41238	0.502178	5.08881	0.618341	6.26244	0.871002	8.83761	0.312558	3.15823	0.482142	4.85479	0.732522	7.39586	0.915018	9.21767
0.339054	3.38999	0.174232	1.70921	0.338972	3.39153	0.50325	5.05199	0.6194	6.21453	0.871608	8.76094	0.314658	3.14979	0.483257	4.8208	0.73315	7.33322	0.915613	9.13791
0.340162	3.36967	0.176251	1.71336	0.340079	3.37117	0.50433	5.01592	0.620467	6.16758	0.872219	8.68575	0.316759	3.14153	0.484381	4.78751	0.733784	7.27179	0.916214	9.05966
0.34128	3.34983	0.178272	1.71745	0.341196	3.3513	0.505418	4.98058	0.621541	6.12156	0.872836	8.61199	0.318862	3.13343	0.485513	4.75491	0.734423	7.21154	0.91682	8.98289
0.34241	3.33047	0.180293	1.72147	0.342325	3.3319	0.506513	4.94596	0.622623	6.07646	0.873459	8.53963	0.320966	3.12548	0.486653	4.72298	0.735068	7.15244	0.91743	8.90756
0.343552	3.31156	0.182315	1.72543	0.343466	3.31296	0.507615	4.91204	0.623713	6.03225	0.874086	8.46862	0.323071	3.1177	0.487801	4.6917	0.735718	7.09445	0.918046	8.83363
0.344705	3.2931	0.184338	1.72932	0.344618	3.29447	0.508725	4.87879	0.62481	5.98889	0.874719	8.39894	0.325177	3.11006	0.488957	4.66105	0.736374	7.03755	0.918667	8.76106
0.34587	3.27508	0.186362	1.73316	0.345783	3.27641	0.509841	4.84619	0.625915	5.94638	0.875357	8.33054	0.327284	3.10257	0.490121	4.63102	0.737035	6.9817	0.919293	8.68982
0.347047	3.25749	0.188386	1.73694	0.346959	3.25879	0.510965	4.81424	0.627027	5.90468	0.876	8.26339	0.329393	3.09522	0.491293	4.60158	0.737702	6.92688	0.919924	8.61987
0.348237	3.24032	0.190411	1.74066	0.348147	3.24159	0.512096	4.78291	0.628146	5.86378	0.876649	8.19746	0.331503	3.08801	0.492472	4.57273	0.738375	6.87307	0.92056	8.55118
0.349438	3.22355	0.192437	1.74432	0.349348	3.22479	0.513234	4.75219	0.629273	5.82365	0.877302	8.13272	0.333613	3.08093	0.49366	4.54444	0.739052	6.82023	0.921201	8.48371
0.350653	3.20719	0.194464	1.74793	0.350562	3.2084	0.514379	4.72205	0.630408	5.78427	0.877961	8.06914	0.335725	3.07398	0.494855	4.5167	0.739735	6.76834	0.921847	8.41743
0.35188	3.19122	0.196491	1.75148	0.351788	3.1924	0.515531	4.69249	0.631549	5.74562	0.878626	8.00668	0.337837	3.06716	0.496058	4.4895	0.740424	6.71738	0.922498	8.35232
0.35312	3.17564	0.198519	1.75498	0.353027	3.17679	0.51669	4.66349	0.632698	5.70769	0.879295	7.94532	0.339951	3.06046	0.497269	4.46283	0.741118	6.66732	0.923154	8.28834
0.354373	3.16043	0.200547	1.75843	0.354279	3.16155	0.517856	4.63504	0.633854	5.67046	0.87997	7.88504	0.342065	3.05388	0.498487	4.43667	0.741818	6.61814	0.923815	8.22547
0.35564	3.14559	0.202576	1.76182	0.355545	3.14668	0.519028	4.60711	0.635017	5.63391	0.880649	7.82579	0.34418	3.04741	0.499713	4.411	0.742522	6.56982	0.924481	8.16367
0.356921	3.13111	0.204605	1.76517	0.356825	3.13218	0.520208	4.57971	0.636187	5.59802	0.881334	7.76757	0.346296	3.04106	0.500947	4.38582	0.743233	6.52233	0.925151	8.10293
0.358216	3.117	0.206635	1.76847	0.358119	3.11804	0.521394	4.5528	0.637364	5.56277	0.882025	7.71034	0.348413	3.03482	0.502188	4.36111	0.743948	6.47567	0.925827	8.04322
0.359525	3.10323	0.208665	1.77171	0.359426	3.10424	0.522586	4.52639	0.638548	5.52815	0.88272	7.65408	0.35053	3.02868	0.503436	4.33686	0.744669	6.4298	0.926508	7.9845
0.360848	3.0898	0.210696	1.77492	0.360749	3.09079	0.523786	4.50046	0.639739	5.49414	0.88342	7.59876	0.352648	3.02265	0.504692	4.31307	0.745396	6.38471	0.927193	7.92676
0.362187	3.07672	0.212727	1.77807	0.362086	3.07768	0.524991	4.475	0.640937	5.46074	0.884126	7.54437	0.354766	3.01672	0.505955	4.28971	0.746127	6.34038	0.927883	7.86998
0.36354	3.06397	0.214759	1.78118	0.363439	3.06491	0.526204	4.44999	0.642142	5.42792	0.884837	7.49088	0.356886	3.01088	0.507226	4.26677	0.746865	6.29679	0.928579	7.81412
0.364909	3.05154	0.216791	1.78425	0.364807	3.05246	0.527422	4.42543	0.643353	5.39566	0.885552	7.43827	0.359005	3.00515	0.508504	4.24426	0.747607	6.25392	0.929279	7.75918
0.366294	3.03944	0.218823	1.78727	0.36619	3.04034	0.528648	4.4013	0.644571	5.36397	0.886273	7.38652	0.361126	2.9995	0.509789	4.22215	0.748355	6.21176	0.929984	7.70513
0.367695	3.02766	0.220856	1.79025	0.36759	3.02853	0.529879	4.3776	0.645796	5.33281	0.886999	7.33561	0.363246	2.99395	0.511082	4.20045	0.749108	6.17029	0.930694	7.65194
0.369113	3.01619	0.222889	1.79319	0.369006	3.01704	0.531117	4.35431	0.647028	5.30219	0.88773	7.28552	0.365368	2.98848	0.512381	4.17913	0.749866	6.1295	0.931408	7.5996
0.370547	3.00504	0.224923	1.79608	0.370439	3.00586	0.532361	4.33142	0.648266	5.27209	0.888466	7.23623	0.367489	2.9831	0.513688	4.15819	0.75063	6.08937	0.932128	7.54809
0.371999	2.99418	0.226956	1.79894	0.37189	2.99498	0.533611	4.30893	0.649511	5.24249	0.889208	7.18772	0.369611	2.9778	0.515002	4.13762	0.751399	6.04988	0.932852	7.49739
0.373468	2.98363	0.22899	1.80176	0.373357	2.98441	0.534868	4.28683	0.650762	5.21338	0.889954	7.13998	0.371733	2.97259	0.516323	4.11741	0.752173	6.01102	0.933581	7.44748
0.374955	2.97338	0.231025	1.80454	0.374843	2.97414	0.53613	4.2651	0.65202	5.18476	0.890705	7.09299	0.373856	2.96746	0.517651	4.09756	0.752953	5.97278	0.934315	7.39835
0.37646	2.96342	0.233059	1.80727	0.376347	2.96416	0.537399	4.24374	0.653284	5.15661	0.891461	7.04673	0.375979	2.9624	0.518986	4.07805	0.753737	5.93514	0.935053	7.34997
0.377984	2.95376	0.235094	1.80998	0.377869	2.95447	0.538674	4.22273	0.654555	5.12892	0.892223	7.00119	0.378102	2.95742	0.520328	4.05888	0.754527	5.89809	0.935796	7.30233
0.379526	2.94437	0.237129	1.81264	0.379411	2.94507	0.539954	4.20208	0.655832	5.10168	0.892989	6.95634	0.380226	2.95251	0.521677	4.04004	0.755322	5.86162	0.936544	7.25542
0.381088	2.93528	0.239164	1.81527	0.380971	2.93595	0.541241	4.18177	0.657115	5.07488	0.89376	6.91218	0.38235	2.94768	0.523033	4.02152	0.756123	5.82571	0.937297	7.20922
0.38267	2.92646	0.2412	1.81786	0.382551	2.92711	0.542534	4.1618	0.658404	5.04851	0.894536	6.86869	0.384473	2.94291	0.524395	4.00332	0.756929	5.79035	0.938054	7.16371
0.384271	2.91791	0.243235	1.82042	0.384151	2.91854	0.543832	4.14216	0.6597	5.02256	0.895318	6.82586	0.386597	2.93822	0.525765	3.98543	0.757739	5.75553	0.938817	7.11888
0.385893	2.90964	0.245271	1.82295	0.385771	2.91025	0.545136	4.12283	0.661002	4.99703	0.896104	6.78367	0.388722	2.93359	0.527141	3.96784	0.758555	5.72124	0.939583	7.07471
0.387535	2.90164	0.247307	1.82544	0.387412	2.90223	0.546446	4.10382	0.66231	4.9719	0.896895	6.74211	0.390846	2.92902	0.528524	3.95054	0.759377	5.68747	0.940355	7.03119
0.389197	2.8939	0.249343	1.8279	0.389073	2.89447	0.547762	4.08512	0.663623	4.94716	0.897691	6.70116	0.39297	2.92452	0.529914	3.93353	0.760203	5.6542	0.941131	6.98831
0.390881	2.88642	0.251379	1.83032	0.390754	2.88697	0.549083	4.06672	0.664943	4.92281	0.898492	6.66081	0.395095	2.92009	0.53131	3.91681	0.761035	5.62143	0.941912	6.94605
0.392585	2.87919	0.253415	1.83272	0.392457	2.87972	0.55041	4.04861	0.666269	4.89883	0.899298	6.62105	0.397219	2.91571	0.532713	3.90036	0.761871	5.58915	0.942697	6.90441
0.39431	2.87222	0.255452	1.83508	0.394181	2.87273	0.551742	4.03079	0.667601	4.87523	0.900109	6.58187	0.399343	2.91139	0.534122	3.88419	0.762713	5.55734	0.943487	6.86336
0.396057	2.8655	0.257489	1.83741	0.395926	2.86599	0.55308	4.01324	0.668939	4.85198	0.900924	6.54326	0.401468	2.90713	0.535538	3.86827	0.76356	5.52599	0.944282	6.8229
0.397824	2.85901	0.259525	1.83971	0.397692	2.85949	0.554424	3.99598	0.670283	4.8291	0.901745	6.5052	0.403592	2.90293	0.536961	3.85262	0.764412	5.49511	0.945081	6.78301
0.399613	2.85277	0.261562	1.84199	0.399479	2.85323	0.555773	3.97898	0.671632	4.80655	0.90257	6.46768	0.405716	2.89878	0.53839	3.83722	0.765269	5.46467	0.945885	6.74368
0.401423	2.84675	0.263599	1.84423	0.401287	2.84719	0.557127	3.96225	0.672987	4.78435	0.903401	6.4307	0.40784	2.89469	0.539825	3.82208	0.766131	5.43467	0.946693	6.70491
0.403254	2.84097	0.265636	1.84644	0.403117	2.84139	0.558487	3.94577	0.674348	4.76248	0.904236	6.39424	0.409964	2.89065	0.541267	3.80717	0.766999	5.4051	0.947506	6.66667
0.405106	2.8354	0.267672	1.84863	0.404967	2.83581	0.559852	3.92955	0.675715	4.74094	0.905076	6.35828	0.412088	2.88666	0.542715	3.7925	0.767871	5.37595	0.948323	6.62897
0.406978	2.83005	0.269709	1.85079	0.406838	2.83044	0.561223	3.91358	0.677087	4.71971	0.90592	6.32283	0.414211	2.88272	0.54417	3.77807	0.768749	5.34721	0.949145	6.59178
0.408871	2.82491	0.271746	1.85292	0.408729	2.82529	0.562598	3.89785	0.678465	4.6988	0.90677	6.28788	0.416334	2.87883	0.545631	3.76387	0.769631	5.31888	0.949972	6.55511
0.410784	2.81998	0.273783	1.85503	0.41064	2.82034	0.563979	3.88235	0.679848	4.6782	0.907624	6.2534	0.418458	2.87499	0.547098	3.74989	0.770519	5.29095	0.950802	6.51893
0.412717	2.81524	0.27582	1.8571	0.412572	2.81558	0.565365	3.86709	0.681237	4.65789	0.908483	6.21939	0.42058	2.87119	0.548572	3.73613	0.771411	5.2634	0.951638	6.48324
0.414669	2.81069	0.277857	1.85916	0.414523	2.81102	0.566757	3.85206	0.682631	4.63788	0.909347	6.18585	0.422703	2.86745	0.550051	3.72258	0.772309	5.23624	0.952478	6.44804
0.41664	2.80633	0.279894	1.86118	0.416493	2.80665	0.568153	3.83725	0.684031	4.61816	0.910216	6.15277	0.424825	2.86374	0.551537	3.70925	0.773211	5.20945	0.953322	6.4133
0.41863	2.80215	0.281931	1.86318	0.418481	2.80246	0.569554	3.82266	0.685436	4.59872	0.911089	6.12013	0.426947	2.86008	0.553029	3.69613	0.774119	5.18303	0.954171	6.37903
0.420639	2.79814	0.283968	1.86516	0.420488	2.79844	0.570961	3.80829	0.686847	4.57955	0.911967	6.08792	0.429069	2.85647	0.554527	3.6832	0.775031	5.15697	0.955024	6.34521
0.422664	2.7943	0.286005	1.86712	0.422513	2.79458	0.572372	3.79412	0.688263	4.56066	0.91285	6.05615	0.43119	2.85289	0.556032	3.67048	0.775949	5.13127	0.955882	6.31184
0.424708	2.79062	0.288042	1.86904	0.424554	2.79089	0.573788	3.78016	0.689684	4.54204	0.913738	6.0248	0.433311	2.84936	0.557542	3.65795	0.776872	5.10591	0.956744	6.2789
0.426767	2.78709	0.290079	1.87095	0.426613	2.78735	0.575209	3.76641	0.69111	4.52368	0.91463	5.99386	0.435431	2.84587	0.559058	3.64562	0.777799	5.08089	0.95761	6.24639
0.428844	2.78371	0.292116	1.87283	0.428688	2.78396	0.576635	3.75285	0.692542	4.50557	0.915527	5.96333	0.437551	2.84242	0.560581	3.63347	0.778731	5.05621	0.958481	6.21431
0.430935	2.78047	0.294152	1.87469	0.430779	2.78071	0.578066	3.73949	0.693979	4.48771	0.916429	5.93319	0.43967	2.839	0.562109	3.6215	0.779669	5.03186	0.959356	6.18263
0.433042	2.77737	0.296189	1.87653	0.432884	2.7776	0.579502	3.72632	0.69542	4.47011	0.917335	5.90345	0.441789	2.83562	0.563643	3.60972	0.780611	5.00782	0.960236	6.15137
0.435164	2.7744	0.298226	1.87835	0.435005	2.77462	0.580942	3.71333	0.696867	4.45274	0.918246	5.8741	0.443908	2.83228	0.565183	3.59812	0.781558	4.98411	0.961119	6.1205
0.437299	2.77155	0.300262	1.88014	0.437139	2.77176	0.582387	3.70053	0.698319	4.43561	0.919162	5.84511	0.446026	2.82898	0.566729	3.58668	0.78251	4.96071	0.962008	6.09002
0.439448	2.76882	0.302299	1.88191	0.439287	2.76902	0.583837	3.68791	0.699776	4.41871	0.920082	5.81651	0.448143	2.82571	0.568281	3.57542	0.783467	4.93761	0.9629	6.05993
0.44161	2.76621	0.304335	1.88367	0.441448	2.7664	0.585292	3.67547	0.701238	4.40205	0.921007	5.78826	0.45026	2.82248	0.569839	3.56433	0.784428	4.91481	0.963797	6.03021
0.443785	2.7637	0.306372	1.8854	0.443622	2.76388	0.586751	3.6632	0.702705	4.3856	0.921936	5.76037	0.452376	2.81928	0.571402	3.5534	0.785395	4.89231	0.964698	6.00087
0.445971	2.76129	0.308408	1.88711	0.445808	2.76147	0.588214	3.6511	0.704176	4.36938	0.92287	5.73283	0.454492	2.81611	0.572972	3.54263	0.786366	4.87009	0.965603	5.97189
0.448169	2.75899	0.310444	1.8888	0.448005	2.75916	0.589682	3.63916	0.705653	4.35338	0.923809	5.70564	0.456607	2.81298	0.574547	3.53203	0.787343	4.84817	0.966513	5.94327
0.450378	2.75677	0.31248	1.89047	0.450213	2.75694	0.591155	3.62739	0.707134	4.33758	0.924752	5.67879	0.458721	2.80988	0.576127	3.52157	0.788324	4.82652	0.967427	5.915
0.452598	2.75465	0.314516	1.89212	0.452432	2.75481	0.592632	3.61579	0.70862	4.322	0.9257	5.65227	0.460835	2.80681	0.577714	3.51127	0.78931	4.80514	0.968345	5.88708
0.454827	2.75261	0.316552	1.89375	0.454661	2.75276	0.594114	3.60434	0.710111	4.30662	0.926652	5.62608	0.462948	2.80376	0.579306	3.50112	0.7903	4.78404	0.969267	5.8595
0.457067	2.75065	0.318587	1.89537	0.456899	2.7508	0.5956	3.59304	0.711607	4.29144	0.927609	5.60021	0.46506	2.80075	0.580903	3.49112	0.791296	4.7632	0.970193	5.83225
0.459315	2.74877	0.320623	1.89696	0.459147	2.74891	0.59709	3.5819	0.713107	4.27646	0.928571	5.57466	0.467172	2.79777	0.582507	3.48126	0.792296	4.74262	0.971124	5.80533
0.461572	2.74696	0.322658	1.89854	0.461403	2.7471	0.598585	3.57091	0.714612	4.26167	0.929537	5.54942	0.469283	2.79482	0.584115	3.47155	0.793301	4.7223	0.972059	5.77873
0.463838	2.74523	0.324694	1.9001	0.463668	2.74535	0.600084	3.56007	0.716121	4.24708	0.930507	5.52448	0.471393	2.79189	0.58573	3.46197	0.794311	4.70223	0.972998	5.75245
0.466112	2.74355	0.326729	1.90164	0.465942	2.74368	0.601587	3.54936	0.717635	4.23267	0.931482	5.49985	0.473502	2.789	0.58735	3.45253	0.795325	4.68241	0.973941	5.72649
0.468393	2.74194	0.328764	1.90316	0.468222	2.74206	0.603094	3.53881	0.719153	4.21844	0.932461	5.47551	0.475611	2.78613	0.588975	3.44323	0.796344	4.66284	0.974888	5.70083
0.470681	2.74039	0.330798	1.90467	0.47051	2.74051	0.604606	3.52839	0.720676	4.2044	0.933445	5.45146	0.477719	2.78328	0.590606	3.43406	0.797368	4.6435	0.97584	5.67547
0.472977	2.7389	0.332833	1.90616	0.472805	2.73901	0.606122	3.51811	0.722204	4.19053	0.934434	5.4277	0.479825	2.78047	0.592242	3.42502	0.798397	4.6244	0.976795	5.65041
0.475279	2.73746	0.334868	1.90763	0.475107	2.73757	0.607642	3.50796	0.723736	4.17684	0.935426	5.40422	0.481932	2.77767	0.593883	3.41611	0.79943	4.60553	0.977755	5.62564
0.477588	2.73608	0.336902	1.90909	0.477415	2.73618	0.609166	3.49794	0.725272	4.16332	0.936423	5.38102	0.484037	2.77491	0.59553	3.40732	0.800468	4.58689	0.978719	5.60116
0.479902	2.73474	0.338936	1.91053	0.479729	2.73484	0.610695	3.48806	0.726812	4.14997	0.937425	5.35809	0.486141	2.77216	0.597183	3.39865	0.801511	4.56848	0.979686	5.57696
0.482223	2.73345	0.34097	1.91196	0.482049	2.73355	0.612227	3.4783	0.728357	4.13678	0.938431	5.33542	0.488244	2.76944	0.59884	3.39011	0.802559	4.55028	0.980658	5.55304
0.484548	2.73221	0.343004	1.91336	0.484375	2.7323	0.613763	3.46867	0.729906	4.12376	0.939442	5.31303	0.490347	2.76675	0.600503	3.38169	0.803611	4.53231	0.981634	5.52939
0.486879	2.731	0.345038	1.91476	0.486705	2.73109	0.615304	3.45916	0.73146	4.11089	0.940456	5.29089	0.492449	2.76407	0.602172	3.37339	0.804667	4.51454	0.982614	5.50602
0.489216	2.72984	0.347072	1.91613	0.489041	2.72992	0.616848	3.44977	0.733017	4.09819	0.941476	5.269	0.494549	2.76142	0.603845	3.3652	0.805729	4.49699	0.983598	5.48291
0.491556	2.72872	0.349105	1.9175	0.491381	2.7288	0.618396	3.4405	0.734579	4.08564	0.942499	5.24737	0.496649	2.7588	0.605524	3.35712	0.806794	4.47964	0.984586	5.46006
0.493902	2.72763	0.351138	1.91885	0.493727	2.72771	0.619948	3.43135	0.736145	4.07324	0.943527	5.22598	0.498748	2.75619	0.607208	3.34916	0.807865	4.4625	0.985578	5.43746
0.496252	2.72658	0.353171	1.92018	0.496076	2.72665	0.621504	3.42232	0.737715	4.06099	0.944559	5.20484	0.500845	2.7536	0.608897	3.3413	0.80894	4.44556	0.986574	5.41512
0.498606	2.72556	0.355204	1.9215	0.49843	2.72563	0.623064	3.41339	0.739289	4.04889	0.945596	5.18394	0.502942	2.75104	0.610591	3.33356	0.81002	4.42882	0.987573	5.39303
0.500964	2.72457	0.357236	1.9228	0.500787	2.72464	0.624628	3.40458	0.740867	4.03693	0.946637	5.16327	0.505038	2.7485	0.61229	3.32592	0.811104	4.41227	0.988577	5.37118
0.503325	2.72361	0.359269	1.92409	0.503149	2.72368	0.626196	3.39588	0.742449	4.02512	0.947682	5.14284	0.507132	2.74597	0.613995	3.31838	0.812193	4.39592	0.989585	5.34958
0.505691	2.72269	0.361301	1.92537	0.505514	2.72275	0.627767	3.38729	0.744035	4.01345	0.948731	5.12263	0.509226	2.74347	0.615704	3.31095	0.813286	4.37975	0.990597	5.32821
0.508059	2.72179	0.363333	1.92663	0.507882	2.72185	0.629342	3.3788	0.745625	4.00191	0.949785	5.10265	0.511319	2.74098	0.617419	3.30361	0.814384	4.36376	0.991612	5.30708
0.510431	2.72091	0.365365	1.92788	0.510254	2.72098	0.630921	3.37042	0.747219	3.99051	0.950843	5.0829	0.51341	2.73852	0.619138	3.29638	0.815486	4.34796	0.992632	5.28618
0.512807	2.72007	0.367397	1.92912	0.512629	2.72013	0.632503	3.36214	0.748817	3.97924	0.951905	5.06336	0.515501	2.73607	0.620863	3.28925	0.816593	4.33235	0.993655	5.2655
0.515185	2.71924	0.369428	1.93034	0.515007	2.7193	0.63409	3.35396	0.750419	3.96811	0.952972	5.04403	0.51759	2.73364	0.622592	3.28221	0.817705	4.3169	0.994682	5.24505
0.517566	2.71844	0.371459	1.93155	0.517388	2.7185	0.635679	3.34588	0.752024	3.9571	0.954043	5.02492	0.519678	2.73123	0.624326	3.27526	0.818821	4.30164	0.995713	5.22482
0.51995	2.71766	0.37349	1.93275	0.519772	2.71772	0.637273	3.3379	0.753633	3.94623	0.955118	5.00602	0.521765	2.72884	0.626066	3.26841	0.819941	4.28654	0.996748	5.2048
0.522336	2.71691	0.375521	1.93393	0.522158	2.71696	0.63887	3.33001	0.755246	3.93547	0.956197	4.98732	0.523851	2.72646	0.62781	3.26166	0.821066	4.27162	0.997787	5.185
0.524725	2.71617	0.377552	1.93511	0.524547	2.71622	0.640471	3.32222	0.756863	3.92484	0.95728	4.96882	0.525936	2.72411	0.629559	3.25499	0.822195	4.25686	0.99883	5.16541
0.527117	2.71545	0.379582	1.93627	0.526938	2.7155	0.642075	3.31452	0.758484	3.91433	0.958368	4.95053	0.52802	2.72176	0.631313	3.24841	0.823329	4.24226	0.999876	5.14603
0.52951	2.71475	0.381612	1.93741	0.529331	2.7148	0.643683	3.30692	0.760108	3.90394	0.95946	4.93243	0.530102	2.71944	0.633072	3.24191	0.824467	4.22783	1.00093	5.12685
0.531906	2.71407	0.383642	1.93855	0.531727	2.71412	0.645294	3.2994	0.761736	3.89367	0.960556	4.91452	0.532184	2.71713	0.634835	3.23551	0.82561	4.21356		
0.534304	2.71341	0.385672	1.93967	0.534125	2.71345	0.646909	3.29198	0.763367	3.88352	0.961656	4.89681	0.534264	2.71484	0.636603	3.22919	0.826757	4.19945		
0.536703	2.71276	0.387701	1.94079	0.536524	2.71281	0.648527	3.28464	0.765002	3.87347	0.96276	4.87928	0.536343	2.71256	0.638376	3.22295	0.827908	4.18549		
0.539105	2.71212	0.38973	1.94189	0.538926	2.71217	0.650148	3.27739	0.76664	3.86354	0.963869	4.86194	0.538421	2.7103	0.640154	3.21679	0.829064	4.17168		
0.541509	2.71151	0.391759	1.94298	0.541329	2.71155	0.651773	3.27022	0.768282	3.85372	0.964981	4.84479	0.540497	2.70805	0.641936	3.21072	0.830224	4.15803		
0.543914	2.7109	0.393788	1.94406	0.543734	2.71095	0.653402	3.26314	0.769928	3.84401	0.966098	4.82781	0.542573	2.70582	0.643723	3.20472	0.831389	4.14452		
0.546321	2.71031	0.395817	1.94512	0.546141	2.71036	0.655034	3.25613	0.771577	3.83441	0.967218	4.81101	0.544647	2.7036	0.645515	3.1988	0.832558	4.13116		
0.548729	2.70974	0.397845	1.94618	0.548549	2.70978	0.656669	3.24921	0.773229	3.82491	0.968343	4.79439	0.54672	2.70139	0.647311	3.19296	0.833731	4.11794		
0.551139	2.70917	0.399873	1.94723	0.550959	2.70922	0.658307	3.24237	0.774885	3.81552	0.969472	4.77794	0.548792	2.6992	0.649112	3.1872	0.834909	4.10487		
0.553551	2.70862	0.401901	1.94826	0.553371	2.70866	0.659949	3.23561	0.776544	3.80623	0.970605	4.76166	0.550862	2.69703	0.650917	3.18151	0.836091	4.09194		
0.555963	2.70808	0.403928	1.94929	0.555783	2.70812	0.661594	3.22893	0.778207	3.79704	0.971742	4.74554	0.552931	2.69487	0.652727	3.17589	0.837277	4.07914		
0.558377	2.70755	0.405956	1.9503	0.558197	2.70759	0.663243	3.22232	0.779873	3.78794	0.972883	4.7296	0.554999	2.69272	0.654541	3.17035	0.838467	4.06648		
0.560793	2.70704	0.407983	1.95131	0.560612	2.70707	0.664894	3.21579	0.781542	3.77895	0.974028	4.71381	0.557066	2.69058	0.65636	3.16487	0.839662	4.05396		
0.563209	2.70653	0.41001	1.9523	0.563029	2.70656	0.666549	3.20933	0.783214	3.77005	0.975178	4.69819	0.559131	2.68846	0.658183	3.15947	0.840861	4.04157		
0.565627	2.70603	0.412036	1.95329	0.565446	2.70607	0.668207	3.20295	0.78489	3.76125	0.976331	4.68273	0.561195	2.68635	0.660011	3.15414	0.842065	4.02931		
0.568045	2.70554	0.414063	1.95426	0.567865	2.70558	0.669868	3.19663	0.786569	3.75254	0.977488	4.66742	0.563258	2.68425	0.661843	3.14887	0.843272	4.01718		
0.570465	2.70506	0.416089	1.95523	0.570284	2.7051	0.671533	3.19039	0.788251	3.74393	0.978649	4.65227	0.56532	2.68217	0.66368	3.14367	0.844484	4.00518		
0.572885	2.70459	0.418115	1.95618	0.572705	2.70462	0.6732	3.18422	0.789936	3.7354	0.979814	4.63727	0.56738	2.6801	0.66552	3.13854	0.8457	3.9933		
0.575307	2.70413	0.420141	1.95713	0.575126	2.70416	0.674871	3.17812	0.791625	3.72696	0.980983	4.62242	0.569439	2.67804	0.667365	3.13348	0.846921	3.98154		
0.577729	2.70367	0.422166	1.95806	0.577548	2.70371	0.676545	3.17208	0.793316	3.71862	0.982156	4.60772	0.571497	2.67599	0.669215	3.12847	0.848145	3.96991		
0.580152	2.70323	0.424191	1.95899	0.579971	2.70326	0.678222	3.16611	0.795011	3.71035	0.983333	4.59316	0.573553	2.67395	0.671068	3.12353	0.849374	3.9584		
0.582576	2.70279	0.426216	1.95991	0.582395	2.70282	0.679902	3.16021	0.796708	3.70218	0.984514	4.57875	0.575608	2.67193	0.672926	3.11866	0.850607	3.94701		
0.585001	2.70235	0.428241	1.96082	0.584819	2.70239	0.681586	3.15438	0.798409	3.69409	0.985699	4.56448	0.577662	2.66991	0.674788	3.11384	0.851844	3.93573		
0.587426	2.70193	0.430265	1.96172	0.587245	2.70196	0.683272	3.1486	0.800113	3.68608	0.986888	4.55036	0.579715	2.66791	0.676654	3.10908	0.853086	3.92458		
0.589852	2.70151	0.432289	1.96261	0.58967	2.70154	0.684961	3.14289	0.801819	3.67816	0.98808	4.53637	0.581766	2.66592	0.678524	3.10439	0.854331	3.91353		
0.592278	2.7011	0.434313	1.96349	0.592097	2.70113	0.686654	3.13725	0.803529	3.67031	0.989277	4.52252	0.583816	2.66394	0.680399	3.09975	0.855581	3.9026		
0.594705	2.70069	0.436337	1.96437	0.594524	2.70072	0.688349	3.13166	0.805241	3.66255	0.990477	4.5088	0.585864	2.66197	0.682277	3.09517	0.856835	3.89178		
0.597133	2.70029	0.43836	1.96523	0.596951	2.70032	0.690047	3.12614	0.806957	3.65486	0.991682	4.49522	0.587911	2.66001	0.68416	3.09065	0.858092	3.88107		
0.599561	2.69989	0.440383	1.96609	0.599379	2.69992	0.691749	3.12068	0.808675	3.64725	0.99289	4.48176	0.589957	2.65806	0.686046	3.08618	0.859355	3.87047		
0.601989	2.6995	0.442406	1.96694	0.601808	2.69953	0.693453	3.11527	0.810396	3.63972	0.994102	4.46844	0.592002	2.65613	0.687937	3.08177	0.860621	3.85997		
0.604418	2.69912	0.444429	1.96778	0.604236	2.69914	0.69516	3.10992	0.81212	3.63226	0.995318	4.45525	0.594045	2.6542	0.689832	3.07741	0.861891	3.84958		
0.606847	2.69874	0.446451	1.96862	0.606665	2.69876	0.696871	3.10463	0.813847	3.62488	0.996538	4.44218	0.596087	2.65228	0.69173	3.07311	0.863165	3.8393		
0.609276	2.69836	0.448473	1.96944	0.609095	2.69839	0.698584	3.0994	0.815577	3.61757	0.997761	4.42924	0.598128	2.65037	0.693632	3.06886	0.864444	3.82912		
0.611706	2.69799	0.450495	1.97026	0.611525	2.69801	0.7003	3.09423	0.817309	3.61034	0.998988	4.41643	0.600167	2.64848	0.695539	3.06466	0.865726	3.81904		
0.614136	2.69762	0.452516	1.97107	0.613955	2.69765	0.702019	3.08911	0.819044	3.60317	1.00022	4.40373	0.602205	2.64659	0.697449	3.06051	0.867013	3.80906		
0.616566	2.69726	0.454538	1.97187	0.616385	2.69728	0.703741	3.08404	0.820782	3.59608			0.604242	2.64471	0.699363	3.05641	0.868303	3.79918		
0.618997	2.6969	0.456559	1.97267	0.618815	2.69692	0.705466	3.07903	0.822522	3.58905			0.606277	2.64284	0.70128	3.05237	0.869598	3.78939		
0.621427	2.69654	0.45858	1.97345	0.621246	2.69657	0.707194	3.07407	0.824265	3.5821			0.608311	2.64098	0.703202	3.04837	0.870897	3.77971		
0.623858	2.69619	0.4606	1.97423	0.623677	2.69621	0.708925	3.06916	0.826011	3.57521			0.610344	2.63913	0.705127	3.04442	0.8722	3.77012		
0.626289	2.69584	0.46262	1.975	0.626107	2.69586	0.710659	3.06431	0.827759	3.56838			0.612376	2.63729	0.707056	3.04051	0.873506	3.76062		
0.62872	2.69549	0.46464	1.97577	0.628538	2.69552	0.712395	3.0595	0.82951	3.56163			0.614406	2.63546	0.708988	3.03666	0.874817	3.75122		
0.631151	2.69515	0.46666	1.97653	0.630969	2.69517	0.714135	3.05475	0.831264	3.55493			0.616435	2.63364	0.710925	3.03285	0.876132	3.7419		
0.633582	2.69481	0.468679	1.97728	0.6334	2.69483	0.715877	3.05005	0.83302	3.54831			0.618462	2.63182	0.712864	3.02908	0.87745	3.73268		
0.636013	2.69447	0.470699	1.97802	0.635831	2.69449	0.717622	3.04539	0.834778	3.54174			0.620489	2.63002	0.714808	3.02536	0.878773	3.72355		
0.638444	2.69413	0.472718	1.97876	0.638262	2.69416	0.71937	3.04079	0.836539	3.53524			0.622514	2.62822	0.716755	3.02169	0.8801	3.71451		
0.640874	2.6938	0.474736	1.97949	0.640693	2.69383	0.721121	3.03623	0.838303	3.5288			0.624538	2.62644	0.718705	3.01806	0.88143	3.70555		
0.643305	2.69347	0.476755	1.98021	0.643124	2.69349	0.722874	3.03172	0.840069	3.52242			0.62656	2.62466	0.720659	3.01447	0.882765	3.69668		
0.645736	2.69314	0.478773	1.98093	0.645554	2.69316	0.724631	3.02726	0.841838	3.5161			0.628581	2.62289	0.722616	3.01092	0.884103	3.6879		
0.648166	2.69281	0.480791	1.98164	0.647985	2.69284	0.72639	3.02284	0.843608	3.50983			0.630602	2.62113	0.724577	3.00742	0.885446	3.6792		
0.650596	2.69249	0.482808	1.98234	0.650415	2.69251	0.728152	3.01847	0.845382	3.50363			0.63262	2.61938	0.726541	3.00395	0.886792	3.67059		
0.653026	2.69216	0.484825	1.98304	0.652845	2.69219	0.729917	3.01415	0.847157	3.49749			0.634638	2.61763	0.728509	3.00053	0.888142	3.66205		
0.655456	2.69184	0.486842	1.98373	0.655274	2.69186	0.731685	3.00987	0.848935	3.4914			0.636654	2.6159	0.73048	2.99714	0.889496	3.6536		
0.657885	2.69152	0.488859	1.98441	0.657704	2.69154	0.733455	3.00563	0.850716	3.48536			0.638669	2.61417	0.732454	2.9938	0.890854	3.64523		
0.660314	2.6912	0.490876	1.98509	0.660133	2.69122	0.735228	3.00144	0.852498	3.47939			0.640683	2.61245	0.734431	2.99049	0.892216	3.63693		
0.662743	2.69088	0.492892	1.98576	0.662562	2.6909	0.737005	2.99729	0.854283	3.47346			0.642696	2.61074	0.736412	2.98723	0.893582	3.62872		
0.665172	2.69056	0.494908	1.98643	0.66499	2.69059	0.738784	2.99318	0.856071	3.46759			0.644707	2.60903	0.738395	2.98399	0.894952	3.62058		
0.6676	2.69024	0.496924	1.98709	0.667418	2.69027	0.740565	2.98912	0.85786	3.46178			0.646718	2.60734	0.740382	2.9808	0.896325	3.61252		
0.670027	2.68993	0.498939	1.98774	0.669846	2.68995	0.74235	2.9851	0.859652	3.45601			0.648727	2.60565	0.742373	2.97764	0.897703	3.60454		
0.672454	2.68961	0.500954	1.98839	0.672273	2.68964	0.744137	2.98111	0.861446	3.4503			0.650734	2.60397	0.744366	2.97452	0.899084	3.59663		
0.674881	2.6893	0.502969	1.98903	0.6747	2.68932	0.745928	2.97717	0.863242	3.44464			0.652741	2.6023	0.746362	2.97144	0.900469	3.5888		
0.677307	2.68898	0.504984	1.98967	0.677126	2.689	0.747721	2.97327	0.86504	3.43903			0.654747	2.60063	0.748361	2.96839	0.901858	3.58103		
0.679733	2.68866	0.506998	1.9903	0.679552	2.68869	0.749517	2.96941	0.86684	3.43347			0.656751	2.59898	0.750364	2.96537	0.90325	3.57334		
0.682158	2.68835	0.509012	1.99092	0.681977	2.68837	0.751315	2.96559	0.868643	3.42796			0.658754	2.59733	0.752369	2.96239	0.904647	3.56573		
0.684582	2.68803	0.511026	1.99154	0.684401	2.68806	0.753117	2.96181	0.870447	3.4225			0.660757	2.59569	0.754377	2.95944	0.906047	3.55818		
0.687006	2.68772	0.513039	1.99215	0.686825	2.68774	0.754921	2.95807	0.872254	3.41708			0.662757	2.59405	0.756388	2.95652	0.907451	3.5507		
0.689429	2.6874	0.515052	1.99276	0.689248	2.68743	0.756728	2.95437	0.874063	3.41172			0.664757	2.59243	0.758402	2.95364	0.908859	3.54329		
0.691852	2.68709	0.517065	1.99336	0.691671	2.68711	0.758539	2.9507	0.875874	3.4064			0.666756	2.59081	0.760419	2.95078	0.91027	3.53595		
0.694273	2.68677	0.519078	1.99396	0.694092	2.68679	0.760352	2.94707	0.877687	3.40112			0.668754	2.5892	0.762438	2.94796	0.911686	3.52868		
0.696694	2.68645	0.521091	1.99455	0.696513	2.68648	0.762167	2.94348	0.879502	3.3959			0.67075	2.58759	0.764461	2.94517	0.913105	3.52147		
0.699114	2.68613	0.523103	1.99514	0.698934	2.68616	0.763986	2.93992	0.881318	3.39071			0.672746	2.586	0.766486	2.94241	0.914528	3.51433		
0.701534	2.68582	0.525115	1.99572	0.701353	2.68584	0.765808	2.93641	0.883137	3.38558			0.67474	2.58441	0.768514	2.93968	0.915954	3.50726		
0.703952	2.68549	0.527126	1.9963	0.703771	2.68552	0.767632	2.93292	0.884958	3.38048			0.676734	2.58283	0.770544	2.93698	0.917385	3.50025		
0.70637	2.68517	0.529138	1.99687	0.706189	2.6852	0.76946	2.92948	0.886781	3.37543			0.678726	2.58125	0.772577	2.93431	0.918819	3.4933		
0.708786	2.68485	0.531149	1.99744	0.708606	2.68487	0.77129	2.92607	0.888605	3.37042			0.680717	2.57968	0.774613	2.93167	0.920256	3.48642		
0.711202	2.68453	0.533159	1.998	0.711021	2.68455	0.773123	2.92269	0.890432	3.36546			0.682708	2.57812	0.776651	2.92906	0.921698	3.47959		
0.713616	2.6842	0.53517	1.99855	0.713436	2.68423	0.77496	2.91935	0.89226	3.36054			0.684697	2.57657	0.778692	2.92647	0.923143	3.47284		
0.71603	2.68387	0.53718	1.9991	0.71585	2.6839	0.776799	2.91605	0.894091	3.35565			0.686685	2.57502	0.780735	2.92391	0.924592	3.46614		
0.718442	2.68354	0.53919	1.99965	0.718262	2.68357	0.778641	2.91277	0.895923	3.35081			0.688672	2.57348	0.782781	2.92138	0.926044	3.4595		
0.720854	2.68321	0.5412	2.00019	0.720674	2.68324	0.780487	2.90954	0.897757	3.34601			0.690659	2.57195	0.784829	2.91887	0.927501	3.45292		
0.723264	2.68288	0.543209	2.00073	0.723084	2.68291	0.782335	2.90633	0.899593	3.34125			0.692644	2.57043	0.78688	2.91639	0.928961	3.4464		
0.725673	2.68255	0.545219	2.00126	0.725493	2.68257	0.784186	2.90316	0.90143	3.33653			0.694628	2.56891	0.788933	2.91394	0.930424	3.43994		
0.72808	2.68221	0.547227	2.00179	0.727901	2.68223	0.786041	2.90002	0.90327	3.33185			0.696612	2.5674	0.790988	2.91151	0.931891	3.43354		
0.730487	2.68187	0.549236	2.00231	0.730307	2.68189	0.787898	2.89692	0.905111	3.32721			0.698594	2.56589	0.793046	2.90911	0.933362	3.42719		
0.732892	2.68153	0.551244	2.00283	0.732712	2.68155	0.789759	2.89385	0.906954	3.3226			0.700576	2.5644	0.795106	2.90673	0.934837	3.4209		
0.735296	2.68118	0.553252	2.00335	0.735116	2.68121	0.791623	2.89081	0.908798	3.31803			0.702556	2.56291	0.797168	2.90438	0.936315	3.41467		
0.737698	2.68083	0.55526	2.00386	0.737519	2.68086	0.79349	2.8878	0.910644	3.3135			0.704536	2.56142	0.799232	2.90205	0.937797	3.40849		
0.740099	2.68048	0.557268	2.00436	0.73992	2.68051	0.79536	2.88483	0.912492	3.30901			0.706515	2.55995	0.801299	2.89974	0.939282	3.40237		
0.742498	2.68013	0.559275	2.00486	0.742319	2.68015	0.797233	2.88188	0.914342	3.30455			0.708493	2.55848	0.803368	2.89746	0.940771	3.3963		
0.744896	2.67977	0.561282	2.00536	0.744717	2.6798	0.79911	2.87897	0.916193	3.30013			0.71047	2.55701	0.805438	2.8952	0.942264	3.39029		
0.747292	2.67941	0.563289	2.00585	0.747113	2.67944	0.80099	2.87609	0.918046	3.29574			0.712447	2.55556	0.807511	2.89296	0.94376	3.38433		
0.749686	2.67905	0.565295	2.00634	0.749508	2.67907	0.802873	2.87324	0.919901	3.29139			0.714422	2.55411	0.809586	2.89075	0.94526	3.37842		
0.752079	2.67868	0.567301	2.00683	0.751901	2.67871	0.80476	2.87042	0.921757	3.28708			0.716397	2.55266	0.811663	2.88855	0.946763	3.37256		
0.75447	2.67831	0.569307	2.00731	0.754292	2.67833	0.80665	2.86763	0.923615	3.28279			0.71837	2.55123	0.813742	2.88638	0.94827	3.36676		
0.75686	2.67793	0.571313	2.00778	0.756681	2.67796	0.808543	2.86487	0.925474	3.27855			0.720343	2.5498	0.815823	2.88423	0.949781	3.361		
0.759247	2.67755	0.573318	2.00825	0.759069	2.67758	0.81044	2.86215	0.927335	3.27433			0.722316	2.54837	0.817906	2.8821	0.951295	3.3553		
0.761632	2.67717	0.575324	2.00872	0.761454	2.6772	0.81234	2.85945	0.929198	3.27015			0.724287	2.54696	0.81999	2.87999	0.952813	3.34964		
0.764016	2.67678	0.577328	2.00919	0.763838	2.67681	0.814244	2.85678	0.931062	3.266			0.726258	2.54555	0.822077	2.8779	0.954334	3.34404		
0.766397	2.67639	0.579333	2.00965	0.766219	2.67641	0.816152	2.85414	0.932927	3.26188			0.728228	2.54414	0.824165	2.87583	0.955859	3.33848		
0.768776	2.67599	0.581337	2.0101	0.768599	2.67602	0.818063	2.85154	0.934794	3.2578			0.730197	2.54275	0.826255	2.87378	0.957388	3.33297		
0.771154	2.67559	0.583341	2.01056	0.770976	2.67562	0.819978	2.84896	0.936663	3.25375			0.732165	2.54135	0.828347	2.87175	0.95892	3.32751		
0.773529	2.67518	0.585345	2.011	0.773351	2.67521	0.821896	2.84641	0.938532	3.24972			0.734133	2.53997	0.83044	2.86974	0.960455	3.3221		
0.775901	2.67476	0.587349	2.01145	0.775724	2.6748	0.823818	2.84389	0.940404	3.24573			0.7361	2.53859	0.832535	2.86775	0.961994	3.31674		
0.778272	2.67435	0.589352	2.01189	0.778095	2.67438	0.825744	2.8414	0.942277	3.24177			0.738066	2.53722	0.834632	2.86577	0.963537	3.31142		
0.78064	2.67392	0.591355	2.01233	0.780463	2.67395	0.827674	2.83894	0.944151	3.23784			0.740032	2.53586	0.836731	2.86382	0.965083	3.30615		
0.783005	2.67349	0.593357	2.01276	0.782828	2.67353	0.829608	2.83651	0.946027	3.23394			0.741997	2.5345	0.838831	2.86188	0.966633	3.30092		
0.785368	2.67306	0.59536	2.01319	0.785192	2.67309	0.831545	2.8341	0.947904	3.23007			0.743961	2.53315	0.840932	2.85996	0.968186	3.29574		
0.787728	2.67262	0.597362	2.01362	0.787552	2.67265	0.833487	2.83173	0.949782	3.22623			0.745925	2.5318	0.843035	2.85805	0.969743	3.2906		
0.790086	2.67217	0.599364	2.01404	0.78991	2.6722	0.835433	2.82938	0.951662	3.22242			0.747888	2.53046	0.84514	2.85617	0.971303	3.28551		
0.792441	2.67171	0.601366	2.01446	0.792265	2.67175	0.837383	2.82707	0.953543	3.21863			0.74985	2.52913	0.847246	2.8543	0.972866	3.28046		
0.794793	2.67125	0.603367	2.01487	0.794618	2.67129	0.839337	2.82478	0.955425	3.21487			0.751812	2.5278	0.849353	2.85244	0.974434	3.27545		
0.797143	2.67079	0.605368	2.01529	0.796967	2.67082	0.841295	2.82252	0.957309	3.21115			0.753773	2.52648	0.851462	2.85061	0.976004	3.27049		
0.799489	2.67031	0.607369	2.0157	0.799314	2.67035	0.843257	2.82029	0.959194	3.20745			0.755733	2.52517	0.853572	2.84878	0.977579	3.26557		
0.801832	2.66983	0.609369	2.0161	0.801657	2.66987	0.845224	2.81808	0.961081	3.20377			0.757693	2.52386	0.855684	2.84698	0.979156	3.26069		
0.804173	2.66934	0.61137	2.0165	0.803998	2.66938	0.847195	2.81591	0.962968	3.20013			0.759653	2.52256	0.857797	2.84519	0.980737	3.25586		
0.80651	2.66885	0.61337	2.0169	0.806335	2.66888	0.84917	2.81376	0.964857	3.19651			0.761611	2.52126	0.859911	2.84341	0.982322	3.25106		
0.808844	2.66834	0.61537	2.0173	0.808669	2.66838	0.851151	2.81164	0.966747	3.19291			0.76357	2.51997	0.862027	2.84165	0.98391	3.24631		
0.811174	2.66783	0.617369	2.01769	0.811	2.66787	0.853135	2.80955	0.968639	3.18934			0.765527	2.51869	0.864143	2.83991	0.985502	3.24159		
0.813502	2.66731	0.619368	2.01808	0.813328	2.66735	0.855124	2.80749	0.970531	3.1858			0.767485	2.51741	0.866261	2.83818	0.987097	3.23692		
0.815825	2.66679	0.621367	2.01846	0.815652	2.66682	0.857118	2.80545	0.972425	3.18229			0.769441	2.51614	0.86838	2.83646	0.988695	3.23229		
0.818146	2.66625	0.623366	2.01885	0.817972	2.66629	0.859117	2.80344	0.97432	3.1788			0.771397	2.51487	0.8705	2.83476	0.990297	3.22769		
0.820462	2.66571	0.625364	2.01923	0.820289	2.66575	0.86112	2.80146	0.976216	3.17533			0.773353	2.51361	0.872621	2.83307	0.991903	3.22314		
0.822775	2.66515	0.627363	2.0196	0.822603	2.66519	0.863128	2.79951	0.978113	3.17189			0.775308	2.51236	0.874743	2.8314	0.993512	3.21862		
0.825085	2.66459	0.629361	2.01998	0.824912	2.66463	0.865142	2.79759	0.980012	3.16847			0.777263	2.51111	0.876867	2.82974	0.995124	3.21414		
0.82739	2.66402	0.631358	2.02035	0.827218	2.66406	0.86716	2.79569	0.981912	3.16508			0.779217	2.50987	0.878991	2.82809	0.99674	3.2097		
0.829692	2.66344	0.633356	2.02071	0.82952	2.66349	0.869183	2.79382	0.983812	3.16171			0.781171	2.50864	0.881116	2.82645	0.998359	3.2053		
0.831989	2.66285	0.635353	2.02108	0.831818	2.6629	0.871211	2.79198	0.985714	3.15837			0.783124	2.50741	0.883242	2.82483	0.999982	3.20094		
0.834283	2.66226	0.63735	2.02144	0.834112	2.6623	0.873245	2.79016	0.987617	3.15505			0.785077	2.50618	0.885369	2.82322	1.00161	3.19661		
0.836572	2.66165	0.639346	2.0218	0.836402	2.66169	0.875283	2.78838	0.989521	3.15175			0.78703	2.50497	0.887497	2.82162				
0.838858	2.66103	0.641343	2.02215	0.838687	2.66108	0.877327	2.78662	0.991426	3.14847			0.788982	2.50375	0.889626	2.82004				
0.841139	2.66041	0.643339	2.0225	0.840969	2.66045	0.879376	2.78489	0.993333	3.14522			0.790933	2.50255	0.891756	2.81847				
0.843416	2.65977	0.645335	2.02285	0.843246	2.65982	0.881431	2.78318	0.99524	3.14199			0.792885	2.50135	0.893886	2.8169				
0.845688	2.65912	0.64733	2.0232	0.845519	2.65917	0.883491	2.7815	0.997148	3.13878			0.794836	2.50015	0.896017	2.81535				
0.847957	2.65847	0.649326	2.02354	0.847787	2.65852	0.885556	2.77985	0.999058	3.1356			0.796786	2.49897	0.898149	2.81382				
0.85022	2.6578	0.651321	2.02389	0.850051	2.65785	0.887627	2.77823	1.00097	3.13243			0.798736	2.49778	0.900282	2.81229				
0.85248	2.65712	0.653316	2.02422	0.852311	2.65717	0.889704	2.77663					0.800686	2.49661	0.902415	2.81077				
0.854734	2.65644	0.65531	2.02456	0.854566	2.65649	0.891786	2.77506					0.802635	2.49544	0.904549	2.80927				
0.856984	2.65574	0.657304	2.02489	0.856816	2.65579	0.893874	2.77351					0.804585	2.49427	0.906684	2.80777				
0.85923	2.65503	0.659298	2.02522	0.859062	2.65509	0.895967	2.77199					0.806533	2.49311	0.908819	2.80629				
0.86147	2.65431	0.661292	2.02555	0.861303	2.65437	0.898066	2.7705					0.808482	2.49196	0.910954	2.80481				
0.863706	2.65359	0.663286	2.02587	0.86354	2.65364	0.900171	2.76904					0.81043	2.49081	0.913091	2.80335				
0.865938	2.65285	0.665279	2.0262	0.865771	2.6529	0.902281	2.7676					0.812378	2.48967	0.915227	2.80189				
0.868164	2.6521	0.667272	2.02652	0.867998	2.65216	0.904397	2.76618					0.814325	2.48853	0.917365	2.80045				
0.870386	2.65134	0.669265	2.02683	0.87022	2.6514	0.906519	2.76479					0.816272	2.4874	0.919502	2.79901				
0.872603	2.65057	0.671257	2.02715	0.872437	2.65063	0.908647	2.76343					0.818219	2.48627	0.921641	2.79759				
0.874815	2.64979	0.67325	2.02746	0.87465	2.64985	0.910781	2.76209					0.820166	2.48515	0.923779	2.79617				
0.877022	2.649	0.675242	2.02777	0.876857	2.64906	0.91292	2.76078					0.822112	2.48404	0.925918	2.79476				
0.879224	2.6482	0.677234	2.02808	0.87906	2.64826	0.915065	2.75949					0.824059	2.48293	0.928057	2.79337				
0.881422	2.64739	0.679225	2.02838	0.881258	2.64745	0.917216	2.75823					0.826005	2.48182	0.930197	2.79198				
0.883614	2.64657	0.681216	2.02868	0.883451	2.64663	0.919373	2.75699					0.82795	2.48072	0.932337	2.79059				
0.885802	2.64574	0.683207	2.02898	0.885639	2.6458	0.921536	2.75578					0.829896	2.47963	0.934477	2.78922				
0.887985	2.6449	0.685198	2.02928	0.887822	2.64496	0.923704	2.75459					0.831841	2.47854	0.936617	2.78786				
0.890163	2.64405	0.687189	2.02957	0.89	2.64411	0.925878	2.75342					0.833786	2.47746	0.938758	2.7865				
0.892336	2.64319	0.689179	2.02987	0.892174	2.64325	0.928058	2.75228					0.835731	2.47638	0.940899	2.78515				
0.894504	2.64232	0.691169	2.03016	0.894343	2.64238	0.930243	2.75115					0.837675	2.47531	0.94304	2.78381				
0.896668	2.64144	0.693159	2.03045	0.896507	2.64151	0.932434	2.75006					0.83962	2.47425	0.945181	2.78248				
0.898827	2.64055	0.695148	2.03073	0.898666	2.64062	0.934631	2.74898					0.841564	2.47319	0.947322	2.78116				
0.900981	2.63966	0.697137	2.03101	0.90082	2.63972	0.936833	2.74793					0.843508	2.47213	0.949463	2.77984				
0.903131	2.63875	0.699126	2.0313	0.90297	2.63882	0.93904	2.7469					0.845452	2.47108	0.951604	2.77853				
0.905276	2.63784	0.701115	2.03157	0.905116	2.63791	0.941254	2.74589					0.847396	2.47004	0.953746	2.77723				
0.907416	2.63691	0.703104	2.03185	0.907256	2.63698	0.943472	2.7449					0.849339	2.469	0.955887	2.77593				
0.909552	2.63598	0.705092	2.03213	0.909393	2.63605	0.945696	2.74393					0.851283	2.46796	0.958028	2.77464				
0.911683	2.63505	0.70708	2.0324	0.911524	2.63512	0.947925	2.74298					0.853226	2.46693	0.96017	2.77336				
0.91381	2.6341	0.709068	2.03267	0.913652	2.63417	0.950159	2.74206					0.855169	2.46591	0.962311	2.77208				
0.915933	2.63315	0.711055	2.03294	0.915775	2.63322	0.952399	2.74115					0.857112	2.46489	0.964452	2.77082				
0.918051	2.63219	0.713043	2.0332	0.917893	2.63226	0.954643	2.74026					0.859055	2.46387	0.966593	2.76955				
0.920166	2.63122	0.71503	2.03346	0.920008	2.63129	0.956893	2.73939					0.860998	2.46286	0.968734	2.7683				
0.922276	2.63025	0.717017	2.03373	0.922118	2.63032	0.959147	2.73854					0.862941	2.46186	0.970875	2.76705				
0.924381	2.62927	0.719003	2.03399	0.924224	2.62934	0.961406	2.73771					0.864883	2.46086	0.973015	2.7658				
0.926483	2.62828	0.72099	2.03424	0.926327	2.62835	0.96367	2.73689					0.866826	2.45987	0.975155	2.76457				
0.928581	2.62729	0.722976	2.0345	0.928425	2.62736	0.965939	2.7361					0.868768	2.45888	0.977295	2.76333				
0.930675	2.62629	0.724961	2.03475	0.930519	2.62636	0.968212	2.73532					0.870711	2.45789	0.979435	2.76211				
0.932766	2.62529	0.726947	2.035	0.93261	2.62536	0.97049	2.73455					0.872653	2.45691	0.981575	2.76089				
0.934852	2.62428	0.728932	2.03525	0.934697	2.62435	0.972772	2.73381					0.874595	2.45594	0.983714	2.75967				
0.936935	2.62326	0.730918	2.0355	0.93678	2.62334	0.975059	2.73308					0.876537	2.45497	0.985853	2.75846				
0.939015	2.62224	0.732903	2.03575	0.93886	2.62232	0.97735	2.73236					0.878479	2.45401	0.987991	2.75726				
0.941091	2.62122	0.734887	2.03599	0.940936	2.6213	0.979645	2.73167					0.880421	2.45305	0.990129	2.75606				
0.943163	2.62019	0.736872	2.03623	0.943008	2.62027	0.981944	2.73098					0.882363	2.45209	0.992267	2.75487				
0.945232	2.61916	0.738856	2.03647	0.945078	2.61924	0.984247	2.73031					0.884305	2.45114	0.994404	2.75368				
0.947298	2.61813	0.74084	2.03671	0.947144	2.61821	0.986554	2.72966					0.886247	2.4502	0.996541	2.75249				
0.949361	2.61709	0.742823	2.03695	0.949207	2.61717	0.988865	2.72901					0.888188	2.44926	0.998678	2.75131				
0.951421	2.61605	0.744807	2.03718	0.951267	2.61613	0.991179	2.72839					0.89013	2.44832	1.00081	2.75014				
0.953477	2.61501	0.74679	2.03741	0.953324	2.61508	0.993498	2.72777					0.892072	2.44739						
0.955531	2.61396	0.748773	2.03764	0.955378	2.61404	0.995819	2.72717					0.894014	2.44646						
0.957582	2.61291	0.750756	2.03787	0.957429	2.61299	0.998145	2.72658					0.895955	2.44554						
0.95963	2.61186	0.752738	2.0381	0.959477	2.61194	1.00047	2.72601					0.897897	2.44462						
0.961675	2.6108	0.754721	2.03832	0.961523	2.61088							0.899839	2.44371						
0.963718	2.60975	0.756703	2.03855	0.963565	2.60983							0.901781	2.44281						
0.965758	2.60869	0.758685	2.03877	0.965606	2.60877							0.903722	2.4419						
0.967796	2.60763	0.760666	2.03899	0.967644	2.60771							0.905664	2.441						
0.969831	2.60657	0.762647	2.03921	0.969679	2.60665							0.907606	2.44011						
0.971864	2.60551	0.764629	2.03942	0.971712	2.60559							0.909548	2.43922						
0.973895	2.60445	0.76661	2.03964	0.973743	2.60453							0.911489	2.43833						
0.975923	2.60339	0.76859	2.03985	0.975771	2.60347							0.913431	2.43745						
0.977949	2.60233	0.770571	2.04006	0.977798	2.60241							0.915373	2.43658						
0.979973	2.60126	0.772551	2.04027	0.979822	2.60134							0.917315	2.43571						
0.981995	2.6002	0.774531	2.04048	0.981844	2.60028							0.919257	2.43484						
0.984016	2.59914	0.776511	2.04069	0.983865	2.59922							0.921199	2.43398						
0.986034	2.59807	0.77849	2.04089	0.985883	2.59815							0.923141	2.43312						
0.98805	2.59701	0.780469	2.0411	0.9879	2.59709							0.925083	2.43226						
0.990065	2.59595	0.782448	2.0413	0.989914	2.59603							0.927025	2.43141						
0.992078	2.59489	0.784427	2.0415	0.991927	2.59497							0.928967	2.43057						
0.994089	2.59383	0.786406	2.0417	0.993939	2.59391							0.930909	2.42973						
0.996099	2.59277	0.788384	2.0419	0.995949	2.59285							0.932852	2.42889						
0.998107	2.59171	0.790363	2.04209	0.997957	2.59179							0.934794	2.42806						
1.00011	2.59065	0.79234	2.04229	0.999963	2.59073							0.936736	2.42723						
		0.794318	2.04248	1.00197	2.58968							0.938679	2.4264						
		0.796296	2.04267									0.940622	2.42558						
		0.798273	2.04286									0.942564	2.42477						
		0.80025	2.04305									0.944507	2.42396						
		0.802227	2.04324									0.94645	2.42315						
		0.804204	2.04342									0.948393	2.42235						
		0.80618	2.0436									0.950336	2.42155						
		0.808156	2.04379									0.952279	2.42075						
		0.810132	2.04397									0.954223	2.41996						
		0.812108	2.04415									0.956166	2.41917						
		0.814083	2.04433									0.95811	2.41839						
		0.816059	2.0445									0.960053	2.41761						
		0.818034	2.04468									0.961997	2.41683						
		0.820009	2.04485									0.963941	2.41606						
		0.821983	2.04503									0.965885	2.41529						
		0.823958	2.0452									0.967829	2.41453						
		0.825932	2.04537									0.969773	2.41377						
		0.827906	2.04554									0.971718	2.41301						
		0.82988	2.0457									0.973662	2.41226						
		0.831853	2.04587									0.975607	2.41151						
		0.833827	2.04604									0.977552	2.41077						
		0.8358	2.0462									0.979496	2.41003						
		0.837773	2.04636									0.981442	2.40929						
		0.839746	2.04652									0.983387	2.40856						
		0.841718	2.04668									0.985332	2.40783						
		0.843691	2.04684									0.987278	2.4071						
		0.845663	2.047									0.989223	2.40638						
		0.847635	2.04716									0.991169	2.40566						
		0.849606	2.04731									0.993115	2.40494						
		0.851578	2.04746									0.995061	2.40423						
		0.853549	2.04762									0.997008	2.40352						
		0.85552	2.04777									0.998954	2.40282						
		0.857491	2.04792									1.0009	2.40212						
		0.859462	2.04807																
		0.861432	2.04822																
		0.863403	2.04836																
		0.865373	2.04851																
		0.867342	2.04865																
		0.869312	2.0488																
		0.871282	2.04894																
		0.873251	2.04908																
		0.87522	2.04922																
		0.877189	2.04936																
		0.879157	2.0495																
		0.881126	2.04964																
		0.883094	2.04977																
		0.885062	2.04991																
		0.88703	2.05004																
		0.888998	2.05018																
		0.890965	2.05031																
		0.892933	2.05044																
		0.8949	2.05057																
		0.896867	2.0507																
		0.898833	2.05083																
		0.9008	2.05095																
		0.902766	2.05108																
		0.904732	2.0512																
		0.906698	2.05133																
		0.908664	2.05145																
		0.91063	2.05157																
		0.912595	2.05169																
		0.91456	2.05181																
		0.916525	2.05193																
		0.91849	2.05205																
		0.920455	2.05217																
		0.922419	2.05229																
		0.924383	2.0524																
		0.926347	2.05252																
		0.928311	2.05263																
		0.930275	2.05274																
		0.932239	2.05286																
		0.934202	2.05297																
		0.936165	2.05308																
		0.938128	2.05319																
		0.940091	2.0533																
		0.942054	2.05341																
		0.944016	2.05351																
		0.945978	2.05362																
		0.94794	2.05372																
		0.949902	2.05383																
		0.951864	2.05393																
		0.953826	2.05404																
		0.955787	2.05414																
		0.957748	2.05424																
		0.959709	2.05434																
		0.96167	2.05444																
		0.963631	2.05454																
		0.965591	2.05464																
		0.967552	2.05474																
		0.969512	2.05483																
		0.971472	2.05493																
		0.973432	2.05503																
		0.975391	2.05512																
		0.977351	2.05522																
		0.97931	2.05531																
		0.981269	2.0554																
		0.983228	2.05549																
		0.985187	2.05558																
		0.987146	2.05568																
		0.989104	2.05577																
		0.991063	2.05585																
		0.993021	2.05594																
		0.994979	2.05603																
		0.996937	2.05612																
		0.998894	2.0562																
		1.00085	2.05629																
