Sym0		Asym0		Sym1		Sym2		Sym3		Sym4		Asym1		Asym2		Asym3		Asym4	
418  Points		528  Points		418  Points		398  Points		347  Points		249  Points		451  Points		394  Points		340  Points		214  Points	
Freq (MHz)	Vph (m/ms)	Freq (MHz)	Vph (m/ms)	Freq (MHz)	Vph (m/ms)	Freq (MHz)	Vph (m/ms)	Freq (MHz)	Vph (m/ms)	Freq (MHz)	Vph (m/ms)	Freq (MHz)	Vph (m/ms)	Freq (MHz)	Vph (m/ms)	Freq (MHz)	Vph (m/ms)	Freq (MHz)	Vph (m/ms)
0.279512	395.735	7.33846e-008	0.00154177	0.27951	517.206	0.441468	2133.48	0.559017	2524.51	0.838526	9843.75	0.139764	284.819	0.419268	498.963	0.698772	1218.45	0.882937	1111.96
0.279525	170.65	3.7102e-005	0.0378865	0.279522	189.877	0.441476	387.73	0.559026	484.789	0.838529	824.611	0.139834	98.3079	0.419284	236.62	0.698779	464.246	0.882945	511.636
0.27955	108.787	0.000141225	0.0739014	0.279544	116.292	0.441497	213.251	0.559045	268.15	0.838539	430.335	0.139972	59.4588	0.419313	155.09	0.698792	286.756	0.882959	332.261
0.279585	79.8496	0.000312115	0.109796	0.279578	83.8187	0.441529	147.078	0.559077	185.338	0.838554	291.137	0.140178	42.6617	0.419354	115.354	0.698811	207.45	0.882978	246.015
0.279631	63.0781	0.000549258	0.145523	0.279622	65.5282	0.441572	112.254	0.559119	141.613	0.838575	219.985	0.140451	33.3019	0.419406	91.8329	0.698837	162.51	0.883004	195.32
0.279688	52.134	0.000852029	0.181049	0.279677	53.7954	0.441628	90.769	0.559173	114.587	0.838603	176.784	0.14079	27.3421	0.419471	76.2847	0.698868	133.576	0.883035	161.95
0.279755	44.4305	0.00121952	0.216313	0.279743	45.6306	0.441695	76.1924	0.559238	96.2278	0.838636	147.768	0.141194	23.2194	0.419547	65.2439	0.698906	113.391	0.883072	138.321
0.279834	38.7143	0.00165082	0.251287	0.279819	39.6216	0.441774	65.6542	0.559314	82.9437	0.838676	126.937	0.141663	20.2013	0.419636	56.9991	0.698949	98.508	0.883115	120.712
0.279923	34.3049	0.00214462	0.285906	0.279907	35.0147	0.441864	57.681	0.559402	72.8863	0.838721	111.255	0.142195	17.8991	0.419736	50.6082	0.698999	87.0804	0.883163	107.081
0.280023	30.8003	0.0026997	0.320141	0.280005	31.3707	0.441966	51.4382	0.559501	65.0077	0.838772	99.0235	0.142789	16.0871	0.419848	45.5094	0.699055	78.0305	0.883218	96.2185
0.280134	27.9484	0.00331468	0.35396	0.280114	28.4167	0.44208	46.4181	0.559612	58.6694	0.83883	89.217	0.143442	14.6255	0.419972	41.3471	0.699117	70.6861	0.883278	87.3582
0.280256	25.5826	0.00398791	0.387317	0.280233	25.9738	0.442206	42.2938	0.559734	53.4603	0.838893	81.1793	0.144155	13.423	0.420108	37.8854	0.699186	64.607	0.883344	79.9936
0.280388	23.5885	0.00471787	0.42019	0.280364	23.9203	0.442343	38.8454	0.559867	49.1035	0.838962	74.4717	0.144924	12.4174	0.420256	34.9613	0.69926	59.4921	0.883416	73.7755
0.280531	21.8852	0.00550288	0.452553	0.280505	22.17	0.442492	35.9196	0.560011	45.4058	0.839037	68.7892	0.145749	11.5649	0.420416	32.4588	0.699341	55.129	0.883493	68.4556
0.280685	20.4134	0.0063412	0.484382	0.280657	20.6606	0.442653	33.4061	0.560167	42.2284	0.839119	63.9138	0.146627	10.8336	0.420588	30.293	0.699428	51.3634	0.883577	63.8526
0.28085	19.1292	0.00723101	0.515653	0.28082	19.3458	0.442825	31.2237	0.560334	39.4688	0.839206	59.6849	0.147435	10.2768	0.420771	28.4004	0.69952	48.0806	0.883666	59.8306
0.281026	17.999	0.00817059	0.546355	0.280994	18.1902	0.443009	29.3111	0.560512	37.0499	0.839299	55.982	0.148153	9.85164	0.420967	26.7324	0.699619	45.1933	0.883761	56.2864
0.281212	16.9967	0.00915809	0.576473	0.281178	17.1667	0.443204	27.6213	0.560701	34.9124	0.839398	52.7128	0.148768	9.52982	0.421174	25.2516	0.699724	42.6341	0.883862	53.1395
0.281409	16.1018	0.0101916	0.605992	0.281373	16.2541	0.443411	26.1177	0.560902	33.0099	0.839503	49.8053	0.149267	9.2924	0.421393	23.9281	0.699836	40.3503	0.883968	50.3269
0.281617	15.2982	0.0112695	0.63491	0.281579	15.4352	0.44363	24.7711	0.561114	31.3058	0.839614	47.2028	0.149641	9.12661	0.421623	22.7382	0.699953	38.2997	0.884081	47.7979
0.281835	14.5725	0.0123899	0.663219	0.281795	14.6965	0.44386	23.5584	0.561337	29.7707	0.839731	44.8596	0.149883	9.02418	0.421866	21.6628	0.700077	36.4483	0.884199	45.5117
0.282064	13.914	0.0135512	0.690921	0.282022	14.0268	0.444101	22.4605	0.561571	28.3808	0.839854	42.739	0.150235	8.8817	0.42212	20.6862	0.700206	34.7685	0.884323	43.4351
0.282304	13.314	0.0147513	0.718005	0.28226	13.4169	0.444354	21.462	0.561817	27.1164	0.839983	40.8106	0.150624	8.73289	0.422386	19.7954	0.700342	33.2376	0.884453	41.5405
0.282554	12.7649	0.015989	0.744485	0.282509	12.8592	0.444619	20.5501	0.562073	25.9613	0.840117	39.0495	0.151162	8.54	0.422664	18.9797	0.700484	31.8366	0.884588	39.805
0.282815	12.2606	0.0172623	0.770353	0.282768	12.3474	0.444895	19.7139	0.562341	24.902	0.840258	37.4349	0.151857	8.31054	0.422953	18.23	0.700632	30.5497	0.88473	38.2095
0.283087	11.796	0.0185698	0.795622	0.283038	11.876	0.445183	18.9445	0.56262	23.9272	0.840405	35.9492	0.152718	8.05269	0.423254	17.5386	0.700786	29.3635	0.884877	36.7376
0.28337	11.3664	0.0199099	0.820294	0.283319	11.4405	0.445481	18.2343	0.56291	23.0271	0.840557	34.5777	0.153758	7.77467	0.423567	16.8992	0.700946	28.2667	0.88503	35.3756
0.283663	10.9683	0.0212812	0.844378	0.28361	11.037	0.445792	17.5767	0.563211	22.1936	0.840716	33.3076	0.154989	7.4843	0.423891	16.306	0.701112	27.2496	0.885188	34.1116
0.283966	10.5982	0.0226822	0.867883	0.283912	10.6622	0.446113	16.9661	0.563523	21.4195	0.84088	32.1282	0.156257	7.22069	0.424227	15.7543	0.701285	26.3038	0.885353	32.9354
0.284281	10.2534	0.0241115	0.890815	0.284224	10.3131	0.446446	16.3977	0.563846	20.6987	0.841051	31.0301	0.157562	6.98046	0.424574	15.2399	0.701463	25.4221	0.885523	31.8382
0.284606	9.9314	0.0255678	0.913188	0.284505	10.0278	0.446791	15.8674	0.56418	20.026	0.841227	30.0052	0.158902	6.76077	0.424933	14.7592	0.701648	24.5982	0.885699	30.8124
0.284941	9.63002	0.02705	0.935011	0.284751	9.79751	0.447146	15.3714	0.564525	19.3968	0.841409	29.0464	0.160276	6.55919	0.425304	14.309	0.701838	23.8266	0.885881	29.8512
0.285287	9.34738	0.0285567	0.956293	0.284958	9.6153	0.447513	14.9066	0.564881	18.807	0.841597	28.1476	0.161681	6.37368	0.425686	13.8866	0.702035	23.1026	0.886068	28.9486
0.285644	9.08183	0.0300868	0.977048	0.285125	9.47624	0.447891	14.4701	0.565248	18.253	0.841791	27.3033	0.163117	6.20248	0.426079	13.4894	0.702238	22.4218	0.886261	28.0996
0.286011	8.83188	0.0316392	0.99729	0.28525	9.37667	0.44828	14.0595	0.565625	17.7317	0.841991	26.5087	0.164582	6.04406	0.426484	13.1154	0.702447	21.7805	0.88646	27.2995
0.286389	8.59622	0.033213	1.01703	0.28533	9.31411	0.44868	13.6725	0.566014	17.2404	0.842197	25.7596	0.166075	5.89711	0.4269	12.7625	0.702662	21.1755	0.886665	26.5442
0.286777	8.37369	0.034807	1.03627	0.285447	9.22572	0.449092	13.3072	0.566414	16.7764	0.842409	25.0522	0.167594	5.76049	0.427328	12.4291	0.702883	20.6036	0.886875	25.83
0.287175	8.16325	0.0364203	1.05504	0.285574	9.13165	0.449514	12.9619	0.566824	16.3377	0.842627	24.383	0.169139	5.6332	0.427767	12.1136	0.703111	20.0624	0.887092	25.1538
0.287584	7.96396	0.0380521	1.07334	0.28575	9.00694	0.449948	12.635	0.567245	15.9223	0.842851	23.7492	0.170708	5.51434	0.428217	11.8146	0.703344	19.5493	0.887313	24.5125
0.288004	7.77498	0.0397014	1.09119	0.285977	8.85434	0.450392	12.325	0.567677	15.5283	0.84308	23.148	0.172301	5.40317	0.428679	11.5309	0.703583	19.0623	0.887541	23.9035
0.288434	7.59554	0.0413675	1.10859	0.286255	8.67703	0.450848	12.0307	0.56812	15.1542	0.843315	22.5769	0.173915	5.29897	0.429151	11.2614	0.703829	18.5995	0.887774	23.3245
0.288874	7.42497	0.0430496	1.12556	0.28659	8.47851	0.451314	11.751	0.568573	14.7985	0.843557	22.0338	0.175551	5.20116	0.429635	11.0051	0.70408	18.159	0.888014	22.7734
0.289325	7.26263	0.0447468	1.14212	0.286983	8.26241	0.451791	11.4848	0.569037	14.4599	0.843804	21.5166	0.177206	5.10918	0.430131	10.7609	0.704338	17.7394	0.888258	22.248
0.289786	7.10797	0.0464586	1.15827	0.287388	8.0579	0.452279	11.2312	0.569512	14.1373	0.844057	21.0236	0.178881	5.02255	0.430637	10.5282	0.704601	17.3392	0.888509	21.7468
0.290258	6.96047	0.0481843	1.17402	0.287802	7.86409	0.452778	10.9894	0.569997	13.8295	0.844316	20.5531	0.180575	4.94085	0.431154	10.3061	0.704871	16.957	0.888765	21.2681
0.29074	6.81966	0.0499233	1.18939	0.288227	7.68017	0.453288	10.7585	0.570493	13.5356	0.84458	20.1036	0.182286	4.86368	0.431614	10.1207	0.705147	16.5918	0.889027	20.8104
0.291232	6.6851	0.0516748	1.20438	0.288662	7.50544	0.453809	10.5378	0.570999	13.2546	0.844851	19.6737	0.184014	4.79069	0.432013	9.96825	0.705428	16.2423	0.889294	20.3724
0.291734	6.55642	0.0534384	1.21902	0.289108	7.33924	0.45434	10.3267	0.571516	12.9857	0.845127	19.2622	0.185758	4.72157	0.432347	9.84594	0.705716	15.9077	0.889567	19.9527
0.292247	6.43324	0.0552135	1.2333	0.289564	7.18098	0.454811	10.1501	0.572043	12.7282	0.84541	18.868	0.187517	4.65602	0.432614	9.75153	0.70601	15.587	0.889846	19.5504
0.29277	6.31523	0.0569996	1.24724	0.290031	7.03012	0.45522	10.0047	0.572581	12.4815	0.845698	18.49	0.189291	4.5938	0.432812	9.68337	0.70631	15.2793	0.890131	19.1644
0.293303	6.20209	0.0587963	1.26085	0.290508	6.88616	0.455562	9.88784	0.573129	12.2447	0.845992	18.1271	0.191079	4.53467	0.43294	9.64029	0.706615	14.9839	0.890421	18.7937
0.293847	6.09353	0.060603	1.27413	0.290995	6.74867	0.455835	9.79754	0.573687	12.0174	0.846292	17.7786	0.192881	4.4784	0.433124	9.5791	0.706927	14.7001	0.890717	18.4373
0.294401	5.9893	0.0624193	1.28711	0.291493	6.61723	0.456038	9.73229	0.574256	11.7991	0.846597	17.4436	0.194696	4.42482	0.433326	9.51355	0.707245	14.4272	0.891018	18.0946
0.294965	5.88914	0.0642448	1.29978	0.292001	6.49146	0.456168	9.69103	0.574835	11.5891	0.846909	17.1214	0.196523	4.37373	0.433603	9.42597	0.707569	14.1646	0.891325	17.7647
0.295539	5.79285	0.066079	1.31216	0.292519	6.37102	0.456356	9.63238	0.575425	11.3871	0.847226	16.8111	0.198362	4.32497	0.433956	9.31772	0.707899	13.9117	0.891638	17.447
0.296123	5.70021	0.0679216	1.32425	0.293047	6.25559	0.456562	9.56952	0.576024	11.1926	0.847549	16.5123	0.200212	4.2784	0.434389	9.19044	0.708234	13.6681	0.891956	17.1407
0.296717	5.61102	0.0697724	1.33606	0.293586	6.14487	0.456845	9.48547	0.576634	11.0052	0.847878	16.2242	0.202073	4.23388	0.434904	9.04596	0.708576	13.4331	0.89228	16.8453
0.297322	5.5251	0.0716308	1.3476	0.294135	6.0386	0.457205	9.38147	0.577254	10.8246	0.848213	15.9463	0.203945	4.19128	0.435506	8.88626	0.708924	13.2065	0.89261	16.5603
0.297937	5.4423	0.0734966	1.35889	0.294694	5.93653	0.457647	9.25903	0.577884	10.6503	0.848553	15.6781	0.205826	4.15048	0.436118	8.73274	0.709278	12.9876	0.892945	16.285
0.298562	5.36245	0.0753694	1.36991	0.295263	5.83842	0.458171	9.11984	0.578524	10.4821	0.848899	15.4191	0.207718	4.11137	0.436742	8.58506	0.709637	12.7762	0.893286	16.019
0.299196	5.28541	0.077249	1.3807	0.295842	5.74405	0.458784	8.96576	0.579089	10.3403	0.849251	15.1688	0.209618	4.07386	0.437375	8.44289	0.710003	12.5719	0.893632	15.7619
0.299841	5.21103	0.079135	1.39124	0.296432	5.65323	0.459406	8.81738	0.579578	10.2226	0.849609	14.9267	0.211528	4.03786	0.43802	8.30595	0.710375	12.3744	0.893984	15.5132
0.300496	5.1392	0.0810274	1.40155	0.297032	5.56578	0.460039	8.6744	0.579986	10.1276	0.849973	14.6926	0.213446	4.00327	0.438675	8.17396	0.710752	12.1832	0.894342	15.2725
0.301161	5.06979	0.0829256	1.41163	0.297642	5.48151	0.460681	8.53656	0.580311	10.0538	0.850342	14.466	0.215372	3.97003	0.43934	8.04666	0.711136	11.9982	0.894705	15.0394
0.301836	5.00269	0.0848295	1.4215	0.298262	5.40026	0.461334	8.40357	0.580552	10.0004	0.850717	14.2466	0.217306	3.93805	0.440016	7.92383	0.711525	11.819	0.895074	14.8136
0.302521	4.93779	0.086739	1.43115	0.298892	5.3219	0.461998	8.27521	0.580706	9.96646	0.851098	14.034	0.219248	3.90726	0.440703	7.80524	0.711921	11.6453	0.895448	14.5947
0.303216	4.875	0.0886536	1.4406	0.299532	5.24626	0.462671	8.15124	0.58093	9.91819	0.851484	13.8279	0.221197	3.87761	0.4414	7.69068	0.712322	11.477	0.895828	14.3825
0.303921	4.81422	0.0905733	1.44984	0.300182	5.17323	0.463354	8.03144	0.581173	9.8663	0.851877	13.6281	0.223153	3.84904	0.442107	7.57996	0.712729	11.3137	0.896213	14.1766
0.304636	4.75537	0.0924979	1.45889	0.300842	5.10268	0.464047	7.91563	0.581507	9.7967	0.852275	13.4342	0.225116	3.82148	0.442825	7.47289	0.713142	11.1553	0.896604	13.9768
0.305267	4.70558	0.0944271	1.46775	0.301512	5.03449	0.46475	7.8036	0.581932	9.71024	0.852678	13.2461	0.227085	3.79489	0.443553	7.36931	0.713561	11.0015	0.897001	13.7828
0.305811	4.66421	0.0963607	1.47642	0.302193	4.96855	0.465463	7.69519	0.582452	9.60794	0.853088	13.0634	0.229061	3.76922	0.444291	7.26905	0.713986	10.8521	0.897402	13.5944
0.306265	4.63071	0.0982986	1.48492	0.302883	4.90476	0.466186	7.59023	0.583068	9.49099	0.853503	12.8859	0.231042	3.74442	0.44504	7.17197	0.714417	10.7071	0.89781	13.4113
0.306627	4.60467	0.100241	1.49324	0.303583	4.84303	0.466919	7.48856	0.583783	9.36068	0.853924	12.7134	0.23303	3.72046	0.445799	7.07793	0.714797	10.584	0.898223	13.2333
0.306894	4.58577	0.102187	1.50139	0.304293	4.78327	0.467661	7.39004	0.584509	9.23436	0.85435	12.5457	0.235023	3.69728	0.446567	6.98678	0.715125	10.4814	0.898641	13.0602
0.307066	4.57378	0.104136	1.50937	0.305013	4.72538	0.468413	7.29453	0.585244	9.11186	0.854782	12.3827	0.237022	3.67486	0.447346	6.89841	0.715398	10.3982	0.899065	12.8918
0.307314	4.5567	0.10609	1.5172	0.305743	4.6693	0.469175	7.20189	0.585989	8.993	0.85522	12.224	0.239025	3.65315	0.448135	6.81269	0.715616	10.3334	0.899494	12.7279
0.307585	4.53832	0.108047	1.52487	0.306484	4.61493	0.469946	7.11202	0.586744	8.87764	0.855664	12.0696	0.241034	3.63214	0.448934	6.72952	0.715777	10.2863	0.899929	12.5683
0.307955	4.51364	0.110007	1.53238	0.307233	4.56222	0.470727	7.02478	0.587508	8.76563	0.856113	11.9193	0.243048	3.61177	0.449742	6.64878	0.71588	10.2564	0.900369	12.413
0.308426	4.48295	0.11197	1.53975	0.307993	4.51109	0.471517	6.94008	0.588281	8.65683	0.856567	11.7729	0.245066	3.59203	0.450561	6.57039	0.71603	10.2137	0.900815	12.2616
0.309001	4.44657	0.113684	1.54605	0.308763	4.46149	0.472317	6.85781	0.589064	8.55111	0.857028	11.6303	0.247089	3.57289	0.451389	6.49423	0.716193	10.1678	0.901266	12.1141
0.309683	4.40492	0.115147	1.55134	0.309543	4.41334	0.473126	6.77786	0.589856	8.44835	0.857494	11.4914	0.249117	3.55432	0.452228	6.42023	0.716415	10.106	0.901723	11.9704
0.310474	4.35841	0.116357	1.55566	0.310333	4.36659	0.473944	6.70016	0.590657	8.34842	0.857966	11.3559	0.251148	3.5363	0.453076	6.3483	0.716699	10.0291	0.902185	11.8302
0.311276	4.31325	0.117315	1.55903	0.311132	4.3212	0.474772	6.6246	0.591468	8.25122	0.858443	11.2238	0.253184	3.5188	0.453933	6.27836	0.717045	9.93766	0.902652	11.6934
0.312087	4.26937	0.11802	1.5615	0.311942	4.27709	0.475608	6.55111	0.592288	8.15665	0.858926	11.095	0.255223	3.5018	0.4548	6.21032	0.717455	9.8327	0.903125	11.56
0.312908	4.22673	0.118471	1.56306	0.312761	4.23424	0.476454	6.47961	0.593117	8.06459	0.859414	10.9693	0.257267	3.48529	0.455677	6.14413	0.717931	9.71517	0.903603	11.4299
0.313739	4.18529	0.11912	1.5653	0.31359	4.19258	0.477309	6.41002	0.593955	7.97496	0.859844	10.8622	0.259314	3.46923	0.456564	6.0797	0.718413	9.60065	0.904087	11.3028
0.31458	4.14499	0.119826	1.56772	0.31443	4.15208	0.478173	6.34226	0.594803	7.88766	0.860214	10.7727	0.261365	3.45362	0.45746	6.01698	0.7189	9.48902	0.904576	11.1787
0.315431	4.10579	0.120786	1.57098	0.315279	4.11269	0.479046	6.27628	0.595659	7.80262	0.860523	10.6998	0.263419	3.43843	0.458365	5.95591	0.719394	9.38017	0.90507	11.0575
0.316292	4.06767	0.122002	1.57507	0.316138	4.07438	0.479928	6.21201	0.596524	7.71974	0.860768	10.643	0.265476	3.42365	0.45928	5.89641	0.719893	9.27402	0.905505	10.9541
0.317163	4.03057	0.123473	1.57994	0.317007	4.0371	0.480819	6.14938	0.597399	7.63895	0.860949	10.6016	0.267537	3.40926	0.460204	5.83844	0.720398	9.17046	0.905879	10.8677
0.318043	3.99447	0.1252	1.58557	0.317886	4.00083	0.481719	6.08834	0.598282	7.56017	0.861066	10.5753	0.269601	3.39525	0.461137	5.78194	0.720908	9.06939	0.906191	10.7973
0.318934	3.95933	0.127185	1.59192	0.318775	3.96552	0.482627	6.02883	0.599174	7.48334	0.861233	10.5378	0.271668	3.3816	0.46208	5.72685	0.721425	8.97074	0.906438	10.7423
0.319835	3.92511	0.129172	1.59816	0.319674	3.93114	0.483544	5.97079	0.600075	7.40839	0.861416	10.4973	0.273737	3.3683	0.463032	5.67314	0.721947	8.87442	0.906622	10.7023
0.320745	3.89179	0.131161	1.60427	0.320582	3.89766	0.48447	5.91419	0.600984	7.33524	0.861666	10.4427	0.27581	3.35534	0.463993	5.62076	0.722475	8.78036	0.906739	10.6768
0.321666	3.85933	0.133152	1.61028	0.321501	3.86505	0.485404	5.85896	0.601903	7.26385	0.861985	10.3746	0.277885	3.3427	0.464963	5.56965	0.723009	8.68846	0.906908	10.6404
0.322597	3.82771	0.135145	1.61617	0.32243	3.83328	0.486347	5.80505	0.60283	7.19415	0.862372	10.2935	0.279963	3.33037	0.465942	5.51977	0.723549	8.59867	0.907093	10.6012
0.323538	3.7969	0.137141	1.62196	0.323369	3.80233	0.487299	5.75244	0.603765	7.12608	0.86283	10.2002	0.282044	3.31834	0.466931	5.47109	0.724094	8.51092	0.907345	10.5484
0.324489	3.76687	0.139138	1.62765	0.324319	3.77216	0.488259	5.70107	0.604709	7.05959	0.863362	10.0952	0.284126	3.3066	0.467928	5.42357	0.724645	8.42513	0.907666	10.4824
0.32545	3.73761	0.141137	1.63323	0.325278	3.74276	0.489227	5.6509	0.605662	6.99463	0.863898	9.99266	0.286212	3.29514	0.468934	5.37716	0.725202	8.34125	0.908057	10.4037
0.326421	3.70907	0.143138	1.63872	0.326248	3.7141	0.490203	5.60189	0.606623	6.93115	0.864441	9.89232	0.288299	3.28395	0.469949	5.33184	0.725764	8.25921	0.908519	10.3131
0.327403	3.68126	0.14514	1.6441	0.327227	3.68616	0.491188	5.55401	0.607593	6.8691	0.864988	9.79417	0.290389	3.27302	0.470973	5.28756	0.726332	8.17896	0.909054	10.2112
0.328395	3.65413	0.147144	1.6494	0.328217	3.65891	0.492181	5.50723	0.60857	6.80844	0.865542	9.69812	0.292481	3.26234	0.472005	5.2443	0.726906	8.10043	0.909595	10.1114
0.329397	3.62767	0.14915	1.6546	0.329218	3.63233	0.493183	5.46149	0.609557	6.74913	0.8661	9.60412	0.294575	3.2519	0.473047	5.20202	0.727486	8.02359	0.910141	10.0138
0.33041	3.60187	0.151157	1.65971	0.330229	3.60641	0.494192	5.41678	0.610551	6.69111	0.866664	9.5121	0.296672	3.2417	0.474097	5.16069	0.728071	7.94836	0.910692	9.91816
0.331433	3.57669	0.153165	1.66474	0.33125	3.58113	0.49521	5.37306	0.611554	6.63436	0.867234	9.422	0.29877	3.23172	0.475155	5.12029	0.728662	7.87472	0.911248	9.82453
0.332467	3.55213	0.155175	1.66967	0.332282	3.55646	0.496235	5.33031	0.612565	6.57883	0.867809	9.33377	0.30087	3.22197	0.476222	5.08078	0.729258	7.8026	0.911809	9.73282
0.333511	3.52817	0.157187	1.67453	0.333324	3.53239	0.497269	5.28848	0.613584	6.52449	0.86839	9.24735	0.302971	3.21242	0.477298	5.04213	0.72986	7.73197	0.912376	9.64296
0.334566	3.50479	0.159199	1.6793	0.334377	3.50891	0.49831	5.24756	0.61461	6.4713	0.868976	9.16268	0.305075	3.20309	0.478382	5.00433	0.730468	7.66277	0.912948	9.55492
0.335632	3.48197	0.161213	1.68399	0.335441	3.48599	0.499359	5.20752	0.615646	6.41923	0.869567	9.07972	0.30718	3.19395	0.479475	4.96735	0.731082	7.59498	0.913525	9.46863
0.336708	3.4597	0.163228	1.68861	0.336516	3.46362	0.500416	5.16832	0.616689	6.36824	0.870164	8.99841	0.309287	3.185	0.480576	4.93116	0.731701	7.52854	0.914107	9.38404
0.337796	3.43796	0.165245	1.69315	0.337601	3.44179	0.501481	5.12996	0.617739	6.3183	0.870766	8.91871	0.311396	3.17624	0.481686	4.89574	0.732325	7.46342	0.914695	9.30111
0.338895	3.41674	0.167262	1.69761	0.338698	3.42048	0.502553	5.09239	0.618798	6.26938	0.871374	8.84057	0.313506	3.16766	0.482803	4.86107	0.732956	7.39958	0.915287	9.21979
0.340005	3.39603	0.16928	1.702	0.339806	3.39968	0.503633	5.05561	0.619865	6.22146	0.871986	8.76394	0.315617	3.15925	0.483929	4.82712	0.733592	7.33699	0.915885	9.14003
0.341126	3.37582	0.1713	1.70632	0.340925	3.37938	0.504721	5.01958	0.620939	6.17451	0.872605	8.6888	0.31773	3.15101	0.485064	4.79388	0.734233	7.27561	0.916488	9.0618
0.342259	3.35608	0.17332	1.71057	0.342056	3.35956	0.505816	4.98429	0.622021	6.12849	0.873228	8.61508	0.319844	3.14294	0.486206	4.76133	0.73488	7.21541	0.917096	8.98504
0.343403	3.33682	0.175341	1.71475	0.343198	3.34021	0.506919	4.94971	0.623111	6.08338	0.873857	8.54276	0.32196	3.13503	0.487356	4.72945	0.735533	7.15635	0.917709	8.90972
0.344559	3.31801	0.177363	1.71887	0.344352	3.32133	0.508029	4.91583	0.624208	6.03916	0.874492	8.4718	0.324077	3.12727	0.488515	4.69821	0.736191	7.09841	0.918328	8.83579
0.345727	3.29965	0.179387	1.72292	0.345518	3.30289	0.509146	4.88262	0.625313	5.99581	0.875132	8.40216	0.326195	3.11966	0.489681	4.66761	0.736854	7.04155	0.918951	8.76323
0.346907	3.28173	0.18141	1.7269	0.346696	3.28489	0.510271	4.85007	0.626426	5.95329	0.875777	8.33381	0.328314	3.11219	0.490856	4.63761	0.737524	6.98574	0.919579	8.692
0.348099	3.26424	0.183435	1.73083	0.347886	3.26733	0.511403	4.81816	0.627546	5.91159	0.876427	8.2667	0.330434	3.10487	0.492038	4.60822	0.738198	6.93097	0.920213	8.62206
0.349303	3.24717	0.185461	1.73469	0.349088	3.25018	0.512542	4.78688	0.628673	5.87069	0.877082	8.20082	0.332556	3.09769	0.493229	4.57941	0.738878	6.8772	0.920852	8.55337
0.350521	3.2305	0.187487	1.73849	0.350303	3.23344	0.513689	4.7562	0.629808	5.83056	0.877743	8.13612	0.334678	3.09064	0.494427	4.55117	0.739564	6.8244	0.921495	8.48591
0.351751	3.21424	0.189514	1.74223	0.351531	3.21711	0.514842	4.72611	0.63095	5.79118	0.87841	8.07258	0.336802	3.08371	0.495633	4.52347	0.740255	6.77255	0.922144	8.41965
0.352994	3.19837	0.191541	1.74592	0.352772	3.20117	0.516003	4.69659	0.6321	5.75254	0.879081	8.01016	0.338926	3.07692	0.496847	4.49632	0.740952	6.72163	0.922798	8.35455
0.35425	3.18288	0.19357	1.74955	0.354026	3.18561	0.51717	4.66764	0.633257	5.71461	0.879758	7.94885	0.341051	3.07024	0.498068	4.46969	0.741654	6.67161	0.923456	8.29058
0.35552	3.16778	0.195598	1.75312	0.355293	3.17044	0.518345	4.63923	0.63442	5.67738	0.88044	7.8886	0.343178	3.06369	0.499297	4.44356	0.742362	6.62247	0.92412	8.22772
0.356804	3.15304	0.197628	1.75664	0.356574	3.15564	0.519526	4.61135	0.635591	5.64083	0.881127	7.8294	0.345305	3.05725	0.500534	4.41794	0.743075	6.57419	0.924789	8.16593
0.358102	3.13867	0.199658	1.76011	0.35787	3.1412	0.520715	4.58399	0.63677	5.60494	0.881819	7.77122	0.347433	3.05092	0.501778	4.3928	0.743794	6.52675	0.925462	8.1052
0.359414	3.12465	0.201688	1.76353	0.359179	3.12712	0.52191	4.55713	0.637955	5.56969	0.882517	7.71403	0.349561	3.0447	0.50303	4.36813	0.744518	6.48012	0.926141	8.04549
0.360741	3.11099	0.20372	1.76689	0.360503	3.11339	0.523111	4.53077	0.639147	5.53508	0.883219	7.6578	0.35169	3.03859	0.50429	4.34392	0.745247	6.4343	0.926825	7.98679
0.362082	3.09767	0.205751	1.77021	0.361842	3.10001	0.52432	4.50488	0.640346	5.50107	0.883927	7.60253	0.353821	3.03258	0.505556	4.32016	0.745982	6.38924	0.927513	7.92906
0.363439	3.08469	0.207783	1.77347	0.363196	3.08697	0.525535	4.47946	0.641552	5.46767	0.884641	7.54818	0.355951	3.02667	0.506831	4.29684	0.746722	6.34495	0.928207	7.87229
0.364811	3.07204	0.209816	1.77669	0.364566	3.07427	0.526757	4.4545	0.642765	5.43485	0.885359	7.49472	0.358082	3.02086	0.508112	4.27394	0.747467	6.3014	0.928905	7.81645
0.3662	3.05973	0.211849	1.77987	0.365951	3.0619	0.527985	4.42999	0.643985	5.40261	0.886082	7.44215	0.360214	3.01515	0.509401	4.25147	0.748218	6.25857	0.929608	7.76152
0.367604	3.04774	0.213882	1.78299	0.367353	3.04985	0.52922	4.40591	0.645211	5.37092	0.886811	7.39044	0.362347	3.00953	0.510697	4.2294	0.748975	6.21645	0.930317	7.70747
0.369025	3.03607	0.215916	1.78607	0.368771	3.03812	0.530461	4.38225	0.646444	5.33977	0.887545	7.33957	0.364479	3.004	0.512001	4.20773	0.749736	6.17502	0.93103	7.6543
0.370463	3.02471	0.21795	1.78911	0.370206	3.02671	0.531709	4.35901	0.647684	5.30915	0.888284	7.28951	0.366613	2.99855	0.513312	4.18644	0.750503	6.13427	0.931748	7.60197
0.371919	3.01367	0.219984	1.7921	0.371658	3.01561	0.532963	4.33617	0.648931	5.27905	0.889027	7.24026	0.368747	2.9932	0.514629	4.16554	0.751276	6.09417	0.932471	7.55048
0.373392	3.00293	0.222019	1.79506	0.373128	3.00482	0.534224	4.31372	0.650184	5.24946	0.889777	7.19179	0.370881	2.98792	0.515954	4.145	0.752053	6.05472	0.933198	7.49979
0.374882	2.9925	0.224054	1.79797	0.374616	2.99434	0.53549	4.29166	0.651443	5.22036	0.890531	7.14409	0.373015	2.98273	0.517286	4.12483	0.752837	6.0159	0.933931	7.44989
0.376392	2.98237	0.226089	1.80083	0.376122	2.98415	0.536763	4.26998	0.65271	5.19174	0.89129	7.09713	0.37515	2.97762	0.518626	4.10501	0.753625	5.97769	0.934668	7.40077
0.37792	2.97253	0.228125	1.80366	0.377646	2.97426	0.538042	4.24867	0.653982	5.1636	0.892054	7.05091	0.377285	2.97258	0.519972	4.08554	0.754418	5.94009	0.93541	7.35241
0.379467	2.96299	0.230161	1.80645	0.37919	2.96466	0.539327	4.22771	0.655261	5.13591	0.892824	7.0054	0.379421	2.96762	0.521325	4.0664	0.755217	5.90308	0.936157	7.30478
0.381033	2.95373	0.232197	1.80921	0.380753	2.95535	0.540619	4.20711	0.656546	5.10868	0.893598	6.96059	0.381557	2.96274	0.522685	4.04759	0.756021	5.86664	0.936909	7.25788
0.382619	2.94475	0.234233	1.81192	0.382335	2.94633	0.541916	4.18684	0.657838	5.08189	0.894377	6.91647	0.383693	2.95792	0.524052	4.02911	0.756831	5.83076	0.937665	7.21169
0.384225	2.93606	0.23627	1.81459	0.383938	2.93759	0.543219	4.16692	0.659136	5.05553	0.895162	6.87301	0.385829	2.95318	0.525425	4.01094	0.757645	5.79544	0.938426	7.1662
0.385851	2.92765	0.238307	1.81723	0.38556	2.92912	0.544528	4.14732	0.66044	5.02959	0.895951	6.83022	0.387965	2.94851	0.526806	3.99308	0.758465	5.76066	0.939192	7.12138
0.387498	2.9195	0.240344	1.81984	0.387204	2.92093	0.545844	4.12804	0.66175	5.00406	0.896746	6.78806	0.390101	2.9439	0.528193	3.97552	0.75929	5.7264	0.939963	7.07722
0.389166	2.91163	0.242381	1.82241	0.388868	2.91301	0.547164	4.10908	0.663067	4.97894	0.897545	6.74653	0.392238	2.93935	0.529587	3.95826	0.760121	5.69266	0.940739	7.03372
0.390855	2.90402	0.244418	1.82494	0.390552	2.90536	0.548491	4.09043	0.664389	4.95421	0.898349	6.70561	0.394375	2.93487	0.530988	3.94128	0.760956	5.65943	0.941519	6.99085
0.392564	2.89667	0.246456	1.82744	0.392258	2.89796	0.549824	4.07207	0.665718	4.92986	0.899159	6.6653	0.396511	2.93046	0.532396	3.92459	0.761797	5.6267	0.942303	6.94861
0.394295	2.88958	0.248493	1.82991	0.393986	2.89082	0.551162	4.05401	0.667052	4.9059	0.899973	6.62558	0.398648	2.9261	0.53381	3.90817	0.762643	5.59445	0.943093	6.90698
0.396048	2.88274	0.250531	1.83234	0.395734	2.88394	0.552506	4.03623	0.668393	4.8823	0.900792	6.58643	0.400785	2.9218	0.535231	3.89202	0.763494	5.56267	0.943887	6.86595
0.397821	2.87614	0.252569	1.83475	0.397504	2.8773	0.553855	4.01874	0.669739	4.85907	0.901616	6.54785	0.402921	2.91756	0.536658	3.87614	0.76435	5.53136	0.944686	6.8255
0.399616	2.86979	0.254607	1.83712	0.399295	2.8709	0.55521	4.00152	0.671091	4.83619	0.902446	6.50982	0.405058	2.91338	0.538092	3.86052	0.765212	5.50051	0.945489	6.78563
0.401433	2.86367	0.256645	1.83946	0.401108	2.86475	0.556571	3.98457	0.672449	4.81366	0.90328	6.47234	0.407194	2.90925	0.539532	3.84515	0.766078	5.4701	0.946297	6.74632
0.40327	2.85779	0.258683	1.84176	0.402942	2.85882	0.557937	3.96788	0.673813	4.79146	0.904118	6.43539	0.409331	2.90518	0.540979	3.83003	0.76695	5.44013	0.94711	6.70756
0.405129	2.85213	0.260722	1.84404	0.404797	2.85312	0.559309	3.95145	0.675183	4.7696	0.904962	6.39896	0.411467	2.90115	0.542432	3.81515	0.767826	5.4106	0.947927	6.66934
0.407009	2.84669	0.26276	1.84629	0.406672	2.84764	0.560686	3.93528	0.676558	4.74807	0.905811	6.36304	0.413603	2.89718	0.543891	3.80051	0.768708	5.38148	0.948749	6.63165
0.408909	2.84146	0.264798	1.84851	0.408569	2.84238	0.562068	3.91935	0.677939	4.72685	0.906664	6.32762	0.415739	2.89326	0.545357	3.78611	0.769595	5.35277	0.949576	6.59448
0.410829	2.83644	0.266837	1.85071	0.410486	2.83732	0.563456	3.90367	0.679326	4.70595	0.907522	6.2927	0.417875	2.88939	0.54683	3.77193	0.770487	5.32448	0.950407	6.55782
0.41277	2.83163	0.268875	1.85287	0.412423	2.83247	0.564849	3.88822	0.680718	4.68535	0.908386	6.25825	0.42001	2.88557	0.548308	3.75798	0.771384	5.29657	0.951242	6.52166
0.41473	2.82701	0.270913	1.85501	0.414379	2.82781	0.566247	3.87301	0.682115	4.66506	0.909253	6.22428	0.422146	2.88179	0.549793	3.74424	0.772286	5.26906	0.952082	6.48599
0.416709	2.82257	0.272952	1.85712	0.416356	2.82335	0.567651	3.85802	0.683519	4.64506	0.910126	6.19077	0.424281	2.87806	0.551284	3.73072	0.773194	5.24193	0.952927	6.4508
0.418708	2.81832	0.27499	1.8592	0.418351	2.81907	0.569059	3.84326	0.684927	4.62534	0.911004	6.15771	0.426415	2.87437	0.552781	3.71742	0.774106	5.21517	0.953776	6.41608
0.420725	2.81425	0.277029	1.86126	0.420364	2.81496	0.570473	3.82871	0.686341	4.60591	0.911886	6.1251	0.428549	2.87073	0.554284	3.70432	0.775023	5.18878	0.95463	6.38182
0.422759	2.81034	0.279067	1.86329	0.422396	2.81103	0.571892	3.81438	0.687761	4.58676	0.912773	6.09293	0.430683	2.86713	0.555794	3.69142	0.775945	5.16275	0.955488	6.34802
0.424811	2.8066	0.281106	1.8653	0.424445	2.80726	0.573316	3.80027	0.689185	4.56788	0.913665	6.06119	0.432817	2.86357	0.55731	3.67872	0.776873	5.13708	0.956351	6.31467
0.42688	2.80302	0.283144	1.86728	0.426511	2.80365	0.574745	3.78635	0.690615	4.54926	0.914562	6.02987	0.43495	2.86006	0.558831	3.66622	0.777805	5.11175	0.957218	6.28175
0.428966	2.79958	0.285182	1.86924	0.428593	2.80019	0.576179	3.77264	0.692051	4.53091	0.915463	5.99896	0.437083	2.85658	0.560359	3.65391	0.778742	5.08676	0.958089	6.24926
0.431067	2.79629	0.287221	1.87117	0.430692	2.79687	0.577617	3.75913	0.693491	4.51281	0.916369	5.96846	0.439215	2.85314	0.561893	3.64179	0.779684	5.06211	0.958965	6.21719
0.433184	2.79314	0.289259	1.87308	0.432806	2.79369	0.579061	3.74581	0.694937	4.49497	0.91728	5.93835	0.441347	2.84974	0.563432	3.62985	0.780631	5.03778	0.959845	6.18553
0.435315	2.79012	0.291297	1.87497	0.434934	2.79065	0.58051	3.73269	0.696388	4.47737	0.918195	5.90864	0.443478	2.84638	0.564978	3.61809	0.781583	5.01378	0.96073	6.15428
0.43746	2.78723	0.293335	1.87683	0.437077	2.78774	0.581963	3.71975	0.697844	4.46001	0.919115	5.87931	0.445609	2.84306	0.566529	3.6065	0.78254	4.99009	0.961619	6.12343
0.43962	2.78446	0.295373	1.87867	0.439234	2.78495	0.583421	3.70699	0.699305	4.4429	0.92004	5.85036	0.447739	2.83977	0.568087	3.59509	0.783502	4.96672	0.962513	6.09297
0.441792	2.7818	0.297412	1.88049	0.441404	2.78227	0.584884	3.69442	0.70077	4.42601	0.92097	5.82178	0.449869	2.83651	0.56965	3.58386	0.784469	4.94365	0.963411	6.0629
0.443977	2.77926	0.299449	1.88229	0.443587	2.7797	0.586352	3.68202	0.702241	4.40935	0.921904	5.79356	0.451998	2.83329	0.571219	3.57279	0.785441	4.92088	0.964313	6.0332
0.446174	2.77682	0.301487	1.88406	0.445782	2.77724	0.587824	3.66979	0.703717	4.39292	0.922843	5.7657	0.454127	2.83011	0.572794	3.56188	0.786417	4.89841	0.96522	6.00388
0.448383	2.77447	0.303525	1.88582	0.447989	2.77488	0.589301	3.65774	0.705198	4.37671	0.923786	5.7382	0.456254	2.82695	0.574375	3.55114	0.787399	4.87622	0.966131	5.97492
0.450603	2.77223	0.305563	1.88755	0.450207	2.77262	0.590782	3.64585	0.706684	4.36071	0.924734	5.71103	0.458382	2.82383	0.575961	3.54055	0.788385	4.85432	0.967046	5.94631
0.452833	2.77007	0.3076	1.88927	0.452435	2.77045	0.592268	3.63413	0.708174	4.34493	0.925687	5.68421	0.460508	2.82074	0.577553	3.53012	0.789376	4.8327	0.967965	5.91806
0.455074	2.768	0.309638	1.89096	0.454674	2.76837	0.593759	3.62256	0.709669	4.32936	0.926644	5.65772	0.462634	2.81768	0.579151	3.51984	0.790372	4.81135	0.968889	5.89016
0.457324	2.76602	0.311675	1.89263	0.456923	2.76636	0.595254	3.61116	0.711169	4.31399	0.927606	5.63156	0.464759	2.81466	0.580755	3.50971	0.791373	4.79028	0.969817	5.8626
0.459584	2.76411	0.313713	1.89429	0.459181	2.76444	0.596753	3.59991	0.712674	4.29882	0.928572	5.60571	0.466884	2.81166	0.582364	3.49973	0.792379	4.76947	0.97075	5.83537
0.461852	2.76227	0.31575	1.89592	0.461448	2.76259	0.598257	3.58881	0.714184	4.28385	0.929543	5.58019	0.469008	2.80869	0.583978	3.48989	0.793389	4.74892	0.971686	5.80847
0.464129	2.76051	0.317787	1.89754	0.463724	2.76082	0.599766	3.57786	0.715698	4.26907	0.930518	5.55498	0.471131	2.80575	0.585599	3.4802	0.794404	4.72862	0.972627	5.78189
0.466415	2.75881	0.319824	1.89914	0.466007	2.75911	0.601279	3.56706	0.717216	4.25449	0.931498	5.53007	0.473253	2.80283	0.587224	3.47064	0.795424	4.70858	0.973572	5.75563
0.468708	2.75718	0.32186	1.90071	0.468299	2.75747	0.602796	3.5564	0.718739	4.24009	0.932483	5.50546	0.475374	2.79995	0.588856	3.46123	0.796449	4.68879	0.974521	5.72968
0.471008	2.75561	0.323897	1.90227	0.470598	2.75588	0.604317	3.54589	0.720267	4.22588	0.933472	5.48115	0.477495	2.79709	0.590493	3.45194	0.797479	4.66924	0.975475	5.70404
0.473315	2.75409	0.325934	1.90382	0.472904	2.75436	0.605843	3.53551	0.721799	4.21184	0.934465	5.45713	0.479615	2.79426	0.592135	3.44279	0.798513	4.64993	0.976432	5.6787
0.475629	2.75264	0.32797	1.90534	0.475216	2.75289	0.607373	3.52527	0.723336	4.19799	0.935463	5.43339	0.481734	2.79145	0.593783	3.43377	0.799552	4.63085	0.977394	5.65366
0.477949	2.75123	0.330006	1.90685	0.477536	2.75148	0.608907	3.51517	0.724877	4.18431	0.936466	5.40994	0.483852	2.78867	0.595436	3.42488	0.800596	4.61201	0.97836	5.62891
0.480276	2.74987	0.332042	1.90834	0.479861	2.75011	0.610445	3.50519	0.726423	4.1708	0.937473	5.38676	0.485969	2.78591	0.597094	3.41611	0.801644	4.5934	0.97933	5.60445
0.482608	2.74856	0.334078	1.90982	0.482192	2.74879	0.611987	3.49535	0.727973	4.15746	0.938484	5.36386	0.488085	2.78318	0.598758	3.40747	0.802697	4.57501	0.980305	5.58027
0.484946	2.7473	0.336114	1.91127	0.484529	2.74752	0.613534	3.48563	0.729527	4.14428	0.9395	5.34122	0.4902	2.78047	0.600427	3.39894	0.803755	4.55684	0.981283	5.55637
0.487289	2.74608	0.338149	1.91272	0.486871	2.7463	0.615084	3.47604	0.731086	4.13127	0.94052	5.31885	0.492315	2.77778	0.602102	3.39054	0.804817	4.53889	0.982265	5.53275
0.489637	2.7449	0.340185	1.91414	0.489219	2.74511	0.616639	3.46658	0.732648	4.11842	0.941545	5.29674	0.494428	2.77512	0.603782	3.38225	0.805884	4.52115	0.983252	5.50939
0.49199	2.74376	0.34222	1.91555	0.491571	2.74396	0.618197	3.45723	0.734215	4.10572	0.942574	5.27488	0.496541	2.77247	0.605467	3.37408	0.806956	4.50362	0.984243	5.4863
0.494348	2.74266	0.344255	1.91694	0.493928	2.74285	0.61976	3.448	0.735787	4.09318	0.943607	5.25327	0.498652	2.76985	0.607157	3.36603	0.808033	4.4863	0.985237	5.46347
0.49671	2.74159	0.34629	1.91832	0.496289	2.74178	0.621326	3.43889	0.737362	4.0808	0.944645	5.23191	0.500763	2.76726	0.608852	3.35808	0.809114	4.46918	0.986236	5.4409
0.499076	2.74056	0.348324	1.91969	0.498655	2.74074	0.622897	3.4299	0.738942	4.06856	0.945687	5.21079	0.502872	2.76468	0.610553	3.35025	0.810199	4.45227	0.987239	5.41858
0.501446	2.73956	0.350359	1.92103	0.501024	2.73974	0.624471	3.42102	0.740525	4.05647	0.946733	5.18992	0.504981	2.76212	0.612259	3.34252	0.81129	4.43555	0.988245	5.39651
0.50382	2.73859	0.352393	1.92237	0.503397	2.73876	0.62605	3.41225	0.742113	4.04452	0.947784	5.16927	0.507088	2.75959	0.61397	3.33489	0.812384	4.41903	0.989256	5.37469
0.506198	2.73765	0.354427	1.92369	0.505774	2.73781	0.627632	3.40359	0.743705	4.03272	0.948839	5.14887	0.509194	2.75707	0.615686	3.32738	0.813484	4.40269	0.990271	5.3531
0.508579	2.73674	0.356461	1.92499	0.508155	2.7369	0.629218	3.39503	0.7453	4.02106	0.949899	5.12868	0.511299	2.75457	0.617407	3.31996	0.814588	4.38655	0.99129	5.33176
0.510964	2.73585	0.358495	1.92628	0.510539	2.73601	0.630807	3.38659	0.7469	4.00954	0.950963	5.10873	0.513403	2.75209	0.619133	3.31265	0.815696	4.37059	0.992313	5.31064
0.513351	2.73499	0.360529	1.92756	0.512926	2.73514	0.632401	3.37824	0.748504	3.99815	0.952031	5.089	0.515507	2.74963	0.620864	3.30543	0.816809	4.35481	0.993339	5.28976
0.515742	2.73416	0.362562	1.92882	0.515316	2.7343	0.633998	3.37	0.750111	3.98689	0.953103	5.06948	0.517608	2.74719	0.622601	3.29832	0.817927	4.33922	0.99437	5.26911
0.518135	2.73335	0.364595	1.93007	0.517709	2.73349	0.635599	3.36186	0.751722	3.97577	0.95418	5.05018	0.519709	2.74477	0.624342	3.29129	0.819049	4.3238	0.995404	5.24868
0.520532	2.73256	0.366628	1.93131	0.520105	2.73269	0.637203	3.35382	0.753338	3.96477	0.955261	5.03109	0.521809	2.74236	0.626088	3.28437	0.820176	4.30856	0.996443	5.22847
0.522931	2.73179	0.368661	1.93253	0.522503	2.73192	0.638812	3.34588	0.754957	3.95391	0.956346	5.01221	0.523907	2.73998	0.627839	3.27754	0.821307	4.29348	0.997485	5.20847
0.525332	2.73104	0.370693	1.93374	0.524904	2.73117	0.640423	3.33803	0.756579	3.94317	0.957435	4.99354	0.526005	2.73761	0.629595	3.27079	0.822442	4.27858	0.998532	5.1887
0.527736	2.73031	0.372726	1.93494	0.527308	2.73044	0.642039	3.33028	0.758206	3.93255	0.958529	4.97507	0.528101	2.73525	0.631356	3.26414	0.823582	4.26385	0.999582	5.16913
0.530142	2.7296	0.374758	1.93613	0.529713	2.72973	0.643658	3.32262	0.759836	3.92205	0.959627	4.95679	0.530196	2.73291	0.633121	3.25758	0.824727	4.24927	1.00064	5.14977
0.53255	2.72891	0.37679	1.9373	0.532121	2.72903	0.645281	3.31505	0.76147	3.91167	0.960729	4.93872	0.532289	2.73059	0.634892	3.2511	0.825876	4.23487		
0.534961	2.72824	0.378821	1.93846	0.534531	2.72836	0.646907	3.30758	0.763108	3.90141	0.961835	4.92084	0.534382	2.72829	0.636667	3.24471	0.827029	4.22062		
0.537373	2.72758	0.380853	1.93961	0.536943	2.7277	0.648537	3.30019	0.764749	3.89127	0.962945	4.90315	0.536473	2.726	0.638447	3.23841	0.828187	4.20652		
0.539787	2.72694	0.382884	1.94074	0.539357	2.72705	0.65017	3.29289	0.766394	3.88124	0.96406	4.88564	0.538563	2.72372	0.640232	3.23219	0.82935	4.19259		
0.542203	2.72631	0.384915	1.94187	0.541773	2.72642	0.651806	3.28567	0.768042	3.87132	0.965178	4.86833	0.540652	2.72146	0.642022	3.22605	0.830516	4.1788		
0.544621	2.7257	0.386946	1.94298	0.544191	2.72581	0.653446	3.27854	0.769694	3.86151	0.966301	4.85119	0.542739	2.71922	0.643816	3.21999	0.831688	4.16517		
0.547041	2.7251	0.388976	1.94408	0.54661	2.72521	0.65509	3.27149	0.77135	3.85181	0.967428	4.83424	0.544825	2.71699	0.645615	3.21401	0.832863	4.15169		
0.549462	2.72452	0.391007	1.94517	0.549031	2.72462	0.656737	3.26453	0.773009	3.84222	0.968559	4.81746	0.54691	2.71477	0.647418	3.20811	0.834043	4.13835		
0.551884	2.72395	0.393037	1.94625	0.551453	2.72405	0.658387	3.25765	0.774671	3.83273	0.969694	4.80086	0.548994	2.71257	0.649226	3.20228	0.835227	4.12515		
0.554308	2.72339	0.395067	1.94732	0.553877	2.72349	0.660041	3.25084	0.776337	3.82335	0.970834	4.78443	0.551076	2.71038	0.651039	3.19653	0.836416	4.1121		
0.556734	2.72284	0.397096	1.94837	0.556302	2.72294	0.661698	3.24412	0.778006	3.81407	0.971977	4.76817	0.553158	2.70821	0.652856	3.19086	0.837609	4.09919		
0.55916	2.7223	0.399126	1.94942	0.558728	2.7224	0.663358	3.23747	0.779679	3.80489	0.973125	4.75208	0.555237	2.70604	0.654678	3.18526	0.838806	4.08642		
0.561588	2.72178	0.401155	1.95045	0.561156	2.72187	0.665022	3.2309	0.781355	3.79581	0.974276	4.73616	0.557316	2.7039	0.656505	3.17973	0.840007	4.07378		
0.564017	2.72126	0.403184	1.95148	0.563585	2.72135	0.666689	3.2244	0.783034	3.78683	0.975432	4.72039	0.559393	2.70176	0.658336	3.17428	0.841213	4.06128		
0.566447	2.72076	0.405212	1.95249	0.566014	2.72085	0.668359	3.21798	0.784717	3.77795	0.976591	4.70479	0.561469	2.69964	0.660171	3.16889	0.842423	4.04891		
0.568878	2.72026	0.407241	1.9535	0.568445	2.72035	0.670032	3.21163	0.786403	3.76916	0.977755	4.68935	0.563543	2.69753	0.662011	3.16357	0.843638	4.03667		
0.571311	2.71977	0.409269	1.95449	0.570877	2.71986	0.671709	3.20535	0.788092	3.76046	0.978922	4.67407	0.565616	2.69543	0.663855	3.15832	0.844857	4.02456		
0.573744	2.7193	0.411297	1.95547	0.57331	2.71938	0.673389	3.19914	0.789784	3.75185	0.980094	4.65893	0.567688	2.69335	0.665703	3.15314	0.84608	4.01257		
0.576178	2.71883	0.413325	1.95645	0.575744	2.71891	0.675072	3.193	0.79148	3.74334	0.98127	4.64395	0.569758	2.69127	0.667556	3.14803	0.847307	4.00072		
0.578613	2.71836	0.415352	1.95741	0.578179	2.71845	0.676758	3.18693	0.793178	3.73492	0.982449	4.62913	0.571827	2.68921	0.669413	3.14297	0.848538	3.98898		
0.581048	2.71791	0.41738	1.95837	0.580615	2.71799	0.678447	3.18093	0.79488	3.72658	0.983633	4.61445	0.573895	2.68716	0.671275	3.13799	0.849774	3.97737		
0.583485	2.71746	0.419407	1.95931	0.583051	2.71754	0.68014	3.175	0.796585	3.71833	0.98482	4.59991	0.575962	2.68512	0.673141	3.13306	0.851014	3.96588		
0.585922	2.71702	0.421433	1.96025	0.585488	2.7171	0.681835	3.16913	0.798293	3.71017	0.986012	4.58552	0.578026	2.68309	0.675011	3.1282	0.852258	3.95451		
0.58836	2.71659	0.42346	1.96118	0.587926	2.71667	0.683534	3.16333	0.800004	3.70209	0.987207	4.57127	0.58009	2.68108	0.676885	3.1234	0.853507	3.94325		
0.590798	2.71617	0.425486	1.9621	0.590364	2.71624	0.685236	3.15759	0.801718	3.6941	0.988407	4.55717	0.582152	2.67907	0.678764	3.11866	0.854759	3.93212		
0.593237	2.71575	0.427512	1.963	0.592803	2.71582	0.686941	3.15191	0.803435	3.68618	0.98961	4.5432	0.584213	2.67708	0.680646	3.11398	0.856016	3.92109		
0.595677	2.71533	0.429538	1.9639	0.595242	2.71541	0.688648	3.1463	0.805155	3.67835	0.990817	4.52937	0.586273	2.6751	0.682533	3.10936	0.857277	3.91018		
0.598117	2.71493	0.431564	1.9648	0.597682	2.715	0.690359	3.14075	0.806878	3.6706	0.992028	4.51567	0.588331	2.67312	0.684424	3.1048	0.858542	3.89938		
0.600557	2.71452	0.433589	1.96568	0.600123	2.71459	0.692073	3.13525	0.808604	3.66292	0.993243	4.50211	0.590387	2.67116	0.686319	3.10029	0.859811	3.88869		
0.602998	2.71413	0.435614	1.96655	0.602563	2.7142	0.69379	3.12982	0.810333	3.65533	0.994462	4.48868	0.592443	2.66921	0.688218	3.09584	0.861084	3.8781		
0.605439	2.71373	0.437639	1.96742	0.605004	2.7138	0.69551	3.12445	0.812064	3.64781	0.995685	4.47538	0.594497	2.66726	0.690121	3.09144	0.862362	3.86763		
0.607881	2.71335	0.439663	1.96827	0.607446	2.71342	0.697233	3.11914	0.813799	3.64036	0.996911	4.4622	0.596549	2.66533	0.692028	3.0871	0.863643	3.85726		
0.610323	2.71296	0.441687	1.96912	0.609888	2.71303	0.698959	3.11388	0.815536	3.63299	0.998142	4.44915	0.5986	2.66341	0.693939	3.08281	0.864929	3.84699		
0.612765	2.71259	0.443711	1.96996	0.61233	2.71265	0.700688	3.10868	0.817276	3.6257	0.999376	4.43623	0.60065	2.6615	0.695854	3.07858	0.866219	3.83683		
0.615207	2.71221	0.445735	1.9708	0.614773	2.71228	0.70242	3.10353	0.819019	3.61847	1.00061	4.42343	0.602698	2.65959	0.697772	3.07439	0.867513	3.82677		
0.61765	2.71184	0.447759	1.97162	0.617215	2.71191	0.704155	3.09844	0.820765	3.61132			0.604745	2.6577	0.699695	3.07026	0.868811	3.81681		
0.620093	2.71148	0.449782	1.97244	0.619658	2.71154	0.705893	3.09341	0.822513	3.60424			0.606791	2.65581	0.701622	3.06618	0.870112	3.80694		
0.622536	2.71111	0.451805	1.97325	0.622101	2.71118	0.707634	3.08843	0.824264	3.59723			0.608835	2.65394	0.703552	3.06215	0.871419	3.79718		
0.624979	2.71075	0.453828	1.97405	0.624544	2.71082	0.709377	3.0835	0.826018	3.59028			0.610878	2.65207	0.705486	3.05816	0.872729	3.78751		
0.627422	2.7104	0.45585	1.97484	0.626987	2.71046	0.711124	3.07862	0.827775	3.58341			0.61292	2.65022	0.707424	3.05423	0.874043	3.77794		
0.629866	2.71005	0.457872	1.97563	0.629431	2.71011	0.712873	3.0738	0.829534	3.5766			0.61496	2.64837	0.709365	3.05034	0.875361	3.76846		
0.632309	2.7097	0.459894	1.97641	0.631874	2.70976	0.714626	3.06902	0.831296	3.56985			0.616999	2.64653	0.711311	3.0465	0.876683	3.75908		
0.634752	2.70935	0.461916	1.97718	0.634317	2.70941	0.716381	3.0643	0.83306	3.56317			0.619036	2.6447	0.71326	3.04271	0.878009	3.74978		
0.637195	2.709	0.463937	1.97795	0.63676	2.70906	0.718139	3.05963	0.834827	3.55656			0.621072	2.64288	0.715212	3.03896	0.87934	3.74058		
0.639639	2.70866	0.465959	1.9787	0.639204	2.70872	0.7199	3.055	0.836596	3.55			0.623107	2.64107	0.717168	3.03525	0.880674	3.73147		
0.642082	2.70832	0.46798	1.97945	0.641647	2.70838	0.721664	3.05043	0.838368	3.54351			0.62514	2.63926	0.719128	3.03159	0.882012	3.72244		
0.644525	2.70798	0.47	1.9802	0.64409	2.70804	0.723431	3.0459	0.840143	3.53708			0.627172	2.63747	0.721091	3.02798	0.883354	3.7135		
0.646967	2.70765	0.472021	1.98093	0.646532	2.70771	0.7252	3.04142	0.84192	3.53072			0.629203	2.63568	0.723058	3.0244	0.8847	3.70465		
0.64941	2.70731	0.474041	1.98166	0.648975	2.70737	0.726973	3.03699	0.843699	3.52441			0.631232	2.6339	0.725028	3.02087	0.88605	3.69589		
0.651852	2.70698	0.476061	1.98239	0.651417	2.70704	0.728748	3.0326	0.845481	3.51816			0.63326	2.63213	0.727002	3.01738	0.887404	3.6872		
0.654294	2.70665	0.47808	1.9831	0.65386	2.70671	0.730526	3.02826	0.847266	3.51197			0.635287	2.63037	0.728979	3.01393	0.888762	3.6786		
0.656736	2.70632	0.4801	1.98381	0.656302	2.70638	0.732307	3.02396	0.849052	3.50584			0.637312	2.62861	0.73096	3.01052	0.890124	3.67009		
0.659178	2.70599	0.482119	1.98451	0.658743	2.70605	0.734091	3.01971	0.850842	3.49976			0.639336	2.62687	0.732944	3.00716	0.89149	3.66165		
0.661619	2.70567	0.484137	1.98521	0.661184	2.70572	0.735877	3.0155	0.852633	3.49374			0.641359	2.62513	0.734931	3.00383	0.892859	3.6533		
0.66406	2.70534	0.486156	1.9859	0.663625	2.7054	0.737667	3.01134	0.854427	3.48777			0.64338	2.6234	0.736921	3.00054	0.894233	3.64502		
0.6665	2.70502	0.488174	1.98658	0.666066	2.70507	0.739459	3.00722	0.856223	3.48186			0.6454	2.62167	0.738915	2.99728	0.89561	3.63683		
0.66894	2.70469	0.490192	1.98726	0.668506	2.70475	0.741254	3.00314	0.858021	3.47601			0.647419	2.61996	0.740912	2.99407	0.896991	3.62871		
0.67138	2.70437	0.49221	1.98793	0.670946	2.70442	0.743052	2.9991	0.859822	3.4702			0.649437	2.61825	0.742912	2.99089	0.898377	3.62066		
0.673819	2.70404	0.494228	1.9886	0.673385	2.7041	0.744853	2.99511	0.861625	3.46445			0.651453	2.61655	0.744915	2.98775	0.899766	3.6127		
0.676257	2.70372	0.496245	1.98926	0.675823	2.70378	0.746657	2.99115	0.86343	3.45875			0.653468	2.61486	0.746922	2.98464	0.901158	3.6048		
0.678695	2.7034	0.498262	1.98991	0.678261	2.70346	0.748463	2.98724	0.865237	3.45311			0.655482	2.61318	0.748931	2.98157	0.902555	3.59698		
0.681133	2.70308	0.500279	1.99056	0.680699	2.70313	0.750273	2.98337	0.867047	3.44751			0.657494	2.6115	0.750943	2.97853	0.903956	3.58924		
0.68357	2.70275	0.502295	1.9912	0.683136	2.70281	0.752085	2.97954	0.868859	3.44196			0.659506	2.60983	0.752959	2.97553	0.90536	3.58157		
0.686006	2.70243	0.504311	1.99184	0.685572	2.70249	0.7539	2.97574	0.870673	3.43646			0.661516	2.60817	0.754978	2.97257	0.906768	3.57396		
0.688441	2.70211	0.506327	1.99247	0.688008	2.70216	0.755718	2.97199	0.872489	3.43101			0.663525	2.60651	0.756999	2.96963	0.90818	3.56643		
0.690876	2.70178	0.508343	1.99309	0.690443	2.70184	0.757539	2.96828	0.874307	3.42561			0.665532	2.60487	0.759023	2.96673	0.909596	3.55897		
0.69331	2.70146	0.510358	1.99371	0.692877	2.70152	0.759363	2.9646	0.876127	3.42026			0.667539	2.60323	0.761051	2.96386	0.911016	3.55158		
0.695743	2.70113	0.512373	1.99432	0.69531	2.70119	0.761189	2.96096	0.877949	3.41495			0.669544	2.6016	0.763081	2.96102	0.912439	3.54425		
0.698176	2.70081	0.514388	1.99493	0.697743	2.70087	0.763019	2.95736	0.879774	3.40969			0.671548	2.59997	0.765114	2.95822	0.913866	3.537		
0.700608	2.70048	0.516403	1.99553	0.700175	2.70054	0.764851	2.95379	0.8816	3.40448			0.673551	2.59835	0.767149	2.95544	0.915297	3.52981		
0.703038	2.70015	0.518417	1.99613	0.702606	2.70021	0.766687	2.95027	0.883429	3.39931			0.675553	2.59674	0.769188	2.9527	0.916732	3.52268		
0.705468	2.69983	0.520431	1.99672	0.705036	2.69988	0.768525	2.94678	0.885259	3.39418			0.677554	2.59514	0.771229	2.94998	0.91817	3.51562		
0.707897	2.6995	0.522445	1.99731	0.707465	2.69955	0.770366	2.94332	0.887092	3.3891			0.679553	2.59354	0.773273	2.94729	0.919613	3.50863		
0.710325	2.69916	0.524459	1.99789	0.709893	2.69922	0.772211	2.9399	0.888926	3.38407			0.681552	2.59195	0.77532	2.94464	0.921059	3.5017		
0.712752	2.69883	0.526472	1.99847	0.71232	2.69889	0.774058	2.93652	0.890762	3.37907			0.683549	2.59037	0.777369	2.94201	0.922508	3.49483		
0.715178	2.6985	0.528485	1.99904	0.714746	2.69856	0.775908	2.93317	0.892601	3.37412			0.685545	2.58879	0.779421	2.93941	0.923962	3.48802		
0.717602	2.69816	0.530498	1.99961	0.717171	2.69822	0.777761	2.92986	0.894441	3.36921			0.68754	2.58722	0.781475	2.93684	0.925419	3.48128		
0.720026	2.69782	0.53251	2.00017	0.719594	2.69788	0.779618	2.92658	0.896283	3.36434			0.689534	2.58566	0.783532	2.9343	0.926879	3.4746		
0.722448	2.69748	0.534522	2.00072	0.722017	2.69754	0.781477	2.92333	0.898127	3.35951			0.691527	2.58411	0.785591	2.93178	0.928344	3.46798		
0.724869	2.69714	0.536534	2.00127	0.724438	2.6972	0.783339	2.92012	0.899972	3.35473			0.693519	2.58256	0.787653	2.92929	0.929812	3.46141		
0.727289	2.69679	0.538546	2.00182	0.726858	2.69686	0.785205	2.91695	0.90182	3.34998			0.69551	2.58102	0.789717	2.92682	0.931284	3.45491		
0.729708	2.69645	0.540557	2.00236	0.729277	2.69651	0.787073	2.9138	0.90367	3.34527			0.6975	2.57948	0.791784	2.92438	0.93276	3.44846		
0.732125	2.6961	0.542569	2.0029	0.731695	2.69616	0.788945	2.91069	0.905521	3.3406			0.699489	2.57796	0.793853	2.92197	0.934239	3.44208		
0.734541	2.69574	0.544579	2.00343	0.734111	2.69581	0.79082	2.90762	0.907374	3.33597			0.701476	2.57644	0.795924	2.91958	0.935722	3.43575		
0.736955	2.69539	0.54659	2.00396	0.736525	2.69545	0.792698	2.90457	0.909229	3.33138			0.703463	2.57492	0.797997	2.91722	0.937208	3.42947		
0.739368	2.69503	0.5486	2.00449	0.738939	2.69509	0.794579	2.90156	0.911085	3.32682			0.705449	2.57342	0.800073	2.91488	0.938699	3.42325		
0.74178	2.69467	0.550611	2.005	0.74135	2.69473	0.796464	2.89858	0.912943	3.32231			0.707434	2.57191	0.802151	2.91256	0.940192	3.41709		
0.744189	2.6943	0.55262	2.00552	0.74376	2.69437	0.798352	2.89563	0.914803	3.31783			0.709418	2.57042	0.804231	2.91027	0.94169	3.41098		
0.746597	2.69393	0.55463	2.00603	0.746169	2.694	0.800243	2.89271	0.916665	3.31338			0.711401	2.56893	0.806314	2.908	0.943191	3.40493		
0.749004	2.69356	0.556639	2.00653	0.748576	2.69363	0.802137	2.88983	0.918528	3.30897			0.713383	2.56745	0.808398	2.90575	0.944696	3.39893		
0.751409	2.69319	0.558648	2.00704	0.750981	2.69325	0.804035	2.88698	0.920393	3.3046			0.715364	2.56598	0.810485	2.90353	0.946204	3.39298		
0.753812	2.69281	0.560657	2.00753	0.753384	2.69287	0.805936	2.88415	0.92226	3.30026			0.717344	2.56451	0.812573	2.90133	0.947716	3.38709		
0.756213	2.69242	0.562666	2.00803	0.755785	2.69249	0.807841	2.88136	0.924128	3.29596			0.719324	2.56305	0.814664	2.89915	0.949232	3.38125		
0.758612	2.69203	0.564674	2.00852	0.758185	2.6921	0.809749	2.8786	0.925998	3.29169			0.721302	2.5616	0.816756	2.89699	0.950751	3.37546		
0.761009	2.69164	0.566682	2.009	0.760582	2.69171	0.811661	2.87587	0.92787	3.28746			0.723279	2.56015	0.818851	2.89485	0.952274	3.36972		
0.763404	2.69125	0.56869	2.00948	0.762978	2.69132	0.813576	2.87318	0.929743	3.28326			0.725256	2.55871	0.820947	2.89274	0.9538	3.36403		
0.765798	2.69084	0.570697	2.00996	0.765372	2.69092	0.815495	2.87051	0.931618	3.27909			0.727232	2.55727	0.823046	2.89064	0.95533	3.35839		
0.768189	2.69044	0.572704	2.01043	0.767763	2.69051	0.817417	2.86787	0.933494	3.27495			0.729207	2.55584	0.825146	2.88856	0.956864	3.3528		
0.770577	2.69003	0.574711	2.0109	0.770152	2.6901	0.819344	2.86526	0.935372	3.27085			0.731181	2.55442	0.827248	2.88651	0.958401	3.34726		
0.772964	2.68961	0.576718	2.01136	0.772539	2.68968	0.821273	2.86268	0.937251	3.26678			0.733154	2.553	0.829351	2.88447	0.959942	3.34176		
0.775348	2.68919	0.578724	2.01182	0.774924	2.68926	0.823207	2.86013	0.939132	3.26274			0.735127	2.55159	0.831457	2.88245	0.961486	3.33632		
0.77773	2.68876	0.580731	2.01228	0.777306	2.68884	0.825144	2.85761	0.941014	3.25873			0.737099	2.55019	0.833564	2.88046	0.963034	3.33092		
0.78011	2.68833	0.582737	2.01273	0.779686	2.68841	0.827086	2.85513	0.942898	3.25475			0.73907	2.54879	0.835673	2.87848	0.964585	3.32557		
0.782487	2.68789	0.584742	2.01318	0.782064	2.68797	0.829031	2.85267	0.944783	3.2508			0.74104	2.5474	0.837784	2.87651	0.96614	3.32027		
0.784861	2.68745	0.586748	2.01363	0.784439	2.68752	0.83098	2.85023	0.94667	3.24689			0.743009	2.54602	0.839896	2.87457	0.967699	3.31501		
0.787233	2.68699	0.588753	2.01407	0.786811	2.68708	0.832933	2.84783	0.948558	3.243			0.744978	2.54464	0.84201	2.87264	0.969261	3.30979		
0.789602	2.68654	0.590758	2.01451	0.78918	2.68662	0.834891	2.84546	0.950447	3.23914			0.746946	2.54327	0.844125	2.87074	0.970826	3.30463		
0.791968	2.68607	0.592762	2.01494	0.791547	2.68616	0.836852	2.84312	0.952338	3.23531			0.748913	2.54191	0.846242	2.86885	0.972395	3.2995		
0.794332	2.6856	0.594767	2.01537	0.793911	2.68569	0.838817	2.8408	0.954231	3.23151			0.75088	2.54055	0.84836	2.86697	0.973968	3.29443		
0.796692	2.68513	0.596771	2.0158	0.796272	2.68521	0.840787	2.83852	0.956124	3.22774			0.752846	2.53919	0.85048	2.86511	0.975544	3.28939		
0.79905	2.68464	0.598775	2.01622	0.79863	2.68473	0.842761	2.83626	0.958019	3.224			0.754811	2.53785	0.852601	2.86327	0.977124	3.2844		
0.801404	2.68415	0.600778	2.01664	0.800986	2.68424	0.84474	2.83403	0.959916	3.22028			0.756776	2.53651	0.854724	2.86145	0.978707	3.27945		
0.803756	2.68365	0.602782	2.01706	0.803337	2.68374	0.846722	2.83183	0.961813	3.2166			0.758739	2.53517	0.856848	2.85964	0.980294	3.27454		
0.806104	2.68314	0.604785	2.01747	0.805686	2.68324	0.84871	2.82966	0.963713	3.21294			0.760703	2.53384	0.858973	2.85785	0.981884	3.26968		
0.808449	2.68263	0.606787	2.01788	0.808032	2.68272	0.850701	2.82752	0.965613	3.2093			0.762665	2.53252	0.8611	2.85607	0.983478	3.26486		
0.810791	2.68211	0.60879	2.01829	0.810374	2.6822	0.852698	2.82541	0.967514	3.2057			0.764627	2.5312	0.863227	2.85431	0.985075	3.26008		
0.813129	2.68158	0.610792	2.01869	0.812713	2.68167	0.854699	2.82332	0.969417	3.20212			0.766589	2.52989	0.865356	2.85256	0.986676	3.25534		
0.815463	2.68104	0.612794	2.01909	0.815048	2.68114	0.856705	2.82126	0.971321	3.19856			0.768549	2.52859	0.867487	2.85082	0.98828	3.25064		
0.817794	2.68049	0.614796	2.01948	0.817379	2.68059	0.858715	2.81923	0.973227	3.19503			0.770509	2.52729	0.869618	2.84911	0.989887	3.24598		
0.820122	2.67994	0.616798	2.01988	0.819708	2.68004	0.86073	2.81723	0.975133	3.19153			0.772469	2.526	0.871751	2.8474	0.991499	3.24136		
0.822445	2.67937	0.618799	2.02027	0.822032	2.67947	0.862751	2.81526	0.977041	3.18805			0.774428	2.52471	0.873885	2.84571	0.993113	3.23678		
0.824765	2.6788	0.6208	2.02065	0.824352	2.6789	0.864776	2.81331	0.97895	3.1846			0.776386	2.52343	0.876019	2.84403	0.994731	3.23224		
0.827081	2.67822	0.622801	2.02104	0.826669	2.67832	0.866806	2.8114	0.98086	3.18117			0.778344	2.52216	0.878155	2.84237	0.996353	3.22773		
0.829393	2.67763	0.624801	2.02142	0.828982	2.67773	0.868841	2.80951	0.982772	3.17777			0.780302	2.52089	0.880292	2.84072	0.997978	3.22327		
0.831701	2.67702	0.626802	2.02179	0.831291	2.67713	0.870881	2.80765	0.984684	3.17439			0.782259	2.51963	0.88243	2.83908	0.999606	3.21884		
0.834005	2.67641	0.628802	2.02217	0.833595	2.67652	0.872927	2.80581	0.986598	3.17104			0.784215	2.51837	0.884569	2.83746	1.00124	3.21445		
0.836305	2.67579	0.630801	2.02254	0.835896	2.67591	0.874978	2.80401	0.988513	3.1677			0.786171	2.51712	0.886709	2.83585				
0.838601	2.67516	0.632801	2.02291	0.838192	2.67528	0.877034	2.80223	0.990429	3.1644			0.788126	2.51588	0.888849	2.83425				
0.840892	2.67453	0.6348	2.02327	0.840485	2.67464	0.879095	2.80048	0.992346	3.16111			0.790081	2.51464	0.890991	2.83266				
0.843179	2.67388	0.636799	2.02363	0.842772	2.67399	0.881162	2.79876	0.994264	3.15785			0.792035	2.51341	0.893133	2.83109				
0.845462	2.67322	0.638798	2.02399	0.845056	2.67333	0.883234	2.79706	0.996183	3.15461			0.793989	2.51218	0.895276	2.82952				
0.84774	2.67255	0.640796	2.02435	0.847335	2.67267	0.885312	2.79539	0.998104	3.15139			0.795943	2.51096	0.89742	2.82797				
0.850014	2.67187	0.642795	2.0247	0.849609	2.67199	0.887395	2.79375	1.00002	3.1482			0.797896	2.50974	0.899565	2.82643				
0.852283	2.67118	0.644793	2.02505	0.851879	2.6713	0.889484	2.79214					0.799848	2.50853	0.90171	2.8249				
0.854547	2.67048	0.64679	2.0254	0.854144	2.6706	0.891578	2.79055					0.801801	2.50733	0.903856	2.82338				
0.856807	2.66976	0.648788	2.02575	0.856405	2.66989	0.893678	2.78899					0.803752	2.50613	0.906003	2.82188				
0.859062	2.66904	0.650785	2.02609	0.858661	2.66917	0.895784	2.78746					0.805704	2.50494	0.90815	2.82038				
0.861313	2.66831	0.652782	2.02643	0.860912	2.66844	0.897895	2.78595					0.807655	2.50375	0.910298	2.8189				
0.863558	2.66757	0.654779	2.02676	0.863159	2.6677	0.900013	2.78447					0.809605	2.50257	0.912447	2.81742				
0.865799	2.66681	0.656775	2.0271	0.8654	2.66695	0.902136	2.78302					0.811555	2.5014	0.914596	2.81596				
0.868035	2.66605	0.658772	2.02743	0.867637	2.66619	0.904264	2.78159					0.813505	2.50023	0.916746	2.8145				
0.870266	2.66528	0.660768	2.02776	0.869869	2.66541	0.906399	2.78019					0.815455	2.49906	0.918896	2.81306				
0.872492	2.66449	0.662763	2.02808	0.872096	2.66463	0.908539	2.77881					0.817404	2.4979	0.921046	2.81162				
0.874714	2.6637	0.664759	2.02841	0.874318	2.66384	0.910686	2.77746					0.819353	2.49675	0.923197	2.81019				
0.87693	2.66289	0.666754	2.02873	0.876536	2.66303	0.912838	2.77614					0.821301	2.4956	0.925349	2.80878				
0.879141	2.66207	0.668749	2.02905	0.878748	2.66222	0.914995	2.77484					0.823249	2.49446	0.9275	2.80737				
0.881348	2.66125	0.670744	2.02936	0.880955	2.6614	0.917159	2.77356					0.825197	2.49332	0.929652	2.80597				
0.88355	2.66041	0.672739	2.02967	0.883158	2.66056	0.919329	2.77231					0.827144	2.49219	0.931805	2.80458				
0.885746	2.65956	0.674733	2.02999	0.885356	2.65972	0.921504	2.77109					0.829092	2.49106	0.933958	2.8032				
0.887938	2.65871	0.676727	2.03029	0.887548	2.65886	0.923685	2.76988					0.831039	2.48994	0.936111	2.80182				
0.890125	2.65784	0.678721	2.0306	0.889736	2.658	0.925872	2.76871					0.832985	2.48883	0.938264	2.80046				
0.892307	2.65697	0.680714	2.0309	0.891919	2.65712	0.928064	2.76755					0.834932	2.48772	0.940417	2.7991				
0.894484	2.65608	0.682708	2.0312	0.894097	2.65624	0.930262	2.76642					0.836878	2.48661	0.942571	2.79775				
0.896657	2.65518	0.684701	2.0315	0.89627	2.65534	0.932466	2.76531					0.838824	2.48552	0.944725	2.79641				
0.898825	2.65428	0.686694	2.0318	0.898439	2.65444	0.934676	2.76423					0.840769	2.48442	0.946879	2.79508				
0.900988	2.65337	0.688686	2.03209	0.900603	2.65353	0.936891	2.76316					0.842715	2.48333	0.949033	2.79376				
0.903146	2.65245	0.690679	2.03238	0.902762	2.65261	0.939111	2.76212					0.84466	2.48225	0.951187	2.79244				
0.905299	2.65152	0.692671	2.03267	0.904916	2.65168	0.941337	2.7611					0.846605	2.48117	0.953341	2.79113				
0.907448	2.65058	0.694663	2.03296	0.907066	2.65074	0.943569	2.76011					0.84855	2.4801	0.955495	2.78982				
0.909593	2.64963	0.696654	2.03324	0.909211	2.6498	0.945805	2.75913					0.850494	2.47903	0.957649	2.78853				
0.911733	2.64867	0.698646	2.03353	0.911352	2.64884	0.948047	2.75817					0.852438	2.47797	0.959803	2.78724				
0.913868	2.64771	0.700637	2.03381	0.913488	2.64788	0.950295	2.75724					0.854382	2.47691	0.961957	2.78596				
0.915999	2.64674	0.702628	2.03408	0.91562	2.64691	0.952547	2.75632					0.856326	2.47586	0.964111	2.78468				
0.918126	2.64576	0.704618	2.03436	0.917748	2.64594	0.954804	2.75543					0.85827	2.47482	0.966265	2.78341				
0.920248	2.64478	0.706609	2.03463	0.919871	2.64496	0.957067	2.75455					0.860214	2.47377	0.968419	2.78215				
0.922367	2.64379	0.708599	2.03491	0.92199	2.64396	0.959334	2.75369					0.862157	2.47274	0.970572	2.78089				
0.924481	2.64279	0.710589	2.03518	0.924105	2.64297	0.961607	2.75285					0.8641	2.47171	0.972726	2.77964				
0.926591	2.64179	0.712579	2.03544	0.926216	2.64197	0.963884	2.75203					0.866043	2.47068	0.974879	2.7784				
0.928697	2.64078	0.714568	2.03571	0.928323	2.64096	0.966165	2.75122					0.867986	2.46966	0.977032	2.77716				
0.9308	2.63976	0.716557	2.03597	0.930426	2.63994	0.968451	2.75044					0.869929	2.46864	0.979185	2.77593				
0.932898	2.63874	0.718546	2.03623	0.932525	2.63892	0.970742	2.74967					0.871872	2.46763	0.981337	2.7747				
0.934993	2.63771	0.720535	2.03649	0.93462	2.6379	0.973038	2.74891					0.873814	2.46662	0.983489	2.77348				
0.937084	2.63668	0.722524	2.03675	0.936712	2.63687	0.975337	2.74818					0.875757	2.46562	0.985641	2.77226				
0.939171	2.63565	0.724512	2.037	0.9388	2.63583	0.977641	2.74746					0.877699	2.46463	0.987793	2.77105				
0.941255	2.63461	0.7265	2.03726	0.940884	2.63479	0.979949	2.74675					0.879641	2.46363	0.989944	2.76985				
0.943336	2.63356	0.728488	2.03751	0.942966	2.63375	0.982261	2.74606					0.881583	2.46265	0.992095	2.76865				
0.945413	2.63251	0.730476	2.03776	0.945043	2.6327	0.984577	2.74538					0.883525	2.46166	0.994245	2.76745				
0.947487	2.63146	0.732463	2.038	0.947118	2.63165	0.986897	2.74472					0.885467	2.46069	0.996395	2.76626				
0.949557	2.63041	0.73445	2.03825	0.949189	2.63059	0.989221	2.74408					0.887409	2.45972	0.998544	2.76508				
0.951625	2.62935	0.736437	2.03849	0.951257	2.62954	0.991549	2.74344					0.889351	2.45875	1.00069	2.7639				
0.95369	2.62829	0.738424	2.03873	0.953322	2.62847	0.99388	2.74282					0.891293	2.45779						
0.955751	2.62722	0.74041	2.03897	0.955384	2.62741	0.996215	2.74221					0.893234	2.45683						
0.95781	2.62615	0.742397	2.03921	0.957444	2.62634	0.998553	2.74162					0.895176	2.45587						
0.959866	2.62509	0.744383	2.03945	0.9595	2.62528	1.00089	2.74104					0.897117	2.45493						
0.961919	2.62401	0.746369	2.03968	0.961554	2.62421							0.899059	2.45398						
0.963969	2.62294	0.748354	2.03991	0.963604	2.62313							0.901	2.45304						
0.966017	2.62187	0.750339	2.04014	0.965653	2.62206							0.902941	2.45211						
0.968063	2.62079	0.752325	2.04037	0.967699	2.62098							0.904883	2.45118						
0.970105	2.61971	0.754309	2.0406	0.969742	2.61991							0.906824	2.45025						
0.972146	2.61864	0.756294	2.04082	0.971783	2.61883							0.908765	2.44933						
0.974184	2.61756	0.758279	2.04105	0.973821	2.61775							0.910706	2.44841						
0.97622	2.61648	0.760263	2.04127	0.975858	2.61667							0.912648	2.4475						
0.978254	2.6154	0.762247	2.04149	0.977892	2.61559							0.914589	2.4466						
0.980286	2.61432	0.76423	2.04171	0.979924	2.61451							0.91653	2.44569						
0.982315	2.61324	0.766214	2.04192	0.981954	2.61343							0.918471	2.4448						
0.984343	2.61216	0.768197	2.04214	0.983982	2.61235							0.920412	2.4439						
0.986369	2.61108	0.77018	2.04235	0.986008	2.61127							0.922353	2.44301						
0.988392	2.61	0.772163	2.04256	0.988032	2.61019							0.924295	2.44213						
0.990414	2.60892	0.774146	2.04277	0.990055	2.60911							0.926236	2.44125						
0.992435	2.60784	0.776128	2.04298	0.992075	2.60803							0.928177	2.44037						
0.994453	2.60676	0.778111	2.04319	0.994094	2.60695							0.930118	2.4395						
0.99647	2.60568	0.780093	2.04339	0.996111	2.60588							0.93206	2.43863						
0.998485	2.60461	0.782074	2.0436	0.998127	2.6048							0.934001	2.43777						
1.0005	2.60353	0.784056	2.0438	1.00014	2.60372							0.935942	2.43691						
		0.786037	2.044									0.937884	2.43605						
		0.788018	2.0442									0.939825	2.4352						
		0.789999	2.0444									0.941766	2.43436						
		0.79198	2.04459									0.943708	2.43351						
		0.79396	2.04479									0.945649	2.43268						
		0.795941	2.04498									0.947591	2.43184						
		0.797921	2.04517									0.949533	2.43101						
		0.7999	2.04536									0.951475	2.43019						
		0.80188	2.04555									0.953416	2.42937						
		0.80386	2.04574									0.955358	2.42855						
		0.805839	2.04592									0.9573	2.42774						
		0.807818	2.04611									0.959242	2.42693						
		0.809796	2.04629									0.961184	2.42612						
		0.811775	2.04647									0.963127	2.42532						
		0.813753	2.04665									0.965069	2.42452						
		0.815731	2.04683									0.967011	2.42373						
		0.817709	2.04701									0.968954	2.42294						
		0.819687	2.04719									0.970896	2.42215						
		0.821665	2.04736									0.972839	2.42137						
		0.823642	2.04753									0.974782	2.42059						
		0.825619	2.04771									0.976725	2.41982						
		0.827596	2.04788									0.978668	2.41905						
		0.829572	2.04805									0.980611	2.41828						
		0.831549	2.04822									0.982554	2.41752						
		0.833525	2.04838									0.984497	2.41676						
		0.835501	2.04855									0.986441	2.41601						
		0.837477	2.04871									0.988384	2.41526						
		0.839453	2.04888									0.990328	2.41451						
		0.841428	2.04904									0.992272	2.41377						
		0.843403	2.0492									0.994216	2.41303						
		0.845378	2.04936									0.99616	2.41229						
		0.847353	2.04952									0.998104	2.41156						
		0.849328	2.04967									1.00005	2.41083						
		0.851302	2.04983																
		0.853276	2.04998																
		0.855251	2.05014																
		0.857224	2.05029																
		0.859198	2.05044																
		0.861171	2.05059																
		0.863145	2.05074																
		0.865118	2.05089																
		0.86709	2.05103																
		0.869063	2.05118																
		0.871036	2.05132																
		0.873008	2.05147																
		0.87498	2.05161																
		0.876952	2.05175																
		0.878923	2.05189																
		0.880895	2.05203																
		0.882866	2.05217																
		0.884837	2.05231																
		0.886808	2.05244																
		0.888779	2.05258																
		0.890749	2.05271																
		0.89272	2.05284																
		0.89469	2.05298																
		0.89666	2.05311																
		0.89863	2.05324																
		0.900599	2.05337																
		0.902569	2.05349																
		0.904538	2.05362																
		0.906507	2.05375																
		0.908476	2.05387																
		0.910444	2.054																
		0.912413	2.05412																
		0.914381	2.05424																
		0.916349	2.05436																
		0.918317	2.05448																
		0.920285	2.0546																
		0.922252	2.05472																
		0.92422	2.05484																
		0.926187	2.05496																
		0.928154	2.05507																
		0.930121	2.05519																
		0.932087	2.0553																
		0.934054	2.05542																
		0.93602	2.05553																
		0.937986	2.05564																
		0.939952	2.05575																
		0.941918	2.05586																
		0.943884	2.05597																
		0.945849	2.05608																
		0.947814	2.05619																
		0.949779	2.05629																
		0.951744	2.0564																
		0.953709	2.05651																
		0.955674	2.05661																
		0.957638	2.05671																
		0.959602	2.05682																
		0.961566	2.05692																
		0.96353	2.05702																
		0.965494	2.05712																
		0.967457	2.05722																
		0.969421	2.05732																
		0.971384	2.05742																
		0.973347	2.05752																
		0.97531	2.05761																
		0.977273	2.05771																
		0.979235	2.0578																
		0.981197	2.0579																
		0.98316	2.05799																
		0.985122	2.05809																
		0.987084	2.05818																
		0.989045	2.05827																
		0.991007	2.05836																
		0.992968	2.05845																
		0.99493	2.05854																
		0.996891	2.05863																
		0.998852	2.05872																
		1.00081	2.05881																
