Sym0		Asym0		Sym1		Sym2		Sym3		Sym4		Asym1		Asym2		Asym3		Asym4	
423  Points		529  Points		423  Points		403  Points		351  Points		252  Points		455  Points		398  Points		343  Points		215  Points	
Freq (MHz)	Vph (m/ms)	Freq (MHz)	Vph (m/ms)	Freq (MHz)	Vph (m/ms)	Freq (MHz)	Vph (m/ms)	Freq (MHz)	Vph (m/ms)	Freq (MHz)	Vph (m/ms)	Freq (MHz)	Vph (m/ms)	Freq (MHz)	Vph (m/ms)	Freq (MHz)	Vph (m/ms)	Freq (MHz)	Vph (m/ms)
0.27951	565.835	6.61544e-006	0.015954	0.27951	528.687	0.441284	2233.15	0.559017	2259.8	0.838526	12740.1	0.139763	290.534	0.419267	509.099	0.698772	1259.33	0.882569	1130.57
0.279521	196.062	6.93599e-005	0.0515169	0.279521	191.403	0.441292	390.766	0.559026	474.125	0.838529	840.62	0.139832	98.9782	0.419283	238.875	0.698779	470.061	0.882577	515.423
0.279542	118.582	0.000198353	0.0870716	0.279543	116.862	0.441312	214.126	0.559046	264.855	0.838538	434.654	0.139967	59.7016	0.419311	156.055	0.698791	288.964	0.882591	333.805
0.279573	85.0009	0.000393243	0.122515	0.279575	84.1137	0.441344	147.474	0.559076	183.758	0.838553	293.108	0.140169	42.7849	0.419351	115.887	0.69881	208.602	0.88261	246.834
0.279615	66.2476	0.00065346	0.157786	0.279617	65.7077	0.441387	112.473	0.559118	140.689	0.838574	221.108	0.140438	33.3753	0.419402	92.1696	0.698834	163.216	0.882635	195.818
0.279668	54.2785	0.000978275	0.192835	0.27967	53.9157	0.441442	90.9051	0.559171	113.981	0.8386	177.508	0.140772	27.39	0.419465	76.5164	0.698865	134.053	0.882666	162.281
0.27973	45.9769	0.00136678	0.227613	0.279733	45.7165	0.441509	76.2831	0.559235	95.7998	0.838633	148.273	0.14117	23.2523	0.419539	65.4128	0.698901	113.734	0.882703	138.554
0.279803	39.8816	0.00181797	0.262086	0.279806	39.6857	0.441588	65.7176	0.559311	82.6253	0.838671	127.309	0.141632	20.2247	0.419625	57.1275	0.698944	98.7663	0.882745	120.883
0.279887	35.2168	0.00233052	0.296194	0.27989	35.0641	0.441678	57.7269	0.559397	72.6402	0.838715	111.541	0.142156	17.9159	0.419723	50.7089	0.698992	87.2819	0.882794	107.211
0.279981	31.5321	0.00290328	0.329921	0.279984	31.4097	0.44178	51.4723	0.559495	64.8116	0.838765	99.2496	0.142741	16.0992	0.419832	45.5903	0.699046	78.1919	0.882848	96.3188
0.280085	28.5483	0.00353464	0.363213	0.280089	28.448	0.441893	46.4439	0.559603	58.5094	0.838821	89.4002	0.143385	14.6341	0.419953	41.4135	0.699107	70.8184	0.882908	87.4375
0.2802	26.083	0.0042233	0.39606	0.280204	25.9994	0.442018	42.3135	0.559723	53.3272	0.838883	81.3307	0.144087	13.4288	0.420086	37.9406	0.699173	64.7171	0.882974	80.0572
0.280325	24.0121	0.00496745	0.428413	0.28033	23.9413	0.442155	38.8607	0.559854	48.9909	0.83895	74.5988	0.144846	12.421	0.42023	35.0078	0.699245	59.5852	0.883045	73.8271
0.28046	22.2481	0.00576553	0.46026	0.280465	22.1874	0.442303	35.9314	0.559995	45.3092	0.839024	68.8975	0.145659	11.5666	0.420386	32.4984	0.699323	55.2087	0.883122	68.498
0.280606	20.7277	0.0066158	0.491574	0.280611	20.6751	0.442463	33.4153	0.560148	42.1446	0.839103	64.007	0.146525	10.8338	0.420553	30.327	0.699408	51.4323	0.883205	63.8876
0.280762	19.4038	0.00751651	0.52234	0.280768	19.3578	0.442634	31.2307	0.560312	39.3954	0.839188	59.7659	0.147322	10.2759	0.420732	28.4298	0.699498	48.1406	0.883294	59.8597
0.280928	18.2408	0.00846587	0.552538	0.280935	18.2002	0.442817	29.3165	0.560487	36.9849	0.839278	56.053	0.148031	9.84982	0.420922	26.7581	0.699594	45.246	0.883389	56.3107
0.281105	17.2111	0.00946213	0.58216	0.281112	17.175	0.443012	27.6253	0.560673	34.8543	0.839375	52.7755	0.148637	9.52735	0.421124	25.274	0.699696	42.6808	0.883489	53.1599
0.281292	16.2931	0.0105035	0.611195	0.2813	16.2608	0.443218	26.1206	0.56087	32.9577	0.839477	49.8611	0.14913	9.28944	0.421338	23.9477	0.699804	40.3918	0.883595	50.344
0.28149	15.4697	0.0115882	0.639638	0.281498	15.4407	0.443435	24.7732	0.561078	31.2586	0.839586	47.2526	0.149498	9.12331	0.421563	22.7555	0.699918	38.3368	0.883707	47.8123
0.281698	14.7271	0.0127146	0.667481	0.281706	14.7008	0.443664	23.5597	0.561297	29.7277	0.8397	44.9044	0.149738	9.02067	0.421799	21.678	0.700038	36.4816	0.883825	45.5239
0.281916	14.0539	0.0138808	0.694726	0.281924	14.0301	0.443905	22.4612	0.561527	28.3414	0.839819	42.7794	0.150085	8.8779	0.422047	20.6996	0.700164	34.7986	0.883949	43.4453
0.282145	13.441	0.0150852	0.72137	0.282153	13.4193	0.444157	21.4621	0.561768	27.0801	0.839945	40.8472	0.150469	8.72879	0.422307	19.8072	0.700296	33.2648	0.884078	41.5491
0.282383	12.8807	0.0163262	0.747414	0.282392	12.8608	0.44442	20.5497	0.56202	25.9278	0.840076	39.0828	0.151	8.5355	0.422578	18.9901	0.700434	31.8613	0.884213	39.8121
0.282633	12.3665	0.0176023	0.772866	0.282642	12.3482	0.444695	19.7131	0.562283	24.8709	0.840214	37.4652	0.151686	8.30557	0.42286	18.2391	0.700577	30.5721	0.884354	38.2153
0.282892	11.893	0.0189118	0.79773	0.282902	11.8761	0.444981	18.9434	0.562557	23.8982	0.840357	35.977	0.152536	8.04718	0.423154	17.5466	0.700727	29.384	0.8845	36.7424
0.283162	11.4557	0.0202532	0.822008	0.283172	11.44	0.445278	18.2329	0.562841	22.9999	0.840505	34.6031	0.153563	7.76859	0.423459	16.9061	0.700883	28.2854	0.884652	35.3794
0.283442	11.0505	0.0216251	0.84571	0.283452	11.036	0.445587	17.5751	0.563137	22.168	0.84066	33.331	0.154778	7.4776	0.423775	16.312	0.701044	27.2667	0.88481	34.1146
0.283732	10.6741	0.0230263	0.868847	0.283743	10.6606	0.445907	16.9643	0.563443	21.3953	0.840821	32.1497	0.15603	7.21343	0.424103	15.7595	0.701212	26.3195	0.884974	32.9377
0.284033	10.3235	0.0244551	0.891421	0.284044	10.3109	0.446238	16.3957	0.56376	20.6759	0.840987	31.0499	0.157319	6.97268	0.424442	15.2443	0.701385	25.4364	0.885144	31.8399
0.284343	9.99631	0.0259105	0.913451	0.284315	10.0253	0.446581	15.8652	0.564088	20.0044	0.841159	30.0235	0.158643	6.7525	0.424792	14.7629	0.701565	24.6114	0.885319	30.8135
0.284664	9.6902	0.0273912	0.934943	0.284551	9.7946	0.446934	15.3691	0.564426	19.3762	0.841337	29.0634	0.159999	6.55047	0.425154	14.312	0.70175	23.8387	0.8855	29.8518
0.284996	9.40325	0.028896	0.955907	0.284752	9.61213	0.447299	14.9041	0.564776	18.7873	0.84152	28.1633	0.161388	6.36454	0.425527	13.8889	0.701941	23.1137	0.885687	28.9488
0.285337	9.13374	0.0304238	0.976356	0.284913	9.47286	0.447675	14.4675	0.565136	18.2341	0.841709	27.3178	0.162806	6.19294	0.425911	13.4912	0.702139	22.432	0.885879	28.0994
0.285689	8.88016	0.0319736	0.996301	0.285032	9.37314	0.448062	14.0567	0.565507	17.7136	0.841905	26.5222	0.164254	6.03415	0.426306	13.1166	0.702342	21.7899	0.886077	27.299
0.286051	8.64116	0.0335443	1.01575	0.28511	9.31049	0.44846	13.6697	0.565888	17.2229	0.842105	25.772	0.165729	5.88686	0.426712	12.7633	0.702551	21.184	0.886281	26.5433
0.286423	8.41555	0.0351349	1.03473	0.285222	9.22196	0.448869	13.3043	0.566281	16.7596	0.842312	25.0637	0.167231	5.74991	0.42713	12.4294	0.702766	20.6114	0.88649	25.8289
0.286805	8.20225	0.0367446	1.05323	0.285345	9.12774	0.449289	12.9589	0.566683	16.3215	0.842524	24.3938	0.168758	5.6223	0.427558	12.1134	0.702987	20.0695	0.886706	25.1524
0.287198	8.0003	0.0383724	1.07128	0.285515	9.00285	0.44972	12.6319	0.567097	15.9065	0.842743	23.7592	0.170309	5.50315	0.427998	11.814	0.703213	19.5558	0.886927	24.5109
0.287601	7.80885	0.0400175	1.08889	0.285733	8.85001	0.450162	12.3218	0.567521	15.513	0.842967	23.1572	0.171883	5.39169	0.428449	11.5299	0.703446	19.0682	0.887153	23.9017
0.288013	7.62712	0.041679	1.10606	0.286002	8.67243	0.450615	12.0275	0.567955	15.1393	0.843196	22.5854	0.173478	5.28723	0.42891	11.26	0.703685	18.6048	0.887386	23.3225
0.288436	7.45439	0.0433564	1.12281	0.286324	8.47359	0.451079	11.7477	0.5684	14.784	0.843432	22.0417	0.175095	5.18915	0.429383	11.0033	0.703929	18.1639	0.887623	22.7712
0.288869	7.29005	0.0450488	1.13915	0.286704	8.25715	0.451553	11.4815	0.568856	14.4458	0.843673	21.5239	0.176732	5.09693	0.429866	10.7588	0.70418	17.7437	0.887867	22.2457
0.289313	7.13351	0.0467555	1.1551	0.287094	8.05231	0.452038	11.2278	0.569322	14.1235	0.84392	21.0303	0.178388	5.01007	0.430361	10.5258	0.704436	17.3431	0.888116	21.7444
0.289766	6.98424	0.048476	1.17066	0.287494	7.85818	0.452534	10.9859	0.569798	13.816	0.844172	20.5593	0.180063	4.92815	0.430866	10.3033	0.704698	16.9605	0.888371	21.2655
0.290229	6.84176	0.0502095	1.18584	0.287904	7.67397	0.45304	10.755	0.570285	13.5223	0.844431	20.1093	0.181755	4.85076	0.431315	10.1176	0.704966	16.5948	0.888632	20.8077
0.290703	6.70565	0.0519555	1.20065	0.288324	7.49894	0.453557	10.5342	0.570782	13.2416	0.844695	19.6789	0.183463	4.77756	0.431705	9.96499	0.70524	16.245	0.888898	20.3695
0.291186	6.57548	0.0537134	1.21512	0.288755	7.33245	0.454085	10.3231	0.571289	12.9729	0.844964	19.267	0.185188	4.70824	0.432031	9.8425	0.70552	15.91	0.88917	19.9498
0.29168	6.45091	0.0554827	1.22923	0.289195	7.17391	0.454553	10.1465	0.571807	12.7157	0.84524	18.8724	0.186928	4.64251	0.432292	9.74795	0.705806	15.5889	0.889448	19.5474
0.292183	6.33158	0.0572629	1.24302	0.289646	7.02278	0.454959	10.001	0.572335	12.4691	0.845521	18.4939	0.188682	4.5801	0.432486	9.67968	0.706097	15.2809	0.889731	19.1613
0.292697	6.21718	0.0590536	1.25648	0.290107	6.87857	0.455298	9.88412	0.572874	12.2325	0.845808	18.1307	0.190451	4.52079	0.43261	9.63654	0.706395	14.9852	0.89002	18.7905
0.293221	6.10744	0.0608543	1.26962	0.290577	6.74082	0.45557	9.7938	0.573422	12.0054	0.846101	17.7818	0.192233	4.46435	0.43279	9.57525	0.706698	14.701	0.890314	18.4341
0.293754	6.00208	0.0626644	1.28246	0.291058	6.60913	0.455771	9.72853	0.573981	11.7871	0.846399	17.4465	0.194028	4.4106	0.432988	9.50961	0.707007	14.4278	0.890614	18.0913
0.294298	5.90085	0.0644837	1.295	0.291549	6.48312	0.4559	9.68725	0.574549	11.5773	0.846703	17.1239	0.195835	4.35935	0.433258	9.4219	0.707322	14.1649	0.89092	17.7614
0.294852	5.80354	0.0663117	1.30725	0.29205	6.36244	0.456087	9.6286	0.575128	11.3754	0.847013	16.8134	0.197654	4.31044	0.433603	9.31349	0.707643	13.9118	0.891231	17.4436
0.295415	5.70992	0.0681481	1.31922	0.292561	6.24678	0.456292	9.56572	0.575717	11.181	0.847328	16.5142	0.199484	4.26372	0.434026	9.18601	0.70797	13.6679	0.891548	17.1373
0.295989	5.6198	0.0699924	1.33092	0.293082	6.13584	0.456572	9.48164	0.576316	10.9937	0.847649	16.2258	0.201325	4.21905	0.43453	9.04131	0.708302	13.4327	0.89187	16.8419
0.296572	5.533	0.0718445	1.34235	0.293613	6.02935	0.45693	9.37761	0.576925	10.8131	0.847976	15.9477	0.203176	4.17631	0.435117	8.88136	0.70864	13.2058	0.892198	16.5568
0.297166	5.44935	0.0737039	1.35353	0.294154	5.92706	0.457368	9.25514	0.577543	10.639	0.848308	15.6792	0.205037	4.13537	0.435716	8.7276	0.708985	12.9867	0.892532	16.2814
0.297769	5.36869	0.0755703	1.36446	0.294705	5.82874	0.457889	9.11591	0.578172	10.4708	0.848646	15.4199	0.206908	4.09613	0.436325	8.57968	0.709335	12.7751	0.892871	16.0154
0.298382	5.29087	0.0774434	1.37515	0.295266	5.73417	0.458496	8.96177	0.578728	10.329	0.84899	15.1693	0.208788	4.05849	0.436944	8.43729	0.70969	12.5706	0.893216	15.7583
0.299005	5.21575	0.0793231	1.3856	0.295837	5.64315	0.459114	8.81334	0.579208	10.2114	0.849339	14.9271	0.210677	4.02236	0.437574	8.30012	0.710052	12.3728	0.893566	15.5095
0.299638	5.1432	0.0812089	1.39583	0.296418	5.5555	0.459741	8.67032	0.579609	10.1164	0.849694	14.6927	0.212574	3.98765	0.438214	8.16792	0.710419	12.1814	0.893921	15.2688
0.300281	5.07311	0.0831007	1.40583	0.297009	5.47104	0.460379	8.53243	0.579928	10.0427	0.850054	14.4659	0.21448	3.95429	0.438865	8.04041	0.710793	11.9962	0.894283	15.0357
0.300934	5.00535	0.0849981	1.41562	0.297609	5.3896	0.461027	8.39939	0.580164	9.98923	0.85042	14.2463	0.216393	3.92219	0.439525	7.91737	0.711172	11.8167	0.894649	14.8098
0.301596	4.93982	0.0869011	1.4252	0.29822	5.31105	0.461685	8.27098	0.580316	9.95534	0.850792	14.0335	0.218314	3.89129	0.440197	7.79858	0.711556	11.6429	0.895022	14.591
0.302269	4.87642	0.0888093	1.43457	0.298841	5.23523	0.462352	8.14696	0.580536	9.90707	0.851169	13.8272	0.220242	3.86153	0.440878	7.68382	0.711947	11.4744	0.895399	14.3787
0.302951	4.81505	0.0907226	1.44375	0.299471	5.16202	0.463029	8.02711	0.580775	9.8552	0.851552	13.6272	0.222177	3.83284	0.44157	7.57291	0.712343	11.3109	0.895783	14.1728
0.303643	4.75563	0.0926407	1.45273	0.300111	5.09129	0.463717	7.91125	0.581103	9.78562	0.851941	13.4331	0.224118	3.80517	0.442271	7.46565	0.712745	11.1523	0.896171	13.973
0.304254	4.70536	0.0945635	1.46153	0.300761	5.02293	0.464414	7.79917	0.581521	9.69918	0.852335	13.2447	0.226067	3.77848	0.442983	7.36188	0.713153	10.9984	0.896566	13.779
0.304781	4.66359	0.0964908	1.47015	0.301421	4.95683	0.46512	7.6907	0.582031	9.5969	0.852735	13.0618	0.228021	3.75271	0.443705	7.26145	0.713567	10.8488	0.896965	13.5905
0.305221	4.62978	0.0984223	1.47859	0.302091	4.89287	0.465837	7.58569	0.582637	9.47997	0.85314	12.8842	0.229981	3.72781	0.444437	7.16419	0.713986	10.7036	0.89737	13.4074
0.305571	4.60349	0.100358	1.48686	0.302771	4.83098	0.466563	7.48396	0.58334	9.34968	0.853551	12.7115	0.231947	3.70374	0.445179	7.06997	0.714357	10.5804	0.897781	13.2294
0.30583	4.58441	0.102298	1.49496	0.30346	4.77106	0.467298	7.38538	0.584053	9.22338	0.853967	12.5437	0.233919	3.68047	0.445931	6.97865	0.714676	10.4777	0.898197	13.0563
0.305997	4.57231	0.104241	1.5029	0.30416	4.71301	0.468043	7.28981	0.584776	9.10089	0.854389	12.3804	0.235896	3.65795	0.446692	6.89011	0.714942	10.3944	0.898618	12.8878
0.306237	4.55506	0.106188	1.51068	0.304869	4.65677	0.468797	7.19713	0.585508	8.98204	0.854817	12.2216	0.237878	3.63615	0.447464	6.80422	0.715154	10.3295	0.899045	12.7239
0.306499	4.53651	0.108139	1.51831	0.305588	4.60226	0.469561	7.10719	0.586249	8.86668	0.85525	12.0671	0.239865	3.61504	0.448245	6.72089	0.71531	10.2823	0.899477	12.5644
0.306858	4.5116	0.110093	1.52578	0.306316	4.5494	0.470334	7.0199	0.587	8.75468	0.855689	11.9166	0.241856	3.59458	0.449037	6.63999	0.715411	10.2524	0.899915	12.409
0.307315	4.48062	0.11205	1.53311	0.307055	4.49812	0.471116	6.93513	0.58776	8.64588	0.856133	11.7701	0.243853	3.57476	0.449837	6.56144	0.715556	10.2097	0.900358	12.2576
0.307872	4.4439	0.114011	1.5403	0.307803	4.44837	0.471908	6.8528	0.58853	8.54015	0.856582	11.6273	0.245854	3.55553	0.450648	6.48513	0.715715	10.1637	0.900806	12.1101
0.308533	4.40185	0.115722	1.54645	0.308561	4.40008	0.472709	6.77279	0.589309	8.43738	0.857037	11.4882	0.247859	3.53687	0.451468	6.41097	0.715932	10.1019	0.90126	11.9663
0.3093	4.35492	0.117182	1.55162	0.309329	4.35319	0.473518	6.69502	0.590097	8.33744	0.857498	11.3526	0.249869	3.51876	0.452298	6.33889	0.716208	10.0248	0.901719	11.8261
0.310078	4.30933	0.118391	1.55583	0.310107	4.30766	0.474337	6.6194	0.590894	8.24023	0.857964	11.2204	0.251882	3.50118	0.453137	6.2688	0.716545	9.9333	0.902183	11.6894
0.310865	4.26504	0.119347	1.55913	0.310894	4.26342	0.475165	6.54585	0.5917	8.14564	0.858436	11.0914	0.253899	3.4841	0.453986	6.20062	0.716944	9.82821	0.902653	11.556
0.311662	4.22201	0.120051	1.56153	0.311692	4.22043	0.476002	6.47428	0.592515	8.05357	0.858913	10.9656	0.25592	3.4675	0.454844	6.13428	0.717408	9.71054	0.903128	11.4258
0.312469	4.18018	0.120501	1.56306	0.312499	4.17864	0.476848	6.40462	0.593339	7.96392	0.859333	10.8584	0.257945	3.45136	0.455712	6.06971	0.717877	9.59588	0.903609	11.2987
0.313285	4.1395	0.121149	1.56525	0.313316	4.13801	0.477702	6.3368	0.594173	7.8766	0.859695	10.7688	0.259973	3.43567	0.456589	6.00685	0.718352	9.48411	0.904094	11.1746
0.314111	4.09995	0.121854	1.56761	0.314142	4.0985	0.478565	6.27075	0.595015	7.79153	0.859996	10.6959	0.262005	3.4204	0.457475	5.94564	0.718832	9.37513	0.904585	11.0534
0.314947	4.06147	0.122813	1.5708	0.314979	4.06006	0.479437	6.20641	0.595866	7.70863	0.860235	10.639	0.264039	3.40554	0.458371	5.886	0.719318	9.26884	0.905018	10.95
0.315793	4.02403	0.124026	1.57479	0.315825	4.02266	0.480318	6.14371	0.596726	7.62782	0.860412	10.5975	0.266077	3.39108	0.459276	5.8279	0.71981	9.16515	0.905389	10.8635
0.316649	3.98759	0.125495	1.57956	0.316681	3.98626	0.481207	6.08259	0.597595	7.54902	0.860526	10.5712	0.268118	3.37699	0.46019	5.77126	0.720308	9.06396	0.905699	10.7931
0.317515	3.95213	0.127219	1.58507	0.317547	3.95082	0.482105	6.02301	0.598472	7.47216	0.86069	10.5336	0.270162	3.36327	0.461113	5.71605	0.720811	8.96518	0.905945	10.7381
0.31839	3.91759	0.1292	1.59128	0.318423	3.91632	0.483011	5.9649	0.599358	7.39717	0.860869	10.4931	0.272209	3.34989	0.462045	5.66221	0.72132	8.86874	0.906127	10.6981
0.319276	3.88396	0.131183	1.59738	0.319309	3.88272	0.483926	5.90822	0.600253	7.324	0.861113	10.4385	0.274259	3.33686	0.462986	5.6097	0.721834	8.77455	0.906243	10.6726
0.320171	3.8512	0.133169	1.60336	0.320204	3.85	0.484849	5.85291	0.601157	7.25257	0.861424	10.3703	0.276311	3.32414	0.463936	5.55846	0.722354	8.68254	0.906411	10.6363
0.321076	3.81929	0.135157	1.60924	0.32111	3.81811	0.485781	5.79894	0.602069	7.18284	0.861802	10.2891	0.278365	3.31174	0.464896	5.50846	0.72288	8.59263	0.906595	10.5971
0.321991	3.78819	0.137146	1.61502	0.322026	3.78705	0.48672	5.74624	0.602989	7.11474	0.86225	10.1956	0.280423	3.29964	0.465864	5.45966	0.723411	8.50476	0.906845	10.5442
0.322916	3.75788	0.139138	1.62069	0.322951	3.75677	0.487668	5.6948	0.603918	7.04822	0.862769	10.0906	0.282482	3.28783	0.466841	5.41202	0.723948	8.41885	0.907164	10.4782
0.323852	3.72834	0.141131	1.62626	0.323887	3.72726	0.488624	5.64455	0.604856	6.98323	0.863293	9.98789	0.284544	3.2763	0.467826	5.36549	0.724491	8.33486	0.907552	10.3995
0.324797	3.69954	0.143126	1.63173	0.324832	3.69848	0.489589	5.59546	0.605801	6.91971	0.863823	9.88744	0.286609	3.26505	0.468821	5.32005	0.725039	8.2527	0.908011	10.3089
0.325752	3.67146	0.145123	1.63711	0.325788	3.67043	0.490561	5.5475	0.606756	6.85763	0.864358	9.78917	0.288675	3.25405	0.469824	5.27566	0.725593	8.17234	0.908542	10.2069
0.326718	3.64408	0.147122	1.64239	0.326754	3.64307	0.491541	5.50063	0.607718	6.79694	0.864899	9.69302	0.290743	3.2433	0.470836	5.23228	0.726152	8.09371	0.909079	10.1072
0.327693	3.61737	0.149122	1.64759	0.32773	3.61639	0.492529	5.45482	0.608689	6.73758	0.865444	9.59891	0.292814	3.2328	0.471856	5.18989	0.726717	8.01675	0.909621	10.0095
0.328679	3.59131	0.151124	1.65269	0.328716	3.59036	0.493526	5.41003	0.609667	6.67953	0.865996	9.50678	0.294886	3.22253	0.472885	5.14845	0.727287	7.94142	0.910168	9.9139
0.329675	3.5659	0.153127	1.65771	0.329713	3.56496	0.494529	5.36623	0.610654	6.62274	0.866552	9.41658	0.296961	3.21249	0.473923	5.10793	0.727863	7.86767	0.91072	9.82025
0.330682	3.5411	0.155132	1.66264	0.33072	3.54019	0.495541	5.32339	0.611649	6.56717	0.867114	9.32824	0.299037	3.20267	0.474969	5.06831	0.728445	7.79545	0.911277	9.72853
0.331699	3.5169	0.157138	1.66749	0.331737	3.51601	0.496561	5.28148	0.612652	6.51279	0.867681	9.24171	0.301115	3.19306	0.476024	5.02956	0.729032	7.72471	0.91184	9.63866
0.332726	3.49329	0.159146	1.67226	0.332765	3.49242	0.497588	5.24047	0.613664	6.45956	0.868254	9.15694	0.303194	3.18366	0.477087	4.99165	0.729624	7.65541	0.912407	9.5506
0.333764	3.47024	0.161155	1.67695	0.333803	3.46939	0.498623	5.20034	0.614683	6.40745	0.868832	9.07388	0.305276	3.17446	0.478158	4.95456	0.730222	7.58752	0.91298	9.46429
0.334813	3.44774	0.163165	1.68157	0.334852	3.44691	0.499665	5.16106	0.615709	6.35642	0.869415	8.99247	0.307358	3.16545	0.479238	4.91827	0.730826	7.52098	0.913558	9.37969
0.335872	3.42578	0.165176	1.6861	0.335912	3.42498	0.500715	5.12261	0.616744	6.30645	0.870003	8.91266	0.309443	3.15663	0.480326	4.88275	0.731435	7.45576	0.91414	9.29674
0.336942	3.40435	0.167188	1.69057	0.336982	3.40356	0.501772	5.08495	0.617787	6.25749	0.870597	8.83443	0.311528	3.14799	0.481422	4.84797	0.73205	7.39182	0.914728	9.2154
0.338023	3.38342	0.169202	1.69496	0.338064	3.38265	0.502837	5.04808	0.618837	6.20953	0.871196	8.7577	0.313616	3.13952	0.482526	4.81393	0.73267	7.32913	0.915321	9.13563
0.339116	3.36299	0.171216	1.69928	0.339156	3.36224	0.503909	5.01196	0.619895	6.16254	0.8718	8.68246	0.315704	3.13122	0.483638	4.78059	0.733295	7.26766	0.915919	9.05737
0.340219	3.34304	0.173232	1.70353	0.34026	3.34231	0.504988	4.97658	0.620961	6.11648	0.87241	8.60865	0.317794	3.12309	0.484759	4.74794	0.733926	7.20736	0.916523	8.98059
0.341333	3.32357	0.175248	1.70771	0.341375	3.32285	0.506075	4.94192	0.622034	6.07133	0.873025	8.53624	0.319885	3.11512	0.485887	4.71596	0.734563	7.14821	0.917131	8.90526
0.342459	3.30455	0.177266	1.71183	0.342501	3.30385	0.507168	4.90794	0.623115	6.02707	0.873645	8.46518	0.321978	3.1073	0.487024	4.68463	0.735205	7.09017	0.917744	8.83132
0.343597	3.28598	0.179284	1.71589	0.343639	3.2853	0.508269	4.87465	0.624204	5.98368	0.87427	8.39545	0.324071	3.09964	0.488168	4.65393	0.735852	7.03322	0.918362	8.75874
0.344746	3.26785	0.181304	1.71988	0.344789	3.26719	0.509377	4.84201	0.625299	5.94112	0.8749	8.327	0.326166	3.09212	0.489321	4.62384	0.736505	6.97732	0.918985	8.68748
0.345907	3.25016	0.183324	1.7238	0.34595	3.2495	0.510492	4.81001	0.626403	5.89938	0.875536	8.25981	0.328262	3.08474	0.490481	4.59436	0.737163	6.92246	0.919613	8.61752
0.347079	3.23287	0.185345	1.72767	0.347123	3.23224	0.511615	4.77863	0.627513	5.85844	0.876177	8.19383	0.330358	3.0775	0.491649	4.56545	0.737827	6.8686	0.920247	8.54882
0.348265	3.216	0.187366	1.73148	0.348309	3.21538	0.512744	4.74786	0.628631	5.81826	0.876823	8.12905	0.332456	3.07039	0.492825	4.53712	0.738496	6.81571	0.920885	8.48134
0.349462	3.19953	0.189389	1.73523	0.349507	3.19893	0.513879	4.71768	0.629757	5.77885	0.877474	8.06542	0.334555	3.06341	0.494009	4.50934	0.73917	6.76377	0.921528	8.41505
0.350672	3.18346	0.191412	1.73892	0.350717	3.18286	0.515022	4.68807	0.630889	5.74016	0.87813	8.00292	0.336654	3.05656	0.4952	4.48209	0.73985	6.71276	0.922176	8.34993
0.351895	3.16776	0.193436	1.74256	0.35194	3.16719	0.516172	4.65902	0.632029	5.70219	0.878792	7.94151	0.338755	3.04983	0.496399	4.45538	0.740535	6.66266	0.922829	8.28594
0.35313	3.15245	0.19546	1.74614	0.353177	3.15188	0.517328	4.63051	0.633176	5.66492	0.879459	7.88118	0.340856	3.04322	0.497606	4.42917	0.741226	6.61343	0.923486	8.22306
0.354379	3.1375	0.197485	1.74967	0.354426	3.13695	0.518491	4.60254	0.63433	5.62833	0.88013	7.82189	0.342958	3.03673	0.49882	4.40346	0.741921	6.56507	0.924149	8.16125
0.355641	3.12291	0.199511	1.75314	0.355689	3.12238	0.51966	4.57508	0.635491	5.5924	0.880807	7.76363	0.345061	3.03035	0.500041	4.37823	0.742623	6.51754	0.924817	8.1005
0.356917	3.10869	0.201537	1.75657	0.356965	3.10816	0.520836	4.54813	0.636659	5.55712	0.881489	7.70635	0.347165	3.02408	0.501271	4.35348	0.743329	6.47083	0.925489	8.04077
0.358207	3.09481	0.203564	1.75994	0.358256	3.0943	0.522019	4.52167	0.637833	5.52246	0.882177	7.65005	0.349269	3.01792	0.502507	4.32919	0.744041	6.42492	0.926167	7.98204
0.359511	3.08127	0.205592	1.76327	0.35956	3.08077	0.523208	4.49569	0.639015	5.48842	0.882869	7.59469	0.351374	3.01186	0.503751	4.30535	0.744758	6.37978	0.926849	7.92429
0.36083	3.06807	0.20762	1.76654	0.360879	3.06759	0.524404	4.47018	0.640204	5.45498	0.883566	7.54026	0.353479	3.0059	0.505003	4.28195	0.745481	6.33541	0.927536	7.86749
0.362163	3.05521	0.209648	1.76977	0.362213	3.05473	0.525606	4.44512	0.641399	5.42212	0.884269	7.48672	0.355585	3.00004	0.506261	4.25898	0.746209	6.29178	0.928228	7.81163
0.363512	3.04267	0.211677	1.77296	0.363562	3.04221	0.526814	4.42051	0.642602	5.38983	0.884976	7.43407	0.357692	2.99427	0.507528	4.23642	0.746942	6.24887	0.928924	7.75667
0.364876	3.03045	0.213706	1.77609	0.364927	3.03	0.528029	4.39633	0.643811	5.3581	0.885689	7.38228	0.359799	2.9886	0.508801	4.21428	0.74768	6.20667	0.929626	7.7026
0.366255	3.01855	0.215736	1.77918	0.366307	3.01811	0.52925	4.37258	0.645026	5.32691	0.886406	7.33133	0.361906	2.98302	0.510081	4.19253	0.748424	6.16516	0.930332	7.6494
0.367651	3.00696	0.217766	1.78223	0.367703	3.00654	0.530477	4.34924	0.646249	5.29626	0.887129	7.28119	0.364014	2.97753	0.511369	4.17117	0.749173	6.12433	0.931043	7.59705
0.369063	2.99568	0.219797	1.78524	0.369116	2.99527	0.53171	4.3263	0.647478	5.26612	0.887856	7.23186	0.366122	2.97213	0.512664	4.15019	0.749927	6.08415	0.931759	7.54553
0.370491	2.98471	0.221828	1.7882	0.370545	2.9843	0.532949	4.30376	0.648713	5.23648	0.888589	7.18332	0.368231	2.96681	0.513966	4.12958	0.750687	6.04462	0.932479	7.49481
0.371937	2.97403	0.223859	1.79112	0.371991	2.97364	0.534195	4.2816	0.649955	5.20735	0.889326	7.13554	0.37034	2.96157	0.515275	4.10934	0.751451	6.00573	0.933204	7.44489
0.3734	2.96365	0.22589	1.79401	0.373455	2.96327	0.535446	4.25982	0.651203	5.17869	0.890069	7.0885	0.37245	2.95641	0.51659	4.08945	0.752221	5.96744	0.933934	7.39574
0.374881	2.95356	0.227922	1.79685	0.374936	2.95319	0.536704	4.23841	0.652458	5.15051	0.890817	7.04221	0.374559	2.95133	0.517913	4.0699	0.752996	5.92976	0.934669	7.34735
0.37638	2.94376	0.229954	1.79965	0.376436	2.9434	0.537967	4.21736	0.653719	5.12278	0.891569	6.99662	0.376669	2.94632	0.519243	4.05069	0.753777	5.89268	0.935408	7.2997
0.377897	2.93425	0.231987	1.80241	0.377954	2.9339	0.539236	4.19665	0.654986	5.09551	0.892327	6.95174	0.378779	2.94139	0.52058	4.03182	0.754562	5.85616	0.936152	7.25277
0.379433	2.92502	0.23402	1.80514	0.379491	2.92468	0.540511	4.17629	0.65626	5.06868	0.893089	6.90754	0.38089	2.93653	0.521924	4.01326	0.755353	5.82021	0.936901	7.20655
0.380989	2.91606	0.236053	1.80783	0.381047	2.91573	0.541792	4.15627	0.65754	5.04228	0.893856	6.86401	0.383	2.93175	0.523274	3.99503	0.756149	5.78482	0.937654	7.16103
0.382563	2.90738	0.238086	1.81048	0.382622	2.90706	0.543079	4.13657	0.658826	5.01631	0.894629	6.82114	0.385111	2.92703	0.524631	3.9771	0.75695	5.74996	0.938412	7.11618
0.384158	2.89897	0.240119	1.8131	0.384217	2.89866	0.544371	4.1172	0.660118	4.99074	0.895406	6.77891	0.387221	2.92238	0.525995	3.95947	0.757756	5.71563	0.939174	7.072
0.385772	2.89083	0.242153	1.81568	0.385832	2.89053	0.545669	4.09814	0.661417	4.96558	0.896188	6.73731	0.389332	2.91779	0.527366	3.94214	0.758567	5.68182	0.939942	7.02847
0.387406	2.88295	0.244187	1.81823	0.387468	2.88266	0.546973	4.07938	0.662721	4.94081	0.896975	6.69632	0.391443	2.91327	0.528743	3.9251	0.759384	5.64852	0.940713	6.98557
0.389061	2.87533	0.246221	1.82074	0.389123	2.87505	0.548282	4.06093	0.664031	4.91643	0.897767	6.65594	0.393554	2.90881	0.530128	3.90835	0.760205	5.61571	0.94149	6.9433
0.390737	2.86796	0.248255	1.82322	0.390799	2.86769	0.549596	4.04277	0.665348	4.89243	0.898564	6.61614	0.395665	2.90441	0.531518	3.89187	0.761032	5.58339	0.942271	6.90164
0.392433	2.86085	0.250289	1.82567	0.392496	2.86059	0.550917	4.0249	0.66667	4.8688	0.899365	6.57693	0.397776	2.90007	0.532915	3.87566	0.761864	5.55154	0.943056	6.86057
0.39415	2.85398	0.252324	1.82809	0.394214	2.85373	0.552242	4.0073	0.667998	4.84552	0.900172	6.53828	0.399887	2.89579	0.534319	3.85971	0.7627	5.52017	0.943846	6.82009
0.395888	2.84735	0.254358	1.83047	0.395953	2.84711	0.553573	3.98999	0.669332	4.82261	0.900983	6.50018	0.401997	2.89157	0.535729	3.84403	0.763542	5.48924	0.944641	6.78019
0.397646	2.84097	0.256393	1.83283	0.397712	2.84073	0.55491	3.97294	0.670672	4.80004	0.901799	6.46263	0.404108	2.8874	0.537146	3.8286	0.764389	5.45877	0.94544	6.74084
0.399426	2.83481	0.258428	1.83515	0.399493	2.83459	0.556251	3.95616	0.672017	4.77781	0.90262	6.42561	0.406219	2.88328	0.53857	3.81342	0.765241	5.42873	0.946243	6.70205
0.401227	2.82889	0.260463	1.83744	0.401294	2.82867	0.557598	3.93963	0.673368	4.75591	0.903446	6.38911	0.408329	2.87922	0.539999	3.79849	0.766098	5.39913	0.947051	6.6638
0.403048	2.82318	0.262498	1.83971	0.403117	2.82298	0.558951	3.92336	0.674725	4.73434	0.904276	6.35313	0.410439	2.87521	0.541435	3.78379	0.76696	5.36994	0.947864	6.62608
0.404891	2.8177	0.264533	1.84194	0.40496	2.8175	0.560308	3.90733	0.676087	4.71309	0.905111	6.31764	0.412549	2.87125	0.542877	3.76933	0.767828	5.34117	0.948681	6.58888
0.406753	2.81242	0.266568	1.84415	0.406823	2.81223	0.561671	3.89155	0.677455	4.69215	0.905951	6.28265	0.414659	2.86735	0.544326	3.75509	0.7687	5.31281	0.949502	6.55218
0.408636	2.80736	0.268603	1.84633	0.408706	2.80717	0.563038	3.87601	0.678829	4.67152	0.906796	6.24813	0.416769	2.86348	0.545781	3.74108	0.769577	5.28484	0.950328	6.51599
0.410539	2.80249	0.270638	1.84848	0.41061	2.80231	0.564411	3.8607	0.680208	4.65119	0.907646	6.2141	0.418878	2.85967	0.547242	3.7273	0.770459	5.25726	0.951159	6.48029
0.412461	2.79782	0.272674	1.85061	0.412533	2.79765	0.565789	3.84561	0.681593	4.63115	0.9085	6.18052	0.420987	2.8559	0.54871	3.71372	0.771346	5.23006	0.951993	6.44506
0.414402	2.79334	0.274709	1.8527	0.414475	2.79317	0.567172	3.83075	0.682983	4.6114	0.909359	6.1474	0.423096	2.85218	0.550183	3.70036	0.772238	5.20324	0.952832	6.41031
0.416363	2.78904	0.276744	1.85478	0.416436	2.78888	0.56856	3.81611	0.684378	4.59194	0.910223	6.11473	0.425204	2.8485	0.551663	3.68721	0.773135	5.17679	0.953676	6.37602
0.418342	2.78491	0.27878	1.85682	0.418416	2.78476	0.569953	3.80169	0.685778	4.57275	0.911091	6.08249	0.427312	2.84487	0.553149	3.67426	0.774037	5.15069	0.954524	6.34218
0.420339	2.78096	0.280815	1.85884	0.420414	2.78081	0.57135	3.78747	0.687184	4.55383	0.911964	6.05068	0.42942	2.84128	0.55464	3.66151	0.774944	5.12495	0.955376	6.30879
0.422353	2.77717	0.282851	1.86084	0.422429	2.77703	0.572753	3.77346	0.688596	4.53518	0.912842	6.0193	0.431527	2.83773	0.556138	3.64895	0.775856	5.09956	0.956233	6.27583
0.424385	2.77353	0.284886	1.86281	0.424461	2.7734	0.57416	3.75966	0.690012	4.51679	0.913724	5.98833	0.433634	2.83422	0.557642	3.63659	0.776773	5.07451	0.957093	6.24331
0.426433	2.77005	0.286921	1.86476	0.42651	2.76992	0.575572	3.74605	0.691434	4.49866	0.914612	5.95776	0.43574	2.83075	0.559152	3.62442	0.777694	5.0498	0.957959	6.2112
0.428497	2.76672	0.288956	1.86669	0.428575	2.76659	0.576989	3.73264	0.69286	4.48078	0.915503	5.9276	0.437846	2.82732	0.560668	3.61243	0.778621	5.02541	0.958828	6.17951
0.430577	2.76352	0.290992	1.86859	0.430655	2.7634	0.578411	3.71942	0.694292	4.46315	0.9164	5.89782	0.439952	2.82392	0.56219	3.60062	0.779552	5.00135	0.959702	6.14822
0.432672	2.76046	0.293027	1.87047	0.43275	2.76035	0.579837	3.70638	0.695729	4.44576	0.917301	5.86843	0.442057	2.82057	0.563718	3.58899	0.780489	4.9776	0.96058	6.11734
0.434781	2.75752	0.295062	1.87232	0.43486	2.75742	0.581268	3.69353	0.697171	4.42861	0.918206	5.83942	0.444161	2.81725	0.565251	3.57753	0.78143	4.95417	0.961462	6.08684
0.436904	2.75471	0.297097	1.87415	0.436984	2.75461	0.582704	3.68086	0.698617	4.41169	0.919116	5.81078	0.446265	2.81396	0.566791	3.56624	0.782376	4.93104	0.962349	6.05673
0.439041	2.75202	0.299132	1.87597	0.439121	2.75192	0.584144	3.66837	0.700069	4.395	0.920031	5.7825	0.448369	2.81071	0.568336	3.55513	0.783327	4.90821	0.96324	6.02699
0.44119	2.74943	0.301167	1.87776	0.441271	2.74934	0.585589	3.65605	0.701526	4.37853	0.920951	5.75458	0.450471	2.8075	0.569887	3.54417	0.784282	4.88568	0.964135	5.99763
0.443352	2.74696	0.303202	1.87953	0.443433	2.74687	0.587038	3.6439	0.702988	4.36229	0.921874	5.72701	0.452574	2.80431	0.571444	3.53338	0.785243	4.86343	0.965034	5.96863
0.445526	2.74458	0.305237	1.88128	0.445607	2.74449	0.588492	3.63192	0.704454	4.34626	0.922803	5.69979	0.454675	2.80116	0.573007	3.52275	0.786208	4.84147	0.965937	5.93999
0.447711	2.7423	0.307272	1.883	0.447793	2.74222	0.58995	3.62011	0.705925	4.33044	0.923736	5.67291	0.456776	2.79805	0.574575	3.51227	0.787178	4.81979	0.966845	5.9117
0.449907	2.74012	0.309306	1.88471	0.449989	2.74004	0.591412	3.60845	0.707401	4.31484	0.924674	5.64636	0.458877	2.79496	0.576149	3.50195	0.788153	4.79839	0.967757	5.88376
0.452114	2.73802	0.311341	1.8864	0.452196	2.73794	0.592879	3.59695	0.708882	4.29943	0.925616	5.62013	0.460976	2.79191	0.577728	3.49177	0.789133	4.77726	0.968673	5.85615
0.45433	2.736	0.313375	1.88807	0.454413	2.73593	0.59435	3.58561	0.710367	4.28423	0.926562	5.59424	0.463075	2.78888	0.579313	3.48175	0.790117	4.75639	0.969593	5.82888
0.456556	2.73407	0.31541	1.88972	0.45664	2.734	0.595826	3.57442	0.711857	4.26923	0.927513	5.56865	0.465173	2.78589	0.580904	3.47187	0.791106	4.73578	0.970517	5.80194
0.458792	2.73221	0.317444	1.89135	0.458875	2.73214	0.597306	3.56338	0.713351	4.25442	0.928469	5.54338	0.467271	2.78292	0.582501	3.46213	0.7921	4.71543	0.971445	5.77532
0.461036	2.73042	0.319478	1.89296	0.461119	2.73036	0.59879	3.55249	0.714851	4.2398	0.929429	5.51842	0.469368	2.77998	0.584102	3.45253	0.793099	4.69533	0.972378	5.74902
0.463288	2.72871	0.321512	1.89455	0.463372	2.72864	0.600278	3.54174	0.716354	4.22537	0.930393	5.49375	0.471464	2.77707	0.58571	3.44307	0.794102	4.67548	0.973314	5.72303
0.465548	2.72705	0.323546	1.89613	0.465632	2.72699	0.60177	3.53114	0.717862	4.21113	0.931362	5.46938	0.473559	2.77419	0.587323	3.43375	0.79511	4.65588	0.974255	5.69735
0.467816	2.72546	0.32558	1.89768	0.467901	2.72541	0.603267	3.52067	0.719375	4.19706	0.932335	5.44531	0.475654	2.77133	0.588941	3.42455	0.796123	4.63651	0.9752	5.67197
0.470091	2.72393	0.327613	1.89922	0.470176	2.72388	0.604768	3.51034	0.720892	4.18317	0.933313	5.42152	0.477747	2.7685	0.590565	3.41549	0.79714	4.61738	0.976148	5.64689
0.472373	2.72246	0.329647	1.90074	0.472458	2.7224	0.606272	3.50015	0.722413	4.16946	0.934295	5.39801	0.47984	2.7657	0.592194	3.40656	0.798162	4.59849	0.977101	5.6221
0.474662	2.72104	0.33168	1.90225	0.474747	2.72099	0.607781	3.49009	0.723939	4.15592	0.935282	5.37477	0.481932	2.76292	0.593828	3.39775	0.799189	4.57982	0.978058	5.5976
0.476957	2.71967	0.333713	1.90374	0.477042	2.71962	0.609294	3.48016	0.725469	4.14254	0.936273	5.35181	0.484023	2.76017	0.595468	3.38906	0.80022	4.56138	0.979018	5.57338
0.479258	2.71835	0.335746	1.90521	0.479343	2.7183	0.610811	3.47035	0.727004	4.12934	0.937268	5.32912	0.486114	2.75744	0.597113	3.3805	0.801256	4.54315	0.979983	5.54944
0.481564	2.71707	0.337779	1.90666	0.48165	2.71703	0.612332	3.46067	0.728542	4.11629	0.938268	5.3067	0.488203	2.75473	0.598763	3.37206	0.802297	4.52515	0.980952	5.52577
0.483876	2.71584	0.339812	1.9081	0.483963	2.7158	0.613857	3.45112	0.730085	4.10341	0.939272	5.28453	0.490292	2.75205	0.600419	3.36373	0.803342	4.50736	0.981925	5.50237
0.486194	2.71465	0.341845	1.90953	0.48628	2.71461	0.615386	3.44169	0.731632	4.09068	0.940281	5.26262	0.492379	2.74939	0.60208	3.35552	0.804392	4.48978	0.982901	5.47924
0.488516	2.7135	0.343877	1.91093	0.488603	2.71346	0.616919	3.43237	0.733184	4.07811	0.941294	5.24096	0.494466	2.74675	0.603746	3.34743	0.805447	4.47241	0.983882	5.45636
0.490843	2.71239	0.345909	1.91233	0.49093	2.71235	0.618455	3.42318	0.734739	4.06569	0.942311	5.21954	0.496552	2.74413	0.605417	3.33944	0.806506	4.45524	0.984866	5.43375
0.493175	2.71132	0.347941	1.9137	0.493262	2.71128	0.619996	3.4141	0.736298	4.05343	0.943332	5.19837	0.498637	2.74154	0.607094	3.33157	0.807569	4.43827	0.985855	5.41138
0.495511	2.71028	0.349973	1.91506	0.495598	2.71024	0.62154	3.40513	0.737862	4.0413	0.944358	5.17744	0.50072	2.73896	0.608775	3.3238	0.808637	4.4215	0.986847	5.38927
0.497851	2.70927	0.352005	1.91641	0.497939	2.70923	0.623088	3.39628	0.739429	4.02933	0.945388	5.15675	0.502803	2.73641	0.610462	3.31614	0.80971	4.40492	0.987843	5.3674
0.500195	2.7083	0.354036	1.91774	0.500283	2.70826	0.624639	3.38753	0.741001	4.0175	0.946422	5.13629	0.504885	2.73388	0.612154	3.30859	0.810787	4.38854	0.988843	5.34577
0.502543	2.70735	0.356068	1.91906	0.502631	2.70732	0.626195	3.37889	0.742576	4.0058	0.947461	5.11606	0.506966	2.73137	0.613851	3.30114	0.811869	4.37235	0.989847	5.32438
0.504895	2.70643	0.358099	1.92037	0.504982	2.7064	0.627754	3.37036	0.744156	3.99425	0.948504	5.09605	0.509046	2.72888	0.615552	3.29378	0.812955	4.35634	0.990855	5.30323
0.50725	2.70555	0.36013	1.92166	0.507338	2.70551	0.629317	3.36194	0.745739	3.98283	0.949551	5.07627	0.511125	2.7264	0.617259	3.28653	0.814046	4.34051	0.991867	5.2823
0.509608	2.70468	0.36216	1.92293	0.509696	2.70465	0.630884	3.35361	0.747326	3.97154	0.950602	5.0567	0.513203	2.72395	0.618971	3.27938	0.815142	4.32487	0.992882	5.2616
0.511969	2.70385	0.364191	1.92419	0.512057	2.70381	0.632454	3.34539	0.748917	3.96039	0.951658	5.03735	0.515279	2.72151	0.620688	3.27232	0.816241	4.3094	0.993902	5.24112
0.514334	2.70303	0.366221	1.92544	0.514422	2.703	0.634028	3.33727	0.750512	3.94936	0.952718	5.01821	0.517355	2.7191	0.622409	3.26536	0.817345	4.29411	0.994925	5.22087
0.516701	2.70224	0.368251	1.92668	0.516789	2.70221	0.635605	3.32925	0.75211	3.93846	0.953782	4.99928	0.51943	2.7167	0.624136	3.25849	0.818454	4.27899	0.995952	5.20083
0.519071	2.70147	0.370281	1.9279	0.519159	2.70144	0.637186	3.32132	0.753712	3.92769	0.95485	4.98056	0.521503	2.71431	0.625867	3.25171	0.819567	4.26404	0.996982	5.181
0.521443	2.70072	0.372311	1.92911	0.521532	2.7007	0.63877	3.31349	0.755318	3.91704	0.955922	4.96203	0.523576	2.71195	0.627604	3.24502	0.820685	4.24925	0.998017	5.16139
0.523818	2.7	0.37434	1.93031	0.523907	2.69997	0.640358	3.30575	0.756928	3.90652	0.956999	4.94371	0.525647	2.7096	0.629345	3.23843	0.821807	4.23464	0.999055	5.14198
0.526196	2.69929	0.37637	1.93149	0.526284	2.69926	0.64195	3.2981	0.758541	3.89611	0.958079	4.92559	0.527717	2.70727	0.631091	3.23192	0.822933	4.22018	1.0001	5.12278
0.528575	2.6986	0.378399	1.93267	0.528664	2.69857	0.643545	3.29054	0.760158	3.88582	0.959164	4.90766	0.529786	2.70496	0.632841	3.22549	0.824064	4.20588		
0.530957	2.69792	0.380428	1.93383	0.531046	2.6979	0.645143	3.28308	0.761779	3.87564	0.960253	4.88992	0.531854	2.70266	0.634597	3.21915	0.825199	4.19174		
0.533341	2.69727	0.382456	1.93497	0.53343	2.69724	0.646745	3.2757	0.763403	3.86558	0.961346	4.87237	0.533921	2.70038	0.636357	3.21289	0.826339	4.17776		
0.535727	2.69663	0.384485	1.93611	0.535816	2.6966	0.64835	3.2684	0.76503	3.85563	0.962443	4.855	0.535987	2.69811	0.638122	3.20672	0.827483	4.16393		
0.538115	2.696	0.386513	1.93723	0.538204	2.69598	0.649959	3.2612	0.766661	3.84579	0.963545	4.83782	0.538052	2.69586	0.639891	3.20063	0.828631	4.15025		
0.540504	2.69539	0.388541	1.93835	0.540593	2.69537	0.651571	3.25407	0.768296	3.83607	0.96465	4.82082	0.540115	2.69363	0.641665	3.19461	0.829784	4.13672		
0.542896	2.6948	0.390569	1.93945	0.542985	2.69478	0.653186	3.24703	0.769934	3.82644	0.965759	4.804	0.542177	2.6914	0.643444	3.18868	0.830941	4.12334		
0.545289	2.69422	0.392596	1.94054	0.545378	2.6942	0.654805	3.24007	0.771575	3.81693	0.966873	4.78735	0.544238	2.6892	0.645227	3.18282	0.832102	4.1101		
0.547683	2.69365	0.394623	1.94162	0.547772	2.69363	0.656427	3.23319	0.77322	3.80751	0.967991	4.77087	0.546298	2.68701	0.647015	3.17704	0.833268	4.097		
0.550079	2.69309	0.39665	1.94268	0.550169	2.69307	0.658052	3.22639	0.774868	3.7982	0.969112	4.75457	0.548357	2.68483	0.648807	3.17133	0.834438	4.08404		
0.552477	2.69255	0.398677	1.94374	0.552566	2.69253	0.659681	3.21967	0.77652	3.789	0.970238	4.73843	0.550414	2.68266	0.650604	3.16569	0.835612	4.07123		
0.554876	2.69201	0.400704	1.94479	0.554965	2.69199	0.661313	3.21302	0.778174	3.77989	0.971368	4.72246	0.552471	2.68051	0.652405	3.16013	0.836791	4.05854		
0.557276	2.69149	0.40273	1.94582	0.557365	2.69147	0.662948	3.20645	0.779832	3.77087	0.972501	4.70666	0.554526	2.67838	0.654211	3.15464	0.837973	4.046		
0.559677	2.69098	0.404756	1.94685	0.559767	2.69096	0.664586	3.19995	0.781494	3.76196	0.973639	4.69101	0.556579	2.67625	0.656021	3.14922	0.83916	4.03358		
0.56208	2.69048	0.406782	1.94786	0.562169	2.69046	0.666227	3.19353	0.783158	3.75314	0.974781	4.67552	0.558632	2.67414	0.657836	3.14387	0.840352	4.0213		
0.564483	2.68999	0.408807	1.94887	0.564573	2.68997	0.667872	3.18718	0.784826	3.74441	0.975927	4.66019	0.560684	2.67205	0.659655	3.13859	0.841547	4.00915		
0.566888	2.68951	0.410833	1.94986	0.566978	2.68949	0.66952	3.1809	0.786497	3.73578	0.977076	4.64502	0.562734	2.66996	0.661478	3.13338	0.842747	3.99712		
0.569294	2.68904	0.412858	1.95085	0.569383	2.68902	0.67117	3.17469	0.788171	3.72723	0.97823	4.62999	0.564783	2.66789	0.663305	3.12823	0.843951	3.98522		
0.5717	2.68857	0.414883	1.95182	0.57179	2.68855	0.672824	3.16855	0.789848	3.71878	0.979387	4.61512	0.566831	2.66583	0.665137	3.12314	0.845159	3.97345		
0.574108	2.68812	0.416907	1.95279	0.574198	2.6881	0.674482	3.16248	0.791528	3.71041	0.980549	4.6004	0.568877	2.66379	0.666973	3.11812	0.846372	3.96179		
0.576516	2.68767	0.418932	1.95375	0.576606	2.68765	0.676142	3.15647	0.793211	3.70214	0.981715	4.58582	0.570922	2.66175	0.668814	3.11317	0.847588	3.95026		
0.578926	2.68723	0.420956	1.95469	0.579015	2.68721	0.677805	3.15054	0.794897	3.69394	0.982884	4.57139	0.572967	2.65973	0.670658	3.10827	0.848809	3.93885		
0.581336	2.68679	0.42298	1.95563	0.581425	2.68678	0.679471	3.14466	0.796587	3.68583	0.984057	4.5571	0.575009	2.65772	0.672507	3.10344	0.850034	3.92755		
0.583746	2.68637	0.425003	1.95656	0.583836	2.68635	0.681141	3.13885	0.798279	3.67781	0.985234	4.54295	0.577051	2.65572	0.67436	3.09867	0.851263	3.91637		
0.586158	2.68595	0.427027	1.95748	0.586248	2.68593	0.682813	3.13311	0.799974	3.66987	0.986416	4.52894	0.579091	2.65373	0.676217	3.09395	0.852497	3.9053		
0.58857	2.68554	0.42905	1.95839	0.58866	2.68552	0.684489	3.12743	0.801672	3.662	0.987601	4.51506	0.58113	2.65175	0.678078	3.0893	0.853734	3.89435		
0.590982	2.68513	0.431073	1.95929	0.591072	2.68512	0.686167	3.12181	0.803373	3.65422	0.988789	4.50132	0.583168	2.64978	0.679943	3.0847	0.854976	3.88351		
0.593396	2.68473	0.433095	1.96018	0.593485	2.68471	0.687848	3.11625	0.805077	3.64652	0.989982	4.48772	0.585205	2.64783	0.681812	3.08016	0.856221	3.87278		
0.595809	2.68434	0.435117	1.96106	0.595899	2.68432	0.689533	3.11075	0.806784	3.63889	0.991179	4.47425	0.58724	2.64588	0.683685	3.07568	0.857471	3.86215		
0.598224	2.68395	0.43714	1.96194	0.598314	2.68393	0.69122	3.10531	0.808493	3.63134	0.992379	4.4609	0.589275	2.64395	0.685562	3.07125	0.858725	3.85164		
0.600638	2.68356	0.439161	1.9628	0.600728	2.68355	0.692911	3.09993	0.810206	3.62387	0.993583	4.44769	0.591307	2.64203	0.687443	3.06688	0.859983	3.84123		
0.603053	2.68318	0.441183	1.96366	0.603143	2.68317	0.694604	3.0946	0.811921	3.61647	0.994791	4.4346	0.593339	2.64011	0.689328	3.06256	0.861245	3.83092		
0.605469	2.68281	0.443204	1.96451	0.605559	2.68279	0.6963	3.08934	0.813639	3.60914	0.996003	4.42164	0.59537	2.63821	0.691217	3.05829	0.862511	3.82072		
0.607885	2.68244	0.445225	1.96535	0.607975	2.68243	0.697999	3.08413	0.815359	3.60189	0.997219	4.4088	0.597399	2.63632	0.693109	3.05407	0.863781	3.81062		
0.610301	2.68207	0.447246	1.96619	0.610391	2.68206	0.699701	3.07897	0.817083	3.59471	0.998438	4.39608	0.599427	2.63444	0.695006	3.04991	0.865055	3.80062		
0.612717	2.68171	0.449266	1.96701	0.612807	2.6817	0.701406	3.07387	0.818809	3.5876	0.999661	4.38349	0.601453	2.63256	0.696906	3.04579	0.866333	3.79072		
0.615134	2.68136	0.451287	1.96783	0.615224	2.68134	0.703114	3.06882	0.820537	3.58056	1.00089	4.37101	0.603479	2.6307	0.69881	3.04173	0.867616	3.78092		
0.61755	2.681	0.453307	1.96864	0.61764	2.68099	0.704824	3.06383	0.822269	3.57358			0.605503	2.62885	0.700718	3.03772	0.868902	3.77121		
0.619967	2.68065	0.455326	1.96944	0.620057	2.68064	0.706538	3.05889	0.824002	3.56667			0.607526	2.62701	0.702629	3.03375	0.870192	3.7616		
0.622385	2.68031	0.457346	1.97024	0.622475	2.68029	0.708254	3.054	0.825739	3.55983			0.609548	2.62517	0.704544	3.02983	0.871486	3.75208		
0.624802	2.67996	0.459365	1.97102	0.624892	2.67995	0.709974	3.04917	0.827478	3.55306			0.611569	2.62335	0.706463	3.02596	0.872785	3.74266		
0.627219	2.67962	0.461384	1.9718	0.627309	2.67961	0.711696	3.04438	0.82922	3.54635			0.613588	2.62153	0.708386	3.02213	0.874087	3.73333		
0.629637	2.67929	0.463402	1.97258	0.629727	2.67927	0.713421	3.03965	0.830964	3.53971			0.615607	2.61973	0.710312	3.01835	0.875393	3.72409		
0.632054	2.67895	0.46542	1.97334	0.632144	2.67894	0.715148	3.03496	0.832711	3.53312			0.617624	2.61793	0.712241	3.01461	0.876703	3.71494		
0.634472	2.67862	0.467439	1.9741	0.634562	2.67861	0.716879	3.03032	0.83446	3.52661			0.619639	2.61615	0.714174	3.01092	0.878017	3.70587		
0.636889	2.67829	0.469456	1.97485	0.636979	2.67828	0.718612	3.02573	0.836211	3.52015			0.621654	2.61437	0.716111	3.00727	0.879335	3.6969		
0.639306	2.67797	0.471474	1.97559	0.639396	2.67795	0.720349	3.02119	0.837965	3.51375			0.623668	2.6126	0.718051	3.00367	0.880657	3.68801		
0.641724	2.67764	0.473491	1.97633	0.641814	2.67763	0.722088	3.0167	0.839722	3.50741			0.62568	2.61084	0.719994	3.0001	0.881983	3.67921		
0.644141	2.67732	0.475508	1.97706	0.644231	2.67731	0.723829	3.01225	0.84148	3.50113			0.627691	2.60909	0.721941	2.99658	0.883313	3.67049		
0.646558	2.677	0.477525	1.97779	0.646648	2.67699	0.725574	3.00785	0.843242	3.49491			0.629701	2.60734	0.723891	2.9931	0.884647	3.66185		
0.648975	2.67668	0.479541	1.9785	0.649065	2.67667	0.727321	3.00349	0.845005	3.48875			0.63171	2.60561	0.725844	2.98966	0.885984	3.6533		
0.651391	2.67636	0.481557	1.97921	0.651482	2.67635	0.729072	2.99918	0.846771	3.48264			0.633717	2.60388	0.727801	2.98626	0.887326	3.64483		
0.653808	2.67605	0.483573	1.97992	0.653898	2.67604	0.730825	2.99491	0.848539	3.47659			0.635724	2.60217	0.729761	2.9829	0.888671	3.63644		
0.656224	2.67573	0.485589	1.98061	0.656314	2.67572	0.73258	2.99069	0.85031	3.4706			0.637729	2.60046	0.731724	2.97958	0.89002	3.62813		
0.65864	2.67542	0.487604	1.9813	0.65873	2.67541	0.734339	2.98651	0.852082	3.46466			0.639733	2.59876	0.733691	2.97629	0.891374	3.6199		
0.661056	2.67511	0.489619	1.98199	0.661146	2.6751	0.7361	2.98237	0.853857	3.45877			0.641736	2.59706	0.73566	2.97305	0.89273	3.61174		
0.663471	2.6748	0.491634	1.98267	0.663561	2.67479	0.737864	2.97827	0.855634	3.45294			0.643738	2.59538	0.737633	2.96984	0.894091	3.60366		
0.665886	2.67449	0.493648	1.98334	0.665976	2.67448	0.739631	2.97422	0.857414	3.44716			0.645739	2.5937	0.739609	2.96666	0.895456	3.59566		
0.6683	2.67418	0.495662	1.984	0.66839	2.67417	0.741401	2.97021	0.859195	3.44143			0.647739	2.59204	0.741588	2.96353	0.896824	3.58773		
0.670715	2.67387	0.497676	1.98466	0.670805	2.67386	0.743174	2.96624	0.860979	3.43576			0.649738	2.59038	0.74357	2.96042	0.898197	3.57988		
0.673128	2.67356	0.49969	1.98532	0.673218	2.67355	0.744949	2.96231	0.862765	3.43013			0.651735	2.58873	0.745555	2.95736	0.899573	3.5721		
0.675541	2.67325	0.501703	1.98596	0.675631	2.67324	0.746727	2.95842	0.864553	3.42455			0.653732	2.58708	0.747543	2.95432	0.900953	3.56439		
0.677954	2.67295	0.503716	1.98661	0.678044	2.67293	0.748508	2.95457	0.866343	3.41902			0.655727	2.58545	0.749534	2.95133	0.902336	3.55676		
0.680366	2.67264	0.505729	1.98724	0.680456	2.67263	0.750292	2.95076	0.868135	3.41355			0.657722	2.58382	0.751527	2.94836	0.903724	3.54919		
0.682778	2.67233	0.507742	1.98787	0.682868	2.67232	0.752078	2.94698	0.869929	3.40812			0.659715	2.5822	0.753524	2.94543	0.905115	3.54169		
0.685189	2.67202	0.509754	1.9885	0.685279	2.67201	0.753867	2.94325	0.871725	3.40273			0.661708	2.58058	0.755524	2.94253	0.90651	3.53427		
0.687599	2.67172	0.511766	1.98912	0.687689	2.67171	0.755659	2.93955	0.873524	3.3974			0.663699	2.57898	0.757526	2.93966	0.907908	3.52691		
0.690009	2.67141	0.513778	1.98973	0.690099	2.6714	0.757454	2.9359	0.875324	3.39211			0.665689	2.57738	0.759531	2.93682	0.909311	3.51962		
0.692418	2.6711	0.515789	1.99034	0.692508	2.67109	0.759252	2.93228	0.877126	3.38686			0.667679	2.57579	0.761539	2.93402	0.910717	3.5124		
0.694826	2.67079	0.5178	1.99094	0.694916	2.67078	0.761053	2.92869	0.87893	3.38166			0.669667	2.57421	0.76355	2.93124	0.912127	3.50524		
0.697234	2.67048	0.519811	1.99154	0.697324	2.67047	0.762856	2.92514	0.880737	3.37651			0.671654	2.57264	0.765563	2.92849	0.913541	3.49815		
0.699641	2.67017	0.521822	1.99213	0.69973	2.67016	0.764663	2.92163	0.882545	3.3714			0.673641	2.57107	0.767579	2.92578	0.914958	3.49112		
0.702047	2.66986	0.523832	1.99272	0.702136	2.66985	0.766472	2.91816	0.884355	3.36633			0.675626	2.56951	0.769597	2.92309	0.916379	3.48415		
0.704452	2.66955	0.525842	1.9933	0.704541	2.66954	0.768284	2.91472	0.886167	3.36131			0.67761	2.56796	0.771618	2.92043	0.917804	3.47725		
0.706856	2.66924	0.527852	1.99388	0.706945	2.66922	0.770099	2.91131	0.88798	3.35632			0.679594	2.56641	0.773642	2.9178	0.919233	3.47042		
0.709259	2.66892	0.529861	1.99445	0.709349	2.66891	0.771917	2.90794	0.889796	3.35139			0.681576	2.56488	0.775668	2.9152	0.920665	3.46364		
0.711662	2.66861	0.53187	1.99501	0.711751	2.66859	0.773737	2.90461	0.891613	3.34649			0.683558	2.56335	0.777697	2.91263	0.922101	3.45693		
0.714063	2.66829	0.533879	1.99557	0.714152	2.66828	0.775561	2.90131	0.893433	3.34163			0.685539	2.56182	0.779728	2.91008	0.92354	3.45027		
0.716463	2.66797	0.535888	1.99613	0.716553	2.66796	0.777388	2.89804	0.895254	3.33681			0.687519	2.56031	0.781762	2.90756	0.924983	3.44368		
0.718863	2.66765	0.537896	1.99668	0.718952	2.66764	0.779218	2.8948	0.897077	3.33204			0.689498	2.5588	0.783798	2.90506	0.92643	3.43714		
0.721261	2.66733	0.539904	1.99723	0.72135	2.66731	0.78105	2.8916	0.898901	3.3273			0.691476	2.5573	0.785836	2.9026	0.927881	3.43066		
0.723658	2.667	0.541912	1.99777	0.723747	2.66699	0.782886	2.88844	0.900728	3.3226			0.693453	2.5558	0.787876	2.90015	0.929335	3.42424		
0.726054	2.66667	0.543919	1.99831	0.726143	2.66666	0.784725	2.8853	0.902556	3.31794			0.695429	2.55432	0.789919	2.89773	0.930793	3.41788		
0.728448	2.66634	0.545927	1.99884	0.728538	2.66633	0.786566	2.8822	0.904385	3.31332			0.697405	2.55284	0.791965	2.89534	0.932254	3.41158		
0.730842	2.66601	0.547934	1.99937	0.730931	2.666	0.788411	2.87913	0.906217	3.30874			0.699379	2.55136	0.794012	2.89297	0.933719	3.40533		
0.733234	2.66568	0.54994	1.99989	0.733323	2.66567	0.790259	2.8761	0.90805	3.30419			0.701353	2.5499	0.796061	2.89063	0.935188	3.39913		
0.735625	2.66534	0.551947	2.00041	0.735714	2.66533	0.79211	2.87309	0.909885	3.29968			0.703326	2.54844	0.798113	2.88831	0.93666	3.39299		
0.738014	2.665	0.553953	2.00092	0.738103	2.66499	0.793965	2.87012	0.911721	3.2952			0.705299	2.54699	0.800167	2.88601	0.938136	3.38691		
0.740402	2.66466	0.555958	2.00143	0.740491	2.66465	0.795822	2.86717	0.91356	3.29077			0.70727	2.54554	0.802223	2.88373	0.939615	3.38088		
0.742788	2.66432	0.557964	2.00194	0.742877	2.6643	0.797683	2.86426	0.915399	3.28636			0.709241	2.5441	0.804281	2.88148	0.941098	3.3749		
0.745173	2.66397	0.559969	2.00244	0.745262	2.66396	0.799546	2.86138	0.917241	3.282			0.711211	2.54267	0.806341	2.87925	0.942585	3.36898		
0.747557	2.66362	0.561974	2.00294	0.747645	2.6636	0.801413	2.85853	0.919084	3.27766			0.71318	2.54125	0.808403	2.87704	0.944075	3.3631		
0.749938	2.66326	0.563979	2.00343	0.750027	2.66325	0.803284	2.85571	0.920928	3.27337			0.715148	2.53983	0.810467	2.87485	0.945569	3.35728		
0.752318	2.6629	0.565983	2.00392	0.752407	2.66289	0.805157	2.85293	0.922774	3.2691			0.717116	2.53842	0.812533	2.87269	0.947066	3.35151		
0.754697	2.66254	0.567987	2.0044	0.754785	2.66253	0.807034	2.85017	0.924622	3.26487			0.719083	2.53701	0.814601	2.87054	0.948567	3.34579		
0.757073	2.66218	0.569991	2.00488	0.757162	2.66216	0.808915	2.84744	0.926471	3.26067			0.721049	2.53562	0.81667	2.86842	0.950072	3.34012		
0.759448	2.66181	0.571995	2.00535	0.759537	2.66179	0.810799	2.84474	0.928321	3.25651			0.723015	2.53423	0.818742	2.86631	0.95158	3.3345		
0.761821	2.66143	0.573998	2.00583	0.761909	2.66142	0.812686	2.84207	0.930173	3.25237			0.72498	2.53284	0.820815	2.86423	0.953092	3.32893		
0.764192	2.66105	0.576001	2.00629	0.76428	2.66104	0.814577	2.83943	0.932027	3.24827			0.726944	2.53146	0.82289	2.86217	0.954607	3.32341		
0.766561	2.66067	0.578004	2.00676	0.766649	2.66066	0.816471	2.83682	0.933882	3.2442			0.728908	2.53009	0.824967	2.86012	0.956125	3.31793		
0.768928	2.66028	0.580006	2.00722	0.769016	2.66027	0.818369	2.83424	0.935738	3.24017			0.730871	2.52873	0.827046	2.8581	0.957647	3.3125		
0.771293	2.65989	0.582009	2.00767	0.771381	2.65988	0.820271	2.83169	0.937596	3.23616			0.732833	2.52737	0.829126	2.85609	0.959173	3.30712		
0.773655	2.65949	0.58401	2.00812	0.773743	2.65948	0.822176	2.82917	0.939455	3.23218			0.734795	2.52602	0.831208	2.8541	0.960702	3.30179		
0.776016	2.65909	0.586012	2.00857	0.776104	2.65908	0.824085	2.82668	0.941316	3.22824			0.736756	2.52468	0.833291	2.85213	0.962235	3.2965		
0.778374	2.65868	0.588013	2.00902	0.778462	2.65867	0.825998	2.82421	0.943178	3.22432			0.738716	2.52334	0.835376	2.85018	0.963771	3.29126		
0.78073	2.65827	0.590015	2.00946	0.780817	2.65825	0.827914	2.82177	0.945041	3.22043			0.740676	2.52201	0.837463	2.84824	0.965311	3.28606		
0.783083	2.65785	0.592015	2.00989	0.783171	2.65784	0.829835	2.81937	0.946906	3.21657			0.742636	2.52068	0.839551	2.84633	0.966854	3.28091		
0.785434	2.65743	0.594016	2.01033	0.785522	2.65741	0.831759	2.81699	0.948772	3.21274			0.744594	2.51936	0.841641	2.84443	0.968401	3.2758		
0.787782	2.657	0.596016	2.01075	0.78787	2.65698	0.833687	2.81464	0.95064	3.20894			0.746553	2.51805	0.843732	2.84254	0.969951	3.27074		
0.790128	2.65656	0.598016	2.01118	0.790216	2.65655	0.83562	2.81231	0.952508	3.20517			0.74851	2.51674	0.845825	2.84068	0.971505	3.26572		
0.792472	2.65612	0.600016	2.0116	0.792559	2.6561	0.837556	2.81002	0.954378	3.20143			0.750467	2.51544	0.847918	2.83882	0.973062	3.26074		
0.794812	2.65567	0.602015	2.01202	0.794899	2.65565	0.839496	2.80775	0.95625	3.19771			0.752424	2.51415	0.850014	2.83699	0.974623	3.2558		
0.79715	2.65522	0.604014	2.01244	0.797237	2.6552	0.841441	2.80551	0.958122	3.19402			0.75438	2.51286	0.85211	2.83517	0.976187	3.25091		
0.799484	2.65475	0.606013	2.01285	0.799571	2.65474	0.84339	2.8033	0.959996	3.19036			0.756336	2.51158	0.854208	2.83337	0.977754	3.24606		
0.801816	2.65428	0.608012	2.01325	0.801903	2.65427	0.845343	2.80112	0.961871	3.18672			0.758291	2.51031	0.856308	2.83158	0.979325	3.24125		
0.804145	2.65381	0.61001	2.01366	0.804231	2.65379	0.8473	2.79897	0.963747	3.18311			0.760245	2.50904	0.858408	2.82981	0.9809	3.23648		
0.806471	2.65333	0.612008	2.01406	0.806557	2.65331	0.849262	2.79684	0.965625	3.17953			0.762199	2.50778	0.86051	2.82805	0.982478	3.23175		
0.808793	2.65284	0.614006	2.01446	0.80888	2.65282	0.851228	2.79474	0.967503	3.17597			0.764153	2.50652	0.862613	2.82631	0.984059	3.22706		
0.811112	2.65234	0.616003	2.01485	0.811199	2.65232	0.853199	2.79267	0.969383	3.17244			0.766106	2.50527	0.864717	2.82458	0.985644	3.22241		
0.813428	2.65183	0.618001	2.01524	0.813515	2.65181	0.855174	2.79062	0.971264	3.16893			0.768059	2.50403	0.866822	2.82286	0.987232	3.2178		
0.815741	2.65132	0.619997	2.01563	0.815827	2.6513	0.857154	2.78861	0.973146	3.16545			0.770011	2.50279	0.868928	2.82116	0.988824	3.21323		
0.81805	2.6508	0.621994	2.01602	0.818136	2.65078	0.859139	2.78662	0.975029	3.162			0.771963	2.50156	0.871035	2.81948	0.990419	3.2087		
0.820356	2.65027	0.623991	2.0164	0.820442	2.65025	0.861129	2.78465	0.976914	3.15856			0.773915	2.50034	0.873144	2.8178	0.992018	3.20421		
0.822658	2.64973	0.625987	2.01678	0.822744	2.64971	0.863123	2.78272	0.978799	3.15515			0.775866	2.49912	0.875253	2.81614	0.99362	3.19976		
0.824956	2.64918	0.627982	2.01715	0.825042	2.64916	0.865122	2.78081	0.980686	3.15177			0.777817	2.4979	0.877363	2.8145	0.995225	3.19534		
0.827251	2.64863	0.629978	2.01752	0.827337	2.6486	0.867126	2.77893	0.982574	3.14841			0.779767	2.4967	0.879475	2.81286	0.996834	3.19096		
0.829542	2.64806	0.631973	2.01789	0.829627	2.64804	0.869135	2.77708	0.984463	3.14507			0.781717	2.4955	0.881587	2.81124	0.998446	3.18662		
0.831829	2.64749	0.633968	2.01826	0.831914	2.64747	0.871149	2.77525	0.986352	3.14176			0.783666	2.4943	0.8837	2.80963	1.00006	3.18231		
0.834112	2.64691	0.635963	2.01862	0.834197	2.64688	0.873168	2.77345	0.988243	3.13847			0.785616	2.49311	0.885814	2.80804				
0.836391	2.64631	0.637958	2.01898	0.836476	2.64629	0.875193	2.77168	0.990135	3.1352			0.787565	2.49193	0.887929	2.80645				
0.838666	2.64571	0.639952	2.01934	0.838751	2.64569	0.877222	2.76993	0.992028	3.13195			0.789513	2.49075	0.890045	2.80488				
0.840937	2.6451	0.641946	2.01969	0.841022	2.64508	0.879257	2.76821	0.993922	3.12873			0.791461	2.48958	0.892161	2.80332				
0.843204	2.64448	0.64394	2.02005	0.843288	2.64446	0.881297	2.76652	0.995817	3.12553			0.793409	2.48842	0.894278	2.80177				
0.845466	2.64385	0.645933	2.02039	0.845551	2.64383	0.883343	2.76486	0.997713	3.12235			0.795357	2.48726	0.896396	2.80023				
0.847725	2.64321	0.647926	2.02074	0.847809	2.64319	0.885394	2.76322	0.99961	3.11919			0.797304	2.4861	0.898515	2.7987				
0.849978	2.64256	0.649919	2.02108	0.850062	2.64254	0.88745	2.76161	1.00151	3.11605			0.799251	2.48495	0.900634	2.79718				
0.852228	2.6419	0.651912	2.02142	0.852311	2.64188	0.889512	2.76002					0.801198	2.48381	0.902754	2.79568				
0.854472	2.64123	0.653904	2.02176	0.854556	2.64121	0.891579	2.75846					0.803145	2.48267	0.904874	2.79418				
0.856713	2.64055	0.655896	2.02209	0.856796	2.64053	0.893652	2.75693					0.805091	2.48154	0.906996	2.7927				
0.858948	2.63986	0.657888	2.02242	0.859032	2.63984	0.895731	2.75542					0.807037	2.48042	0.909117	2.79122				
0.86118	2.63916	0.659879	2.02275	0.861263	2.63914	0.897815	2.75394					0.808983	2.4793	0.911239	2.78976				
0.863406	2.63845	0.661871	2.02308	0.863489	2.63843	0.899905	2.75248					0.810928	2.47819	0.913362	2.7883				
0.865628	2.63773	0.663862	2.0234	0.865711	2.63771	0.902001	2.75105					0.812873	2.47708	0.915485	2.78686				
0.867845	2.637	0.665853	2.02372	0.867928	2.63698	0.904102	2.74965					0.814818	2.47598	0.917609	2.78542				
0.870057	2.63626	0.667843	2.02404	0.87014	2.63623	0.906209	2.74827					0.816763	2.47488	0.919733	2.784				
0.872265	2.63551	0.669833	2.02436	0.872347	2.63548	0.908322	2.74692					0.818708	2.47379	0.921857	2.78258				
0.874468	2.63475	0.671823	2.02467	0.87455	2.63472	0.910441	2.74559					0.820652	2.4727	0.923982	2.78117				
0.876666	2.63398	0.673813	2.02498	0.876748	2.63395	0.912565	2.74428					0.822597	2.47162	0.926107	2.77977				
0.878859	2.6332	0.675802	2.02529	0.878941	2.63317	0.914695	2.743					0.824541	2.47055	0.928233	2.77838				
0.881048	2.63241	0.677792	2.02559	0.881129	2.63238	0.916831	2.74175					0.826485	2.46948	0.930359	2.777				
0.883231	2.6316	0.679781	2.0259	0.883312	2.63157	0.918973	2.74052					0.828428	2.46841	0.932485	2.77563				
0.88541	2.63079	0.681769	2.0262	0.885491	2.63076	0.92112	2.73931					0.830372	2.46735	0.934611	2.77427				
0.887584	2.62997	0.683758	2.0265	0.887665	2.62994	0.923274	2.73813					0.832315	2.4663	0.936737	2.77291				
0.889753	2.62914	0.685746	2.02679	0.889834	2.62911	0.925432	2.73697					0.834259	2.46525	0.938864	2.77156				
0.891918	2.6283	0.687734	2.02709	0.891998	2.62827	0.927597	2.73583					0.836202	2.46421	0.940991	2.77022				
0.894077	2.62745	0.689721	2.02738	0.894158	2.62742	0.929767	2.73472					0.838145	2.46317	0.943118	2.76889				
0.896232	2.62659	0.691709	2.02766	0.896313	2.62656	0.931943	2.73362					0.840088	2.46214	0.945245	2.76756				
0.898383	2.62573	0.693696	2.02795	0.898463	2.62569	0.934124	2.73255					0.84203	2.46112	0.947372	2.76624				
0.900528	2.62485	0.695682	2.02824	0.900608	2.62482	0.936311	2.73151					0.843973	2.46009	0.949499	2.76493				
0.902669	2.62396	0.697669	2.02852	0.902749	2.62393	0.938504	2.73048					0.845915	2.45908	0.951627	2.76363				
0.904806	2.62307	0.699655	2.0288	0.904885	2.62304	0.940702	2.72948					0.847858	2.45807	0.953754	2.76233				
0.906938	2.62217	0.701641	2.02907	0.907017	2.62213	0.942905	2.72849					0.8498	2.45706	0.955881	2.76104				
0.909065	2.62126	0.703627	2.02935	0.909144	2.62122	0.945113	2.72753					0.851743	2.45606	0.958009	2.75976				
0.911188	2.62034	0.705613	2.02962	0.911267	2.62031	0.947327	2.72659					0.853685	2.45507	0.960136	2.75849				
0.913307	2.61941	0.707598	2.02989	0.913386	2.61938	0.949546	2.72567					0.855627	2.45408	0.962263	2.75722				
0.915421	2.61848	0.709583	2.03016	0.9155	2.61845	0.951771	2.72476					0.857569	2.45309	0.96439	2.75595				
0.917531	2.61754	0.711568	2.03043	0.91761	2.61751	0.954	2.72388					0.859511	2.45211	0.966517	2.7547				
0.919637	2.61659	0.713553	2.03069	0.919715	2.61656	0.956234	2.72302					0.861453	2.45114	0.968644	2.75345				
0.921739	2.61564	0.715537	2.03095	0.921817	2.6156	0.958473	2.72217					0.863395	2.45017	0.97077	2.7522				
0.923837	2.61468	0.717521	2.03121	0.923915	2.61464	0.960717	2.72134					0.865337	2.4492	0.972897	2.75097				
0.92593	2.61371	0.719505	2.03147	0.926008	2.61368	0.962966	2.72053					0.867278	2.44824	0.975023	2.74973				
0.92802	2.61274	0.721488	2.03173	0.928098	2.6127	0.96522	2.71974					0.86922	2.44729	0.977149	2.74851				
0.930106	2.61176	0.723472	2.03198	0.930183	2.61173	0.967478	2.71897					0.871162	2.44633	0.979274	2.74729				
0.932188	2.61078	0.725455	2.03223	0.932265	2.61074	0.96974	2.71821					0.873104	2.44539	0.9814	2.74607				
0.934266	2.60979	0.727437	2.03248	0.934344	2.60975	0.972008	2.71747					0.875045	2.44445	0.983525	2.74486				
0.936341	2.6088	0.72942	2.03273	0.936418	2.60876	0.974279	2.71674					0.876987	2.44351	0.985649	2.74366				
0.938412	2.6078	0.731402	2.03297	0.93849	2.60776	0.976555	2.71603					0.878929	2.44258	0.987774	2.74246				
0.94048	2.60679	0.733384	2.03322	0.940557	2.60676	0.978835	2.71533					0.880871	2.44166	0.989898	2.74126				
0.942545	2.60579	0.735366	2.03346	0.942622	2.60575	0.981119	2.71465					0.882812	2.44074	0.992021	2.74007				
0.944606	2.60478	0.737348	2.0337	0.944682	2.60474	0.983407	2.71399					0.884754	2.43982	0.994144	2.73889				
0.946664	2.60376	0.739329	2.03394	0.94674	2.60372	0.985699	2.71334					0.886696	2.43891	0.996267	2.73771				
0.948718	2.60274	0.74131	2.03417	0.948795	2.6027	0.987995	2.7127					0.888638	2.438	0.998389	2.73654				
0.95077	2.60172	0.743291	2.03441	0.950846	2.60168	0.990294	2.71208					0.890579	2.4371	1.00051	2.73537				
0.952819	2.6007	0.745271	2.03464	0.952895	2.60066	0.992597	2.71146					0.892521	2.4362						
0.954864	2.59967	0.747252	2.03487	0.95494	2.59963	0.994904	2.71087					0.894463	2.43531						
0.956907	2.59864	0.749232	2.0351	0.956983	2.5986	0.997215	2.71028					0.896405	2.43442						
0.958947	2.59761	0.751212	2.03533	0.959023	2.59757	0.999528	2.70971					0.898347	2.43354						
0.960985	2.59657	0.753191	2.03555	0.96106	2.59653	1.00185	2.70915					0.900289	2.43266						
0.963019	2.59554	0.75517	2.03578	0.963095	2.5955							0.902231	2.43178						
0.965052	2.5945	0.75715	2.036	0.965127	2.59446							0.904173	2.43091						
0.967081	2.59346	0.759128	2.03622	0.967157	2.59342							0.906115	2.43005						
0.969109	2.59242	0.761107	2.03643	0.969184	2.59238							0.908057	2.42919						
0.971134	2.59138	0.763085	2.03665	0.971209	2.59134							0.91	2.42833						
0.973156	2.59033	0.765064	2.03687	0.973232	2.5903							0.911942	2.42748						
0.975177	2.58929	0.767041	2.03708	0.975252	2.58925							0.913884	2.42663						
0.977195	2.58825	0.769019	2.03729	0.97727	2.58821							0.915827	2.42579						
0.979211	2.5872	0.770997	2.0375	0.979287	2.58716							0.91777	2.42495						
0.981226	2.58616	0.772974	2.03771	0.981301	2.58612							0.919712	2.42411						
0.983238	2.58511	0.774951	2.03791	0.983313	2.58508							0.921655	2.42328						
0.985249	2.58407	0.776927	2.03812	0.985323	2.58403							0.923598	2.42246						
0.987257	2.58303	0.778904	2.03832	0.987332	2.58299							0.925541	2.42164						
0.989264	2.58198	0.78088	2.03852	0.989339	2.58194							0.927484	2.42082						
0.991269	2.58094	0.782856	2.03872	0.991344	2.5809							0.929427	2.42001						
0.993273	2.5799	0.784832	2.03892	0.993347	2.57986							0.931371	2.4192						
0.995275	2.57886	0.786808	2.03912	0.995349	2.57882							0.933314	2.41839						
0.997275	2.57782	0.788783	2.03931	0.99735	2.57778							0.935257	2.41759						
0.999274	2.57678	0.790758	2.03951	0.999348	2.57674							0.937201	2.4168						
1.00127	2.57574	0.792733	2.0397	1.00135	2.5757							0.939145	2.416						
		0.794707	2.03989									0.941089	2.41522						
		0.796682	2.04008									0.943033	2.41443						
		0.798656	2.04027									0.944977	2.41365						
		0.80063	2.04045									0.946921	2.41288						
		0.802604	2.04064									0.948866	2.4121						
		0.804577	2.04082									0.95081	2.41134						
		0.80655	2.041									0.952755	2.41057						
		0.808523	2.04118									0.9547	2.40981						
		0.810496	2.04136									0.956645	2.40906						
		0.812469	2.04154									0.95859	2.4083						
		0.814441	2.04171									0.960535	2.40756						
		0.816413	2.04189									0.962481	2.40681						
		0.818385	2.04206									0.964426	2.40607						
		0.820357	2.04223									0.966372	2.40533						
		0.822328	2.0424									0.968318	2.4046						
		0.824299	2.04257									0.970264	2.40387						
		0.82627	2.04274									0.972211	2.40315						
		0.828241	2.04291									0.974157	2.40243						
		0.830212	2.04307									0.976104	2.40171						
		0.832182	2.04324									0.978051	2.40099						
		0.834152	2.0434									0.979998	2.40028						
		0.836122	2.04356									0.981945	2.39958						
		0.838092	2.04372									0.983892	2.39887						
		0.840061	2.04388									0.98584	2.39818						
		0.842031	2.04404									0.987787	2.39748						
		0.844	2.0442									0.989735	2.39679						
		0.845968	2.04435									0.991683	2.3961						
		0.847937	2.04451									0.993632	2.39541						
		0.849905	2.04466									0.99558	2.39473						
		0.851874	2.04481									0.997529	2.39405						
		0.853842	2.04496									0.999478	2.39338						
		0.855809	2.04511									1.00143	2.39271						
		0.857777	2.04526																
		0.859744	2.0454																
		0.861711	2.04555																
		0.863678	2.0457																
		0.865645	2.04584																
		0.867611	2.04598																
		0.869578	2.04612																
		0.871544	2.04626																
		0.87351	2.0464																
		0.875475	2.04654																
		0.877441	2.04668																
		0.879406	2.04681																
		0.881371	2.04695																
		0.883336	2.04708																
		0.885301	2.04721																
		0.887265	2.04735																
		0.889229	2.04748																
		0.891194	2.04761																
		0.893157	2.04774																
		0.895121	2.04786																
		0.897085	2.04799																
		0.899048	2.04812																
		0.901011	2.04824																
		0.902974	2.04836																
		0.904936	2.04849																
		0.906899	2.04861																
		0.908861	2.04873																
		0.910823	2.04885																
		0.912785	2.04897																
		0.914747	2.04909																
		0.916708	2.0492																
		0.91867	2.04932																
		0.920631	2.04943																
		0.922592	2.04955																
		0.924552	2.04966																
		0.926513	2.04977																
		0.928473	2.04989																
		0.930434	2.05																
		0.932394	2.05011																
		0.934353	2.05022																
		0.936313	2.05032																
		0.938272	2.05043																
		0.940232	2.05054																
		0.942191	2.05064																
		0.94415	2.05075																
		0.946108	2.05085																
		0.948067	2.05096																
		0.950025	2.05106																
		0.951983	2.05116																
		0.953941	2.05126																
		0.955899	2.05136																
		0.957857	2.05146																
		0.959814	2.05156																
		0.961771	2.05166																
		0.963728	2.05175																
		0.965685	2.05185																
		0.967642	2.05195																
		0.969599	2.05204																
		0.971555	2.05214																
		0.973511	2.05223																
		0.975467	2.05232																
		0.977423	2.05241																
		0.979379	2.0525																
		0.981334	2.05259																
		0.98329	2.05268																
		0.985245	2.05277																
		0.9872	2.05286																
		0.989155	2.05295																
		0.991109	2.05304																
		0.993064	2.05312																
		0.995018	2.05321																
		0.996973	2.05329																
		0.998927	2.05338																
		1.00088	2.05346																
