Sym0		Asym0		Sym1		Sym2		Sym3		Sym4		Asym1		Asym2		Asym3		Asym4	
427  Points		528  Points		426  Points		406  Points		353  Points		254  Points		457  Points		401  Points		346  Points		217  Points	
Freq (MHz)	Vph (m/ms)	Freq (MHz)	Vph (m/ms)	Freq (MHz)	Vph (m/ms)	Freq (MHz)	Vph (m/ms)	Freq (MHz)	Vph (m/ms)	Freq (MHz)	Vph (m/ms)	Freq (MHz)	Vph (m/ms)	Freq (MHz)	Vph (m/ms)	Freq (MHz)	Vph (m/ms)	Freq (MHz)	Vph (m/ms)
0.279509	844.917	0.000216679	0.0906026	0.27951	538.481	0.441152	2316.66	0.559017	2420.26	0.838526	17012.4	0.139763	286.104	0.419267	517.753	0.698772	1295.98	0.882305	1145.37
0.279518	221.399	0.00041787	0.125742	0.279521	192.671	0.44116	393.148	0.559026	480.812	0.838529	854.783	0.139832	98.459	0.419283	240.763	0.698778	475.075	0.882313	518.392
0.279536	127.398	0.000683661	0.160675	0.279541	117.333	0.44118	214.81	0.559045	266.928	0.838538	438.41	0.139966	59.5121	0.41931	156.859	0.698791	290.851	0.882326	335.012
0.279565	89.4352	0.00101341	0.19539	0.279572	84.357	0.441211	147.784	0.559075	184.753	0.838552	294.811	0.140167	42.687	0.419348	116.328	0.698809	209.584	0.882345	247.474
0.279604	68.9089	0.00140626	0.229845	0.279613	65.8556	0.441255	112.645	0.559116	141.271	0.838572	222.076	0.140433	33.3151	0.419398	92.4485	0.698833	163.816	0.88237	196.209
0.279653	56.0507	0.00186102	0.263975	0.279664	54.0148	0.441309	91.0123	0.559168	114.362	0.838599	178.131	0.140763	27.3487	0.41946	76.7081	0.698862	134.457	0.882401	162.541
0.279712	47.2408	0.00237669	0.297767	0.279725	45.7872	0.441376	76.3547	0.559231	96.0689	0.83863	148.708	0.141158	23.2218	0.419533	65.5525	0.698898	114.025	0.882438	138.737
0.279781	40.828	0.0029518	0.331164	0.279796	39.7385	0.441454	65.768	0.559305	82.8251	0.838668	127.629	0.141615	20.2008	0.419617	57.2337	0.698939	98.9852	0.88248	121.017
0.27986	35.9516	0.00358505	0.364146	0.279878	35.1048	0.441544	57.7635	0.55939	72.7942	0.838711	111.786	0.142134	17.8964	0.419713	50.7921	0.698986	87.4526	0.882528	107.313
0.27995	32.1188	0.00427483	0.39667	0.279969	31.4419	0.441645	51.4997	0.559485	64.9339	0.83876	99.4434	0.142713	16.0826	0.41982	45.6572	0.699039	78.3287	0.882582	96.3983
0.280049	29.0273	0.00501965	0.428719	0.28007	28.4739	0.441758	46.4648	0.559592	58.6088	0.838815	89.5572	0.143351	14.6196	0.419938	41.4683	0.699098	70.9303	0.882642	87.5005
0.280158	26.4813	0.00581777	0.46026	0.280182	26.0205	0.441883	42.3297	0.55971	53.4094	0.838875	81.4605	0.144047	13.4158	0.420068	37.9862	0.699163	64.8103	0.882707	80.108
0.280278	24.3484	0.00666762	0.491283	0.280303	23.9587	0.442019	38.8733	0.559838	49.0599	0.838941	74.7078	0.144798	12.409	0.420209	35.0463	0.699233	59.664	0.882779	73.8686
0.280407	22.5356	0.00756733	0.521756	0.280435	22.2019	0.442167	35.9413	0.559978	45.368	0.839013	68.9903	0.145604	11.5553	0.420362	32.5312	0.69931	55.2761	0.882856	68.5321
0.280547	20.9762	0.00851526	0.551676	0.280576	20.6872	0.442326	33.423	0.560128	42.1951	0.83909	64.0869	0.146461	10.8231	0.420526	30.3552	0.699392	51.4906	0.882938	63.9159
0.280696	19.6206	0.00950957	0.581023	0.280728	19.3679	0.442497	31.2369	0.560289	39.4392	0.839174	59.8353	0.14725	10.2655	0.420701	28.4542	0.69948	48.1915	0.883027	59.8835
0.280856	18.4314	0.0105486	0.609794	0.28089	18.2086	0.442679	29.3213	0.560461	37.0232	0.839263	56.1139	0.147952	9.83971	0.420888	26.7793	0.699574	45.2907	0.883121	56.3307
0.281026	17.3799	0.0116305	0.637977	0.281061	17.182	0.442873	27.6291	0.560644	34.8881	0.839357	52.8293	0.148553	9.51739	0.421086	25.2926	0.699674	42.7204	0.883221	53.1768
0.281206	16.4435	0.0127538	0.665575	0.281243	16.2666	0.443078	26.1235	0.560838	32.9876	0.839458	49.9089	0.14904	9.27957	0.421296	23.9641	0.69978	40.427	0.883327	50.3583
0.281396	15.6045	0.0139165	0.692578	0.281435	15.4454	0.443295	24.7753	0.561043	31.2852	0.839564	47.2954	0.149406	9.11351	0.421516	22.7699	0.699891	38.3683	0.883439	47.8245
0.281596	14.8484	0.0151171	0.71899	0.281637	14.7046	0.443523	23.5612	0.561258	29.7515	0.839675	44.9428	0.149642	9.0109	0.421748	21.6908	0.700008	36.5099	0.883556	45.5342
0.281805	14.1636	0.016354	0.744815	0.281849	14.033	0.443763	22.4622	0.561484	28.3627	0.839793	42.8141	0.149987	8.86817	0.421991	20.7108	0.700131	34.8241	0.883679	43.4541
0.282025	13.5406	0.0176256	0.770052	0.282071	13.4215	0.444014	21.4627	0.561721	27.0993	0.839916	40.8786	0.150367	8.7191	0.422246	19.8172	0.70026	33.2879	0.883808	41.5565
0.282255	12.9714	0.0189304	0.79471	0.282303	12.8623	0.444276	20.5499	0.561969	25.9451	0.840045	39.1114	0.150893	8.52586	0.422511	18.9989	0.700395	31.8823	0.883942	39.8185
0.282495	12.4494	0.0202669	0.81879	0.282545	12.3491	0.44455	19.713	0.562228	24.8865	0.840179	37.4913	0.151572	8.29596	0.422788	18.2469	0.700535	30.5912	0.884083	38.2207
0.282746	11.969	0.0216337	0.842305	0.282797	11.8765	0.444835	18.943	0.562497	23.9123	0.84032	36.0008	0.152415	8.0376	0.423076	17.5535	0.700682	29.4014	0.884229	36.7469
0.283006	11.5254	0.0230294	0.865261	0.283059	11.4399	0.445131	18.2323	0.562777	23.0127	0.840465	34.625	0.153431	7.75902	0.423376	16.9121	0.700834	28.3014	0.884381	35.3832
0.283276	11.1147	0.0244528	0.887665	0.283331	11.0354	0.445439	17.5742	0.563068	22.1796	0.840617	33.3511	0.154635	7.46802	0.423686	16.3172	0.700992	27.2813	0.884538	34.1177
0.283556	10.7333	0.0259025	0.909529	0.283614	10.6595	0.445757	16.9632	0.563369	21.4059	0.840774	32.1683	0.155876	7.20381	0.424007	15.764	0.701156	26.3329	0.884701	32.9402
0.283846	10.3783	0.0273773	0.930864	0.283906	10.3095	0.446087	16.3945	0.563681	20.6855	0.840937	31.0671	0.157153	6.96301	0.42434	15.2482	0.701325	25.4488	0.88487	31.8419
0.284146	10.047	0.0288762	0.951678	0.284168	10.0235	0.446429	15.8638	0.564004	20.013	0.841106	30.0394	0.158464	6.74277	0.424684	14.7662	0.701501	24.6227	0.885045	30.8151
0.284456	9.73719	0.0303979	0.971984	0.284398	9.79257	0.446781	15.3676	0.564337	19.384	0.84128	29.078	0.159809	6.54067	0.425039	14.3148	0.701682	23.8491	0.885225	29.8529
0.284776	9.44686	0.0319414	0.991792	0.284593	9.60989	0.447144	14.9025	0.564681	18.7944	0.84146	28.1769	0.161184	6.35466	0.425404	13.8912	0.701869	23.1232	0.885411	28.9496
0.285106	9.17426	0.0335058	1.01112	0.284749	9.47045	0.447518	14.4658	0.565036	18.2406	0.841646	27.3304	0.16259	6.18297	0.425781	13.493	0.702062	22.4408	0.885603	28.0999
0.285446	8.91784	0.0350901	1.02997	0.284865	9.37062	0.447904	14.0549	0.565401	17.7194	0.841837	26.5339	0.164025	6.02409	0.426169	13.118	0.702261	21.798	0.885801	27.2991
0.285796	8.67623	0.0366933	1.04835	0.284941	9.30788	0.4483	13.6678	0.565777	17.2281	0.842034	25.7829	0.165487	5.8767	0.426568	12.7642	0.702465	21.1915	0.886004	26.5432
0.286156	8.4482	0.0383145	1.06629	0.28505	9.21925	0.448707	13.3024	0.566163	16.7643	0.842237	25.0738	0.166975	5.73965	0.426977	12.4299	0.702675	20.6183	0.886212	25.8286
0.286526	8.23267	0.0399531	1.08379	0.285169	9.12492	0.449126	12.9569	0.566559	16.3256	0.842445	24.4031	0.168489	5.61194	0.427398	12.1136	0.702891	20.0758	0.886427	25.1518
0.286906	8.02866	0.0416081	1.10086	0.285334	8.99987	0.449555	12.6298	0.566966	15.9102	0.842659	23.7679	0.170026	5.49269	0.427829	11.8139	0.703113	19.5616	0.886647	24.5101
0.287296	7.83528	0.0432788	1.11752	0.285546	8.84685	0.449995	12.3197	0.567384	15.5162	0.842879	23.1653	0.171586	5.38113	0.428271	11.5294	0.703341	19.0735	0.886873	23.9008
0.287695	7.65175	0.0449646	1.13377	0.285807	8.66905	0.450445	12.0253	0.567812	15.1421	0.843104	22.593	0.173168	5.27657	0.428725	11.2592	0.703574	18.6096	0.887105	23.3215
0.288105	7.47736	0.0466646	1.14963	0.28612	8.46997	0.450907	11.7454	0.56825	14.7864	0.843335	22.0487	0.174771	5.1784	0.429188	11.0022	0.703813	18.1682	0.887342	22.77
0.288525	7.31145	0.0483784	1.16511	0.286489	8.25326	0.451379	11.4791	0.568699	14.4478	0.843572	21.5304	0.176394	5.08608	0.429663	10.7575	0.704058	17.7477	0.887585	22.2444
0.288954	7.15344	0.0501052	1.18021	0.286868	8.04815	0.451861	11.2254	0.569157	14.1252	0.843814	21.0364	0.178036	4.99912	0.430148	10.5241	0.704309	17.3466	0.887833	21.7429
0.289393	7.0028	0.0518444	1.19495	0.287257	7.85377	0.452355	10.9835	0.569627	13.8173	0.844062	20.5649	0.179696	4.9171	0.430644	10.3014	0.704565	16.9637	0.888087	21.264
0.289843	6.85903	0.0535957	1.20935	0.287656	7.66931	0.452858	10.7525	0.570106	13.5233	0.844315	20.1144	0.181373	4.83962	0.431085	10.1155	0.704827	16.5977	0.888347	20.806
0.290302	6.72169	0.0553583	1.2234	0.288064	7.49405	0.453373	10.5317	0.570596	13.2423	0.844574	19.6837	0.183067	4.76632	0.431468	9.96268	0.705095	16.2475	0.888612	20.3678
0.290771	6.59038	0.0571319	1.23712	0.288483	7.32734	0.453898	10.3205	0.571096	12.9734	0.844839	19.2714	0.184777	4.69691	0.431788	9.84004	0.705369	15.9122	0.888883	19.948
0.29125	6.46472	0.0589158	1.25052	0.288911	7.16858	0.454363	10.1439	0.571606	12.7158	0.845109	18.8764	0.186503	4.63109	0.432044	9.74538	0.705649	15.5908	0.88916	19.5455
0.291738	6.34436	0.0607098	1.26361	0.28935	7.01724	0.454767	9.99837	0.572126	12.469	0.845385	18.4976	0.188242	4.56859	0.432234	9.67703	0.705934	15.2825	0.889442	19.1593
0.292237	6.22899	0.0625134	1.2764	0.289798	6.87282	0.455105	9.88146	0.572656	12.2321	0.845666	18.1341	0.189996	4.50919	0.432357	9.63384	0.706225	14.9865	0.88973	18.7885
0.292745	6.11833	0.064326	1.28889	0.290256	6.73487	0.455375	9.79111	0.573196	12.0048	0.845954	17.7849	0.191763	4.45267	0.432534	9.57248	0.706522	14.7022	0.890023	18.432
0.293263	6.01209	0.0661474	1.3011	0.290724	6.60298	0.455575	9.72583	0.573747	11.7863	0.846246	17.4493	0.193543	4.39883	0.432727	9.50676	0.706824	14.4287	0.890322	18.0892
0.293791	5.91003	0.0679772	1.31303	0.291202	6.47678	0.455703	9.68455	0.574307	11.5762	0.846544	17.1264	0.195334	4.34749	0.432992	9.41894	0.707132	14.1656	0.890626	17.7592
0.294329	5.81192	0.0698151	1.32469	0.29169	6.35592	0.455889	9.62587	0.574877	11.3741	0.846848	16.8156	0.197138	4.2985	0.433331	9.3104	0.707446	13.9122	0.890936	17.4413
0.294877	5.71755	0.0716607	1.33609	0.292188	6.24008	0.456093	9.56298	0.575458	11.1795	0.847158	16.5162	0.198953	4.2517	0.433747	9.18277	0.707766	13.6681	0.891252	17.135
0.295434	5.62671	0.0735135	1.34723	0.292695	6.12897	0.456371	9.47888	0.576048	10.992	0.847473	16.2276	0.200779	4.20695	0.434241	9.03789	0.708091	13.4327	0.891573	16.8395
0.296002	5.53922	0.0753735	1.35813	0.293212	6.02231	0.456727	9.37483	0.576648	10.8113	0.847793	15.9492	0.202614	4.16413	0.434818	8.87775	0.708422	13.2056	0.8919	16.5544
0.296579	5.45491	0.0772403	1.36879	0.293739	5.91985	0.457162	9.25233	0.577258	10.6369	0.848119	15.6805	0.20446	4.12311	0.435406	8.7238	0.708759	12.9863	0.892232	16.279
0.297166	5.37362	0.0791136	1.37921	0.294276	5.82136	0.45768	9.11306	0.577877	10.4686	0.848451	15.421	0.206315	4.08379	0.436004	8.57569	0.709102	12.7745	0.89257	16.013
0.297762	5.2952	0.0809931	1.38941	0.294823	5.72663	0.458284	8.95889	0.578425	10.3266	0.848788	15.1702	0.20818	4.04608	0.436612	8.43312	0.70945	12.5698	0.892913	15.7558
0.298368	5.2195	0.0828786	1.39939	0.295379	5.63545	0.458898	8.81042	0.578898	10.2089	0.849131	14.9278	0.210053	4.00988	0.437231	8.29578	0.709804	12.3718	0.893262	15.507
0.298985	5.1464	0.0847699	1.40915	0.295946	5.54765	0.459522	8.66736	0.579293	10.1138	0.849479	14.6932	0.211935	3.97509	0.437859	8.1634	0.710163	12.1803	0.893616	15.2662
0.29961	5.07577	0.0866667	1.41871	0.296522	5.46303	0.460156	8.52942	0.579608	10.04	0.849833	14.4662	0.213824	3.94165	0.438498	8.03573	0.710529	11.9949	0.893976	15.0331
0.300246	5.0075	0.0885688	1.42807	0.297108	5.38145	0.460799	8.39635	0.579841	9.98648	0.850192	14.2464	0.215721	3.90948	0.439147	7.91253	0.7109	11.8153	0.894341	14.8073
0.300891	4.94147	0.0904759	1.43723	0.297703	5.30275	0.461453	8.26789	0.579991	9.95255	0.850557	14.0334	0.217626	3.87852	0.439807	7.79357	0.711276	11.6413	0.894712	14.5884
0.301546	4.8776	0.092388	1.4462	0.298309	5.22679	0.462116	8.14383	0.580207	9.90424	0.850927	13.827	0.219538	3.84868	0.440476	7.67866	0.711659	11.4726	0.895088	14.3761
0.302211	4.81578	0.0943048	1.45498	0.298924	5.15345	0.462789	8.02394	0.580443	9.85231	0.851303	13.6268	0.221457	3.81993	0.441155	7.56759	0.712047	11.309	0.895469	14.1702
0.302885	4.75591	0.0962262	1.46359	0.299549	5.08258	0.463471	7.90803	0.580766	9.78265	0.851684	13.4325	0.223382	3.7922	0.441845	7.46019	0.71244	11.1503	0.895856	13.9703
0.303481	4.70528	0.0981518	1.47202	0.300183	5.01408	0.464164	7.79591	0.581178	9.69611	0.852071	13.244	0.225314	3.76544	0.442544	7.35627	0.712839	10.9962	0.896249	13.7763
0.303995	4.6632	0.100082	1.48027	0.300828	4.94784	0.464865	7.6874	0.581681	9.59373	0.852463	13.061	0.227252	3.7396	0.443254	7.25569	0.713244	10.8465	0.896647	13.5878
0.304423	4.62914	0.102015	1.48837	0.301482	4.88376	0.465577	7.58234	0.582278	9.47667	0.852861	12.8832	0.229196	3.71464	0.443973	7.15829	0.713655	10.7012	0.89705	13.4047
0.304765	4.60266	0.103953	1.4963	0.302145	4.82174	0.466297	7.48057	0.582972	9.34623	0.853264	12.7104	0.231146	3.69051	0.444702	7.06393	0.714017	10.5778	0.897459	13.2266
0.305018	4.58344	0.105895	1.50407	0.302819	4.76169	0.467028	7.38195	0.583675	9.21979	0.853673	12.5424	0.233101	3.66717	0.445441	6.97248	0.71433	10.475	0.897873	13.0535
0.30518	4.57125	0.10784	1.51169	0.303502	4.70353	0.467767	7.28633	0.584387	9.09716	0.854087	12.379	0.235061	3.64459	0.446189	6.8838	0.71459	10.3916	0.898292	12.8851
0.305414	4.55388	0.109788	1.51917	0.304195	4.64716	0.468516	7.1936	0.585109	8.97818	0.854507	12.2201	0.237027	3.62273	0.446947	6.79779	0.714798	10.3267	0.898717	12.7212
0.30567	4.53519	0.11174	1.52649	0.304898	4.59253	0.469274	7.10362	0.58584	8.8627	0.854932	12.0654	0.238997	3.60156	0.447715	6.71433	0.714951	10.2795	0.899147	12.5616
0.30602	4.5101	0.113695	1.53368	0.30561	4.53955	0.470041	7.01628	0.586581	8.75056	0.855362	11.9148	0.240972	3.58105	0.448493	6.6333	0.71505	10.2495	0.899583	12.4062
0.306466	4.47889	0.115653	1.54073	0.306332	4.48816	0.470817	6.93146	0.587331	8.64164	0.855798	11.7682	0.242952	3.56116	0.44928	6.55463	0.715192	10.2068	0.900024	12.2548
0.30701	4.44191	0.117362	1.54676	0.307064	4.4383	0.471603	6.84908	0.588089	8.53579	0.856239	11.6253	0.244936	3.54187	0.450077	6.47819	0.715348	10.1608	0.90047	12.1073
0.307654	4.39956	0.11882	1.55183	0.307805	4.3899	0.472397	6.76902	0.588858	8.4329	0.856686	11.4861	0.246924	3.52316	0.450883	6.40392	0.71556	10.0989	0.900922	11.9635
0.308404	4.35229	0.120027	1.55596	0.308556	4.3429	0.4732	6.69121	0.589635	8.33285	0.857138	11.3503	0.248917	3.50499	0.451699	6.33172	0.71583	10.0217	0.901379	11.8233
0.309162	4.30637	0.120982	1.5592	0.309317	4.29726	0.474012	6.61553	0.590421	8.23552	0.857596	11.218	0.250913	3.48735	0.452524	6.26151	0.71616	9.93012	0.901841	11.6865
0.309931	4.26177	0.121685	1.56156	0.310087	4.25291	0.474833	6.54193	0.591216	8.14082	0.858059	11.0889	0.252913	3.47021	0.453359	6.19322	0.716551	9.82494	0.902308	11.5531
0.310709	4.21843	0.122135	1.56306	0.310867	4.20982	0.475663	6.4703	0.592021	8.04864	0.858527	10.963	0.254917	3.45356	0.454203	6.12677	0.717005	9.70715	0.902781	11.4229
0.311497	4.17629	0.122782	1.56521	0.311657	4.16793	0.476502	6.40059	0.592834	7.95888	0.858939	10.8557	0.256925	3.43737	0.455056	6.06209	0.717465	9.59238	0.903259	11.2958
0.312295	4.13533	0.123486	1.56753	0.312457	4.12719	0.477349	6.33272	0.593656	7.87146	0.859294	10.766	0.258936	3.42162	0.455918	5.99912	0.71793	9.4805	0.903742	11.1716
0.313102	4.0955	0.124443	1.57066	0.313266	4.08758	0.478205	6.26662	0.594487	7.78629	0.85959	10.693	0.26095	3.4063	0.45679	5.93779	0.7184	9.37142	0.904231	11.0504
0.313919	4.05674	0.125655	1.57458	0.314085	4.04904	0.479069	6.20222	0.595327	7.70329	0.859825	10.6361	0.262967	3.39139	0.457671	5.87805	0.718876	9.26502	0.90466	10.947
0.314746	4.01904	0.127121	1.57926	0.314914	4.01154	0.479942	6.13946	0.596175	7.62237	0.859999	10.5946	0.264988	3.37687	0.458561	5.81984	0.719358	9.16123	0.90503	10.8606
0.315582	3.98234	0.128843	1.58467	0.315752	3.97505	0.480823	6.07829	0.597032	7.54348	0.86011	10.5683	0.267011	3.36273	0.45946	5.7631	0.719846	9.05993	0.905338	10.7901
0.316428	3.94662	0.130822	1.59077	0.316601	3.93952	0.481713	6.01865	0.597898	7.46652	0.860271	10.5306	0.269038	3.34896	0.460368	5.70779	0.720338	8.96106	0.905583	10.7352
0.317285	3.91184	0.132802	1.59676	0.317459	3.90492	0.482611	5.96049	0.598773	7.39144	0.860447	10.49	0.271067	3.33553	0.461285	5.65385	0.720837	8.86451	0.905764	10.6951
0.31815	3.87797	0.134785	1.60265	0.318327	3.87123	0.483517	5.90375	0.599656	7.31818	0.860687	10.4354	0.273099	3.32245	0.462211	5.60123	0.721341	8.77023	0.90588	10.6697
0.319026	3.84498	0.136769	1.60843	0.319204	3.83842	0.484432	5.84838	0.600548	7.24666	0.860992	10.3671	0.275133	3.30968	0.463145	5.5499	0.72185	8.67812	0.906047	10.6333
0.319912	3.81284	0.138756	1.61411	0.320092	3.80644	0.485354	5.79434	0.601448	7.17684	0.861363	10.2859	0.27717	3.29723	0.464089	5.4998	0.722365	8.58812	0.906229	10.5941
0.320807	3.78152	0.140745	1.61969	0.320989	3.77528	0.486285	5.74159	0.602357	7.10865	0.861803	10.1923	0.27921	3.28508	0.465042	5.45091	0.722886	8.50015	0.906479	10.5412
0.321712	3.75099	0.142735	1.62517	0.321896	3.74492	0.487224	5.69008	0.603274	7.04204	0.862312	10.0872	0.281252	3.27322	0.466003	5.40317	0.723412	8.41415	0.906796	10.4752
0.322627	3.72124	0.144727	1.63055	0.322813	3.71532	0.488171	5.63977	0.604199	6.97697	0.862827	9.98441	0.283296	3.26165	0.466973	5.35655	0.723944	8.33007	0.907181	10.3965
0.323552	3.69223	0.146721	1.63585	0.323741	3.68646	0.489126	5.59063	0.605133	6.91337	0.863347	9.88387	0.285342	3.25034	0.467951	5.31102	0.724481	8.24783	0.907638	10.3058
0.324488	3.66395	0.148717	1.64105	0.324678	3.65832	0.490088	5.54261	0.606075	6.85121	0.863873	9.78551	0.28739	3.23929	0.468939	5.26653	0.725023	8.16737	0.908166	10.2039
0.325433	3.63636	0.150714	1.64616	0.325625	3.63087	0.491059	5.49567	0.607025	6.79043	0.864403	9.68926	0.289441	3.2285	0.469935	5.22306	0.725571	8.08865	0.9087	10.1041
0.326388	3.60946	0.152713	1.65119	0.326582	3.6041	0.492037	5.4498	0.607983	6.731	0.864939	9.59506	0.291493	3.21795	0.470939	5.18058	0.726125	8.01161	0.909239	10.0065
0.327353	3.58321	0.154713	1.65614	0.327549	3.57799	0.493023	5.40494	0.60895	6.67287	0.865481	9.50285	0.293547	3.20764	0.471952	5.13905	0.726684	7.9362	0.909782	9.91081
0.328328	3.55761	0.156715	1.661	0.328527	3.55251	0.494016	5.36108	0.609924	6.616	0.866027	9.41256	0.295603	3.19755	0.472973	5.09845	0.727249	7.86236	0.910331	9.81716
0.329314	3.53262	0.158718	1.66578	0.329514	3.52765	0.495018	5.31817	0.610907	6.56036	0.866579	9.32414	0.297661	3.18769	0.474003	5.05875	0.727818	7.79006	0.910885	9.72541
0.33031	3.50824	0.160722	1.67048	0.330512	3.50339	0.496026	5.27619	0.611898	6.5059	0.867136	9.23753	0.299721	3.17803	0.475041	5.01991	0.728394	7.71924	0.911444	9.63553
0.331316	3.48445	0.162728	1.67511	0.331521	3.47971	0.497043	5.23512	0.612896	6.4526	0.867698	9.15268	0.301782	3.16859	0.476088	4.98192	0.728975	7.64986	0.912009	9.54746
0.332333	3.46123	0.164735	1.67966	0.33254	3.4566	0.498066	5.19493	0.613903	6.40042	0.868266	9.06953	0.303845	3.15934	0.477143	4.94475	0.729561	7.58188	0.912578	9.46114
0.33336	3.43856	0.166743	1.68413	0.333569	3.43404	0.499097	5.15558	0.614917	6.34931	0.868838	8.98804	0.305909	3.15028	0.478206	4.90837	0.730153	7.51526	0.913152	9.37652
0.334398	3.41643	0.168752	1.68854	0.334609	3.41202	0.500136	5.11706	0.615939	6.29927	0.869416	8.90816	0.307975	3.14142	0.479277	4.87277	0.73075	7.44997	0.913732	9.29356
0.335446	3.39482	0.170763	1.69287	0.335659	3.39052	0.501181	5.07934	0.616969	6.25024	0.869999	8.82984	0.310042	3.13273	0.480356	4.83792	0.731352	7.38595	0.914316	9.21221
0.336505	3.37373	0.172774	1.69713	0.33672	3.36953	0.502234	5.0424	0.618006	6.20221	0.870587	8.75304	0.312111	3.12422	0.481444	4.80379	0.73196	7.32319	0.914905	9.13241
0.337575	3.35313	0.174786	1.70133	0.337792	3.34903	0.503294	5.00621	0.619051	6.15515	0.871181	8.67772	0.314181	3.11588	0.48254	4.77038	0.732573	7.26163	0.9155	9.05414
0.338655	3.33302	0.1768	1.70546	0.338875	3.32902	0.504362	4.97076	0.620104	6.10903	0.87178	8.60383	0.316252	3.10771	0.483643	4.73765	0.733192	7.20126	0.916099	8.97735
0.339747	3.31339	0.178814	1.70953	0.339969	3.30947	0.505436	4.93603	0.621165	6.06381	0.872383	8.53135	0.318324	3.09969	0.484755	4.70559	0.733816	7.14203	0.916703	8.902
0.34085	3.29421	0.18083	1.71353	0.341074	3.29039	0.506517	4.90198	0.622232	6.01949	0.872992	8.46022	0.320398	3.09183	0.485874	4.67419	0.734446	7.08392	0.917312	8.82804
0.341964	3.27548	0.182846	1.71748	0.342191	3.27175	0.507606	4.86862	0.623308	5.97603	0.873606	8.39041	0.322473	3.08413	0.487002	4.64341	0.73508	7.0269	0.917927	8.75544
0.34309	3.2572	0.184863	1.72136	0.343319	3.25355	0.508701	4.83591	0.624391	5.93341	0.874226	8.32189	0.324548	3.07656	0.488137	4.61326	0.735721	6.97093	0.918546	8.68418
0.344227	3.23934	0.186881	1.72518	0.344458	3.23578	0.509803	4.80384	0.625481	5.89161	0.87485	8.25463	0.326625	3.06914	0.48928	4.5837	0.736366	6.916	0.91917	8.6142
0.345376	3.2219	0.188899	1.72894	0.345609	3.21843	0.510912	4.77239	0.626578	5.8506	0.87548	8.18858	0.328703	3.06186	0.490431	4.55473	0.737017	6.86206	0.919799	8.54548
0.346536	3.20487	0.190919	1.73265	0.346772	3.20148	0.512028	4.74154	0.627683	5.81037	0.876114	8.12372	0.330782	3.05471	0.49159	4.52632	0.737673	6.8091	0.920432	8.47798
0.347709	3.18825	0.192939	1.7363	0.347947	3.18493	0.51315	4.71129	0.628795	5.77089	0.876754	8.06002	0.332861	3.0477	0.492756	4.49847	0.738335	6.7571	0.921071	8.41168
0.348894	3.17201	0.194959	1.7399	0.349135	3.16878	0.514279	4.68161	0.629914	5.73215	0.877399	7.99745	0.334942	3.04081	0.49393	4.47116	0.739001	6.70602	0.921715	8.34653
0.350091	3.15616	0.196981	1.74345	0.350334	3.153	0.515415	4.65249	0.631041	5.69412	0.878048	7.93598	0.337023	3.03404	0.495112	4.44437	0.739673	6.65585	0.922363	8.28253
0.351301	3.14069	0.199003	1.74694	0.351547	3.1376	0.516557	4.62391	0.632174	5.65679	0.878703	7.87558	0.339105	3.02739	0.496301	4.4181	0.740351	6.60655	0.923016	8.21963
0.352523	3.12558	0.201026	1.75038	0.352772	3.12257	0.517706	4.59586	0.633315	5.62014	0.879363	7.81622	0.341188	3.02086	0.497498	4.39232	0.741033	6.55812	0.923675	8.1578
0.353758	3.11084	0.203049	1.75377	0.35401	3.1079	0.518861	4.56833	0.634462	5.58416	0.880028	7.75789	0.343271	3.01444	0.498702	4.36703	0.741721	6.51053	0.924337	8.09703
0.355007	3.09645	0.205073	1.75711	0.355261	3.09358	0.520023	4.54131	0.635617	5.54882	0.880698	7.70055	0.345356	3.00813	0.499914	4.34221	0.742415	6.46375	0.925005	8.03728
0.356269	3.08241	0.207097	1.7604	0.356526	3.07961	0.521191	4.51477	0.636778	5.51411	0.881374	7.64418	0.347441	3.00193	0.501133	4.31786	0.743113	6.41777	0.925678	7.97853
0.357545	3.06871	0.209122	1.76365	0.357805	3.06598	0.522365	4.48872	0.637946	5.48001	0.882054	7.58876	0.349526	2.99583	0.502359	4.29396	0.743817	6.37257	0.926355	7.92077
0.358835	3.05535	0.211148	1.76684	0.359097	3.05269	0.523546	4.46313	0.639121	5.44651	0.882739	7.53426	0.351612	2.98983	0.503593	4.27049	0.744526	6.32814	0.927037	7.86395
0.360139	3.04232	0.213174	1.77	0.360404	3.03972	0.524732	4.438	0.640303	5.4136	0.883429	7.48066	0.353699	2.98394	0.504834	4.24746	0.74524	6.28444	0.927724	7.80806
0.361457	3.02961	0.2152	1.77311	0.361725	3.02708	0.525925	4.41332	0.641492	5.38126	0.884124	7.42794	0.355786	2.97813	0.506082	4.22484	0.745959	6.24147	0.928415	7.75309
0.36279	3.01722	0.217227	1.77617	0.363062	3.01476	0.527125	4.38906	0.642687	5.34948	0.884824	7.37609	0.357873	2.97243	0.507338	4.20264	0.746684	6.19921	0.929111	7.699
0.364139	3.00515	0.219254	1.77919	0.364413	3.00275	0.52833	4.36523	0.643889	5.31824	0.885529	7.32507	0.359961	2.96681	0.508601	4.18083	0.747414	6.15763	0.929812	7.64578
0.365503	2.99339	0.221282	1.78217	0.36578	2.99105	0.529541	4.34182	0.645098	5.28753	0.886239	7.27488	0.362049	2.96128	0.50987	4.15941	0.748149	6.11674	0.930518	7.59341
0.366882	2.98193	0.22331	1.78511	0.367163	2.97965	0.530758	4.31881	0.646313	5.25735	0.886954	7.22549	0.364138	2.95584	0.511147	4.13838	0.748889	6.0765	0.931228	7.54186
0.368278	2.97078	0.225338	1.78801	0.368561	2.96856	0.531982	4.29619	0.647534	5.22766	0.887674	7.17688	0.366227	2.95048	0.512431	4.11771	0.749634	6.03691	0.931943	7.49113
0.369689	2.95992	0.227367	1.79087	0.369977	2.95776	0.533211	4.27396	0.648762	5.19848	0.888399	7.12904	0.368317	2.94521	0.513723	4.09741	0.750385	5.99795	0.932663	7.44118
0.371118	2.94936	0.229396	1.79369	0.371409	2.94726	0.534446	4.2521	0.649997	5.16977	0.889129	7.08195	0.370406	2.94002	0.515021	4.07746	0.751141	5.95961	0.933387	7.39201
0.372563	2.93908	0.231425	1.79647	0.372858	2.93704	0.535687	4.23062	0.651238	5.14154	0.889863	7.03559	0.372496	2.9349	0.516326	4.05786	0.751901	5.92187	0.934116	7.3436
0.374026	2.92909	0.233455	1.79921	0.374324	2.92711	0.536933	4.20949	0.652485	5.11377	0.890603	6.98995	0.374586	2.92986	0.517638	4.0386	0.752667	5.88473	0.934849	7.29593
0.375507	2.91939	0.235485	1.80191	0.375808	2.91746	0.538186	4.18871	0.653738	5.08645	0.891347	6.945	0.376677	2.9249	0.518956	4.01967	0.753439	5.84815	0.935587	7.24898
0.377006	2.90996	0.237515	1.80458	0.377311	2.90809	0.539444	4.16827	0.654998	5.05958	0.892097	6.90075	0.378767	2.92	0.520282	4.00106	0.754215	5.81215	0.93633	7.20274
0.378523	2.90081	0.239545	1.80722	0.378831	2.89899	0.540707	4.14818	0.656264	5.03313	0.892851	6.85716	0.380858	2.91518	0.521614	3.98278	0.754996	5.77669	0.937077	7.15719
0.380058	2.89193	0.241576	1.80982	0.380371	2.89017	0.541976	4.1284	0.657536	5.00711	0.89361	6.81423	0.382948	2.91043	0.522954	3.9648	0.755783	5.74178	0.937829	7.11232
0.381613	2.88332	0.243607	1.81238	0.381929	2.88161	0.543251	4.10895	0.658814	4.9815	0.894374	6.77195	0.385039	2.90574	0.5243	3.94712	0.756574	5.70739	0.938585	7.06811
0.383187	2.87497	0.245638	1.81491	0.383507	2.87332	0.544532	4.08982	0.660098	4.95629	0.895143	6.73029	0.38713	2.90113	0.525652	3.92974	0.757371	5.67353	0.939346	7.02455
0.38478	2.86689	0.247669	1.81741	0.385105	2.86528	0.545817	4.07099	0.661388	4.93148	0.895916	6.68924	0.389221	2.89657	0.527012	3.91265	0.758172	5.64017	0.940111	6.98163
0.386393	2.85906	0.249701	1.81987	0.386722	2.85751	0.547109	4.05246	0.662685	4.90706	0.896695	6.6488	0.391312	2.89208	0.528378	3.89584	0.758979	5.6073	0.940881	6.93934
0.388027	2.85149	0.251732	1.82231	0.388359	2.84999	0.548405	4.03422	0.663987	4.88301	0.897478	6.60896	0.393403	2.88765	0.52975	3.87931	0.759791	5.57493	0.941655	6.89765
0.38968	2.84416	0.253764	1.82471	0.390017	2.84271	0.549707	4.01627	0.665295	4.85934	0.898266	6.56968	0.395494	2.88328	0.531129	3.86306	0.760608	5.54303	0.942434	6.85656
0.391354	2.83709	0.255796	1.82708	0.391694	2.83569	0.551015	3.9986	0.666609	4.83602	0.899059	6.53098	0.397585	2.87897	0.532515	3.84706	0.76143	5.51159	0.943217	6.81606
0.393048	2.83025	0.257828	1.82942	0.393393	2.8289	0.552327	3.98121	0.667928	4.81306	0.899856	6.49283	0.399675	2.87471	0.533907	3.83133	0.762257	5.48062	0.944005	6.77613
0.394763	2.82366	0.25986	1.83173	0.395112	2.82235	0.553645	3.96409	0.669254	4.79045	0.900659	6.45522	0.401766	2.87051	0.535306	3.81586	0.763088	5.45009	0.944797	6.73676
0.396498	2.81729	0.261892	1.83401	0.396851	2.81604	0.554968	3.94723	0.670585	4.76818	0.901466	6.41815	0.403857	2.86637	0.536711	3.80063	0.763925	5.42	0.945594	6.69794
0.398254	2.81116	0.263925	1.83626	0.398612	2.80995	0.556296	3.93063	0.671922	4.74624	0.902277	6.3816	0.405947	2.86228	0.538122	3.78565	0.764767	5.39034	0.946395	6.65967
0.400031	2.80525	0.265957	1.83848	0.400392	2.80409	0.557629	3.91428	0.673264	4.72463	0.903094	6.34556	0.408037	2.85824	0.53954	3.77091	0.765614	5.3611	0.9472	6.62192
0.401828	2.79956	0.26799	1.84068	0.402194	2.79844	0.558968	3.89818	0.674612	4.70334	0.903915	6.31002	0.410127	2.85425	0.540964	3.7564	0.766466	5.33228	0.94801	6.58469
0.403646	2.79409	0.270022	1.84285	0.404015	2.79301	0.560311	3.88232	0.675966	4.68236	0.904741	6.27497	0.412217	2.85031	0.542394	3.74212	0.767323	5.30386	0.948824	6.54797
0.405483	2.78883	0.272055	1.84499	0.405857	2.78779	0.561659	3.8667	0.677325	4.66169	0.905572	6.24041	0.414306	2.84642	0.543831	3.72807	0.768184	5.27584	0.949642	6.51175
0.407341	2.78376	0.274088	1.8471	0.407719	2.78277	0.563013	3.85132	0.678689	4.64132	0.906407	6.20632	0.416395	2.84258	0.545274	3.71424	0.769051	5.24821	0.950465	6.47602
0.409219	2.7789	0.276121	1.84919	0.4096	2.77794	0.564371	3.83616	0.680059	4.62125	0.907247	6.17269	0.418484	2.83878	0.546723	3.70062	0.769923	5.22097	0.951292	6.44076
0.411116	2.77423	0.278153	1.85125	0.411501	2.77331	0.565734	3.82123	0.681435	4.60146	0.908092	6.13952	0.420573	2.83503	0.548178	3.68722	0.770799	5.19409	0.952123	6.40598
0.413032	2.76975	0.280186	1.85329	0.413421	2.76887	0.567102	3.80651	0.682815	4.58196	0.908941	6.10679	0.422661	2.83133	0.54964	3.67403	0.771681	5.16759	0.952959	6.37167
0.414967	2.76545	0.282219	1.8553	0.41536	2.7646	0.568475	3.79201	0.684201	4.56273	0.909795	6.07451	0.424749	2.82767	0.551107	3.66104	0.772567	5.14145	0.953799	6.3378
0.41692	2.76132	0.284252	1.85729	0.417317	2.76051	0.569852	3.77772	0.685593	4.54378	0.910654	6.04265	0.426837	2.82405	0.552581	3.64825	0.773458	5.11566	0.954643	6.30438
0.418892	2.75736	0.286285	1.85925	0.419292	2.75658	0.571235	3.76364	0.686989	4.52509	0.911517	6.01122	0.428924	2.82047	0.554061	3.63565	0.774354	5.09022	0.955492	6.2714
0.420881	2.75357	0.288317	1.86119	0.421285	2.75282	0.572622	3.74976	0.688391	4.50667	0.912385	5.9802	0.431011	2.81693	0.555546	3.62325	0.775255	5.06512	0.956345	6.23884
0.422887	2.74993	0.29035	1.86311	0.423294	2.74921	0.574013	3.73608	0.689798	4.4885	0.913258	5.94958	0.433097	2.81344	0.557038	3.61103	0.776161	5.04036	0.957202	6.20671
0.424909	2.74644	0.292383	1.865	0.42532	2.74575	0.57541	3.72259	0.69121	4.47058	0.914135	5.91937	0.435183	2.80998	0.558535	3.59901	0.777072	5.01592	0.958063	6.17499
0.426948	2.7431	0.294416	1.86687	0.427362	2.74244	0.576811	3.7093	0.692627	4.45292	0.915016	5.88954	0.437268	2.80656	0.560039	3.58716	0.777987	4.99181	0.958928	6.14367
0.429002	2.7399	0.296448	1.86872	0.429419	2.73927	0.578216	3.69619	0.694049	4.43549	0.915902	5.86011	0.439353	2.80318	0.561548	3.57549	0.778908	4.96802	0.959798	6.11275
0.431072	2.73683	0.298481	1.87055	0.431491	2.73622	0.579626	3.68327	0.695476	4.4183	0.916793	5.83104	0.441437	2.79984	0.563064	3.56399	0.779833	4.94453	0.960671	6.08223
0.433155	2.73389	0.300513	1.87236	0.433578	2.73331	0.581041	3.67053	0.696908	4.40135	0.917688	5.80236	0.443521	2.79653	0.564585	3.55267	0.780763	4.92136	0.961549	6.05209
0.435253	2.73107	0.302546	1.87414	0.435679	2.73051	0.58246	3.65796	0.698345	4.38462	0.918588	5.77403	0.445605	2.79325	0.566112	3.54152	0.781697	4.89848	0.962431	6.02232
0.437365	2.72837	0.304578	1.8759	0.437793	2.72783	0.583883	3.64557	0.699787	4.36812	0.919493	5.74606	0.447687	2.79002	0.567644	3.53053	0.782637	4.8759	0.963317	5.99293
0.439489	2.72578	0.306611	1.87765	0.43992	2.72527	0.585311	3.63335	0.701233	4.35184	0.920402	5.71845	0.44977	2.78681	0.569183	3.5197	0.783581	4.85361	0.964207	5.9639
0.441626	2.72329	0.308643	1.87937	0.442059	2.7228	0.586743	3.6213	0.702685	4.33578	0.921315	5.69118	0.451851	2.78364	0.570727	3.50903	0.78453	4.83161	0.965102	5.93523
0.443775	2.72091	0.310675	1.88107	0.444211	2.72044	0.58818	3.60941	0.704141	4.31993	0.922233	5.66425	0.453932	2.7805	0.572277	3.49852	0.785484	4.80988	0.966	5.90691
0.445935	2.71863	0.312708	1.88276	0.446373	2.71818	0.589621	3.59768	0.705602	4.30429	0.923155	5.63765	0.456012	2.77739	0.573832	3.48816	0.786443	4.78843	0.966903	5.87893
0.448107	2.71644	0.31474	1.88442	0.448547	2.716	0.591066	3.58611	0.707067	4.28886	0.924082	5.61139	0.458092	2.77431	0.575394	3.47795	0.787406	4.76725	0.967809	5.8513
0.450289	2.71433	0.316772	1.88606	0.450731	2.71392	0.592516	3.5747	0.708538	4.27362	0.925013	5.58544	0.460171	2.77127	0.57696	3.46789	0.788374	4.74634	0.96872	5.824
0.452481	2.71231	0.318803	1.88769	0.452925	2.71192	0.593969	3.56344	0.710012	4.25859	0.925949	5.55981	0.462249	2.76825	0.578533	3.45798	0.789347	4.72569	0.969635	5.79702
0.454683	2.71037	0.320835	1.8893	0.455129	2.70999	0.595427	3.55233	0.711492	4.24375	0.926889	5.5345	0.464327	2.76527	0.58011	3.44821	0.790324	4.7053	0.970553	5.77037
0.456894	2.70851	0.322867	1.89089	0.457342	2.70814	0.596889	3.54137	0.712976	4.2291	0.927834	5.50949	0.466404	2.76231	0.581694	3.43858	0.791306	4.68515	0.971476	5.74404
0.459114	2.70672	0.324898	1.89246	0.459563	2.70637	0.598355	3.53055	0.714464	4.21463	0.928783	5.48478	0.46848	2.75938	0.583283	3.42908	0.792293	4.66526	0.972403	5.71802
0.461342	2.705	0.32693	1.89401	0.461793	2.70466	0.599825	3.51987	0.715957	4.20035	0.929736	5.46037	0.470556	2.75648	0.584877	3.41972	0.793284	4.64561	0.973333	5.69231
0.463578	2.70335	0.328961	1.89555	0.464031	2.70302	0.6013	3.50934	0.717455	4.18626	0.930694	5.43625	0.47263	2.7536	0.586477	3.4105	0.79428	4.6262	0.974268	5.6669
0.465823	2.70175	0.330992	1.89707	0.466277	2.70144	0.602778	3.49894	0.718957	4.17234	0.931656	5.41241	0.474704	2.75075	0.588082	3.40141	0.795281	4.60703	0.975207	5.64178
0.468074	2.70022	0.333023	1.89857	0.46853	2.69992	0.60426	3.48868	0.720463	4.15859	0.932623	5.38886	0.476777	2.74793	0.589693	3.39244	0.796286	4.58809	0.976149	5.61696
0.470333	2.69874	0.335054	1.90005	0.47079	2.69845	0.605747	3.47855	0.721973	4.14502	0.933594	5.36558	0.47885	2.74513	0.591309	3.3836	0.797296	4.56938	0.977096	5.59242
0.472598	2.69732	0.337084	1.90152	0.473056	2.69704	0.607237	3.46855	0.723488	4.13162	0.934569	5.34258	0.480921	2.74236	0.59293	3.37488	0.798311	4.5509	0.978046	5.56817
0.474869	2.69595	0.339115	1.90298	0.475329	2.69568	0.608731	3.45868	0.725007	4.11838	0.935549	5.31985	0.482992	2.73961	0.594556	3.36629	0.79933	4.53263	0.979	5.54419
0.477147	2.69463	0.341145	1.90441	0.477608	2.69437	0.610229	3.44893	0.72653	4.10531	0.936533	5.29738	0.485062	2.73689	0.596188	3.35782	0.800354	4.51459	0.979958	5.52049
0.479431	2.69335	0.343175	1.90583	0.479893	2.6931	0.611731	3.43931	0.728058	4.09239	0.937521	5.27517	0.487131	2.73419	0.597825	3.34946	0.801382	4.49676	0.98092	5.49706
0.48172	2.69212	0.345205	1.90724	0.482183	2.69188	0.613237	3.42981	0.729589	4.07964	0.938514	5.25321	0.489199	2.73151	0.599468	3.34122	0.802415	4.47913	0.981886	5.47389
0.484014	2.69093	0.347235	1.90863	0.484478	2.6907	0.614747	3.42043	0.731125	4.06704	0.939511	5.23151	0.491266	2.72886	0.601115	3.3331	0.803453	4.46172	0.982856	5.45099
0.486314	2.68979	0.349265	1.91	0.486779	2.68956	0.61626	3.41117	0.732665	4.05459	0.940512	5.21005	0.493333	2.72623	0.602768	3.32508	0.804495	4.44451	0.98383	5.42834
0.488618	2.68868	0.351294	1.91136	0.489084	2.68846	0.617778	3.40202	0.734209	4.04229	0.941517	5.18884	0.495398	2.72362	0.604426	3.31718	0.805541	4.42751	0.984807	5.40594
0.490927	2.6876	0.353324	1.91271	0.491394	2.68739	0.619299	3.39299	0.735757	4.03014	0.942527	5.16787	0.497462	2.72103	0.606089	3.30938	0.806592	4.4107	0.985788	5.38379
0.49324	2.68656	0.355353	1.91404	0.493708	2.68636	0.620823	3.38407	0.737309	4.01813	0.943541	5.14714	0.499526	2.71847	0.607757	3.30169	0.807648	4.39408	0.986773	5.36189
0.495558	2.68556	0.357382	1.91536	0.496027	2.68536	0.622352	3.37526	0.738865	4.00627	0.944559	5.12664	0.501589	2.71592	0.60943	3.29411	0.808708	4.37766	0.987762	5.34022
0.497879	2.68459	0.359411	1.91666	0.498349	2.68439	0.623884	3.36655	0.740424	3.99455	0.945582	5.10636	0.50365	2.7134	0.611108	3.28663	0.809773	4.36143	0.988755	5.3188
0.500205	2.68364	0.361439	1.91795	0.500675	2.68346	0.625419	3.35796	0.741988	3.98296	0.946608	5.08632	0.505711	2.71089	0.612791	3.27925	0.810842	4.34538	0.989751	5.29761
0.502534	2.68273	0.363468	1.91922	0.503005	2.68255	0.626959	3.34947	0.743556	3.97152	0.947639	5.06649	0.507771	2.7084	0.614479	3.27197	0.811915	4.32951	0.990751	5.27665
0.504867	2.68184	0.365496	1.92048	0.505338	2.68167	0.628502	3.34108	0.745127	3.9602	0.948674	5.04689	0.50983	2.70594	0.616172	3.26479	0.812993	4.31383	0.991755	5.25591
0.507203	2.68098	0.367524	1.92173	0.507675	2.68081	0.630048	3.33279	0.746702	3.94902	0.949714	5.0275	0.511888	2.70349	0.61787	3.2577	0.814076	4.29832	0.992762	5.2354
0.509542	2.68015	0.369552	1.92297	0.510015	2.67998	0.631598	3.32461	0.748281	3.93796	0.950757	5.00832	0.513944	2.70106	0.619573	3.25071	0.815163	4.28299	0.993773	5.21511
0.511884	2.67934	0.371579	1.92419	0.512357	2.67917	0.633152	3.31652	0.749864	3.92704	0.951805	4.98935	0.516	2.69865	0.621281	3.24382	0.816254	4.26784	0.994788	5.19503
0.514229	2.67855	0.373607	1.9254	0.514703	2.67839	0.634709	3.30853	0.75145	3.91624	0.952857	4.97059	0.518055	2.69626	0.622993	3.23701	0.81735	4.25285	0.995807	5.17517
0.516577	2.67778	0.375634	1.9266	0.517052	2.67763	0.636269	3.30064	0.75304	3.90556	0.953913	4.95203	0.520109	2.69389	0.624711	3.2303	0.81845	4.23803	0.996829	5.15552
0.518927	2.67704	0.377661	1.92778	0.519403	2.67689	0.637833	3.29283	0.754634	3.89501	0.954973	4.93367	0.522161	2.69153	0.626433	3.22367	0.819554	4.22337	0.997855	5.13608
0.52128	2.67631	0.379688	1.92895	0.521756	2.67617	0.639401	3.28513	0.756231	3.88457	0.956037	4.91551	0.524213	2.68919	0.62816	3.21713	0.820663	4.20888	0.998885	5.11684
0.523636	2.67561	0.381714	1.93011	0.524112	2.67547	0.640972	3.27751	0.757832	3.87425	0.957105	4.89754	0.526264	2.68687	0.629892	3.21068	0.821777	4.19454	0.999918	5.0978
0.525994	2.67492	0.38374	1.93126	0.526471	2.67479	0.642546	3.26998	0.759437	3.86405	0.958178	4.87976	0.528313	2.68456	0.631628	3.20432	0.822894	4.18037	1.00095	5.07896
0.528354	2.67425	0.385766	1.93239	0.528831	2.67412	0.644124	3.26254	0.761045	3.85396	0.959254	4.86217	0.530362	2.68227	0.633369	3.19803	0.824016	4.16635		
0.530716	2.6736	0.387792	1.93352	0.531194	2.67347	0.645705	3.25519	0.762656	3.84398	0.960335	4.84477	0.532409	2.68	0.635115	3.19183	0.825143	4.15248		
0.53308	2.67297	0.389818	1.93463	0.533558	2.67284	0.647289	3.24792	0.764271	3.83412	0.961419	4.82755	0.534455	2.67774	0.636866	3.18571	0.826273	4.13877		
0.535446	2.67234	0.391843	1.93573	0.535925	2.67222	0.648877	3.24073	0.765889	3.82436	0.962508	4.81052	0.536501	2.6755	0.638621	3.17967	0.827408	4.1252		
0.537814	2.67174	0.393868	1.93682	0.538293	2.67162	0.650468	3.23363	0.767511	3.81471	0.963601	4.79366	0.538545	2.67327	0.64038	3.17371	0.828548	4.11178		
0.540184	2.67115	0.395893	1.9379	0.540663	2.67103	0.652062	3.22661	0.769136	3.80517	0.964698	4.77697	0.540588	2.67106	0.642144	3.16783	0.829691	4.09851		
0.542555	2.67057	0.397918	1.93897	0.543035	2.67046	0.65366	3.21967	0.770765	3.79573	0.965799	4.76046	0.54263	2.66887	0.643913	3.16202	0.830839	4.08538		
0.544928	2.67001	0.399942	1.94002	0.545408	2.66989	0.65526	3.21282	0.772397	3.78639	0.966903	4.74412	0.544671	2.66668	0.645686	3.15629	0.831992	4.07238		
0.547303	2.66946	0.401967	1.94107	0.547783	2.66935	0.656864	3.20603	0.774032	3.77716	0.968012	4.72795	0.54671	2.66452	0.647464	3.15063	0.833148	4.05953		
0.549679	2.66892	0.403991	1.94211	0.550159	2.66881	0.658472	3.19933	0.77567	3.76802	0.969125	4.71194	0.548749	2.66236	0.649246	3.14504	0.834309	4.04682		
0.552056	2.66839	0.406014	1.94313	0.552537	2.66828	0.660082	3.1927	0.777312	3.75898	0.970242	4.6961	0.550787	2.66022	0.651033	3.13953	0.835474	4.03423		
0.554435	2.66787	0.408038	1.94415	0.554916	2.66777	0.661696	3.18615	0.778956	3.75004	0.971363	4.68042	0.552823	2.6581	0.652824	3.13408	0.836643	4.02179		
0.556815	2.66737	0.410061	1.94515	0.557296	2.66727	0.663312	3.17967	0.780604	3.74119	0.972488	4.66489	0.554858	2.65598	0.654619	3.1287	0.837816	4.00947		
0.559197	2.66687	0.412084	1.94615	0.559678	2.66677	0.664932	3.17326	0.782256	3.73244	0.973617	4.64953	0.556892	2.65389	0.656418	3.1234	0.838994	3.99728		
0.561579	2.66638	0.414107	1.94713	0.56206	2.66629	0.666555	3.16692	0.78391	3.72378	0.974749	4.63432	0.558925	2.6518	0.658222	3.11816	0.840176	3.98522		
0.563962	2.66591	0.416129	1.94811	0.564444	2.66581	0.668181	3.16066	0.785567	3.71521	0.975886	4.61926	0.560957	2.64973	0.66003	3.11298	0.841362	3.97329		
0.566347	2.66544	0.418151	1.94907	0.566829	2.66535	0.66981	3.15446	0.787228	3.70673	0.977027	4.60435	0.562988	2.64767	0.661843	3.10787	0.842552	3.96148		
0.568732	2.66498	0.420173	1.95003	0.569215	2.66489	0.671442	3.14834	0.788891	3.69834	0.978171	4.5896	0.565018	2.64562	0.663659	3.10283	0.843747	3.9498		
0.571119	2.66453	0.422195	1.95098	0.571601	2.66444	0.673078	3.14228	0.790558	3.69003	0.97932	4.57499	0.567046	2.64359	0.66548	3.09785	0.844945	3.93823		
0.573506	2.66409	0.424216	1.95191	0.573989	2.664	0.674716	3.13628	0.792227	3.68181	0.980472	4.56052	0.569073	2.64156	0.667305	3.09293	0.846148	3.92678		
0.575895	2.66366	0.426238	1.95284	0.576377	2.66357	0.676357	3.13035	0.7939	3.67368	0.981628	4.5462	0.5711	2.63955	0.669134	3.08807	0.847355	3.91545		
0.578284	2.66323	0.428259	1.95376	0.578766	2.66314	0.678002	3.12449	0.795575	3.66563	0.982788	4.53201	0.573125	2.63755	0.670968	3.08328	0.848566	3.90424		
0.580673	2.66281	0.430279	1.95467	0.581156	2.66273	0.679649	3.11869	0.797253	3.65766	0.983952	4.51797	0.575149	2.63557	0.672805	3.07854	0.849781	3.89314		
0.583064	2.6624	0.4323	1.95557	0.583547	2.66231	0.681299	3.11296	0.798935	3.64977	0.98512	4.50406	0.577171	2.63359	0.674646	3.07386	0.851	3.88216		
0.585455	2.66199	0.43432	1.95647	0.585938	2.66191	0.682953	3.10728	0.800619	3.64197	0.986292	4.49029	0.579193	2.63163	0.676492	3.06924	0.852224	3.87129		
0.587847	2.66159	0.43634	1.95735	0.58833	2.66151	0.684609	3.10167	0.802306	3.63424	0.987467	4.47666	0.581213	2.62968	0.678341	3.06467	0.853451	3.86052		
0.590239	2.6612	0.438359	1.95822	0.590723	2.66112	0.686268	3.09612	0.803995	3.62658	0.988647	4.46315	0.583233	2.62774	0.680194	3.06017	0.854683	3.84987		
0.592632	2.66081	0.440379	1.95909	0.593116	2.66073	0.68793	3.09063	0.805688	3.61901	0.98983	4.44978	0.585251	2.62581	0.682052	3.05571	0.855918	3.83932		
0.595026	2.66043	0.442398	1.95995	0.595509	2.66035	0.689595	3.08519	0.807383	3.61151	0.991017	4.43653	0.587268	2.62389	0.683913	3.05131	0.857158	3.82888		
0.59742	2.66005	0.444416	1.9608	0.597903	2.65997	0.691263	3.07982	0.809081	3.60409	0.992208	4.42341	0.589284	2.62198	0.685778	3.04697	0.858402	3.81854		
0.599814	2.65968	0.446435	1.96164	0.600298	2.6596	0.692934	3.0745	0.810782	3.59673	0.993402	4.41042	0.591299	2.62009	0.687647	3.04268	0.859649	3.80831		
0.602209	2.65931	0.448453	1.96248	0.602693	2.65923	0.694608	3.06924	0.812485	3.58946	0.9946	4.39755	0.593313	2.6182	0.689519	3.03844	0.860901	3.79818		
0.604604	2.65895	0.450471	1.9633	0.605088	2.65887	0.696285	3.06403	0.814191	3.58225	0.995803	4.3848	0.595325	2.61632	0.691396	3.03425	0.862157	3.78815		
0.607	2.65859	0.452489	1.96412	0.607484	2.65852	0.697964	3.05888	0.8159	3.57511	0.997008	4.37217	0.597337	2.61446	0.693276	3.03011	0.863417	3.77822		
0.609396	2.65823	0.454506	1.96493	0.60988	2.65816	0.699646	3.05379	0.817611	3.56804	0.998218	4.35966	0.599347	2.6126	0.69516	3.02602	0.864681	3.76838		
0.611792	2.65788	0.456523	1.96573	0.612276	2.65781	0.701332	3.04874	0.819325	3.56104	0.999431	4.34727	0.601356	2.61076	0.697048	3.02198	0.865948	3.75865		
0.614188	2.65754	0.45854	1.96653	0.614672	2.65747	0.70302	3.04375	0.821042	3.55411	1.00065	4.335	0.603364	2.60892	0.698939	3.01799	0.86722	3.74901		
0.616585	2.6572	0.460557	1.96732	0.617069	2.65713	0.70471	3.03882	0.822761	3.54725			0.605371	2.6071	0.700834	3.01405	0.868496	3.73946		
0.618982	2.65686	0.462573	1.9681	0.619466	2.65679	0.706404	3.03393	0.824483	3.54045			0.607377	2.60528	0.702732	3.01015	0.869776	3.73001		
0.621379	2.65652	0.464589	1.96887	0.621863	2.65646	0.708101	3.0291	0.826207	3.53371			0.609382	2.60348	0.704634	3.0063	0.87106	3.72065		
0.623776	2.65619	0.466605	1.96964	0.62426	2.65612	0.7098	3.02431	0.827933	3.52704			0.611386	2.60168	0.70654	3.0025	0.872347	3.71138		
0.626173	2.65586	0.46862	1.97039	0.626657	2.6558	0.711502	3.01958	0.829662	3.52044			0.613388	2.5999	0.708449	2.99874	0.873639	3.7022		
0.62857	2.65554	0.470636	1.97115	0.629055	2.65547	0.713207	3.01489	0.831394	3.51389			0.61539	2.59812	0.710362	2.99502	0.874934	3.69311		
0.630968	2.65521	0.472651	1.97189	0.631452	2.65515	0.714915	3.01025	0.833128	3.50741			0.61739	2.59635	0.712278	2.99135	0.876234	3.6841		
0.633365	2.65489	0.474665	1.97263	0.633849	2.65483	0.716625	3.00566	0.834864	3.50099			0.61939	2.5946	0.714197	2.98772	0.877537	3.67519		
0.635762	2.65457	0.476679	1.97336	0.636247	2.65451	0.718338	3.00112	0.836603	3.49462			0.621388	2.59285	0.71612	2.98413	0.878844	3.66635		
0.63816	2.65426	0.478693	1.97408	0.638644	2.65419	0.720054	2.99663	0.838344	3.48832			0.623385	2.59111	0.718046	2.98059	0.880156	3.65761		
0.640557	2.65394	0.480707	1.9748	0.641041	2.65388	0.721773	2.99218	0.840087	3.48208			0.625382	2.58938	0.719976	2.97708	0.881471	3.64894		
0.642954	2.65363	0.482721	1.97551	0.643438	2.65357	0.723494	2.98777	0.841833	3.47589			0.627377	2.58766	0.721909	2.97362	0.88279	3.64036		
0.645351	2.65332	0.484734	1.97621	0.645836	2.65326	0.725219	2.98342	0.843581	3.46976			0.629371	2.58595	0.723845	2.9702	0.884112	3.63186		
0.647748	2.65302	0.486747	1.97691	0.648232	2.65295	0.726946	2.9791	0.845331	3.46368			0.631364	2.58424	0.725784	2.96681	0.885439	3.62345		
0.650145	2.65271	0.48876	1.9776	0.650629	2.65265	0.728675	2.97483	0.847083	3.45766			0.633356	2.58255	0.727726	2.96347	0.886769	3.61511		
0.652541	2.6524	0.490772	1.97828	0.653026	2.65234	0.730408	2.97061	0.848838	3.4517			0.635348	2.58086	0.729672	2.96016	0.888104	3.60685		
0.654938	2.6521	0.492784	1.97896	0.655422	2.65204	0.732143	2.96642	0.850595	3.44579			0.637338	2.57919	0.731621	2.95689	0.889442	3.59866		
0.657334	2.6518	0.494796	1.97963	0.657818	2.65174	0.733881	2.96228	0.852354	3.43993			0.639327	2.57752	0.733573	2.95365	0.890784	3.59056		
0.65973	2.6515	0.496807	1.9803	0.660214	2.65144	0.735622	2.95818	0.854115	3.43413			0.641315	2.57586	0.735528	2.95046	0.89213	3.58253		
0.662125	2.6512	0.498818	1.98096	0.662609	2.65114	0.737365	2.95413	0.855878	3.42837			0.643302	2.5742	0.737486	2.9473	0.893479	3.57458		
0.66452	2.6509	0.500829	1.98161	0.665004	2.65084	0.739112	2.95011	0.857644	3.42267			0.645288	2.57256	0.739447	2.94417	0.894833	3.5667		
0.666915	2.6506	0.50284	1.98226	0.667399	2.65054	0.740861	2.94614	0.859411	3.41702			0.647274	2.57093	0.741411	2.94108	0.89619	3.55889		
0.66931	2.6503	0.50485	1.9829	0.669794	2.65024	0.742612	2.9422	0.861181	3.41142			0.649258	2.5693	0.743377	2.93802	0.897551	3.55115		
0.671704	2.65001	0.50686	1.98354	0.672187	2.64995	0.744367	2.93831	0.862953	3.40587			0.651241	2.56768	0.745347	2.935	0.898915	3.54349		
0.674097	2.64971	0.50887	1.98417	0.674581	2.64965	0.746124	2.93445	0.864726	3.40036			0.653224	2.56607	0.74732	2.93201	0.900284	3.5359		
0.676491	2.64942	0.510879	1.9848	0.676974	2.64936	0.747884	2.93063	0.866502	3.39491			0.655205	2.56447	0.749295	2.92906	0.901656	3.52838		
0.678883	2.64912	0.512888	1.98541	0.679367	2.64906	0.749647	2.92686	0.86828	3.3895			0.657186	2.56288	0.751274	2.92613	0.903032	3.52092		
0.681275	2.64882	0.514897	1.98603	0.681759	2.64876	0.751412	2.92312	0.87006	3.38414			0.659165	2.56129	0.753255	2.92324	0.904412	3.51354		
0.683667	2.64853	0.516906	1.98664	0.68415	2.64847	0.753181	2.91941	0.871841	3.37882			0.661144	2.55971	0.755239	2.92038	0.905795	3.50622		
0.686058	2.64823	0.518914	1.98724	0.686541	2.64817	0.754952	2.91575	0.873625	3.37356			0.663122	2.55814	0.757225	2.91755	0.907182	3.49897		
0.688448	2.64794	0.520922	1.98784	0.688931	2.64788	0.756726	2.91212	0.87541	3.36833			0.665099	2.55658	0.759215	2.91475	0.908573	3.49179		
0.690838	2.64764	0.52293	1.98843	0.691321	2.64758	0.758502	2.90853	0.877198	3.36315			0.667075	2.55503	0.761206	2.91198	0.909968	3.48467		
0.693227	2.64734	0.524937	1.98901	0.69371	2.64728	0.760282	2.90497	0.878987	3.35802			0.669051	2.55348	0.763201	2.90924	0.911366	3.47762		
0.695616	2.64705	0.526944	1.9896	0.696098	2.64699	0.762064	2.90145	0.880778	3.35293			0.671025	2.55194	0.765198	2.90653	0.912768	3.47063		
0.698003	2.64675	0.528951	1.99017	0.698486	2.64669	0.763849	2.89797	0.882572	3.34788			0.672999	2.55041	0.767198	2.90385	0.914174	3.46371		
0.70039	2.64645	0.530958	1.99074	0.700872	2.64639	0.765637	2.89452	0.884366	3.34287			0.674972	2.54889	0.7692	2.9012	0.915583	3.45684		
0.702776	2.64615	0.532964	1.99131	0.703258	2.64609	0.767428	2.89111	0.886163	3.33791			0.676944	2.54737	0.771204	2.89857	0.916996	3.45004		
0.705162	2.64585	0.53497	1.99187	0.705644	2.64579	0.769221	2.88773	0.887962	3.33299			0.678915	2.54586	0.773212	2.89598	0.918413	3.4433		
0.707546	2.64555	0.536975	1.99242	0.708028	2.64549	0.771018	2.88439	0.889762	3.3281			0.680885	2.54436	0.775221	2.89341	0.919833	3.43662		
0.70993	2.64525	0.538981	1.99298	0.710411	2.64518	0.772817	2.88107	0.891564	3.32326			0.682855	2.54287	0.777233	2.89086	0.921257	3.43		
0.712312	2.64494	0.540986	1.99352	0.712794	2.64488	0.774619	2.8778	0.893368	3.31846			0.684824	2.54138	0.779247	2.88835	0.922684	3.42344		
0.714694	2.64464	0.542991	1.99406	0.715175	2.64457	0.776424	2.87455	0.895173	3.3137			0.686792	2.53991	0.781264	2.88585	0.924116	3.41694		
0.717075	2.64433	0.544995	1.9946	0.717556	2.64427	0.778232	2.87134	0.89698	3.30898			0.688759	2.53844	0.783283	2.88339	0.92555	3.4105		
0.719455	2.64402	0.546999	1.99513	0.719935	2.64396	0.780043	2.86817	0.898789	3.30429			0.690726	2.53697	0.785304	2.88095	0.926989	3.40411		
0.721833	2.64371	0.549003	1.99566	0.722314	2.64365	0.781857	2.86502	0.9006	3.29965			0.692692	2.53552	0.787327	2.87853	0.928431	3.39778		
0.724211	2.6434	0.551007	1.99618	0.724691	2.64333	0.783674	2.86191	0.902412	3.29504			0.694657	2.53407	0.789353	2.87614	0.929877	3.39151		
0.726587	2.64308	0.55301	1.9967	0.727067	2.64302	0.785494	2.85883	0.904226	3.29047			0.696622	2.53263	0.791381	2.87377	0.931326	3.38529		
0.728962	2.64277	0.555013	1.99721	0.729442	2.6427	0.787317	2.85578	0.906041	3.28593			0.698585	2.53119	0.793411	2.87143	0.932779	3.37913		
0.731336	2.64245	0.557016	1.99772	0.731816	2.64238	0.789143	2.85276	0.907858	3.28144			0.700549	2.52976	0.795443	2.86911	0.934235	3.37302		
0.733709	2.64213	0.559018	1.99823	0.734188	2.64206	0.790972	2.84977	0.909677	3.27698			0.702511	2.52834	0.797477	2.86681	0.935695	3.36696		
0.73608	2.6418	0.56102	1.99873	0.736559	2.64174	0.792804	2.84682	0.911497	3.27255			0.704473	2.52693	0.799513	2.86454	0.937159	3.36096		
0.738451	2.64148	0.563022	1.99922	0.738929	2.64141	0.794639	2.84389	0.913319	3.26816			0.706434	2.52553	0.801551	2.86229	0.938626	3.35501		
0.740819	2.64115	0.565023	1.99971	0.741298	2.64108	0.796477	2.841	0.915142	3.2638			0.708395	2.52413	0.803591	2.86006	0.940096	3.34912		
0.743187	2.64081	0.567025	2.0002	0.743665	2.64075	0.798319	2.83814	0.916967	3.25948			0.710354	2.52274	0.805633	2.85785	0.941571	3.34327		
0.745552	2.64048	0.569026	2.00068	0.74603	2.64041	0.800164	2.8353	0.918794	3.25519			0.712314	2.52135	0.807677	2.85566	0.943048	3.33748		
0.747917	2.64014	0.571026	2.00116	0.748394	2.64007	0.802012	2.8325	0.920622	3.25093			0.714272	2.51997	0.809723	2.85349	0.94453	3.33173		
0.750279	2.6398	0.573026	2.00164	0.750757	2.63973	0.803863	2.82973	0.922451	3.24671			0.716231	2.5186	0.811771	2.85135	0.946015	3.32604		
0.752641	2.63946	0.575027	2.00211	0.753117	2.63939	0.805717	2.82698	0.924282	3.24252			0.718188	2.51724	0.81382	2.84922	0.947503	3.3204		
0.755	2.63911	0.577026	2.00257	0.755477	2.63904	0.807575	2.82427	0.926114	3.23837			0.720145	2.51588	0.815871	2.84712	0.948995	3.3148		
0.757358	2.63875	0.579026	2.00304	0.757834	2.63868	0.809436	2.82158	0.927948	3.23424			0.722101	2.51453	0.817925	2.84503	0.95049	3.30926		
0.759714	2.6384	0.581025	2.00349	0.76019	2.63833	0.811301	2.81893	0.929783	3.23015			0.724057	2.51319	0.819979	2.84296	0.951989	3.30376		
0.762068	2.63804	0.583024	2.00395	0.762543	2.63797	0.813169	2.8163	0.931619	3.22609			0.726013	2.51185	0.822036	2.84092	0.953492	3.29831		
0.76442	2.63767	0.585022	2.0044	0.764896	2.6376	0.81504	2.8137	0.933457	3.22205			0.727967	2.51053	0.824094	2.83889	0.954998	3.2929		
0.766771	2.63731	0.587021	2.00485	0.767246	2.63723	0.816915	2.81113	0.935296	3.21805			0.729922	2.5092	0.826154	2.83688	0.956507	3.28755		
0.769119	2.63693	0.589019	2.00529	0.769594	2.63686	0.818793	2.80859	0.937137	3.21408			0.731875	2.50789	0.828215	2.83489	0.95802	3.28224		
0.771466	2.63656	0.591016	2.00573	0.77194	2.63648	0.820675	2.80608	0.938979	3.21014			0.733829	2.50658	0.830278	2.83292	0.959536	3.27697		
0.77381	2.63617	0.593014	2.00616	0.774284	2.6361	0.822561	2.8036	0.940822	3.20623			0.735781	2.50527	0.832343	2.83096	0.961056	3.27175		
0.776152	2.63579	0.595011	2.0066	0.776625	2.63571	0.82445	2.80114	0.942666	3.20235			0.737734	2.50398	0.834409	2.82902	0.96258	3.26658		
0.778492	2.6354	0.597008	2.00702	0.778965	2.63532	0.826343	2.79871	0.944512	3.1985			0.739686	2.50269	0.836476	2.8271	0.964106	3.26145		
0.78083	2.635	0.599004	2.00745	0.781302	2.63492	0.82824	2.79631	0.946359	3.19467			0.741637	2.50141	0.838545	2.8252	0.965637	3.25636		
0.783165	2.6346	0.601001	2.00787	0.783637	2.63451	0.830141	2.79394	0.948208	3.19088			0.743588	2.50013	0.840616	2.82331	0.96717	3.25132		
0.785499	2.63419	0.602996	2.00829	0.78597	2.63411	0.832045	2.7916	0.950057	3.18711			0.745539	2.49886	0.842688	2.82144	0.968708	3.24632		
0.787829	2.63378	0.604992	2.0087	0.7883	2.63369	0.833953	2.78928	0.951908	3.18337			0.747489	2.4976	0.844761	2.81959	0.970248	3.24136		
0.790157	2.63336	0.606988	2.00911	0.790627	2.63327	0.835866	2.78699	0.95376	3.17965			0.749438	2.49634	0.846835	2.81775	0.971792	3.23644		
0.792483	2.63293	0.608983	2.00952	0.792952	2.63284	0.837782	2.78473	0.955614	3.17597			0.751388	2.49509	0.848911	2.81593	0.97334	3.23157		
0.794806	2.6325	0.610977	2.00992	0.795275	2.63241	0.839702	2.7825	0.957468	3.17231			0.753337	2.49385	0.850988	2.81412	0.974891	3.22674		
0.797126	2.63206	0.612972	2.01032	0.797594	2.63197	0.841627	2.78029	0.959324	3.16868			0.755285	2.49261	0.853067	2.81233	0.976445	3.22195		
0.799443	2.63162	0.614966	2.01071	0.799911	2.63153	0.843555	2.77811	0.961181	3.16507			0.757233	2.49138	0.855146	2.81055	0.978003	3.2172		
0.801758	2.63117	0.61696	2.01111	0.802225	2.63108	0.845488	2.77596	0.963039	3.16149			0.759181	2.49015	0.857227	2.80879	0.979564	3.21249		
0.804069	2.63071	0.618954	2.0115	0.804536	2.63062	0.847425	2.77383	0.964898	3.15793			0.761129	2.48894	0.859309	2.80704	0.981129	3.20782		
0.806378	2.63025	0.620947	2.01188	0.806844	2.63015	0.849367	2.77174	0.966758	3.1544			0.763076	2.48772	0.861392	2.80531	0.982697	3.20319		
0.808684	2.62977	0.62294	2.01227	0.809149	2.62968	0.851312	2.76966	0.96862	3.1509			0.765023	2.48652	0.863476	2.80359	0.984268	3.19859		
0.810986	2.6293	0.624933	2.01265	0.811451	2.6292	0.853263	2.76762	0.970482	3.14742			0.766969	2.48532	0.865562	2.80188	0.985843	3.19404		
0.813285	2.62881	0.626925	2.01302	0.81375	2.62871	0.855218	2.7656	0.972346	3.14396			0.768915	2.48412	0.867648	2.80019	0.987422	3.18953		
0.815582	2.62832	0.628918	2.0134	0.816045	2.62822	0.857177	2.76361	0.974211	3.14053			0.770861	2.48294	0.869735	2.79851	0.989003	3.18505		
0.817874	2.62781	0.630909	2.01377	0.818337	2.62771	0.859141	2.76165	0.976076	3.13712			0.772807	2.48176	0.871823	2.79685	0.990588	3.18061		
0.820164	2.62731	0.632901	2.01413	0.820626	2.6272	0.861109	2.75971	0.977943	3.13374			0.774752	2.48058	0.873913	2.7952	0.992177	3.17621		
0.822449	2.62679	0.634892	2.0145	0.822911	2.62668	0.863083	2.7578	0.979811	3.13038			0.776697	2.47941	0.876003	2.79356	0.993769	3.17185		
0.824732	2.62626	0.636883	2.01486	0.825192	2.62615	0.865061	2.75592	0.98168	3.12704			0.778642	2.47825	0.878094	2.79193	0.995364	3.16752		
0.82701	2.62573	0.638874	2.01522	0.82747	2.62562	0.867044	2.75406	0.98355	3.12373			0.780586	2.47709	0.880186	2.79032	0.996963	3.16323		
0.829285	2.62519	0.640865	2.01557	0.829745	2.62508	0.869032	2.75223	0.985421	3.12043			0.782531	2.47594	0.882279	2.78871	0.998565	3.15897		
0.831557	2.62463	0.642855	2.01593	0.832015	2.62452	0.871025	2.75043	0.987293	3.11716			0.784475	2.4748	0.884373	2.78712	1.00017	3.15475		
0.833824	2.62407	0.644845	2.01627	0.834282	2.62396	0.873023	2.74865	0.989165	3.11392			0.786418	2.47366	0.886467	2.78555				
0.836088	2.62351	0.646835	2.01662	0.836545	2.62339	0.875026	2.7469	0.991039	3.11069			0.788362	2.47253	0.888562	2.78398				
0.838347	2.62293	0.648824	2.01696	0.838803	2.62281	0.877034	2.74517	0.992914	3.10749			0.790305	2.4714	0.890658	2.78242				
0.840603	2.62234	0.650813	2.0173	0.841058	2.62222	0.879048	2.74347	0.99479	3.10431			0.792248	2.47028	0.892755	2.78088				
0.842854	2.62174	0.652802	2.01764	0.843309	2.62162	0.881066	2.7418	0.996666	3.10115			0.794191	2.46916	0.894853	2.77935				
0.845102	2.62114	0.65479	2.01798	0.845555	2.62102	0.88309	2.74016	0.998544	3.09801			0.796134	2.46806	0.896951	2.77782				
0.847345	2.62052	0.656778	2.01831	0.847798	2.6204	0.88512	2.73854	1.00042	3.09489			0.798077	2.46695	0.899049	2.77631				
0.849584	2.6199	0.658766	2.01864	0.850036	2.61977	0.887154	2.73694					0.800019	2.46585	0.901149	2.77481				
0.851818	2.61926	0.660754	2.01897	0.852269	2.61913	0.889194	2.73537					0.801961	2.46476	0.903248	2.77332				
0.854049	2.61862	0.662741	2.01929	0.854499	2.61849	0.89124	2.73383					0.803904	2.46368	0.905349	2.77184				
0.856274	2.61797	0.664728	2.01961	0.856724	2.61783	0.893291	2.73231					0.805845	2.4626	0.90745	2.77037				
0.858496	2.6173	0.666715	2.01993	0.858944	2.61717	0.895348	2.73082					0.807787	2.46152	0.909551	2.76891				
0.860713	2.61663	0.668702	2.02024	0.86116	2.61649	0.89741	2.72936					0.809729	2.46045	0.911653	2.76746				
0.862925	2.61594	0.670688	2.02056	0.863371	2.6158	0.899478	2.72791					0.81167	2.45939	0.913756	2.76602				
0.865133	2.61525	0.672674	2.02087	0.865578	2.61511	0.901551	2.7265					0.813612	2.45833	0.915859	2.76459				
0.867336	2.61455	0.67466	2.02118	0.86778	2.6144	0.903631	2.72511					0.815553	2.45728	0.917962	2.76317				
0.869534	2.61383	0.676645	2.02148	0.869978	2.61369	0.905715	2.72374					0.817494	2.45624	0.920066	2.76175				
0.871728	2.61311	0.67863	2.02179	0.872171	2.61296	0.907806	2.7224					0.819436	2.45519	0.922169	2.76035				
0.873917	2.61238	0.680615	2.02209	0.874359	2.61223	0.909902	2.72109					0.821377	2.45416	0.924274	2.75895				
0.876102	2.61163	0.6826	2.02238	0.876543	2.61148	0.912004	2.71979					0.823318	2.45313	0.926378	2.75757				
0.878282	2.61088	0.684584	2.02268	0.878722	2.61072	0.914112	2.71853					0.825258	2.45211	0.928483	2.75619				
0.880457	2.61011	0.686568	2.02297	0.880896	2.60996	0.916225	2.71728					0.827199	2.45109	0.930588	2.75482				
0.882627	2.60934	0.688552	2.02326	0.883065	2.60918	0.918345	2.71606					0.82914	2.45007	0.932694	2.75346				
0.884793	2.60856	0.690535	2.02355	0.88523	2.6084	0.92047	2.71487					0.831081	2.44907	0.934799	2.7521				
0.886953	2.60777	0.692519	2.02384	0.88739	2.60761	0.9226	2.71369					0.833021	2.44806	0.936905	2.75076				
0.88911	2.60696	0.694502	2.02412	0.889545	2.6068	0.924736	2.71254					0.834962	2.44707	0.939011	2.74942				
0.891261	2.60615	0.696484	2.0244	0.891695	2.60599	0.926878	2.71142					0.836902	2.44607	0.941117	2.74809				
0.893408	2.60533	0.698467	2.02468	0.893841	2.60517	0.929026	2.71031					0.838843	2.44509	0.943223	2.74677				
0.89555	2.6045	0.700449	2.02496	0.895982	2.60433	0.931179	2.70923					0.840783	2.44411	0.945329	2.74545				
0.897688	2.60367	0.702431	2.02523	0.898119	2.60349	0.933338	2.70817					0.842724	2.44313	0.947436	2.74414				
0.899821	2.60282	0.704412	2.02551	0.900251	2.60265	0.935502	2.70713					0.844664	2.44216	0.949542	2.74284				
0.901949	2.60196	0.706393	2.02578	0.902379	2.60179	0.937671	2.70611					0.846605	2.44119	0.951648	2.74155				
0.904073	2.6011	0.708375	2.02604	0.904501	2.60092	0.939847	2.70511					0.848545	2.44023	0.953755	2.74026				
0.906192	2.60023	0.710355	2.02631	0.90662	2.60005	0.942027	2.70414					0.850486	2.43928	0.955861	2.73898				
0.908307	2.59935	0.712336	2.02657	0.908734	2.59917	0.944213	2.70318					0.852426	2.43833	0.957967	2.73771				
0.910418	2.59846	0.714316	2.02683	0.910844	2.59828	0.946404	2.70225					0.854367	2.43738	0.960073	2.73644				
0.912524	2.59756	0.716296	2.02709	0.912949	2.59738	0.9486	2.70133					0.856307	2.43644	0.962179	2.73518				
0.914626	2.59666	0.718276	2.02735	0.91505	2.59647	0.950802	2.70044					0.858248	2.43551	0.964285	2.73392				
0.916724	2.59575	0.720255	2.02761	0.917147	2.59556	0.953008	2.69956					0.860188	2.43458	0.966391	2.73268				
0.918817	2.59483	0.722234	2.02786	0.91924	2.59464	0.95522	2.6987					0.862129	2.43365	0.968497	2.73143				
0.920907	2.5939	0.724213	2.02811	0.921328	2.59372	0.957436	2.69786					0.86407	2.43273	0.970602	2.7302				
0.922992	2.59297	0.726192	2.02836	0.923413	2.59279	0.959658	2.69704					0.86601	2.43182	0.972707	2.72897				
0.925073	2.59204	0.72817	2.02861	0.925494	2.59185	0.961884	2.69624					0.867951	2.43091	0.974812	2.72774				
0.927151	2.59109	0.730148	2.02885	0.92757	2.5909	0.964115	2.69545					0.869892	2.43	0.976917	2.72652				
0.929225	2.59015	0.732126	2.02909	0.929643	2.58995	0.96635	2.69468					0.871833	2.4291	0.979021	2.72531				
0.931295	2.58919	0.734104	2.02933	0.931713	2.589	0.96859	2.69393					0.873774	2.42821	0.981126	2.7241				
0.933361	2.58823	0.736081	2.02957	0.933778	2.58804	0.970835	2.6932					0.875715	2.42732	0.98323	2.7229				
0.935424	2.58727	0.738058	2.02981	0.93584	2.58707	0.973083	2.69247					0.877656	2.42643	0.985333	2.7217				
0.937483	2.5863	0.740035	2.03004	0.937899	2.5861	0.975337	2.69177					0.879597	2.42555	0.987436	2.72051				
0.939539	2.58532	0.742012	2.03028	0.939954	2.58513	0.977594	2.69108					0.881538	2.42467	0.989539	2.71933				
0.941591	2.58435	0.743988	2.03051	0.942005	2.58415	0.979855	2.69041					0.88348	2.4238	0.991641	2.71814				
0.94364	2.58336	0.745964	2.03074	0.944054	2.58316	0.982121	2.68975					0.885421	2.42293	0.993743	2.71697				
0.945686	2.58238	0.74794	2.03096	0.946099	2.58218	0.984391	2.6891					0.887363	2.42207	0.995845	2.71579				
0.947729	2.58139	0.749915	2.03119	0.948141	2.58119	0.986664	2.68847					0.889304	2.42121	0.997946	2.71463				
0.949768	2.5804	0.75189	2.03141	0.95018	2.58019	0.988941	2.68785					0.891246	2.42036	1.00005	2.71346				
0.951805	2.5794	0.753865	2.03164	0.952216	2.5792	0.991222	2.68724					0.893188	2.41951						
0.953839	2.5784	0.75584	2.03186	0.954249	2.5782	0.993506	2.68665					0.89513	2.41867						
0.95587	2.5774	0.757815	2.03207	0.95628	2.5772	0.995794	2.68607					0.897072	2.41783						
0.957898	2.5764	0.759789	2.03229	0.958307	2.57619	0.998086	2.6855					0.899014	2.41699						
0.959923	2.57539	0.761763	2.03251	0.960332	2.57519	1.00038	2.68494					0.900956	2.41616						
0.961946	2.57438	0.763737	2.03272	0.962355	2.57418							0.902899	2.41534						
0.963967	2.57337	0.76571	2.03293	0.964375	2.57317							0.904841	2.41452						
0.965985	2.57236	0.767683	2.03314	0.966392	2.57216							0.906784	2.4137						
0.968	2.57135	0.769656	2.03335	0.968407	2.57114							0.908727	2.41289						
0.970013	2.57034	0.771629	2.03355	0.97042	2.57013							0.91067	2.41208						
0.972024	2.56932	0.773602	2.03376	0.97243	2.56912							0.912613	2.41128						
0.974033	2.56831	0.775574	2.03396	0.974439	2.5681							0.914556	2.41048						
0.97604	2.56729	0.777546	2.03416	0.976445	2.56708							0.9165	2.40968						
0.978044	2.56627	0.779517	2.03436	0.978449	2.56607							0.918444	2.40889						
0.980047	2.56526	0.781489	2.03456	0.980451	2.56505							0.920387	2.40811						
0.982048	2.56424	0.78346	2.03476	0.982452	2.56404							0.922331	2.40732						
0.984047	2.56322	0.785431	2.03495	0.98445	2.56302							0.924275	2.40655						
0.986044	2.56221	0.787402	2.03515	0.986447	2.562							0.92622	2.40577						
0.988039	2.56119	0.789372	2.03534	0.988442	2.56099							0.928164	2.405						
0.990032	2.56018	0.791343	2.03553	0.990435	2.55997							0.930109	2.40424						
0.992024	2.55916	0.793313	2.03572	0.992427	2.55896							0.932053	2.40348						
0.994015	2.55815	0.795282	2.0359	0.994417	2.55794							0.933998	2.40272						
0.996004	2.55714	0.797252	2.03609	0.996405	2.55693							0.935944	2.40196						
0.997991	2.55612	0.799221	2.03627	0.998392	2.55592							0.937889	2.40122						
0.999977	2.55511	0.80119	2.03646	1.00038	2.55491							0.939835	2.40047						
1.00196	2.5541	0.803159	2.03664									0.94178	2.39973						
		0.805128	2.03682									0.943726	2.39899						
		0.807096	2.03699									0.945672	2.39826						
		0.809064	2.03717									0.947619	2.39753						
		0.811032	2.03735									0.949565	2.39681						
		0.812999	2.03752									0.951512	2.39608						
		0.814967	2.03769									0.953459	2.39537						
		0.816934	2.03786									0.955406	2.39465						
		0.818901	2.03803									0.957353	2.39394						
		0.820867	2.0382									0.959301	2.39324						
		0.822834	2.03837									0.961248	2.39254						
		0.8248	2.03854									0.963196	2.39184						
		0.826766	2.0387									0.965145	2.39114						
		0.828732	2.03886									0.967093	2.39045						
		0.830697	2.03902									0.969042	2.38977						
		0.832663	2.03919									0.97099	2.38908						
		0.834628	2.03934									0.972939	2.3884						
		0.836592	2.0395									0.974889	2.38773						
		0.838557	2.03966									0.976838	2.38706						
		0.840521	2.03981									0.978788	2.38639						
		0.842486	2.03997									0.980738	2.38572						
		0.844449	2.04012									0.982688	2.38506						
		0.846413	2.04027									0.984639	2.3844						
		0.848377	2.04042									0.986589	2.38375						
		0.85034	2.04057									0.98854	2.3831						
		0.852303	2.04072									0.990491	2.38245						
		0.854266	2.04087									0.992443	2.38181						
		0.856228	2.04101									0.994394	2.38117						
		0.85819	2.04116									0.996346	2.38053						
		0.860153	2.0413									0.998298	2.37989						
		0.862114	2.04144									1.00025	2.37926						
		0.864076	2.04158																
		0.866038	2.04172																
		0.867999	2.04186																
		0.86996	2.042																
		0.871921	2.04214																
		0.873881	2.04227																
		0.875842	2.04241																
		0.877802	2.04254																
		0.879762	2.04267																
		0.881722	2.0428																
		0.883681	2.04293																
		0.88564	2.04306																
		0.8876	2.04319																
		0.889558	2.04332																
		0.891517	2.04344																
		0.893476	2.04357																
		0.895434	2.04369																
		0.897392	2.04381																
		0.89935	2.04394																
		0.901307	2.04406																
		0.903265	2.04418																
		0.905222	2.0443																
		0.907179	2.04441																
		0.909136	2.04453																
		0.911093	2.04465																
		0.913049	2.04476																
		0.915005	2.04488																
		0.916961	2.04499																
		0.918917	2.0451																
		0.920873	2.04521																
		0.922828	2.04533																
		0.924784	2.04544																
		0.926739	2.04554																
		0.928694	2.04565																
		0.930648	2.04576																
		0.932603	2.04587																
		0.934557	2.04597																
		0.936511	2.04608																
		0.938465	2.04618																
		0.940419	2.04628																
		0.942372	2.04638																
		0.944325	2.04649																
		0.946279	2.04659																
		0.948232	2.04669																
		0.950184	2.04678																
		0.952137	2.04688																
		0.954089	2.04698																
		0.956041	2.04708																
		0.957993	2.04717																
		0.959945	2.04727																
		0.961897	2.04736																
		0.963848	2.04745																
		0.9658	2.04755																
		0.967751	2.04764																
		0.969702	2.04773																
		0.971652	2.04782																
		0.973603	2.04791																
		0.975553	2.048																
		0.977504	2.04809																
		0.979454	2.04817																
		0.981404	2.04826																
		0.983353	2.04835																
		0.985303	2.04843																
		0.987252	2.04852																
		0.989201	2.0486																
		0.99115	2.04868																
		0.993099	2.04877																
		0.995048	2.04885																
		0.996996	2.04893																
		0.998944	2.04901																
		1.00089	2.04909																
