Sym0		Asym0		Sym1		Sym2		Sym3		Sym4		Asym1		Asym2		Asym3		Asym4	
422  Points		529  Points		422  Points		401  Points		350  Points		251  Points		454  Points		397  Points		342  Points		215  Points	
Freq (MHz)	Vph (m/ms)	Freq (MHz)	Vph (m/ms)	Freq (MHz)	Vph (m/ms)	Freq (MHz)	Vph (m/ms)	Freq (MHz)	Vph (m/ms)	Freq (MHz)	Vph (m/ms)	Freq (MHz)	Vph (m/ms)	Freq (MHz)	Vph (m/ms)	Freq (MHz)	Vph (m/ms)	Freq (MHz)	Vph (m/ms)
0.27951	504.902	7.73411e-008	0.00181053	0.27951	525.363	0.441335	2204.2	0.559017	2209.25	0.838525	11746	0.139763	288.889	0.419267	506.166	0.698772	1247.31	0.882672	1125.28
0.279522	188.194	3.6486e-005	0.0374441	0.279521	190.965	0.441343	389.907	0.559026	471.859	0.838529	835.951	0.139832	98.787	0.419284	238.227	0.698779	468.376	0.882679	514.354
0.279544	115.658	0.000139368	0.0731167	0.279543	116.699	0.441363	213.879	0.559046	264.146	0.838538	433.403	0.139968	59.6324	0.419312	155.779	0.698792	288.326	0.882693	333.37
0.279576	83.4886	0.000308596	0.108745	0.279576	84.0294	0.441395	147.362	0.559077	183.417	0.838553	292.538	0.140172	42.7499	0.419352	115.734	0.69881	208.27	0.882712	246.603
0.279619	65.326	0.000543503	0.144185	0.279618	65.6564	0.441439	112.411	0.559119	140.489	0.838574	220.784	0.140441	33.3544	0.419403	92.0733	0.698835	163.012	0.882737	195.678
0.279673	53.6587	0.000843578	0.179439	0.279672	53.8814	0.441494	90.8667	0.559173	113.849	0.838601	177.299	0.140777	27.3764	0.419466	76.4502	0.698866	133.916	0.882768	162.188
0.279737	45.5319	0.00120786	0.214431	0.279736	45.692	0.441561	76.2574	0.559237	95.7072	0.838634	148.128	0.141177	23.2429	0.419541	65.3645	0.698902	113.635	0.882805	138.489
0.279812	39.5468	0.00163547	0.249136	0.27981	39.6674	0.441639	65.6997	0.559313	82.5566	0.838673	127.202	0.141641	20.218	0.419628	57.0908	0.698945	98.692	0.882848	120.834
0.279897	34.9558	0.00212517	0.283496	0.279895	35.05	0.441729	57.7139	0.5594	72.5872	0.838717	111.458	0.142167	17.9111	0.419727	50.6801	0.698994	87.224	0.882896	107.174
0.279992	31.3231	0.00267571	0.31748	0.27999	31.3986	0.441831	51.4626	0.559498	64.7695	0.838767	99.1844	0.142754	16.0957	0.419837	45.5672	0.699049	78.1455	0.88295	96.2905
0.280099	28.3772	0.00328573	0.351052	0.280096	28.4391	0.441945	46.4366	0.559607	58.4752	0.838824	89.3474	0.143401	14.6316	0.419959	41.3945	0.69911	70.7803	0.88301	87.4151
0.280215	25.9405	0.00395367	0.384174	0.280212	25.9921	0.44207	42.3079	0.559728	53.2989	0.838886	81.2871	0.144106	13.4272	0.420092	37.9248	0.699177	64.6854	0.883076	80.0392
0.280342	23.8916	0.00467797	0.416817	0.280339	23.9353	0.442207	38.8563	0.559859	48.9671	0.838954	74.5622	0.144868	12.4199	0.420237	34.9945	0.699249	59.5584	0.883148	73.8125
0.28048	22.145	0.00545696	0.448957	0.280477	22.1825	0.442355	35.928	0.560002	45.289	0.839027	68.8663	0.145684	11.5661	0.420394	32.4871	0.699328	55.1858	0.883225	68.486
0.280628	20.6385	0.006289	0.480573	0.280624	20.671	0.442515	33.4126	0.560156	42.1272	0.839107	63.9801	0.146554	10.8338	0.420563	30.3173	0.699413	51.4125	0.883308	63.8777
0.280786	19.3259	0.00717224	0.51164	0.280783	19.3544	0.442687	31.2287	0.560321	39.3803	0.839193	59.7426	0.147354	10.2761	0.420743	28.4214	0.699504	48.1233	0.883397	59.8515
0.280955	18.1722	0.00810496	0.542143	0.280951	18.1973	0.44287	29.3149	0.560497	36.9717	0.839284	56.0326	0.148065	9.85031	0.420935	26.7507	0.699601	45.2308	0.883492	56.3038
0.281135	17.1503	0.00908543	0.572075	0.281131	17.1726	0.443065	27.6242	0.560684	34.8427	0.839381	52.7574	0.148674	9.52803	0.421138	25.2676	0.699704	42.6674	0.883593	53.1541
0.281325	16.2389	0.0101117	0.601415	0.28132	16.2589	0.443271	26.1198	0.560882	32.9474	0.839485	49.845	0.149168	9.29025	0.421353	23.9421	0.699813	40.3799	0.883699	50.3391
0.281525	15.4211	0.0111822	0.630164	0.28152	15.4391	0.443489	24.7726	0.561091	31.2494	0.839593	47.2383	0.149538	9.12423	0.42158	22.7506	0.699928	38.3261	0.883811	47.8082
0.281736	14.6833	0.012295	0.658312	0.281731	14.6996	0.443719	23.5593	0.561312	29.7196	0.839708	44.8915	0.149778	9.02165	0.421818	21.6737	0.700049	36.472	0.883929	45.5204
0.281957	14.0143	0.0134485	0.685858	0.281952	14.0291	0.443959	22.461	0.561543	28.3341	0.839829	42.7677	0.150128	8.87896	0.422068	20.6958	0.700176	34.7899	0.884052	43.4424
0.282189	13.4051	0.0146409	0.712801	0.282183	13.4186	0.444212	21.4621	0.561785	27.0736	0.839955	40.8366	0.150513	8.72993	0.422329	19.8038	0.700309	33.2569	0.884182	41.5466
0.282431	12.8479	0.0158706	0.73914	0.282425	12.8603	0.444475	20.5498	0.562039	25.9219	0.840088	39.0732	0.151045	8.53676	0.422602	18.9871	0.700448	31.8542	0.884317	39.8101
0.282683	12.3366	0.017136	0.764883	0.282677	12.3479	0.44475	19.7133	0.562303	24.8656	0.840226	37.4565	0.151734	8.30696	0.422886	18.2365	0.700593	30.5657	0.884458	38.2137
0.282946	11.8656	0.0184354	0.790029	0.28294	11.8761	0.445037	18.9437	0.562578	23.8933	0.84037	35.969	0.152587	8.04872	0.423182	17.5444	0.700744	29.3781	0.884605	36.741
0.28322	11.4304	0.0197674	0.814586	0.283213	11.4401	0.445335	18.2333	0.562864	22.9955	0.84052	34.5958	0.153618	7.77029	0.423489	16.9041	0.7009	28.28	0.884757	35.3783
0.283503	11.0272	0.0211304	0.83856	0.283497	11.0362	0.445644	17.5755	0.563162	22.164	0.840676	33.3242	0.154837	7.47947	0.423808	16.3103	0.701063	27.2618	0.884915	34.1137
0.283797	10.6526	0.0225233	0.861964	0.28379	10.661	0.445964	16.9648	0.56347	21.3918	0.840837	32.1435	0.156094	7.21546	0.424138	15.758	0.701232	26.3149	0.885079	32.937
0.284102	10.3037	0.0239444	0.8848	0.284095	10.3115	0.446296	16.3963	0.563788	20.6727	0.841005	31.0442	0.157388	6.97486	0.424479	15.243	0.701407	25.4323	0.885249	31.8394
0.284417	9.97797	0.0253925	0.907084	0.284368	10.026	0.446639	15.8658	0.564118	20.0014	0.841178	30.0182	0.158716	6.75482	0.424832	14.7618	0.701588	24.6076	0.885424	30.8132
0.284742	9.6732	0.0268664	0.928822	0.284607	9.7954	0.446993	15.3697	0.564459	19.3735	0.841357	29.0585	0.160077	6.55292	0.425196	14.3111	0.701775	23.8352	0.885606	29.8516
0.285077	9.38747	0.028365	0.950029	0.28481	9.61301	0.447359	14.9048	0.56481	18.7849	0.841542	28.1587	0.16147	6.36711	0.425571	13.8882	0.701968	23.1105	0.885792	28.9488
0.285423	9.11908	0.0298869	0.970713	0.284972	9.47379	0.447735	14.4682	0.565172	18.232	0.841732	27.3136	0.162894	6.19562	0.425958	13.4907	0.702167	22.429	0.885985	28.0995
0.285779	8.86652	0.0314312	0.990886	0.285094	9.37412	0.448123	14.0575	0.565545	17.7117	0.841929	26.5183	0.164346	6.03694	0.426356	13.1162	0.702371	21.7872	0.886183	27.2991
0.286145	8.62847	0.0329968	1.01056	0.285172	9.31149	0.448521	13.6705	0.565929	17.2212	0.842131	25.7684	0.165826	5.88974	0.426765	12.763	0.702582	21.1815	0.886388	26.5435
0.286522	8.40373	0.0345828	1.02975	0.285285	9.22301	0.448931	13.3051	0.566323	16.7581	0.842339	25.0604	0.167333	5.75288	0.427185	12.4293	0.702799	20.6092	0.886597	25.8292
0.286909	8.19124	0.0361881	1.04846	0.28541	9.12883	0.449352	12.9597	0.566729	16.3201	0.842553	24.3907	0.168865	5.62536	0.427617	12.1134	0.703021	20.0674	0.886813	25.1527
0.287306	7.99004	0.0378119	1.06671	0.285581	9.00399	0.449784	12.6327	0.567144	15.9054	0.842773	23.7563	0.170421	5.50629	0.42806	11.8142	0.70325	19.5539	0.887034	24.5113
0.287713	7.79928	0.0394533	1.08451	0.285801	8.85121	0.450226	12.3227	0.567571	15.512	0.842998	23.1545	0.172	5.39491	0.428513	11.5302	0.703485	19.0665	0.887261	23.9022
0.288131	7.6182	0.0411114	1.10187	0.286073	8.67371	0.45068	12.0284	0.568008	15.1385	0.84323	22.583	0.173601	5.29053	0.428978	11.2604	0.703725	18.6033	0.887493	23.3231
0.288559	7.44608	0.0427857	1.11881	0.286399	8.47496	0.451144	11.7486	0.568455	14.7833	0.843467	22.0394	0.175223	5.19253	0.429454	11.0038	0.703972	18.1625	0.887732	22.7718
0.288997	7.28231	0.0444753	1.13533	0.286783	8.25862	0.451619	11.4824	0.568913	14.4452	0.84371	21.5218	0.176866	5.10038	0.429941	10.7594	0.704224	17.7425	0.887976	22.2463
0.289445	7.12629	0.0461794	1.15144	0.287176	8.05387	0.452105	11.2288	0.569382	14.123	0.843958	21.0284	0.178527	5.01358	0.430438	10.5264	0.704482	17.3419	0.888225	21.745
0.289903	6.97753	0.0478974	1.16717	0.287581	7.85983	0.452602	10.9869	0.569861	13.8156	0.844213	20.5575	0.180207	4.93172	0.430947	10.3041	0.704747	16.9595	0.888481	21.2662
0.290372	6.83552	0.0496287	1.18251	0.287995	7.6757	0.453109	10.7559	0.57035	13.522	0.844473	20.1076	0.181904	4.85439	0.431399	10.1185	0.705017	16.5939	0.888742	20.8084
0.290851	6.69984	0.0513727	1.19748	0.288419	7.50076	0.453627	10.5352	0.57085	13.2414	0.844739	19.6774	0.183618	4.78125	0.431791	9.96589	0.705293	16.2442	0.889008	20.3703
0.29134	6.5701	0.053129	1.21209	0.288854	7.33435	0.454156	10.3241	0.57136	12.9729	0.84501	19.2656	0.185348	4.71199	0.43212	9.84345	0.705575	15.9093	0.889281	19.9506
0.291839	6.44592	0.0548967	1.22636	0.289299	7.17589	0.454625	10.1475	0.571881	12.7157	0.845288	18.8711	0.187094	4.64631	0.432383	9.74894	0.705863	15.5883	0.889558	19.5483
0.292348	6.32696	0.0566755	1.24028	0.289754	7.02484	0.455031	10.002	0.572412	12.4692	0.845571	18.4928	0.188854	4.58395	0.432578	9.6807	0.706157	15.2804	0.889842	19.1622
0.292867	6.21292	0.0584649	1.25387	0.290219	6.8807	0.455372	9.88515	0.572953	12.2327	0.84586	18.1297	0.190628	4.52469	0.432703	9.63758	0.706457	14.9848	0.890131	18.7914
0.293396	6.10351	0.0602645	1.26715	0.290695	6.74302	0.455644	9.79483	0.573504	12.0057	0.846154	17.7809	0.192415	4.4683	0.432884	9.57632	0.706762	14.7007	0.890426	18.435
0.293935	5.99847	0.0620737	1.28011	0.29118	6.6114	0.455845	9.72957	0.574066	11.7875	0.846455	17.4457	0.194216	4.4146	0.433083	9.5107	0.707074	14.4276	0.890726	18.0922
0.294485	5.89754	0.0638921	1.29277	0.291676	6.48546	0.455975	9.6883	0.574638	11.5778	0.846761	17.1232	0.196028	4.36339	0.433355	9.42303	0.707391	14.1648	0.891033	17.7623
0.295044	5.80052	0.0657195	1.30514	0.292182	6.36485	0.456162	9.62965	0.57522	11.3759	0.847073	16.8127	0.197853	4.31453	0.433702	9.31467	0.707715	13.9117	0.891344	17.4445
0.295613	5.70717	0.0675552	1.31723	0.292698	6.24925	0.456367	9.56677	0.575812	11.1816	0.84739	16.5136	0.199689	4.26785	0.434128	9.18724	0.708044	13.6679	0.891661	17.1382
0.296193	5.61732	0.0693992	1.32904	0.293224	6.13837	0.456648	9.4827	0.576414	10.9944	0.847713	16.2253	0.201535	4.22322	0.434635	9.0426	0.708379	13.4328	0.891984	16.8428
0.296782	5.53077	0.0712509	1.34058	0.29376	6.03195	0.457007	9.37868	0.577026	10.8139	0.848042	15.9472	0.203392	4.18052	0.435227	8.88273	0.70872	13.2059	0.892313	16.5577
0.297382	5.44736	0.0731099	1.35186	0.294306	5.92972	0.457445	9.25622	0.577648	10.6398	0.848377	15.6788	0.205259	4.13962	0.435829	8.72904	0.709067	12.9869	0.892647	16.2824
0.297991	5.36692	0.0749762	1.36289	0.294862	5.83146	0.457968	9.117	0.57828	10.4717	0.848717	15.4196	0.207136	4.10042	0.436442	8.58118	0.70942	12.7754	0.892986	16.0164
0.29861	5.28932	0.0768493	1.37367	0.295428	5.73695	0.458576	8.96288	0.578839	10.33	0.849063	15.1691	0.209022	4.06282	0.437065	8.43885	0.709778	12.5709	0.893331	15.7593
0.299239	5.21441	0.078729	1.38422	0.296005	5.64598	0.459195	8.81446	0.579321	10.2124	0.849415	14.9269	0.210916	4.02672	0.437699	8.30175	0.710143	12.3732	0.893682	15.5105
0.299879	5.14207	0.0806148	1.39453	0.296591	5.55839	0.459824	8.67146	0.579724	10.1175	0.849772	14.6927	0.212819	3.99204	0.438344	8.1696	0.710513	12.1819	0.894038	15.2698
0.300528	5.07217	0.0825068	1.40462	0.297187	5.47398	0.460463	8.53357	0.580045	10.0437	0.850135	14.4659	0.214731	3.95871	0.438998	8.04216	0.710889	11.9967	0.8944	15.0367
0.301187	5.00459	0.0844045	1.41449	0.297793	5.3926	0.461113	8.40056	0.580283	9.99029	0.850504	14.2463	0.21665	3.92665	0.439664	7.91918	0.711271	11.8174	0.894767	14.8109
0.301856	4.93924	0.0863078	1.42415	0.298409	5.3141	0.461772	8.27216	0.580435	9.95641	0.850878	14.0336	0.218577	3.89578	0.440339	7.80044	0.711659	11.6436	0.89514	14.592
0.302534	4.87601	0.0882163	1.43361	0.299035	5.23833	0.462441	8.14815	0.580656	9.90817	0.851258	13.8274	0.22051	3.86605	0.441025	7.68574	0.712052	11.4751	0.895518	14.3798
0.303223	4.81481	0.09013	1.44286	0.299671	5.16517	0.46312	8.02832	0.580897	9.85631	0.851644	13.6274	0.222451	3.83739	0.441721	7.57488	0.712452	11.3117	0.895902	14.1739
0.303922	4.75555	0.0920486	1.45192	0.300317	5.09449	0.463809	7.91246	0.581226	9.78676	0.852035	13.4334	0.224399	3.80976	0.442427	7.46768	0.712857	11.1531	0.896292	13.9741
0.304538	4.70542	0.0939719	1.46079	0.300973	5.02618	0.464508	7.8004	0.581646	9.70035	0.852432	13.2451	0.226353	3.78309	0.443143	7.36397	0.713268	10.9992	0.896686	13.78
0.30507	4.66376	0.0958997	1.46947	0.301638	4.96012	0.465216	7.69195	0.582159	9.59812	0.852834	13.0622	0.228313	3.75735	0.44387	7.26358	0.713685	10.8498	0.897087	13.5916
0.305514	4.63003	0.0978319	1.47798	0.302314	4.89622	0.465934	7.58695	0.582768	9.48123	0.853242	12.8846	0.23028	3.73248	0.444607	7.16637	0.714107	10.7046	0.897492	13.4085
0.305867	4.60382	0.0997682	1.48631	0.302999	4.83437	0.466662	7.48524	0.583475	9.35099	0.853656	12.712	0.232252	3.70844	0.445353	7.0722	0.71448	10.5814	0.897904	13.2305
0.306129	4.58479	0.101709	1.49447	0.303695	4.77449	0.467399	7.38668	0.584192	9.22474	0.854075	12.5442	0.234229	3.68519	0.44611	6.98093	0.714802	10.4787	0.89832	13.0573
0.306296	4.57272	0.103653	1.50247	0.3044	4.71649	0.468146	7.29113	0.584918	9.10229	0.8545	12.381	0.236212	3.6627	0.446876	6.89244	0.71507	10.3954	0.898742	12.8889
0.306539	4.55552	0.105601	1.51031	0.305115	4.66029	0.468903	7.19845	0.585654	8.98349	0.85493	12.2223	0.2382	3.64093	0.447653	6.8066	0.715284	10.3306	0.89917	12.725
0.306803	4.53701	0.107552	1.51799	0.30584	4.60582	0.469669	7.10854	0.586399	8.86819	0.855366	12.0678	0.240194	3.61985	0.448439	6.72331	0.715442	10.2834	0.899603	12.5655
0.307165	4.51217	0.109507	1.52552	0.306575	4.553	0.470444	7.02126	0.587154	8.75622	0.855808	11.9174	0.242192	3.59942	0.449235	6.64246	0.715543	10.2535	0.900041	12.4101
0.307626	4.48127	0.111465	1.53291	0.307319	4.50177	0.471228	6.93651	0.587918	8.64747	0.856255	11.7709	0.244194	3.57961	0.450041	6.56395	0.715689	10.2108	0.900485	12.2587
0.308189	4.44465	0.113427	1.54015	0.308073	4.45206	0.472022	6.8542	0.588691	8.54178	0.856708	11.6282	0.246201	3.56041	0.450857	6.48768	0.715849	10.1648	0.900934	12.1112
0.308855	4.40271	0.115138	1.54634	0.308838	4.40381	0.472825	6.77421	0.589473	8.43906	0.857166	11.4891	0.248213	3.54178	0.451682	6.41357	0.716068	10.103	0.901389	11.9675
0.30963	4.3559	0.116599	1.55154	0.309612	4.35696	0.473637	6.69646	0.590265	8.33916	0.85763	11.3535	0.250228	3.52369	0.452517	6.34153	0.716346	10.026	0.901849	11.8273
0.310414	4.31043	0.117808	1.55578	0.310396	4.31147	0.474459	6.62085	0.591066	8.24199	0.858099	11.2213	0.252248	3.50613	0.453361	6.27148	0.716686	9.93451	0.902314	11.6905
0.311208	4.26626	0.118765	1.5591	0.311189	4.26727	0.475289	6.54732	0.591877	8.14744	0.858574	11.0924	0.254272	3.48908	0.454215	6.20334	0.717088	9.82946	0.902784	11.5571
0.312011	4.22333	0.119469	1.56152	0.311993	4.22431	0.476128	6.47577	0.592696	8.0554	0.859054	10.9666	0.256299	3.4725	0.455079	6.13705	0.717555	9.71183	0.90326	11.4269
0.312825	4.18161	0.11992	1.56306	0.312806	4.18256	0.476976	6.40613	0.593524	7.96579	0.859477	10.8594	0.25833	3.45639	0.455952	6.07252	0.718027	9.5972	0.903742	11.2998
0.313648	4.14104	0.120568	1.56527	0.313629	4.14197	0.477834	6.33832	0.594362	7.87852	0.859841	10.7698	0.260364	3.44072	0.456834	6.0097	0.718506	9.48548	0.904228	11.1757
0.314482	4.10159	0.121273	1.56764	0.314462	4.10249	0.4787	6.27229	0.595208	7.79348	0.860144	10.697	0.262402	3.42547	0.457726	5.94852	0.71899	9.37654	0.90472	11.0545
0.315325	4.06321	0.122232	1.57085	0.315305	4.06409	0.479574	6.20797	0.596063	7.71062	0.860385	10.6401	0.264443	3.41063	0.458627	5.88893	0.71948	9.27029	0.905153	10.9511
0.316178	4.02587	0.123446	1.57487	0.316158	4.02672	0.480458	6.14529	0.596927	7.62984	0.860563	10.5987	0.266488	3.39619	0.459537	5.83086	0.719975	9.16663	0.905526	10.8647
0.31704	3.98953	0.124916	1.57967	0.31702	3.99036	0.48135	6.0842	0.5978	7.55107	0.860678	10.5724	0.268535	3.38213	0.460456	5.77426	0.720477	9.06547	0.905836	10.7943
0.317913	3.95415	0.126641	1.58521	0.317893	3.95496	0.482251	6.02464	0.598682	7.47425	0.860843	10.5348	0.270585	3.36842	0.461385	5.71909	0.720984	8.96673	0.906082	10.7393
0.318796	3.91971	0.128623	1.59146	0.318775	3.92049	0.48316	5.96655	0.599572	7.3993	0.861023	10.4942	0.272639	3.35507	0.462323	5.66528	0.721496	8.87033	0.906264	10.6993
0.319688	3.88616	0.130607	1.5976	0.319667	3.88693	0.484078	5.90989	0.600472	7.32616	0.861269	10.4396	0.274695	3.34205	0.46327	5.6128	0.722014	8.77617	0.906381	10.6738
0.320591	3.85349	0.132594	1.60362	0.32057	3.85423	0.485004	5.8546	0.601379	7.25476	0.861581	10.3715	0.276753	3.32936	0.464225	5.56161	0.722538	8.68419	0.90655	10.6374
0.321503	3.82166	0.134583	1.60954	0.321482	3.82238	0.485939	5.80065	0.602296	7.18506	0.861962	10.2903	0.278815	3.31698	0.46519	5.51164	0.723068	8.59432	0.906734	10.5982
0.322425	3.79064	0.136573	1.61534	0.322404	3.79135	0.486882	5.74798	0.60322	7.11699	0.862413	10.1969	0.280878	3.3049	0.466164	5.46288	0.723603	8.50648	0.906985	10.5454
0.323358	3.76041	0.138566	1.62105	0.323336	3.7611	0.487833	5.69655	0.604154	7.0505	0.862936	10.0919	0.282945	3.29311	0.467147	5.41527	0.724144	8.42061	0.907304	10.4793
0.3243	3.73095	0.14056	1.62665	0.324278	3.73162	0.488793	5.64632	0.605096	6.98554	0.863463	9.98922	0.285013	3.2816	0.468138	5.36877	0.724691	8.33664	0.907693	10.4007
0.325253	3.70222	0.142557	1.63216	0.325231	3.70288	0.489761	5.59726	0.606046	6.92206	0.863997	9.8888	0.287084	3.27036	0.469138	5.32337	0.725243	8.25452	0.908152	10.31
0.326216	3.67422	0.144555	1.63756	0.326193	3.67486	0.490736	5.54932	0.607004	6.86	0.864535	9.79056	0.289157	3.25938	0.470147	5.279	0.725801	8.17419	0.908685	10.2081
0.327189	3.6469	0.146554	1.64288	0.327166	3.64753	0.49172	5.50248	0.607971	6.79934	0.865079	9.69444	0.291232	3.24865	0.471165	5.23566	0.726364	8.09559	0.909223	10.1084
0.328172	3.62027	0.148556	1.6481	0.328149	3.62088	0.492712	5.45669	0.608946	6.74001	0.865629	9.60036	0.293309	3.23817	0.472191	5.1933	0.726933	8.01866	0.909766	10.0107
0.329165	3.59428	0.150559	1.65323	0.329142	3.59488	0.493712	5.41192	0.60993	6.68199	0.866184	9.50826	0.295388	3.22792	0.473226	5.15189	0.727508	7.94336	0.910314	9.91508
0.330169	3.56893	0.152563	1.65828	0.330146	3.56951	0.49472	5.36814	0.610921	6.62523	0.866744	9.41809	0.297469	3.2179	0.47427	5.1114	0.728088	7.86964	0.910867	9.82144
0.331183	3.5442	0.154569	1.66324	0.33116	3.54477	0.495735	5.32532	0.611921	6.56969	0.86731	9.32978	0.299552	3.2081	0.475322	5.07182	0.728673	7.79745	0.911425	9.72972
0.332208	3.52007	0.156576	1.66811	0.332184	3.52062	0.496759	5.28344	0.612928	6.51534	0.867881	9.24329	0.301637	3.19851	0.476382	5.0331	0.729265	7.72674	0.911989	9.63986
0.333243	3.49652	0.158585	1.67291	0.333219	3.49706	0.49779	5.24245	0.613944	6.46213	0.868457	9.15855	0.303723	3.18912	0.477451	4.99522	0.729862	7.65748	0.912558	9.5518
0.334289	3.47354	0.160595	1.67762	0.334264	3.47406	0.498829	5.20235	0.614968	6.41005	0.869039	9.07551	0.305811	3.17994	0.478529	4.95816	0.730464	7.58961	0.913132	9.4655
0.335345	3.45111	0.162606	1.68225	0.335321	3.45162	0.499875	5.16309	0.615999	6.35904	0.869626	8.99413	0.307901	3.17095	0.479614	4.92189	0.731072	7.5231	0.913711	9.3809
0.336412	3.42921	0.164618	1.68681	0.336388	3.42971	0.500929	5.12466	0.617039	6.30909	0.870218	8.91435	0.309992	3.16214	0.480708	4.8864	0.731685	7.45791	0.914295	9.29796
0.337491	3.40783	0.166632	1.6913	0.337466	3.40832	0.501991	5.08703	0.618086	6.26016	0.870816	8.83614	0.312084	3.15352	0.481811	4.85166	0.732304	7.394	0.914884	9.21662
0.33858	3.38697	0.168646	1.69571	0.338555	3.38745	0.50306	5.05019	0.619141	6.21223	0.871418	8.75945	0.314178	3.14507	0.482921	4.81764	0.732929	7.33134	0.915478	9.13685
0.33968	3.3666	0.170662	1.70005	0.339655	3.36706	0.504136	5.01409	0.620204	6.16526	0.872027	8.68423	0.316274	3.13679	0.484039	4.78433	0.733559	7.26989	0.916078	9.0586
0.340792	3.34671	0.172678	1.70432	0.340766	3.34716	0.50522	4.97874	0.621274	6.11922	0.87264	8.61045	0.318371	3.12867	0.485166	4.75171	0.734194	7.20961	0.916682	8.98183
0.341914	3.32729	0.174696	1.70853	0.341888	3.32774	0.506311	4.9441	0.622352	6.0741	0.873259	8.53806	0.320469	3.12072	0.486301	4.71975	0.734835	7.15049	0.917292	8.9065
0.343049	3.30834	0.176715	1.71266	0.343022	3.30877	0.507409	4.91015	0.623438	6.02987	0.873883	8.46704	0.322568	3.11292	0.487444	4.68845	0.735482	7.09248	0.917907	8.83256
0.344195	3.28983	0.178734	1.71673	0.344168	3.29025	0.508515	4.87688	0.624531	5.98649	0.874512	8.39733	0.324668	3.10527	0.488594	4.65777	0.736134	7.03555	0.918526	8.75999
0.345352	3.27176	0.180755	1.72074	0.345326	3.27217	0.509628	4.84426	0.625632	5.94396	0.875147	8.32891	0.32677	3.09776	0.489753	4.62772	0.736791	6.97969	0.919151	8.68874
0.346522	3.25412	0.182776	1.72468	0.346495	3.25452	0.510747	4.81229	0.62674	5.90224	0.875787	8.26174	0.328873	3.0904	0.490919	4.59826	0.737454	6.92485	0.919781	8.61879
0.347704	3.23689	0.184798	1.72857	0.347676	3.23729	0.511874	4.78094	0.627855	5.86132	0.876432	8.19579	0.330976	3.08317	0.492094	4.56938	0.738122	6.87101	0.920415	8.55009
0.348898	3.22008	0.186821	1.73239	0.34887	3.22047	0.513008	4.75019	0.628978	5.82117	0.877082	8.13103	0.333081	3.07608	0.493276	4.54107	0.738796	6.81815	0.921055	8.48261
0.350105	3.20367	0.188844	1.73615	0.350076	3.20404	0.514149	4.72004	0.630108	5.78177	0.877737	8.06742	0.335187	3.06912	0.494466	4.51332	0.739475	6.76624	0.9217	8.41633
0.351324	3.18765	0.190868	1.73986	0.351295	3.18802	0.515297	4.69045	0.631246	5.74311	0.878398	8.00495	0.337293	3.06228	0.495664	4.4861	0.74016	6.71525	0.922349	8.35122
0.352556	3.17201	0.192893	1.74351	0.352527	3.17237	0.516451	4.66143	0.63239	5.70516	0.879064	7.94357	0.339401	3.05557	0.496869	4.4594	0.74085	6.66517	0.923004	8.28723
0.353801	3.15676	0.194919	1.74711	0.353772	3.1571	0.517613	4.63295	0.633542	5.66791	0.879735	7.88326	0.341509	3.04898	0.498082	4.43322	0.741545	6.61597	0.923663	8.22435
0.35506	3.14187	0.196945	1.75065	0.355031	3.14221	0.518781	4.60501	0.634701	5.63134	0.880411	7.824	0.343618	3.0425	0.499302	4.40753	0.742246	6.56763	0.924328	8.16255
0.356332	3.12734	0.198972	1.75414	0.356302	3.12767	0.519955	4.57758	0.635867	5.59543	0.881092	7.76575	0.345728	3.03613	0.50053	4.38233	0.742952	6.52013	0.924997	8.10181
0.357618	3.11317	0.200999	1.75757	0.357588	3.1135	0.521137	4.55065	0.637039	5.56017	0.881778	7.7085	0.347839	3.02988	0.501766	4.3576	0.743664	6.47344	0.925671	8.04208
0.358918	3.09935	0.203027	1.76096	0.358888	3.09967	0.522325	4.52422	0.638219	5.52553	0.88247	7.65222	0.34995	3.02373	0.503009	4.33333	0.74438	6.42755	0.92635	7.98336
0.360233	3.08588	0.205056	1.7643	0.360202	3.08618	0.52352	4.49826	0.639406	5.49151	0.883167	7.59689	0.352062	3.01768	0.504259	4.30952	0.745103	6.38244	0.927034	7.92562
0.361562	3.07274	0.207085	1.76759	0.361531	3.07304	0.524721	4.47278	0.6406	5.45809	0.883868	7.54248	0.354174	3.01174	0.505517	4.28614	0.74583	6.33809	0.927723	7.86883
0.362906	3.05993	0.209114	1.77083	0.362875	3.06023	0.525928	4.44775	0.6418	5.42525	0.884575	7.48897	0.356287	3.00589	0.506783	4.26319	0.746563	6.29448	0.928417	7.81297
0.364266	3.04746	0.211144	1.77402	0.364234	3.04774	0.527142	4.42316	0.643008	5.39298	0.885287	7.43634	0.358401	3.00014	0.508055	4.24066	0.747301	6.2516	0.929115	7.75802
0.365641	3.0353	0.213174	1.77717	0.365609	3.03558	0.528363	4.39901	0.644222	5.36127	0.886004	7.38457	0.360515	2.99449	0.509335	4.21853	0.748045	6.20942	0.929818	7.70396
0.367032	3.02347	0.215205	1.78027	0.367	3.02374	0.529589	4.37529	0.645442	5.3301	0.886726	7.33364	0.36263	2.98892	0.510622	4.1968	0.748793	6.16793	0.930527	7.65077
0.368439	3.01194	0.217236	1.78333	0.368407	3.01221	0.530822	4.35197	0.646669	5.29946	0.887454	7.28353	0.364745	2.98344	0.511916	4.17547	0.749547	6.12712	0.93124	7.59842
0.369863	3.00073	0.219268	1.78634	0.36983	3.00099	0.532061	4.32906	0.647903	5.26934	0.888186	7.23422	0.36686	2.97805	0.513217	4.15451	0.750307	6.08697	0.931957	7.54691
0.371304	2.98982	0.2213	1.78931	0.371271	2.99007	0.533306	4.30655	0.649144	5.23972	0.888923	7.18569	0.368976	2.97275	0.514525	4.13392	0.751071	6.04746	0.93268	7.4962
0.372763	2.97921	0.223332	1.79224	0.372729	2.97945	0.534558	4.28442	0.650391	5.2106	0.889665	7.13794	0.371093	2.96752	0.515841	4.1137	0.751841	6.00858	0.933407	7.44629
0.374239	2.9689	0.225365	1.79513	0.374204	2.96914	0.535815	4.26267	0.651644	5.18197	0.890413	7.09093	0.373209	2.96237	0.517163	4.09383	0.752616	5.97032	0.934139	7.39714
0.375733	2.95888	0.227398	1.79798	0.375698	2.95911	0.537079	4.24128	0.652904	5.1538	0.891165	7.04465	0.375326	2.95731	0.518493	4.0743	0.753397	5.93267	0.934876	7.34876
0.377245	2.94915	0.229431	1.80079	0.37721	2.94938	0.538348	4.22026	0.65417	5.12609	0.891922	6.99909	0.377443	2.95231	0.519829	4.05511	0.754182	5.8956	0.935617	7.30112
0.378776	2.93971	0.231464	1.80356	0.37874	2.93993	0.539624	4.19958	0.655443	5.09884	0.892684	6.95422	0.37956	2.9474	0.521173	4.03626	0.754973	5.85911	0.936363	7.2542
0.380326	2.93055	0.233498	1.8063	0.38029	2.93076	0.540905	4.17925	0.656722	5.07203	0.893452	6.91005	0.381678	2.94255	0.522523	4.01772	0.755769	5.82318	0.937114	7.20799
0.381895	2.92167	0.235532	1.80899	0.381859	2.92187	0.542192	4.15925	0.658007	5.04564	0.894224	6.86654	0.383796	2.93778	0.52388	3.99951	0.75657	5.7878	0.93787	7.16247
0.383484	2.91306	0.237566	1.81165	0.383447	2.91326	0.543485	4.13959	0.659298	5.01968	0.895001	6.82369	0.385914	2.93307	0.525244	3.9816	0.757376	5.75297	0.93863	7.11763
0.385093	2.90473	0.2396	1.81428	0.385056	2.90492	0.544784	4.12024	0.660595	4.99413	0.895783	6.78148	0.388031	2.92843	0.526614	3.96399	0.758188	5.71866	0.939395	7.07346
0.386723	2.89666	0.241635	1.81686	0.386685	2.89684	0.546088	4.1012	0.661899	4.96899	0.89657	6.7399	0.39015	2.92386	0.527992	3.94668	0.759004	5.68487	0.940164	7.02993
0.388372	2.88885	0.24367	1.81942	0.388334	2.88903	0.547398	4.08248	0.663208	4.94424	0.897362	6.69893	0.392268	2.91935	0.529376	3.92966	0.759826	5.65159	0.940938	6.98705
0.390042	2.88131	0.245705	1.82194	0.390003	2.88148	0.548714	4.06405	0.664524	4.91987	0.898159	6.65857	0.394386	2.9149	0.530766	3.91292	0.760653	5.6188	0.941717	6.94478
0.391733	2.87402	0.24774	1.82443	0.391694	2.87419	0.550035	4.04592	0.665845	4.89589	0.89896	6.61879	0.396504	2.91051	0.532163	3.89646	0.761485	5.5865	0.9425	6.90313
0.393445	2.86698	0.249775	1.82688	0.393405	2.86714	0.551362	4.02807	0.667173	4.87227	0.899767	6.5796	0.398622	2.90618	0.533567	3.88026	0.762322	5.55467	0.943288	6.86207
0.395178	2.86019	0.251811	1.8293	0.395138	2.86035	0.552694	4.01051	0.668506	4.84901	0.900578	6.54097	0.40074	2.90191	0.534978	3.86434	0.763165	5.52331	0.944081	6.8216
0.396932	2.85364	0.253846	1.83169	0.396891	2.85379	0.554032	3.99322	0.669845	4.82611	0.901394	6.50289	0.402858	2.8977	0.536395	3.84867	0.764012	5.49241	0.944878	6.78171
0.398707	2.84733	0.255882	1.83405	0.398666	2.84747	0.555375	3.9762	0.67119	4.80356	0.902216	6.46536	0.404976	2.89355	0.537818	3.83326	0.764865	5.46195	0.945679	6.74237
0.400503	2.84125	0.257918	1.83638	0.400461	2.84139	0.556724	3.95944	0.672541	4.78134	0.903042	6.42836	0.407094	2.88944	0.539248	3.8181	0.765722	5.43194	0.946485	6.70359
0.40232	2.8354	0.259953	1.83868	0.402278	2.83554	0.558078	3.94294	0.673897	4.75946	0.903872	6.39188	0.409212	2.88539	0.540684	3.80318	0.766585	5.40235	0.947296	6.66535
0.404158	2.82977	0.261989	1.84094	0.404115	2.8299	0.559437	3.9267	0.675259	4.7379	0.904708	6.35591	0.411329	2.88139	0.542127	3.7885	0.767452	5.37319	0.948111	6.62764
0.406016	2.82436	0.264025	1.84318	0.405973	2.82448	0.560801	3.9107	0.676627	4.71667	0.905548	6.32044	0.413447	2.87745	0.543576	3.77405	0.768325	5.34443	0.948931	6.59044
0.407895	2.81916	0.266061	1.84539	0.407852	2.81928	0.562171	3.89495	0.678	4.69574	0.906393	6.28547	0.415564	2.87355	0.545031	3.75983	0.769203	5.31609	0.949755	6.55376
0.409795	2.81417	0.268098	1.84758	0.40975	2.81428	0.563546	3.87943	0.679379	4.67512	0.907243	6.25098	0.417681	2.8697	0.546493	3.74584	0.770086	5.28814	0.950584	6.51757
0.411713	2.80937	0.270134	1.84973	0.411669	2.80948	0.564926	3.86415	0.680764	4.65481	0.908098	6.21696	0.419797	2.86589	0.54796	3.73207	0.770973	5.26058	0.951417	6.48188
0.413652	2.80476	0.27217	1.85186	0.413607	2.80487	0.566311	3.84909	0.682154	4.63478	0.908958	6.1834	0.421914	2.86214	0.549434	3.71851	0.771866	5.2334	0.952254	6.44666
0.41561	2.80035	0.274206	1.85396	0.415564	2.80045	0.567701	3.83426	0.683549	4.61505	0.909822	6.1503	0.42403	2.85843	0.550915	3.70516	0.772764	5.20659	0.953096	6.41192
0.417586	2.79611	0.276242	1.85604	0.41754	2.79621	0.569096	3.81965	0.684949	4.5956	0.910691	6.11764	0.426146	2.85476	0.552401	3.69203	0.773667	5.18016	0.953943	6.37764
0.419581	2.79205	0.278279	1.85809	0.419535	2.79214	0.570496	3.80525	0.686355	4.57642	0.911564	6.08542	0.428261	2.85113	0.553893	3.67909	0.774574	5.15408	0.954793	6.34381
0.421594	2.78816	0.280315	1.86011	0.421547	2.78825	0.571901	3.79106	0.687767	4.55752	0.912443	6.05363	0.430376	2.84755	0.555392	3.66636	0.775487	5.12836	0.955648	6.31043
0.423624	2.78443	0.282351	1.86211	0.423577	2.78451	0.573311	3.77708	0.689183	4.53888	0.913326	6.02227	0.43249	2.84401	0.556897	3.65382	0.776404	5.10299	0.956508	6.27749
0.425671	2.78085	0.284387	1.86409	0.425623	2.78093	0.574726	3.7633	0.690605	4.52051	0.914214	5.99131	0.434605	2.84051	0.558407	3.64147	0.777327	5.07796	0.957372	6.24497
0.427734	2.77743	0.286424	1.86604	0.427686	2.7775	0.576146	3.74972	0.692032	4.50239	0.915106	5.96077	0.436718	2.83705	0.559924	3.62931	0.778254	5.05326	0.95824	6.21288
0.429813	2.77414	0.28846	1.86797	0.429765	2.77422	0.57757	3.73633	0.693464	4.48452	0.916003	5.93062	0.438832	2.83363	0.561447	3.61733	0.779187	5.02889	0.959113	6.18119
0.431908	2.771	0.290496	1.86987	0.431859	2.77107	0.578999	3.72314	0.694901	4.46691	0.916905	5.90086	0.440944	2.83024	0.562975	3.60554	0.780124	5.00484	0.95999	6.14992
0.434017	2.76798	0.292532	1.87175	0.433968	2.76805	0.580433	3.71013	0.696343	4.44953	0.917811	5.87149	0.443057	2.8269	0.56451	3.59392	0.781066	4.98112	0.960871	6.11904
0.43614	2.7651	0.294568	1.87361	0.436091	2.76516	0.581872	3.69731	0.697791	4.43239	0.918722	5.84249	0.445168	2.82358	0.56605	3.58247	0.782013	4.9577	0.961756	6.08855
0.438278	2.76233	0.296604	1.87544	0.438228	2.76239	0.583315	3.68467	0.699243	4.41548	0.919638	5.81387	0.44728	2.82031	0.567596	3.5712	0.782965	4.93459	0.962646	6.05845
0.440428	2.75968	0.29864	1.87726	0.440378	2.75974	0.584763	3.6722	0.7007	4.3988	0.920558	5.78561	0.44939	2.81707	0.569148	3.5601	0.783922	4.91177	0.96354	6.02873
0.442591	2.75714	0.300676	1.87905	0.442541	2.75719	0.586215	3.65991	0.702162	4.38235	0.921483	5.75771	0.4515	2.81386	0.570706	3.54916	0.784883	4.88926	0.964438	5.99938
0.444766	2.7547	0.302712	1.88082	0.444716	2.75475	0.587672	3.64778	0.703629	4.36612	0.922412	5.73016	0.45361	2.81069	0.572269	3.53838	0.78585	4.86703	0.965341	5.97039
0.446953	2.75236	0.304747	1.88257	0.446903	2.75241	0.589134	3.63583	0.705101	4.3501	0.923346	5.70295	0.455719	2.80755	0.573839	3.52776	0.786821	4.84509	0.966248	5.94176
0.449151	2.75012	0.306783	1.8843	0.4491	2.75017	0.5906	3.62404	0.706578	4.3343	0.924285	5.67608	0.457827	2.80444	0.575413	3.5173	0.787797	4.82342	0.967158	5.91348
0.45136	2.74797	0.308818	1.88601	0.451309	2.74802	0.59207	3.61241	0.708059	4.3187	0.925228	5.64955	0.459935	2.80136	0.576994	3.50698	0.788778	4.80204	0.968074	5.88555
0.453579	2.7459	0.310854	1.8877	0.453528	2.74595	0.593545	3.60094	0.709545	4.30331	0.926176	5.62335	0.462041	2.79831	0.57858	3.49682	0.789763	4.78092	0.968993	5.85795
0.455808	2.74392	0.312889	1.88937	0.455756	2.74396	0.595024	3.58962	0.711036	4.28812	0.927128	5.59746	0.464148	2.7953	0.580172	3.48681	0.790754	4.76007	0.969917	5.8307
0.458046	2.74201	0.314924	1.89102	0.457994	2.74206	0.596508	3.57846	0.712532	4.27313	0.928084	5.5719	0.466253	2.79231	0.58177	3.47694	0.791749	4.73948	0.970844	5.80377
0.460293	2.74018	0.316959	1.89265	0.460241	2.74022	0.597996	3.56744	0.714032	4.25834	0.929045	5.54664	0.468358	2.78935	0.583373	3.46722	0.792749	4.71914	0.971776	5.77716
0.462549	2.73842	0.318994	1.89427	0.462497	2.73846	0.599488	3.55658	0.715537	4.24373	0.930011	5.52169	0.470462	2.78642	0.584981	3.45763	0.793753	4.69906	0.972712	5.75087
0.464813	2.73673	0.321029	1.89586	0.46476	2.73677	0.600984	3.54585	0.717046	4.22931	0.930981	5.49704	0.472565	2.78351	0.586596	3.44818	0.794763	4.67923	0.973652	5.72489
0.467085	2.7351	0.323064	1.89744	0.467032	2.73514	0.602485	3.53527	0.718559	4.21507	0.931956	5.47269	0.474668	2.78064	0.588215	3.43887	0.795777	4.65964	0.974596	5.69922
0.469364	2.73353	0.325099	1.89899	0.469311	2.73357	0.603989	3.52483	0.720078	4.20102	0.932935	5.44863	0.476769	2.77779	0.58984	3.42969	0.796796	4.64029	0.975545	5.67386
0.47165	2.73202	0.327133	1.90054	0.471597	2.73206	0.605498	3.51453	0.7216	4.18714	0.933918	5.42485	0.47887	2.77497	0.591471	3.42064	0.797819	4.62117	0.976497	5.64879
0.473943	2.73057	0.329167	1.90206	0.47389	2.7306	0.607011	3.50436	0.723127	4.17344	0.934906	5.40136	0.48097	2.77217	0.593106	3.41172	0.798847	4.60229	0.977453	5.62401
0.476242	2.72917	0.331201	1.90356	0.476189	2.7292	0.608529	3.49433	0.724659	4.15991	0.935899	5.37815	0.483069	2.7694	0.594748	3.40292	0.79988	4.58364	0.978414	5.59952
0.478548	2.72781	0.333235	1.90505	0.478494	2.72784	0.61005	3.48442	0.726194	4.14655	0.936895	5.3552	0.485167	2.76665	0.596394	3.39425	0.800918	4.56521	0.979378	5.57531
0.480859	2.72651	0.335269	1.90653	0.480806	2.72654	0.611575	3.47464	0.727734	4.13335	0.937896	5.33253	0.487265	2.76392	0.598046	3.38569	0.80196	4.547	0.980347	5.55138
0.483176	2.72525	0.337303	1.90798	0.483123	2.72528	0.613104	3.46499	0.729279	4.12032	0.938902	5.31011	0.489361	2.76122	0.599703	3.37726	0.803007	4.52901	0.98132	5.52772
0.485499	2.72403	0.339337	1.90942	0.485445	2.72406	0.614638	3.45546	0.730827	4.10745	0.939912	5.28796	0.491457	2.75855	0.601366	3.36895	0.804058	4.51124	0.982296	5.50434
0.487826	2.72286	0.34137	1.91084	0.487772	2.72289	0.616175	3.44605	0.73238	4.09473	0.940926	5.26606	0.493552	2.75589	0.603033	3.36075	0.805114	4.49367	0.983277	5.48121
0.490159	2.72172	0.343403	1.91225	0.490105	2.72175	0.617716	3.43676	0.733937	4.08217	0.941945	5.24442	0.495645	2.75326	0.604706	3.35266	0.806175	4.47632	0.984261	5.45835
0.492496	2.72063	0.345436	1.91365	0.492442	2.72065	0.619261	3.42759	0.735498	4.06977	0.942968	5.22302	0.497738	2.75065	0.606384	3.34469	0.80724	4.45916	0.98525	5.43575
0.494837	2.71956	0.347469	1.91502	0.494783	2.71959	0.62081	3.41853	0.737063	4.05751	0.943995	5.20187	0.49983	2.74806	0.608068	3.33683	0.80831	4.44221	0.986242	5.4134
0.497183	2.71854	0.349502	1.91639	0.497129	2.71856	0.622362	3.40959	0.738632	4.0454	0.945027	5.18095	0.501921	2.74549	0.609756	3.32907	0.809384	4.42545	0.987239	5.3913
0.499533	2.71754	0.351534	1.91773	0.499478	2.71756	0.623919	3.40076	0.740205	4.03343	0.946062	5.16027	0.504011	2.74294	0.61145	3.32142	0.810463	4.40889	0.988239	5.36944
0.501887	2.71658	0.353566	1.91907	0.501832	2.7166	0.625479	3.39204	0.741783	4.02161	0.947103	5.13983	0.506099	2.74041	0.613148	3.31388	0.811547	4.39252	0.989243	5.34782
0.504244	2.71564	0.355599	1.92038	0.504189	2.71566	0.627043	3.38342	0.743364	4.00993	0.948147	5.11961	0.508187	2.73791	0.614852	3.30643	0.812635	4.37634	0.990251	5.32645
0.506605	2.71473	0.35763	1.92169	0.50655	2.71475	0.628611	3.37492	0.744949	3.99838	0.949196	5.09962	0.510274	2.73542	0.61656	3.29909	0.813727	4.36035	0.991263	5.3053
0.508969	2.71385	0.359662	1.92298	0.508914	2.71387	0.630183	3.36651	0.746538	3.98697	0.950249	5.07984	0.51236	2.73295	0.618274	3.29185	0.814824	4.34454	0.992279	5.28439
0.511336	2.713	0.361694	1.92426	0.511282	2.71302	0.631758	3.35821	0.748131	3.9757	0.951306	5.06029	0.514444	2.7305	0.619993	3.28471	0.815926	4.32891	0.993299	5.2637
0.513707	2.71217	0.363725	1.92552	0.513652	2.71219	0.633337	3.35002	0.749728	3.96456	0.952368	5.04096	0.516528	2.72807	0.621716	3.27766	0.817032	4.31345	0.994323	5.24324
0.51608	2.71136	0.365756	1.92677	0.516025	2.71138	0.634919	3.34192	0.751328	3.95354	0.953433	5.02183	0.51861	2.72565	0.623445	3.27071	0.818142	4.29817	0.99535	5.223
0.518456	2.71058	0.367787	1.928	0.518401	2.7106	0.636505	3.33392	0.752933	3.94265	0.954503	5.00292	0.520692	2.72326	0.625178	3.26385	0.819257	4.28307	0.996381	5.20297
0.520835	2.70982	0.369818	1.92923	0.52078	2.70983	0.638095	3.32601	0.754541	3.93189	0.955577	4.98421	0.522772	2.72088	0.626917	3.25708	0.820377	4.26813	0.997416	5.18316
0.523217	2.70907	0.371848	1.93044	0.523162	2.70909	0.639688	3.3182	0.756152	3.92125	0.956656	4.9657	0.524851	2.71852	0.62866	3.25041	0.821501	4.25336	0.998455	5.16356
0.525601	2.70835	0.373879	1.93163	0.525545	2.70837	0.641285	3.31048	0.757768	3.91074	0.957738	4.94739	0.526929	2.71617	0.630408	3.24382	0.822629	4.23876	0.999498	5.14416
0.527987	2.70765	0.375909	1.93282	0.527931	2.70766	0.642885	3.30286	0.759387	3.90034	0.958825	4.92928	0.529006	2.71385	0.632161	3.23732	0.823762	4.22431	1.00054	5.12497
0.530375	2.70696	0.377939	1.93399	0.53032	2.70698	0.644489	3.29533	0.76101	3.89006	0.959916	4.91137	0.531082	2.71154	0.633918	3.2309	0.824899	4.21003		
0.532766	2.70629	0.379968	1.93515	0.53271	2.70631	0.646096	3.28788	0.762636	3.87989	0.961011	4.89364	0.533157	2.70924	0.63568	3.22457	0.826041	4.1959		
0.535158	2.70564	0.381998	1.9363	0.535103	2.70566	0.647707	3.28052	0.764266	3.86984	0.96211	4.8761	0.53523	2.70696	0.637448	3.21832	0.827187	4.18193		
0.537553	2.70501	0.384027	1.93743	0.537497	2.70502	0.649321	3.27325	0.7659	3.8599	0.963213	4.85875	0.537302	2.7047	0.639219	3.21216	0.828337	4.16812		
0.539949	2.70439	0.386056	1.93856	0.539893	2.7044	0.650938	3.26607	0.767537	3.85008	0.964321	4.84158	0.539373	2.70245	0.640996	3.20608	0.829492	4.15445		
0.542347	2.70378	0.388085	1.93967	0.542291	2.70379	0.652559	3.25896	0.769177	3.84036	0.965432	4.8246	0.541443	2.70021	0.642777	3.20007	0.830651	4.14093		
0.544747	2.70319	0.390113	1.94077	0.544691	2.7032	0.654183	3.25194	0.770821	3.83074	0.966548	4.80779	0.543512	2.69799	0.644562	3.19415	0.831814	4.12756		
0.547148	2.70261	0.392142	1.94186	0.547093	2.70262	0.655811	3.24501	0.772468	3.82124	0.967667	4.79115	0.54558	2.69579	0.646353	3.1883	0.832982	4.11433		
0.549551	2.70204	0.39417	1.94294	0.549495	2.70206	0.657442	3.23815	0.774119	3.81183	0.968791	4.77469	0.547646	2.6936	0.648147	3.18252	0.834154	4.10125		
0.551955	2.70149	0.396198	1.94401	0.5519	2.7015	0.659076	3.23137	0.775773	3.80253	0.969919	4.7584	0.549711	2.69142	0.649947	3.17683	0.835331	4.08831		
0.554361	2.70095	0.398225	1.94507	0.554305	2.70096	0.660713	3.22467	0.777431	3.79334	0.97105	4.74227	0.551775	2.68926	0.651751	3.1712	0.836511	4.0755		
0.556768	2.70042	0.400253	1.94611	0.556712	2.70043	0.662354	3.21804	0.779091	3.78424	0.972186	4.72631	0.553837	2.68711	0.653559	3.16565	0.837696	4.06283		
0.559176	2.6999	0.40228	1.94715	0.559121	2.69991	0.663998	3.21149	0.780755	3.77523	0.973326	4.71052	0.555899	2.68498	0.655372	3.16017	0.838886	4.0503		
0.561586	2.69939	0.404307	1.94817	0.56153	2.6994	0.665645	3.20502	0.782423	3.76633	0.97447	4.69489	0.557959	2.68285	0.657189	3.15476	0.840079	4.0379		
0.563997	2.69889	0.406333	1.94919	0.563941	2.6989	0.667296	3.19861	0.784093	3.75752	0.975618	4.67941	0.560018	2.68074	0.659011	3.14942	0.841277	4.02563		
0.566408	2.6984	0.40836	1.95019	0.566353	2.69841	0.668949	3.19228	0.785767	3.7488	0.97677	4.66409	0.562075	2.67865	0.660837	3.14414	0.842479	4.01349		
0.568821	2.69792	0.410386	1.95119	0.568765	2.69793	0.670606	3.18602	0.787444	3.74018	0.977926	4.64893	0.564132	2.67656	0.662667	3.13894	0.843686	4.00147		
0.571235	2.69745	0.412412	1.95217	0.571179	2.69746	0.672266	3.17983	0.789124	3.73164	0.979086	4.63392	0.566187	2.67449	0.664502	3.1338	0.844896	3.98958		
0.57365	2.69698	0.414438	1.95315	0.573594	2.69699	0.673929	3.17371	0.790807	3.7232	0.980249	4.61906	0.568241	2.67243	0.666341	3.12872	0.846111	3.97782		
0.576065	2.69653	0.416463	1.95411	0.576009	2.69654	0.675595	3.16766	0.792493	3.71484	0.981417	4.60435	0.570293	2.67038	0.668184	3.12371	0.84733	3.96618		
0.578481	2.69608	0.418488	1.95507	0.578425	2.69609	0.677265	3.16168	0.794183	3.70657	0.982589	4.58978	0.572345	2.66835	0.670031	3.11877	0.848553	3.95466		
0.580899	2.69564	0.420513	1.95601	0.580843	2.69565	0.678937	3.15576	0.795875	3.69839	0.983765	4.57536	0.574395	2.66632	0.671883	3.11388	0.84978	3.94326		
0.583316	2.69521	0.422538	1.95695	0.58326	2.69522	0.680613	3.14991	0.79757	3.69029	0.984944	4.56108	0.576444	2.66431	0.673739	3.10906	0.851012	3.93197		
0.585735	2.69478	0.424562	1.95788	0.585679	2.69479	0.682291	3.14412	0.799269	3.68227	0.986127	4.54695	0.578491	2.66231	0.675599	3.10429	0.852248	3.9208		
0.588154	2.69436	0.426587	1.9588	0.588098	2.69437	0.683973	3.13839	0.80097	3.67434	0.987315	4.53295	0.580537	2.66032	0.677463	3.09959	0.853488	3.90975		
0.590574	2.69395	0.428611	1.95971	0.590518	2.69396	0.685657	3.13273	0.802674	3.66649	0.988506	4.51909	0.582582	2.65834	0.679331	3.09494	0.854732	3.89881		
0.592995	2.69354	0.430634	1.96061	0.592939	2.69355	0.687345	3.12713	0.804382	3.65872	0.989701	4.50536	0.584626	2.65637	0.681204	3.09036	0.85598	3.88798		
0.595415	2.69314	0.432658	1.9615	0.595359	2.69315	0.689035	3.12159	0.806092	3.65102	0.9909	4.49177	0.586668	2.65442	0.68308	3.08583	0.857232	3.87726		
0.597837	2.69275	0.434681	1.96238	0.597781	2.69276	0.690729	3.11611	0.807805	3.64341	0.992103	4.47831	0.588709	2.65247	0.68496	3.08135	0.858488	3.86665		
0.600259	2.69236	0.436704	1.96326	0.600203	2.69237	0.692425	3.11069	0.80952	3.63587	0.99331	4.46498	0.590749	2.65053	0.686845	3.07693	0.859749	3.85614		
0.602681	2.69197	0.438726	1.96412	0.602625	2.69198	0.694125	3.10532	0.811239	3.6284	0.99452	4.45177	0.592788	2.64861	0.688733	3.07257	0.861014	3.84574		
0.605104	2.69159	0.440749	1.96498	0.605048	2.6916	0.695827	3.10002	0.812961	3.62101	0.995735	4.4387	0.594825	2.64669	0.690625	3.06825	0.862282	3.83545		
0.607527	2.69122	0.442771	1.96583	0.607471	2.69123	0.697533	3.09477	0.814685	3.61369	0.996953	4.42575	0.596861	2.64479	0.692521	3.064	0.863555	3.82526		
0.60995	2.69085	0.444793	1.96667	0.609894	2.69085	0.699241	3.08958	0.816412	3.60645	0.998175	4.41292	0.598896	2.64289	0.694421	3.05979	0.864832	3.81517		
0.612374	2.69048	0.446814	1.96751	0.612318	2.69049	0.700953	3.08444	0.818141	3.59928	0.9994	4.40021	0.600929	2.64101	0.696325	3.05563	0.866113	3.80518		
0.614798	2.69012	0.448836	1.96833	0.614742	2.69013	0.702667	3.07936	0.819874	3.59217	1.00063	4.38763	0.602961	2.63913	0.698233	3.05153	0.867398	3.79529		
0.617222	2.68976	0.450857	1.96915	0.617166	2.68977	0.704384	3.07433	0.821609	3.58514			0.604992	2.63727	0.700144	3.04747	0.868687	3.78549		
0.619646	2.6894	0.452878	1.96996	0.61959	2.68941	0.706104	3.06936	0.823346	3.57818			0.607022	2.63541	0.702059	3.04347	0.86998	3.7758		
0.622071	2.68905	0.454898	1.97076	0.622014	2.68906	0.707827	3.06444	0.825087	3.57128			0.60905	2.63356	0.703978	3.03951	0.871277	3.7662		
0.624495	2.6887	0.456919	1.97156	0.624439	2.68871	0.709552	3.05957	0.82683	3.56445			0.611077	2.63173	0.705901	3.0356	0.872578	3.75669		
0.62692	2.68836	0.458939	1.97234	0.626864	2.68837	0.711281	3.05475	0.828575	3.55768			0.613103	2.6299	0.707827	3.03173	0.873883	3.74728		
0.629344	2.68802	0.460958	1.97312	0.629288	2.68803	0.713012	3.04998	0.830323	3.55098			0.615128	2.62808	0.709757	3.02792	0.875192	3.73796		
0.631769	2.68768	0.462978	1.9739	0.631713	2.68769	0.714747	3.04526	0.832074	3.54435			0.617151	2.62627	0.71169	3.02415	0.876505	3.72873		
0.634194	2.68734	0.464997	1.97466	0.634138	2.68735	0.716484	3.04059	0.833827	3.53778			0.619173	2.62447	0.713627	3.02042	0.877821	3.71959		
0.636619	2.68701	0.467016	1.97542	0.636563	2.68702	0.718224	3.03597	0.835582	3.53127			0.621194	2.62268	0.715568	3.01674	0.879142	3.71054		
0.639043	2.68668	0.469035	1.97617	0.638987	2.68669	0.719966	3.0314	0.83734	3.52482			0.623214	2.6209	0.717512	3.0131	0.880467	3.70157		
0.641468	2.68635	0.471053	1.97691	0.641412	2.68636	0.721712	3.02688	0.839101	3.51843			0.625232	2.61912	0.719459	3.0095	0.881796	3.6927		
0.643892	2.68602	0.473071	1.97765	0.643836	2.68603	0.72346	3.0224	0.840864	3.5121			0.627249	2.61736	0.72141	3.00594	0.883129	3.6839		
0.646317	2.6857	0.475089	1.97838	0.646261	2.6857	0.725212	3.01797	0.842629	3.50583			0.629265	2.6156	0.723364	3.00243	0.884465	3.6752		
0.648741	2.68537	0.477107	1.9791	0.648685	2.68538	0.726966	3.01358	0.844397	3.49962			0.63128	2.61385	0.725322	2.99896	0.885806	3.66657		
0.651165	2.68505	0.479124	1.97982	0.651109	2.68506	0.728723	3.00924	0.846167	3.49347			0.633294	2.61211	0.727283	2.99553	0.88715	3.65803		
0.653589	2.68473	0.481141	1.98053	0.653533	2.68474	0.730482	3.00495	0.847939	3.48737			0.635306	2.61038	0.729247	2.99214	0.888499	3.64957		
0.656012	2.68441	0.483158	1.98123	0.655956	2.68442	0.732245	3.0007	0.849714	3.48133			0.637317	2.60866	0.731215	2.98879	0.889851	3.64119		
0.658435	2.6841	0.485174	1.98193	0.658379	2.6841	0.73401	2.99649	0.851491	3.47534			0.639327	2.60694	0.733186	2.98547	0.891207	3.63289		
0.660858	2.68378	0.487191	1.98262	0.660802	2.68379	0.735778	2.99233	0.85327	3.46941			0.641336	2.60524	0.73516	2.9822	0.892567	3.62466		
0.663281	2.68347	0.489207	1.9833	0.663225	2.68347	0.737549	2.98821	0.855052	3.46353			0.643344	2.60354	0.737137	2.97896	0.893931	3.61652		
0.665703	2.68315	0.491222	1.98398	0.665647	2.68316	0.739323	2.98413	0.856836	3.45771			0.64535	2.60185	0.739118	2.97576	0.895298	3.60845		
0.668125	2.68284	0.493238	1.98465	0.668069	2.68284	0.741099	2.98009	0.858622	3.45194			0.647355	2.60017	0.741101	2.97259	0.89667	3.60046		
0.670546	2.68252	0.495253	1.98532	0.67049	2.68253	0.742878	2.9761	0.86041	3.44622			0.64936	2.59849	0.743088	2.96946	0.898045	3.59254		
0.672967	2.68221	0.497268	1.98598	0.672911	2.68222	0.74466	2.97214	0.8622	3.44055			0.651363	2.59683	0.745078	2.96637	0.899424	3.5847		
0.675388	2.6819	0.499282	1.98663	0.675332	2.68191	0.746445	2.96823	0.863993	3.43493			0.653365	2.59517	0.74707	2.96331	0.900807	3.57693		
0.677808	2.68159	0.501297	1.98728	0.677752	2.6816	0.748233	2.96435	0.865788	3.42937			0.655366	2.59352	0.749066	2.96029	0.902194	3.56923		
0.680227	2.68128	0.503311	1.98792	0.680171	2.68128	0.750023	2.96052	0.867584	3.42385			0.657365	2.59188	0.751065	2.9573	0.903584	3.5616		
0.682646	2.68097	0.505325	1.98856	0.68259	2.68097	0.751817	2.95673	0.869383	3.41838			0.659364	2.59024	0.753066	2.95434	0.904979	3.55405		
0.685064	2.68065	0.507338	1.98919	0.685008	2.68066	0.753613	2.95297	0.871184	3.41296			0.661361	2.58861	0.755071	2.95142	0.906377	3.54656		
0.687482	2.68034	0.509351	1.98981	0.687426	2.68035	0.755412	2.94925	0.872987	3.40758			0.663358	2.58699	0.757078	2.94853	0.907779	3.53914		
0.689898	2.68003	0.511364	1.99043	0.689842	2.68004	0.757214	2.94557	0.874792	3.40225			0.665353	2.58538	0.759088	2.94567	0.909185	3.53179		
0.692315	2.67972	0.513377	1.99105	0.692259	2.67972	0.759019	2.94193	0.876599	3.39697			0.667348	2.58378	0.761101	2.94284	0.910594	3.52451		
0.69473	2.6794	0.515389	1.99166	0.694674	2.67941	0.760826	2.93832	0.878408	3.39174			0.669341	2.58218	0.763117	2.94004	0.912007	3.5173		
0.697145	2.67909	0.517402	1.99226	0.697089	2.6791	0.762636	2.93476	0.880219	3.38655			0.671333	2.58059	0.765135	2.93727	0.913424	3.51015		
0.699559	2.67878	0.519413	1.99286	0.699503	2.67878	0.76445	2.93122	0.882032	3.3814			0.673324	2.57901	0.767156	2.93454	0.914845	3.50307		
0.701972	2.67846	0.521425	1.99345	0.701916	2.67847	0.766266	2.92773	0.883847	3.3763			0.675314	2.57743	0.76918	2.93183	0.916269	3.49605		
0.704384	2.67814	0.523436	1.99403	0.704328	2.67815	0.768085	2.92427	0.885664	3.37124			0.677304	2.57586	0.771206	2.92915	0.917697	3.48909		
0.706795	2.67783	0.525447	1.99462	0.70674	2.67783	0.769907	2.92085	0.887483	3.36623			0.679292	2.5743	0.773235	2.9265	0.919129	3.4822		
0.709206	2.67751	0.527458	1.99519	0.70915	2.67751	0.771732	2.91746	0.889304	3.36125			0.681279	2.57275	0.775267	2.92388	0.920564	3.47537		
0.711615	2.67719	0.529469	1.99576	0.71156	2.67719	0.77356	2.9141	0.891126	3.35632			0.683265	2.57121	0.777301	2.92129	0.922004	3.46861		
0.714024	2.67686	0.531479	1.99633	0.713968	2.67687	0.77539	2.91078	0.892951	3.35144			0.685251	2.56967	0.779338	2.91872	0.923447	3.4619		
0.716431	2.67654	0.533489	1.99689	0.716375	2.67655	0.777224	2.9075	0.894777	3.34659			0.687235	2.56814	0.781377	2.91618	0.924893	3.45526		
0.718837	2.67622	0.535498	1.99745	0.718782	2.67622	0.779061	2.90425	0.896605	3.34178			0.689218	2.56661	0.783418	2.91367	0.926343	3.44867		
0.721243	2.67589	0.537508	1.998	0.721187	2.6759	0.780901	2.90103	0.898435	3.33701			0.691201	2.56509	0.785462	2.91118	0.927797	3.44214		
0.723647	2.67556	0.539517	1.99855	0.723591	2.67557	0.782743	2.89784	0.900266	3.33228			0.693182	2.56358	0.787508	2.90872	0.929255	3.43567		
0.726049	2.67523	0.541526	1.99909	0.725994	2.67523	0.784589	2.89469	0.9021	3.32759			0.695163	2.56208	0.789557	2.90629	0.930716	3.42926		
0.728451	2.67489	0.543534	1.99962	0.728396	2.6749	0.786438	2.89158	0.903935	3.32294			0.697142	2.56058	0.791608	2.90388	0.932181	3.42291		
0.730851	2.67456	0.545542	2.00016	0.730796	2.67457	0.78829	2.88849	0.905772	3.31833			0.699121	2.55909	0.793661	2.90149	0.933649	3.41662		
0.73325	2.67422	0.54755	2.00068	0.733195	2.67423	0.790145	2.88544	0.90761	3.31375			0.701099	2.55761	0.795716	2.89913	0.935121	3.41037		
0.735648	2.67388	0.549558	2.00121	0.735593	2.67389	0.792003	2.88242	0.909451	3.30922			0.703076	2.55614	0.797774	2.89679	0.936597	3.40419		
0.738044	2.67353	0.551566	2.00173	0.737989	2.67354	0.793865	2.87943	0.911292	3.30471			0.705053	2.55467	0.799833	2.89448	0.938077	3.39806		
0.740439	2.67319	0.553573	2.00224	0.740384	2.67319	0.795729	2.87647	0.913136	3.30025			0.707028	2.55321	0.801895	2.89219	0.93956	3.39198		
0.742832	2.67284	0.55558	2.00275	0.742777	2.67284	0.797597	2.87354	0.914981	3.29582			0.709003	2.55175	0.803959	2.88992	0.941046	3.38596		
0.745224	2.67248	0.557586	2.00326	0.745169	2.67249	0.799468	2.87065	0.916828	3.29143			0.710976	2.5503	0.806025	2.88768	0.942536	3.37999		
0.747614	2.67213	0.559593	2.00376	0.747559	2.67213	0.801342	2.86778	0.918677	3.28707			0.712949	2.54886	0.808093	2.88546	0.94403	3.37408		
0.750003	2.67177	0.561599	2.00425	0.749947	2.67177	0.80322	2.86495	0.920527	3.28275			0.714922	2.54743	0.810163	2.88326	0.945528	3.36821		
0.75239	2.6714	0.563605	2.00475	0.752334	2.67141	0.805101	2.86215	0.922378	3.27846			0.716893	2.546	0.812235	2.88108	0.947028	3.3624		
0.754775	2.67103	0.56561	2.00523	0.754719	2.67104	0.806985	2.85938	0.924232	3.2742			0.718863	2.54458	0.814309	2.87892	0.948533	3.35664		
0.757158	2.67066	0.567615	2.00572	0.757103	2.67067	0.808873	2.85663	0.926086	3.26998			0.720833	2.54316	0.816385	2.87678	0.950041	3.35093		
0.759539	2.67029	0.56962	2.0062	0.759484	2.6703	0.810764	2.85392	0.927943	3.26579			0.722802	2.54176	0.818463	2.87467	0.951553	3.34526		
0.761919	2.66991	0.571625	2.00667	0.761864	2.66992	0.812659	2.85124	0.929801	3.26163			0.724771	2.54036	0.820542	2.87257	0.953068	3.33965		
0.764296	2.66952	0.573629	2.00715	0.764241	2.66953	0.814557	2.84859	0.93166	3.25751			0.726739	2.53896	0.822624	2.87049	0.954587	3.33409		
0.766672	2.66913	0.575634	2.00761	0.766617	2.66914	0.816459	2.84597	0.933521	3.25342			0.728705	2.53757	0.824707	2.86844	0.956109	3.32857		
0.769045	2.66874	0.577637	2.00808	0.76899	2.66875	0.818364	2.84337	0.935383	3.24935			0.730672	2.53619	0.826792	2.8664	0.957635	3.32311		
0.771417	2.66834	0.579641	2.00854	0.771362	2.66835	0.820273	2.84081	0.937247	3.24533			0.732637	2.53482	0.828878	2.86438	0.959164	3.31769		
0.773786	2.66794	0.581644	2.00899	0.773731	2.66795	0.822186	2.83828	0.939112	3.24133			0.734602	2.53345	0.830967	2.86238	0.960697	3.31232		
0.776153	2.66753	0.583648	2.00945	0.776098	2.66754	0.824102	2.83577	0.940978	3.23736			0.736566	2.53209	0.833057	2.8604	0.962234	3.30699		
0.778517	2.66712	0.58565	2.00989	0.778462	2.66713	0.826023	2.8333	0.942846	3.23342			0.73853	2.53073	0.835148	2.85844	0.963774	3.30171		
0.780879	2.6667	0.587653	2.01034	0.780825	2.66671	0.827947	2.83085	0.944716	3.22951			0.740493	2.52938	0.837241	2.85649	0.965317	3.29648		
0.783239	2.66627	0.589655	2.01078	0.783184	2.66628	0.829875	2.82843	0.946586	3.22563			0.742455	2.52804	0.839336	2.85457	0.966864	3.29129		
0.785596	2.66584	0.591657	2.01122	0.785542	2.66585	0.831806	2.82604	0.948459	3.22179			0.744417	2.5267	0.841432	2.85266	0.968415	3.28614		
0.787951	2.66541	0.593659	2.01165	0.787897	2.66542	0.833742	2.82368	0.950332	3.21796			0.746378	2.52537	0.84353	2.85076	0.969968	3.28104		
0.790303	2.66496	0.59566	2.01208	0.790249	2.66497	0.835682	2.82135	0.952207	3.21417			0.748338	2.52405	0.845629	2.84889	0.971526	3.27599		
0.792652	2.66451	0.597661	2.0125	0.792598	2.66452	0.837626	2.81904	0.954083	3.21041			0.750298	2.52273	0.84773	2.84703	0.973087	3.27097		
0.794999	2.66406	0.599662	2.01293	0.794945	2.66407	0.839574	2.81677	0.95596	3.20667			0.752258	2.52142	0.849832	2.84519	0.974651	3.26601		
0.797343	2.6636	0.601663	2.01335	0.797288	2.66361	0.841526	2.81452	0.957839	3.20297			0.754216	2.52012	0.851935	2.84336	0.976219	3.26108		
0.799683	2.66313	0.603663	2.01376	0.799629	2.66314	0.843483	2.8123	0.959719	3.19928			0.756175	2.51882	0.85404	2.84155	0.977791	3.25619		
0.802021	2.66265	0.605663	2.01417	0.801967	2.66266	0.845444	2.81011	0.9616	3.19563			0.758132	2.51753	0.856146	2.83975	0.979366	3.25135		
0.804356	2.66217	0.607663	2.01458	0.804302	2.66218	0.847409	2.80794	0.963483	3.192			0.760089	2.51624	0.858253	2.83797	0.980944	3.24655		
0.806688	2.66168	0.609663	2.01499	0.806634	2.66169	0.849378	2.80581	0.965367	3.1884			0.762046	2.51496	0.860362	2.8362	0.982526	3.24179		
0.809016	2.66118	0.611662	2.01539	0.808962	2.66119	0.851353	2.8037	0.967252	3.18483			0.764002	2.51369	0.862472	2.83445	0.984111	3.23707		
0.811341	2.66067	0.613661	2.01579	0.811287	2.66068	0.853331	2.80162	0.969138	3.18128			0.765958	2.51242	0.864583	2.83272	0.9857	3.23239		
0.813663	2.66016	0.61566	2.01618	0.813609	2.66017	0.855315	2.79957	0.971025	3.17776			0.767913	2.51116	0.866695	2.831	0.987292	3.22775		
0.815981	2.65964	0.617658	2.01657	0.815928	2.65965	0.857302	2.79754	0.972914	3.17426			0.769867	2.5099	0.868808	2.82929	0.988888	3.22315		
0.818296	2.65911	0.619656	2.01696	0.818243	2.65912	0.859295	2.79555	0.974803	3.17078			0.771822	2.50865	0.870922	2.82759	0.990487	3.21858		
0.820608	2.65857	0.621654	2.01735	0.820554	2.65858	0.861292	2.79358	0.976694	3.16734			0.773775	2.50741	0.873038	2.82591	0.99209	3.21406		
0.822915	2.65802	0.623652	2.01773	0.822862	2.65803	0.863295	2.79163	0.978586	3.16391			0.775729	2.50617	0.875154	2.82425	0.993696	3.20958		
0.825219	2.65747	0.625649	2.01811	0.825166	2.65748	0.865302	2.78972	0.980479	3.16051			0.777681	2.50494	0.877271	2.82259	0.995305	3.20513		
0.827519	2.6569	0.627646	2.01848	0.827466	2.65692	0.867314	2.78783	0.982374	3.15714			0.779634	2.50372	0.87939	2.82095	0.996918	3.20072		
0.829816	2.65633	0.629643	2.01886	0.829763	2.65634	0.869331	2.78597	0.984269	3.15379			0.781586	2.5025	0.881509	2.81933	0.998534	3.19635		
0.832108	2.65575	0.63164	2.01923	0.832055	2.65576	0.871353	2.78414	0.986166	3.15046			0.783538	2.50129	0.883629	2.81771	1.00015	3.19201		
0.834397	2.65516	0.633636	2.01959	0.834344	2.65517	0.87338	2.78234	0.988063	3.14715			0.785489	2.50008	0.88575	2.81611				
0.836681	2.65455	0.635632	2.01996	0.836628	2.65457	0.875413	2.78056	0.989962	3.14387			0.787439	2.49888	0.887872	2.81452				
0.838961	2.65394	0.637628	2.02032	0.838909	2.65396	0.877451	2.77881	0.991861	3.14061			0.78939	2.49768	0.889995	2.81294				
0.841238	2.65332	0.639624	2.02068	0.841185	2.65334	0.879494	2.77708	0.993762	3.13737			0.79134	2.49649	0.892119	2.81137				
0.843509	2.65269	0.641619	2.02103	0.843457	2.65271	0.881542	2.77539	0.995664	3.13416			0.79329	2.49531	0.894243	2.80982				
0.845777	2.65206	0.643614	2.02138	0.845725	2.65207	0.883596	2.77372	0.997567	3.13096			0.795239	2.49413	0.896368	2.80827				
0.84804	2.65141	0.645609	2.02173	0.847988	2.65142	0.885655	2.77207	0.99947	3.12779			0.797188	2.49296	0.898494	2.80674				
0.850299	2.65075	0.647603	2.02208	0.850247	2.65076	0.88772	2.77046	1.00138	3.12464			0.799137	2.49179	0.900621	2.80522				
0.852553	2.65008	0.649597	2.02242	0.852501	2.65009	0.88979	2.76887					0.801085	2.49063	0.902748	2.80371				
0.854803	2.6494	0.651591	2.02276	0.854751	2.64941	0.891866	2.7673					0.803033	2.48948	0.904876	2.80221				
0.857048	2.64871	0.653585	2.0231	0.856996	2.64872	0.893947	2.76576					0.804981	2.48833	0.907004	2.80072				
0.859289	2.64801	0.655579	2.02343	0.859237	2.64802	0.896034	2.76425					0.806928	2.48719	0.909133	2.79924				
0.861525	2.6473	0.657572	2.02377	0.861473	2.64731	0.898127	2.76277					0.808876	2.48605	0.911263	2.79777				
0.863756	2.64658	0.659565	2.0241	0.863704	2.64659	0.900226	2.76131					0.810822	2.48492	0.913393	2.79631				
0.865983	2.64585	0.661557	2.02442	0.865931	2.64586	0.90233	2.75988					0.812769	2.48379	0.915524	2.79486				
0.868204	2.6451	0.66355	2.02475	0.868153	2.64512	0.90444	2.75847					0.814715	2.48267	0.917655	2.79342				
0.870421	2.64435	0.665542	2.02507	0.87037	2.64437	0.906555	2.75709					0.816662	2.48156	0.919786	2.79199				
0.872633	2.64359	0.667534	2.02539	0.872582	2.64361	0.908677	2.75573					0.818607	2.48045	0.921918	2.79057				
0.874841	2.64282	0.669525	2.0257	0.87479	2.64284	0.910804	2.7544					0.820553	2.47934	0.92405	2.78916				
0.877043	2.64204	0.671517	2.02602	0.876993	2.64205	0.912937	2.75309					0.822499	2.47824	0.926183	2.78776				
0.879241	2.64124	0.673508	2.02633	0.87919	2.64126	0.915076	2.75181					0.824444	2.47715	0.928316	2.78636				
0.881434	2.64044	0.675499	2.02664	0.881383	2.64046	0.91722	2.75055					0.826389	2.47606	0.930449	2.78498				
0.883622	2.63963	0.677489	2.02694	0.883572	2.63965	0.91937	2.74932					0.828333	2.47498	0.932583	2.7836				
0.885805	2.6388	0.67948	2.02725	0.885755	2.63882	0.921527	2.74811					0.830278	2.4739	0.934716	2.78223				
0.887984	2.63797	0.68147	2.02755	0.887933	2.63799	0.923688	2.74693					0.832222	2.47283	0.93685	2.78087				
0.890157	2.63713	0.683459	2.02785	0.890107	2.63715	0.925856	2.74576					0.834167	2.47177	0.938985	2.77952				
0.892326	2.63628	0.685449	2.02814	0.892276	2.6363	0.928029	2.74463					0.836111	2.47071	0.941119	2.77818				
0.89449	2.63542	0.687438	2.02844	0.89444	2.63544	0.930208	2.74351					0.838055	2.46965	0.943254	2.77684				
0.896649	2.63455	0.689428	2.02873	0.8966	2.63457	0.932392	2.74242					0.839998	2.4686	0.945388	2.77551				
0.898804	2.63367	0.691416	2.02902	0.898754	2.63369	0.934583	2.74135					0.841942	2.46756	0.947523	2.77419				
0.900954	2.63278	0.693405	2.02931	0.900904	2.6328	0.936778	2.7403					0.843885	2.46652	0.949658	2.77288				
0.903099	2.63188	0.695393	2.02959	0.90305	2.63191	0.938979	2.73927					0.845828	2.46548	0.951793	2.77157				
0.90524	2.63098	0.697381	2.02988	0.90519	2.631	0.941186	2.73826					0.847772	2.46445	0.953928	2.77027				
0.907376	2.63007	0.699369	2.03016	0.907327	2.63009	0.943398	2.73728					0.849715	2.46343	0.956063	2.76898				
0.909508	2.62914	0.701357	2.03043	0.909458	2.62917	0.945615	2.73632					0.851658	2.46241	0.958197	2.7677				
0.911635	2.62821	0.703344	2.03071	0.911586	2.62824	0.947838	2.73537					0.8536	2.4614	0.960332	2.76642				
0.913758	2.62728	0.705331	2.03098	0.913708	2.6273	0.950065	2.73445					0.855543	2.46039	0.962467	2.76515				
0.915876	2.62633	0.707318	2.03125	0.915827	2.62636	0.952298	2.73355					0.857486	2.45939	0.964602	2.76388				
0.91799	2.62538	0.709304	2.03152	0.917941	2.6254	0.954536	2.73266					0.859428	2.45839	0.966736	2.76262				
0.9201	2.62442	0.711291	2.03179	0.920051	2.62445	0.956779	2.7318					0.86137	2.4574	0.968871	2.76137				
0.922206	2.62346	0.713277	2.03206	0.922157	2.62348	0.959027	2.73095					0.863313	2.45641	0.971005	2.76012				
0.924308	2.62249	0.715262	2.03232	0.924259	2.62251	0.96128	2.73012					0.865255	2.45543	0.973139	2.75888				
0.926406	2.62151	0.717248	2.03258	0.926357	2.62153	0.963537	2.72931					0.867197	2.45445	0.975273	2.75765				
0.928499	2.62052	0.719233	2.03284	0.928451	2.62055	0.965799	2.72852					0.869139	2.45347	0.977406	2.75642				
0.93059	2.61954	0.721218	2.0331	0.930541	2.61956	0.968066	2.72774					0.871081	2.45251	0.979539	2.75519				
0.932676	2.61854	0.723203	2.03335	0.932628	2.61856	0.970337	2.72698					0.873023	2.45154	0.981672	2.75398				
0.934758	2.61754	0.725188	2.0336	0.93471	2.61756	0.972613	2.72624					0.874965	2.45059	0.983805	2.75276				
0.936837	2.61654	0.727172	2.03385	0.936789	2.61656	0.974893	2.72551					0.876907	2.44963	0.985937	2.75156				
0.938913	2.61553	0.729156	2.0341	0.938865	2.61555	0.977177	2.7248					0.878849	2.44868	0.988069	2.75036				
0.940984	2.61451	0.73114	2.03435	0.940937	2.61453	0.979465	2.7241					0.880791	2.44774	0.990201	2.74916				
0.943053	2.61349	0.733124	2.03459	0.943005	2.61352	0.981758	2.72342					0.882733	2.4468	0.992332	2.74797				
0.945118	2.61247	0.735107	2.03484	0.94507	2.61249	0.984054	2.72276					0.884675	2.44587	0.994463	2.74678				
0.94718	2.61145	0.73709	2.03508	0.947132	2.61147	0.986355	2.7221					0.886616	2.44494	0.996593	2.7456				
0.949239	2.61042	0.739073	2.03532	0.949191	2.61044	0.988659	2.72147					0.888558	2.44401	0.998723	2.74442				
0.951295	2.60938	0.741056	2.03555	0.951247	2.60941	0.990967	2.72084					0.8905	2.44309	1.00085	2.74325				
0.953347	2.60835	0.743038	2.03579	0.9533	2.60837	0.993279	2.72023					0.892442	2.44218						
0.955397	2.60731	0.74502	2.03602	0.95535	2.60733	0.995594	2.71963					0.894384	2.44127						
0.957444	2.60627	0.747002	2.03625	0.957397	2.60629	0.997913	2.71904					0.896325	2.44036						
0.959488	2.60523	0.748984	2.03648	0.959441	2.60525	1.00023	2.71847					0.898267	2.43946						
0.96153	2.60418	0.750965	2.03671	0.961483	2.60421							0.900209	2.43856						
0.963569	2.60313	0.752946	2.03694	0.963521	2.60316							0.902151	2.43767						
0.965605	2.60209	0.754927	2.03716	0.965558	2.60211							0.904093	2.43678						
0.967639	2.60104	0.756908	2.03739	0.967592	2.60106							0.906035	2.4359						
0.96967	2.59999	0.758888	2.03761	0.969623	2.60001							0.907977	2.43502						
0.971699	2.59893	0.760869	2.03783	0.971652	2.59896							0.909919	2.43415						
0.973726	2.59788	0.762849	2.03804	0.973679	2.59791							0.911861	2.43328						
0.975751	2.59683	0.764828	2.03826	0.975704	2.59685							0.913803	2.43241						
0.977773	2.59577	0.766808	2.03847	0.977726	2.5958							0.915745	2.43155						
0.979793	2.59472	0.768787	2.03868	0.979747	2.59474							0.917687	2.4307						
0.981812	2.59367	0.770766	2.0389	0.981765	2.59369							0.91963	2.42985						
0.983828	2.59261	0.772745	2.0391	0.983782	2.59264							0.921572	2.429						
0.985843	2.59156	0.774724	2.03931	0.985796	2.59158							0.923514	2.42816						
0.987855	2.5905	0.776702	2.03952	0.987809	2.59053							0.925457	2.42732						
0.989866	2.58945	0.77868	2.03972	0.98982	2.58947							0.927399	2.42648						
0.991876	2.5884	0.780658	2.03992	0.991829	2.58842							0.929342	2.42565						
0.993883	2.58735	0.782636	2.04013	0.993837	2.58737							0.931285	2.42483						
0.995889	2.58629	0.784613	2.04032	0.995843	2.58632							0.933228	2.424						
0.997893	2.58524	0.786591	2.04052	0.997847	2.58527							0.935171	2.42319						
0.999896	2.5842	0.788568	2.04072	0.99985	2.58422							0.937114	2.42237						
1.0019	2.58315	0.790544	2.04091	1.00185	2.58317							0.939057	2.42156						
		0.792521	2.04111									0.941	2.42076						
		0.794497	2.0413									0.942943	2.41996						
		0.796473	2.04149									0.944887	2.41916						
		0.798449	2.04168									0.94683	2.41837						
		0.800425	2.04186									0.948774	2.41758						
		0.8024	2.04205									0.950718	2.41679						
		0.804375	2.04223									0.952662	2.41601						
		0.80635	2.04242									0.954606	2.41524						
		0.808325	2.0426									0.95655	2.41447						
		0.8103	2.04278									0.958494	2.4137						
		0.812274	2.04296									0.960439	2.41293						
		0.814248	2.04314									0.962383	2.41217						
		0.816222	2.04331									0.964328	2.41141						
		0.818195	2.04349									0.966273	2.41066						
		0.820169	2.04366									0.968218	2.40991						
		0.822142	2.04383									0.970163	2.40917						
		0.824115	2.044									0.972108	2.40842						
		0.826088	2.04417									0.974054	2.40769						
		0.82806	2.04434									0.975999	2.40695						
		0.830033	2.04451									0.977945	2.40622						
		0.832005	2.04467									0.979891	2.4055						
		0.833977	2.04483									0.981837	2.40477						
		0.835948	2.045									0.983783	2.40405						
		0.83792	2.04516									0.985729	2.40334						
		0.839891	2.04532									0.987676	2.40263						
		0.841862	2.04548									0.989623	2.40192						
		0.843833	2.04564									0.99157	2.40121						
		0.845804	2.04579									0.993517	2.40051						
		0.847774	2.04595									0.995464	2.39982						
		0.849744	2.0461									0.997411	2.39912						
		0.851714	2.04625									0.999359	2.39843						
		0.853684	2.04641									1.00131	2.39774						
		0.855654	2.04656																
		0.857623	2.04671																
		0.859592	2.04685																
		0.861561	2.047																
		0.86353	2.04715																
		0.865499	2.04729																
		0.867467	2.04744																
		0.869435	2.04758																
		0.871403	2.04772																
		0.873371	2.04786																
		0.875338	2.048																
		0.877305	2.04814																
		0.879273	2.04828																
		0.88124	2.04841																
		0.883206	2.04855																
		0.885173	2.04868																
		0.887139	2.04881																
		0.889105	2.04895																
		0.891071	2.04908																
		0.893037	2.04921																
		0.895002	2.04934																
		0.896968	2.04946																
		0.898933	2.04959																
		0.900898	2.04972																
		0.902863	2.04984																
		0.904827	2.04997																
		0.906792	2.05009																
		0.908756	2.05021																
		0.91072	2.05033																
		0.912684	2.05045																
		0.914647	2.05057																
		0.916611	2.05069																
		0.918574	2.05081																
		0.920537	2.05092																
		0.9225	2.05104																
		0.924462	2.05115																
		0.926425	2.05127																
		0.928387	2.05138																
		0.930349	2.05149																
		0.932311	2.0516																
		0.934273	2.05171																
		0.936234	2.05182																
		0.938196	2.05193																
		0.940157	2.05204																
		0.942118	2.05215																
		0.944079	2.05225																
		0.94604	2.05236																
		0.948	2.05246																
		0.94996	2.05257																
		0.95192	2.05267																
		0.95388	2.05277																
		0.95584	2.05287																
		0.9578	2.05297																
		0.959759	2.05307																
		0.961718	2.05317																
		0.963677	2.05327																
		0.965636	2.05337																
		0.967595	2.05347																
		0.969553	2.05356																
		0.971512	2.05366																
		0.97347	2.05375																
		0.975428	2.05385																
		0.977386	2.05394																
		0.979344	2.05403																
		0.981301	2.05412																
		0.983258	2.05421																
		0.985216	2.0543																
		0.987173	2.05439																
		0.989129	2.05448																
		0.991086	2.05457																
		0.993043	2.05466																
		0.994999	2.05474																
		0.996955	2.05483																
		0.998911	2.05492																
		1.00087	2.055																
