Sym0		Asym0		Sym1		Sym2		Sym3		Sym4		Asym1		Asym2		Asym3		Asym4	
426  Points		528  Points		426  Points		406  Points		353  Points		254  Points		457  Points		401  Points		346  Points		216  Points	
Freq (MHz)	Vph (m/ms)	Freq (MHz)	Vph (m/ms)	Freq (MHz)	Vph (m/ms)	Freq (MHz)	Vph (m/ms)	Freq (MHz)	Vph (m/ms)	Freq (MHz)	Vph (m/ms)	Freq (MHz)	Vph (m/ms)	Freq (MHz)	Vph (m/ms)	Freq (MHz)	Vph (m/ms)	Freq (MHz)	Vph (m/ms)
0.279509	781.441	0.000186515	0.0841319	0.27951	536.76	0.441172	2302.37	0.559017	2390.71	0.838525	16055.1	0.139763	285.324	0.419267	516.234	0.698772	1289.35	0.882346	1142.9
0.279518	216.785	0.000375714	0.119326	0.279521	192.45	0.44118	392.75	0.559026	479.635	0.838529	852.23	0.139832	98.3667	0.419283	240.434	0.698779	474.181	0.882354	517.898
0.279537	125.857	0.000629861	0.154365	0.279542	117.251	0.4412	214.695	0.559045	266.565	0.838538	437.737	0.139967	59.4786	0.41931	156.719	0.698791	290.515	0.882367	334.811
0.279567	88.6733	0.00094812	0.189169	0.279573	84.3148	0.441232	147.732	0.559075	184.579	0.838552	294.507	0.140168	42.67	0.419349	116.252	0.698809	209.41	0.882386	247.367
0.279606	68.4559	0.00132978	0.223728	0.279614	65.83	0.441275	112.616	0.559116	141.169	0.838573	221.903	0.140434	33.305	0.419399	92.4001	0.698833	163.709	0.882411	196.143
0.279655	55.7509	0.00177368	0.257974	0.279665	53.9976	0.44133	90.9942	0.559168	114.296	0.838599	178.02	0.140766	27.3421	0.419461	76.6749	0.698863	134.385	0.882442	162.497
0.279715	47.0279	0.00227873	0.291879	0.279726	45.775	0.441396	76.3426	0.559232	96.0219	0.838631	148.63	0.141161	23.2173	0.419534	65.5282	0.698898	113.973	0.882479	138.707
0.279785	40.6691	0.00284359	0.325398	0.279798	39.7294	0.441475	65.7594	0.559306	82.7903	0.838668	127.572	0.141619	20.1976	0.419618	57.2152	0.69894	98.9464	0.882521	120.995
0.279865	35.8284	0.00346692	0.358505	0.27988	35.0977	0.441565	57.7573	0.559391	72.7673	0.838712	111.742	0.142139	17.894	0.419714	50.7777	0.698987	87.4224	0.882569	107.296
0.279955	32.0206	0.00414713	0.391158	0.279971	31.4363	0.441666	51.495	0.559487	64.9126	0.838761	99.4089	0.14272	16.0809	0.419822	45.6456	0.69904	78.3044	0.882623	96.3849
0.280055	28.9473	0.0048827	0.423336	0.280073	28.4694	0.441779	46.4612	0.559594	58.5914	0.838816	89.5293	0.143359	14.6183	0.419941	41.4588	0.6991	70.9104	0.882683	87.4899
0.280165	26.4149	0.00567208	0.455019	0.280185	26.0168	0.441904	42.3269	0.559712	53.395	0.838876	81.4374	0.144056	13.4149	0.420071	37.9783	0.699165	64.7938	0.882749	80.0993
0.280285	24.2923	0.00651338	0.486172	0.280307	23.9557	0.44204	38.871	0.559841	49.0479	0.838943	74.6884	0.144808	12.4084	0.420213	35.0396	0.699235	59.65	0.88282	73.8615
0.280416	22.4877	0.00740503	0.516788	0.28044	22.1994	0.442188	35.9396	0.559981	45.3578	0.839015	68.9737	0.145615	11.555	0.420366	32.5255	0.699312	55.2641	0.882897	68.5263
0.280556	20.9348	0.00834525	0.546847	0.280582	20.6851	0.442347	33.4216	0.560131	42.1863	0.839092	64.0726	0.146474	10.823	0.420531	30.3503	0.699395	51.4803	0.88298	63.9111
0.280707	19.5845	0.00933224	0.576336	0.280735	19.3661	0.442518	31.2357	0.560293	39.4316	0.839176	59.823	0.147265	10.2656	0.420707	28.45	0.699483	48.1825	0.883068	59.8794
0.280868	18.3997	0.0103643	0.60525	0.280897	18.2071	0.4427	29.3204	0.560466	37.0165	0.839265	56.1031	0.147968	9.83987	0.420894	26.7756	0.699577	45.2828	0.883163	56.3272
0.281039	17.3518	0.0114397	0.633574	0.28107	17.1808	0.442894	27.6283	0.560649	34.8822	0.83936	52.8197	0.14857	9.51764	0.421092	25.2894	0.699678	42.7133	0.883263	53.1739
0.28122	16.4185	0.0125566	0.661309	0.281253	16.2656	0.4431	26.1229	0.560843	32.9824	0.839461	49.9004	0.149058	9.27989	0.421303	23.9612	0.699784	40.4208	0.883369	50.3558
0.281411	15.5821	0.0137134	0.688453	0.281445	15.4446	0.443317	24.7748	0.561049	31.2805	0.839567	47.2878	0.149424	9.11387	0.421524	22.7674	0.699895	38.3627	0.88348	47.8223
0.281612	14.8283	0.0149084	0.715003	0.281648	14.7039	0.443545	23.5608	0.561265	29.7473	0.839679	44.936	0.149661	9.01129	0.421757	21.6885	0.700013	36.5049	0.883598	45.5324
0.281823	14.1454	0.0161401	0.740963	0.281861	14.0325	0.443785	22.4619	0.561491	28.359	0.839797	42.8079	0.150006	8.8686	0.422001	20.7089	0.700137	34.8196	0.883721	43.4525
0.282045	13.5241	0.0174067	0.766334	0.282085	13.4211	0.444036	21.4625	0.561729	27.0959	0.839921	40.873	0.150387	8.71957	0.422256	19.8154	0.700266	33.2838	0.88385	41.5552
0.282276	12.9564	0.0187068	0.79112	0.282318	12.862	0.444299	20.5498	0.561978	25.942	0.84005	39.1063	0.150913	8.52638	0.422522	18.9973	0.700401	31.8785	0.883984	39.8173
0.282518	12.4357	0.0200389	0.81533	0.282561	12.3489	0.444572	19.713	0.562237	24.8838	0.840185	37.4867	0.151594	8.29655	0.4228	18.2455	0.700542	30.5878	0.884125	38.2197
0.282769	11.9564	0.0214015	0.838969	0.282814	11.8764	0.444858	18.943	0.562507	23.9098	0.840326	35.9966	0.152438	8.03826	0.423089	17.5523	0.700689	29.3983	0.884271	36.746
0.283031	11.5139	0.0227934	0.862048	0.283078	11.4399	0.445154	18.2323	0.562788	23.0105	0.840472	34.6211	0.153456	7.75975	0.423389	16.9111	0.700842	28.2985	0.884423	35.3824
0.283303	11.1041	0.0242132	0.884574	0.283351	11.0354	0.445462	17.5743	0.563079	22.1776	0.840624	33.3475	0.154662	7.46883	0.423701	16.3163	0.701001	27.2787	0.88458	34.1171
0.283584	10.7235	0.0256595	0.906555	0.283635	10.6597	0.445781	16.9633	0.563381	21.404	0.840782	32.165	0.155905	7.2047	0.424023	15.7632	0.701165	26.3305	0.884744	32.9397
0.283876	10.3692	0.0271311	0.928001	0.283928	10.3097	0.446111	16.3946	0.563694	20.6838	0.840946	31.064	0.157184	6.96397	0.424357	15.2475	0.701335	25.4465	0.884913	31.8415
0.284178	10.0386	0.028627	0.948927	0.284192	10.0238	0.446452	15.864	0.564018	20.0115	0.841115	30.0365	0.158497	6.74379	0.424702	14.7655	0.701511	24.6206	0.885087	30.8147
0.28449	9.72941	0.030146	0.969341	0.284423	9.79288	0.446805	15.3678	0.564352	19.3826	0.84129	29.0754	0.159844	6.54175	0.425058	14.3143	0.701693	23.8472	0.885268	29.8527
0.284812	9.43963	0.031687	0.989256	0.284619	9.61023	0.447168	14.9027	0.564697	18.7931	0.84147	28.1744	0.161222	6.35579	0.425424	13.8908	0.701881	23.1215	0.885454	28.9494
0.285144	9.16755	0.033249	1.00868	0.284776	9.47081	0.447543	14.466	0.565052	18.2394	0.841657	27.3281	0.16263	6.18416	0.425802	13.4927	0.702075	22.4392	0.885646	28.0997
0.285486	8.9116	0.0348311	1.02763	0.284893	9.371	0.447929	14.0552	0.565418	17.7184	0.841849	26.5317	0.164066	6.02532	0.426191	13.1177	0.702274	21.7965	0.885843	27.299
0.285838	8.67042	0.0364323	1.04612	0.284968	9.30828	0.448325	13.6681	0.565795	17.2272	0.842046	25.781	0.165531	5.87798	0.426591	12.764	0.702479	21.1901	0.886047	26.5432
0.2862	8.44279	0.0380517	1.06415	0.285078	9.21967	0.448733	13.3026	0.566182	16.7634	0.842249	25.072	0.167021	5.74097	0.427002	12.4298	0.70269	20.617	0.886256	25.8285
0.286572	8.22763	0.0396884	1.08173	0.285198	9.12536	0.449151	12.9572	0.56658	16.3249	0.842458	24.4014	0.168537	5.6133	0.427424	12.1135	0.702907	20.0746	0.88647	25.1518
0.286954	8.02396	0.0413418	1.09889	0.285364	9.00034	0.449581	12.6301	0.566988	15.9095	0.842673	23.7663	0.170077	5.49409	0.427857	11.8138	0.703129	19.5605	0.886691	24.5102
0.287345	7.8309	0.0430111	1.11563	0.285577	8.84735	0.450021	12.32	0.567406	15.5157	0.842893	23.1638	0.171639	5.38257	0.428301	11.5295	0.703358	19.0725	0.886917	23.9009
0.287747	7.64767	0.0446955	1.13197	0.285839	8.66958	0.450472	12.0256	0.567835	15.1416	0.843119	22.5916	0.173224	5.27804	0.428755	11.2593	0.703592	18.6087	0.887148	23.3216
0.288159	7.47355	0.0463943	1.14791	0.286154	8.47054	0.450934	11.7458	0.568275	14.786	0.843351	22.0474	0.174829	5.1799	0.42922	11.0024	0.703832	18.1674	0.887386	22.7701
0.288581	7.3079	0.0481069	1.16346	0.286525	8.25388	0.451406	11.4795	0.568724	14.4475	0.843588	21.5292	0.176454	5.08761	0.429696	10.7576	0.704078	17.747	0.887628	22.2445
0.289013	7.15014	0.0498327	1.17864	0.286905	8.04882	0.451889	11.2258	0.569184	14.1248	0.843831	21.0352	0.178098	5.00069	0.430183	10.5244	0.70433	17.346	0.887877	21.7431
0.289454	6.99972	0.051571	1.19346	0.287296	7.85448	0.452383	10.9838	0.569655	13.817	0.84408	20.5638	0.179761	4.91869	0.430681	10.3017	0.704587	16.9631	0.888131	21.2641
0.289906	6.85616	0.0533214	1.20792	0.287696	7.67006	0.452887	10.7528	0.570136	13.5231	0.844334	20.1135	0.181441	4.84124	0.431123	10.1158	0.70485	16.5971	0.888391	20.8062
0.290367	6.71903	0.0550833	1.22204	0.288107	7.49484	0.453402	10.5321	0.570626	13.2421	0.844594	19.6828	0.183137	4.76798	0.431507	9.96303	0.705119	16.247	0.888657	20.368
0.290839	6.58791	0.0568562	1.23583	0.288528	7.32817	0.453927	10.3209	0.571128	12.9732	0.84486	19.2706	0.18485	4.69859	0.431828	9.84042	0.705394	15.9118	0.888928	19.9483
0.29132	6.46242	0.0586396	1.24929	0.288958	7.16944	0.454393	10.1443	0.571639	12.7157	0.845131	18.8757	0.186577	4.63279	0.432085	9.74578	0.705674	15.5904	0.889204	19.5458
0.291811	6.34224	0.060433	1.26244	0.289398	7.01813	0.454797	9.99877	0.57216	12.4689	0.845407	18.4969	0.188319	4.57031	0.432276	9.67744	0.705961	15.2822	0.889487	19.1596
0.292312	6.22703	0.062236	1.27528	0.289849	6.87375	0.455135	9.88187	0.572692	12.2321	0.84569	18.1335	0.190076	4.51094	0.432398	9.63426	0.706253	14.9863	0.889775	18.7888
0.292823	6.11652	0.0640483	1.28783	0.290309	6.73583	0.455405	9.79152	0.573234	12.0048	0.845978	17.7843	0.191845	4.45443	0.432576	9.57292	0.706551	14.7019	0.890068	18.4323
0.293344	6.01042	0.0658694	1.30009	0.290779	6.60398	0.455606	9.72624	0.573785	11.7864	0.846271	17.4488	0.193627	4.40062	0.43277	9.5072	0.706854	14.4285	0.890367	18.0895
0.293874	5.9085	0.0676989	1.31208	0.291259	6.47781	0.455734	9.68496	0.574347	11.5764	0.84657	17.1259	0.195422	4.3493	0.433036	9.4194	0.707163	14.1654	0.890672	17.7595
0.294415	5.81052	0.0695365	1.32379	0.291749	6.35698	0.455921	9.62629	0.574919	11.3743	0.846875	16.8152	0.197228	4.30033	0.433376	9.31089	0.707479	13.9121	0.890982	17.4417
0.294965	5.71628	0.0713818	1.33523	0.292249	6.24117	0.456124	9.5634	0.5755	11.1797	0.847186	16.5158	0.199045	4.25355	0.433792	9.18328	0.707799	13.668	0.891298	17.1353
0.295525	5.62556	0.0732346	1.34643	0.292759	6.13008	0.456403	9.47931	0.576092	10.9923	0.847502	16.2272	0.200873	4.20882	0.434288	9.03843	0.708126	13.4326	0.89162	16.8399
0.296095	5.53818	0.0750945	1.35737	0.293278	6.02345	0.456759	9.37526	0.576693	10.8116	0.847823	15.9489	0.202712	4.16601	0.434867	8.87832	0.708458	13.2055	0.891946	16.5547
0.296675	5.45398	0.0769613	1.36807	0.293807	5.92102	0.457195	9.25276	0.577305	10.6372	0.84815	15.6802	0.20456	4.12501	0.435457	8.7244	0.708796	12.9863	0.892279	16.2794
0.297264	5.37279	0.0788345	1.37854	0.294347	5.82256	0.457713	9.11351	0.577926	10.4689	0.848483	15.4207	0.206418	4.08572	0.436056	8.57633	0.70914	12.7745	0.892617	16.0134
0.297864	5.29447	0.080714	1.38878	0.294896	5.72786	0.458318	8.95934	0.578475	10.327	0.848821	15.17	0.208285	4.04802	0.436667	8.43378	0.709489	12.5699	0.89296	15.7562
0.298473	5.21887	0.0825996	1.3988	0.295455	5.63671	0.458932	8.81087	0.578949	10.2093	0.849165	14.9276	0.210161	4.01183	0.437287	8.29647	0.709845	12.3719	0.893309	15.5074
0.299092	5.14586	0.084491	1.4086	0.296023	5.54893	0.459557	8.66782	0.579345	10.1142	0.849514	14.6931	0.212045	3.97706	0.437918	8.16412	0.710205	12.1804	0.893664	15.2666
0.29972	5.07532	0.0863879	1.4182	0.296602	5.46434	0.460191	8.52989	0.579661	10.0404	0.849869	14.4661	0.213937	3.94364	0.438558	8.03648	0.710572	11.9951	0.894024	15.0335
0.300359	5.00713	0.0882902	1.42759	0.29719	5.38278	0.460835	8.39682	0.579894	9.9869	0.850229	14.2463	0.215837	3.91148	0.43921	7.91331	0.710944	11.8155	0.894389	14.8076
0.301007	4.94119	0.0901975	1.43679	0.297788	5.30411	0.46149	8.26838	0.580044	9.95299	0.850595	14.0334	0.217744	3.88053	0.439871	7.79438	0.711322	11.6415	0.89476	14.5887
0.301665	4.87739	0.0921098	1.44579	0.298396	5.22817	0.462154	8.14432	0.580261	9.90468	0.850967	13.8269	0.219659	3.85071	0.440542	7.67949	0.711706	11.4729	0.895137	14.3765
0.302332	4.81564	0.0940268	1.45461	0.299014	5.15485	0.462827	8.02444	0.580498	9.85276	0.851344	13.6268	0.221581	3.82197	0.441224	7.56845	0.712095	11.3093	0.895518	14.1706
0.303009	4.75585	0.0959483	1.46325	0.299641	5.084	0.463511	7.90854	0.580822	9.78311	0.851726	13.4326	0.223509	3.79426	0.441915	7.46107	0.71249	11.1506	0.895906	13.9707
0.303608	4.70528	0.0978743	1.47171	0.300278	5.01553	0.464204	7.79642	0.581235	9.69659	0.852114	13.2441	0.225443	3.76751	0.442616	7.35718	0.712891	10.9965	0.896299	13.7767
0.304123	4.66326	0.0998044	1.48	0.300925	4.94931	0.464906	7.68792	0.581739	9.59422	0.852508	13.0611	0.227384	3.74168	0.443328	7.25662	0.713297	10.8469	0.896697	13.5882
0.304554	4.62923	0.101739	1.48812	0.301582	4.88525	0.465618	7.58287	0.582337	9.47719	0.852907	12.8833	0.229331	3.71673	0.444049	7.15925	0.71371	10.7015	0.8971	13.4051
0.304897	4.60279	0.103677	1.49608	0.302248	4.82325	0.46634	7.48111	0.583032	9.34678	0.853311	12.7105	0.231283	3.69262	0.44478	7.06491	0.714073	10.5782	0.897509	13.2271
0.305151	4.58359	0.105618	1.50388	0.302924	4.76322	0.467071	7.38249	0.583737	9.22036	0.853721	12.5426	0.233241	3.66929	0.445521	6.97348	0.714387	10.4754	0.897924	13.0539
0.305314	4.57142	0.107564	1.51153	0.30361	4.70508	0.467811	7.28689	0.584451	9.09775	0.854137	12.3792	0.235204	3.64672	0.446272	6.88483	0.714648	10.3921	0.898343	12.8855
0.305549	4.55407	0.109513	1.51903	0.304306	4.64874	0.468561	7.19416	0.585175	8.97879	0.854558	12.2203	0.237172	3.62488	0.447032	6.79884	0.714856	10.3271	0.898769	12.7216
0.305806	4.5354	0.111465	1.52638	0.305011	4.59412	0.46932	7.10419	0.585908	8.86333	0.854984	12.0656	0.239145	3.60372	0.447803	6.71539	0.71501	10.2799	0.899199	12.562
0.306157	4.51034	0.11342	1.53359	0.305726	4.54116	0.470088	7.01685	0.58665	8.75122	0.855416	11.9151	0.241123	3.58321	0.448582	6.63439	0.715109	10.25	0.899635	12.4066
0.306605	4.47917	0.115379	1.54066	0.306451	4.48979	0.470865	6.93205	0.587401	8.64231	0.855853	11.7684	0.243105	3.56334	0.449372	6.55573	0.715252	10.2072	0.900076	12.2552
0.307151	4.44223	0.117088	1.54671	0.307185	4.43995	0.471652	6.84967	0.588162	8.53649	0.856296	11.6256	0.245092	3.54406	0.450171	6.47932	0.715408	10.1612	0.900523	12.1077
0.307798	4.39993	0.118546	1.55179	0.307929	4.39156	0.472447	6.76963	0.588932	8.43362	0.856744	11.4864	0.247083	3.52536	0.450979	6.40507	0.715621	10.0993	0.900975	11.9639
0.30855	4.35271	0.119754	1.55594	0.308683	4.34459	0.473251	6.69182	0.589711	8.33359	0.857197	11.3507	0.249079	3.5072	0.451798	6.33289	0.715892	10.0222	0.901432	11.8237
0.309312	4.30685	0.120709	1.55919	0.309447	4.29896	0.474065	6.61615	0.590499	8.23628	0.857656	11.2183	0.251078	3.48958	0.452625	6.2627	0.716224	9.93062	0.901895	11.687
0.310084	4.2623	0.121412	1.56156	0.31022	4.25463	0.474887	6.54255	0.591296	8.1416	0.858121	11.0893	0.253081	3.47245	0.453462	6.19442	0.716616	9.82545	0.902362	11.5535
0.310865	4.21901	0.121862	1.56306	0.311003	4.21156	0.475718	6.47094	0.592102	8.04943	0.85859	10.9633	0.255088	3.4558	0.454308	6.12799	0.717071	9.70768	0.902836	11.4233
0.311656	4.17692	0.122509	1.56522	0.311796	4.16968	0.476557	6.40124	0.592917	7.95969	0.859004	10.8561	0.257098	3.43962	0.455164	6.06333	0.717532	9.59293	0.903314	11.2962
0.312457	4.13601	0.123213	1.56754	0.312598	4.12897	0.477406	6.33337	0.593741	7.87229	0.85936	10.7664	0.259112	3.42389	0.456029	6.00038	0.717999	9.48107	0.903798	11.1721
0.313267	4.09622	0.124171	1.57068	0.31341	4.08937	0.478263	6.26728	0.594574	7.78714	0.859657	10.6934	0.261129	3.40858	0.456903	5.93907	0.718471	9.372	0.904287	11.0509
0.314087	4.05751	0.125383	1.57462	0.314232	4.05085	0.479129	6.20289	0.595415	7.70415	0.859893	10.6365	0.263149	3.39368	0.457786	5.87935	0.718949	9.26563	0.904717	10.9475
0.314917	4.01985	0.12685	1.57931	0.315064	4.01337	0.480003	6.14014	0.596266	7.62325	0.860067	10.5951	0.265172	3.37917	0.458678	5.82116	0.719433	9.16185	0.905087	10.861
0.315757	3.9832	0.128572	1.58474	0.315905	3.97689	0.480885	6.07898	0.597125	7.54437	0.860179	10.5687	0.267199	3.36504	0.45958	5.76444	0.719922	9.06057	0.905395	10.7906
0.316607	3.94752	0.130551	1.59086	0.316756	3.94137	0.481776	6.01935	0.597993	7.46743	0.86034	10.5311	0.269228	3.35127	0.46049	5.70914	0.720416	8.96171	0.90564	10.7356
0.317466	3.91278	0.132532	1.59687	0.317617	3.90679	0.482676	5.9612	0.598869	7.39237	0.860516	10.4905	0.27126	3.33786	0.46141	5.65521	0.720916	8.86519	0.905821	10.6956
0.318335	3.87895	0.134515	1.60277	0.318488	3.87312	0.483583	5.90447	0.599754	7.31912	0.860757	10.4359	0.273295	3.32478	0.462338	5.60262	0.721422	8.77092	0.905937	10.6701
0.319214	3.84599	0.1365	1.60856	0.319369	3.84032	0.484499	5.84911	0.600648	7.24762	0.861063	10.3676	0.275332	3.31202	0.463275	5.5513	0.721933	8.67882	0.906104	10.6338
0.320103	3.81389	0.138487	1.61426	0.320259	3.80836	0.485423	5.79508	0.60155	7.17781	0.861435	10.2864	0.277372	3.29958	0.464222	5.50122	0.72245	8.58884	0.906287	10.5945
0.321001	3.78261	0.140476	1.61985	0.321159	3.77721	0.486356	5.74234	0.602461	7.10964	0.861876	10.1928	0.279415	3.28744	0.465177	5.45234	0.722972	8.50089	0.906536	10.5417
0.32191	3.75212	0.142467	1.62535	0.32207	3.74686	0.487296	5.69084	0.60338	7.04305	0.862387	10.0877	0.281459	3.27559	0.466141	5.40462	0.7235	8.41491	0.906854	10.4756
0.322828	3.7224	0.14446	1.63075	0.32299	3.71728	0.488244	5.64055	0.604307	6.97798	0.862904	9.98496	0.283506	3.26402	0.467113	5.35801	0.724034	8.33084	0.90724	10.397
0.323756	3.69343	0.146454	1.63606	0.32392	3.68843	0.489201	5.59141	0.605243	6.9144	0.863425	9.88443	0.285556	3.25272	0.468094	5.31249	0.724573	8.24861	0.907697	10.3063
0.324695	3.66517	0.148451	1.64127	0.32486	3.6603	0.490165	5.5434	0.606187	6.85225	0.863952	9.78609	0.287607	3.24169	0.469084	5.26802	0.725117	8.16817	0.908226	10.2044
0.325643	3.63762	0.150448	1.6464	0.32581	3.63287	0.491137	5.49648	0.607139	6.79149	0.864485	9.68986	0.28966	3.2309	0.470083	5.22457	0.725667	8.08947	0.90876	10.1046
0.326602	3.61075	0.152448	1.65144	0.326771	3.60612	0.492117	5.45061	0.608099	6.73207	0.865022	9.59567	0.291716	3.22036	0.47109	5.1821	0.726222	8.01244	0.909299	10.0069
0.327571	3.58454	0.154448	1.6564	0.327741	3.58002	0.493104	5.40576	0.609068	6.67395	0.865565	9.50347	0.293773	3.21006	0.472106	5.14059	0.726783	7.93704	0.909843	9.9113
0.328549	3.55896	0.15645	1.66127	0.328722	3.55455	0.4941	5.36191	0.610044	6.6171	0.866113	9.4132	0.295832	3.19998	0.47313	5.1	0.72735	7.86322	0.910393	9.81764
0.329538	3.53401	0.158454	1.66606	0.329713	3.52971	0.495102	5.31902	0.611029	6.56147	0.866667	9.32479	0.297893	3.19012	0.474162	5.06031	0.727921	7.79092	0.910947	9.7259
0.330538	3.50966	0.160459	1.67078	0.330714	3.50546	0.496113	5.27705	0.612022	6.50703	0.867225	9.23819	0.299955	3.18047	0.475203	5.02149	0.728499	7.72012	0.911507	9.63602
0.331547	3.4859	0.162465	1.67541	0.331725	3.4818	0.497131	5.23599	0.613022	6.45373	0.867789	9.15336	0.30202	3.17104	0.476252	4.98351	0.729081	7.65076	0.912072	9.54795
0.332568	3.4627	0.164473	1.67997	0.332747	3.4587	0.498157	5.1958	0.614031	6.40156	0.868359	9.07022	0.304086	3.1618	0.47731	4.94636	0.72967	7.58279	0.912642	9.46163
0.333598	3.44006	0.166481	1.68446	0.33378	3.43616	0.499189	5.15647	0.615047	6.35047	0.868933	8.98875	0.306153	3.15275	0.478376	4.90999	0.730263	7.51619	0.913216	9.37702
0.334639	3.41796	0.168491	1.68887	0.334823	3.41415	0.50023	5.11796	0.616071	6.30044	0.869513	8.90888	0.308222	3.14389	0.479449	4.8744	0.730862	7.4509	0.913796	9.29406
0.335691	3.39638	0.170502	1.69322	0.335877	3.39266	0.501277	5.08025	0.617103	6.25142	0.870097	8.83057	0.310292	3.13521	0.480532	4.83956	0.731467	7.3869	0.914381	9.21271
0.336754	3.37532	0.172514	1.69749	0.336941	3.37168	0.502332	5.04332	0.618143	6.20341	0.870688	8.75379	0.312364	3.12671	0.481622	4.80545	0.732077	7.32415	0.914971	9.13292
0.337827	3.35475	0.174527	1.7017	0.338016	3.3512	0.503394	5.00715	0.61919	6.15636	0.871283	8.67848	0.314437	3.11838	0.48272	4.77205	0.732692	7.26261	0.915566	9.05465
0.338912	3.33467	0.176541	1.70584	0.339103	3.3312	0.504464	4.97171	0.620245	6.11024	0.871883	8.60461	0.316511	3.11021	0.483827	4.73934	0.733313	7.20225	0.916166	8.97786
0.340007	3.31505	0.178556	1.70991	0.3402	3.31167	0.50554	4.93698	0.621307	6.06504	0.872489	8.53213	0.318586	3.1022	0.484941	4.70729	0.733939	7.14303	0.916771	8.90251
0.341114	3.2959	0.180571	1.71392	0.341309	3.2926	0.506623	4.90295	0.622378	6.02073	0.8731	8.46102	0.320663	3.09435	0.486063	4.6759	0.73457	7.08494	0.917381	8.82856
0.342232	3.2772	0.182588	1.71787	0.342429	3.27398	0.507714	4.8696	0.623455	5.97728	0.873716	8.39122	0.322741	3.08665	0.487194	4.64514	0.735207	7.02792	0.917996	8.75596
0.343361	3.25894	0.184606	1.72176	0.34356	3.25579	0.508811	4.8369	0.62454	5.93467	0.874337	8.32272	0.32482	3.0791	0.488332	4.61499	0.735849	6.97197	0.918616	8.6847
0.344502	3.24111	0.186624	1.72559	0.344703	3.23803	0.509915	4.80484	0.625632	5.89288	0.874963	8.25546	0.3269	3.07168	0.489478	4.58545	0.736497	6.91704	0.91924	8.61472
0.345655	3.2237	0.188643	1.72936	0.345858	3.2207	0.511026	4.7734	0.626732	5.85188	0.875594	8.18943	0.32898	3.06441	0.490632	4.55649	0.73715	6.86312	0.91987	8.546
0.34682	3.2067	0.190663	1.73308	0.347025	3.20376	0.512144	4.74257	0.627839	5.81166	0.876231	8.12458	0.331062	3.05727	0.491793	4.52809	0.737808	6.81018	0.920505	8.47851
0.347996	3.1901	0.192684	1.73674	0.348204	3.18723	0.513269	4.71233	0.628953	5.77219	0.876872	8.06089	0.333145	3.05026	0.492962	4.50025	0.738472	6.75818	0.921144	8.41221
0.349185	3.17389	0.194705	1.74034	0.349395	3.17109	0.5144	4.68266	0.630074	5.73346	0.877519	7.99833	0.335229	3.04337	0.494139	4.47295	0.739141	6.70712	0.921788	8.34707
0.350387	3.15806	0.196727	1.74389	0.350598	3.15533	0.515538	4.65355	0.631203	5.69544	0.878171	7.93687	0.337313	3.03661	0.495324	4.44618	0.739815	6.65695	0.922437	8.28307
0.351601	3.14261	0.19875	1.74739	0.351814	3.13995	0.516683	4.62498	0.632339	5.65812	0.878828	7.87648	0.339398	3.02997	0.496516	4.41991	0.740495	6.60767	0.923091	8.22017
0.352827	3.12753	0.200773	1.75084	0.353043	3.12493	0.517834	4.59695	0.633481	5.62148	0.879489	7.81714	0.341484	3.02345	0.497715	4.39415	0.741179	6.55925	0.92375	8.15835
0.354067	3.11282	0.202797	1.75423	0.354286	3.11028	0.518991	4.56943	0.634631	5.5855	0.880156	7.75882	0.343571	3.01703	0.498922	4.36887	0.741869	6.51167	0.924414	8.09758
0.35532	3.09845	0.204821	1.75758	0.355541	3.09598	0.520155	4.54242	0.635788	5.55017	0.880828	7.70149	0.345659	3.01073	0.500137	4.34406	0.742565	6.4649	0.925082	8.03783
0.356587	3.08444	0.206846	1.76088	0.35681	3.08202	0.521326	4.5159	0.636951	5.51547	0.881506	7.64513	0.347747	3.00454	0.501359	4.31972	0.743266	6.41894	0.925756	7.97909
0.357867	3.07077	0.208871	1.76413	0.358093	3.06841	0.522502	4.48986	0.638122	5.48138	0.882188	7.58972	0.349835	2.99845	0.502588	4.29583	0.743972	6.37375	0.926434	7.92133
0.359162	3.05743	0.210897	1.76733	0.35939	3.05513	0.523686	4.46428	0.639299	5.4479	0.882875	7.53523	0.351924	2.99245	0.503825	4.27237	0.744683	6.32932	0.927117	7.86451
0.360471	3.04443	0.212924	1.77049	0.360701	3.04218	0.524875	4.43916	0.640483	5.415	0.883567	7.48164	0.354014	2.98656	0.505069	4.24935	0.745399	6.28564	0.927804	7.80863
0.361794	3.03175	0.214951	1.7736	0.362027	3.02956	0.52607	4.41449	0.641674	5.38266	0.884264	7.42894	0.356104	2.98077	0.50632	4.22674	0.746121	6.24268	0.928497	7.75366
0.363132	3.01939	0.216978	1.77667	0.363368	3.01726	0.527272	4.39025	0.642872	5.35089	0.884966	7.37709	0.358195	2.97507	0.507578	4.20455	0.746848	6.20042	0.929194	7.69957
0.364486	3.00734	0.219006	1.7797	0.364724	3.00527	0.52848	4.36643	0.644076	5.31966	0.885673	7.32609	0.360286	2.96946	0.508844	4.18275	0.74758	6.15886	0.929895	7.64636
0.365855	2.99561	0.221034	1.78268	0.366096	2.99359	0.529694	4.34303	0.645287	5.28896	0.886385	7.27591	0.362378	2.96394	0.510117	4.16134	0.748317	6.11798	0.930602	7.59399
0.367239	2.98418	0.223062	1.78562	0.367483	2.98221	0.530914	4.32003	0.646504	5.25878	0.887103	7.22652	0.36447	2.9585	0.511397	4.14031	0.74906	6.07775	0.931313	7.54245
0.36864	2.97306	0.225091	1.78853	0.368887	2.97114	0.53214	4.29742	0.647728	5.2291	0.887825	7.17793	0.366562	2.95315	0.512684	4.11966	0.749807	6.03817	0.932029	7.49171
0.370058	2.96223	0.22712	1.79139	0.370307	2.96037	0.533371	4.27521	0.648958	5.19993	0.888552	7.1301	0.368655	2.94788	0.513978	4.09937	0.75056	5.99922	0.932749	7.44177
0.371492	2.9517	0.22915	1.79421	0.371744	2.94988	0.534609	4.25336	0.650195	5.17123	0.889283	7.08301	0.370748	2.94269	0.515279	4.07943	0.751318	5.96089	0.933475	7.39261
0.372943	2.94145	0.23118	1.79699	0.373199	2.93969	0.535853	4.23189	0.651438	5.14301	0.89002	7.03667	0.372841	2.93758	0.516587	4.05984	0.752081	5.92316	0.934204	7.3442
0.374412	2.9315	0.23321	1.79974	0.374671	2.92978	0.537102	4.21077	0.652688	5.11525	0.890762	6.99103	0.374934	2.93255	0.517902	4.04059	0.75285	5.88602	0.934939	7.29653
0.375898	2.92182	0.23524	1.80245	0.37616	2.92016	0.538357	4.19001	0.653943	5.08794	0.891509	6.9461	0.377028	2.92759	0.519223	4.02167	0.753623	5.84946	0.935678	7.24958
0.377403	2.91243	0.237271	1.80512	0.377668	2.91081	0.539618	4.16958	0.655205	5.06107	0.89226	6.90185	0.379121	2.92271	0.520552	4.00307	0.754402	5.81346	0.936421	7.20335
0.378926	2.90331	0.239302	1.80776	0.379195	2.90174	0.540884	4.1495	0.656473	5.03463	0.893016	6.85828	0.381215	2.91789	0.521887	3.98479	0.755186	5.77802	0.93717	7.1578
0.380468	2.89446	0.241333	1.81036	0.38074	2.89294	0.542156	4.12974	0.657748	5.00861	0.893778	6.81536	0.383309	2.91314	0.52323	3.96682	0.755974	5.74311	0.937922	7.11294
0.382029	2.88588	0.243364	1.81293	0.382305	2.88441	0.543434	4.1103	0.659028	4.98301	0.894544	6.77308	0.385403	2.90846	0.524579	3.94915	0.756768	5.70874	0.93868	7.06873
0.38361	2.87757	0.245396	1.81546	0.383889	2.87614	0.544717	4.09117	0.660315	4.95781	0.895315	6.73143	0.387498	2.90385	0.525934	3.93178	0.757567	5.67488	0.939442	7.02518
0.38521	2.86951	0.247427	1.81796	0.385492	2.86813	0.546006	4.07236	0.661607	4.93301	0.89609	6.6904	0.389592	2.8993	0.527296	3.91469	0.758371	5.64153	0.940208	6.98226
0.38683	2.86172	0.249459	1.82043	0.387116	2.86038	0.5473	4.05384	0.662906	4.90859	0.896871	6.64997	0.391686	2.89481	0.528665	3.8979	0.759181	5.60868	0.940979	6.93997
0.38847	2.85418	0.251491	1.82287	0.388759	2.85289	0.5486	4.03562	0.66421	4.88455	0.897656	6.61013	0.39378	2.89039	0.530041	3.88137	0.759995	5.57631	0.941754	6.89829
0.390131	2.84689	0.253524	1.82527	0.390423	2.84564	0.549905	4.01768	0.665521	4.86088	0.898447	6.57086	0.395875	2.88602	0.531423	3.86512	0.760814	5.54442	0.942534	6.8572
0.391811	2.83985	0.255556	1.82764	0.392108	2.83864	0.551215	4.00002	0.666837	4.83758	0.899242	6.53217	0.397969	2.88172	0.532812	3.84914	0.761638	5.51299	0.943319	6.8167
0.393513	2.83305	0.257588	1.82998	0.393813	2.83189	0.552531	3.98264	0.668159	4.81463	0.900042	6.49403	0.400063	2.87747	0.534207	3.83342	0.762468	5.48203	0.944107	6.77678
0.395235	2.82649	0.259621	1.8323	0.395538	2.82536	0.553852	3.96553	0.669486	4.79202	0.900846	6.45643	0.402157	2.87327	0.535608	3.81795	0.763302	5.45151	0.944901	6.73742
0.396978	2.82016	0.261654	1.83458	0.397285	2.81908	0.555178	3.94869	0.67082	4.76976	0.901655	6.41937	0.40425	2.86914	0.537016	3.80273	0.764142	5.42143	0.945698	6.6986
0.398741	2.81406	0.263687	1.83683	0.399052	2.81302	0.556509	3.9321	0.672159	4.74783	0.90247	6.38282	0.406344	2.86505	0.538431	3.78776	0.764986	5.39178	0.9465	6.66033
0.400525	2.80819	0.265719	1.83906	0.400839	2.80718	0.557845	3.91576	0.673504	4.72622	0.903288	6.34679	0.408438	2.86101	0.539852	3.77302	0.765835	5.36255	0.947307	6.62259
0.402329	2.80253	0.267752	1.84125	0.402647	2.80157	0.559187	3.89968	0.674854	4.70494	0.904112	6.31126	0.410531	2.85703	0.541279	3.75852	0.76669	5.33374	0.948118	6.58536
0.404154	2.79709	0.269785	1.84342	0.404476	2.79616	0.560533	3.88383	0.67621	4.68397	0.90494	6.27622	0.412624	2.8531	0.542712	3.74425	0.767549	5.30533	0.948933	6.54865
0.406	2.79186	0.271819	1.84557	0.406325	2.79097	0.561885	3.86822	0.677572	4.6633	0.905773	6.24167	0.414717	2.84921	0.544152	3.73021	0.768413	5.27731	0.949753	6.51243
0.407865	2.78683	0.273852	1.84768	0.408193	2.78597	0.563241	3.85285	0.678939	4.64294	0.906611	6.20759	0.416809	2.84538	0.545598	3.71638	0.769282	5.24969	0.950577	6.4767
0.40975	2.782	0.275885	1.84977	0.410082	2.78118	0.564603	3.8377	0.680311	4.62287	0.907453	6.17397	0.418901	2.84159	0.54705	3.70278	0.770157	5.22245	0.951405	6.44146
0.411654	2.77736	0.277918	1.85184	0.411989	2.77657	0.565969	3.82278	0.681689	4.60309	0.9083	6.14081	0.420993	2.83784	0.548508	3.68938	0.771036	5.19559	0.952238	6.40668
0.413578	2.77291	0.279951	1.85388	0.413916	2.77215	0.56734	3.80808	0.683072	4.58359	0.909152	6.10809	0.423085	2.83414	0.549973	3.67619	0.77192	5.16909	0.953075	6.37237
0.41552	2.76864	0.281985	1.85589	0.415862	2.76791	0.568717	3.79359	0.68446	4.56437	0.910008	6.07581	0.425176	2.83048	0.551443	3.66321	0.772809	5.14296	0.953916	6.33851
0.417481	2.76454	0.284018	1.85788	0.417826	2.76384	0.570097	3.77932	0.685854	4.54542	0.910869	6.04396	0.427267	2.82687	0.55292	3.65042	0.773702	5.11718	0.954762	6.30509
0.419459	2.76061	0.286051	1.85984	0.419807	2.75994	0.571483	3.76525	0.687253	4.52674	0.911735	6.01254	0.429358	2.8233	0.554402	3.63784	0.774601	5.09175	0.955611	6.27211
0.421455	2.75684	0.288084	1.86179	0.421806	2.7562	0.572873	3.75138	0.688657	4.50833	0.912605	5.98152	0.431448	2.81977	0.555891	3.62544	0.775505	5.06666	0.956466	6.23956
0.423468	2.75323	0.290117	1.8637	0.423822	2.75261	0.574268	3.73771	0.690066	4.49016	0.91348	5.95092	0.433537	2.81627	0.557386	3.61323	0.776413	5.0419	0.957324	6.20743
0.425498	2.74977	0.292151	1.8656	0.425855	2.74918	0.575668	3.72424	0.691481	4.47225	0.91436	5.92071	0.435626	2.81282	0.558886	3.60121	0.777326	5.01748	0.958186	6.17572
0.427543	2.74645	0.294184	1.86747	0.427903	2.74588	0.577073	3.71095	0.6929	4.45459	0.915244	5.8909	0.437715	2.80941	0.560393	3.58937	0.778245	4.99337	0.959053	6.14441
0.429604	2.74327	0.296217	1.86932	0.429966	2.74273	0.578481	3.69786	0.694325	4.43717	0.916132	5.86147	0.439803	2.80603	0.561905	3.57771	0.779167	4.96959	0.959924	6.11349
0.43168	2.74022	0.29825	1.87115	0.432045	2.7397	0.579895	3.68495	0.695754	4.41999	0.917026	5.83241	0.441891	2.80269	0.563424	3.56622	0.780095	4.94611	0.960799	6.08297
0.433771	2.7373	0.300283	1.87296	0.434138	2.73681	0.581313	3.67222	0.697189	4.40304	0.917923	5.80373	0.443978	2.79938	0.564948	3.5549	0.781028	4.92294	0.961678	6.05284
0.435875	2.73451	0.302316	1.87474	0.436245	2.73403	0.582736	3.65966	0.698628	4.38632	0.918826	5.77542	0.446065	2.79612	0.566478	3.54375	0.781965	4.90007	0.962562	6.02308
0.437993	2.73183	0.304349	1.87651	0.438365	2.73137	0.584162	3.64728	0.700072	4.36983	0.919732	5.74746	0.448151	2.79288	0.568013	3.53277	0.782907	4.8775	0.96345	5.99369
0.440123	2.72925	0.306382	1.87825	0.440498	2.72882	0.585594	3.63508	0.701521	4.35356	0.920644	5.71985	0.450236	2.78968	0.569555	3.52195	0.783854	4.85522	0.964341	5.96466
0.442267	2.72679	0.308414	1.87997	0.442643	2.72637	0.58703	3.62303	0.702975	4.3375	0.92156	5.69259	0.452321	2.78651	0.571102	3.51128	0.784806	4.83322	0.965237	5.936
0.444421	2.72443	0.310447	1.88168	0.4448	2.72402	0.58847	3.61116	0.704434	4.32165	0.92248	5.66567	0.454405	2.78338	0.572655	3.50078	0.785763	4.81151	0.966137	5.90768
0.446588	2.72216	0.312479	1.88336	0.446968	2.72177	0.589914	3.59944	0.705897	4.30602	0.923405	5.63908	0.456489	2.78027	0.574213	3.49043	0.786724	4.79006	0.967041	5.87971
0.448765	2.71998	0.314512	1.88503	0.449147	2.71961	0.591363	3.58789	0.707365	4.29059	0.924334	5.61282	0.458572	2.7772	0.575778	3.48022	0.78769	4.76889	0.967949	5.85208
0.450953	2.7179	0.316544	1.88667	0.451337	2.71754	0.592816	3.57648	0.708838	4.27536	0.925268	5.58688	0.460654	2.77416	0.577347	3.47017	0.78866	4.74799	0.968861	5.82479
0.453151	2.71589	0.318577	1.8883	0.453536	2.71555	0.594273	3.56524	0.710315	4.26033	0.926206	5.56126	0.462736	2.77114	0.578923	3.46026	0.789636	4.72734	0.969778	5.79782
0.455358	2.71397	0.320609	1.88991	0.455745	2.71364	0.595735	3.55414	0.711797	4.2455	0.927149	5.53595	0.464817	2.76816	0.580504	3.4505	0.790616	4.70696	0.970698	5.77118
0.457575	2.71212	0.322641	1.8915	0.457963	2.7118	0.5972	3.54319	0.713284	4.23085	0.928096	5.51095	0.466897	2.76521	0.58209	3.44087	0.791601	4.68682	0.971622	5.74485
0.4598	2.71034	0.324673	1.89307	0.46019	2.71003	0.59867	3.53238	0.714775	4.21639	0.929048	5.48625	0.468977	2.76228	0.583682	3.43138	0.79259	4.66694	0.972551	5.71883
0.462033	2.70863	0.326704	1.89462	0.462425	2.70834	0.600144	3.52172	0.71627	4.20212	0.930004	5.46184	0.471055	2.75938	0.585279	3.42203	0.793584	4.6473	0.973483	5.69313
0.464275	2.70698	0.328736	1.89616	0.464668	2.7067	0.601622	3.51119	0.71777	4.18803	0.930964	5.43773	0.473133	2.75651	0.586882	3.41281	0.794583	4.62789	0.974419	5.66772
0.466524	2.7054	0.330767	1.89768	0.466919	2.70513	0.603104	3.50081	0.719274	4.17411	0.931929	5.4139	0.47521	2.75366	0.58849	3.40372	0.795587	4.60873	0.975359	5.64261
0.468781	2.70388	0.332799	1.89918	0.469177	2.70362	0.60459	3.49055	0.720783	4.16037	0.932898	5.39036	0.477287	2.75084	0.590104	3.39476	0.796595	4.5898	0.976304	5.61779
0.471044	2.70241	0.33483	1.90067	0.471441	2.70216	0.60608	3.48044	0.722296	4.14681	0.933872	5.36709	0.479362	2.74805	0.591723	3.38593	0.797608	4.57109	0.977252	5.59326
0.473315	2.701	0.336861	1.90214	0.473713	2.70076	0.607574	3.47045	0.723813	4.13341	0.934849	5.34409	0.481437	2.74528	0.593347	3.37721	0.798625	4.55262	0.978204	5.56901
0.475591	2.69964	0.338892	1.90359	0.47599	2.6994	0.609072	3.46059	0.725335	4.12018	0.935832	5.32137	0.483511	2.74254	0.594977	3.36863	0.799647	4.53436	0.97916	5.54504
0.477874	2.69832	0.340923	1.90503	0.478274	2.6981	0.610574	3.45085	0.726861	4.10711	0.936818	5.2989	0.485584	2.73982	0.596612	3.36016	0.800673	4.51632	0.98012	5.52135
0.480162	2.69706	0.342953	1.90645	0.480563	2.69684	0.612079	3.44124	0.728391	4.0942	0.937809	5.2767	0.487656	2.73712	0.598252	3.35181	0.801705	4.49849	0.981083	5.49792
0.482456	2.69583	0.344984	1.90785	0.482858	2.69562	0.613589	3.43175	0.729925	4.08145	0.938804	5.25475	0.489728	2.73445	0.599897	3.34357	0.80274	4.48088	0.982051	5.47476
0.484755	2.69465	0.347014	1.90925	0.485158	2.69445	0.615103	3.42238	0.731463	4.06885	0.939804	5.23306	0.491798	2.7318	0.601548	3.33545	0.80378	4.46347	0.983023	5.45186
0.487059	2.69351	0.349044	1.91062	0.487463	2.69331	0.61662	3.41313	0.733006	4.05641	0.940808	5.21161	0.493868	2.72917	0.603204	3.32744	0.804825	4.44627	0.983998	5.42921
0.489368	2.6924	0.351074	1.91198	0.489772	2.69221	0.618141	3.404	0.734552	4.04411	0.941816	5.1904	0.495936	2.72656	0.604865	3.31954	0.805875	4.42927	0.984977	5.40682
0.491681	2.69134	0.353104	1.91333	0.492087	2.69115	0.619666	3.39498	0.736102	4.03197	0.942828	5.16944	0.498004	2.72398	0.60653	3.31175	0.806929	4.41247	0.98596	5.38468
0.493999	2.6903	0.355133	1.91466	0.494405	2.69013	0.621194	3.38607	0.737657	4.01997	0.943845	5.14871	0.500071	2.72141	0.608202	3.30407	0.807987	4.39586	0.986947	5.36278
0.496321	2.6893	0.357163	1.91598	0.496728	2.68913	0.622726	3.37727	0.739215	4.00811	0.944866	5.12822	0.502137	2.71887	0.609878	3.29649	0.80905	4.37944	0.987938	5.34112
0.498647	2.68833	0.359192	1.91728	0.499055	2.68817	0.624262	3.36857	0.740778	3.99639	0.945891	5.10795	0.504202	2.71635	0.611559	3.28901	0.810117	4.36322	0.988932	5.31971
0.500977	2.6874	0.361221	1.91857	0.501385	2.68724	0.625802	3.35999	0.742344	3.98481	0.94692	5.08791	0.506266	2.71384	0.613245	3.28164	0.811189	4.34718	0.98993	5.29852
0.50331	2.68649	0.36325	1.91984	0.503719	2.68633	0.627345	3.35151	0.743914	3.97337	0.947954	5.06809	0.508329	2.71136	0.614936	3.27436	0.812266	4.33132	0.990932	5.27756
0.505647	2.6856	0.365278	1.9211	0.506056	2.68545	0.628892	3.34313	0.745488	3.96206	0.948991	5.0485	0.51039	2.7089	0.616632	3.26719	0.813347	4.31564	0.991938	5.25684
0.507987	2.68475	0.367307	1.92235	0.508397	2.6846	0.630442	3.33486	0.747066	3.95088	0.950033	5.02911	0.512451	2.70645	0.618333	3.2601	0.814432	4.30014	0.992948	5.23633
0.51033	2.68392	0.369335	1.92359	0.510741	2.68377	0.631996	3.32668	0.748647	3.93983	0.95108	5.00994	0.514511	2.70402	0.620039	3.25312	0.815522	4.28482	0.993961	5.21605
0.512677	2.68311	0.371363	1.92481	0.513088	2.68297	0.633554	3.31861	0.750233	3.92891	0.95213	4.99098	0.51657	2.70162	0.62175	3.24623	0.816616	4.26966	0.994978	5.19598
0.515026	2.68232	0.373391	1.92602	0.515437	2.68219	0.635115	3.31063	0.751822	3.91811	0.953184	4.97222	0.518628	2.69923	0.623466	3.23943	0.817714	4.25468	0.995998	5.17612
0.517378	2.68156	0.375418	1.92721	0.51779	2.68143	0.636679	3.30274	0.753414	3.90744	0.954243	4.95367	0.520685	2.69685	0.625187	3.23272	0.818817	4.23987	0.997022	5.15648
0.519733	2.68082	0.377445	1.9284	0.520145	2.68069	0.638247	3.29495	0.755011	3.89689	0.955306	4.93532	0.522741	2.6945	0.626912	3.2261	0.819925	4.22522	0.99805	5.13704
0.52209	2.6801	0.379473	1.92957	0.522502	2.67997	0.639819	3.28725	0.75661	3.88646	0.956373	4.91716	0.524795	2.69216	0.628642	3.21956	0.821037	4.21073	0.999082	5.11781
0.524449	2.6794	0.3815	1.93073	0.524862	2.67927	0.641394	3.27964	0.758214	3.87615	0.957444	4.8992	0.526849	2.68984	0.630377	3.21312	0.822153	4.1964	1.00012	5.09878
0.526811	2.67871	0.383526	1.93188	0.527225	2.67859	0.642972	3.27213	0.759821	3.86595	0.958519	4.88143	0.528902	2.68754	0.632116	3.20675	0.823273	4.18224		
0.529175	2.67804	0.385553	1.93301	0.529589	2.67793	0.644553	3.2647	0.761432	3.85586	0.959598	4.86385	0.530953	2.68525	0.633861	3.20048	0.824398	4.16822		
0.531541	2.67739	0.387579	1.93414	0.531955	2.67728	0.646139	3.25735	0.763046	3.84589	0.960681	4.84645	0.533004	2.68298	0.635609	3.19428	0.825528	4.15436		
0.533909	2.67676	0.389605	1.93525	0.534324	2.67665	0.647727	3.25009	0.764663	3.83603	0.961769	4.82924	0.535053	2.68072	0.637363	3.18816	0.826661	4.14065		
0.536279	2.67614	0.391631	1.93635	0.536694	2.67604	0.649319	3.24292	0.766284	3.82628	0.96286	4.8122	0.537101	2.67848	0.639121	3.18213	0.827799	4.12709		
0.538651	2.67554	0.393656	1.93744	0.539066	2.67543	0.650914	3.23583	0.767909	3.81664	0.963956	4.79535	0.539149	2.67625	0.640884	3.17617	0.828941	4.11368		
0.541025	2.67495	0.395682	1.93852	0.54144	2.67485	0.652512	3.22882	0.769537	3.8071	0.965055	4.77867	0.541195	2.67404	0.642651	3.17029	0.830088	4.10041		
0.5434	2.67437	0.397707	1.93959	0.543816	2.67427	0.654113	3.22189	0.771168	3.79766	0.966159	4.76217	0.543239	2.67185	0.644423	3.16449	0.831239	4.08728		
0.545777	2.67381	0.399731	1.94065	0.546193	2.67371	0.655718	3.21504	0.772802	3.78833	0.967267	4.74583	0.545283	2.66967	0.646199	3.15876	0.832394	4.0743		
0.548155	2.67326	0.401756	1.94169	0.548571	2.67317	0.657326	3.20827	0.77444	3.7791	0.968378	4.72967	0.547326	2.6675	0.64798	3.1531	0.833553	4.06145		
0.550535	2.67272	0.40378	1.94273	0.550951	2.67263	0.658937	3.20157	0.776081	3.76997	0.969494	4.71367	0.549368	2.66535	0.649765	3.14752	0.834717	4.04874		
0.552916	2.6722	0.405805	1.94375	0.553333	2.67211	0.660552	3.19496	0.777725	3.76093	0.970614	4.69783	0.551408	2.66321	0.651555	3.14201	0.835885	4.03617		
0.555299	2.67168	0.407828	1.94477	0.555716	2.67159	0.662169	3.18841	0.779373	3.75199	0.971737	4.68215	0.553447	2.66108	0.653349	3.13657	0.837057	4.02372		
0.557682	2.67118	0.409852	1.94577	0.5581	2.67109	0.66379	3.18194	0.781024	3.74315	0.972865	4.66664	0.555485	2.65897	0.655148	3.1312	0.838233	4.01141		
0.560067	2.67068	0.411875	1.94677	0.560485	2.6706	0.665414	3.17554	0.782677	3.7344	0.973996	4.65128	0.557523	2.65687	0.65695	3.12589	0.839414	3.99923		
0.562453	2.6702	0.413899	1.94775	0.562871	2.67011	0.667041	3.16922	0.784334	3.72575	0.975132	4.63607	0.559558	2.65479	0.658757	3.12066	0.840599	3.98718		
0.564841	2.66972	0.415921	1.94873	0.565258	2.66964	0.668671	3.16296	0.785995	3.71718	0.976272	4.62102	0.561593	2.65271	0.660569	3.11549	0.841788	3.97525		
0.567229	2.66925	0.417944	1.94969	0.567647	2.66917	0.670305	3.15677	0.787658	3.70871	0.977415	4.60612	0.563627	2.65065	0.662384	3.11038	0.842981	3.96345		
0.569618	2.6688	0.419966	1.95065	0.570036	2.66872	0.671941	3.15065	0.789324	3.70032	0.978562	4.59137	0.565659	2.64861	0.664204	3.10534	0.844178	3.95176		
0.572008	2.66835	0.421988	1.9516	0.572426	2.66827	0.67358	3.1446	0.790993	3.69202	0.979714	4.57676	0.56769	2.64657	0.666028	3.10037	0.84538	3.9402		
0.574399	2.6679	0.42401	1.95253	0.574818	2.66783	0.675223	3.13862	0.792665	3.6838	0.980869	4.5623	0.56972	2.64455	0.667856	3.09545	0.846586	3.92876		
0.576791	2.66747	0.426032	1.95346	0.57721	2.6674	0.676868	3.1327	0.794341	3.67567	0.982028	4.54798	0.571749	2.64254	0.669689	3.0906	0.847795	3.91744		
0.579184	2.66704	0.428053	1.95438	0.579602	2.66697	0.678517	3.12685	0.796019	3.66763	0.983191	4.53381	0.573777	2.64054	0.671525	3.0858	0.849009	3.90623		
0.581577	2.66662	0.430074	1.95529	0.581996	2.66655	0.680168	3.12106	0.7977	3.65966	0.984357	4.51977	0.575804	2.63856	0.673366	3.08107	0.850228	3.89514		
0.583971	2.66621	0.432095	1.95619	0.58439	2.66614	0.681823	3.11533	0.799384	3.65178	0.985528	4.50587	0.577829	2.63658	0.67521	3.0764	0.85145	3.88416		
0.586366	2.66581	0.434116	1.95709	0.586785	2.66573	0.68348	3.10967	0.801071	3.64397	0.986703	4.4921	0.579854	2.63462	0.677059	3.07178	0.852676	3.87329		
0.588761	2.66541	0.436136	1.95797	0.58918	2.66534	0.68514	3.10406	0.80276	3.63625	0.987881	4.47847	0.581877	2.63266	0.678912	3.06722	0.853907	3.86253		
0.591157	2.66501	0.438156	1.95884	0.591576	2.66494	0.686804	3.09852	0.804453	3.6286	0.989063	4.46497	0.583899	2.63072	0.680768	3.06271	0.855141	3.85189		
0.593553	2.66462	0.440176	1.95971	0.593973	2.66456	0.68847	3.09304	0.806148	3.62103	0.990249	4.4516	0.58592	2.62879	0.682629	3.05827	0.85638	3.84134		
0.59595	2.66424	0.442195	1.96057	0.59637	2.66417	0.690139	3.08761	0.807846	3.61354	0.991439	4.43836	0.58794	2.62687	0.684493	3.05387	0.857622	3.83091		
0.598348	2.66386	0.444214	1.96142	0.598767	2.6638	0.691811	3.08224	0.809547	3.60612	0.992632	4.42525	0.589958	2.62497	0.686361	3.04953	0.858869	3.82058		
0.600746	2.66349	0.446233	1.96226	0.601165	2.66342	0.693486	3.07693	0.811251	3.59877	0.99383	4.41226	0.591976	2.62307	0.688233	3.04524	0.86012	3.81035		
0.603144	2.66312	0.448252	1.9631	0.603564	2.66306	0.695164	3.07168	0.812957	3.59149	0.995031	4.39939	0.593992	2.62118	0.690109	3.04101	0.861375	3.80022		
0.605543	2.66276	0.45027	1.96392	0.605963	2.6627	0.696845	3.06648	0.814666	3.58429	0.996236	4.38665	0.596007	2.61931	0.691989	3.03682	0.862634	3.7902		
0.607942	2.6624	0.452288	1.96474	0.608362	2.66234	0.698529	3.06134	0.816377	3.57716	0.997445	4.37403	0.598021	2.61744	0.693873	3.03269	0.863896	3.78027		
0.610341	2.66205	0.454306	1.96555	0.610761	2.66198	0.700215	3.05625	0.818092	3.57009	0.998657	4.36153	0.600034	2.61558	0.69576	3.0286	0.865163	3.77044		
0.612741	2.6617	0.456324	1.96635	0.613161	2.66163	0.701905	3.05122	0.819808	3.5631	0.999873	4.34914	0.602046	2.61374	0.697651	3.02457	0.866434	3.76071		
0.61514	2.66135	0.458341	1.96715	0.61556	2.66129	0.703597	3.04624	0.821528	3.55617	1.00109	4.33687	0.604056	2.6119	0.699545	3.02058	0.867709	3.75107		
0.61754	2.66101	0.460358	1.96794	0.61796	2.66095	0.705292	3.04131	0.82325	3.54931			0.606066	2.61008	0.701444	3.01664	0.868988	3.74153		
0.619941	2.66067	0.462375	1.96872	0.620361	2.66061	0.70699	3.03643	0.824974	3.54252			0.608074	2.60826	0.703345	3.01275	0.870271	3.73208		
0.622341	2.66033	0.464391	1.96949	0.622761	2.66027	0.708691	3.0316	0.826701	3.53579			0.610081	2.60645	0.705251	3.0089	0.871557	3.72273		
0.624742	2.66	0.466408	1.97025	0.625162	2.65994	0.710394	3.02683	0.828431	3.52912			0.612087	2.60466	0.70716	3.0051	0.872848	3.71346		
0.627142	2.65967	0.468424	1.97101	0.627562	2.65961	0.7121	3.0221	0.830163	3.52252			0.614092	2.60287	0.709072	3.00135	0.874143	3.70429		
0.629543	2.65934	0.470439	1.97176	0.629963	2.65929	0.713809	3.01742	0.831897	3.51598			0.616096	2.60109	0.710988	2.99763	0.875441	3.6952		
0.631943	2.65902	0.472454	1.97251	0.632364	2.65896	0.715521	3.01279	0.833634	3.5095			0.618099	2.59932	0.712908	2.99396	0.876744	3.6862		
0.634344	2.6587	0.47447	1.97325	0.634764	2.65864	0.717236	3.00821	0.835373	3.50308			0.620101	2.59756	0.71483	2.99034	0.87805	3.67729		
0.636745	2.65838	0.476484	1.97398	0.637165	2.65832	0.718953	3.00368	0.837115	3.49672			0.622102	2.59581	0.716757	2.98676	0.879361	3.66847		
0.639145	2.65806	0.478499	1.9747	0.639565	2.65801	0.720674	2.99919	0.838859	3.49042			0.624101	2.59407	0.718686	2.98321	0.880675	3.65972		
0.641546	2.65775	0.480513	1.97542	0.641966	2.65769	0.722397	2.99475	0.840605	3.48418			0.6261	2.59234	0.720619	2.97971	0.881993	3.65106		
0.643946	2.65743	0.482527	1.97613	0.644366	2.65738	0.724123	2.99035	0.842353	3.478			0.628097	2.59062	0.722555	2.97625	0.883315	3.64249		
0.646347	2.65712	0.484541	1.97683	0.646767	2.65707	0.725851	2.986	0.844104	3.47187			0.630094	2.5889	0.724495	2.97283	0.884641	3.63399		
0.648747	2.65681	0.486554	1.97753	0.649167	2.65676	0.727582	2.9817	0.845857	3.4658			0.632089	2.5872	0.726437	2.96945	0.885971	3.62558		
0.651147	2.65651	0.488567	1.97822	0.651567	2.65645	0.729316	2.97743	0.847613	3.45978			0.634084	2.5855	0.728383	2.96611	0.887304	3.61725		
0.653547	2.6562	0.49058	1.9789	0.653967	2.65615	0.731053	2.97322	0.84937	3.45382			0.636077	2.58381	0.730332	2.96281	0.888642	3.60899		
0.655946	2.6559	0.492592	1.97958	0.656366	2.65584	0.732793	2.96904	0.85113	3.44792			0.638069	2.58213	0.732285	2.95954	0.889983	3.60081		
0.658345	2.65559	0.494605	1.98025	0.658765	2.65554	0.734535	2.96491	0.852892	3.44206			0.640061	2.58046	0.73424	2.95631	0.891328	3.59271		
0.660744	2.65529	0.496616	1.98092	0.661164	2.65524	0.73628	2.96082	0.854656	3.43626			0.642051	2.5788	0.736198	2.95312	0.892677	3.58469		
0.663143	2.65499	0.498628	1.98158	0.663563	2.65494	0.738028	2.95677	0.856423	3.43051			0.64404	2.57714	0.73816	2.94996	0.894029	3.57674		
0.665542	2.65469	0.500639	1.98223	0.665961	2.65464	0.739778	2.95276	0.858191	3.42482			0.646028	2.5755	0.740124	2.94684	0.895386	3.56886		
0.667939	2.65439	0.502651	1.98288	0.668359	2.65434	0.741532	2.94879	0.859962	3.41917			0.648016	2.57386	0.742091	2.94375	0.896746	3.56106		
0.670337	2.65409	0.504661	1.98352	0.670757	2.65404	0.743288	2.94486	0.861734	3.41357			0.650002	2.57223	0.744062	2.9407	0.89811	3.55333		
0.672734	2.65379	0.506672	1.98416	0.673154	2.65374	0.745047	2.94098	0.863509	3.40802			0.651987	2.57061	0.746035	2.93768	0.899478	3.54567		
0.675131	2.65349	0.508682	1.98479	0.67555	2.65344	0.746808	2.93713	0.865286	3.40252			0.653972	2.569	0.748011	2.9347	0.90085	3.53808		
0.677527	2.6532	0.510692	1.98541	0.677946	2.65314	0.748573	2.93332	0.867065	3.39707			0.655955	2.56739	0.74999	2.93174	0.902225	3.53057		
0.679923	2.6529	0.512702	1.98603	0.680342	2.65285	0.75034	2.92955	0.868845	3.39167			0.657938	2.5658	0.751972	2.92882	0.903604	3.52312		
0.682318	2.6526	0.514711	1.98665	0.682737	2.65255	0.75211	2.92581	0.870628	3.38631			0.65992	2.56421	0.753957	2.92594	0.904987	3.51574		
0.684713	2.6523	0.51672	1.98725	0.685132	2.65225	0.753882	2.92212	0.872413	3.381			0.6619	2.56263	0.755944	2.92308	0.906373	3.50843		
0.687107	2.65201	0.518729	1.98786	0.687525	2.65195	0.755658	2.91846	0.8742	3.37574			0.66388	2.56105	0.757934	2.92025	0.907764	3.50118		
0.6895	2.65171	0.520737	1.98845	0.689919	2.65166	0.757436	2.91484	0.875988	3.37052			0.665859	2.55949	0.759927	2.91746	0.909158	3.494		
0.691893	2.65141	0.522745	1.98905	0.692311	2.65136	0.759217	2.91126	0.877779	3.36534			0.667837	2.55793	0.761922	2.91469	0.910555	3.48689		
0.694285	2.65111	0.524753	1.98963	0.694703	2.65106	0.761001	2.90771	0.879571	3.36021			0.669814	2.55638	0.76392	2.91196	0.911957	3.47984		
0.696676	2.65081	0.526761	1.99021	0.697095	2.65076	0.762787	2.9042	0.881365	3.35512			0.671791	2.55484	0.765921	2.90925	0.913362	3.47285		
0.699067	2.65051	0.528768	1.99079	0.699485	2.65046	0.764577	2.90072	0.883162	3.35008			0.673766	2.55331	0.767924	2.90657	0.914771	3.46593		
0.701457	2.65021	0.530775	1.99136	0.701875	2.65016	0.766369	2.89728	0.88496	3.34508			0.675741	2.55178	0.769929	2.90393	0.916183	3.45907		
0.703846	2.64991	0.532782	1.99193	0.704263	2.64986	0.768164	2.89387	0.886759	3.34012			0.677715	2.55026	0.771938	2.9013	0.917599	3.45228		
0.706234	2.64961	0.534788	1.99249	0.706652	2.64955	0.769963	2.8905	0.888561	3.3352			0.679688	2.54875	0.773948	2.89871	0.919019	3.44554		
0.708621	2.6493	0.536794	1.99304	0.709039	2.64925	0.771763	2.88716	0.890364	3.33032			0.68166	2.54724	0.775961	2.89614	0.920443	3.43886		
0.711007	2.649	0.5388	1.9936	0.711425	2.64894	0.773567	2.88386	0.892169	3.32549			0.683631	2.54575	0.777977	2.8936	0.92187	3.43225		
0.713393	2.64869	0.540806	1.99414	0.71381	2.64864	0.775374	2.88059	0.893976	3.32069			0.685602	2.54426	0.779995	2.89109	0.9233	3.42569		
0.715777	2.64838	0.542811	1.99468	0.716194	2.64833	0.777184	2.87735	0.895785	3.31593			0.687572	2.54278	0.782015	2.8886	0.924735	3.41919		
0.718161	2.64807	0.544816	1.99522	0.718578	2.64802	0.778996	2.87415	0.897595	3.31121			0.689541	2.5413	0.784037	2.88614	0.926173	3.41275		
0.720543	2.64776	0.546821	1.99575	0.72096	2.6477	0.780812	2.87098	0.899407	3.30653			0.691509	2.53984	0.786062	2.8837	0.927614	3.40637		
0.722924	2.64745	0.548825	1.99628	0.723341	2.64739	0.78263	2.86784	0.901221	3.30189			0.693476	2.53838	0.788089	2.88129	0.92906	3.40005		
0.725305	2.64713	0.550829	1.9968	0.725721	2.64708	0.784452	2.86474	0.903036	3.29729			0.695443	2.53692	0.790118	2.8789	0.930508	3.39378		
0.727684	2.64681	0.552833	1.99732	0.7281	2.64676	0.786276	2.86166	0.904853	3.29272			0.697409	2.53548	0.792149	2.87654	0.931961	3.38756		
0.730061	2.64649	0.554836	1.99783	0.730477	2.64644	0.788104	2.85862	0.906672	3.28819			0.699375	2.53404	0.794183	2.8742	0.933417	3.3814		
0.732438	2.64617	0.55684	1.99834	0.732854	2.64611	0.789934	2.85561	0.908492	3.28369			0.701339	2.53261	0.796219	2.87188	0.934877	3.3753		
0.734813	2.64585	0.558843	1.99885	0.735229	2.64579	0.791768	2.85263	0.910314	3.27924			0.703303	2.53118	0.798256	2.86959	0.93634	3.36925		
0.737187	2.64552	0.560845	1.99935	0.737603	2.64546	0.793605	2.84968	0.912138	3.27481			0.705267	2.52977	0.800296	2.86732	0.937807	3.36325		
0.73956	2.64519	0.562848	1.99984	0.739975	2.64513	0.795445	2.84676	0.913963	3.27043			0.707229	2.52836	0.802338	2.86507	0.939277	3.35731		
0.741931	2.64486	0.56485	2.00033	0.742346	2.6448	0.797288	2.84388	0.915789	3.26607			0.709191	2.52696	0.804381	2.86284	0.940751	3.35141		
0.744301	2.64452	0.566851	2.00082	0.744715	2.64446	0.799134	2.84102	0.917617	3.26176			0.711153	2.52556	0.806427	2.86064	0.942228	3.34557		
0.746669	2.64418	0.568853	2.0013	0.747083	2.64412	0.800983	2.8382	0.919447	3.25747			0.713114	2.52417	0.808475	2.85845	0.943709	3.33978		
0.749036	2.64384	0.570854	2.00178	0.74945	2.64378	0.802836	2.8354	0.921278	3.25322			0.715074	2.52279	0.810524	2.85629	0.945194	3.33404		
0.751401	2.6435	0.572855	2.00226	0.751814	2.64343	0.804692	2.83263	0.923111	3.249			0.717033	2.52141	0.812575	2.85415	0.946682	3.32835		
0.753764	2.64315	0.574856	2.00273	0.754178	2.64308	0.806551	2.8299	0.924945	3.24482			0.718992	2.52005	0.814628	2.85203	0.948173	3.32271		
0.756126	2.64279	0.576856	2.0032	0.756539	2.64273	0.808414	2.82719	0.92678	3.24066			0.72095	2.51869	0.816683	2.84993	0.949669	3.31712		
0.758486	2.64244	0.578856	2.00366	0.758899	2.64237	0.81028	2.82451	0.928617	3.23654			0.722908	2.51733	0.81874	2.84784	0.951167	3.31158		
0.760844	2.64208	0.580856	2.00412	0.761257	2.64201	0.812149	2.82187	0.930455	3.23245			0.724865	2.51598	0.820799	2.84578	0.952669	3.30609		
0.7632	2.64171	0.582855	2.00457	0.763613	2.64165	0.814022	2.81925	0.932295	3.22839			0.726822	2.51464	0.822859	2.84374	0.954175	3.30064		
0.765555	2.64134	0.584854	2.00502	0.765967	2.64128	0.815899	2.81666	0.934136	3.22437			0.728778	2.51331	0.82492	2.84171	0.955684	3.29524		
0.767907	2.64097	0.586853	2.00547	0.768319	2.64091	0.817778	2.81409	0.935979	3.22037			0.730734	2.51198	0.826984	2.83971	0.957197	3.28989		
0.770258	2.64059	0.588852	2.00591	0.770669	2.64053	0.819662	2.81156	0.937823	3.2164			0.732689	2.51066	0.829049	2.83772	0.958713	3.28458		
0.772606	2.64021	0.59085	2.00635	0.773017	2.64014	0.821549	2.80906	0.939668	3.21247			0.734643	2.50935	0.831116	2.83575	0.960233	3.27932		
0.774953	2.63983	0.592848	2.00679	0.775363	2.63976	0.82344	2.80658	0.941514	3.20856			0.736597	2.50804	0.833184	2.8338	0.961756	3.2741		
0.777297	2.63943	0.594845	2.00722	0.777707	2.63936	0.825334	2.80413	0.943362	3.20468			0.738551	2.50674	0.835253	2.83186	0.963282	3.26893		
0.779639	2.63904	0.596843	2.00765	0.780048	2.63897	0.827232	2.80171	0.945211	3.20083			0.740504	2.50545	0.837325	2.82995	0.964813	3.2638		
0.781978	2.63863	0.59884	2.00807	0.782387	2.63856	0.829134	2.79932	0.947062	3.19701			0.742456	2.50416	0.839397	2.82805	0.966346	3.25872		
0.784315	2.63823	0.600837	2.00849	0.784724	2.63815	0.83104	2.79696	0.948914	3.19322			0.744408	2.50288	0.841471	2.82616	0.967883	3.25368		
0.78665	2.63781	0.602833	2.00891	0.787059	2.63774	0.832949	2.79462	0.950767	3.18946			0.74636	2.5016	0.843547	2.8243	0.969424	3.24869		
0.788983	2.63739	0.60483	2.00932	0.78939	2.63732	0.834863	2.79231	0.952621	3.18572			0.748311	2.50033	0.845624	2.82245	0.970967	3.24373		
0.791312	2.63697	0.606826	2.00973	0.79172	2.63689	0.83678	2.79003	0.954476	3.18201			0.750262	2.49907	0.847702	2.82061	0.972515	3.23882		
0.793639	2.63654	0.608821	2.01014	0.794046	2.63646	0.838702	2.78778	0.956333	3.17833			0.752212	2.49782	0.849781	2.81879	0.974066	3.23395		
0.795964	2.6361	0.610817	2.01054	0.79637	2.63602	0.840628	2.78555	0.958191	3.17467			0.754162	2.49657	0.851862	2.81699	0.97562	3.22912		
0.798286	2.63566	0.612812	2.01094	0.798691	2.63558	0.842558	2.78335	0.96005	3.17104			0.756112	2.49533	0.853944	2.8152	0.977178	3.22433		
0.800604	2.63521	0.614807	2.01134	0.80101	2.63513	0.844492	2.78118	0.96191	3.16744			0.758061	2.49409	0.856027	2.81342	0.978739	3.21959		
0.80292	2.63475	0.616801	2.01173	0.803325	2.63467	0.84643	2.77904	0.963772	3.16386			0.76001	2.49286	0.858112	2.81167	0.980303	3.21488		
0.805233	2.63429	0.618795	2.01212	0.805638	2.6342	0.848373	2.77692	0.965634	3.16031			0.761959	2.49164	0.860197	2.80992	0.981871	3.21021		
0.807543	2.63382	0.620789	2.01251	0.807947	2.63373	0.85032	2.77483	0.967498	3.15679			0.763907	2.49042	0.862284	2.80819	0.983443	3.20559		
0.80985	2.63334	0.622783	2.01289	0.810253	2.63325	0.852271	2.77277	0.969363	3.15328			0.765854	2.48921	0.864372	2.80647	0.985017	3.201		
0.812154	2.63285	0.624776	2.01327	0.812557	2.63277	0.854227	2.77074	0.971229	3.14981			0.767802	2.48801	0.866461	2.80477	0.986596	3.19645		
0.814454	2.63236	0.626769	2.01365	0.814857	2.63227	0.856187	2.76873	0.973096	3.14636			0.769749	2.48681	0.868551	2.80308	0.988177	3.19194		
0.816751	2.63186	0.628762	2.01403	0.817153	2.63177	0.858152	2.76675	0.974964	3.14293			0.771696	2.48561	0.870642	2.80141	0.989762	3.18747		
0.819045	2.63135	0.630755	2.0144	0.819446	2.63126	0.860122	2.76479	0.976833	3.13952			0.773642	2.48443	0.872733	2.79975	0.991351	3.18303		
0.821335	2.63083	0.632747	2.01476	0.821736	2.63074	0.862096	2.76286	0.978703	3.13614			0.775588	2.48325	0.874826	2.7981	0.992943	3.17863		
0.823622	2.63031	0.634739	2.01513	0.824022	2.63021	0.864076	2.76096	0.980575	3.13279			0.777534	2.48207	0.87692	2.79646	0.994538	3.17427		
0.825905	2.62977	0.636731	2.01549	0.826305	2.62968	0.86606	2.75909	0.982447	3.12945			0.77948	2.48091	0.879015	2.79484	0.996136	3.16995		
0.828185	2.62923	0.638722	2.01585	0.828583	2.62914	0.868049	2.75724	0.98432	3.12614			0.781425	2.47974	0.881111	2.79323	0.997738	3.16566		
0.830461	2.62868	0.640713	2.0162	0.830858	2.62859	0.870043	2.75542	0.986195	3.12286			0.78337	2.47859	0.883207	2.79163	0.999344	3.16141		
0.832733	2.62812	0.642704	2.01656	0.83313	2.62802	0.872041	2.75363	0.98807	3.11959			0.785315	2.47744	0.885304	2.79004	1.00095	3.15719		
0.835001	2.62756	0.644695	2.01691	0.835397	2.62745	0.874045	2.75186	0.989946	3.11635			0.78726	2.4763	0.887402	2.78846				
0.837265	2.62698	0.646685	2.01725	0.837661	2.62688	0.876055	2.75012	0.991824	3.11313			0.789204	2.47516	0.889501	2.7869				
0.839525	2.62639	0.648675	2.0176	0.83992	2.62629	0.878069	2.7484	0.993702	3.10993			0.791148	2.47403	0.891601	2.78535				
0.841781	2.6258	0.650665	2.01794	0.842175	2.62569	0.880088	2.74671	0.995581	3.10675			0.793092	2.4729	0.893701	2.78381				
0.844033	2.62519	0.652654	2.01827	0.844427	2.62508	0.882113	2.74505	0.997461	3.10359			0.795036	2.47178	0.895802	2.78228				
0.846281	2.62458	0.654643	2.01861	0.846674	2.62447	0.884143	2.74341	0.999342	3.10046			0.796979	2.47066	0.897904	2.78076				
0.848524	2.62395	0.656632	2.01894	0.848916	2.62384	0.886179	2.7418	1.00122	3.09734			0.798922	2.46956	0.900006	2.77925				
0.850763	2.62332	0.658621	2.01927	0.851155	2.62321	0.88822	2.74022					0.800865	2.46845	0.902109	2.77775				
0.852998	2.62268	0.660609	2.0196	0.853389	2.62256	0.890266	2.73866					0.802808	2.46736	0.904213	2.77626				
0.855229	2.62202	0.662597	2.01992	0.855619	2.62191	0.892318	2.73713					0.804751	2.46626	0.906317	2.77478				
0.857455	2.62136	0.664585	2.02025	0.857844	2.62124	0.894376	2.73562					0.806694	2.46518	0.908421	2.77332				
0.859676	2.62069	0.666572	2.02056	0.860064	2.62057	0.896439	2.73414					0.808636	2.4641	0.910526	2.77186				
0.861893	2.62	0.668559	2.02088	0.862281	2.61988	0.898508	2.73268					0.810578	2.46303	0.912632	2.77041				
0.864106	2.61931	0.670546	2.02119	0.864492	2.61919	0.900582	2.73125					0.81252	2.46196	0.914738	2.76897				
0.866313	2.61861	0.672533	2.02151	0.866699	2.61848	0.902662	2.72985					0.814462	2.46089	0.916844	2.76754				
0.868516	2.61789	0.674519	2.02181	0.868902	2.61777	0.904748	2.72847					0.816404	2.45984	0.918951	2.76612				
0.870715	2.61717	0.676505	2.02212	0.871099	2.61704	0.906839	2.72711					0.818346	2.45878	0.921058	2.76471				
0.872909	2.61644	0.678491	2.02242	0.873292	2.61631	0.908936	2.72578					0.820288	2.45774	0.923166	2.76331				
0.875098	2.61569	0.680477	2.02272	0.87548	2.61556	0.911039	2.72448					0.822229	2.4567	0.925274	2.76192				
0.877282	2.61494	0.682462	2.02302	0.877664	2.61481	0.913147	2.72319					0.824171	2.45566	0.927382	2.76053				
0.879462	2.61418	0.684447	2.02332	0.879843	2.61404	0.915262	2.72194					0.826112	2.45463	0.92949	2.75916				
0.881637	2.6134	0.686432	2.02361	0.882017	2.61327	0.917382	2.7207					0.828053	2.45361	0.931599	2.75779				
0.883807	2.61262	0.688416	2.0239	0.884186	2.61248	0.919507	2.71949					0.829995	2.45259	0.933708	2.75643				
0.885972	2.61183	0.6904	2.02419	0.886351	2.61169	0.921639	2.71831					0.831936	2.45158	0.935817	2.75508				
0.888133	2.61103	0.692384	2.02448	0.888511	2.61089	0.923776	2.71714					0.833877	2.45057	0.937926	2.75374				
0.890289	2.61022	0.694368	2.02476	0.890666	2.61007	0.925919	2.716					0.835818	2.44956	0.940035	2.7524				
0.89244	2.6094	0.696351	2.02505	0.892816	2.60925	0.928067	2.71488					0.837759	2.44857	0.942145	2.75107				
0.894587	2.60857	0.698334	2.02533	0.894962	2.60842	0.930221	2.71379					0.8397	2.44758	0.944255	2.74975				
0.896729	2.60773	0.700317	2.0256	0.897103	2.60758	0.932381	2.71272					0.841641	2.44659	0.946364	2.74844				
0.898866	2.60688	0.7023	2.02588	0.89924	2.60673	0.934546	2.71166					0.843581	2.44561	0.948474	2.74713				
0.900999	2.60602	0.704282	2.02615	0.901372	2.60587	0.936717	2.71064					0.845522	2.44463	0.950584	2.74583				
0.903127	2.60516	0.706264	2.02642	0.903499	2.60501	0.938893	2.70963					0.847463	2.44366	0.952694	2.74454				
0.905251	2.60429	0.708246	2.02669	0.905622	2.60413	0.941074	2.70864					0.849404	2.44269	0.954803	2.74326				
0.90737	2.6034	0.710227	2.02695	0.90774	2.60325	0.943261	2.70767					0.851345	2.44173	0.956913	2.74198				
0.909485	2.60252	0.712209	2.02722	0.909855	2.60236	0.945454	2.70673					0.853285	2.44078	0.959023	2.74071				
0.911595	2.60162	0.71419	2.02748	0.911964	2.60146	0.947651	2.7058					0.855226	2.43983	0.961132	2.73944				
0.913701	2.60071	0.71617	2.02774	0.91407	2.60055	0.949854	2.70489					0.857167	2.43888	0.963242	2.73818				
0.915803	2.5998	0.718151	2.028	0.916171	2.59964	0.952061	2.70401					0.859108	2.43794	0.965351	2.73693				
0.917901	2.59888	0.720131	2.02825	0.918268	2.59872	0.954274	2.70314					0.861049	2.437	0.96746	2.73568				
0.919994	2.59796	0.722111	2.02851	0.920361	2.59779	0.956492	2.70229					0.862989	2.43607	0.969569	2.73444				
0.922084	2.59702	0.724091	2.02876	0.922449	2.59686	0.958715	2.70146					0.86493	2.43515	0.971678	2.73321				
0.924169	2.59609	0.72607	2.02901	0.924534	2.59592	0.960942	2.70064					0.866871	2.43423	0.973787	2.73198				
0.926251	2.59514	0.728049	2.02925	0.926615	2.59498	0.963174	2.69985					0.868812	2.43331	0.975895	2.73076				
0.928329	2.59419	0.730028	2.0295	0.928692	2.59402	0.965411	2.69907					0.870753	2.4324	0.978003	2.72954				
0.930403	2.59323	0.732007	2.02974	0.930765	2.59307	0.967653	2.69831					0.872694	2.43149	0.980111	2.72833				
0.932473	2.59227	0.733985	2.02998	0.932835	2.5921	0.969899	2.69756					0.874635	2.43059	0.982219	2.72712				
0.934539	2.59131	0.735963	2.03022	0.9349	2.59114	0.972149	2.69683					0.876577	2.4297	0.984326	2.72592				
0.936602	2.59033	0.737941	2.03046	0.936963	2.59016	0.974404	2.69612					0.878518	2.4288	0.986433	2.72472				
0.938662	2.58936	0.739918	2.0307	0.939022	2.58919	0.976663	2.69542					0.880459	2.42792	0.988539	2.72353				
0.940718	2.58838	0.741896	2.03093	0.941077	2.5882	0.978926	2.69474					0.8824	2.42703	0.990645	2.72235				
0.94277	2.58739	0.743873	2.03116	0.943129	2.58722	0.981193	2.69407					0.884342	2.42616	0.992751	2.72117				
0.94482	2.5864	0.74585	2.03139	0.945178	2.58623	0.983465	2.69342					0.886283	2.42528	0.994856	2.71999				
0.946866	2.58541	0.747826	2.03162	0.947224	2.58524	0.98574	2.69278					0.888225	2.42442	0.996961	2.71882				
0.948909	2.58441	0.749802	2.03185	0.949266	2.58424	0.988019	2.69215					0.890167	2.42355	0.999065	2.71765				
0.950949	2.58342	0.751778	2.03207	0.951306	2.58324	0.990301	2.69154					0.892109	2.42269	1.00117	2.71649				
0.952987	2.58241	0.753754	2.03229	0.953343	2.58224	0.992588	2.69094					0.89405	2.42184						
0.955021	2.58141	0.75573	2.03251	0.955377	2.58123	0.994878	2.69035					0.895992	2.42099						
0.957052	2.5804	0.757705	2.03273	0.957408	2.58023	0.997171	2.68977					0.897935	2.42015						
0.959081	2.57939	0.75968	2.03295	0.959436	2.57922	0.999468	2.68921					0.899877	2.41931						
0.961107	2.57838	0.761655	2.03316	0.961462	2.5782	1.00177	2.68866					0.901819	2.41847						
0.963131	2.57737	0.763629	2.03338	0.963485	2.57719							0.903762	2.41764						
0.965152	2.57635	0.765604	2.03359	0.965505	2.57617							0.905704	2.41681						
0.967171	2.57534	0.767578	2.0338	0.967524	2.57516							0.907647	2.41599						
0.969187	2.57432	0.769551	2.03401	0.96954	2.57414							0.90959	2.41517						
0.971201	2.5733	0.771525	2.03422	0.971553	2.57312							0.911533	2.41436						
0.973213	2.57228	0.773498	2.03442	0.973565	2.5721							0.913476	2.41355						
0.975222	2.57126	0.775471	2.03462	0.975574	2.57108							0.915419	2.41274						
0.97723	2.57024	0.777444	2.03483	0.977581	2.57006							0.917362	2.41194						
0.979236	2.56922	0.779416	2.03503	0.979586	2.56904							0.919306	2.41114						
0.981239	2.5682	0.781389	2.03522	0.98159	2.56802							0.92125	2.41035						
0.983241	2.56718	0.783361	2.03542	0.983591	2.567							0.923193	2.40956						
0.985241	2.56616	0.785333	2.03562	0.98559	2.56598							0.925137	2.40878						
0.987239	2.56513	0.787304	2.03581	0.987588	2.56496							0.927081	2.408						
0.989235	2.56411	0.789275	2.036	0.989584	2.56394							0.929026	2.40723						
0.99123	2.5631	0.791246	2.03619	0.991579	2.56292							0.93097	2.40646						
0.993223	2.56208	0.793217	2.03638	0.993572	2.5619							0.932915	2.40569						
0.995214	2.56106	0.795188	2.03657	0.995563	2.56088							0.93486	2.40493						
0.997204	2.56004	0.797158	2.03676	0.997553	2.55986							0.936805	2.40417						
0.999193	2.55903	0.799128	2.03694	0.999541	2.55885							0.93875	2.40341						
1.00118	2.55801	0.801098	2.03713	1.00153	2.55783							0.940695	2.40266						
		0.803068	2.03731									0.942641	2.40191						
		0.805037	2.03749									0.944586	2.40117						
		0.807006	2.03767									0.946532	2.40043						
		0.808975	2.03784									0.948478	2.3997						
		0.810944	2.03802									0.950425	2.39897						
		0.812912	2.03819									0.952371	2.39824						
		0.814881	2.03837									0.954318	2.39752						
		0.816849	2.03854									0.956265	2.3968						
		0.818816	2.03871									0.958212	2.39608						
		0.820784	2.03888									0.960159	2.39537						
		0.822751	2.03905									0.962106	2.39466						
		0.824718	2.03921									0.964054	2.39396						
		0.826685	2.03938									0.966002	2.39326						
		0.828652	2.03954									0.96795	2.39256						
		0.830618	2.0397									0.969898	2.39187						
		0.832584	2.03987									0.971847	2.39118						
		0.83455	2.04002									0.973795	2.3905						
		0.836516	2.04018									0.975744	2.38982						
		0.838481	2.04034									0.977694	2.38914						
		0.840446	2.0405									0.979643	2.38846						
		0.842411	2.04065									0.981593	2.38779						
		0.844376	2.0408									0.983542	2.38713						
		0.846341	2.04096									0.985492	2.38646						
		0.848305	2.04111									0.987443	2.3858						
		0.850269	2.04126									0.989393	2.38515						
		0.852233	2.04141									0.991344	2.38449						
		0.854197	2.04155									0.993295	2.38384						
		0.85616	2.0417									0.995246	2.3832						
		0.858123	2.04185									0.997198	2.38255						
		0.860086	2.04199									0.999149	2.38192						
		0.862049	2.04213									1.0011	2.38128						
		0.864012	2.04227																
		0.865974	2.04241																
		0.867936	2.04255																
		0.869898	2.04269																
		0.87186	2.04283																
		0.873821	2.04296																
		0.875782	2.0431																
		0.877744	2.04323																
		0.879704	2.04337																
		0.881665	2.0435																
		0.883625	2.04363																
		0.885586	2.04376																
		0.887546	2.04389																
		0.889505	2.04401																
		0.891465	2.04414																
		0.893424	2.04427																
		0.895384	2.04439																
		0.897343	2.04452																
		0.899301	2.04464																
		0.90126	2.04476																
		0.903218	2.04488																
		0.905176	2.045																
		0.907134	2.04512																
		0.909092	2.04524																
		0.91105	2.04535																
		0.913007	2.04547																
		0.914964	2.04558																
		0.916921	2.0457																
		0.918878	2.04581																
		0.920835	2.04592																
		0.922791	2.04603																
		0.924747	2.04614																
		0.926703	2.04625																
		0.928659	2.04636																
		0.930614	2.04647																
		0.93257	2.04658																
		0.934525	2.04668																
		0.93648	2.04679																
		0.938435	2.04689																
		0.94039	2.047																
		0.942344	2.0471																
		0.944298	2.0472																
		0.946252	2.0473																
		0.948206	2.0474																
		0.95016	2.0475																
		0.952113	2.0476																
		0.954067	2.0477																
		0.95602	2.0478																
		0.957973	2.04789																
		0.959926	2.04799																
		0.961878	2.04808																
		0.963831	2.04818																
		0.965783	2.04827																
		0.967735	2.04836																
		0.969687	2.04845																
		0.971639	2.04854																
		0.97359	2.04863																
		0.975541	2.04872																
		0.977493	2.04881																
		0.979444	2.0489																
		0.981394	2.04899																
		0.983345	2.04908																
		0.985295	2.04916																
		0.987246	2.04925																
		0.989196	2.04933																
		0.991146	2.04942																
		0.993096	2.0495																
		0.995045	2.04958																
		0.996995	2.04966																
		0.998944	2.04974																
		1.00089	2.04982																
