Sym0		Asym0		Sym1		Sym2		Sym3		Sym4		Asym1		Asym2		Asym3		Asym4	
427  Points		528  Points		426  Points		406  Points		353  Points		254  Points		457  Points		402  Points		347  Points		217  Points	
Freq (MHz)	Vph (m/ms)	Freq (MHz)	Vph (m/ms)	Freq (MHz)	Vph (m/ms)	Freq (MHz)	Vph (m/ms)	Freq (MHz)	Vph (m/ms)	Freq (MHz)	Vph (m/ms)	Freq (MHz)	Vph (m/ms)	Freq (MHz)	Vph (m/ms)	Freq (MHz)	Vph (m/ms)	Freq (MHz)	Vph (m/ms)
0.279509	860.227	0.000223629	0.0920319	0.27951	538.865	0.441147	2319.75	0.559017	2427	0.838525	17245.4	0.139763	286.277	0.419267	518.093	0.698772	1297.47	0.882296	1145.91
0.279518	222.436	0.000427359	0.127129	0.279521	192.72	0.441156	393.234	0.559025	481.078	0.838529	855.364	0.139832	98.4795	0.419283	240.836	0.698779	475.276	0.882304	518.5
0.279536	127.74	0.000695772	0.16206	0.279541	117.351	0.441175	214.834	0.559045	267.01	0.838538	438.563	0.139966	59.5195	0.41931	156.89	0.698791	290.926	0.882317	335.056
0.279565	89.6039	0.00102804	0.196755	0.279572	84.3664	0.441207	147.795	0.559075	184.793	0.838552	294.88	0.140166	42.6908	0.419348	116.346	0.698809	209.623	0.882337	247.497
0.279604	69.0089	0.00142334	0.231185	0.279613	65.8613	0.44125	112.651	0.559116	141.294	0.838572	222.115	0.140432	33.3174	0.419398	92.4593	0.698832	163.84	0.882362	196.223
0.279653	56.1168	0.00188053	0.265297	0.279664	54.0186	0.441305	91.0161	0.559168	114.377	0.838598	178.156	0.140763	27.3502	0.41946	76.7156	0.698862	134.473	0.882392	162.55
0.279711	47.2877	0.00239848	0.299059	0.279725	45.79	0.441371	76.3574	0.559231	96.0794	0.83863	148.725	0.141157	23.2229	0.419532	65.5579	0.698898	114.036	0.882429	138.744
0.27978	40.863	0.00297583	0.332429	0.279796	39.7405	0.44145	65.7699	0.559305	82.833	0.838668	127.642	0.141614	20.2016	0.419617	57.2378	0.698939	98.9938	0.882471	121.022
0.279859	35.9786	0.00361125	0.365383	0.279877	35.1064	0.441539	57.7649	0.559389	72.8003	0.838711	111.796	0.142133	17.8969	0.419712	50.7953	0.698986	87.4594	0.882519	107.317
0.279948	32.1404	0.00430317	0.397883	0.279968	31.4431	0.441641	51.5007	0.559485	64.9387	0.83876	99.4513	0.142712	16.083	0.419819	45.6598	0.699039	78.3341	0.882573	96.4013
0.280048	29.0449	0.00504997	0.4299	0.280069	28.4749	0.441754	46.4656	0.559592	58.6127	0.838814	89.5636	0.14335	14.6198	0.419938	41.4704	0.699098	70.9347	0.882633	87.5029
0.280157	26.496	0.00585001	0.46141	0.280181	26.0213	0.441878	42.3303	0.559709	53.4126	0.838875	81.4658	0.144045	13.4159	0.420068	37.988	0.699163	64.814	0.882699	80.1099
0.280276	24.3607	0.00670165	0.492397	0.280302	23.9594	0.442014	38.8737	0.559838	49.0626	0.838941	74.7122	0.144796	12.4091	0.420209	35.0478	0.699233	59.6671	0.88277	73.8701
0.280405	22.5461	0.00760316	0.522843	0.280434	22.2025	0.442162	35.9417	0.559977	45.3703	0.839012	68.994	0.145601	11.5554	0.420361	32.5325	0.699309	55.2788	0.882847	68.5334
0.280545	20.9853	0.0085528	0.552733	0.280575	20.6877	0.442321	33.4234	0.560127	42.1971	0.83909	64.0901	0.146458	10.8232	0.420525	30.3563	0.699392	51.4929	0.88293	63.917
0.280694	19.6285	0.00954874	0.582051	0.280727	19.3683	0.442492	31.2371	0.560288	39.4409	0.839173	59.8381	0.147247	10.2655	0.4207	28.4552	0.69948	48.1935	0.883018	59.8844
0.280854	18.4383	0.0105893	0.610789	0.280888	18.209	0.442674	29.3214	0.56046	37.0248	0.839262	56.1164	0.147949	9.83967	0.420887	26.7802	0.699573	45.2925	0.883112	56.3315
0.281023	17.386	0.0116727	0.638943	0.28106	17.1823	0.442868	27.6292	0.560643	34.8894	0.839356	52.8315	0.148549	9.51733	0.421085	25.2933	0.699673	42.7219	0.883212	53.1775
0.281203	16.449	0.0127972	0.666509	0.281241	16.2669	0.443074	26.1236	0.560837	32.9888	0.839457	49.9108	0.149037	9.27951	0.421294	23.9647	0.699779	40.4284	0.883318	50.3589
0.281392	15.6094	0.0139613	0.693482	0.281433	15.4456	0.44329	24.7754	0.561041	31.2862	0.839563	47.2971	0.149402	9.11343	0.421515	22.7705	0.69989	38.3695	0.88343	47.8249
0.281592	14.8528	0.0151631	0.719866	0.281635	14.7048	0.443518	23.5612	0.561257	29.7524	0.839674	44.9444	0.149638	9.01082	0.421746	21.6913	0.700007	36.5111	0.883547	45.5346
0.281801	14.1676	0.0164012	0.745659	0.281846	14.0332	0.443758	22.4622	0.561483	28.3636	0.839792	42.8155	0.149983	8.86808	0.421989	20.7113	0.70013	34.8251	0.88367	43.4545
0.282021	13.5442	0.0176738	0.770866	0.282068	13.4216	0.444009	21.4627	0.56172	27.1001	0.839915	40.8799	0.150363	8.719	0.422244	19.8176	0.700259	33.2888	0.883799	41.5568
0.282251	12.9747	0.0189796	0.795495	0.2823	12.8624	0.444271	20.5499	0.561967	25.9458	0.840044	39.1125	0.150888	8.52574	0.422509	18.9992	0.700393	31.8831	0.883933	39.8187
0.282491	12.4524	0.0203171	0.81955	0.282542	12.3492	0.444545	19.713	0.562226	24.8871	0.840178	37.4924	0.151567	8.29584	0.422786	18.2472	0.700534	30.592	0.884074	38.2209
0.28274	11.9717	0.0216848	0.843036	0.282793	11.8766	0.44483	18.943	0.562495	23.9129	0.840318	36.0018	0.15241	8.03746	0.423074	17.5537	0.70068	29.4021	0.88422	36.7471
0.283	11.528	0.0230814	0.865963	0.283055	11.4399	0.445126	18.2322	0.562775	23.0132	0.840464	34.6259	0.153426	7.75886	0.423373	16.9124	0.700832	28.302	0.884372	35.3833
0.28327	11.117	0.0245055	0.888341	0.283327	11.0354	0.445434	17.5742	0.563065	22.1801	0.840616	33.352	0.154629	7.46784	0.423683	16.3174	0.70099	27.2819	0.884529	34.1178
0.283549	10.7355	0.0259559	0.91018	0.283609	10.6595	0.445752	16.9632	0.563367	21.4063	0.840773	32.169	0.15587	7.20362	0.424004	15.7642	0.701154	26.3334	0.884692	32.9403
0.283839	10.3803	0.0274315	0.931489	0.283901	10.3095	0.446082	16.3945	0.563679	20.6858	0.840936	31.0678	0.157146	6.9628	0.424336	15.2483	0.701323	25.4492	0.884861	31.842
0.284139	10.0488	0.028931	0.952279	0.284163	10.0235	0.446423	15.8638	0.564001	20.0134	0.841104	30.04	0.158457	6.74255	0.42468	14.7663	0.701498	24.6231	0.885036	30.8152
0.284449	9.7389	0.0304533	0.972562	0.284393	9.79251	0.446776	15.3675	0.564334	19.3844	0.841278	29.0786	0.159801	6.54043	0.425034	14.3149	0.70168	23.8495	0.885216	29.853
0.284768	9.44845	0.0319974	0.992348	0.284587	9.60981	0.447139	14.9024	0.564678	18.7947	0.841458	28.1774	0.161176	6.35441	0.4254	13.8913	0.701866	23.1236	0.885402	28.9497
0.285098	9.17573	0.0335623	1.01165	0.284743	9.47037	0.447513	14.4657	0.565032	18.2408	0.841644	27.3309	0.162582	6.18271	0.425776	13.4931	0.702059	22.4411	0.885594	28.0999
0.285438	8.91921	0.035147	1.03048	0.284859	9.37053	0.447899	14.0549	0.565397	17.7196	0.841835	26.5343	0.164016	6.02382	0.426164	13.118	0.702258	21.7983	0.885791	27.2991
0.285787	8.6775	0.0367507	1.04884	0.284935	9.3078	0.448295	13.6677	0.565773	17.2283	0.842032	25.7834	0.165477	5.87642	0.426562	12.7642	0.702462	21.1918	0.885994	26.5433
0.286147	8.44939	0.0383724	1.06676	0.285043	9.21916	0.448702	13.3023	0.566159	16.7645	0.842234	25.0742	0.166965	5.73936	0.426972	12.4299	0.702672	20.6186	0.886203	25.8286
0.286516	8.23378	0.0400113	1.08424	0.285163	9.12483	0.44912	12.9568	0.566555	16.3258	0.842443	24.4035	0.168478	5.61164	0.427392	12.1136	0.702888	20.076	0.886418	25.1518
0.286895	8.02969	0.0416667	1.10129	0.285328	8.99977	0.449549	12.6297	0.566962	15.9104	0.842656	23.7682	0.170015	5.49239	0.427823	11.8139	0.703109	19.5618	0.886638	24.5101
0.287285	7.83624	0.0433378	1.11793	0.285539	8.84674	0.449989	12.3196	0.567379	15.5164	0.842876	23.1657	0.171575	5.38082	0.428265	11.5294	0.703337	19.0737	0.886864	23.9008
0.287684	7.65265	0.0450238	1.13417	0.2858	8.66893	0.450439	12.0252	0.567807	15.1423	0.843101	22.5933	0.173156	5.27625	0.428718	11.2592	0.70357	18.6098	0.887095	23.3214
0.288093	7.47819	0.0467241	1.15001	0.286113	8.46984	0.450901	11.7454	0.568245	14.7866	0.843332	22.049	0.174758	5.17807	0.429181	11.0022	0.703809	18.1684	0.887332	22.77
0.288512	7.31223	0.0484381	1.16547	0.286482	8.25312	0.451373	11.4791	0.568693	14.4479	0.843568	21.5307	0.176381	5.08574	0.429656	10.7574	0.704054	17.7479	0.887575	22.2444
0.288941	7.15417	0.0501651	1.18056	0.28686	8.04801	0.451855	11.2254	0.569152	14.1252	0.84381	21.0366	0.178022	4.99878	0.430141	10.5241	0.704304	17.3468	0.887824	21.7429
0.28938	7.00347	0.0519046	1.19528	0.287249	7.85362	0.452349	10.9834	0.56962	13.8174	0.844058	20.5651	0.179682	4.91675	0.430636	10.3014	0.70456	16.9638	0.888078	21.2639
0.289829	6.85966	0.053656	1.20966	0.287647	7.66915	0.452852	10.7524	0.5701	13.5234	0.844311	20.1147	0.181359	4.83926	0.431077	10.1154	0.704822	16.5978	0.888337	20.806
0.290287	6.72228	0.0554189	1.2237	0.288055	7.49388	0.453367	10.5316	0.570589	13.2423	0.84457	19.6839	0.183052	4.76596	0.431459	9.96261	0.70509	16.2476	0.888603	20.3678
0.290756	6.59092	0.0571925	1.23741	0.288473	7.32716	0.453891	10.3204	0.571089	12.9734	0.844834	19.2716	0.184762	4.69654	0.431779	9.83996	0.705364	15.9123	0.888873	19.948
0.291234	6.46522	0.0589766	1.2508	0.288901	7.1684	0.454357	10.1438	0.571598	12.7158	0.845104	18.8766	0.186486	4.63071	0.432035	9.7453	0.705643	15.5909	0.88915	19.5455
0.291722	6.34483	0.0607707	1.26387	0.289339	7.01704	0.45476	9.99828	0.572118	12.469	0.84538	18.4978	0.188225	4.56821	0.432225	9.67695	0.705928	15.2826	0.889432	19.1593
0.29222	6.22943	0.0625743	1.27665	0.289787	6.87261	0.455098	9.88137	0.572648	12.2321	0.845661	18.1343	0.189978	4.50881	0.432348	9.63375	0.706219	14.9866	0.88972	18.7884
0.292728	6.11873	0.0643871	1.28912	0.290245	6.73466	0.455368	9.79102	0.573188	12.0048	0.845948	17.7851	0.191745	4.45228	0.432524	9.57239	0.706515	14.7022	0.890013	18.432
0.293246	6.01245	0.0662086	1.30132	0.290712	6.60277	0.455568	9.72574	0.573738	11.7863	0.846241	17.4494	0.193524	4.39844	0.432718	9.50666	0.706818	14.4288	0.890312	18.0891
0.293773	5.91037	0.0680385	1.31324	0.29119	6.47656	0.455697	9.68446	0.574298	11.5762	0.846539	17.1265	0.195315	4.3471	0.432983	9.41884	0.707125	14.1656	0.890616	17.7591
0.294311	5.81223	0.0698763	1.32489	0.291677	6.35569	0.455882	9.62578	0.574868	11.3741	0.846842	16.8157	0.197118	4.2981	0.433321	9.3103	0.707439	13.9122	0.890926	17.4413
0.294858	5.71783	0.0717219	1.33627	0.292174	6.23984	0.456086	9.56289	0.575448	11.1795	0.847151	16.5163	0.198933	4.25129	0.433736	9.18266	0.707759	13.6681	0.891242	17.1349
0.295415	5.62696	0.0735748	1.34741	0.292681	6.12872	0.456364	9.47879	0.576038	10.992	0.847466	16.2277	0.200758	4.20654	0.434231	9.03777	0.708084	13.4327	0.891563	16.8395
0.295981	5.53945	0.0754348	1.35829	0.293198	6.02206	0.45672	9.37474	0.576638	10.8112	0.847786	15.9493	0.202593	4.16371	0.434807	8.87763	0.708414	13.2056	0.89189	16.5543
0.296558	5.45512	0.0773016	1.36894	0.293724	5.91959	0.457155	9.25223	0.577247	10.6368	0.848112	15.6805	0.204438	4.12269	0.435395	8.72367	0.708751	12.9863	0.892222	16.279
0.297144	5.3738	0.0791749	1.37936	0.294261	5.8211	0.457673	9.11297	0.577867	10.4685	0.848444	15.421	0.206293	4.08338	0.435992	8.57556	0.709093	12.7745	0.89256	16.0129
0.29774	5.29535	0.0810545	1.38955	0.294807	5.72636	0.458277	8.95879	0.578414	10.3266	0.848781	15.1703	0.208157	4.04566	0.4366	8.43297	0.709441	12.5698	0.892903	15.7557
0.298346	5.21964	0.08294	1.39952	0.295363	5.63518	0.458891	8.81032	0.578887	10.2089	0.849123	14.9278	0.210029	4.00945	0.437218	8.29563	0.709795	12.3718	0.893252	15.5069
0.298961	5.14652	0.0848312	1.40927	0.295929	5.54737	0.459514	8.66726	0.579282	10.1137	0.849471	14.6932	0.21191	3.97466	0.437847	8.16324	0.710154	12.1803	0.893606	15.2662
0.299586	5.07587	0.086728	1.41882	0.296504	5.46275	0.460148	8.52932	0.579596	10.0399	0.849825	14.4662	0.213799	3.94122	0.438485	8.03556	0.710519	11.9949	0.893965	15.033
0.300221	5.00758	0.08863	1.42817	0.29709	5.38116	0.460791	8.39624	0.579829	9.98639	0.850184	14.2464	0.215696	3.90905	0.439134	7.91236	0.71089	11.8153	0.894331	14.8072
0.300866	4.94154	0.0905372	1.43732	0.297685	5.30246	0.461445	8.26779	0.579979	9.95246	0.850548	14.0334	0.2176	3.87807	0.439793	7.7934	0.711266	11.6413	0.894701	14.5883
0.30152	4.87765	0.0924492	1.44629	0.29829	5.22649	0.462108	8.14372	0.580195	9.90414	0.850918	13.827	0.219512	3.84824	0.440462	7.67848	0.711648	11.4726	0.895077	14.376
0.302184	4.8158	0.094366	1.45506	0.298904	5.15314	0.46278	8.02383	0.580431	9.85221	0.851294	13.6268	0.22143	3.81948	0.441141	7.5674	0.712036	11.309	0.895459	14.1701
0.302858	4.75593	0.0962872	1.46366	0.299528	5.08227	0.463463	7.90792	0.580754	9.78255	0.851675	13.4325	0.223355	3.79175	0.441829	7.45999	0.712429	11.1502	0.895846	13.9703
0.303453	4.70528	0.0982128	1.47208	0.300162	5.01377	0.464155	7.7958	0.581166	9.69601	0.852061	13.244	0.225286	3.76499	0.442528	7.35608	0.712828	10.9961	0.896238	13.7762
0.303966	4.66319	0.100143	1.48034	0.300806	4.94752	0.464857	7.68729	0.581669	9.59362	0.852453	13.061	0.227224	3.73914	0.443237	7.25549	0.713233	10.8465	0.896636	13.5877
0.304395	4.62912	0.102076	1.48842	0.30146	4.88344	0.465568	7.58222	0.582265	9.47656	0.852851	12.8831	0.229167	3.71418	0.443956	7.15809	0.713643	10.7011	0.897039	13.4046
0.304736	4.60263	0.104014	1.49635	0.302123	4.82141	0.466288	7.48045	0.582958	9.34612	0.853254	12.7103	0.231116	3.69004	0.444685	7.06372	0.714005	10.5777	0.897448	13.2266
0.304988	4.58341	0.105955	1.50412	0.302796	4.76136	0.467018	7.38183	0.583661	9.21967	0.853662	12.5424	0.23307	3.66671	0.445423	6.97226	0.714317	10.4749	0.897862	13.0534
0.305151	4.57122	0.1079	1.51173	0.303479	4.70319	0.467758	7.28621	0.584373	9.09703	0.854076	12.379	0.23503	3.64412	0.446171	6.88358	0.714578	10.3916	0.898281	12.885
0.305385	4.55384	0.109849	1.5192	0.304171	4.64682	0.468506	7.19347	0.585095	8.97805	0.854495	12.22	0.236995	3.62226	0.446929	6.79756	0.714785	10.3266	0.898706	12.7211
0.30564	4.53515	0.1118	1.52652	0.304873	4.59218	0.469264	7.10349	0.585826	8.86256	0.85492	12.0654	0.238965	3.60109	0.447696	6.71409	0.714939	10.2794	0.899136	12.5615
0.30599	4.51005	0.113755	1.5337	0.305585	4.5392	0.470031	7.01615	0.586566	8.75042	0.85535	11.9148	0.240939	3.58057	0.448474	6.63307	0.715037	10.2494	0.899572	12.4061
0.306435	4.47883	0.115713	1.54075	0.306306	4.48781	0.470807	6.93134	0.587315	8.64149	0.855786	11.7681	0.242918	3.56068	0.44926	6.55438	0.715179	10.2067	0.900013	12.2547
0.306979	4.44184	0.117422	1.54678	0.307037	4.43794	0.471592	6.84895	0.588074	8.53564	0.856227	11.6252	0.244902	3.54139	0.450057	6.47795	0.715334	10.1607	0.900459	12.1072
0.307623	4.39948	0.11888	1.55184	0.307778	4.38953	0.472386	6.76889	0.588841	8.43275	0.856673	11.486	0.24689	3.52268	0.450862	6.40367	0.715547	10.0988	0.90091	11.9634
0.308371	4.35219	0.120087	1.55597	0.308528	4.34253	0.473189	6.69107	0.589618	8.33269	0.857125	11.3503	0.248881	3.50451	0.451678	6.33146	0.715817	10.0216	0.901367	11.8232
0.30913	4.30627	0.121042	1.5592	0.309288	4.29688	0.474001	6.6154	0.590404	8.23536	0.857582	11.2179	0.250877	3.48687	0.452502	6.26125	0.716146	9.93002	0.901829	11.6864
0.309897	4.26165	0.121745	1.56156	0.310058	4.25253	0.474822	6.54179	0.591199	8.14065	0.858045	11.0888	0.252877	3.46973	0.453336	6.19295	0.716537	9.82483	0.902296	11.553
0.310675	4.2183	0.122195	1.56306	0.310838	4.20944	0.475651	6.47017	0.592003	8.04847	0.858513	10.9629	0.25488	3.45307	0.45418	6.1265	0.716991	9.70704	0.902769	11.4228
0.311462	4.17616	0.122842	1.56521	0.311627	4.16754	0.47649	6.40045	0.592816	7.95871	0.858925	10.8556	0.256887	3.43688	0.455032	6.06182	0.71745	9.59226	0.903247	11.2957
0.312259	4.13519	0.123546	1.56753	0.312426	4.12681	0.477337	6.33258	0.593637	7.87128	0.85928	10.7659	0.258897	3.42113	0.455894	5.99884	0.717914	9.48038	0.90373	11.1715
0.313066	4.09534	0.124503	1.57066	0.313235	4.08719	0.478192	6.26647	0.594468	7.78611	0.859575	10.6929	0.260911	3.40581	0.456765	5.93751	0.718385	9.37129	0.904218	11.0503
0.313882	4.05658	0.125715	1.57457	0.314053	4.04865	0.479056	6.20207	0.595307	7.7031	0.85981	10.636	0.262928	3.39089	0.457646	5.87777	0.718861	9.26489	0.904648	10.9469
0.314708	4.01886	0.127181	1.57925	0.314881	4.01114	0.479929	6.13931	0.596155	7.62218	0.859984	10.5945	0.264948	3.37637	0.458535	5.81955	0.719342	9.16109	0.905018	10.8605
0.315544	3.98216	0.128903	1.58466	0.315719	3.97464	0.48081	6.07814	0.597012	7.54328	0.860095	10.5682	0.26697	3.36223	0.459433	5.76281	0.719829	9.05979	0.905326	10.79
0.31639	3.94642	0.130881	1.59075	0.316567	3.93911	0.481699	6.0185	0.597878	7.46632	0.860256	10.5305	0.268996	3.34845	0.460341	5.70749	0.720322	8.96091	0.90557	10.7351
0.317245	3.91164	0.132862	1.59674	0.317424	3.90452	0.482597	5.96033	0.598752	7.39124	0.860432	10.4899	0.271025	3.33503	0.461257	5.65355	0.72082	8.86437	0.905751	10.695
0.31811	3.87776	0.134844	1.60262	0.318291	3.87082	0.483503	5.90359	0.599635	7.31797	0.860671	10.4353	0.273056	3.32194	0.462183	5.60093	0.721323	8.77008	0.905867	10.6696
0.318985	3.84476	0.136829	1.6084	0.319168	3.838	0.484417	5.84822	0.600526	7.24646	0.860976	10.367	0.27509	3.30917	0.463117	5.54959	0.721832	8.67796	0.906034	10.6332
0.31987	3.81261	0.138815	1.61408	0.320055	3.80602	0.485339	5.79418	0.601426	7.17663	0.861347	10.2858	0.277126	3.29672	0.46406	5.4995	0.722347	8.58796	0.906217	10.594
0.320764	3.78128	0.140804	1.61965	0.320952	3.77486	0.48627	5.74143	0.602334	7.10844	0.861787	10.1922	0.279165	3.28457	0.465012	5.45059	0.722867	8.49999	0.906466	10.5411
0.321669	3.75074	0.142794	1.62513	0.321858	3.74449	0.487208	5.68992	0.60325	7.04183	0.862296	10.0871	0.281206	3.27271	0.465973	5.40285	0.723393	8.41399	0.906783	10.4751
0.322583	3.72098	0.144786	1.63051	0.322775	3.71489	0.488155	5.63961	0.604175	6.97675	0.86281	9.9843	0.28325	3.26113	0.466942	5.35623	0.723924	8.3299	0.907169	10.3964
0.323508	3.69197	0.14678	1.6358	0.323701	3.68603	0.489109	5.59046	0.605109	6.91315	0.86333	9.88375	0.285295	3.24982	0.46792	5.31069	0.724461	8.24766	0.907625	10.3057
0.324442	3.66368	0.148776	1.641	0.324638	3.65788	0.490071	5.54244	0.60605	6.85098	0.863855	9.78539	0.287343	3.23877	0.468907	5.26621	0.725003	8.1672	0.908153	10.2038
0.325387	3.63609	0.150773	1.64611	0.325584	3.63043	0.491042	5.4955	0.607	6.7902	0.864386	9.68914	0.289393	3.22798	0.469902	5.22273	0.725551	8.08848	0.908687	10.104
0.326341	3.60917	0.152771	1.65114	0.326541	3.60366	0.492019	5.44962	0.607958	6.73077	0.864921	9.59493	0.291444	3.21742	0.470906	5.18025	0.726104	8.01143	0.909225	10.0063
0.327305	3.58292	0.154771	1.65608	0.327507	3.57754	0.493005	5.40476	0.608924	6.67263	0.865462	9.50272	0.293498	3.20711	0.471918	5.13872	0.726662	7.93601	0.909769	9.91071
0.32828	3.55731	0.156773	1.66094	0.328484	3.55206	0.493998	5.36089	0.609898	6.61576	0.866008	9.41242	0.295553	3.19702	0.472939	5.09811	0.727226	7.86217	0.910318	9.81705
0.329265	3.53232	0.158776	1.66572	0.329471	3.5272	0.494999	5.31799	0.61088	6.56012	0.86656	9.324	0.297611	3.18715	0.473968	5.0584	0.727796	7.78987	0.910872	9.72531
0.33026	3.50793	0.16078	1.67042	0.330468	3.50294	0.496007	5.27601	0.61187	6.50566	0.867116	9.23739	0.299669	3.1775	0.475006	5.01956	0.728371	7.71904	0.911431	9.63543
0.331266	3.48414	0.162786	1.67504	0.331476	3.47926	0.497023	5.23493	0.612869	6.45235	0.867678	9.15253	0.30173	3.16805	0.476052	4.98157	0.728951	7.64966	0.911995	9.54735
0.332281	3.4609	0.164793	1.67959	0.332494	3.45614	0.498047	5.19474	0.613874	6.40017	0.868245	9.06938	0.303792	3.1588	0.477106	4.9444	0.729537	7.58168	0.912564	9.46103
0.333308	3.43823	0.166801	1.68406	0.333523	3.43358	0.499077	5.15539	0.614888	6.34906	0.868817	8.98788	0.305856	3.14974	0.478169	4.90802	0.730128	7.51506	0.913138	9.37641
0.334345	3.41609	0.16881	1.68846	0.334562	3.41156	0.500115	5.11686	0.61591	6.29901	0.869395	8.908	0.307921	3.14088	0.479239	4.87241	0.730725	7.44976	0.913718	9.29345
0.335392	3.39448	0.17082	1.69279	0.335611	3.39005	0.501161	5.07914	0.616939	6.24999	0.869978	8.82968	0.309988	3.13219	0.480318	4.83756	0.731327	7.38575	0.914302	9.2121
0.33645	3.37338	0.172831	1.69706	0.336672	3.36906	0.502213	5.0422	0.617976	6.20195	0.870566	8.75288	0.312055	3.12368	0.481405	4.80343	0.731935	7.32298	0.914891	9.13231
0.337519	3.35278	0.174844	1.70125	0.337743	3.34856	0.503273	5.00601	0.619021	6.15489	0.871159	8.67756	0.314125	3.11534	0.4825	4.77001	0.732547	7.26142	0.915485	9.05403
0.338599	3.33266	0.176857	1.70538	0.338825	3.32854	0.50434	4.97056	0.620073	6.10876	0.871757	8.60367	0.316195	3.10716	0.483603	4.73728	0.733166	7.20104	0.916084	8.97724
0.33969	3.31302	0.178871	1.70945	0.339919	3.30899	0.505413	4.93582	0.621133	6.06355	0.87236	8.53118	0.318267	3.09914	0.484714	4.70522	0.733789	7.14181	0.916689	8.90189
0.340792	3.29384	0.180886	1.71345	0.341023	3.28991	0.506494	4.90177	0.622201	6.01922	0.872969	8.46005	0.32034	3.09128	0.485833	4.67381	0.734418	7.0837	0.917298	8.82793
0.341906	3.27511	0.182902	1.71739	0.342139	3.27127	0.507582	4.8684	0.623276	5.97576	0.873583	8.39024	0.322414	3.08357	0.48696	4.64304	0.735053	7.02667	0.917912	8.75533
0.34303	3.25682	0.184919	1.72127	0.343266	3.25306	0.508677	4.83569	0.624358	5.93314	0.874201	8.32171	0.324489	3.07601	0.488095	4.61288	0.735692	6.97071	0.918531	8.68406
0.344167	3.23895	0.186937	1.72509	0.344404	3.23529	0.509779	4.80362	0.625448	5.89133	0.874825	8.25444	0.326565	3.06859	0.489237	4.58332	0.736337	6.91577	0.919154	8.61408
0.345314	3.22151	0.188956	1.72885	0.345555	3.21793	0.510887	4.77217	0.626545	5.85032	0.875454	8.1884	0.328642	3.0613	0.490387	4.55434	0.736988	6.86183	0.919783	8.54536
0.346474	3.20447	0.190975	1.73256	0.346717	3.20098	0.512002	4.74132	0.627649	5.81009	0.876089	8.12354	0.33072	3.05416	0.491545	4.52594	0.737643	6.80887	0.920417	8.47787
0.347646	3.18784	0.192995	1.73621	0.347891	3.18443	0.513124	4.71106	0.628761	5.77061	0.876728	8.05983	0.332799	3.04714	0.492711	4.49808	0.738305	6.75686	0.921055	8.41156
0.34883	3.1716	0.195016	1.73981	0.349078	3.16827	0.514253	4.68138	0.629879	5.73186	0.877372	7.99726	0.334879	3.04024	0.493884	4.47077	0.738971	6.70578	0.921699	8.34642
0.350026	3.15574	0.197037	1.74335	0.350276	3.15249	0.515388	4.65226	0.631005	5.69383	0.878022	7.93578	0.33696	3.03347	0.495066	4.44398	0.739642	6.6556	0.922347	8.28241
0.351235	3.14027	0.199059	1.74684	0.351488	3.13709	0.51653	4.62368	0.632138	5.6565	0.878676	7.87538	0.339041	3.02682	0.496254	4.4177	0.740319	6.60631	0.923	8.21951
0.352456	3.12515	0.201081	1.75028	0.352712	3.12206	0.517678	4.59563	0.633278	5.61985	0.879336	7.81603	0.341123	3.02029	0.49745	4.39192	0.741002	6.55788	0.923658	8.15768
0.353691	3.1104	0.203105	1.75367	0.353949	3.10738	0.518833	4.56809	0.634425	5.58386	0.88	7.75769	0.343206	3.01387	0.498654	4.36663	0.741689	6.51028	0.924321	8.09691
0.354939	3.09601	0.205128	1.75701	0.3552	3.09306	0.519994	4.54107	0.635579	5.54852	0.88067	7.70034	0.345289	3.00756	0.499865	4.34181	0.742382	6.4635	0.924988	8.03716
0.3562	3.08196	0.207153	1.7603	0.356464	3.07909	0.521161	4.51453	0.63674	5.51381	0.881345	7.64397	0.347374	3.00136	0.501083	4.31745	0.74308	6.41752	0.925661	7.97842
0.357475	3.06826	0.209178	1.76354	0.357741	3.06545	0.522335	4.48847	0.637908	5.47971	0.882024	7.58855	0.349458	2.99526	0.502309	4.29355	0.743783	6.37232	0.926338	7.92064
0.358763	3.05489	0.211203	1.76674	0.359033	3.05215	0.523515	4.46288	0.639083	5.44621	0.882709	7.53405	0.351544	2.98926	0.503542	4.27008	0.744491	6.32788	0.92702	7.86383
0.360066	3.04185	0.213229	1.76989	0.360339	3.03918	0.524701	4.43775	0.640264	5.4133	0.883399	7.48045	0.353629	2.98336	0.504783	4.24705	0.745205	6.28418	0.927706	7.80794
0.361384	3.02914	0.215255	1.773	0.361659	3.02654	0.525894	4.41306	0.641452	5.38096	0.884093	7.42773	0.355716	2.97756	0.50603	4.22443	0.745924	6.24121	0.928397	7.75297
0.362716	3.01675	0.217282	1.77606	0.362995	3.01421	0.527092	4.3888	0.642647	5.34917	0.884793	7.37587	0.357803	2.97185	0.507285	4.20222	0.746648	6.19894	0.929093	7.69888
0.364063	3.00467	0.219309	1.77908	0.364345	3.0022	0.528297	4.36497	0.643848	5.31793	0.885498	7.32485	0.35989	2.96623	0.508547	4.18041	0.747377	6.15737	0.929794	7.64565
0.365426	2.9929	0.221336	1.78206	0.365711	2.99049	0.529508	4.34156	0.645056	5.28722	0.886207	7.27466	0.361978	2.9607	0.509817	4.15899	0.748112	6.11647	0.9305	7.59328
0.366804	2.98144	0.223364	1.785	0.367093	2.97909	0.530725	4.31854	0.646271	5.25703	0.886922	7.22526	0.364066	2.95526	0.511093	4.13795	0.748852	6.07623	0.93121	7.54174
0.368198	2.97028	0.225393	1.7879	0.36849	2.96799	0.531947	4.29592	0.647492	5.22735	0.887641	7.17665	0.366154	2.9499	0.512376	4.11728	0.749597	6.03664	0.931924	7.491
0.369609	2.95941	0.227421	1.79075	0.369904	2.95719	0.533176	4.27369	0.64872	5.19816	0.888366	7.12881	0.368243	2.94463	0.513667	4.09698	0.750347	5.99768	0.932644	7.44105
0.371036	2.94884	0.22945	1.79357	0.371335	2.94668	0.53441	4.25183	0.649954	5.16945	0.889095	7.08172	0.370332	2.93943	0.514964	4.07703	0.751102	5.95933	0.933368	7.39188
0.37248	2.93856	0.231479	1.79635	0.372783	2.93646	0.53565	4.23034	0.651194	5.14122	0.889829	7.03536	0.372421	2.93431	0.516268	4.05743	0.751862	5.92159	0.934096	7.34347
0.373942	2.92857	0.233509	1.79909	0.374248	2.92653	0.536896	4.20921	0.65244	5.11345	0.890568	6.98971	0.37451	2.92927	0.51758	4.03817	0.752628	5.88444	0.93483	7.2958
0.375421	2.91886	0.235539	1.8018	0.375731	2.91687	0.538148	4.18843	0.653693	5.08613	0.891312	6.94477	0.3766	2.92431	0.518898	4.01923	0.753398	5.84787	0.935567	7.24884
0.376919	2.90942	0.237569	1.80447	0.377232	2.9075	0.539406	4.16799	0.654953	5.05925	0.892061	6.90051	0.378689	2.91941	0.520223	4.00063	0.754174	5.81186	0.93631	7.2026
0.378434	2.90026	0.239599	1.8071	0.378752	2.89839	0.540669	4.14789	0.656218	5.03281	0.892815	6.85692	0.380779	2.91459	0.521555	3.98234	0.754955	5.7764	0.937057	7.15705
0.379969	2.89138	0.24163	1.8097	0.38029	2.88956	0.541937	4.12811	0.657489	5.00678	0.893573	6.81399	0.382869	2.90984	0.522893	3.96435	0.755741	5.74149	0.937808	7.11218
0.381522	2.88276	0.24366	1.81226	0.381847	2.881	0.543211	4.10866	0.658767	4.98117	0.894337	6.7717	0.38496	2.90515	0.524239	3.94668	0.756532	5.7071	0.938564	7.06798
0.383094	2.87441	0.245691	1.81479	0.383424	2.8727	0.544491	4.08952	0.660051	4.95596	0.895105	6.73004	0.38705	2.90053	0.525591	3.92929	0.757328	5.67323	0.939325	7.02442
0.384686	2.86631	0.247722	1.81729	0.38502	2.86466	0.545776	4.07069	0.66134	4.93115	0.895878	6.68899	0.38914	2.89597	0.526949	3.9122	0.758129	5.63987	0.94009	6.9815
0.386298	2.85848	0.249754	1.81975	0.386636	2.85688	0.547067	4.05215	0.662636	4.90672	0.896656	6.64855	0.39123	2.89148	0.528315	3.89539	0.758935	5.607	0.94086	6.9392
0.38793	2.8509	0.251785	1.82218	0.388272	2.84935	0.548363	4.03391	0.663938	4.88267	0.897439	6.6087	0.39332	2.88705	0.529687	3.87886	0.759746	5.57463	0.941634	6.89751
0.389582	2.84357	0.253817	1.82458	0.389928	2.84207	0.549664	4.01596	0.665245	4.859	0.898226	6.56943	0.395411	2.88268	0.531065	3.8626	0.760563	5.54272	0.942412	6.85642
0.391254	2.83648	0.255849	1.82695	0.391604	2.83504	0.550971	3.99829	0.666559	4.83568	0.899019	6.53072	0.397501	2.87836	0.53245	3.84661	0.761384	5.51129	0.943195	6.81592
0.392946	2.82964	0.257881	1.82929	0.393301	2.82825	0.552283	3.9809	0.667878	4.81272	0.899816	6.49257	0.399591	2.87411	0.533841	3.83088	0.76221	5.48031	0.943983	6.77599
0.39466	2.82304	0.259913	1.8316	0.395019	2.82169	0.5536	3.96377	0.669203	4.79011	0.900618	6.45496	0.401681	2.86991	0.535239	3.8154	0.763042	5.44978	0.944775	6.73662
0.396393	2.81667	0.261945	1.83388	0.396757	2.81537	0.554922	3.94691	0.670533	4.76784	0.901424	6.41788	0.40377	2.86576	0.536644	3.80017	0.763878	5.41969	0.945571	6.6978
0.398148	2.81053	0.263977	1.83613	0.398515	2.80928	0.55625	3.93031	0.67187	4.7459	0.902235	6.38133	0.40586	2.86167	0.538055	3.78519	0.764719	5.39003	0.946372	6.65952
0.399923	2.80461	0.26601	1.83836	0.400295	2.80341	0.557582	3.91396	0.673211	4.72429	0.903051	6.34529	0.407949	2.85763	0.539472	3.77044	0.765566	5.36079	0.947177	6.62177
0.401718	2.79892	0.268042	1.84055	0.402094	2.79776	0.55892	3.89785	0.674559	4.70299	0.903872	6.30975	0.410039	2.85364	0.540895	3.75594	0.766417	5.33196	0.947986	6.58454
0.403534	2.79343	0.270074	1.84272	0.403915	2.79232	0.560262	3.88199	0.675912	4.68201	0.904698	6.2747	0.412128	2.8497	0.542325	3.74166	0.767273	5.30354	0.9488	6.54782
0.405371	2.78816	0.272107	1.84486	0.405755	2.78709	0.56161	3.86637	0.677271	4.66134	0.905528	6.24013	0.414216	2.84581	0.543761	3.7276	0.768134	5.27552	0.949618	6.5116
0.407227	2.78309	0.27414	1.84697	0.407615	2.78207	0.562963	3.85098	0.678635	4.64097	0.906363	6.20604	0.416305	2.84197	0.545203	3.71377	0.769	5.24789	0.950441	6.47587
0.409103	2.77823	0.276172	1.84906	0.409495	2.77724	0.56432	3.83582	0.680004	4.62089	0.907202	6.17241	0.418393	2.83817	0.546652	3.70015	0.769871	5.22064	0.951268	6.44061
0.410998	2.77355	0.278205	1.85112	0.411395	2.7726	0.565683	3.82089	0.681379	4.6011	0.908046	6.13924	0.420481	2.83442	0.548106	3.68675	0.770747	5.19377	0.952099	6.40583
0.412913	2.76906	0.280238	1.85316	0.413313	2.76815	0.56705	3.80617	0.682759	4.5816	0.908895	6.10651	0.422569	2.83071	0.549567	3.67355	0.771628	5.16726	0.952934	6.37151
0.414846	2.76475	0.28227	1.85517	0.415251	2.76388	0.568422	3.79167	0.684145	4.56237	0.909749	6.07422	0.424656	2.82705	0.551034	3.66056	0.772514	5.14112	0.953774	6.33765
0.416798	2.76062	0.284303	1.85716	0.417206	2.75978	0.569799	3.77737	0.685535	4.54342	0.910607	6.04237	0.426743	2.82343	0.552507	3.64777	0.773405	5.11533	0.954618	6.30423
0.418768	2.75665	0.286336	1.85912	0.41918	2.75585	0.57118	3.76329	0.686931	4.52473	0.911469	6.01093	0.428829	2.81985	0.553986	3.63517	0.7743	5.08988	0.955466	6.27124
0.420755	2.75285	0.288369	1.86106	0.421171	2.75208	0.572567	3.74941	0.688333	4.50631	0.912337	5.97991	0.430915	2.81632	0.555471	3.62277	0.775201	5.06478	0.956318	6.23869
0.422759	2.74921	0.290401	1.86298	0.423179	2.74847	0.573958	3.73572	0.689739	4.48814	0.913209	5.94929	0.433001	2.81282	0.556962	3.61055	0.776106	5.04002	0.957175	6.20655
0.424781	2.74571	0.292434	1.86487	0.425203	2.74501	0.575353	3.72223	0.69115	4.47022	0.914085	5.91907	0.435086	2.80936	0.558459	3.59852	0.777016	5.01558	0.958036	6.17483
0.426818	2.74237	0.294467	1.86674	0.427243	2.74169	0.576754	3.70894	0.692567	4.45255	0.914966	5.88925	0.43717	2.80594	0.559962	3.58667	0.777931	4.99147	0.958901	6.14351
0.428871	2.73916	0.296499	1.86859	0.429299	2.73851	0.578158	3.69583	0.693988	4.43512	0.915852	5.85981	0.439255	2.80256	0.56147	3.575	0.778851	4.96767	0.95977	6.11259
0.430938	2.73608	0.298532	1.87042	0.43137	2.73546	0.579568	3.6829	0.695415	4.41793	0.916742	5.83075	0.441338	2.79921	0.562985	3.56351	0.779775	4.94419	0.960643	6.08207
0.433021	2.73314	0.300564	1.87222	0.433456	2.73254	0.580981	3.67016	0.696846	4.40098	0.917637	5.80205	0.443421	2.7959	0.564505	3.55218	0.780705	4.92101	0.961521	6.05192
0.435117	2.73032	0.302597	1.87401	0.435555	2.72974	0.5824	3.65759	0.698283	4.38425	0.918536	5.77373	0.445504	2.79263	0.566032	3.54103	0.781639	4.89813	0.962403	6.02216
0.437227	2.72761	0.304629	1.87577	0.437668	2.72706	0.583822	3.64519	0.699724	4.36775	0.91944	5.74576	0.447586	2.78939	0.567564	3.53004	0.782578	4.87555	0.963288	5.99276
0.43935	2.72501	0.306661	1.87751	0.439794	2.72449	0.58525	3.63297	0.70117	4.35147	0.920349	5.71814	0.449667	2.78618	0.569102	3.51921	0.783521	4.85326	0.964178	5.96373
0.441486	2.72253	0.308694	1.87924	0.441932	2.72202	0.586681	3.62092	0.702621	4.33541	0.921261	5.69087	0.451748	2.78301	0.570645	3.50854	0.78447	4.83125	0.965072	5.93506
0.443634	2.72014	0.310726	1.88094	0.444082	2.71966	0.588117	3.60902	0.704077	4.31956	0.922179	5.66394	0.453829	2.77987	0.572194	3.49802	0.785423	4.80953	0.965971	5.90674
0.445793	2.71785	0.312758	1.88262	0.446243	2.71739	0.589557	3.59729	0.705537	4.30392	0.923101	5.63734	0.455908	2.77676	0.573749	3.48767	0.786381	4.78808	0.966873	5.87876
0.447963	2.71566	0.31479	1.88429	0.448416	2.71521	0.591001	3.58572	0.707002	4.28848	0.924027	5.61107	0.457987	2.77368	0.57531	3.47746	0.787344	4.7669	0.967779	5.85113
0.450144	2.71355	0.316821	1.88593	0.450598	2.71313	0.59245	3.57431	0.708472	4.27324	0.924958	5.58513	0.460065	2.77064	0.576876	3.4674	0.788311	4.74598	0.968689	5.82382
0.452334	2.71153	0.318853	1.88756	0.452791	2.71112	0.593903	3.56305	0.709946	4.25821	0.925893	5.5595	0.462143	2.76762	0.578447	3.45748	0.789283	4.72533	0.969604	5.79685
0.454535	2.70959	0.320885	1.88916	0.454994	2.7092	0.59536	3.55193	0.711425	4.24336	0.926832	5.53418	0.46422	2.76463	0.580024	3.44771	0.79026	4.70493	0.970522	5.7702
0.456745	2.70772	0.322916	1.89075	0.457206	2.70735	0.596821	3.54097	0.712909	4.22871	0.927777	5.50917	0.466296	2.76167	0.581607	3.43807	0.791242	4.68479	0.971444	5.74387
0.458964	2.70593	0.324948	1.89232	0.459426	2.70557	0.598286	3.53015	0.714397	4.21425	0.928725	5.48446	0.468372	2.75874	0.583195	3.42858	0.792228	4.6649	0.972371	5.71784
0.461191	2.70421	0.326979	1.89388	0.461655	2.70386	0.599756	3.51947	0.715889	4.19997	0.929678	5.46004	0.470446	2.75584	0.584789	3.41922	0.793218	4.64524	0.973301	5.69213
0.463426	2.70255	0.32901	1.89541	0.463892	2.70221	0.601229	3.50893	0.717386	4.18587	0.930635	5.43592	0.47252	2.75296	0.586388	3.40999	0.794214	4.62584	0.974235	5.66672
0.465669	2.70096	0.331041	1.89693	0.466136	2.70063	0.602707	3.49853	0.718887	4.17195	0.931597	5.41209	0.474594	2.75011	0.587993	3.4009	0.795214	4.60666	0.975173	5.6416
0.467919	2.69942	0.333072	1.89843	0.468388	2.69911	0.604188	3.48827	0.720393	4.1582	0.932563	5.38853	0.476666	2.74729	0.589603	3.39193	0.796219	4.58772	0.976116	5.61678
0.470177	2.69794	0.335103	1.89992	0.470647	2.69764	0.605674	3.47813	0.721903	4.14463	0.933533	5.36525	0.478738	2.74449	0.591218	3.38309	0.797228	4.56901	0.977062	5.59224
0.472441	2.69652	0.337133	1.90139	0.472913	2.69623	0.607163	3.46813	0.723417	4.13123	0.934508	5.34225	0.480808	2.74172	0.592839	3.37438	0.798242	4.55052	0.978012	5.56799
0.474711	2.69514	0.339164	1.90284	0.475184	2.69487	0.608657	3.45826	0.724935	4.11799	0.935487	5.31951	0.482878	2.73897	0.594465	3.36578	0.799261	4.53226	0.978965	5.54401
0.476988	2.69382	0.341194	1.90428	0.477462	2.69355	0.610154	3.44851	0.726458	4.10491	0.93647	5.29704	0.484947	2.73625	0.596096	3.35731	0.800284	4.51421	0.979923	5.52031
0.479271	2.69254	0.343224	1.9057	0.479746	2.69228	0.611655	3.43889	0.727985	4.092	0.937458	5.27483	0.487016	2.73355	0.597732	3.34895	0.801312	4.49638	0.980885	5.49687
0.481559	2.69131	0.345254	1.9071	0.482035	2.69106	0.61316	3.42938	0.729516	4.07924	0.93845	5.25288	0.489083	2.73087	0.599374	3.34071	0.802344	4.47875	0.98185	5.4737
0.483852	2.69012	0.347284	1.90849	0.48433	2.68988	0.614669	3.42	0.731051	4.06664	0.939447	5.23117	0.49115	2.72822	0.601021	3.33258	0.803381	4.46134	0.98282	5.4508
0.486151	2.68897	0.349314	1.90987	0.486629	2.68874	0.616182	3.41074	0.732591	4.05419	0.940447	5.20972	0.493215	2.72559	0.602673	3.32457	0.804422	4.44413	0.983793	5.42814
0.488454	2.68786	0.351343	1.91123	0.488934	2.68763	0.617698	3.40159	0.734134	4.04189	0.941452	5.1885	0.49528	2.72298	0.60433	3.31666	0.805468	4.42712	0.98477	5.40575
0.490762	2.68679	0.353372	1.91257	0.491242	2.68657	0.619218	3.39255	0.735681	4.02974	0.942461	5.16753	0.497344	2.72039	0.605992	3.30887	0.806519	4.41031	0.985751	5.3836
0.493074	2.68575	0.355401	1.9139	0.493556	2.68553	0.620742	3.38363	0.737233	4.01773	0.943475	5.14679	0.499407	2.71782	0.607659	3.30118	0.807574	4.39369	0.986735	5.36169
0.495391	2.68474	0.35743	1.91522	0.495873	2.68453	0.62227	3.37482	0.738788	4.00587	0.944492	5.12629	0.501469	2.71528	0.609332	3.29359	0.808633	4.37727	0.987724	5.34003
0.497712	2.68377	0.359459	1.91652	0.498195	2.68357	0.623801	3.36611	0.740347	3.99414	0.945514	5.10602	0.50353	2.71275	0.611009	3.28611	0.809697	4.36103	0.988716	5.3186
0.500036	2.68282	0.361487	1.91781	0.50052	2.68263	0.625336	3.35751	0.74191	3.98256	0.94654	5.08597	0.50559	2.71024	0.612692	3.27873	0.810766	4.34498	0.989712	5.29741
0.502364	2.68191	0.363516	1.91909	0.502849	2.68172	0.626874	3.34902	0.743477	3.97111	0.947571	5.06614	0.507649	2.70776	0.614379	3.27145	0.811839	4.32912	0.990711	5.27645
0.504696	2.68102	0.365544	1.92035	0.505181	2.68084	0.628416	3.34063	0.745048	3.95979	0.948605	5.04654	0.509707	2.70529	0.616071	3.26426	0.812916	4.31343	0.991715	5.25571
0.507031	2.68016	0.367572	1.9216	0.507517	2.67998	0.629962	3.33234	0.746623	3.94861	0.949644	5.02715	0.511764	2.70284	0.617769	3.25718	0.813998	4.29793	0.992722	5.2352
0.509369	2.67932	0.369599	1.92283	0.509856	2.67915	0.631511	3.32415	0.748201	3.93756	0.950687	5.00797	0.51382	2.70042	0.619471	3.25019	0.815084	4.28259	0.993733	5.21491
0.51171	2.67851	0.371627	1.92405	0.512198	2.67834	0.633064	3.31607	0.749783	3.92663	0.951734	4.989	0.515875	2.69801	0.621178	3.24329	0.816175	4.26744	0.994747	5.19483
0.514054	2.67772	0.373654	1.92526	0.514542	2.67756	0.63462	3.30807	0.751369	3.91583	0.952785	4.97023	0.517929	2.69561	0.62289	3.23648	0.81727	4.25245	0.995765	5.17497
0.516401	2.67696	0.375681	1.92646	0.51689	2.6768	0.63618	3.30018	0.752958	3.90515	0.95384	4.95167	0.519983	2.69324	0.624607	3.22977	0.81837	4.23762	0.996787	5.15532
0.518751	2.67621	0.377708	1.92764	0.51924	2.67606	0.637743	3.29237	0.754552	3.89459	0.9549	4.93331	0.522035	2.69088	0.626328	3.22314	0.819473	4.22297	0.997812	5.13587
0.521103	2.67548	0.379735	1.92882	0.521593	2.67534	0.63931	3.28466	0.756148	3.88416	0.955963	4.91515	0.524086	2.68854	0.628055	3.2166	0.820582	4.20847	0.998842	5.11663
0.523458	2.67478	0.381761	1.92997	0.523948	2.67463	0.64088	3.27704	0.757749	3.87384	0.957031	4.89718	0.526135	2.68622	0.629786	3.21015	0.821694	4.19414	0.999874	5.09759
0.525815	2.67409	0.383787	1.93112	0.526305	2.67395	0.642453	3.26951	0.759353	3.86363	0.958103	4.8794	0.528184	2.68391	0.631521	3.20378	0.822811	4.17996	1.00091	5.07875
0.528174	2.67342	0.385813	1.93226	0.528665	2.67329	0.64403	3.26207	0.76096	3.85354	0.959179	4.86181	0.530232	2.68162	0.633262	3.1975	0.823933	4.16594		
0.530535	2.67277	0.387839	1.93338	0.531027	2.67264	0.64561	3.25471	0.762571	3.84357	0.960259	4.84441	0.532279	2.67935	0.635007	3.1913	0.825059	4.15207		
0.532899	2.67213	0.389865	1.93449	0.533391	2.672	0.647194	3.24744	0.764185	3.8337	0.961343	4.82719	0.534325	2.67709	0.636757	3.18518	0.826189	4.13836		
0.535264	2.67151	0.39189	1.9356	0.535756	2.67139	0.64878	3.24026	0.765803	3.82394	0.962431	4.81015	0.536369	2.67485	0.638511	3.17914	0.827323	4.12479		
0.537631	2.67091	0.393915	1.93669	0.538124	2.67078	0.650371	3.23315	0.767424	3.81429	0.963523	4.79328	0.538413	2.67262	0.64027	3.17317	0.828462	4.11137		
0.54	2.67032	0.39594	1.93776	0.540493	2.6702	0.651964	3.22613	0.769049	3.80475	0.964619	4.7766	0.540455	2.67041	0.642034	3.16729	0.829605	4.09809		
0.542371	2.66974	0.397964	1.93883	0.542864	2.66962	0.653561	3.21919	0.770677	3.79531	0.96572	4.76009	0.542496	2.66821	0.643802	3.16148	0.830752	4.08496		
0.544743	2.66917	0.399989	1.93989	0.545236	2.66906	0.65516	3.21233	0.772308	3.78597	0.966824	4.74374	0.544537	2.66603	0.645574	3.15575	0.831904	4.07197		
0.547116	2.66862	0.402013	1.94094	0.54761	2.66851	0.656764	3.20555	0.773942	3.77673	0.967932	4.72757	0.546576	2.66386	0.647351	3.15009	0.833059	4.05911		
0.549492	2.66808	0.404037	1.94197	0.549986	2.66797	0.65837	3.19884	0.77558	3.7676	0.969045	4.71156	0.548614	2.66171	0.649132	3.1445	0.834219	4.04639		
0.551868	2.66756	0.40606	1.943	0.552363	2.66745	0.659979	3.19221	0.777221	3.75856	0.970161	4.69572	0.550651	2.65957	0.650918	3.13898	0.835384	4.03381		
0.554246	2.66704	0.408084	1.94401	0.554741	2.66693	0.661592	3.18565	0.778865	3.74961	0.971281	4.68004	0.552686	2.65744	0.652708	3.13354	0.836552	4.02136		
0.556625	2.66653	0.410107	1.94502	0.55712	2.66643	0.663208	3.17917	0.780513	3.74077	0.972405	4.66451	0.554721	2.65533	0.654503	3.12816	0.837725	4.00905		
0.559006	2.66604	0.41213	1.94601	0.559501	2.66593	0.664827	3.17276	0.782163	3.73201	0.973534	4.64915	0.556754	2.65323	0.656302	3.12285	0.838902	3.99686		
0.561388	2.66555	0.414152	1.947	0.561883	2.66545	0.666449	3.16642	0.783817	3.72335	0.974666	4.63394	0.558787	2.65115	0.658105	3.11761	0.840083	3.9848		
0.56377	2.66507	0.416175	1.94797	0.564266	2.66498	0.668074	3.16016	0.785474	3.71478	0.975802	4.61888	0.560818	2.64907	0.659913	3.11244	0.841269	3.97286		
0.566154	2.66461	0.418197	1.94894	0.56665	2.66451	0.669702	3.15396	0.787134	3.7063	0.976942	4.60397	0.562848	2.64701	0.661724	3.10733	0.842458	3.96105		
0.568539	2.66415	0.420219	1.94989	0.569035	2.66405	0.671334	3.14783	0.788796	3.69791	0.978086	4.58921	0.564877	2.64497	0.66354	3.10228	0.843652	3.94936		
0.570924	2.6637	0.42224	1.95084	0.571421	2.66361	0.672968	3.14177	0.790462	3.6896	0.979234	4.5746	0.566905	2.64293	0.66536	3.0973	0.84485	3.9378		
0.573311	2.66326	0.424262	1.95178	0.573807	2.66316	0.674605	3.13577	0.792131	3.68138	0.980385	4.56013	0.568932	2.64091	0.667185	3.09238	0.846052	3.92635		
0.575698	2.66282	0.426283	1.95271	0.576195	2.66273	0.676246	3.12984	0.793803	3.67324	0.981541	4.5458	0.570957	2.6389	0.669013	3.08752	0.847258	3.91502		
0.578087	2.66239	0.428304	1.95363	0.578583	2.66231	0.677889	3.12398	0.795478	3.66519	0.9827	4.53162	0.572982	2.6369	0.670846	3.08272	0.848469	3.90381		
0.580476	2.66197	0.430324	1.95454	0.580973	2.66189	0.679536	3.11818	0.797156	3.65722	0.983864	4.51758	0.575005	2.63491	0.672682	3.07798	0.849683	3.89271		
0.582865	2.66156	0.432345	1.95544	0.583362	2.66148	0.681185	3.11244	0.798836	3.64933	0.985031	4.50367	0.577027	2.63294	0.674523	3.0733	0.850902	3.88172		
0.585256	2.66116	0.434365	1.95633	0.585753	2.66107	0.682838	3.10676	0.80052	3.64153	0.986202	4.4899	0.579048	2.63098	0.676368	3.06868	0.852125	3.87085		
0.587647	2.66076	0.436384	1.95721	0.588144	2.66067	0.684493	3.10115	0.802206	3.6338	0.987377	4.47626	0.581068	2.62902	0.678216	3.06412	0.853351	3.86008		
0.590038	2.66036	0.438404	1.95809	0.590536	2.66028	0.686151	3.09559	0.803895	3.62614	0.988556	4.46275	0.583087	2.62708	0.680069	3.05961	0.854582	3.84943		
0.592431	2.65997	0.440423	1.95896	0.592928	2.65989	0.687812	3.0901	0.805587	3.61857	0.989738	4.44938	0.585105	2.62516	0.681925	3.05515	0.855817	3.83888		
0.594823	2.65959	0.442442	1.95981	0.595321	2.65951	0.689477	3.08467	0.807282	3.61107	0.990924	4.43613	0.587121	2.62324	0.683786	3.05076	0.857056	3.82844		
0.597216	2.65921	0.444461	1.96066	0.597714	2.65914	0.691144	3.07929	0.808979	3.60364	0.992115	4.42301	0.589136	2.62133	0.68565	3.04641	0.858299	3.8181		
0.59961	2.65884	0.446479	1.96151	0.600108	2.65876	0.692814	3.07397	0.810679	3.59629	0.993308	4.41001	0.591151	2.61943	0.687518	3.04212	0.859546	3.80786		
0.602004	2.65847	0.448497	1.96234	0.602502	2.6584	0.694486	3.0687	0.812382	3.58901	0.994506	4.39714	0.593164	2.61755	0.68939	3.03788	0.860797	3.79773		
0.604399	2.65811	0.450515	1.96317	0.604897	2.65804	0.696162	3.0635	0.814088	3.5818	0.995708	4.38439	0.595176	2.61567	0.691266	3.03369	0.862053	3.7877		
0.606793	2.65775	0.452533	1.96398	0.607292	2.65768	0.697841	3.05834	0.815796	3.57466	0.996913	4.37177	0.597187	2.61381	0.693146	3.02955	0.863312	3.77777		
0.609189	2.6574	0.45455	1.9648	0.609687	2.65733	0.699522	3.05325	0.817506	3.56759	0.998122	4.35926	0.599196	2.61195	0.695029	3.02546	0.864575	3.76793		
0.611584	2.65705	0.456567	1.9656	0.612082	2.65698	0.701206	3.0482	0.81922	3.56059	0.999335	4.34687	0.601205	2.61011	0.696916	3.02142	0.865842	3.7582		
0.61398	2.6567	0.458584	1.96639	0.614478	2.65663	0.702893	3.04321	0.820936	3.55366	1.00055	4.33459	0.603213	2.60827	0.698806	3.01743	0.867113	3.74855		
0.616376	2.65636	0.460601	1.96718	0.616874	2.65629	0.704583	3.03827	0.822654	3.5468			0.605219	2.60645	0.7007	3.01348	0.868388	3.73901		
0.618772	2.65602	0.462617	1.96796	0.61927	2.65595	0.706276	3.03338	0.824375	3.54			0.607225	2.60463	0.702598	3.00959	0.869668	3.72955		
0.621168	2.65569	0.464633	1.96873	0.621666	2.65562	0.707972	3.02855	0.826099	3.53326			0.609229	2.60283	0.704499	3.00573	0.870951	3.72019		
0.623564	2.65536	0.466648	1.9695	0.624063	2.65529	0.70967	3.02376	0.827825	3.52659			0.611232	2.60103	0.706404	3.00193	0.872238	3.71092		
0.625961	2.65503	0.468664	1.97026	0.626459	2.65496	0.711371	3.01902	0.829553	3.51998			0.613234	2.59925	0.708313	2.99817	0.873529	3.70174		
0.628357	2.6547	0.470679	1.97101	0.628856	2.65463	0.713075	3.01434	0.831284	3.51344			0.615235	2.59747	0.710225	2.99445	0.874823	3.69265		
0.630754	2.65438	0.472694	1.97175	0.631252	2.65431	0.714782	3.0097	0.833017	3.50695			0.617235	2.59571	0.71214	2.99078	0.876122	3.68364		
0.633151	2.65406	0.474708	1.97249	0.633649	2.65399	0.716491	3.00511	0.834753	3.50053			0.619234	2.59395	0.714059	2.98715	0.877425	3.67472		
0.635547	2.65374	0.476722	1.97322	0.636046	2.65368	0.718204	3.00056	0.836491	3.49417			0.621232	2.5922	0.715981	2.98356	0.878731	3.66589		
0.637944	2.65343	0.478736	1.97394	0.638442	2.65336	0.719919	2.99607	0.838231	3.48786			0.623229	2.59046	0.717906	2.98001	0.880042	3.65714		
0.64034	2.65311	0.48075	1.97466	0.640839	2.65305	0.721637	2.99162	0.839974	3.48162			0.625224	2.58873	0.719835	2.97651	0.881356	3.64848		
0.642737	2.6528	0.482763	1.97537	0.643235	2.65274	0.723357	2.98721	0.841719	3.47543			0.627219	2.58701	0.721767	2.97304	0.882675	3.6399		
0.645133	2.65249	0.484776	1.97608	0.645632	2.65243	0.72508	2.98285	0.843466	3.4693			0.629213	2.5853	0.723702	2.96962	0.883997	3.6314		
0.647529	2.65218	0.486789	1.97677	0.648028	2.65212	0.726806	2.97854	0.845216	3.46322			0.631205	2.5836	0.725641	2.96623	0.885323	3.62298		
0.649925	2.65188	0.488802	1.97746	0.650424	2.65181	0.728535	2.97426	0.846967	3.4572			0.633197	2.5819	0.727583	2.96289	0.886652	3.61464		
0.652321	2.65157	0.490814	1.97815	0.65282	2.65151	0.730267	2.97004	0.848722	3.45123			0.635188	2.58022	0.729528	2.95958	0.887986	3.60638		
0.654717	2.65127	0.492826	1.97883	0.655215	2.65121	0.732001	2.96585	0.850478	3.44532			0.637177	2.57854	0.731476	2.95631	0.889324	3.5982		
0.657112	2.65097	0.494838	1.9795	0.657611	2.65091	0.733738	2.96171	0.852236	3.43946			0.639166	2.57687	0.733427	2.95307	0.890665	3.59009		
0.659507	2.65067	0.496849	1.98016	0.660006	2.65061	0.735478	2.95761	0.853997	3.43366			0.641154	2.57521	0.735381	2.94987	0.89201	3.58206		
0.661902	2.65037	0.49886	1.98082	0.6624	2.65031	0.737221	2.95355	0.855759	3.4279			0.643141	2.57356	0.737338	2.94671	0.893359	3.5741		
0.664297	2.65007	0.500871	1.98148	0.664795	2.65001	0.738966	2.94953	0.857524	3.4222			0.645126	2.57192	0.739298	2.94359	0.894711	3.56622		
0.666691	2.64977	0.502881	1.98213	0.667189	2.64971	0.740714	2.94556	0.859291	3.41655			0.647111	2.57028	0.741262	2.94049	0.896068	3.55841		
0.669085	2.64948	0.504892	1.98277	0.669583	2.64941	0.742465	2.94162	0.86106	3.41095			0.649095	2.56866	0.743228	2.93744	0.897428	3.55068		
0.671478	2.64918	0.506902	1.9834	0.671976	2.64912	0.744218	2.93772	0.862831	3.40539			0.651078	2.56704	0.745197	2.93441	0.898792	3.54301		
0.673871	2.64888	0.508911	1.98403	0.674369	2.64882	0.745975	2.93387	0.864604	3.39989			0.65306	2.56543	0.747169	2.93142	0.90016	3.53542		
0.676264	2.64859	0.510921	1.98466	0.676761	2.64853	0.747734	2.93005	0.866379	3.39443			0.655041	2.56383	0.749143	2.92847	0.901532	3.5279		
0.678656	2.64829	0.51293	1.98528	0.679153	2.64823	0.749495	2.92627	0.868156	3.38903			0.657021	2.56224	0.751121	2.92554	0.902907	3.52045		
0.681047	2.648	0.514938	1.98589	0.681544	2.64794	0.75126	2.92253	0.869935	3.38366			0.659	2.56065	0.753101	2.92265	0.904286	3.51306		
0.683438	2.6477	0.516947	1.9865	0.683935	2.64764	0.753027	2.91882	0.871716	3.37835			0.660979	2.55907	0.755084	2.91979	0.905669	3.50574		
0.685828	2.64741	0.518955	1.9871	0.686325	2.64735	0.754797	2.91515	0.873499	3.37308			0.662956	2.5575	0.75707	2.91696	0.907055	3.49849		
0.688218	2.64711	0.520963	1.9877	0.688715	2.64705	0.75657	2.91153	0.875284	3.36785			0.664933	2.55594	0.759059	2.91416	0.908445	3.49131		
0.690607	2.64682	0.52297	1.98829	0.691104	2.64675	0.758346	2.90793	0.877071	3.36267			0.666908	2.55439	0.76105	2.91139	0.909839	3.48419		
0.692996	2.64652	0.524978	1.98888	0.693492	2.64646	0.760124	2.90438	0.87886	3.35754			0.668883	2.55284	0.763044	2.90865	0.911237	3.47714		
0.695383	2.64622	0.526985	1.98946	0.69588	2.64616	0.761906	2.90085	0.88065	3.35245			0.670857	2.55131	0.76504	2.90594	0.912638	3.47015		
0.697771	2.64593	0.528991	1.99004	0.698267	2.64586	0.76369	2.89737	0.882442	3.3474			0.672831	2.54978	0.767039	2.90326	0.914043	3.46322		
0.700157	2.64563	0.530998	1.99061	0.700653	2.64557	0.765477	2.89392	0.884237	3.34239			0.674803	2.54825	0.76904	2.9006	0.915452	3.45635		
0.702542	2.64533	0.533004	1.99117	0.703038	2.64527	0.767266	2.8905	0.886033	3.33743			0.676775	2.54674	0.771044	2.89798	0.916864	3.44955		
0.704927	2.64503	0.53501	1.99173	0.705423	2.64497	0.769059	2.88712	0.88783	3.3325			0.678746	2.54523	0.77305	2.89538	0.91828	3.44281		
0.707311	2.64473	0.537015	1.99229	0.707807	2.64466	0.770854	2.88378	0.88963	3.32762			0.680716	2.54373	0.775059	2.89281	0.919699	3.43613		
0.709694	2.64443	0.53902	1.99284	0.710189	2.64436	0.772653	2.88047	0.891431	3.32278			0.682685	2.54224	0.77707	2.89026	0.921123	3.42951		
0.712076	2.64412	0.541025	1.99339	0.712571	2.64406	0.774454	2.87719	0.893235	3.31798			0.684653	2.54075	0.779084	2.88775	0.92255	3.42295		
0.714457	2.64382	0.54303	1.99393	0.714952	2.64375	0.776258	2.87394	0.895039	3.31321			0.686621	2.53928	0.7811	2.88525	0.92398	3.41645		
0.716837	2.64351	0.545034	1.99446	0.717332	2.64345	0.778065	2.87073	0.896846	3.30849			0.688588	2.53781	0.783118	2.88279	0.925414	3.41		
0.719216	2.6432	0.547038	1.995	0.719711	2.64314	0.779875	2.86755	0.898654	3.30381			0.690554	2.53634	0.785138	2.88035	0.926852	3.40361		
0.721594	2.64289	0.549042	1.99552	0.722089	2.64283	0.781688	2.8644	0.900464	3.29916			0.69252	2.53489	0.787161	2.87793	0.928293	3.39728		
0.723971	2.64258	0.551046	1.99605	0.724465	2.64252	0.783504	2.86129	0.902275	3.29455			0.694485	2.53344	0.789186	2.87554	0.929738	3.39101		
0.726347	2.64227	0.553049	1.99656	0.726841	2.6422	0.785323	2.85821	0.904089	3.28998			0.696449	2.532	0.791213	2.87317	0.931187	3.38479		
0.728722	2.64195	0.555052	1.99708	0.729215	2.64188	0.787145	2.85516	0.905903	3.28544			0.698413	2.53057	0.793242	2.87082	0.932639	3.37863		
0.731095	2.64163	0.557054	1.99759	0.731589	2.64157	0.78897	2.85214	0.90772	3.28094			0.700375	2.52914	0.795273	2.8685	0.934095	3.37252		
0.733467	2.64131	0.559057	1.99809	0.73396	2.64124	0.790798	2.84915	0.909538	3.27648			0.702337	2.52772	0.797306	2.86621	0.935554	3.36646		
0.735838	2.64099	0.561059	1.99859	0.736331	2.64092	0.792629	2.84619	0.911357	3.27205			0.704299	2.52631	0.799341	2.86393	0.937017	3.36046		
0.738208	2.64066	0.56306	1.99909	0.7387	2.64059	0.794463	2.84327	0.913178	3.26766			0.70626	2.52491	0.801379	2.86168	0.938483	3.35451		
0.740576	2.64033	0.565062	1.99958	0.741068	2.64027	0.7963	2.84037	0.915001	3.2633			0.70822	2.52351	0.803418	2.85945	0.939953	3.34861		
0.742943	2.64	0.567063	2.00006	0.743435	2.63993	0.798141	2.83751	0.916825	3.25898			0.71018	2.52212	0.805459	2.85724	0.941427	3.34277		
0.745308	2.63967	0.569063	2.00055	0.7458	2.6396	0.799984	2.83467	0.918651	3.25469			0.712139	2.52073	0.807503	2.85505	0.942904	3.33697		
0.747672	2.63933	0.571064	2.00103	0.748163	2.63926	0.801831	2.83187	0.920478	3.25043			0.714097	2.51936	0.809548	2.85288	0.944384	3.33123		
0.750034	2.63899	0.573064	2.0015	0.750525	2.63892	0.803681	2.82909	0.922307	3.24621			0.716055	2.51799	0.811595	2.85073	0.945869	3.32553		
0.752394	2.63865	0.575064	2.00197	0.752885	2.63857	0.805535	2.82635	0.924137	3.24202			0.718012	2.51663	0.813643	2.84861	0.947356	3.31989		
0.754753	2.6383	0.577064	2.00244	0.755244	2.63823	0.807392	2.82363	0.925968	3.23786			0.719969	2.51527	0.815694	2.8465	0.948847	3.31429		
0.757111	2.63795	0.579063	2.0029	0.757601	2.63787	0.809252	2.82094	0.927801	3.23374			0.721925	2.51392	0.817746	2.84442	0.950342	3.30875		
0.759466	2.63759	0.581062	2.00336	0.759956	2.63752	0.811115	2.81829	0.929635	3.22964			0.72388	2.51258	0.8198	2.84235	0.95184	3.30325		
0.76182	2.63723	0.583061	2.00381	0.762309	2.63716	0.812982	2.81566	0.931471	3.22558			0.725835	2.51124	0.821856	2.8403	0.953342	3.2978		
0.764172	2.63687	0.585059	2.00426	0.764661	2.63679	0.814852	2.81306	0.933308	3.22155			0.72779	2.50992	0.823913	2.83827	0.954847	3.29239		
0.766522	2.6365	0.587058	2.00471	0.76701	2.63643	0.816726	2.81049	0.935147	3.21755			0.729744	2.50859	0.825972	2.83626	0.956356	3.28704		
0.76887	2.63613	0.589055	2.00515	0.769358	2.63605	0.818603	2.80794	0.936987	3.21358			0.731697	2.50728	0.828033	2.83427	0.957868	3.28172		
0.771216	2.63576	0.591053	2.00559	0.771704	2.63568	0.820484	2.80543	0.938828	3.20963			0.73365	2.50597	0.830095	2.8323	0.959384	3.27646		
0.77356	2.63537	0.59305	2.00603	0.774047	2.6353	0.822369	2.80294	0.94067	3.20572			0.735603	2.50467	0.832159	2.83034	0.960903	3.27124		
0.775902	2.63499	0.595047	2.00646	0.776388	2.63491	0.824257	2.80049	0.942514	3.20184			0.737555	2.50337	0.834224	2.8284	0.962426	3.26606		
0.778241	2.6346	0.597044	2.00689	0.778728	2.63452	0.826149	2.79806	0.944359	3.19799			0.739506	2.50209	0.836291	2.82648	0.963952	3.26093		
0.780579	2.6342	0.59904	2.00731	0.781064	2.63412	0.828045	2.79566	0.946206	3.19416			0.741458	2.5008	0.838359	2.82458	0.965481	3.25584		
0.782914	2.6338	0.601036	2.00773	0.783399	2.63372	0.829944	2.79328	0.948053	3.19036			0.743408	2.49953	0.840429	2.82269	0.967014	3.2508		
0.785246	2.63339	0.603032	2.00815	0.785731	2.63331	0.831847	2.79094	0.949902	3.18659			0.745359	2.49826	0.8425	2.82082	0.968551	3.2458		
0.787577	2.63298	0.605028	2.00856	0.788061	2.6329	0.833754	2.78862	0.951752	3.18285			0.747308	2.497	0.844572	2.81896	0.970091	3.24084		
0.789904	2.63256	0.607023	2.00897	0.790388	2.63248	0.835666	2.78633	0.953604	3.17914			0.749258	2.49574	0.846646	2.81712	0.971634	3.23592		
0.792229	2.63214	0.609018	2.00938	0.792713	2.63205	0.837581	2.78406	0.955456	3.17545			0.751207	2.49449	0.848721	2.8153	0.973181	3.23105		
0.794552	2.63171	0.611013	2.00978	0.795035	2.63162	0.8395	2.78183	0.95731	3.17179			0.753156	2.49325	0.850797	2.81349	0.974731	3.22622		
0.796872	2.63127	0.613007	2.01018	0.797354	2.63118	0.841423	2.77962	0.959165	3.16816			0.755104	2.49201	0.852875	2.8117	0.976285	3.22143		
0.799189	2.63083	0.615001	2.01058	0.79967	2.63074	0.843351	2.77744	0.961021	3.16455			0.757052	2.49078	0.854954	2.80992	0.977842	3.21667		
0.801503	2.63038	0.616995	2.01097	0.801984	2.63029	0.845282	2.77528	0.962879	3.16097			0.759	2.48956	0.857034	2.80816	0.979402	3.21196		
0.803814	2.62993	0.618989	2.01136	0.804295	2.62983	0.847218	2.77316	0.964737	3.15741			0.760947	2.48834	0.859115	2.80641	0.980966	3.20729		
0.806123	2.62946	0.620982	2.01175	0.806603	2.62937	0.849158	2.77106	0.966597	3.15388			0.762894	2.48713	0.861197	2.80468	0.982534	3.20266		
0.808428	2.62899	0.622975	2.01213	0.808907	2.6289	0.851103	2.76898	0.968457	3.15037			0.76484	2.48593	0.86328	2.80296	0.984105	3.19807		
0.81073	2.62852	0.624967	2.01251	0.811209	2.62842	0.853052	2.76694	0.970319	3.14689			0.766787	2.48473	0.865365	2.80125	0.985679	3.19351		
0.813029	2.62803	0.62696	2.01289	0.813507	2.62793	0.855005	2.76492	0.972182	3.14344			0.768733	2.48354	0.86745	2.79956	0.987256	3.189		
0.815325	2.62754	0.628952	2.01326	0.815802	2.62744	0.856964	2.76293	0.974046	3.14			0.770678	2.48235	0.869537	2.79788	0.988837	3.18452		
0.817618	2.62704	0.630943	2.01363	0.818094	2.62694	0.858926	2.76096	0.975911	3.1366			0.772624	2.48117	0.871624	2.79621	0.990422	3.18008		
0.819907	2.62653	0.632935	2.014	0.820383	2.62643	0.860894	2.75902	0.977777	3.13321			0.774569	2.48	0.873713	2.79456	0.992009	3.17568		
0.822193	2.62602	0.634926	2.01436	0.822667	2.62591	0.862866	2.75711	0.979644	3.12985			0.776514	2.47883	0.875802	2.79292	0.9936	3.17132		
0.824475	2.62549	0.636917	2.01472	0.824949	2.62538	0.864843	2.75522	0.981512	3.12651			0.778458	2.47767	0.877893	2.79129	0.995195	3.16699		
0.826753	2.62496	0.638908	2.01508	0.827227	2.62485	0.866824	2.75337	0.983381	3.1232			0.780402	2.47651	0.879984	2.78968	0.996793	3.1627		
0.829028	2.62442	0.640898	2.01543	0.829501	2.62431	0.868811	2.75153	0.985251	3.1199			0.782347	2.47536	0.882076	2.78808	0.998394	3.15844		
0.831299	2.62387	0.642888	2.01579	0.831771	2.62375	0.870803	2.74973	0.987122	3.11663			0.78429	2.47422	0.884169	2.78649	0.999999	3.15422		
0.833566	2.62331	0.644878	2.01614	0.834037	2.62319	0.872799	2.74795	0.988995	3.11339			0.786234	2.47308	0.886263	2.78491	1.00161	3.15003		
0.83583	2.62274	0.646867	2.01648	0.8363	2.62263	0.874801	2.74619	0.990868	3.11016			0.788177	2.47195	0.888357	2.78334				
0.838089	2.62217	0.648857	2.01683	0.838559	2.62205	0.876808	2.74447	0.992742	3.10696			0.790121	2.47082	0.890452	2.78178				
0.840345	2.62158	0.650846	2.01717	0.840813	2.62146	0.87882	2.74277	0.994617	3.10377			0.792064	2.46971	0.892548	2.78024				
0.842596	2.62099	0.652834	2.0175	0.843064	2.62086	0.880837	2.74109	0.996493	3.10061			0.794006	2.46859	0.894645	2.77871				
0.844843	2.62039	0.654822	2.01784	0.84531	2.62026	0.88286	2.73944	0.998369	3.09747			0.795949	2.46748	0.896742	2.77718				
0.847086	2.61977	0.656811	2.01817	0.847552	2.61964	0.884888	2.73782	1.00025	3.09436			0.797891	2.46638	0.89884	2.77567				
0.849325	2.61915	0.658798	2.0185	0.84979	2.61902	0.886921	2.73622					0.799834	2.46529	0.900938	2.77417				
0.85156	2.61852	0.660786	2.01883	0.852024	2.61838	0.88896	2.73465					0.801776	2.46419	0.903038	2.77268				
0.85379	2.61787	0.662773	2.01915	0.854253	2.61774	0.891004	2.73311					0.803718	2.46311	0.905137	2.7712				
0.856016	2.61722	0.66476	2.01947	0.856478	2.61709	0.893054	2.73159					0.805659	2.46203	0.907237	2.76973				
0.858237	2.61656	0.666747	2.01979	0.858698	2.61642	0.895109	2.7301					0.807601	2.46096	0.909338	2.76827				
0.860454	2.61589	0.668733	2.02011	0.860914	2.61575	0.89717	2.72863					0.809543	2.45989	0.911439	2.76682				
0.862666	2.61521	0.670719	2.02042	0.863126	2.61506	0.899236	2.72718					0.811484	2.45883	0.913541	2.76537				
0.864874	2.61451	0.672705	2.02073	0.865333	2.61437	0.901309	2.72577					0.813425	2.45777	0.915643	2.76394				
0.867077	2.61381	0.674691	2.02104	0.867535	2.61367	0.903386	2.72437					0.815367	2.45672	0.917745	2.76252				
0.869276	2.6131	0.676676	2.02134	0.869732	2.61295	0.90547	2.72301					0.817308	2.45568	0.919848	2.76111				
0.871469	2.61238	0.678661	2.02165	0.871925	2.61223	0.907559	2.72166					0.819249	2.45464	0.921952	2.7597				
0.873659	2.61165	0.680646	2.02195	0.874113	2.61149	0.909654	2.72034					0.82119	2.4536	0.924055	2.75831				
0.875843	2.61091	0.68263	2.02224	0.876297	2.61075	0.911754	2.71905					0.82313	2.45257	0.926159	2.75692				
0.878023	2.61015	0.684614	2.02254	0.878476	2.61	0.913861	2.71778					0.825071	2.45155	0.928263	2.75554				
0.880198	2.60939	0.686598	2.02283	0.88065	2.60923	0.915973	2.71653					0.827012	2.45053	0.930367	2.75417				
0.882368	2.60862	0.688582	2.02312	0.882819	2.60846	0.91809	2.71531					0.828953	2.44952	0.932472	2.75281				
0.884534	2.60784	0.690565	2.02341	0.884984	2.60768	0.920214	2.71411					0.830893	2.44852	0.934577	2.75145				
0.886695	2.60705	0.692548	2.0237	0.887144	2.60689	0.922343	2.71294					0.832834	2.44751	0.936682	2.75011				
0.888851	2.60625	0.694531	2.02398	0.889299	2.60608	0.924478	2.71179					0.834774	2.44652	0.938787	2.74877				
0.891003	2.60544	0.696513	2.02426	0.89145	2.60527	0.926618	2.71066					0.836715	2.44553	0.940892	2.74744				
0.89315	2.60462	0.698496	2.02454	0.893596	2.60445	0.928764	2.70955					0.838655	2.44454	0.942997	2.74611				
0.895292	2.6038	0.700478	2.02482	0.895737	2.60362	0.930916	2.70847					0.840596	2.44356	0.945103	2.7448				
0.897429	2.60296	0.702459	2.02509	0.897873	2.60279	0.933073	2.7074					0.842536	2.44259	0.947208	2.74349				
0.899562	2.60212	0.704441	2.02537	0.900005	2.60194	0.935236	2.70636					0.844476	2.44162	0.949314	2.74219				
0.901691	2.60126	0.706422	2.02564	0.902133	2.60108	0.937404	2.70534					0.846417	2.44065	0.95142	2.74089				
0.903815	2.6004	0.708403	2.0259	0.904256	2.60022	0.939578	2.70434					0.848357	2.43969	0.953525	2.73961				
0.905934	2.59953	0.710383	2.02617	0.906374	2.59935	0.941757	2.70337					0.850297	2.43874	0.955631	2.73832				
0.908049	2.59865	0.712364	2.02643	0.908488	2.59847	0.943942	2.70241					0.852238	2.43779	0.957736	2.73705				
0.91016	2.59776	0.714344	2.02669	0.910598	2.59758	0.946131	2.70147					0.854178	2.43685	0.959842	2.73578				
0.912266	2.59687	0.716324	2.02695	0.912703	2.59668	0.948326	2.70056					0.856119	2.43591	0.961947	2.73452				
0.914368	2.59597	0.718303	2.02721	0.914804	2.59578	0.950526	2.69966					0.858059	2.43497	0.964052	2.73327				
0.916465	2.59506	0.720282	2.02746	0.916901	2.59487	0.952731	2.69878					0.86	2.43405	0.966157	2.73202				
0.918559	2.59414	0.722261	2.02772	0.918994	2.59395	0.954942	2.69792					0.86194	2.43312	0.968262	2.73078				
0.920648	2.59322	0.72424	2.02797	0.921083	2.59303	0.957157	2.69708					0.863881	2.4322	0.970367	2.72954				
0.922734	2.59229	0.726219	2.02822	0.923167	2.5921	0.959377	2.69626					0.865822	2.43129	0.972471	2.72831				
0.924815	2.59136	0.728197	2.02846	0.925248	2.59116	0.961602	2.69545					0.867762	2.43038	0.974575	2.72708				
0.926893	2.59042	0.730175	2.02871	0.927324	2.59022	0.963831	2.69466					0.869703	2.42948	0.976679	2.72587				
0.928967	2.58947	0.732153	2.02895	0.929397	2.58927	0.966065	2.69389					0.871644	2.42858	0.978783	2.72465				
0.931037	2.58852	0.73413	2.02919	0.931467	2.58832	0.968304	2.69314					0.873585	2.42768	0.980887	2.72344				
0.933103	2.58756	0.736107	2.02943	0.933532	2.58736	0.970547	2.6924					0.875526	2.42679	0.98299	2.72224				
0.935165	2.58659	0.738084	2.02967	0.935594	2.58639	0.972795	2.69168					0.877467	2.42591	0.985092	2.72104				
0.937225	2.58563	0.740061	2.0299	0.937652	2.58543	0.975047	2.69097					0.879408	2.42503	0.987195	2.71985				
0.93928	2.58465	0.742037	2.03013	0.939707	2.58445	0.977303	2.69028					0.881349	2.42415	0.989297	2.71866				
0.941333	2.58368	0.744013	2.03036	0.941759	2.58347	0.979563	2.6896					0.88329	2.42328	0.991399	2.71748				
0.943382	2.5827	0.745989	2.03059	0.943807	2.58249	0.981827	2.68894					0.885232	2.42242	0.9935	2.7163				
0.945427	2.58171	0.747965	2.03082	0.945853	2.58151	0.984095	2.68829					0.887173	2.42156	0.995601	2.71513				
0.94747	2.58073	0.74994	2.03105	0.947895	2.58052	0.986368	2.68766					0.889115	2.4207	0.997701	2.71396				
0.94951	2.57973	0.751915	2.03127	0.949933	2.57953	0.988644	2.68704					0.891057	2.41985	0.999801	2.7128				
0.951546	2.57874	0.75389	2.03149	0.951969	2.57853	0.990923	2.68643					0.892999	2.419	1.0019	2.71164				
0.95358	2.57774	0.755865	2.03171	0.954002	2.57753	0.993206	2.68584					0.894941	2.41816						
0.955611	2.57674	0.757839	2.03193	0.956033	2.57653	0.995493	2.68526					0.896883	2.41732						
0.957639	2.57574	0.759813	2.03215	0.95806	2.57553	0.997784	2.68469					0.898825	2.41649						
0.959664	2.57474	0.761787	2.03236	0.960085	2.57453	1.00008	2.68413					0.900767	2.41566						
0.961687	2.57373	0.76376	2.03257	0.962107	2.57352							0.90271	2.41483						
0.963707	2.57272	0.765734	2.03279	0.964127	2.57251							0.904652	2.41401						
0.965725	2.57171	0.767707	2.03299	0.966144	2.5715							0.906595	2.4132						
0.96774	2.5707	0.769679	2.0332	0.968159	2.57049							0.908538	2.41239						
0.969753	2.56969	0.771652	2.03341	0.970172	2.56948							0.910481	2.41158						
0.971764	2.56867	0.773624	2.03361	0.972182	2.56846							0.912424	2.41078						
0.973773	2.56766	0.775596	2.03382	0.97419	2.56745							0.914367	2.40998						
0.975779	2.56664	0.777568	2.03402	0.976196	2.56643							0.916311	2.40919						
0.977783	2.56563	0.77954	2.03422	0.9782	2.56542							0.918254	2.4084						
0.979786	2.56461	0.781511	2.03441	0.980202	2.5644							0.920198	2.40761						
0.981786	2.5636	0.783482	2.03461	0.982202	2.56339							0.922142	2.40683						
0.983785	2.56258	0.785453	2.03481	0.9842	2.56237							0.924086	2.40605						
0.985782	2.56157	0.787423	2.035	0.986197	2.56136							0.926031	2.40528						
0.987777	2.56055	0.789394	2.03519	0.988191	2.56034							0.927975	2.40451						
0.98977	2.55954	0.791364	2.03538	0.990184	2.55933							0.92992	2.40375						
0.991762	2.55852	0.793334	2.03557	0.992176	2.55831							0.931865	2.40299						
0.993752	2.55751	0.795303	2.03576	0.994166	2.5573							0.93381	2.40223						
0.995741	2.5565	0.797272	2.03594	0.996154	2.55629							0.935755	2.40148						
0.997728	2.55549	0.799242	2.03613	0.998141	2.55528							0.9377	2.40073						
0.999714	2.55448	0.80121	2.03631	1.00013	2.55427							0.939646	2.39999						
1.0017	2.55347	0.803179	2.03649									0.941591	2.39925						
		0.805147	2.03667									0.943537	2.39852						
		0.807116	2.03685									0.945484	2.39778						
		0.809083	2.03702									0.94743	2.39706						
		0.811051	2.0372									0.949376	2.39633						
		0.813019	2.03737									0.951323	2.39561						
		0.814986	2.03754									0.95327	2.3949						
		0.816953	2.03772									0.955217	2.39418						
		0.818919	2.03789									0.957165	2.39348						
		0.820886	2.03805									0.959112	2.39277						
		0.822852	2.03822									0.96106	2.39207						
		0.824818	2.03839									0.963008	2.39137						
		0.826784	2.03855									0.964956	2.39068						
		0.828749	2.03871									0.966905	2.38999						
		0.830715	2.03888									0.968854	2.3893						
		0.83268	2.03904									0.970802	2.38862						
		0.834645	2.03919									0.972752	2.38794						
		0.836609	2.03935									0.974701	2.38727						
		0.838574	2.03951									0.976651	2.3866						
		0.840538	2.03966									0.9786	2.38593						
		0.842502	2.03982									0.98055	2.38527						
		0.844465	2.03997									0.982501	2.38461						
		0.846429	2.04012									0.984451	2.38395						
		0.848392	2.04027									0.986402	2.3833						
		0.850355	2.04042									0.988353	2.38265						
		0.852318	2.04057									0.990304	2.382						
		0.854281	2.04072									0.992256	2.38136						
		0.856243	2.04086									0.994208	2.38072						
		0.858205	2.04101									0.996159	2.38008						
		0.860167	2.04115									0.998112	2.37945						
		0.862129	2.04129									1.00006	2.37882						
		0.86409	2.04143																
		0.866052	2.04157																
		0.868013	2.04171																
		0.869973	2.04185																
		0.871934	2.04198																
		0.873894	2.04212																
		0.875855	2.04225																
		0.877815	2.04239																
		0.879774	2.04252																
		0.881734	2.04265																
		0.883693	2.04278																
		0.885652	2.04291																
		0.887611	2.04304																
		0.88957	2.04316																
		0.891529	2.04329																
		0.893487	2.04341																
		0.895445	2.04354																
		0.897403	2.04366																
		0.89936	2.04378																
		0.901318	2.0439																
		0.903275	2.04402																
		0.905232	2.04414																
		0.907189	2.04426																
		0.909146	2.04438																
		0.911102	2.04449																
		0.913058	2.04461																
		0.915014	2.04472																
		0.91697	2.04484																
		0.918926	2.04495																
		0.920881	2.04506																
		0.922837	2.04517																
		0.924792	2.04528																
		0.926746	2.04539																
		0.928701	2.0455																
		0.930656	2.0456																
		0.93261	2.04571																
		0.934564	2.04581																
		0.936518	2.04592																
		0.938471	2.04602																
		0.940425	2.04613																
		0.942378	2.04623																
		0.944331	2.04633																
		0.946284	2.04643																
		0.948237	2.04653																
		0.95019	2.04663																
		0.952142	2.04672																
		0.954094	2.04682																
		0.956046	2.04692																
		0.957998	2.04701																
		0.959949	2.04711																
		0.961901	2.0472																
		0.963852	2.0473																
		0.965803	2.04739																
		0.967754	2.04748																
		0.969705	2.04757																
		0.971655	2.04766																
		0.973606	2.04775																
		0.975556	2.04784																
		0.977506	2.04793																
		0.979456	2.04801																
		0.981405	2.0481																
		0.983355	2.04819																
		0.985304	2.04827																
		0.987253	2.04836																
		0.989202	2.04844																
		0.991151	2.04852																
		0.9931	2.04861																
		0.995048	2.04869																
		0.996996	2.04877																
		0.998944	2.04885																
		1.00089	2.04893																
