Sym0		Asym0		Sym1		Sym2		Sym3		Sym4		Asym1		Asym2		Asym3		Asym4	
422  Points		527  Points		422  Points		402  Points		350  Points		252  Points		454  Points		398  Points		343  Points		215  Points	
Freq (MHz)	Vph (m/ms)	Freq (MHz)	Vph (m/ms)	Freq (MHz)	Vph (m/ms)	Freq (MHz)	Vph (m/ms)	Freq (MHz)	Vph (m/ms)	Freq (MHz)	Vph (m/ms)	Freq (MHz)	Vph (m/ms)	Freq (MHz)	Vph (m/ms)	Freq (MHz)	Vph (m/ms)	Freq (MHz)	Vph (m/ms)
0.27951	545.888	0.00017934	0.0828453	0.27951	527.675	0.441299	2224.36	0.559017	2244.17	0.838525	12418	0.139763	290.028	0.419267	508.199	0.698772	1255.62	0.8826	1128.97
0.279521	193.611	0.000366409	0.118332	0.279521	191.27	0.441308	390.507	0.559026	473.433	0.838529	839.183	0.139832	98.9196	0.419284	238.677	0.698779	469.543	0.882608	515.099
0.279542	117.681	0.000618953	0.153657	0.279543	116.812	0.441328	214.051	0.559046	264.639	0.838538	434.27	0.139968	59.6804	0.419311	155.971	0.698791	288.768	0.882622	333.673
0.279574	84.5372	0.000936259	0.188768	0.279575	84.0881	0.441359	147.44	0.559077	183.654	0.838553	292.933	0.14017	42.7741	0.419351	115.84	0.69881	208.5	0.882641	246.764
0.279617	65.9658	0.00131744	0.223616	0.279617	65.6921	0.441403	112.454	0.559119	140.628	0.838574	221.009	0.140439	33.3689	0.419402	92.1401	0.698835	163.153	0.882666	195.776
0.279669	54.0894	0.00176141	0.258149	0.27967	53.9053	0.441458	90.8935	0.559172	113.941	0.838601	177.444	0.140773	27.3858	0.419465	76.4961	0.698865	134.011	0.882697	162.253
0.279732	45.8412	0.00226708	0.292341	0.279734	45.7091	0.441525	76.2754	0.559236	95.7716	0.838633	148.229	0.141172	23.2494	0.41954	65.398	0.698902	113.704	0.882734	138.534
0.279806	39.7797	0.00283311	0.326147	0.279807	39.6802	0.441603	65.7122	0.559311	82.6044	0.838672	127.276	0.141634	20.2226	0.419626	57.1163	0.698944	98.7435	0.882776	120.868
0.27989	35.1374	0.00345803	0.359525	0.279892	35.0598	0.441693	57.7229	0.559398	72.624	0.838716	111.515	0.142159	17.9144	0.419724	50.7001	0.698993	87.2642	0.882825	107.2
0.279984	31.4685	0.00414039	0.392453	0.279986	31.4063	0.441795	51.4694	0.559496	64.7988	0.838766	99.2296	0.142745	16.0981	0.419833	45.5832	0.699047	78.1777	0.882879	96.3102
0.280089	28.4963	0.00487854	0.424897	0.280091	28.4453	0.441909	46.4417	0.559604	58.499	0.838822	89.384	0.14339	14.6333	0.419955	41.4077	0.699108	70.8067	0.882939	87.4307
0.280204	26.0397	0.00567083	0.456831	0.280207	25.9972	0.442034	42.3119	0.559724	53.3185	0.838884	81.3174	0.144093	13.4283	0.420088	37.9358	0.699174	64.7074	0.883005	80.0517
0.28033	23.9755	0.00651556	0.488236	0.280332	23.9395	0.44217	38.8594	0.559855	48.9836	0.838951	74.5876	0.144853	12.4206	0.420232	35.0037	0.699246	59.577	0.883076	73.8227
0.280466	22.2168	0.00741101	0.519095	0.280469	22.1859	0.442319	35.9304	0.559997	45.3031	0.839025	68.8879	0.145667	11.5664	0.420388	32.4949	0.699325	55.2016	0.883153	68.4944
0.280612	20.7006	0.00835534	0.549386	0.280615	20.6739	0.442479	33.4145	0.560151	42.1393	0.839104	63.9988	0.146534	10.8338	0.420556	30.324	0.699409	51.4262	0.883236	63.8846
0.280769	19.3802	0.00934679	0.579101	0.280772	19.3568	0.44265	31.2301	0.560315	39.3908	0.839189	59.7588	0.147332	10.2759	0.420735	28.4272	0.6995	48.1353	0.883325	59.8572
0.280937	18.22	0.0103836	0.608231	0.28094	18.1993	0.442833	29.316	0.56049	36.9809	0.83928	56.0467	0.148041	9.84996	0.420926	26.7558	0.699596	45.2414	0.88342	56.3086
0.281114	17.1926	0.0114641	0.636767	0.281118	17.1743	0.443028	27.625	0.560676	34.8508	0.839377	52.77	0.148649	9.52755	0.421128	25.272	0.699698	42.6767	0.88352	53.1582
0.281302	16.2767	0.0125863	0.664703	0.281306	16.2603	0.443234	26.1204	0.560874	32.9546	0.83948	49.8561	0.149141	9.28968	0.421342	23.946	0.699807	40.3882	0.883627	50.3425
0.281501	15.455	0.0137487	0.69204	0.281504	15.4402	0.443452	24.773	0.561082	31.2558	0.839588	47.2482	0.149511	9.12358	0.421568	22.754	0.699921	38.3335	0.883739	47.8111
0.281709	14.7138	0.0149495	0.718771	0.281713	14.7004	0.443681	23.5596	0.561302	29.7252	0.839702	44.9004	0.14975	9.02096	0.421805	21.6767	0.700041	36.4787	0.883856	45.5228
0.281928	14.0419	0.0161871	0.744908	0.281933	14.0298	0.443921	22.4611	0.561532	28.3392	0.839822	42.7758	0.150098	8.87822	0.422054	20.6984	0.700167	34.7959	0.88398	43.4444
0.282158	13.4301	0.0174599	0.770445	0.282162	13.4191	0.444173	21.4621	0.561773	27.0781	0.839948	40.8439	0.150482	8.72913	0.422314	19.8062	0.7003	33.2624	0.884109	41.5483
0.282398	12.8708	0.0187663	0.795393	0.282402	12.8606	0.444437	20.5497	0.562026	25.926	0.84008	39.0798	0.151014	8.53588	0.422585	18.9892	0.700438	31.8591	0.884244	39.8115
0.282648	12.3574	0.0201049	0.819757	0.282653	12.3481	0.444712	19.7132	0.562289	24.8693	0.840217	37.4625	0.1517	8.30598	0.422868	18.2383	0.700582	30.5701	0.884385	38.2148
0.282908	11.8847	0.0214742	0.843544	0.282913	11.8761	0.444998	18.9435	0.562563	23.8967	0.840361	35.9745	0.152552	8.04764	0.423162	17.5459	0.700732	29.3822	0.884532	36.742
0.283179	11.448	0.0228728	0.866759	0.283184	11.4401	0.445295	18.233	0.562848	22.9986	0.84051	34.6009	0.153579	7.7691	0.423468	16.9055	0.700888	28.2838	0.884684	35.3791
0.28346	11.0434	0.0242993	0.889417	0.283466	11.036	0.445604	17.5752	0.563144	22.1668	0.840665	33.3289	0.154796	7.47816	0.423785	16.3115	0.70105	27.2652	0.884842	34.1143
0.283752	10.6676	0.0257525	0.911522	0.283757	10.6607	0.445924	16.9644	0.563451	21.3943	0.840826	32.1478	0.15605	7.21404	0.424113	15.759	0.701218	26.3181	0.885006	32.9375
0.284054	10.3175	0.0272312	0.933088	0.284059	10.3111	0.446256	16.3959	0.563769	20.6749	0.840992	31.0482	0.15734	6.97334	0.424453	15.2439	0.701392	25.4352	0.885175	31.8398
0.284366	9.99075	0.0287341	0.954125	0.284331	10.0255	0.446598	15.8654	0.564097	20.0035	0.841165	30.0219	0.158665	6.7532	0.424804	14.7625	0.701572	24.6102	0.885351	30.8134
0.284688	9.68505	0.0302601	0.974646	0.284568	9.79484	0.446952	15.3692	0.564436	19.3754	0.841343	29.0619	0.160023	6.55121	0.425167	14.3117	0.701758	23.8376	0.885532	29.8517
0.28502	9.39846	0.0318083	0.994661	0.284769	9.6124	0.447317	14.9043	0.564786	18.7865	0.841527	28.1619	0.161413	6.36532	0.42554	13.8887	0.701949	23.1127	0.885718	28.9488
0.285363	9.1293	0.0333774	1.01418	0.284931	9.47314	0.447693	14.4677	0.565147	18.2335	0.841716	27.3165	0.162833	6.19375	0.425925	13.491	0.702147	22.4311	0.885911	28.0994
0.285716	8.87602	0.0349666	1.03322	0.285051	9.37344	0.44808	14.057	0.565519	17.713	0.841912	26.521	0.164282	6.03499	0.426321	13.1165	0.702351	21.789	0.886109	27.299
0.28608	8.63731	0.0365749	1.05179	0.285129	9.31079	0.448479	13.6699	0.565901	17.2224	0.842113	25.7709	0.165759	5.88773	0.426728	12.7632	0.70256	21.1832	0.886313	26.5434
0.286453	8.41196	0.0382015	1.0699	0.285241	9.22228	0.448888	13.3046	0.566294	16.7591	0.84232	25.0627	0.167262	5.75081	0.427147	12.4293	0.702776	20.6107	0.886523	25.829
0.286837	8.19891	0.0398455	1.08756	0.285365	9.12807	0.449308	12.9592	0.566697	16.3211	0.842533	24.3928	0.16879	5.62322	0.427576	12.1134	0.702997	20.0689	0.886738	25.1525
0.287231	7.99719	0.0415061	1.10479	0.285535	9.00319	0.449739	12.6321	0.567111	15.9062	0.842752	23.7583	0.170343	5.5041	0.428017	11.8141	0.703225	19.5552	0.886959	24.511
0.287635	7.80595	0.0431825	1.1216	0.285754	8.85038	0.450182	12.3221	0.567536	15.5127	0.842976	23.1564	0.171918	5.39266	0.428468	11.53	0.703458	19.0677	0.887186	23.9018
0.288049	7.62441	0.044874	1.13799	0.286023	8.67282	0.450635	12.0278	0.567971	15.1391	0.843206	22.5847	0.173516	5.28822	0.428931	11.2602	0.703697	18.6044	0.887418	23.3227
0.288473	7.45187	0.0465799	1.15399	0.286347	8.47401	0.451098	11.748	0.568417	14.7838	0.843442	22.041	0.175134	5.19018	0.429404	11.0035	0.703942	18.1634	0.887656	22.7713
0.288908	7.2877	0.0482997	1.1696	0.286728	8.2576	0.451573	11.4818	0.568873	14.4456	0.843684	21.5233	0.176773	5.09798	0.429889	10.759	0.704193	17.7434	0.8879	22.2459
0.289353	7.13132	0.0500325	1.18483	0.287119	8.05279	0.452058	11.2281	0.56934	14.1233	0.843931	21.0297	0.17843	5.01113	0.430384	10.526	0.70445	17.3427	0.888149	21.7446
0.289808	6.9822	0.0517779	1.19969	0.28752	7.85868	0.452554	10.9862	0.569817	13.8159	0.844184	20.5587	0.180107	4.92923	0.430891	10.3036	0.704713	16.9602	0.888404	21.2657
0.290272	6.83987	0.0535353	1.2142	0.287931	7.67449	0.453061	10.7552	0.570305	13.5222	0.844443	20.1088	0.1818	4.85186	0.431341	10.1179	0.704982	16.5945	0.888665	20.8079
0.290748	6.70389	0.0553042	1.22836	0.288353	7.49949	0.453578	10.5345	0.570803	13.2415	0.844708	19.6785	0.18351	4.77868	0.431731	9.96526	0.705256	16.2447	0.888932	20.3698
0.291233	6.57385	0.057084	1.24219	0.288785	7.33303	0.454106	10.3234	0.571311	12.9729	0.844978	19.2666	0.185237	4.70938	0.432058	9.84278	0.705537	15.9098	0.889204	19.9501
0.291728	6.44939	0.0588743	1.25569	0.289227	7.17451	0.454575	10.1468	0.57183	12.7157	0.845254	18.872	0.186978	4.64366	0.43232	9.74824	0.705823	15.5887	0.889481	19.5477
0.292233	6.33018	0.0606746	1.26887	0.289679	7.0234	0.454981	10.0013	0.572358	12.4691	0.845536	18.4936	0.188734	4.58127	0.432514	9.67999	0.706115	15.2807	0.889764	19.1616
0.292748	6.21589	0.0624845	1.28175	0.290141	6.87921	0.455321	9.88443	0.572898	12.2326	0.845824	18.1304	0.190505	4.52197	0.432639	9.63685	0.706413	14.985	0.890053	18.7908
0.293274	6.10625	0.0643035	1.29432	0.290613	6.74148	0.455592	9.79411	0.573447	12.0055	0.846117	17.7816	0.192288	4.46555	0.432819	9.57558	0.706717	14.7009	0.890348	18.4344
0.293809	6.00098	0.0661313	1.30661	0.291095	6.60981	0.455793	9.72884	0.574006	11.7872	0.846416	17.4462	0.194085	4.41181	0.433016	9.50994	0.707027	14.4278	0.890648	18.0916
0.294355	5.89985	0.0679675	1.31862	0.291588	6.48383	0.455923	9.68757	0.574576	11.5774	0.84672	17.1237	0.195893	4.36058	0.433287	9.42224	0.707343	14.1649	0.890954	17.7617
0.29491	5.80262	0.0698117	1.33035	0.29209	6.36317	0.45611	9.62891	0.575156	11.3756	0.847031	16.8132	0.197714	4.31168	0.433633	9.31384	0.707665	13.9118	0.891265	17.4439
0.295475	5.70909	0.0716637	1.34182	0.292603	6.24753	0.456314	9.56603	0.575746	11.1812	0.847347	16.514	0.199546	4.26497	0.434057	9.18638	0.707992	13.6679	0.891582	17.1376
0.29605	5.61905	0.073523	1.35303	0.293125	6.13661	0.456595	9.48196	0.576346	10.9939	0.847668	16.2257	0.201389	4.22032	0.434561	9.0417	0.708325	13.4327	0.891905	16.8422
0.296636	5.53233	0.0753893	1.36398	0.293658	6.03014	0.456953	9.37794	0.576955	10.8134	0.847996	15.9475	0.203242	4.17758	0.435151	8.88178	0.708665	13.2058	0.892233	16.5571
0.297231	5.44875	0.0772624	1.3747	0.2942	5.92787	0.457391	9.25547	0.577575	10.6392	0.848329	15.6791	0.205105	4.13666	0.43575	8.72803	0.70901	12.9868	0.892566	16.2817
0.297836	5.36815	0.0791421	1.38518	0.294753	5.82956	0.457913	9.11624	0.578205	10.4711	0.848667	15.4198	0.206977	4.09743	0.43636	8.58014	0.70936	12.7752	0.892906	16.0157
0.298451	5.2904	0.0810279	1.39543	0.295315	5.73501	0.45852	8.96211	0.578761	10.3293	0.849012	15.1693	0.208859	4.0598	0.436981	8.43776	0.709717	12.5707	0.893251	15.7586
0.299076	5.21535	0.0829198	1.40546	0.295888	5.64401	0.459138	8.81368	0.579242	10.2117	0.849362	14.927	0.21075	4.02368	0.437612	8.30061	0.710079	12.3729	0.893601	15.5098
0.299711	5.14286	0.0848173	1.41528	0.29647	5.55637	0.459766	8.67067	0.579643	10.1167	0.849717	14.6927	0.212649	3.98898	0.438253	8.16843	0.710448	12.1816	0.893957	15.2691
0.300356	5.07282	0.0867204	1.42488	0.297063	5.47193	0.460405	8.53277	0.579964	10.043	0.850079	14.4659	0.214556	3.95563	0.438905	8.04094	0.710822	11.9963	0.894318	15.036
0.30101	5.00512	0.0886287	1.43428	0.297665	5.39051	0.461053	8.39975	0.5802	9.98955	0.850446	14.2463	0.216471	3.92354	0.439567	7.91792	0.711202	11.8169	0.894685	14.8102
0.301675	4.93964	0.0905421	1.44348	0.298277	5.31197	0.461711	8.27134	0.580353	9.95567	0.850818	14.0335	0.218393	3.89265	0.44024	7.79914	0.711587	11.6431	0.895057	14.5913
0.302349	4.87629	0.0924604	1.45249	0.2989	5.23617	0.462379	8.14732	0.580572	9.9074	0.851196	13.8272	0.220323	3.86289	0.440922	7.6844	0.711979	11.4746	0.895435	14.379
0.303033	4.81498	0.0943833	1.46131	0.299532	5.16298	0.463057	8.02748	0.580812	9.85554	0.85158	13.6272	0.22226	3.83422	0.441615	7.5735	0.712376	11.3111	0.895819	14.1731
0.303727	4.7556	0.0963107	1.46994	0.300174	5.09226	0.463745	7.91161	0.58114	9.78596	0.851969	13.4332	0.224203	3.80656	0.442318	7.46626	0.712779	11.1525	0.896208	13.9733
0.30434	4.70538	0.0982425	1.4784	0.300825	5.02392	0.464442	7.79954	0.581559	9.69953	0.852364	13.2448	0.226153	3.77988	0.443032	7.36251	0.713188	10.9986	0.896602	13.7793
0.304868	4.66364	0.100178	1.48669	0.301487	4.95782	0.465149	7.69108	0.58207	9.59727	0.852765	13.062	0.228109	3.75411	0.443755	7.26209	0.713603	10.8491	0.897002	13.5908
0.305309	4.62985	0.102118	1.49481	0.302159	4.89389	0.465866	7.58607	0.582676	9.48035	0.853171	12.8843	0.230072	3.72922	0.444488	7.16485	0.714023	10.7039	0.897407	13.4077
0.305661	4.60359	0.104062	1.50277	0.30284	4.83201	0.466593	7.48435	0.583381	9.35008	0.853583	12.7117	0.232039	3.70516	0.445232	7.07064	0.714394	10.5807	0.897818	13.2297
0.30592	4.58453	0.106009	1.51057	0.303531	4.7721	0.467329	7.38578	0.584095	9.22379	0.854	12.5438	0.234013	3.6819	0.445985	6.97934	0.714714	10.478	0.898234	13.0566
0.306087	4.57243	0.10796	1.51821	0.304232	4.71407	0.468074	7.29021	0.584819	9.10131	0.854423	12.3806	0.235991	3.65939	0.446748	6.89081	0.714981	10.3947	0.898656	12.8882
0.306328	4.5552	0.109915	1.5257	0.304943	4.65784	0.468829	7.19753	0.585552	8.98248	0.854851	12.2218	0.237975	3.6376	0.447521	6.80494	0.715193	10.3298	0.899083	12.7243
0.306591	4.53666	0.111872	1.53305	0.305664	4.60334	0.469594	7.1076	0.586295	8.86714	0.855285	12.0673	0.239964	3.6165	0.448304	6.72162	0.71535	10.2827	0.899515	12.5647
0.306951	4.51177	0.113833	1.54025	0.306395	4.55049	0.470367	7.02031	0.587047	8.75514	0.855725	11.9168	0.241958	3.59605	0.449097	6.64074	0.715451	10.2527	0.899953	12.4093
0.307409	4.48081	0.115544	1.54642	0.307135	4.49923	0.47115	6.93555	0.587808	8.64636	0.85617	11.7703	0.243956	3.57623	0.449899	6.5622	0.715597	10.21	0.900396	12.258
0.307968	4.44413	0.117004	1.55159	0.307885	4.44949	0.471942	6.85322	0.588579	8.54064	0.85662	11.6276	0.245959	3.55701	0.450711	6.4859	0.715756	10.164	0.900845	12.1105
0.308631	4.40211	0.118213	1.55581	0.308645	4.40121	0.472744	6.77322	0.589359	8.43789	0.857076	11.4885	0.247966	3.53836	0.451533	6.41176	0.715973	10.1022	0.901299	11.9667
0.3094	4.35521	0.11917	1.55912	0.309415	4.35434	0.473554	6.69546	0.590148	8.33796	0.857538	11.3529	0.249978	3.52025	0.452364	6.33969	0.71625	10.0252	0.901758	11.8265
0.310179	4.30966	0.119874	1.56153	0.310194	4.30881	0.474374	6.61984	0.590946	8.24076	0.858005	11.2207	0.251993	3.50268	0.453205	6.26961	0.716588	9.93366	0.902223	11.6897
0.310969	4.26541	0.120324	1.56306	0.310984	4.26458	0.475203	6.54629	0.591753	8.14618	0.858478	11.0917	0.254012	3.48561	0.454056	6.20144	0.716988	9.82859	0.902693	11.5563
0.311768	4.22241	0.120972	1.56525	0.311783	4.22161	0.47604	6.47473	0.59257	8.05412	0.858956	10.9659	0.256035	3.46901	0.454915	6.13512	0.717452	9.71093	0.903168	11.4261
0.312576	4.18061	0.121677	1.56762	0.312592	4.17983	0.476887	6.40507	0.593395	7.96448	0.859377	10.8587	0.258062	3.45288	0.455785	6.07056	0.717922	9.59628	0.903649	11.299
0.313395	4.13997	0.122636	1.57082	0.313411	4.13921	0.477742	6.33726	0.59423	7.87718	0.859739	10.7691	0.260092	3.4372	0.456663	6.00772	0.718398	9.48452	0.904135	11.1749
0.314223	4.10045	0.123849	1.57482	0.314239	4.09971	0.478606	6.27122	0.595073	7.79212	0.860041	10.6962	0.262125	3.42194	0.457551	5.94651	0.71888	9.37555	0.904626	11.0537
0.315062	4.062	0.125318	1.57959	0.315078	4.06128	0.479479	6.20688	0.595926	7.70923	0.860281	10.6393	0.264162	3.40709	0.458448	5.88689	0.719367	9.26928	0.905059	10.9503
0.31591	4.02459	0.127043	1.58511	0.315926	4.02389	0.48036	6.14419	0.596787	7.62843	0.860458	10.5979	0.266202	3.39263	0.459355	5.82879	0.71986	9.1656	0.90543	10.8639
0.316768	3.98818	0.129024	1.59133	0.316784	3.9875	0.48125	6.08308	0.597657	7.54964	0.860572	10.5716	0.268245	3.37855	0.460271	5.77217	0.720359	9.06442	0.90574	10.7935
0.317635	3.95274	0.131008	1.59744	0.317652	3.95208	0.482149	6.0235	0.598536	7.47279	0.860736	10.534	0.270291	3.36483	0.461195	5.71697	0.720863	8.96565	0.905986	10.7385
0.318513	3.91823	0.132994	1.60344	0.31853	3.91759	0.483056	5.9654	0.599423	7.39782	0.860915	10.4934	0.272339	3.35146	0.462129	5.66314	0.721373	8.86922	0.906168	10.6985
0.319401	3.88463	0.134982	1.60933	0.319417	3.884	0.483972	5.90872	0.600319	7.32465	0.86116	10.4388	0.274391	3.33843	0.463072	5.61064	0.721889	8.77504	0.906285	10.673
0.320298	3.85189	0.136972	1.61511	0.320315	3.85128	0.484896	5.85342	0.601224	7.25324	0.861471	10.3706	0.276445	3.32572	0.464024	5.55941	0.72241	8.68304	0.906453	10.6366
0.321205	3.82	0.138963	1.6208	0.321223	3.81941	0.485829	5.79945	0.602137	7.18351	0.861851	10.2895	0.278502	3.31333	0.464985	5.50943	0.722937	8.59314	0.906637	10.5974
0.322123	3.78893	0.140957	1.62638	0.32214	3.78835	0.486769	5.74677	0.603059	7.11542	0.862299	10.196	0.280561	3.30124	0.465955	5.46064	0.723469	8.50528	0.906887	10.5446
0.32305	3.75865	0.142953	1.63186	0.323068	3.75808	0.487718	5.69533	0.60399	7.04891	0.862819	10.091	0.282622	3.28943	0.466933	5.413	0.724008	8.41938	0.907206	10.4785
0.323988	3.72913	0.14495	1.63725	0.324005	3.72858	0.488675	5.64508	0.604928	6.98393	0.863345	9.98829	0.284686	3.27791	0.467921	5.36649	0.724551	8.3354	0.907595	10.3999
0.324935	3.70035	0.146949	1.64254	0.324953	3.69982	0.489641	5.59601	0.605876	6.92042	0.863876	9.88785	0.286753	3.26666	0.468917	5.32105	0.725101	8.25325	0.908054	10.3092
0.325893	3.6723	0.14895	1.64774	0.325911	3.67177	0.490614	5.54805	0.606831	6.85835	0.864412	9.78959	0.288821	3.25566	0.469922	5.27667	0.725656	8.1729	0.908585	10.2073
0.32686	3.64493	0.150952	1.65286	0.326879	3.64442	0.491595	5.50119	0.607795	6.79766	0.864953	9.69345	0.290891	3.24492	0.470936	5.2333	0.726216	8.09427	0.909122	10.1075
0.327838	3.61825	0.152956	1.65788	0.327857	3.61775	0.492585	5.45538	0.608767	6.73832	0.8655	9.59935	0.292964	3.23443	0.471958	5.19092	0.726782	8.01733	0.909664	10.0099
0.328826	3.59221	0.154961	1.66282	0.328845	3.59173	0.493582	5.4106	0.609747	6.68028	0.866053	9.50723	0.295038	3.22416	0.472989	5.14949	0.727354	7.94201	0.910212	9.91426
0.329825	3.56682	0.156967	1.66768	0.329844	3.56634	0.494587	5.36681	0.610735	6.62349	0.86661	9.41703	0.297115	3.21413	0.474028	5.10898	0.727931	7.86827	0.910764	9.82061
0.330834	3.54204	0.158975	1.67246	0.330853	3.54158	0.4956	5.32397	0.611732	6.56794	0.867173	9.32871	0.299193	3.20431	0.475076	5.06937	0.728514	7.79605	0.911322	9.72889
0.331853	3.51786	0.160984	1.67715	0.331872	3.51741	0.496621	5.28207	0.612736	6.51356	0.867742	9.24219	0.301273	3.19471	0.476132	5.03063	0.729102	7.72533	0.911885	9.63902
0.332883	3.49427	0.162995	1.68177	0.332902	3.49382	0.497649	5.24107	0.613749	6.46034	0.868315	9.15743	0.303355	3.18532	0.477197	4.99273	0.729696	7.65604	0.912453	9.55096
0.333923	3.47124	0.165006	1.68632	0.333943	3.47081	0.498685	5.20095	0.614769	6.40824	0.868894	9.07437	0.305438	3.17612	0.47827	4.95565	0.730295	7.58815	0.913026	9.46466
0.334974	3.44876	0.167019	1.69079	0.334994	3.44834	0.499728	5.16167	0.615797	6.35722	0.869479	8.99297	0.307523	3.16711	0.479352	4.91937	0.7309	7.52162	0.913604	9.38006
0.336036	3.42682	0.169033	1.69519	0.336056	3.42641	0.50078	5.12323	0.616834	6.30725	0.870068	8.91317	0.309609	3.1583	0.480442	4.88385	0.731511	7.45641	0.914187	9.29711
0.337108	3.4054	0.171047	1.69951	0.337129	3.405	0.501838	5.08558	0.617877	6.2583	0.870663	8.83494	0.311697	3.14966	0.48154	4.84909	0.732127	7.39248	0.914775	9.21577
0.338192	3.3845	0.173063	1.70377	0.338213	3.3841	0.502904	5.04872	0.618929	6.21035	0.871263	8.75823	0.313786	3.1412	0.482646	4.81505	0.732748	7.3298	0.915369	9.136
0.339286	3.36408	0.17508	1.70796	0.339307	3.3637	0.503977	5.01261	0.619989	6.16336	0.871869	8.683	0.315877	3.13291	0.48376	4.78172	0.733375	7.26833	0.915967	9.05774
0.340392	3.34415	0.177098	1.71208	0.340413	3.34378	0.505058	4.97724	0.621056	6.11731	0.87248	8.6092	0.317969	3.12478	0.484882	4.74908	0.734008	7.20804	0.916571	8.98097
0.341509	3.3247	0.179117	1.71614	0.341531	3.32433	0.506146	4.94258	0.622131	6.07217	0.873096	8.53679	0.320062	3.11681	0.486013	4.71711	0.734645	7.1489	0.917179	8.90563
0.342638	3.3057	0.181136	1.72014	0.342659	3.30534	0.507241	4.90861	0.623213	6.02792	0.873717	8.46574	0.322157	3.109	0.487151	4.68578	0.735289	7.09087	0.917793	8.83169
0.343778	3.28715	0.183157	1.72407	0.343799	3.2868	0.508344	4.87532	0.624303	5.98453	0.874343	8.39602	0.324252	3.10134	0.488297	4.65509	0.735937	7.03392	0.918412	8.75912
0.344929	3.26904	0.185178	1.72794	0.344951	3.2687	0.509453	4.84269	0.6254	5.94198	0.874975	8.32758	0.326349	3.09383	0.489452	4.62502	0.736592	6.97804	0.919035	8.68786
0.346093	3.25136	0.1872	1.73175	0.346115	3.25102	0.51057	4.8107	0.626505	5.90025	0.875612	8.26039	0.328447	3.08645	0.490614	4.59554	0.737251	6.92318	0.919664	8.6179
0.347269	3.23409	0.189223	1.73551	0.347291	3.23377	0.511693	4.77933	0.627617	5.85931	0.876254	8.19443	0.330546	3.07922	0.491784	4.56665	0.737916	6.86933	0.920298	8.5492
0.348456	3.21724	0.191246	1.73921	0.348479	3.21692	0.512824	4.74856	0.628736	5.81914	0.876901	8.12965	0.332645	3.07211	0.492962	4.53832	0.738587	6.81645	0.920936	8.48172
0.349657	3.20079	0.19327	1.74285	0.349679	3.20048	0.513961	4.71839	0.629863	5.77973	0.877554	8.06602	0.334746	3.06514	0.494147	4.51054	0.739263	6.76452	0.92158	8.41544
0.350869	3.18473	0.195295	1.74643	0.350892	3.18443	0.515105	4.68879	0.630997	5.74106	0.878212	8.00353	0.336848	3.0583	0.495341	4.48331	0.739944	6.71352	0.922228	8.35032
0.352095	3.16905	0.197321	1.74997	0.352118	3.16876	0.516256	4.65975	0.632138	5.70309	0.878874	7.94213	0.338951	3.05157	0.496541	4.4566	0.74063	6.66342	0.922882	8.28633
0.353333	3.15375	0.199347	1.75345	0.353357	3.15347	0.517414	4.63125	0.633287	5.66583	0.879542	7.88181	0.341054	3.04497	0.49775	4.43039	0.741322	6.6142	0.92354	8.22345
0.354585	3.13882	0.201374	1.75687	0.354609	3.13854	0.518579	4.60329	0.634442	5.62924	0.880215	7.82253	0.343158	3.03848	0.498966	4.40469	0.74202	6.56584	0.924203	8.16164
0.355851	3.12426	0.203401	1.76025	0.355875	3.12398	0.51975	4.57584	0.635605	5.59332	0.880894	7.76427	0.345263	3.0321	0.50019	4.37947	0.742723	6.51832	0.924871	8.10089
0.35713	3.11004	0.205428	1.76358	0.357154	3.10978	0.520927	4.54889	0.636774	5.55804	0.881577	7.707	0.347369	3.02584	0.501421	4.35473	0.743431	6.47162	0.925544	8.04117
0.358423	3.09618	0.207457	1.76686	0.358447	3.09592	0.522112	4.52244	0.63795	5.52339	0.882266	7.65071	0.349475	3.01968	0.502659	4.33044	0.744144	6.42572	0.926222	7.98244
0.35973	3.08267	0.209485	1.77009	0.359755	3.08241	0.523303	4.49647	0.639134	5.48936	0.882959	7.59535	0.351582	3.01362	0.503905	4.30661	0.744863	6.38059	0.926905	7.92469
0.361052	3.06949	0.211515	1.77328	0.361077	3.06924	0.5245	4.47096	0.640324	5.45592	0.883658	7.54093	0.35369	3.00767	0.505159	4.28322	0.745587	6.33622	0.927592	7.8679
0.362388	3.05664	0.213544	1.77642	0.362414	3.0564	0.525703	4.44592	0.641521	5.42307	0.884362	7.4874	0.355798	3.00181	0.506419	4.26025	0.746316	6.2926	0.928285	7.81203
0.36374	3.04412	0.215574	1.77951	0.363766	3.04388	0.526914	4.42131	0.642725	5.39079	0.88507	7.43476	0.357907	2.99605	0.507687	4.2377	0.747051	6.2497	0.928982	7.75708
0.365107	3.03192	0.217605	1.78257	0.365133	3.03169	0.52813	4.39714	0.643935	5.35906	0.885784	7.38297	0.360016	2.99039	0.508963	4.21556	0.747791	6.2075	0.929684	7.70301
0.36649	3.02004	0.219636	1.78557	0.366517	3.01982	0.529352	4.3734	0.645152	5.32788	0.886503	7.33202	0.362125	2.98481	0.510245	4.19382	0.748536	6.166	0.930391	7.64982
0.367889	3.00847	0.221667	1.78854	0.367916	3.00825	0.530581	4.35006	0.646376	5.29723	0.887227	7.2819	0.364236	2.97932	0.511535	4.17247	0.749287	6.12517	0.931102	7.59747
0.369305	2.99721	0.223698	1.79146	0.369332	2.997	0.531816	4.32714	0.647607	5.26709	0.887956	7.23258	0.366346	2.97392	0.512831	4.1515	0.750042	6.08501	0.931819	7.54594
0.370737	2.98626	0.22573	1.79435	0.370765	2.98605	0.533058	4.3046	0.648844	5.23747	0.88869	7.18404	0.368457	2.96861	0.514135	4.1309	0.750803	6.04548	0.93254	7.49523
0.372187	2.9756	0.227762	1.79719	0.372215	2.9754	0.534305	4.28245	0.650087	5.20833	0.889429	7.13626	0.370568	2.96337	0.515446	4.11066	0.75157	6.00659	0.933265	7.44531
0.373654	2.96524	0.229795	1.8	0.373682	2.96505	0.535558	4.26068	0.651337	5.17968	0.890173	7.08924	0.37268	2.95822	0.516764	4.09077	0.752341	5.96832	0.933996	7.39617
0.375139	2.95517	0.231828	1.80276	0.375167	2.95499	0.536817	4.23928	0.652593	5.1515	0.890922	7.04294	0.374792	2.95314	0.518089	4.07123	0.753118	5.93064	0.934731	7.34778
0.376642	2.9454	0.233861	1.80549	0.37667	2.94521	0.538082	4.21823	0.653856	5.12379	0.891676	6.99737	0.376904	2.94814	0.519421	4.05203	0.7539	5.89356	0.935471	7.30013
0.378163	2.9359	0.235894	1.80818	0.378192	2.93573	0.539354	4.19754	0.655125	5.09652	0.892435	6.95249	0.379016	2.94321	0.52076	4.03316	0.754687	5.85705	0.936216	7.2532
0.379704	2.92669	0.237928	1.81084	0.379733	2.92652	0.540631	4.17719	0.6564	5.0697	0.893199	6.9083	0.381128	2.93836	0.522105	4.01462	0.755479	5.82111	0.936965	7.20699
0.381263	2.91776	0.239961	1.81346	0.381293	2.91759	0.541913	4.15717	0.657681	5.0433	0.893968	6.86478	0.383241	2.93357	0.523458	3.99639	0.756276	5.78572	0.937719	7.16146
0.382842	2.9091	0.241995	1.81604	0.382872	2.90894	0.543202	4.13749	0.658969	5.01733	0.894742	6.82191	0.385354	2.92886	0.524817	3.97846	0.757079	5.75087	0.938478	7.11662
0.384441	2.90071	0.244029	1.81859	0.384471	2.90056	0.544496	4.11812	0.660263	4.99177	0.89552	6.77969	0.387467	2.92421	0.526183	3.96084	0.757887	5.71655	0.939241	7.07244
0.38606	2.89259	0.246064	1.82111	0.386091	2.89244	0.545796	4.09907	0.661563	4.96661	0.896304	6.73809	0.38958	2.91963	0.527556	3.94352	0.7587	5.68274	0.940009	7.02891
0.387699	2.88474	0.248098	1.82359	0.38773	2.88459	0.547101	4.08032	0.662869	4.94185	0.897092	6.69711	0.391693	2.91511	0.528935	3.92648	0.759518	5.64945	0.940781	6.98602
0.389358	2.87714	0.250133	1.82604	0.38939	2.877	0.548413	4.06187	0.66418	4.91747	0.897886	6.65673	0.393806	2.91065	0.530321	3.90973	0.760341	5.61665	0.941558	6.94375
0.391038	2.86979	0.252167	1.82846	0.39107	2.86966	0.549729	4.04372	0.665498	4.89348	0.898684	6.61695	0.395919	2.90626	0.531714	3.89326	0.761169	5.58433	0.94234	6.90209
0.392739	2.8627	0.254202	1.83084	0.392772	2.86257	0.551051	4.02586	0.666822	4.86985	0.899487	6.57774	0.398032	2.90192	0.533113	3.87705	0.762003	5.55249	0.943126	6.86102
0.394461	2.85586	0.256237	1.8332	0.394494	2.85573	0.552379	4.00827	0.668152	4.84658	0.900295	6.53909	0.400145	2.89765	0.534519	3.86112	0.762841	5.52112	0.943917	6.82055
0.396204	2.84926	0.258272	1.83552	0.396237	2.84913	0.553712	3.99096	0.669487	4.82367	0.901108	6.501	0.402258	2.89343	0.535931	3.84544	0.763685	5.4902	0.944712	6.78065
0.397967	2.84289	0.260308	1.83782	0.398001	2.84278	0.555051	3.97393	0.670829	4.8011	0.901925	6.46346	0.404371	2.88926	0.53735	3.83001	0.764533	5.45973	0.945512	6.74131
0.399752	2.83676	0.262343	1.84008	0.399786	2.83665	0.556394	3.95715	0.672176	4.77888	0.902748	6.42644	0.406484	2.88515	0.538775	3.81484	0.765387	5.4297	0.946317	6.70252
0.401558	2.83086	0.264378	1.84232	0.401592	2.83075	0.557744	3.94063	0.673528	4.75699	0.903575	6.38995	0.408597	2.88109	0.540207	3.79991	0.766246	5.4001	0.947125	6.66427
0.403384	2.82518	0.266414	1.84453	0.403419	2.82507	0.559098	3.92437	0.674887	4.73542	0.904407	6.35397	0.410709	2.87709	0.541645	3.78522	0.76711	5.37093	0.947939	6.62655
0.405231	2.81972	0.268449	1.84671	0.405267	2.81961	0.560457	3.90835	0.676251	4.71417	0.905244	6.31849	0.412821	2.87313	0.543089	3.77076	0.767978	5.34216	0.948757	6.58935
0.407099	2.81446	0.270485	1.84886	0.407134	2.81437	0.561822	3.89258	0.677621	4.69324	0.906085	6.2835	0.414933	2.86922	0.54454	3.75653	0.768852	5.3138	0.949579	6.55266
0.408987	2.80942	0.27252	1.85099	0.409023	2.80933	0.563192	3.87704	0.678996	4.67261	0.906932	6.24899	0.417045	2.86537	0.545997	3.74253	0.769731	5.28584	0.950406	6.51647
0.410894	2.80457	0.274556	1.85309	0.410931	2.80448	0.564567	3.86174	0.680376	4.65228	0.907783	6.21496	0.419157	2.86156	0.54746	3.72874	0.770615	5.25826	0.951237	6.48077
0.412821	2.79992	0.276592	1.85516	0.412858	2.79984	0.565947	3.84667	0.681763	4.63225	0.908639	6.18139	0.421268	2.85779	0.548929	3.71517	0.771504	5.23107	0.952072	6.44555
0.414768	2.79546	0.278627	1.85721	0.414805	2.79538	0.567332	3.83181	0.683154	4.61251	0.909499	6.14828	0.423379	2.85407	0.550405	3.70182	0.772397	5.20426	0.952912	6.4108
0.416733	2.79118	0.280663	1.85923	0.416771	2.7911	0.568722	3.81718	0.684551	4.59304	0.910365	6.11561	0.425489	2.8504	0.551887	3.68867	0.773296	5.17781	0.953757	6.37651
0.418717	2.78707	0.282698	1.86123	0.418755	2.787	0.570117	3.80276	0.685953	4.57386	0.911235	6.08338	0.4276	2.84677	0.553374	3.67572	0.7742	5.15172	0.954605	6.34267
0.420719	2.78314	0.284734	1.8632	0.420757	2.78306	0.571517	3.78856	0.687361	4.55495	0.912109	6.05158	0.42971	2.84318	0.554868	3.66298	0.775109	5.12599	0.955458	6.30929
0.422738	2.77937	0.28677	1.86515	0.422777	2.7793	0.572922	3.77456	0.688774	4.5363	0.912989	6.0202	0.431819	2.83963	0.556368	3.65043	0.776022	5.1006	0.956316	6.27633
0.424774	2.77575	0.288805	1.86708	0.424813	2.77568	0.574332	3.76076	0.690192	4.51792	0.913873	5.98923	0.433928	2.83612	0.557874	3.63807	0.776941	5.07556	0.957178	6.24381
0.426827	2.77229	0.290841	1.86898	0.426866	2.77222	0.575746	3.74716	0.691615	4.49979	0.914761	5.95867	0.436037	2.83266	0.559386	3.6259	0.777864	5.05085	0.958044	6.21171
0.428896	2.76897	0.292876	1.87086	0.428935	2.7689	0.577165	3.73376	0.693043	4.48192	0.915655	5.92851	0.438145	2.82923	0.560904	3.61391	0.778792	5.02647	0.958914	6.18002
0.43098	2.76579	0.294912	1.87271	0.43102	2.76573	0.578589	3.72054	0.694477	4.46429	0.916553	5.89874	0.440253	2.82584	0.562428	3.60211	0.779726	5.00241	0.959789	6.14874
0.433079	2.76274	0.296947	1.87455	0.433119	2.76268	0.580018	3.70752	0.695915	4.4469	0.917455	5.86936	0.44236	2.82248	0.563958	3.59048	0.780664	4.97867	0.960668	6.11785
0.435193	2.75982	0.298982	1.87636	0.435233	2.75976	0.581451	3.69468	0.697359	4.42975	0.918363	5.84035	0.444467	2.81917	0.565493	3.57903	0.781607	4.95524	0.961551	6.08736
0.43732	2.75702	0.301018	1.87815	0.437361	2.75697	0.582889	3.68202	0.698807	4.41284	0.919274	5.81171	0.446573	2.81589	0.567035	3.56775	0.782554	4.93211	0.962439	6.05725
0.439461	2.75434	0.303053	1.87992	0.439502	2.75429	0.584331	3.66953	0.70026	4.39615	0.920191	5.78344	0.448678	2.81264	0.568582	3.55663	0.783507	4.90929	0.963331	6.02752
0.441615	2.75177	0.305088	1.88167	0.441656	2.75172	0.585778	3.65722	0.701719	4.37969	0.921112	5.75553	0.450783	2.80943	0.570135	3.54568	0.784465	4.88676	0.964227	5.99816
0.443781	2.7493	0.307123	1.8834	0.443822	2.74926	0.58723	3.64508	0.703182	4.36345	0.922038	5.72796	0.452888	2.80625	0.571694	3.5349	0.785427	4.86452	0.965127	5.96916
0.445958	2.74694	0.309158	1.88511	0.446	2.74689	0.588686	3.63311	0.70465	4.34742	0.922968	5.70075	0.454992	2.8031	0.573259	3.52427	0.786394	4.84257	0.966031	5.94052
0.448148	2.74467	0.311193	1.8868	0.448189	2.74463	0.590146	3.6213	0.706123	4.33161	0.923902	5.67387	0.457095	2.79998	0.574829	3.51379	0.787366	4.82089	0.96694	5.91224
0.450348	2.7425	0.313227	1.88846	0.450389	2.74246	0.591611	3.60965	0.7076	4.31601	0.924842	5.64732	0.459197	2.7969	0.576405	3.50347	0.788342	4.79949	0.967853	5.8843
0.452558	2.74041	0.315262	1.89011	0.4526	2.74037	0.593081	3.59816	0.709083	4.30061	0.925785	5.62111	0.461299	2.79385	0.577987	3.49331	0.789324	4.77837	0.96877	5.8567
0.454778	2.7384	0.317296	1.89174	0.45482	2.73837	0.594554	3.58683	0.71057	4.28541	0.926734	5.59521	0.4634	2.79083	0.579574	3.48328	0.79031	4.7575	0.969691	5.82943
0.457008	2.73648	0.319331	1.89336	0.45705	2.73644	0.596032	3.57564	0.712061	4.27041	0.927686	5.56963	0.465501	2.78783	0.581167	3.47341	0.791301	4.7369	0.970616	5.80249
0.459247	2.73463	0.321365	1.89495	0.459289	2.73459	0.597515	3.56461	0.713558	4.25561	0.928644	5.54437	0.4676	2.78487	0.582765	3.46367	0.792297	4.71655	0.971545	5.77588
0.461494	2.73285	0.323399	1.89652	0.461537	2.73282	0.599001	3.55373	0.715058	4.24099	0.929605	5.51941	0.469699	2.78193	0.584369	3.45408	0.793297	4.69646	0.972479	5.74958
0.46375	2.73114	0.325433	1.89808	0.463793	2.73111	0.600492	3.54299	0.716564	4.22656	0.930571	5.49475	0.471798	2.77903	0.585978	3.44462	0.794302	4.67662	0.973417	5.7236
0.466014	2.72949	0.327467	1.89962	0.466057	2.72946	0.601987	3.53239	0.718074	4.21232	0.931542	5.47039	0.473895	2.77615	0.587593	3.4353	0.795312	4.65702	0.974358	5.69792
0.468285	2.72791	0.329501	1.90114	0.468328	2.72788	0.603486	3.52193	0.719588	4.19826	0.932517	5.44631	0.475992	2.77329	0.589213	3.42611	0.796327	4.63766	0.975304	5.67254
0.470564	2.72639	0.331534	1.90265	0.470607	2.72636	0.604989	3.51161	0.721107	4.18438	0.933497	5.42253	0.478088	2.77046	0.590839	3.41705	0.797346	4.61853	0.976254	5.64746
0.472849	2.72492	0.333568	1.90414	0.472892	2.72489	0.606496	3.50142	0.72263	4.17066	0.934481	5.39902	0.480183	2.76766	0.59247	3.40812	0.79837	4.59964	0.977208	5.62268
0.475141	2.7235	0.335601	1.90561	0.475184	2.72348	0.608008	3.49137	0.724157	4.15713	0.935469	5.3758	0.482277	2.76488	0.594107	3.39932	0.799399	4.58098	0.978166	5.59818
0.477439	2.72214	0.337634	1.90706	0.477483	2.72211	0.609523	3.48145	0.725689	4.14376	0.936462	5.35284	0.48437	2.76213	0.595749	3.39063	0.800432	4.56254	0.979127	5.57396
0.479743	2.72082	0.339667	1.9085	0.479787	2.7208	0.611043	3.47165	0.727225	4.13055	0.937459	5.33015	0.486463	2.7594	0.597396	3.38208	0.80147	4.54432	0.980093	5.55002
0.482053	2.71955	0.3417	1.90993	0.482097	2.71953	0.612566	3.46198	0.728765	4.11751	0.93846	5.30773	0.488554	2.7567	0.599048	3.37364	0.802512	4.52632	0.981063	5.52636
0.484368	2.71833	0.343733	1.91134	0.484412	2.7183	0.614093	3.45243	0.73031	4.10463	0.939466	5.28557	0.490645	2.75402	0.600706	3.36531	0.803559	4.50853	0.982037	5.50296
0.486689	2.71714	0.345765	1.91273	0.486733	2.71712	0.615625	3.44301	0.731859	4.09191	0.940476	5.26366	0.492735	2.75136	0.602369	3.35711	0.804611	4.49096	0.983015	5.47983
0.489014	2.716	0.347797	1.9141	0.489058	2.71597	0.61716	3.4337	0.733412	4.07934	0.941491	5.242	0.494824	2.74872	0.604037	3.34901	0.805667	4.47359	0.983997	5.45696
0.491344	2.71489	0.349829	1.91547	0.491389	2.71487	0.618699	3.42451	0.734969	4.06693	0.94251	5.2206	0.496911	2.74611	0.60571	3.34103	0.806728	4.45643	0.984982	5.43435
0.493679	2.71382	0.351861	1.91681	0.493723	2.7138	0.620242	3.41544	0.73653	4.05466	0.943533	5.19943	0.498998	2.74351	0.607389	3.33316	0.807794	4.43946	0.985972	5.41199
0.496018	2.71278	0.353893	1.91815	0.496062	2.71276	0.621789	3.40648	0.738095	4.04255	0.944561	5.17851	0.501084	2.74094	0.609073	3.3254	0.808864	4.4227	0.986966	5.38988
0.498361	2.71178	0.355925	1.91946	0.498406	2.71176	0.623339	3.39763	0.739664	4.03057	0.945592	5.15782	0.503169	2.73839	0.610761	3.31774	0.809938	4.40613	0.987963	5.36802
0.500708	2.71081	0.357956	1.92077	0.500753	2.71079	0.624894	3.3889	0.741238	4.01874	0.946629	5.13736	0.505253	2.73586	0.612455	3.31019	0.811017	4.38975	0.988964	5.34639
0.503059	2.70986	0.359987	1.92206	0.503103	2.70985	0.626452	3.38027	0.742815	4.00705	0.947669	5.11713	0.507336	2.73335	0.614154	3.30274	0.812101	4.37356	0.98997	5.32501
0.505413	2.70895	0.362018	1.92333	0.505458	2.70893	0.628014	3.37174	0.744396	3.9955	0.948714	5.09713	0.509418	2.73086	0.615858	3.29539	0.813189	4.35755	0.990979	5.30385
0.507771	2.70807	0.364049	1.9246	0.507816	2.70805	0.629579	3.36332	0.745981	3.98408	0.949762	5.07735	0.511499	2.72839	0.617567	3.28814	0.814282	4.34173	0.991992	5.28293
0.510132	2.70721	0.36608	1.92585	0.510177	2.70719	0.631148	3.35501	0.74757	3.9728	0.950816	5.05779	0.513579	2.72593	0.619281	3.28099	0.815379	4.32609	0.993008	5.26224
0.512496	2.70637	0.36811	1.92708	0.512541	2.70635	0.632721	3.34679	0.749163	3.96165	0.951873	5.03844	0.515658	2.7235	0.621	3.27394	0.816481	4.31063	0.994029	5.24176
0.514863	2.70556	0.37014	1.9283	0.514908	2.70554	0.634298	3.33868	0.750759	3.95063	0.952935	5.01931	0.517736	2.72108	0.622723	3.26698	0.817587	4.29534	0.995053	5.22151
0.517233	2.70477	0.37217	1.92951	0.517278	2.70475	0.635878	3.33066	0.752359	3.93973	0.954	5.00038	0.519812	2.71869	0.624452	3.26011	0.818698	4.28022	0.996082	5.20148
0.519606	2.704	0.3742	1.93071	0.519651	2.70399	0.637461	3.32274	0.753963	3.92896	0.95507	4.98166	0.521888	2.71631	0.626185	3.25334	0.819813	4.26528	0.997114	5.18166
0.521981	2.70326	0.376229	1.9319	0.522026	2.70324	0.639048	3.31491	0.755571	3.91832	0.956144	4.96315	0.523962	2.71394	0.627924	3.24666	0.820932	4.2505	0.998149	5.16205
0.524359	2.70253	0.378259	1.93307	0.524404	2.70252	0.640639	3.30718	0.757182	3.90779	0.957223	4.94483	0.526036	2.7116	0.629667	3.24006	0.822056	4.23588	0.999189	5.14264
0.526739	2.70182	0.380288	1.93423	0.526784	2.70181	0.642233	3.29954	0.758798	3.89739	0.958305	4.92671	0.528108	2.70927	0.631415	3.23355	0.823184	4.22143	1.00023	5.12344
0.529121	2.70113	0.382317	1.93538	0.529166	2.70112	0.643831	3.29199	0.760416	3.8871	0.959392	4.90878	0.530179	2.70695	0.633168	3.22713	0.824317	4.20714		
0.531505	2.70046	0.384345	1.93651	0.531551	2.70045	0.645432	3.28453	0.762039	3.87693	0.960483	4.89105	0.532249	2.70466	0.634925	3.22079	0.825454	4.193		
0.533892	2.69981	0.386374	1.93764	0.533937	2.6998	0.647036	3.27716	0.763664	3.86687	0.961578	4.8735	0.534318	2.70237	0.636687	3.21454	0.826596	4.17903		
0.536281	2.69917	0.388402	1.93875	0.536326	2.69916	0.648644	3.26987	0.765294	3.85693	0.962677	4.85614	0.536386	2.70011	0.638454	3.20837	0.827742	4.1652		
0.538671	2.69855	0.39043	1.93985	0.538716	2.69853	0.650256	3.26267	0.766927	3.84709	0.96378	4.83896	0.538452	2.69786	0.640226	3.20228	0.828892	4.15152		
0.541063	2.69794	0.392458	1.94094	0.541108	2.69793	0.65187	3.25555	0.768563	3.83737	0.964887	4.82197	0.540518	2.69562	0.642002	3.19627	0.830047	4.138		
0.543457	2.69734	0.394485	1.94202	0.543502	2.69733	0.653488	3.24852	0.770203	3.82775	0.965998	4.80515	0.542582	2.6934	0.643783	3.19033	0.831206	4.12462		
0.545852	2.69676	0.396513	1.94309	0.545898	2.69675	0.65511	3.24157	0.771846	3.81823	0.967114	4.7885	0.544645	2.6912	0.645568	3.18448	0.832369	4.11138		
0.54825	2.69619	0.39854	1.94415	0.548295	2.69618	0.656734	3.23469	0.773492	3.80882	0.968233	4.77203	0.546707	2.68901	0.647358	3.1787	0.833537	4.09829		
0.550648	2.69564	0.400566	1.94519	0.550694	2.69563	0.658362	3.2279	0.775142	3.79952	0.969357	4.75573	0.548767	2.68683	0.649152	3.17299	0.834708	4.08534		
0.553048	2.6951	0.402593	1.94623	0.553094	2.69508	0.659994	3.22118	0.776796	3.79031	0.970484	4.7396	0.550827	2.68466	0.650951	3.16736	0.835885	4.07252		
0.555449	2.69456	0.404619	1.94725	0.555495	2.69455	0.661628	3.21454	0.778452	3.7812	0.971616	4.72363	0.552885	2.68252	0.652755	3.1618	0.837065	4.05984		
0.557852	2.69404	0.406645	1.94827	0.557898	2.69403	0.663266	3.20798	0.780112	3.77219	0.972751	4.70783	0.554942	2.68038	0.654563	3.15632	0.83825	4.0473		
0.560256	2.69353	0.408671	1.94927	0.560301	2.69352	0.664907	3.20149	0.781775	3.76328	0.973891	4.69218	0.556998	2.67826	0.656375	3.1509	0.839439	4.03489		
0.562661	2.69303	0.410697	1.95027	0.562706	2.69302	0.666551	3.19507	0.783441	3.75446	0.975035	4.6767	0.559052	2.67615	0.658192	3.14555	0.840632	4.02261		
0.565067	2.69254	0.412722	1.95125	0.565113	2.69253	0.668198	3.18873	0.785111	3.74574	0.976182	4.66137	0.561106	2.67405	0.660013	3.14027	0.84183	4.01046		
0.567474	2.69206	0.414747	1.95223	0.56752	2.69205	0.669849	3.18245	0.786784	3.73711	0.977334	4.6462	0.563158	2.67196	0.661838	3.13506	0.843032	3.99844		
0.569882	2.69159	0.416772	1.95319	0.569928	2.69158	0.671502	3.17625	0.788459	3.72857	0.978489	4.63118	0.565209	2.66989	0.663668	3.12992	0.844238	3.98654		
0.572291	2.69112	0.418797	1.95415	0.572337	2.69111	0.673159	3.17011	0.790138	3.72012	0.979649	4.61631	0.567258	2.66783	0.665502	3.12483	0.845448	3.97477		
0.574701	2.69067	0.420821	1.95509	0.574747	2.69066	0.674819	3.16405	0.79182	3.71175	0.980812	4.60159	0.569307	2.66579	0.66734	3.11982	0.846662	3.96312		
0.577112	2.69022	0.422845	1.95603	0.577158	2.69021	0.676482	3.15805	0.793505	3.70348	0.98198	4.58702	0.571354	2.66375	0.669183	3.11486	0.847881	3.95159		
0.579524	2.68978	0.424869	1.95696	0.57957	2.68977	0.678148	3.15212	0.795193	3.69529	0.983151	4.57259	0.5734	2.66173	0.671029	3.10997	0.849104	3.94018		
0.581936	2.68935	0.426893	1.95788	0.581982	2.68934	0.679817	3.14625	0.796885	3.68718	0.984326	4.5583	0.575444	2.65972	0.67288	3.10514	0.850331	3.92889		
0.584349	2.68892	0.428916	1.95879	0.584395	2.68891	0.681489	3.14045	0.798579	3.67916	0.985505	4.54416	0.577488	2.65772	0.674735	3.10037	0.851562	3.91771		
0.586763	2.6885	0.430939	1.95969	0.586809	2.68849	0.683164	3.13471	0.800276	3.67122	0.986688	4.53015	0.57953	2.65573	0.676594	3.09566	0.852797	3.90665		
0.589178	2.68809	0.432962	1.96058	0.589223	2.68808	0.684843	3.12903	0.801976	3.66336	0.987875	4.51628	0.581571	2.65375	0.678458	3.09101	0.854036	3.8957		
0.591593	2.68768	0.434985	1.96146	0.591638	2.68767	0.686524	3.12342	0.803679	3.65558	0.989066	4.50255	0.58361	2.65178	0.680325	3.08642	0.85528	3.88486		
0.594008	2.68728	0.437007	1.96234	0.594054	2.68727	0.688208	3.11786	0.805384	3.64788	0.99026	4.48895	0.585649	2.64983	0.682196	3.08188	0.856528	3.87414		
0.596424	2.68689	0.439029	1.96321	0.59647	2.68688	0.689895	3.11237	0.807093	3.64026	0.991459	4.47548	0.587686	2.64788	0.684071	3.0774	0.857779	3.86352		
0.598841	2.6865	0.441051	1.96406	0.598887	2.68649	0.691585	3.10694	0.808804	3.63271	0.992661	4.46214	0.589722	2.64595	0.685951	3.07297	0.859035	3.853		
0.601258	2.68611	0.443072	1.96491	0.601304	2.68611	0.693278	3.10156	0.810519	3.62524	0.993867	4.44893	0.591757	2.64402	0.687834	3.0686	0.860295	3.8426		
0.603675	2.68573	0.445094	1.96575	0.603721	2.68573	0.694975	3.09624	0.812236	3.61785	0.995077	4.43584	0.59379	2.64211	0.689721	3.06428	0.861559	3.83229		
0.606093	2.68536	0.447115	1.96659	0.606139	2.68535	0.696673	3.09098	0.813956	3.61052	0.996291	4.42288	0.595822	2.64021	0.691612	3.06002	0.862827	3.8221		
0.608511	2.68499	0.449135	1.96741	0.608557	2.68498	0.698375	3.08578	0.815678	3.60327	0.997509	4.41005	0.597853	2.63831	0.693507	3.05581	0.8641	3.812		
0.610929	2.68462	0.451156	1.96823	0.610975	2.68462	0.70008	3.08063	0.817403	3.59609	0.99873	4.39734	0.599883	2.63643	0.695406	3.05164	0.865376	3.802		
0.613348	2.68426	0.453176	1.96904	0.613394	2.68426	0.701788	3.07553	0.819131	3.58898	0.999955	4.38474	0.601911	2.63456	0.697308	3.04753	0.866656	3.7921		
0.615767	2.6839	0.455196	1.96984	0.615813	2.6839	0.703499	3.07049	0.820862	3.58194	1.00118	4.37227	0.603938	2.63269	0.699214	3.04347	0.86794	3.7823		
0.618186	2.68355	0.457216	1.97064	0.618232	2.68354	0.705212	3.06551	0.822595	3.57497			0.605964	2.63084	0.701124	3.03946	0.869229	3.7726		
0.620605	2.6832	0.459235	1.97143	0.620651	2.68319	0.706928	3.06057	0.824331	3.56807			0.607989	2.629	0.703038	3.03549	0.870521	3.76299		
0.623025	2.68285	0.461254	1.97221	0.623071	2.68285	0.708648	3.05569	0.826069	3.56123			0.610012	2.62716	0.704956	3.03158	0.871817	3.75348		
0.625444	2.68251	0.463273	1.97298	0.62549	2.6825	0.71037	3.05086	0.82781	3.55446			0.612034	2.62534	0.706877	3.02771	0.873117	3.74406		
0.627864	2.68217	0.465292	1.97374	0.62791	2.68216	0.712095	3.04608	0.829554	3.54776			0.614055	2.62352	0.708801	3.02388	0.874422	3.73473		
0.630283	2.68183	0.46731	1.9745	0.630329	2.68183	0.713822	3.04135	0.8313	3.54111			0.616075	2.62171	0.710729	3.02011	0.87573	3.72549		
0.632703	2.6815	0.469328	1.97525	0.632749	2.68149	0.715553	3.03667	0.833049	3.53453			0.618094	2.61992	0.712661	3.01637	0.877042	3.71635		
0.635123	2.68117	0.471346	1.976	0.635169	2.68116	0.717286	3.03203	0.8348	3.52802			0.620111	2.61813	0.714596	3.01268	0.878358	3.70729		
0.637542	2.68084	0.473363	1.97673	0.637588	2.68083	0.719023	3.02745	0.836553	3.52156			0.622127	2.61635	0.716535	3.00904	0.879678	3.69832		
0.639962	2.68051	0.475381	1.97746	0.640008	2.6805	0.720762	3.02291	0.838309	3.51517			0.624142	2.61458	0.718477	3.00543	0.881002	3.68943		
0.642381	2.68018	0.477397	1.97819	0.642427	2.68018	0.722504	3.01842	0.840068	3.50883			0.626156	2.61282	0.720423	3.00187	0.88233	3.68063		
0.644801	2.67986	0.479414	1.9789	0.644847	2.67985	0.724248	3.01398	0.841828	3.50256			0.628169	2.61106	0.722372	2.99836	0.883662	3.67192		
0.64722	2.67954	0.481431	1.97961	0.647266	2.67953	0.725996	3.00958	0.843592	3.49634			0.63018	2.60932	0.724325	2.99488	0.884998	3.66328		
0.649639	2.67922	0.483447	1.98032	0.649685	2.67921	0.727746	3.00523	0.845357	3.49018			0.63219	2.60758	0.72628	2.99144	0.886338	3.65473		
0.652058	2.6789	0.485463	1.98101	0.652104	2.6789	0.729499	3.00093	0.847125	3.48408			0.634199	2.60586	0.728239	2.98804	0.887681	3.64627		
0.654476	2.67859	0.487478	1.9817	0.654522	2.67858	0.731255	2.99666	0.848895	3.47803			0.636207	2.60414	0.730202	2.98468	0.889029	3.63788		
0.656895	2.67827	0.489493	1.98239	0.656941	2.67826	0.733014	2.99245	0.850668	3.47204			0.638214	2.60243	0.732167	2.98136	0.89038	3.62957		
0.659313	2.67796	0.491509	1.98307	0.659359	2.67795	0.734775	2.98827	0.852442	3.4661			0.64022	2.60072	0.734136	2.97808	0.891735	3.62134		
0.661731	2.67764	0.493523	1.98374	0.661776	2.67764	0.736539	2.98414	0.854219	3.46022			0.642224	2.59903	0.736108	2.97484	0.893094	3.61319		
0.664148	2.67733	0.495538	1.9844	0.664194	2.67733	0.738306	2.98005	0.855998	3.45439			0.644228	2.59734	0.738083	2.97163	0.894457	3.60511		
0.666565	2.67702	0.497552	1.98506	0.666611	2.67701	0.740076	2.976	0.85778	3.44861			0.64623	2.59567	0.740061	2.96846	0.895824	3.59711		
0.668982	2.67671	0.499566	1.98572	0.669027	2.6767	0.741849	2.97199	0.859563	3.44288			0.648231	2.594	0.742042	2.96533	0.897194	3.58919		
0.671398	2.6764	0.50158	1.98637	0.671444	2.6764	0.743624	2.96803	0.861349	3.43721			0.650231	2.59233	0.744027	2.96223	0.898569	3.58134		
0.673814	2.67609	0.503593	1.98701	0.673859	2.67609	0.745402	2.9641	0.863137	3.43158			0.65223	2.59068	0.746014	2.95916	0.899947	3.57356		
0.676229	2.67578	0.505606	1.98764	0.676275	2.67578	0.747183	2.96022	0.864927	3.42601			0.654228	2.58904	0.748004	2.95613	0.901329	3.56586		
0.678644	2.67547	0.507619	1.98827	0.678689	2.67547	0.748967	2.95637	0.866719	3.42049			0.656225	2.5874	0.749998	2.95314	0.902715	3.55822		
0.681058	2.67517	0.509632	1.9889	0.681103	2.67516	0.750754	2.95257	0.868513	3.41501			0.65822	2.58577	0.751994	2.95017	0.904104	3.55066		
0.683471	2.67486	0.511644	1.98952	0.683517	2.67485	0.752543	2.9488	0.870309	3.40958			0.660215	2.58414	0.753993	2.94724	0.905497	3.54317		
0.685884	2.67455	0.513656	1.99013	0.68593	2.67454	0.754335	2.94507	0.872108	3.4042			0.662209	2.58253	0.755995	2.94434	0.906894	3.53575		
0.688297	2.67424	0.515667	1.99074	0.688342	2.67423	0.75613	2.94138	0.873908	3.39887			0.664201	2.58092	0.757999	2.94148	0.908295	3.52839		
0.690708	2.67393	0.517679	1.99134	0.690754	2.67392	0.757928	2.93772	0.87571	3.39358			0.666193	2.57932	0.760007	2.93864	0.9097	3.5211		
0.693119	2.67362	0.51969	1.99194	0.693165	2.67361	0.759729	2.93411	0.877515	3.38834			0.668183	2.57773	0.762017	2.93584	0.911108	3.51388		
0.69553	2.67331	0.521701	1.99253	0.695575	2.6733	0.761533	2.93053	0.879321	3.38314			0.670173	2.57615	0.76403	2.93307	0.91252	3.50673		
0.697939	2.673	0.523712	1.99312	0.697985	2.67299	0.763339	2.92699	0.881129	3.37799			0.672161	2.57457	0.766046	2.93032	0.913936	3.49964		
0.700348	2.67269	0.525722	1.9937	0.700394	2.67268	0.765148	2.92348	0.882939	3.37288			0.674149	2.573	0.768064	2.92761	0.915356	3.49261		
0.702756	2.67237	0.527732	1.99428	0.702801	2.67237	0.76696	2.92001	0.884751	3.36782			0.676135	2.57144	0.770085	2.92493	0.916779	3.48565		
0.705163	2.67206	0.529742	1.99485	0.705208	2.67205	0.768776	2.91657	0.886565	3.3628			0.678121	2.56988	0.772108	2.92227	0.918206	3.47875		
0.707569	2.67175	0.531751	1.99541	0.707614	2.67174	0.770594	2.91317	0.888381	3.35782			0.680105	2.56834	0.774134	2.91964	0.919636	3.47192		
0.709974	2.67143	0.53376	1.99598	0.71002	2.67142	0.772414	2.90981	0.890199	3.35288			0.682089	2.5668	0.776163	2.91704	0.921071	3.46515		
0.712378	2.67111	0.535769	1.99653	0.712424	2.67111	0.774238	2.90648	0.892018	3.34799			0.684072	2.56526	0.778194	2.91447	0.922509	3.45843		
0.714781	2.67079	0.537778	1.99708	0.714827	2.67079	0.776065	2.90318	0.89384	3.34313			0.686054	2.56374	0.780228	2.91193	0.92395	3.45178		
0.717184	2.67047	0.539786	1.99763	0.717229	2.67047	0.777895	2.89992	0.895663	3.33832			0.688035	2.56222	0.782264	2.90941	0.925396	3.44519		
0.719585	2.67015	0.541794	1.99817	0.71963	2.67014	0.779728	2.89669	0.897488	3.33354			0.690015	2.56071	0.784302	2.90692	0.926845	3.43866		
0.721985	2.66982	0.543802	1.99871	0.72203	2.66982	0.781563	2.8935	0.899315	3.32881			0.691994	2.55921	0.786343	2.90445	0.928297	3.43218		
0.724383	2.6695	0.54581	1.99924	0.724429	2.66949	0.783402	2.89033	0.901143	3.32411			0.693972	2.55771	0.788386	2.90201	0.929754	3.42577		
0.726781	2.66917	0.547817	1.99977	0.726827	2.66916	0.785244	2.8872	0.902973	3.31946			0.695949	2.55622	0.790431	2.8996	0.931214	3.41941		
0.729177	2.66884	0.549824	2.00029	0.729223	2.66883	0.787089	2.88411	0.904805	3.31484			0.697926	2.55474	0.792478	2.8972	0.932677	3.4131		
0.731573	2.6685	0.551831	2.00081	0.731618	2.6685	0.788937	2.88104	0.906639	3.31026			0.699902	2.55326	0.794528	2.89484	0.934144	3.40686		
0.733966	2.66817	0.553837	2.00132	0.734012	2.66816	0.790788	2.87801	0.908474	3.30571			0.701877	2.55179	0.79658	2.8925	0.935615	3.40067		
0.736359	2.66783	0.555843	2.00183	0.736404	2.66782	0.792642	2.87501	0.910311	3.3012			0.703851	2.55033	0.798634	2.89018	0.937089	3.39453		
0.73875	2.66749	0.557849	2.00234	0.738795	2.66748	0.794499	2.87204	0.91215	3.29673			0.705824	2.54888	0.800691	2.88788	0.938567	3.38845		
0.741139	2.66714	0.559855	2.00284	0.741185	2.66714	0.79636	2.8691	0.91399	3.2923			0.707796	2.54743	0.802749	2.88561	0.940049	3.38242		
0.743527	2.6668	0.56186	2.00334	0.743573	2.66679	0.798223	2.8662	0.915832	3.2879			0.709768	2.54599	0.804809	2.88336	0.941534	3.37644		
0.745914	2.66644	0.563865	2.00383	0.745959	2.66644	0.80009	2.86332	0.917676	3.28353			0.711739	2.54455	0.806872	2.88113	0.943023	3.37052		
0.748299	2.66609	0.56587	2.00432	0.748344	2.66608	0.801961	2.86048	0.919521	3.2792			0.713709	2.54312	0.808936	2.87892	0.944516	3.36465		
0.750682	2.66573	0.567874	2.0048	0.750727	2.66573	0.803834	2.85766	0.921367	3.27491			0.715678	2.5417	0.811003	2.87674	0.946012	3.35883		
0.753064	2.66537	0.569878	2.00528	0.753109	2.66536	0.805711	2.85488	0.923216	3.27065			0.717647	2.54029	0.813071	2.87458	0.947511	3.35306		
0.755444	2.66501	0.571882	2.00576	0.755489	2.665	0.807591	2.85213	0.925065	3.26642			0.719615	2.53888	0.815141	2.87243	0.949014	3.34735		
0.757822	2.66464	0.573886	2.00623	0.757867	2.66463	0.809475	2.8494	0.926917	3.26222			0.721582	2.53748	0.817214	2.87031	0.950521	3.34168		
0.760198	2.66426	0.575889	2.0067	0.760243	2.66426	0.811362	2.84671	0.928769	3.25806			0.723548	2.53609	0.819287	2.86821	0.952031	3.33606		
0.762572	2.66389	0.577892	2.00716	0.762617	2.66388	0.813253	2.84405	0.930624	3.25393			0.725514	2.5347	0.821363	2.86613	0.953545	3.33049		
0.764944	2.66351	0.579895	2.00762	0.764989	2.6635	0.815147	2.84141	0.932479	3.24983			0.727479	2.53332	0.823441	2.86407	0.955062	3.32497		
0.767315	2.66312	0.581898	2.00807	0.76736	2.66311	0.817045	2.83881	0.934337	3.24576			0.729444	2.53195	0.82552	2.86202	0.956583	3.3195		
0.769683	2.66273	0.5839	2.00853	0.769728	2.66272	0.818946	2.83623	0.936195	3.24173			0.731407	2.53058	0.827601	2.86	0.958107	3.31407		
0.772049	2.66233	0.585902	2.00897	0.772094	2.66233	0.820851	2.83369	0.938055	3.23772			0.733371	2.52922	0.829684	2.858	0.959635	3.3087		
0.774413	2.66193	0.587904	2.00942	0.774458	2.66193	0.82276	2.83117	0.939917	3.23375			0.735333	2.52786	0.831768	2.85601	0.961166	3.30337		
0.776775	2.66153	0.589905	2.00986	0.77682	2.66152	0.824672	2.82868	0.94178	3.22981			0.737295	2.52651	0.833854	2.85404	0.962701	3.29808		
0.779134	2.66112	0.591906	2.0103	0.779179	2.66111	0.826588	2.82622	0.943644	3.22589			0.739256	2.52517	0.835942	2.85209	0.96424	3.29284		
0.781491	2.6607	0.593907	2.01073	0.781536	2.66069	0.828508	2.82379	0.945509	3.22201			0.741217	2.52384	0.838031	2.85016	0.965782	3.28765		
0.783846	2.66028	0.595908	2.01116	0.783891	2.66027	0.830432	2.82139	0.947376	3.21815			0.743177	2.52251	0.840121	2.84824	0.967327	3.2825		
0.786198	2.65985	0.597908	2.01158	0.786243	2.65984	0.83236	2.81901	0.949245	3.21433			0.745136	2.52119	0.842213	2.84635	0.968876	3.27739		
0.788547	2.65942	0.599908	2.01201	0.788592	2.65941	0.834292	2.81667	0.951114	3.21053			0.747095	2.51987	0.844307	2.84446	0.970428	3.27233		
0.790894	2.65898	0.601908	2.01242	0.790939	2.65897	0.836227	2.81435	0.952985	3.20676			0.749053	2.51856	0.846402	2.8426	0.971984	3.26731		
0.793239	2.65853	0.603907	2.01284	0.793283	2.65852	0.838167	2.81206	0.954858	3.20302			0.751011	2.51726	0.848498	2.84075	0.973544	3.26233		
0.79558	2.65808	0.605907	2.01325	0.795624	2.65807	0.840111	2.8098	0.956731	3.1993			0.752968	2.51596	0.850596	2.83892	0.975107	3.2574		
0.797919	2.65762	0.607906	2.01366	0.797963	2.65761	0.842059	2.80757	0.958606	3.19562			0.754925	2.51467	0.852695	2.8371	0.976673	3.25251		
0.800254	2.65715	0.609904	2.01406	0.800299	2.65714	0.844012	2.80536	0.960482	3.19196			0.756881	2.51339	0.854795	2.8353	0.978243	3.24766		
0.802587	2.65668	0.611903	2.01447	0.802631	2.65667	0.845969	2.80319	0.962359	3.18832			0.758837	2.51211	0.856897	2.83352	0.979816	3.24285		
0.804917	2.6562	0.613901	2.01486	0.804961	2.65619	0.84793	2.80104	0.964238	3.18472			0.760792	2.51084	0.859	2.83175	0.981393	3.23809		
0.807243	2.65571	0.615899	2.01526	0.807287	2.6557	0.849895	2.79892	0.966118	3.18113			0.762747	2.50957	0.861104	2.82999	0.982973	3.23336		
0.809567	2.65521	0.617896	2.01565	0.809611	2.65521	0.851865	2.79682	0.967998	3.17758			0.764701	2.50831	0.86321	2.82825	0.984557	3.22868		
0.811887	2.65471	0.619894	2.01604	0.811931	2.6547	0.85384	2.79476	0.969881	3.17405			0.766655	2.50706	0.865316	2.82652	0.986144	3.22403		
0.814203	2.6542	0.621891	2.01642	0.814247	2.65419	0.855819	2.79272	0.971764	3.17055			0.768608	2.50581	0.867424	2.82481	0.987734	3.21942		
0.816517	2.65368	0.623888	2.0168	0.816561	2.65367	0.857803	2.79071	0.973648	3.16707			0.770561	2.50457	0.869532	2.82311	0.989328	3.21486		
0.818827	2.65316	0.625884	2.01718	0.81887	2.65315	0.859791	2.78872	0.975534	3.16361			0.772514	2.50334	0.871642	2.82143	0.990925	3.21033		
0.821133	2.65262	0.62788	2.01756	0.821177	2.65261	0.861785	2.78677	0.977421	3.16018			0.774466	2.50211	0.873753	2.81976	0.992526	3.20584		
0.823436	2.65208	0.629876	2.01793	0.823479	2.65207	0.863783	2.78484	0.979308	3.15678			0.776418	2.50089	0.875865	2.8181	0.994131	3.20138		
0.825735	2.65153	0.631872	2.0183	0.825778	2.65152	0.865786	2.78294	0.981197	3.1534			0.778369	2.49967	0.877977	2.81645	0.995738	3.19697		
0.82803	2.65097	0.633867	2.01867	0.828073	2.65095	0.867794	2.78106	0.983087	3.15004			0.78032	2.49846	0.880091	2.81482	0.997349	3.19259		
0.830321	2.6504	0.635863	2.01903	0.830365	2.65038	0.869807	2.77922	0.984979	3.1467			0.78227	2.49726	0.882206	2.8132	0.998964	3.18825		
0.832609	2.64982	0.637857	2.01939	0.832652	2.64981	0.871825	2.7774	0.986871	3.14339			0.78422	2.49606	0.884321	2.81159	1.00058	3.18395		
0.834892	2.64923	0.639852	2.01975	0.834936	2.64922	0.873848	2.7756	0.988764	3.1401			0.78617	2.49486	0.886438	2.81				
0.837172	2.64863	0.641847	2.0201	0.837215	2.64862	0.875877	2.77384	0.990658	3.13684			0.788119	2.49368	0.888555	2.80842				
0.839447	2.64802	0.643841	2.02045	0.83949	2.64801	0.87791	2.7721	0.992554	3.1336			0.790068	2.4925	0.890673	2.80685				
0.841718	2.64741	0.645834	2.0208	0.841761	2.6474	0.879949	2.77039	0.99445	3.13037			0.792017	2.49132	0.892792	2.80529				
0.843985	2.64678	0.647828	2.02115	0.844028	2.64677	0.881993	2.7687	0.996347	3.12718			0.793965	2.49015	0.894912	2.80374				
0.846248	2.64615	0.649821	2.02149	0.846291	2.64613	0.884043	2.76704	0.998246	3.124			0.795913	2.48899	0.897032	2.8022				
0.848506	2.6455	0.651814	2.02183	0.848549	2.64549	0.886098	2.76541	1.00014	3.12084			0.797861	2.48783	0.899153	2.80068				
0.85076	2.64485	0.653807	2.02217	0.850803	2.64483	0.888159	2.7638					0.799809	2.48668	0.901275	2.79916				
0.85301	2.64418	0.6558	2.0225	0.853052	2.64417	0.890225	2.76223					0.801756	2.48553	0.903397	2.79766				
0.855255	2.6435	0.657792	2.02283	0.855297	2.64349	0.892297	2.76067					0.803703	2.48439	0.90552	2.79616				
0.857495	2.64282	0.659784	2.02316	0.857537	2.6428	0.894374	2.75915					0.805649	2.48326	0.907643	2.79468				
0.859731	2.64212	0.661775	2.02349	0.859773	2.64211	0.896457	2.75765					0.807596	2.48213	0.909767	2.79321				
0.861962	2.64142	0.663767	2.02381	0.862004	2.6414	0.898545	2.75617					0.809542	2.48101	0.911892	2.79174				
0.864189	2.6407	0.665758	2.02413	0.864231	2.64069	0.90064	2.75472					0.811488	2.47989	0.914017	2.79029				
0.86641	2.63997	0.667749	2.02445	0.866453	2.63996	0.902739	2.7533					0.813433	2.47878	0.916143	2.78885				
0.868627	2.63924	0.66974	2.02477	0.868669	2.63922	0.904845	2.7519					0.815379	2.47767	0.918269	2.78741				
0.87084	2.63849	0.67173	2.02508	0.870882	2.63847	0.906957	2.75053					0.817324	2.47657	0.920395	2.78599				
0.873047	2.63773	0.67372	2.02539	0.873089	2.63772	0.909074	2.74918					0.819269	2.47548	0.922522	2.78457				
0.87525	2.63696	0.67571	2.0257	0.875292	2.63695	0.911197	2.74786					0.821213	2.47439	0.924649	2.78317				
0.877448	2.63619	0.6777	2.02601	0.87749	2.63617	0.913326	2.74656					0.823158	2.4733	0.926777	2.78177				
0.879641	2.6354	0.679689	2.02631	0.879683	2.63538	0.91546	2.74529					0.825102	2.47222	0.928905	2.78038				
0.881829	2.6346	0.681678	2.02661	0.881871	2.63458	0.9176	2.74404					0.827047	2.47115	0.931033	2.779				
0.884013	2.63379	0.683667	2.02691	0.884054	2.63378	0.919746	2.74282					0.828991	2.47008	0.933161	2.77763				
0.886192	2.63297	0.685656	2.0272	0.886233	2.63296	0.921898	2.74162					0.830934	2.46902	0.93529	2.77627				
0.888366	2.63215	0.687644	2.0275	0.888407	2.63213	0.924056	2.74044					0.832878	2.46796	0.937418	2.77491				
0.890535	2.63131	0.689632	2.02779	0.890576	2.63129	0.926219	2.73929					0.834822	2.46691	0.939548	2.77357				
0.892699	2.63046	0.69162	2.02808	0.89274	2.63045	0.928388	2.73816					0.836765	2.46586	0.941677	2.77223				
0.894859	2.62961	0.693607	2.02836	0.894899	2.62959	0.930562	2.73705					0.838708	2.46482	0.943806	2.77089				
0.897013	2.62874	0.695595	2.02865	0.897054	2.62873	0.932743	2.73596					0.840651	2.46379	0.945935	2.76957				
0.899164	2.62787	0.697582	2.02893	0.899204	2.62785	0.934928	2.7349					0.842594	2.46276	0.948065	2.76825				
0.901309	2.62699	0.699568	2.02921	0.90135	2.62697	0.93712	2.73386					0.844537	2.46173	0.950194	2.76694				
0.90345	2.62609	0.701555	2.02949	0.903491	2.62608	0.939316	2.73284					0.84648	2.46071	0.952324	2.76564				
0.905586	2.6252	0.703541	2.02976	0.905627	2.62518	0.941518	2.73184					0.848422	2.4597	0.954454	2.76435				
0.907718	2.62429	0.705527	2.03004	0.907759	2.62427	0.943726	2.73086					0.850365	2.45869	0.956583	2.76306				
0.909846	2.62337	0.707513	2.03031	0.909886	2.62335	0.945939	2.72991					0.852307	2.45768	0.958713	2.76178				
0.911969	2.62245	0.709499	2.03058	0.912009	2.62243	0.948157	2.72897					0.85425	2.45668	0.960842	2.7605				
0.914087	2.62152	0.711484	2.03084	0.914127	2.6215	0.95038	2.72805					0.856192	2.45569	0.962972	2.75924				
0.916201	2.62058	0.713469	2.03111	0.916241	2.62056	0.952608	2.72716					0.858134	2.4547	0.965101	2.75797				
0.918311	2.61963	0.715454	2.03137	0.918351	2.61961	0.954842	2.72628					0.860076	2.45372	0.96723	2.75672				
0.920417	2.61868	0.717438	2.03163	0.920457	2.61866	0.95708	2.72542					0.862018	2.45274	0.969359	2.75547				
0.922519	2.61772	0.719422	2.03189	0.922559	2.6177	0.959324	2.72458					0.86396	2.45176	0.971488	2.75423				
0.924617	2.61675	0.721406	2.03214	0.924656	2.61674	0.961572	2.72376					0.865902	2.4508	0.973617	2.75299				
0.92671	2.61578	0.72339	2.0324	0.92675	2.61576	0.963825	2.72295					0.867844	2.44983	0.975745	2.75176				
0.9288	2.6148	0.725374	2.03265	0.92884	2.61479	0.966082	2.72217					0.869786	2.44887	0.977873	2.75053				
0.930886	2.61382	0.727357	2.0329	0.930926	2.6138	0.968344	2.7214					0.871728	2.44792	0.980001	2.74931				
0.932969	2.61283	0.72934	2.03315	0.933008	2.61281	0.970611	2.72064					0.87367	2.44697	0.982129	2.7481				
0.935047	2.61184	0.731323	2.03339	0.935087	2.61182	0.972882	2.7199					0.875612	2.44603	0.984256	2.74689				
0.937122	2.61084	0.733305	2.03364	0.937161	2.61082	0.975157	2.71918					0.877553	2.44509	0.986383	2.74569				
0.939194	2.60984	0.735287	2.03388	0.939233	2.60982	0.977437	2.71848					0.879495	2.44415	0.988509	2.74449				
0.941262	2.60883	0.737269	2.03412	0.941301	2.60881	0.979721	2.71779					0.881437	2.44322	0.990636	2.7433				
0.943326	2.60782	0.739251	2.03436	0.943365	2.6078	0.982008	2.71711					0.883379	2.4423	0.992761	2.74211				
0.945387	2.6068	0.741233	2.03459	0.945427	2.60678	0.9843	2.71645					0.88532	2.44138	0.994887	2.74092				
0.947446	2.60578	0.743214	2.03483	0.947485	2.60576	0.986596	2.7158					0.887262	2.44046	0.997012	2.73975				
0.949501	2.60476	0.745195	2.03506	0.94954	2.60474	0.988896	2.71517					0.889204	2.43955	0.999136	2.73857				
0.951553	2.60373	0.747176	2.03529	0.951591	2.60371	0.991199	2.71455					0.891146	2.43864	1.00126	2.7374				
0.953602	2.6027	0.749156	2.03552	0.95364	2.60269	0.993506	2.71394					0.893088	2.43774						
0.955648	2.60167	0.751137	2.03575	0.955686	2.60165	0.995816	2.71335					0.895029	2.43685						
0.957691	2.60064	0.753117	2.03597	0.95773	2.60062	0.99813	2.71276					0.896971	2.43595						
0.959731	2.5996	0.755097	2.0362	0.95977	2.59958	1.00045	2.71219					0.898913	2.43507						
0.961769	2.59857	0.757076	2.03642	0.961808	2.59855							0.900855	2.43418						
0.963804	2.59753	0.759056	2.03664	0.963843	2.59751							0.902797	2.4333						
0.965837	2.59648	0.761035	2.03686	0.965876	2.59646							0.904739	2.43243						
0.967867	2.59544	0.763014	2.03708	0.967906	2.59542							0.906681	2.43156						
0.969895	2.5944	0.764992	2.03729	0.969934	2.59438							0.908624	2.4307						
0.971921	2.59335	0.766971	2.0375	0.971959	2.59333							0.910566	2.42984						
0.973944	2.59231	0.768949	2.03772	0.973982	2.59229							0.912508	2.42898						
0.975965	2.59126	0.770927	2.03793	0.976003	2.59124							0.91445	2.42813						
0.977984	2.59021	0.772904	2.03813	0.978022	2.59019							0.916393	2.42728						
0.980001	2.58917	0.774882	2.03834	0.980039	2.58915							0.918335	2.42644						
0.982016	2.58812	0.776859	2.03854	0.982054	2.5881							0.920278	2.4256						
0.984029	2.58707	0.778836	2.03875	0.984067	2.58705							0.922221	2.42477						
0.98604	2.58602	0.780813	2.03895	0.986078	2.586							0.924163	2.42394						
0.988049	2.58498	0.782789	2.03915	0.988088	2.58496							0.926106	2.42311						
0.990057	2.58393	0.784766	2.03935	0.990095	2.58391							0.928049	2.42229						
0.992063	2.58289	0.786742	2.03955	0.992101	2.58287							0.929992	2.42147						
0.994067	2.58184	0.788718	2.03974	0.994105	2.58182							0.931935	2.42066						
0.99607	2.5808	0.790693	2.03994	0.996108	2.58078							0.933879	2.41985						
0.998071	2.57975	0.792669	2.04013	0.998109	2.57974							0.935822	2.41905						
1.00007	2.57871	0.794644	2.04032	1.00011	2.57869							0.937766	2.41825						
		0.796619	2.04051									0.939709	2.41745						
		0.798593	2.0407									0.941653	2.41666						
		0.800568	2.04088									0.943597	2.41587						
		0.802542	2.04107									0.945541	2.41509						
		0.804516	2.04125									0.947485	2.41431						
		0.80649	2.04143									0.949429	2.41353						
		0.808463	2.04161									0.951374	2.41276						
		0.810437	2.04179									0.953318	2.41199						
		0.81241	2.04197									0.955263	2.41123						
		0.814383	2.04215									0.957207	2.41047						
		0.816355	2.04232									0.959152	2.40971						
		0.818328	2.0425									0.961098	2.40896						
		0.8203	2.04267									0.963043	2.40821						
		0.822272	2.04284									0.964988	2.40747						
		0.824244	2.04301									0.966934	2.40673						
		0.826215	2.04318									0.968879	2.40599						
		0.828186	2.04334									0.970825	2.40526						
		0.830158	2.04351									0.972771	2.40453						
		0.832128	2.04368									0.974718	2.4038						
		0.834099	2.04384									0.976664	2.40308						
		0.83607	2.044									0.97861	2.40236						
		0.83804	2.04416									0.980557	2.40165						
		0.84001	2.04432									0.982504	2.40094						
		0.84198	2.04448									0.984451	2.40023						
		0.843949	2.04464									0.986398	2.39953						
		0.845919	2.04479									0.988346	2.39883						
		0.847888	2.04495									0.990293	2.39813						
		0.849857	2.0451									0.992241	2.39744						
		0.851825	2.04525									0.994189	2.39675						
		0.853794	2.0454									0.996137	2.39607						
		0.855762	2.04555									0.998086	2.39539						
		0.85773	2.0457									1.00003	2.39471						
		0.859698	2.04585																
		0.861666	2.04599																
		0.863633	2.04614																
		0.865601	2.04628																
		0.867568	2.04643																
		0.869535	2.04657																
		0.871501	2.04671																
		0.873468	2.04685																
		0.875434	2.04699																
		0.8774	2.04712																
		0.879366	2.04726																
		0.881332	2.04739																
		0.883297	2.04753																
		0.885262	2.04766																
		0.887227	2.04779																
		0.889192	2.04792																
		0.891157	2.04805																
		0.893121	2.04818																
		0.895085	2.04831																
		0.897049	2.04844																
		0.899013	2.04857																
		0.900977	2.04869																
		0.90294	2.04881																
		0.904904	2.04894																
		0.906867	2.04906																
		0.908829	2.04918																
		0.910792	2.0493																
		0.912755	2.04942																
		0.914717	2.04954																
		0.916679	2.04966																
		0.918641	2.04977																
		0.920603	2.04989																
		0.922564	2.05																
		0.924525	2.05012																
		0.926487	2.05023																
		0.928447	2.05034																
		0.930408	2.05045																
		0.932369	2.05056																
		0.934329	2.05067																
		0.936289	2.05078																
		0.938249	2.05089																
		0.940209	2.051																
		0.942169	2.0511																
		0.944128	2.05121																
		0.946088	2.05131																
		0.948047	2.05142																
		0.950006	2.05152																
		0.951965	2.05162																
		0.953923	2.05172																
		0.955882	2.05182																
		0.95784	2.05192																
		0.959798	2.05202																
		0.961756	2.05212																
		0.963713	2.05222																
		0.965671	2.05231																
		0.967628	2.05241																
		0.969585	2.05251																
		0.971542	2.0526																
		0.973499	2.05269																
		0.975456	2.05279																
		0.977412	2.05288																
		0.979369	2.05297																
		0.981325	2.05306																
		0.983281	2.05315																
		0.985236	2.05324																
		0.987192	2.05333																
		0.989148	2.05342																
		0.991103	2.0535																
		0.993058	2.05359																
		0.995013	2.05368																
		0.996968	2.05376																
		0.998922	2.05385																
		1.00088	2.05393																
