Sym0		Asym0		Sym1		Sym2		Sym3		Sym4		Asym1		Asym2		Asym3		Asym4	
425  Points		527  Points		425  Points		405  Points		352  Points		253  Points		456  Points		400  Points		345  Points		216  Points	
Freq (MHz)	Vph (m/ms)	Freq (MHz)	Vph (m/ms)	Freq (MHz)	Vph (m/ms)	Freq (MHz)	Vph (m/ms)	Freq (MHz)	Vph (m/ms)	Freq (MHz)	Vph (m/ms)	Freq (MHz)	Vph (m/ms)	Freq (MHz)	Vph (m/ms)	Freq (MHz)	Vph (m/ms)	Freq (MHz)	Vph (m/ms)
0.279509	714.095	0.000326204	0.111309	0.27951	534.685	0.441199	2284.87	0.559017	2355.77	0.838525	15038.4	0.139763	293.473	0.419267	514.387	0.698772	1281.46	0.882399	1139.81
0.279519	211.259	0.000565606	0.146442	0.279521	192.183	0.441207	392.257	0.559026	478.212	0.838529	849.183	0.139831	99.3162	0.419283	240.032	0.698779	473.111	0.882407	517.281
0.279538	123.974	0.000869543	0.181381	0.279542	117.152	0.441227	214.554	0.559045	266.125	0.838538	436.932	0.139965	59.8235	0.41931	156.548	0.698791	290.113	0.88242	334.56
0.279568	87.7351	0.00123704	0.216051	0.279573	84.2636	0.441259	147.668	0.559075	184.368	0.838553	294.142	0.140165	42.8467	0.419349	116.158	0.698809	209.201	0.88244	247.234
0.279608	67.8958	0.00166725	0.250435	0.279615	65.7989	0.441302	112.581	0.559117	141.046	0.838573	221.696	0.140432	33.4121	0.4194	92.3409	0.698833	163.582	0.882465	196.062
0.279658	55.3791	0.00215899	0.284486	0.279666	53.9768	0.441357	90.972	0.559169	114.215	0.838599	177.887	0.140763	27.4139	0.419462	76.6342	0.698863	134.299	0.882496	162.443
0.279719	46.7633	0.0027109	0.318151	0.279728	45.7601	0.441423	76.3277	0.559233	95.9649	0.838631	148.537	0.141158	23.2688	0.419535	65.4986	0.698899	113.911	0.882532	138.668
0.279789	40.4713	0.00332171	0.351412	0.2798	39.7182	0.441502	65.749	0.559307	82.748	0.838669	127.503	0.141616	20.2364	0.41962	57.1927	0.698941	98.8998	0.882575	120.966
0.27987	35.6751	0.00398989	0.384228	0.279882	35.0892	0.441592	57.7496	0.559392	72.7347	0.838713	111.69	0.142137	17.9244	0.419716	50.76	0.698988	87.3861	0.882623	107.274
0.279961	31.8983	0.00471396	0.416579	0.279975	31.4295	0.441693	51.4893	0.559489	64.8867	0.838762	99.3674	0.142717	16.1053	0.419824	45.6314	0.699042	78.2754	0.882677	96.3682
0.280062	28.8475	0.00549208	0.448422	0.280077	28.464	0.441806	46.4568	0.559596	58.5704	0.838817	89.4957	0.143357	14.6384	0.419944	41.4471	0.699101	70.8867	0.882737	87.4767
0.280173	26.3319	0.00632277	0.479752	0.28019	26.0124	0.441931	42.3235	0.559715	53.3776	0.838878	81.4097	0.144054	13.4318	0.420075	37.9686	0.699167	64.774	0.882802	80.0887
0.280295	24.2223	0.00720428	0.510545	0.280313	23.952	0.442067	38.8684	0.559844	49.0333	0.838945	74.6651	0.144808	12.4229	0.420217	35.0314	0.699238	59.6333	0.882874	73.8528
0.280427	22.4279	0.00813474	0.540778	0.280446	22.1963	0.442215	35.9375	0.559984	45.3453	0.839017	68.9539	0.145616	11.5676	0.420371	32.5185	0.699315	55.2498	0.882951	68.5191
0.280568	20.8832	0.00911247	0.570444	0.280589	20.6825	0.442375	33.42	0.560136	42.1756	0.839095	64.0555	0.146476	10.8341	0.420536	30.3443	0.699398	51.4679	0.883034	63.9051
0.28072	19.5395	0.0101357	0.599533	0.280743	19.364	0.442546	31.2344	0.560298	39.4223	0.839179	59.8081	0.147267	10.2755	0.420713	28.4448	0.699487	48.1716	0.883122	59.8744
0.280883	18.3601	0.0112027	0.628035	0.280906	18.2054	0.442728	29.3193	0.560471	37.0084	0.839268	56.09	0.147972	9.84903	0.420901	26.7711	0.699582	45.2733	0.883217	56.323
0.281055	17.3168	0.0123117	0.655946	0.28108	17.1793	0.442922	27.6276	0.560655	34.875	0.839364	52.8082	0.148574	9.52623	0.4211	25.2854	0.699682	42.7049	0.883317	53.1703
0.281238	16.3873	0.0134611	0.683263	0.281264	16.2644	0.443128	26.1223	0.56085	32.976	0.839465	49.8901	0.149063	9.28808	0.421311	23.9578	0.699789	40.4133	0.883423	50.3528
0.28143	15.5541	0.014649	0.709986	0.281458	15.4436	0.443345	24.7744	0.561056	31.2749	0.839572	47.2786	0.14943	9.12179	0.421534	22.7643	0.699901	38.356	0.883535	47.8197
0.281633	14.8031	0.015874	0.736116	0.281663	14.7031	0.443574	23.5605	0.561273	29.7423	0.839684	44.9278	0.149667	9.01904	0.421767	21.6858	0.700019	36.4989	0.883652	45.5302
0.281846	14.1227	0.0171343	0.761653	0.281877	14.0319	0.443814	22.4617	0.5615	28.3545	0.839803	42.8004	0.150013	8.87613	0.422012	20.7065	0.700143	34.8141	0.883775	43.4506
0.282069	13.5034	0.0184286	0.786607	0.282102	13.4206	0.444065	21.4624	0.561739	27.0919	0.839927	40.8663	0.150394	8.72686	0.422268	19.8133	0.700273	33.2789	0.883904	41.5535
0.282303	12.9376	0.0197551	0.810978	0.282336	12.8617	0.444328	20.5497	0.561988	25.9384	0.840057	39.1001	0.150921	8.53338	0.422536	18.9954	0.700409	31.874	0.884039	39.8159
0.282546	12.4185	0.0211126	0.834776	0.282581	12.3487	0.444602	19.713	0.562248	24.8805	0.840192	37.4811	0.151603	8.30322	0.422815	18.2438	0.700551	30.5838	0.884179	38.2185
0.282799	11.9406	0.0224995	0.858008	0.282836	11.8763	0.444887	18.9431	0.562519	23.9068	0.840333	35.9915	0.152448	8.04457	0.423105	17.5508	0.700699	29.3946	0.884326	36.745
0.283063	11.4994	0.0239147	0.880682	0.283101	11.4399	0.445184	18.2324	0.562801	23.0077	0.84048	34.6164	0.153468	7.76569	0.423407	16.9098	0.700852	28.2951	0.884478	35.3816
0.283337	11.0907	0.0253567	0.902812	0.283376	11.0355	0.445492	17.5744	0.563093	22.1751	0.840633	33.3432	0.154675	7.4744	0.423719	16.3152	0.701011	27.2756	0.884635	34.1164
0.283621	10.7112	0.0268245	0.924405	0.283662	10.6599	0.445811	16.9635	0.563397	21.4018	0.840792	32.161	0.15592	7.20995	0.424043	15.7622	0.701177	26.3276	0.884799	32.9391
0.283915	10.3579	0.0283166	0.94547	0.283957	10.31	0.446142	16.3949	0.563711	20.6817	0.840956	31.0603	0.157201	6.96895	0.424378	15.2466	0.701348	25.4439	0.884968	31.841
0.284219	10.0281	0.0298321	0.96602	0.284223	10.0241	0.446483	15.8643	0.564035	20.0097	0.841126	30.0331	0.158517	6.74853	0.424724	14.7648	0.701525	24.6182	0.885143	30.8144
0.284533	9.71966	0.0313699	0.986066	0.284455	9.79329	0.446836	15.3681	0.564371	19.381	0.841301	29.0722	0.159865	6.54628	0.425081	14.3136	0.701707	23.845	0.885323	29.8524
0.284857	9.43059	0.0329289	1.00562	0.284652	9.61068	0.4472	14.903	0.564716	18.7916	0.841483	28.1715	0.161246	6.36015	0.42545	13.8903	0.701896	23.1195	0.88551	28.9492
0.285191	9.15914	0.0345082	1.02469	0.28481	9.4713	0.447575	14.4663	0.565073	18.238	0.84167	27.3254	0.162656	6.18836	0.425829	13.4923	0.70209	22.4373	0.885702	28.0996
0.285536	8.90378	0.0361067	1.0433	0.284927	9.37152	0.447961	14.0556	0.56544	17.7171	0.841862	26.5292	0.164095	6.02938	0.42622	13.1174	0.702291	21.7948	0.885899	27.2989
0.28589	8.66315	0.0377237	1.06145	0.285003	9.30881	0.448358	13.6684	0.565818	17.2261	0.842061	25.7786	0.165562	5.88192	0.426621	12.7638	0.702497	21.1885	0.886103	26.5431
0.286255	8.43602	0.0393583	1.07915	0.285114	9.22022	0.448766	13.303	0.566206	16.7624	0.842265	25.0698	0.167055	5.7448	0.427034	12.4296	0.702709	20.6156	0.886312	25.8286
0.286629	8.22132	0.0410097	1.09642	0.285234	9.12593	0.449185	12.9576	0.566605	16.324	0.842475	24.3994	0.168573	5.61704	0.427457	12.1135	0.702927	20.0733	0.886527	25.1519
0.287014	8.01808	0.0426771	1.11327	0.285401	9.00094	0.449614	12.6305	0.567015	15.9087	0.84269	23.7644	0.170115	5.49775	0.427892	11.8139	0.70315	19.5593	0.886747	24.5103
0.287408	7.82542	0.0443597	1.1297	0.285615	8.84799	0.450055	12.3204	0.567435	15.515	0.842912	23.1621	0.17168	5.38615	0.428337	11.5296	0.70338	19.0714	0.886973	23.901
0.287813	7.64256	0.0460569	1.14574	0.285879	8.67027	0.450506	12.026	0.567865	15.141	0.843138	22.59	0.173267	5.28156	0.428794	11.2595	0.703615	18.6077	0.887205	23.3217
0.288227	7.46879	0.0477681	1.16139	0.286196	8.47128	0.450969	11.7462	0.568306	14.7855	0.843371	22.0459	0.174875	5.18336	0.429261	11.0026	0.703856	18.1665	0.887442	22.7703
0.288652	7.30346	0.0494926	1.17666	0.286569	8.25467	0.451441	11.48	0.568757	14.447	0.843609	21.5278	0.176503	5.09102	0.429739	10.7579	0.704103	17.7461	0.887686	22.2448
0.289086	7.146	0.0512297	1.19157	0.286952	8.04967	0.451925	11.2263	0.569218	14.1245	0.843853	21.0339	0.17815	5.00405	0.430227	10.5247	0.704356	17.3452	0.887934	21.7434
0.289531	6.99587	0.0529791	1.20612	0.287345	7.85538	0.452419	10.9843	0.56969	13.8167	0.844103	20.5626	0.179815	4.92201	0.430727	10.3021	0.704615	16.9624	0.888189	21.2644
0.289985	6.85258	0.05474	1.22032	0.287748	7.67101	0.452924	10.7533	0.570172	13.5229	0.844358	20.1124	0.181498	4.84452	0.431171	10.1163	0.704879	16.5965	0.888449	20.8066
0.29045	6.7157	0.056512	1.23419	0.288161	7.49584	0.453439	10.5326	0.570665	13.2419	0.844619	19.6818	0.183197	4.77122	0.431556	9.96349	0.705149	16.2465	0.888715	20.3684
0.290924	6.58481	0.0582946	1.24774	0.288584	7.32921	0.453965	10.3214	0.571168	12.9731	0.844885	19.2696	0.184912	4.7018	0.431878	9.84091	0.705425	15.9113	0.888986	19.9486
0.291409	6.45956	0.0600874	1.26096	0.289017	7.17054	0.454432	10.1448	0.57168	12.7157	0.845158	18.8748	0.186643	4.63598	0.432136	9.74629	0.705707	15.59	0.889263	19.5462
0.291903	6.33958	0.0618898	1.27388	0.28946	7.01927	0.454836	9.99931	0.572204	12.4689	0.845436	18.4961	0.188388	4.57348	0.432328	9.67798	0.705994	15.2818	0.889545	19.16
0.292407	6.22458	0.0637016	1.2865	0.289913	6.87493	0.455175	9.88241	0.572737	12.2322	0.845719	18.1327	0.190147	4.51408	0.432451	9.6348	0.706288	14.9859	0.889833	18.7891
0.292921	6.11426	0.0655223	1.29883	0.290375	6.73706	0.455445	9.79207	0.57328	12.0049	0.846008	17.7837	0.191919	4.45757	0.432629	9.57347	0.706587	14.7017	0.890127	18.4327
0.293445	6.00835	0.0673514	1.31088	0.290848	6.60524	0.455646	9.72679	0.573834	11.7866	0.846303	17.4481	0.193704	4.40373	0.432824	9.50777	0.706892	14.4283	0.890427	18.0899
0.293979	5.9066	0.0691887	1.32266	0.291331	6.47911	0.455775	9.68551	0.574397	11.5766	0.846603	17.1254	0.195502	4.3524	0.433091	9.42	0.707203	14.1653	0.890731	17.7599
0.294522	5.80878	0.0710338	1.33417	0.291824	6.35832	0.455961	9.62685	0.57497	11.3746	0.846909	16.8147	0.197311	4.30342	0.433432	9.31151	0.707519	13.912	0.891042	17.4421
0.295076	5.71469	0.0728864	1.34542	0.292326	6.24255	0.456165	9.56396	0.575554	11.18	0.847221	16.5154	0.199131	4.25663	0.43385	9.18394	0.707841	13.6679	0.891358	17.1358
0.295639	5.62412	0.0747462	1.35642	0.292839	6.1315	0.456444	9.47987	0.576147	10.9926	0.847538	16.2268	0.200962	4.21189	0.434348	9.03912	0.708169	13.4326	0.89168	16.8403
0.296213	5.53689	0.0766129	1.36718	0.293361	6.0249	0.456801	9.37583	0.576751	10.8119	0.847861	15.9485	0.202804	4.16907	0.434929	8.87906	0.708503	13.2056	0.892007	16.5552
0.296796	5.45283	0.0784861	1.3777	0.293893	5.92251	0.457237	9.25333	0.577364	10.6376	0.848189	15.6799	0.204655	4.12807	0.435521	8.72518	0.708843	12.9864	0.89234	16.2799
0.297389	5.37177	0.0803657	1.38799	0.294435	5.82408	0.457756	9.11408	0.577987	10.4694	0.848523	15.4205	0.206516	4.08876	0.436123	8.57714	0.709188	12.7746	0.892678	16.0138
0.297991	5.29357	0.0822514	1.39806	0.294987	5.72941	0.458361	8.95992	0.578538	10.3275	0.848863	15.1698	0.208386	4.05106	0.436735	8.43463	0.709539	12.57	0.893022	15.7566
0.298604	5.21809	0.0841428	1.40792	0.295549	5.6383	0.458976	8.81147	0.579013	10.2098	0.849208	14.9274	0.210265	4.01487	0.437358	8.29736	0.709896	12.3721	0.893371	15.5079
0.299226	5.14519	0.0860399	1.41756	0.296121	5.55055	0.459602	8.66842	0.57941	10.1148	0.849559	14.6929	0.212153	3.9801	0.437991	8.16505	0.710258	12.1806	0.893726	15.2671
0.299859	5.07476	0.0879423	1.427	0.296702	5.46599	0.460237	8.5305	0.579727	10.041	0.849915	14.466	0.214048	3.94667	0.438634	8.03744	0.710627	11.9953	0.894086	15.034
0.3005	5.00668	0.0898499	1.43624	0.297294	5.38446	0.460882	8.39744	0.579961	9.98746	0.850277	14.2463	0.215951	3.91452	0.439288	7.9143	0.711001	11.8158	0.894452	14.8082
0.301152	4.94084	0.0917624	1.44529	0.297895	5.30582	0.461537	8.26901	0.580112	9.95355	0.850644	14.0333	0.217862	3.88356	0.439951	7.7954	0.71138	11.6418	0.894823	14.5893
0.301814	4.87714	0.0936797	1.45415	0.298506	5.22991	0.462202	8.14496	0.580329	9.90525	0.851017	13.827	0.21978	3.85375	0.440625	7.68055	0.711766	11.4732	0.8952	14.377
0.302485	4.81549	0.0956016	1.46282	0.299127	5.15662	0.462876	8.02509	0.580566	9.85334	0.851396	13.6268	0.221704	3.82501	0.441309	7.56954	0.712157	11.3097	0.895582	14.1711
0.303166	4.75579	0.0975278	1.47132	0.299757	5.0858	0.463561	7.90919	0.580891	9.78371	0.85178	13.4327	0.223636	3.79729	0.442003	7.46219	0.712553	11.151	0.89597	13.9713
0.303767	4.7053	0.0994583	1.47965	0.300398	5.01736	0.464255	7.79709	0.581305	9.69721	0.852169	13.2442	0.225574	3.77054	0.442707	7.35833	0.712956	10.9969	0.896363	13.7772
0.304286	4.66333	0.101393	1.48781	0.301048	4.95117	0.464958	7.68859	0.581811	9.59487	0.852564	13.0612	0.227518	3.74472	0.443421	7.25781	0.713364	10.8473	0.896761	13.5888
0.304719	4.62936	0.103331	1.4958	0.301708	4.88713	0.465671	7.58355	0.582411	9.47786	0.852965	12.8835	0.229467	3.71977	0.444145	7.16046	0.713778	10.702	0.897165	13.4056
0.305063	4.60295	0.105274	1.50364	0.302377	4.82516	0.466394	7.4818	0.583108	9.34748	0.853371	12.7107	0.231423	3.69566	0.444879	7.06615	0.714143	10.5787	0.897575	13.2276
0.305318	4.58379	0.107219	1.51132	0.303057	4.76516	0.467126	7.3832	0.583815	9.22109	0.853782	12.5428	0.233384	3.67234	0.445623	6.97475	0.714458	10.476	0.897989	13.0545
0.305482	4.57163	0.109169	1.51885	0.303746	4.70704	0.467868	7.2876	0.584531	9.09851	0.854199	12.3795	0.235351	3.64977	0.446376	6.88612	0.714721	10.3926	0.89841	12.886
0.305719	4.5543	0.111121	1.52623	0.304445	4.65072	0.468619	7.19488	0.585257	8.97958	0.854622	12.2206	0.237322	3.62793	0.447139	6.80016	0.71493	10.3277	0.898835	12.7221
0.305977	4.53567	0.113077	1.53347	0.305154	4.59613	0.469379	7.10492	0.585992	8.86415	0.85505	12.066	0.239299	3.60677	0.447912	6.71674	0.715085	10.2805	0.899266	12.5626
0.30633	4.51064	0.115036	1.54057	0.305872	4.5432	0.470148	7.01759	0.586736	8.75206	0.855483	11.9154	0.24128	3.58627	0.448695	6.63577	0.715184	10.2506	0.899702	12.4072
0.30678	4.47952	0.116746	1.54665	0.3066	4.49185	0.470927	6.9328	0.58749	8.64318	0.855922	11.7688	0.243266	3.5664	0.449487	6.55714	0.715327	10.2078	0.900144	12.2558
0.307329	4.44264	0.118205	1.55175	0.307338	4.44203	0.471714	6.85043	0.588253	8.53738	0.856367	11.626	0.245256	3.54713	0.450289	6.48075	0.715484	10.1618	0.900591	12.1083
0.30798	4.4004	0.119412	1.55591	0.308086	4.39367	0.472511	6.7704	0.589025	8.43453	0.856817	11.4868	0.247251	3.52843	0.4511	6.40652	0.715698	10.0999	0.901044	11.9645
0.308736	4.35325	0.120368	1.55917	0.308843	4.34671	0.473317	6.6926	0.589806	8.33453	0.857272	11.3511	0.249249	3.51028	0.451921	6.33436	0.71597	10.0228	0.901501	11.8243
0.309501	4.30746	0.121071	1.56155	0.30961	4.30111	0.474131	6.61695	0.590596	8.23724	0.857732	11.2188	0.251252	3.49266	0.452752	6.2642	0.716303	9.93126	0.901964	11.6875
0.310277	4.26297	0.121521	1.56306	0.310387	4.2568	0.474955	6.54336	0.591396	8.14258	0.858199	11.0898	0.253259	3.47554	0.453592	6.19595	0.716697	9.82611	0.902433	11.5541
0.311062	4.21974	0.122169	1.56523	0.311173	4.21375	0.475787	6.47175	0.592204	8.05044	0.85867	10.9639	0.255269	3.4589	0.454441	6.12954	0.717154	9.70837	0.902906	11.4239
0.311857	4.17772	0.122873	1.56756	0.311969	4.17189	0.476628	6.40206	0.593021	7.96073	0.859086	10.8566	0.257283	3.44272	0.455299	6.0649	0.717618	9.59364	0.903385	11.2968
0.312661	4.13687	0.123831	1.57071	0.312776	4.1312	0.477478	6.33421	0.593848	7.87334	0.859443	10.767	0.2593	3.42699	0.456167	6.00197	0.718086	9.4818	0.903869	11.1727
0.313476	4.09714	0.125043	1.57466	0.313591	4.09162	0.478337	6.26813	0.594683	7.78821	0.859741	10.694	0.261321	3.41169	0.457044	5.94069	0.71856	9.37276	0.904359	11.0515
0.3143	4.05849	0.12651	1.57937	0.314417	4.05312	0.479204	6.20375	0.595527	7.70525	0.859977	10.6371	0.263344	3.39679	0.457931	5.88099	0.71904	9.26641	0.904789	10.9481
0.315134	4.02088	0.128233	1.58482	0.315252	4.01566	0.48008	6.14102	0.59638	7.62437	0.860152	10.5956	0.265371	3.38229	0.458826	5.82282	0.719526	9.16265	0.90516	10.8616
0.315977	3.98428	0.130212	1.59096	0.316097	3.9792	0.480964	6.07987	0.597241	7.54551	0.860265	10.5693	0.267401	3.36816	0.459731	5.76612	0.720017	9.06139	0.905468	10.7912
0.316831	3.94865	0.132194	1.59699	0.316952	3.94371	0.481857	6.02025	0.598111	7.46859	0.860427	10.5317	0.269434	3.3544	0.460644	5.71084	0.720514	8.96256	0.905713	10.7362
0.317694	3.91397	0.134178	1.60292	0.317817	3.90915	0.482758	5.9621	0.59899	7.39355	0.860603	10.4911	0.27147	3.34099	0.461567	5.65694	0.721016	8.86605	0.905895	10.6962
0.318567	3.88018	0.136164	1.60873	0.318691	3.87549	0.483667	5.90538	0.599878	7.32032	0.860845	10.4365	0.273508	3.32792	0.462498	5.60436	0.721524	8.7718	0.906011	10.6707
0.31945	3.84728	0.138151	1.61445	0.319575	3.84271	0.484585	5.85004	0.600774	7.24884	0.861152	10.3683	0.275549	3.31517	0.463439	5.55307	0.722037	8.67973	0.906179	10.6344
0.320343	3.81522	0.140141	1.62006	0.32047	3.81077	0.485511	5.79603	0.601678	7.17905	0.861526	10.2871	0.277593	3.30274	0.464388	5.50301	0.722556	8.58976	0.906361	10.5951
0.321246	3.78398	0.142133	1.62557	0.321374	3.77964	0.486445	5.7433	0.602591	7.11089	0.861969	10.1935	0.279639	3.29061	0.465347	5.45415	0.723081	8.50183	0.906611	10.5423
0.322158	3.75354	0.144126	1.63099	0.322288	3.74931	0.487387	5.69181	0.603513	7.04432	0.862482	10.0884	0.281687	3.27876	0.466314	5.40644	0.723611	8.41587	0.906929	10.4763
0.323081	3.72387	0.146121	1.63632	0.323212	3.71974	0.488337	5.64153	0.604443	6.97927	0.863	9.98567	0.283738	3.2672	0.46729	5.35986	0.724147	8.33182	0.907315	10.3976
0.324013	3.69494	0.148118	1.64155	0.324146	3.69092	0.489296	5.5924	0.605381	6.9157	0.863524	9.88516	0.285791	3.25591	0.468274	5.31436	0.724688	8.24961	0.907773	10.3069
0.324956	3.66673	0.150116	1.6467	0.32509	3.66281	0.490262	5.54441	0.606327	6.85357	0.864053	9.78683	0.287846	3.24488	0.469267	5.26991	0.725235	8.16919	0.908302	10.205
0.325909	3.63922	0.152116	1.65175	0.326044	3.63539	0.491236	5.4975	0.607282	6.79283	0.864587	9.69062	0.289903	3.2341	0.470269	5.22647	0.725787	8.0905	0.908837	10.1052
0.326871	3.61239	0.154118	1.65672	0.327008	3.60866	0.492218	5.45164	0.608245	6.73342	0.865127	9.59645	0.291962	3.22356	0.47128	5.18402	0.726344	8.01349	0.909377	10.0076
0.327844	3.58621	0.15612	1.66161	0.327982	3.58257	0.493208	5.40681	0.609216	6.67532	0.865672	9.50427	0.294023	3.21327	0.472299	5.14253	0.726908	7.93811	0.909922	9.91192
0.328827	3.56068	0.158125	1.66642	0.328967	3.55713	0.494205	5.36297	0.610195	6.61849	0.866222	9.41402	0.296086	3.20319	0.473326	5.10196	0.727476	7.86431	0.910472	9.81827
0.329821	3.53576	0.16013	1.67115	0.329962	3.5323	0.49521	5.32009	0.611182	6.56287	0.866777	9.32563	0.29815	3.19334	0.474362	5.06229	0.728051	7.79203	0.911027	9.72653
0.330825	3.51145	0.162137	1.6758	0.330967	3.50807	0.496223	5.27814	0.612178	6.50844	0.867338	9.23905	0.300217	3.1837	0.475406	5.02348	0.72863	7.72124	0.911588	9.63666
0.331839	3.48772	0.164145	1.68037	0.331982	3.48442	0.497243	5.23709	0.613181	6.45517	0.867904	9.15423	0.302285	3.17427	0.476459	4.98552	0.729216	7.6519	0.912153	9.54859
0.332863	3.46456	0.166154	1.68487	0.333008	3.46134	0.498271	5.19692	0.614192	6.40301	0.868476	9.07111	0.304354	3.16504	0.47752	4.94838	0.729806	7.58395	0.912724	9.46227
0.333898	3.44196	0.168165	1.68929	0.334045	3.43882	0.499306	5.1576	0.615211	6.35194	0.869052	8.98965	0.306426	3.156	0.478589	4.91204	0.730402	7.51736	0.913299	9.37766
0.334944	3.41989	0.170176	1.69365	0.335092	3.41683	0.500349	5.1191	0.616238	6.30192	0.869634	8.9098	0.308498	3.14715	0.479666	4.87646	0.731004	7.45209	0.91388	9.2947
0.336	3.39835	0.172189	1.69793	0.33615	3.39536	0.501399	5.08141	0.617272	6.25292	0.870221	8.83151	0.310572	3.13848	0.480752	4.84164	0.731611	7.38811	0.914465	9.21336
0.337068	3.37732	0.174202	1.70215	0.337219	3.37439	0.502456	5.04449	0.618315	6.20492	0.870813	8.75474	0.312648	3.12998	0.481846	4.80755	0.732223	7.32537	0.915056	9.13357
0.338146	3.35678	0.176217	1.7063	0.338298	3.35393	0.503521	5.00833	0.619364	6.15788	0.871411	8.67945	0.314725	3.12165	0.482947	4.77416	0.732841	7.26385	0.915652	9.05531
0.339235	3.33673	0.178233	1.71039	0.339389	3.33395	0.504592	4.9729	0.620422	6.11178	0.872014	8.60559	0.316803	3.1135	0.484057	4.74146	0.733464	7.2035	0.916253	8.97852
0.340335	3.31716	0.180249	1.71441	0.340491	3.31443	0.505671	4.93819	0.621487	6.06659	0.872621	8.53313	0.318882	3.10549	0.485175	4.70943	0.734093	7.1443	0.916858	8.90317
0.341446	3.29804	0.182266	1.71837	0.341604	3.29538	0.506757	4.90418	0.62256	6.02229	0.873234	8.46203	0.320963	3.09765	0.486301	4.67805	0.734727	7.08622	0.917469	8.82922
0.342569	3.27937	0.184285	1.72227	0.342728	3.27678	0.50785	4.87084	0.62364	5.97885	0.873853	8.39226	0.323044	3.08996	0.487435	4.64731	0.735367	7.02922	0.918085	8.75663
0.343703	3.26115	0.186304	1.72611	0.343864	3.25861	0.50895	4.83815	0.624728	5.93626	0.874476	8.32376	0.325127	3.08241	0.488577	4.61718	0.736012	6.97328	0.918705	8.68537
0.344849	3.24335	0.188323	1.72989	0.345012	3.24087	0.510057	4.80611	0.625823	5.89448	0.875105	8.25652	0.327211	3.075	0.489726	4.58765	0.736662	6.91837	0.919331	8.6154
0.346007	3.22597	0.190344	1.73361	0.346171	3.22355	0.511171	4.77469	0.626925	5.85349	0.875738	8.1905	0.329296	3.06773	0.490883	4.5587	0.737317	6.86447	0.919961	8.54668
0.347177	3.209	0.192365	1.73728	0.347342	3.20664	0.512291	4.74387	0.628035	5.81329	0.876377	8.12567	0.331381	3.0606	0.492048	4.53032	0.737978	6.81154	0.920597	8.47919
0.348358	3.19243	0.194387	1.74089	0.348526	3.19012	0.513419	4.71364	0.629152	5.77383	0.877021	8.062	0.333468	3.0536	0.493221	4.5025	0.738645	6.75956	0.921237	8.4129
0.349552	3.17625	0.19641	1.74445	0.349722	3.174	0.514553	4.68399	0.630276	5.73511	0.87767	7.99945	0.335556	3.04672	0.494402	4.47521	0.739316	6.70851	0.921882	8.34776
0.350759	3.16046	0.198433	1.74796	0.35093	3.15826	0.515694	4.65489	0.631407	5.6971	0.878324	7.93801	0.337644	3.03996	0.49559	4.44845	0.739993	6.65836	0.922532	8.28376
0.351978	3.14504	0.200457	1.75141	0.352151	3.1429	0.516841	4.62634	0.632546	5.6598	0.878984	7.87763	0.339733	3.03333	0.496785	4.4222	0.740675	6.60909	0.923187	8.22087
0.353211	3.13	0.202481	1.75481	0.353385	3.1279	0.517995	4.59832	0.633691	5.62317	0.879648	7.81831	0.341823	3.02681	0.497989	4.39645	0.741363	6.56068	0.923847	8.15905
0.354456	3.11531	0.204506	1.75817	0.354633	3.11327	0.519156	4.57082	0.634844	5.5872	0.880318	7.76	0.343914	3.0204	0.499199	4.37118	0.742056	6.51311	0.924512	8.09828
0.355715	3.10098	0.206532	1.76147	0.355893	3.09899	0.520323	4.54382	0.636003	5.55188	0.880992	7.70268	0.346005	3.01411	0.500417	4.34639	0.742754	6.46636	0.925181	8.03854
0.356987	3.087	0.208558	1.76473	0.357168	3.08506	0.521496	4.51732	0.63717	5.51719	0.881672	7.64634	0.348097	3.00792	0.501643	4.32206	0.743457	6.42041	0.925856	7.97981
0.358273	3.07336	0.210585	1.76794	0.358456	3.07147	0.522676	4.49129	0.638343	5.48312	0.882356	7.59094	0.35019	3.00184	0.502876	4.29818	0.744166	6.37523	0.926535	7.92204
0.359574	3.06006	0.212612	1.7711	0.359758	3.05821	0.523862	4.46573	0.639523	5.44964	0.883046	7.53646	0.352283	2.99585	0.504116	4.27474	0.74488	6.33082	0.927219	7.86523
0.360888	3.04709	0.214639	1.77422	0.361075	3.04529	0.525055	4.44063	0.64071	5.41675	0.883741	7.48289	0.354377	2.98997	0.505364	4.25173	0.745599	6.28715	0.927907	7.80936
0.362218	3.03444	0.216667	1.7773	0.362407	3.03269	0.526253	4.41597	0.641904	5.38443	0.88444	7.4302	0.356471	2.98418	0.506619	4.22914	0.746324	6.2442	0.928601	7.75439
0.363563	3.02212	0.218695	1.78033	0.363753	3.02041	0.527458	4.39174	0.643104	5.35267	0.885145	7.37837	0.358566	2.97848	0.507881	4.20695	0.747054	6.20196	0.929299	7.70031
0.364922	3.01011	0.220724	1.78332	0.365115	3.00844	0.528669	4.36794	0.644311	5.32145	0.885855	7.32737	0.360661	2.97288	0.50915	4.18517	0.747789	6.16041	0.930002	7.6471
0.366298	2.99841	0.222753	1.78627	0.366493	2.99679	0.529886	4.34456	0.645525	5.29076	0.886569	7.2772	0.362757	2.96737	0.510427	4.16377	0.748529	6.11954	0.930709	7.59473
0.367689	2.98702	0.224783	1.78917	0.367887	2.98544	0.53111	4.32157	0.646745	5.26059	0.887289	7.22784	0.364853	2.96194	0.51171	4.14276	0.749274	6.07933	0.931422	7.54319
0.369097	2.97593	0.226812	1.79204	0.369297	2.97439	0.532339	4.29898	0.647972	5.23093	0.888014	7.17925	0.366949	2.95659	0.513001	4.12211	0.750025	6.03976	0.932139	7.49247
0.370521	2.96514	0.228842	1.79487	0.370723	2.96364	0.533574	4.27678	0.649205	5.20176	0.888743	7.13143	0.369046	2.95133	0.514299	4.10183	0.750781	6.00082	0.93286	7.44253
0.371963	2.95465	0.230873	1.79766	0.372167	2.95319	0.534815	4.25495	0.650444	5.17307	0.889478	7.08436	0.371143	2.94615	0.515603	4.08191	0.751542	5.96251	0.933587	7.39337
0.373421	2.94444	0.232904	1.80041	0.373628	2.94303	0.536062	4.23349	0.65169	5.14486	0.890217	7.03803	0.37324	2.94105	0.516915	4.06233	0.752308	5.92479	0.934318	7.34496
0.374897	2.93452	0.234935	1.80312	0.375107	2.93315	0.537315	4.21239	0.652943	5.11711	0.890962	6.99241	0.375337	2.93602	0.518234	4.04309	0.753079	5.88766	0.935053	7.2973
0.376392	2.92489	0.236966	1.8058	0.376604	2.92355	0.538574	4.19164	0.654201	5.0898	0.891711	6.94749	0.377435	2.93107	0.519559	4.02418	0.753856	5.85111	0.935793	7.25036
0.377904	2.91553	0.238997	1.80844	0.378119	2.91424	0.539838	4.17124	0.655466	5.06295	0.892465	6.90325	0.379533	2.92618	0.520892	4.00559	0.754637	5.81513	0.936538	7.20413
0.379435	2.90645	0.241029	1.81104	0.379652	2.90519	0.541108	4.15116	0.656737	5.03652	0.893224	6.85969	0.381631	2.92138	0.522231	3.98732	0.755424	5.77969	0.937288	7.15859
0.380985	2.89765	0.243061	1.81362	0.381205	2.89643	0.542384	4.13142	0.658014	5.01051	0.893988	6.81678	0.383729	2.91663	0.523577	3.96936	0.756216	5.7448	0.938042	7.11373
0.382554	2.88911	0.245093	1.81615	0.382777	2.88793	0.543665	4.112	0.659298	4.98492	0.894757	6.77451	0.385827	2.91196	0.524929	3.9517	0.757013	5.71044	0.9388	7.06953
0.384143	2.88084	0.247125	1.81866	0.384369	2.87969	0.544952	4.09289	0.660587	4.95973	0.895531	6.73288	0.387926	2.90735	0.526289	3.93434	0.757815	5.67659	0.939564	7.02598
0.385752	2.87283	0.249158	1.82113	0.38598	2.87172	0.546244	4.07409	0.661883	4.93493	0.896309	6.69186	0.390024	2.90281	0.527655	3.91727	0.758622	5.64325	0.940331	6.98307
0.38738	2.86508	0.25119	1.82357	0.387611	2.864	0.547542	4.05559	0.663184	4.91053	0.897093	6.65144	0.392122	2.89833	0.529027	3.90048	0.759434	5.61041	0.941104	6.94078
0.389029	2.85758	0.253223	1.82597	0.389263	2.85654	0.548845	4.03738	0.664491	4.8865	0.897881	6.61161	0.394221	2.89391	0.530407	3.88397	0.760251	5.57806	0.94188	6.8991
0.390698	2.85033	0.255256	1.82835	0.390935	2.84933	0.550154	4.01946	0.665805	4.86284	0.898674	6.57236	0.396319	2.88955	0.531792	3.86773	0.761074	5.54618	0.942662	6.85802
0.392388	2.84333	0.257289	1.83069	0.392628	2.84237	0.551468	4.00182	0.667124	4.83954	0.899472	6.53367	0.398417	2.88525	0.533185	3.85176	0.761901	5.51476	0.943447	6.81753
0.394098	2.83658	0.259322	1.83301	0.394341	2.83564	0.552788	3.98445	0.668449	4.8166	0.900274	6.49554	0.400515	2.88101	0.534584	3.83604	0.762734	5.48381	0.944238	6.77761
0.39583	2.83006	0.261356	1.83529	0.396075	2.82916	0.554112	3.96736	0.669779	4.794	0.901082	6.45796	0.402614	2.87682	0.535989	3.82058	0.763571	5.4533	0.945032	6.73825
0.397581	2.82377	0.263389	1.83755	0.39783	2.82291	0.555442	3.95053	0.671116	4.77174	0.901894	6.4209	0.404711	2.87268	0.537401	3.80538	0.764414	5.42323	0.945832	6.69944
0.399354	2.81772	0.265422	1.83978	0.399606	2.81688	0.556777	3.93395	0.672458	4.74982	0.902711	6.38437	0.406809	2.8686	0.538819	3.79041	0.765261	5.39359	0.946635	6.66118
0.401147	2.81189	0.267456	1.84198	0.401402	2.81108	0.558118	3.91763	0.673806	4.72823	0.903533	6.34835	0.408907	2.86458	0.540244	3.77569	0.766114	5.36437	0.947443	6.62344
0.402961	2.80627	0.26949	1.84415	0.403219	2.8055	0.559463	3.90156	0.675159	4.70695	0.904359	6.31283	0.411004	2.8606	0.541675	3.76119	0.766971	5.33557	0.948256	6.58622
0.404795	2.80087	0.271523	1.84629	0.405056	2.80013	0.560814	3.88573	0.676518	4.68599	0.90519	6.27781	0.413102	2.85667	0.543112	3.74693	0.767834	5.30717	0.949072	6.54951
0.40665	2.79568	0.273557	1.84841	0.406913	2.79497	0.562169	3.87014	0.677883	4.66533	0.906026	6.24326	0.415198	2.85279	0.544555	3.7329	0.768701	5.27917	0.949894	6.5133
0.408524	2.7907	0.275591	1.85051	0.40879	2.79001	0.56353	3.85478	0.679253	4.64497	0.906867	6.20919	0.417295	2.84896	0.546005	3.71908	0.769574	5.25156	0.950719	6.47758
0.410419	2.7859	0.277624	1.85257	0.410687	2.78524	0.564895	3.83965	0.680628	4.62491	0.907712	6.17558	0.419392	2.84517	0.547461	3.70548	0.770451	5.22433	0.951549	6.44234
0.412332	2.7813	0.279658	1.85461	0.412604	2.78067	0.566266	3.82475	0.682009	4.60514	0.908562	6.14243	0.421488	2.84143	0.548923	3.6921	0.771333	5.19748	0.952383	6.40757
0.414265	2.77689	0.281692	1.85663	0.414539	2.77628	0.567641	3.81006	0.683395	4.58565	0.909417	6.10972	0.423583	2.83774	0.550391	3.67892	0.77222	5.17099	0.953222	6.37326
0.416217	2.77265	0.283726	1.85862	0.416493	2.77207	0.569021	3.79559	0.684786	4.56644	0.910276	6.07746	0.425679	2.83409	0.551865	3.66594	0.773113	5.14487	0.954065	6.3394
0.418186	2.76859	0.285759	1.86059	0.418465	2.76803	0.570406	3.78133	0.686183	4.5475	0.91114	6.04562	0.427774	2.83048	0.553346	3.65317	0.77401	5.1191	0.954912	6.30599
0.420174	2.7647	0.287793	1.86253	0.420455	2.76416	0.571796	3.76727	0.687585	4.52883	0.912009	6.0142	0.429869	2.82691	0.554832	3.64059	0.774912	5.09368	0.955763	6.27302
0.422179	2.76096	0.289827	1.86445	0.422463	2.76045	0.573191	3.75342	0.688992	4.51042	0.912882	5.9832	0.431963	2.82338	0.556325	3.6282	0.775818	5.0686	0.956619	6.24048
0.4242	2.75738	0.291861	1.86635	0.424487	2.75689	0.57459	3.73977	0.690404	4.49226	0.91376	5.9526	0.434057	2.8199	0.557823	3.616	0.77673	5.04385	0.957479	6.20835
0.426239	2.75395	0.293894	1.86822	0.426527	2.75348	0.575994	3.72631	0.691822	4.47436	0.914643	5.92241	0.43615	2.81645	0.559327	3.60398	0.777647	5.01943	0.958344	6.17664
0.428293	2.75067	0.295928	1.87007	0.428583	2.75022	0.577403	3.71304	0.693244	4.45671	0.91553	5.8926	0.438243	2.81304	0.560838	3.59215	0.778568	4.99534	0.959212	6.14534
0.430362	2.74752	0.297962	1.8719	0.430655	2.74708	0.578816	3.69996	0.694672	4.43929	0.916421	5.86318	0.440335	2.80967	0.562354	3.5805	0.779494	4.97156	0.960085	6.11443
0.432446	2.7445	0.299995	1.87371	0.432741	2.74408	0.580234	3.68707	0.696104	4.42212	0.917318	5.83414	0.442427	2.80633	0.563876	3.56902	0.780425	4.9481	0.960962	6.08392
0.434545	2.74161	0.302028	1.8755	0.434842	2.74121	0.581656	3.67435	0.697542	4.40518	0.918219	5.80547	0.444518	2.80303	0.565404	3.55771	0.781361	4.92494	0.961843	6.05379
0.436657	2.73884	0.304062	1.87726	0.436956	2.73845	0.583083	3.66181	0.698984	4.38846	0.919124	5.77716	0.446609	2.79977	0.566938	3.54657	0.782302	4.90208	0.962728	6.02403
0.438783	2.73618	0.306095	1.87901	0.439084	2.73581	0.584514	3.64945	0.700432	4.37198	0.920034	5.74921	0.448699	2.79654	0.568477	3.53559	0.783248	4.87952	0.963617	5.99465
0.440922	2.73363	0.308128	1.88073	0.441224	2.73328	0.58595	3.63725	0.701884	4.35571	0.920948	5.72162	0.450789	2.79334	0.570022	3.52478	0.784198	4.85725	0.964511	5.96563
0.443072	2.73119	0.310162	1.88244	0.443376	2.73085	0.58739	3.62523	0.703341	4.33966	0.921867	5.69436	0.452878	2.79018	0.571573	3.51412	0.785153	4.83526	0.965409	5.93697
0.445235	2.72885	0.312195	1.88412	0.445541	2.72853	0.588835	3.61337	0.704802	4.32382	0.922791	5.66745	0.454967	2.78704	0.57313	3.50362	0.786113	4.81355	0.966311	5.90866
0.447409	2.7266	0.314228	1.88579	0.447716	2.72629	0.590284	3.60166	0.706269	4.3082	0.923719	5.64087	0.457054	2.78394	0.574692	3.49328	0.787077	4.79212	0.967217	5.8807
0.449593	2.72445	0.31626	1.88743	0.449902	2.72415	0.591737	3.59012	0.70774	4.29277	0.924651	5.61462	0.459141	2.78088	0.57626	3.48308	0.788047	4.77096	0.968127	5.85308
0.451788	2.72238	0.318293	1.88906	0.452098	2.72209	0.593194	3.57874	0.709216	4.27755	0.925588	5.5887	0.461228	2.77784	0.577834	3.47303	0.789021	4.75006	0.969041	5.82579
0.453993	2.72039	0.320326	1.89067	0.454305	2.72012	0.594656	3.5675	0.710696	4.26253	0.92653	5.56308	0.463314	2.77483	0.579413	3.46313	0.79	4.72943	0.969959	5.79883
0.456207	2.71848	0.322358	1.89226	0.45652	2.71822	0.596122	3.55642	0.712181	4.2477	0.927476	5.53778	0.465399	2.77185	0.580998	3.45337	0.790983	4.70905	0.970881	5.77219
0.458431	2.71665	0.324391	1.89383	0.458745	2.71639	0.597592	3.54548	0.713671	4.23306	0.928426	5.51279	0.467483	2.7689	0.582588	3.44375	0.791971	4.68892	0.971808	5.74587
0.460663	2.71488	0.326423	1.89539	0.460978	2.71464	0.599067	3.53469	0.715165	4.21861	0.929381	5.4881	0.469567	2.76598	0.584184	3.43427	0.792964	4.66905	0.972738	5.71986
0.462903	2.71319	0.328455	1.89693	0.463219	2.71296	0.600545	3.52404	0.716664	4.20434	0.93034	5.4637	0.471649	2.76308	0.585785	3.42493	0.793962	4.64942	0.973672	5.69416
0.465151	2.71156	0.330487	1.89845	0.465469	2.71133	0.602028	3.51353	0.718167	4.19026	0.931303	5.4396	0.473732	2.76021	0.587392	3.41571	0.794964	4.63002	0.974611	5.66876
0.467407	2.70999	0.332519	1.89995	0.467725	2.70977	0.603514	3.50316	0.719674	4.17635	0.932271	5.41578	0.475813	2.75737	0.589004	3.40663	0.795971	4.61087	0.975553	5.64366
0.46967	2.70848	0.334551	1.90144	0.469989	2.70827	0.605005	3.49292	0.721186	4.16262	0.933244	5.39224	0.477893	2.75456	0.590621	3.39768	0.796983	4.59194	0.976499	5.61885
0.47194	2.70703	0.336582	1.90291	0.47226	2.70682	0.6065	3.48282	0.722702	4.14906	0.934221	5.36898	0.479973	2.75177	0.592244	3.38885	0.797999	4.57325	0.97745	5.59433
0.474216	2.70562	0.338614	1.90436	0.474537	2.70543	0.607998	3.47284	0.724223	4.13566	0.935202	5.346	0.482052	2.749	0.593872	3.38015	0.79902	4.55478	0.978404	5.57008
0.476499	2.70427	0.340645	1.9058	0.476821	2.70408	0.609501	3.463	0.725747	4.12244	0.936187	5.32328	0.48413	2.74626	0.595506	3.37156	0.800045	4.53653	0.979362	5.54612
0.478787	2.70297	0.342676	1.90722	0.47911	2.70279	0.611008	3.45328	0.727276	4.10937	0.937177	5.30083	0.486207	2.74354	0.597144	3.3631	0.801075	4.5185	0.980324	5.52243
0.481081	2.70171	0.344707	1.90862	0.481405	2.70153	0.612518	3.44368	0.72881	4.09647	0.938171	5.27863	0.488283	2.74085	0.598788	3.35476	0.80211	4.50068	0.98129	5.49901
0.483381	2.70049	0.346738	1.91002	0.483706	2.70033	0.614032	3.4342	0.730347	4.08373	0.93917	5.25669	0.490359	2.73818	0.600438	3.34653	0.803149	4.48308	0.98226	5.47586
0.485686	2.69932	0.348768	1.91139	0.486011	2.69916	0.615551	3.42485	0.731888	4.07114	0.940173	5.23501	0.492433	2.73553	0.602092	3.33841	0.804193	4.46568	0.983234	5.45296
0.487996	2.69819	0.350799	1.91275	0.488322	2.69803	0.617073	3.41561	0.733434	4.0587	0.94118	5.21357	0.494507	2.7329	0.603751	3.33041	0.805241	4.44849	0.984211	5.43033
0.490311	2.69709	0.352829	1.9141	0.490637	2.69694	0.618599	3.40649	0.734984	4.04641	0.942191	5.19237	0.49658	2.7303	0.605416	3.32252	0.806294	4.43149	0.985193	5.40794
0.49263	2.69603	0.354859	1.91543	0.492957	2.69588	0.620128	3.39748	0.736537	4.03427	0.943207	5.17142	0.498651	2.72772	0.607086	3.31473	0.807351	4.4147	0.986178	5.38581
0.494953	2.695	0.356889	1.91675	0.495281	2.69486	0.621662	3.38859	0.738095	4.02228	0.944227	5.1507	0.500722	2.72516	0.608761	3.30706	0.808413	4.3981	0.987167	5.36392
0.49728	2.69401	0.358918	1.91805	0.497609	2.69387	0.623199	3.3798	0.739657	4.01043	0.945251	5.13021	0.502792	2.72262	0.610441	3.29948	0.80948	4.38169	0.98816	5.34227
0.499612	2.69305	0.360948	1.91934	0.499941	2.69291	0.624739	3.37112	0.741222	3.99872	0.946279	5.10995	0.504861	2.7201	0.612126	3.29201	0.810551	4.36547	0.989157	5.32085
0.501947	2.69211	0.362977	1.92061	0.502277	2.69198	0.626284	3.36255	0.742792	3.98714	0.947312	5.08992	0.506929	2.7176	0.613816	3.28464	0.811626	4.34944	0.990158	5.29967
0.504286	2.69121	0.365006	1.92188	0.504616	2.69108	0.627832	3.35408	0.744365	3.9757	0.948349	5.07011	0.508996	2.71512	0.615511	3.27737	0.812706	4.33359	0.991162	5.27873
0.506628	2.69033	0.367035	1.92312	0.506958	2.69021	0.629384	3.34572	0.745942	3.9644	0.94939	5.05052	0.511061	2.71265	0.617211	3.2702	0.813791	4.31792	0.99217	5.25801
0.508973	2.68948	0.369064	1.92436	0.509304	2.68936	0.630939	3.33746	0.747523	3.95323	0.950435	5.03115	0.513126	2.71021	0.618916	3.26313	0.81488	4.30243	0.993182	5.23751
0.511322	2.68865	0.371092	1.92558	0.511653	2.68854	0.632498	3.3293	0.749108	3.94219	0.951485	5.01198	0.51519	2.70779	0.620626	3.25615	0.815973	4.28711	0.994198	5.21723
0.513673	2.68785	0.373121	1.92679	0.514005	2.68774	0.63406	3.32123	0.750697	3.93127	0.952539	4.99303	0.517253	2.70538	0.622341	3.24926	0.817071	4.27197	0.995217	5.19717
0.516028	2.68707	0.375149	1.92799	0.51636	2.68696	0.635626	3.31327	0.752289	3.92048	0.953596	4.97428	0.519315	2.70299	0.62406	3.24247	0.818173	4.257	0.99624	5.17732
0.518385	2.68631	0.377176	1.92917	0.518717	2.68621	0.637196	3.30539	0.753885	3.90981	0.954658	4.95573	0.521376	2.70062	0.625785	3.23576	0.81928	4.24219	0.997267	5.15768
0.520745	2.68557	0.379204	1.93034	0.521077	2.68547	0.638768	3.29762	0.755485	3.89927	0.955725	4.93739	0.523435	2.69827	0.627514	3.22915	0.820391	4.22755	0.998297	5.13826
0.523107	2.68485	0.381231	1.9315	0.52344	2.68475	0.640345	3.28993	0.757088	3.88884	0.956795	4.91924	0.525494	2.69593	0.629248	3.22262	0.821506	4.21307	0.999331	5.11903
0.525471	2.68416	0.383259	1.93265	0.525805	2.68406	0.641925	3.28233	0.758695	3.87853	0.957869	4.90129	0.527551	2.69361	0.630987	3.21618	0.822626	4.19875	1.00037	5.10001
0.527838	2.68347	0.385286	1.93379	0.528172	2.68338	0.643508	3.27483	0.760305	3.86834	0.958948	4.88353	0.529608	2.69131	0.63273	3.20982	0.82375	4.18459		
0.530207	2.68281	0.387312	1.93491	0.530541	2.68272	0.645095	3.26741	0.761919	3.85826	0.960031	4.86595	0.531663	2.68902	0.634478	3.20355	0.824879	4.17058		
0.532578	2.68216	0.389339	1.93602	0.532912	2.68207	0.646685	3.26008	0.763536	3.8483	0.961117	4.84856	0.533718	2.68675	0.636231	3.19736	0.826012	4.15673		
0.534951	2.68153	0.391365	1.93713	0.535286	2.68144	0.648278	3.25283	0.765157	3.83844	0.962208	4.83136	0.535771	2.6845	0.637989	3.19125	0.827149	4.14302		
0.537326	2.68091	0.393391	1.93822	0.537661	2.68083	0.649875	3.24567	0.766782	3.8287	0.963303	4.81433	0.537823	2.68226	0.639751	3.18522	0.82829	4.12947		
0.539703	2.68031	0.395417	1.9393	0.540038	2.68023	0.651475	3.2386	0.768409	3.81906	0.964402	4.79749	0.539874	2.68003	0.641517	3.17926	0.829436	4.11607		
0.542081	2.67973	0.397442	1.94036	0.542416	2.67964	0.653078	3.2316	0.77004	3.80952	0.965505	4.78082	0.541924	2.67782	0.643289	3.17339	0.830586	4.1028		
0.544461	2.67915	0.399468	1.94142	0.544797	2.67907	0.654685	3.22468	0.771675	3.8001	0.966612	4.76432	0.543972	2.67563	0.645064	3.16759	0.831741	4.08969		
0.546843	2.67859	0.401493	1.94247	0.547179	2.67851	0.656295	3.21784	0.773313	3.79077	0.967723	4.74799	0.54602	2.67345	0.646845	3.16187	0.8329	4.07671		
0.549226	2.67804	0.403518	1.9435	0.549562	2.67797	0.657908	3.21108	0.774954	3.78154	0.968839	4.73183	0.548066	2.67128	0.648629	3.15622	0.834063	4.06387		
0.55161	2.67751	0.405542	1.94453	0.551947	2.67743	0.659524	3.2044	0.776598	3.77242	0.969958	4.71584	0.550111	2.66913	0.650419	3.15064	0.83523	4.05116		
0.553996	2.67698	0.407567	1.94554	0.554333	2.67691	0.661144	3.19779	0.778246	3.76339	0.971081	4.70001	0.552155	2.66699	0.652212	3.14513	0.836402	4.0386		
0.556383	2.67647	0.409591	1.94655	0.55672	2.67639	0.662766	3.19126	0.779897	3.75446	0.972208	4.68434	0.554198	2.66487	0.65401	3.1397	0.837578	4.02616		
0.558772	2.67596	0.411615	1.94754	0.559109	2.67589	0.664392	3.1848	0.781551	3.74562	0.973339	4.66883	0.55624	2.66276	0.655813	3.13433	0.838758	4.01386		
0.561161	2.67547	0.413638	1.94853	0.561498	2.6754	0.666021	3.17842	0.783208	3.73687	0.974474	4.65348	0.558281	2.66066	0.657619	3.12903	0.839942	4.00168		
0.563552	2.67498	0.415662	1.9495	0.563889	2.67492	0.667653	3.1721	0.784869	3.72822	0.975613	4.63828	0.56032	2.65857	0.659431	3.1238	0.841131	3.98964		
0.565944	2.67451	0.417685	1.95047	0.566281	2.67444	0.669289	3.16586	0.786532	3.71966	0.976756	4.62324	0.562359	2.6565	0.661246	3.11864	0.842323	3.97772		
0.568337	2.67404	0.419708	1.95142	0.568674	2.67398	0.670927	3.15968	0.788199	3.71119	0.977903	4.60834	0.564396	2.65444	0.663066	3.11354	0.84352	3.96592		
0.570731	2.67359	0.42173	1.95237	0.571068	2.67352	0.672568	3.15358	0.789869	3.70281	0.979054	4.5936	0.566432	2.65239	0.664889	3.1085	0.844721	3.95424		
0.573125	2.67314	0.423753	1.95331	0.573463	2.67307	0.674213	3.14754	0.791541	3.69452	0.980209	4.579	0.568467	2.65036	0.666717	3.10353	0.845927	3.94269		
0.575521	2.6727	0.425775	1.95424	0.575858	2.67263	0.675861	3.14156	0.793217	3.68631	0.981367	4.56455	0.5705	2.64834	0.66855	3.09862	0.847136	3.93126		
0.577917	2.67226	0.427797	1.95516	0.578255	2.6722	0.677511	3.13566	0.794896	3.67818	0.98253	4.55024	0.572533	2.64633	0.670386	3.09377	0.84835	3.91994		
0.580314	2.67184	0.429818	1.95607	0.580652	2.67178	0.679165	3.12981	0.796577	3.67014	0.983696	4.53607	0.574564	2.64433	0.672227	3.08899	0.849567	3.90874		
0.582712	2.67142	0.43184	1.95697	0.58305	2.67136	0.680822	3.12403	0.798262	3.66218	0.984867	4.52203	0.576594	2.64234	0.674071	3.08426	0.850789	3.89765		
0.585111	2.671	0.433861	1.95786	0.585449	2.67095	0.682481	3.11832	0.799949	3.6543	0.986041	4.50814	0.578623	2.64036	0.67592	3.07959	0.852015	3.88668		
0.58751	2.6706	0.435881	1.95874	0.587848	2.67054	0.684144	3.11266	0.80164	3.64651	0.987219	4.49438	0.580651	2.6384	0.677772	3.07497	0.853245	3.87582		
0.58991	2.6702	0.437902	1.95962	0.590248	2.67014	0.685809	3.10707	0.803333	3.63879	0.988401	4.48076	0.582677	2.63645	0.679629	3.07042	0.85448	3.86507		
0.59231	2.6698	0.439922	1.96049	0.592648	2.66975	0.687478	3.10154	0.805029	3.63114	0.989587	4.46726	0.584703	2.63451	0.68149	3.06592	0.855718	3.85443		
0.594711	2.66941	0.441942	1.96134	0.595049	2.66936	0.689149	3.09607	0.806728	3.62358	0.990776	4.4539	0.586727	2.63257	0.683354	3.06148	0.85696	3.84389		
0.597112	2.66903	0.443962	1.96219	0.597451	2.66898	0.690824	3.09065	0.808429	3.61609	0.99197	4.44067	0.58875	2.63065	0.685223	3.05709	0.858207	3.83346		
0.599514	2.66865	0.445981	1.96304	0.599853	2.6686	0.692501	3.0853	0.810134	3.60867	0.993167	4.42756	0.590772	2.62875	0.687095	3.05275	0.859457	3.82314		
0.601916	2.66828	0.448	1.96387	0.602255	2.66823	0.694182	3.08	0.811841	3.60133	0.994368	4.41458	0.592792	2.62685	0.688971	3.04847	0.860712	3.81291		
0.604319	2.66791	0.450019	1.9647	0.604658	2.66786	0.695865	3.07476	0.813551	3.59406	0.995572	4.40172	0.594812	2.62496	0.690851	3.04424	0.86197	3.80279		
0.606722	2.66755	0.452038	1.96551	0.607061	2.6675	0.697551	3.06957	0.815263	3.58686	0.996781	4.38898	0.59683	2.62308	0.692735	3.04006	0.863233	3.79277		
0.609125	2.66719	0.454056	1.96632	0.609464	2.66714	0.69924	3.06444	0.816978	3.57974	0.997993	4.37637	0.598848	2.62121	0.694623	3.03593	0.8645	3.78285		
0.611529	2.66683	0.456075	1.96713	0.611868	2.66678	0.700931	3.05936	0.818696	3.57268	0.999209	4.36387	0.600864	2.61936	0.696514	3.03185	0.86577	3.77303		
0.613933	2.66648	0.458092	1.96792	0.614272	2.66643	0.702626	3.05434	0.820416	3.56569	1.00043	4.35149	0.602878	2.61751	0.69841	3.02782	0.867045	3.76331		
0.616337	2.66614	0.46011	1.96871	0.616676	2.66609	0.704324	3.04936	0.822139	3.55877			0.604892	2.61567	0.700308	3.02384	0.868324	3.75368		
0.618741	2.66579	0.462127	1.96949	0.61908	2.66574	0.706024	3.04445	0.823865	3.55191			0.606905	2.61384	0.702211	3.0199	0.869606	3.74414		
0.621146	2.66545	0.464144	1.97026	0.621485	2.66541	0.707727	3.03958	0.825593	3.54512			0.608916	2.61202	0.704117	3.01601	0.870893	3.7347		
0.62355	2.66512	0.466161	1.97103	0.623889	2.66507	0.709433	3.03476	0.827324	3.5384			0.610927	2.61022	0.706026	3.01217	0.872183	3.72535		
0.625955	2.66478	0.468177	1.97179	0.626294	2.66474	0.711142	3.02999	0.829057	3.53173			0.612936	2.60842	0.707939	3.00838	0.873478	3.71609		
0.62836	2.66445	0.470194	1.97254	0.628699	2.66441	0.712854	3.02528	0.830792	3.52514			0.614944	2.60663	0.709856	3.00463	0.874777	3.70692		
0.630764	2.66412	0.472209	1.97328	0.631103	2.66408	0.714568	3.02061	0.83253	3.5186			0.616951	2.60485	0.711776	3.00092	0.876079	3.69784		
0.633169	2.6638	0.474225	1.97402	0.633508	2.66375	0.716285	3.01599	0.834271	3.51213			0.618957	2.60308	0.7137	2.99726	0.877385	3.68885		
0.635574	2.66348	0.47624	1.97475	0.635913	2.66343	0.718005	3.01142	0.836014	3.50571			0.620961	2.60131	0.715627	2.99363	0.878696	3.67994		
0.637979	2.66316	0.478255	1.97547	0.638318	2.66311	0.719728	3.0069	0.837759	3.49936			0.622965	2.59956	0.717557	2.99006	0.88001	3.67112		
0.640384	2.66284	0.48027	1.97619	0.640723	2.66279	0.721454	3.00242	0.839507	3.49307			0.624967	2.59782	0.719491	2.98652	0.881328	3.66239		
0.642788	2.66252	0.482285	1.9769	0.643127	2.66248	0.723182	2.99799	0.841256	3.48683			0.626969	2.59608	0.721428	2.98302	0.88265	3.65373		
0.645193	2.66221	0.484299	1.9776	0.645532	2.66216	0.724913	2.9936	0.843009	3.48065			0.628969	2.59436	0.723369	2.97957	0.883976	3.64516		
0.647597	2.6619	0.486313	1.9783	0.647936	2.66185	0.726647	2.98926	0.844763	3.47453			0.630969	2.59264	0.725312	2.97615	0.885305	3.63667		
0.650002	2.66158	0.488326	1.97899	0.65034	2.66154	0.728384	2.98496	0.84652	3.46847			0.632967	2.59093	0.727259	2.97278	0.886639	3.62827		
0.652406	2.66128	0.49034	1.97968	0.652744	2.66123	0.730123	2.98071	0.848279	3.46246			0.634964	2.58923	0.72921	2.96944	0.887976	3.61994		
0.654809	2.66097	0.492353	1.98035	0.655148	2.66092	0.731865	2.9765	0.850041	3.4565			0.63696	2.58754	0.731163	2.96614	0.889318	3.61169		
0.657213	2.66066	0.494366	1.98103	0.657552	2.66062	0.73361	2.97233	0.851804	3.4506			0.638955	2.58586	0.733119	2.96288	0.890663	3.60352		
0.659616	2.66036	0.496378	1.98169	0.659955	2.66031	0.735358	2.96821	0.85357	3.44475			0.640949	2.58418	0.735079	2.95966	0.892012	3.59542		
0.662019	2.66005	0.49839	1.98235	0.662358	2.66001	0.737108	2.96413	0.855338	3.43895			0.642942	2.58252	0.737042	2.95647	0.893365	3.5874		
0.664422	2.65975	0.500402	1.98301	0.66476	2.65971	0.738862	2.96009	0.857108	3.43321			0.644934	2.58086	0.739007	2.95331	0.894721	3.57946		
0.666824	2.65945	0.502414	1.98365	0.667163	2.6594	0.740618	2.95609	0.85888	3.42752			0.646925	2.57921	0.740976	2.9502	0.896082	3.57159		
0.669226	2.65915	0.504425	1.9843	0.669564	2.6591	0.742376	2.95213	0.860654	3.42188			0.648915	2.57757	0.742948	2.94712	0.897446	3.56379		
0.671627	2.65884	0.506436	1.98493	0.671966	2.6588	0.744138	2.94821	0.862431	3.41628			0.650904	2.57594	0.744923	2.94407	0.898814	3.55607		
0.674028	2.65854	0.508447	1.98556	0.674367	2.6585	0.745902	2.94434	0.864209	3.41074			0.652892	2.57431	0.7469	2.94105	0.900186	3.54841		
0.676429	2.65824	0.510458	1.98619	0.676767	2.6582	0.747669	2.9405	0.86599	3.40525			0.654879	2.5727	0.748881	2.93807	0.901561	3.54083		
0.678829	2.65794	0.512468	1.98681	0.679167	2.6579	0.749439	2.9367	0.867773	3.3998			0.656865	2.57109	0.750864	2.93513	0.90294	3.53332		
0.681229	2.65764	0.514478	1.98742	0.681567	2.6576	0.751212	2.93293	0.869557	3.3944			0.65885	2.56949	0.75285	2.93221	0.904323	3.52588		
0.683628	2.65734	0.516487	1.98803	0.683966	2.6573	0.752987	2.92921	0.871344	3.38905			0.660834	2.56789	0.754839	2.92933	0.90571	3.5185		
0.686026	2.65704	0.518497	1.98863	0.686364	2.657	0.754765	2.92552	0.873132	3.38374			0.662817	2.56631	0.756831	2.92648	0.907101	3.51119		
0.688424	2.65674	0.520506	1.98923	0.688762	2.6567	0.756546	2.92188	0.874923	3.37848			0.664799	2.56473	0.758825	2.92366	0.908495	3.50395		
0.690821	2.65644	0.522515	1.98982	0.691159	2.6564	0.75833	2.91826	0.876715	3.37327			0.66678	2.56316	0.760823	2.92087	0.909893	3.49678		
0.693217	2.65614	0.524523	1.99041	0.693555	2.6561	0.760116	2.91469	0.87851	3.3681			0.668761	2.5616	0.762822	2.91811	0.911294	3.48967		
0.695613	2.65584	0.526531	1.99099	0.695951	2.6558	0.761906	2.91115	0.880306	3.36297			0.67074	2.56005	0.764825	2.91537	0.9127	3.48263		
0.698008	2.65554	0.528539	1.99156	0.698345	2.6555	0.763698	2.90765	0.882104	3.35789			0.672719	2.5585	0.76683	2.91267	0.914109	3.47565		
0.700402	2.65524	0.530547	1.99213	0.70074	2.65519	0.765493	2.90418	0.883904	3.35285			0.674697	2.55696	0.768837	2.91	0.915522	3.46873		
0.702796	2.65493	0.532554	1.9927	0.703133	2.65489	0.767291	2.90075	0.885706	3.34786			0.676674	2.55543	0.770848	2.90736	0.916938	3.46188		
0.705188	2.65463	0.534561	1.99326	0.705525	2.65458	0.769092	2.89735	0.88751	3.3429			0.67865	2.55391	0.77286	2.90474	0.918358	3.45509		
0.70758	2.65432	0.536568	1.99382	0.707917	2.65428	0.770896	2.89399	0.889315	3.33799			0.680625	2.55239	0.774875	2.90215	0.919782	3.44836		
0.709971	2.65401	0.538574	1.99437	0.710308	2.65397	0.772702	2.89066	0.891123	3.33312			0.682599	2.55088	0.776893	2.89959	0.921209	3.44169		
0.712361	2.6537	0.540581	1.99492	0.712697	2.65366	0.774512	2.88736	0.892932	3.32828			0.684573	2.54938	0.778913	2.89705	0.92264	3.43508		
0.714749	2.65339	0.542587	1.99546	0.715086	2.65335	0.776324	2.8841	0.894742	3.32349			0.686545	2.54789	0.780935	2.89455	0.924075	3.42852		
0.717137	2.65308	0.544592	1.99599	0.717474	2.65304	0.778139	2.88088	0.896555	3.31874			0.688517	2.5464	0.78296	2.89206	0.925513	3.42203		
0.719524	2.65277	0.546597	1.99653	0.719861	2.65272	0.779958	2.87768	0.898369	3.31403			0.690489	2.54492	0.784987	2.8896	0.926955	3.4156		
0.72191	2.65245	0.548603	1.99705	0.722246	2.65241	0.781779	2.87452	0.900185	3.30935			0.692459	2.54345	0.787016	2.88717	0.928401	3.40922		
0.724295	2.65214	0.550607	1.99758	0.724631	2.65209	0.783603	2.87139	0.902003	3.30471			0.694429	2.54199	0.789047	2.88476	0.92985	3.4029		
0.726678	2.65182	0.552612	1.99809	0.727014	2.65177	0.78543	2.86829	0.903822	3.30011			0.696397	2.54053	0.791081	2.88238	0.931303	3.39663		
0.72906	2.6515	0.554616	1.99861	0.729396	2.65145	0.787261	2.86523	0.905643	3.29555			0.698365	2.53908	0.793117	2.88002	0.93276	3.39043		
0.731441	2.65117	0.55662	1.99912	0.731777	2.65113	0.789094	2.8622	0.907466	3.29103			0.700333	2.53764	0.795155	2.87769	0.93422	3.38427		
0.733821	2.65085	0.558623	1.99962	0.734157	2.6508	0.79093	2.85919	0.90929	3.28654			0.702299	2.5362	0.797195	2.87538	0.935683	3.37817		
0.7362	2.65052	0.560627	2.00012	0.736535	2.65047	0.79277	2.85622	0.911116	3.28208			0.704265	2.53477	0.799237	2.87309	0.937151	3.37213		
0.738577	2.65019	0.56263	2.00062	0.738912	2.65014	0.794613	2.85329	0.912944	3.27767			0.70623	2.53335	0.801281	2.87082	0.938621	3.36613		
0.740952	2.64985	0.564632	2.00111	0.741287	2.6498	0.796458	2.85038	0.914773	3.27328			0.708195	2.53193	0.803327	2.86858	0.940096	3.36019		
0.743327	2.64951	0.566635	2.0016	0.743661	2.64947	0.798307	2.8475	0.916603	3.26894			0.710159	2.53053	0.805376	2.86635	0.941574	3.35431		
0.7457	2.64917	0.568637	2.00208	0.746034	2.64913	0.80016	2.84465	0.918435	3.26462			0.712122	2.52912	0.807426	2.86415	0.943055	3.34847		
0.748071	2.64883	0.570639	2.00256	0.748405	2.64878	0.802015	2.84184	0.920269	3.26034			0.714085	2.52773	0.809478	2.86197	0.94454	3.34268		
0.75044	2.64848	0.57264	2.00303	0.750774	2.64843	0.803874	2.83905	0.922104	3.2561			0.716046	2.52634	0.811532	2.85981	0.946029	3.33695		
0.752808	2.64813	0.574642	2.00351	0.753142	2.64808	0.805736	2.83629	0.923941	3.25188			0.718008	2.52496	0.813588	2.85768	0.947521	3.33127		
0.755175	2.64778	0.576642	2.00397	0.755508	2.64773	0.807601	2.83357	0.925779	3.2477			0.719968	2.52359	0.815646	2.85556	0.949017	3.32563		
0.757539	2.64742	0.578643	2.00443	0.757872	2.64737	0.80947	2.83087	0.927619	3.24356			0.721928	2.52222	0.817705	2.85346	0.950516	3.32004		
0.759902	2.64706	0.580644	2.00489	0.760235	2.64701	0.811342	2.8282	0.92946	3.23944			0.723888	2.52086	0.819766	2.85138	0.952019	3.31451		
0.762263	2.64669	0.582644	2.00535	0.762596	2.64664	0.813218	2.82556	0.931302	3.23536			0.725847	2.51951	0.821829	2.84933	0.953525	3.30902		
0.764622	2.64632	0.584644	2.0058	0.764954	2.64627	0.815097	2.82295	0.933146	3.2313			0.727805	2.51816	0.823894	2.84729	0.955034	3.30357		
0.766979	2.64595	0.586643	2.00625	0.767311	2.6459	0.816979	2.82037	0.934991	3.22728			0.729762	2.51682	0.82596	2.84527	0.956548	3.29818		
0.769334	2.64557	0.588642	2.00669	0.769666	2.64552	0.818865	2.81782	0.936838	3.22329			0.73172	2.51549	0.828028	2.84327	0.958064	3.29283		
0.771687	2.64519	0.590641	2.00713	0.772019	2.64513	0.820755	2.8153	0.938686	3.21933			0.733676	2.51416	0.830098	2.84128	0.959585	3.28753		
0.774038	2.6448	0.59264	2.00757	0.774369	2.64474	0.822648	2.8128	0.940535	3.2154			0.735632	2.51284	0.832169	2.83932	0.961108	3.28227		
0.776387	2.64441	0.594639	2.008	0.776718	2.64435	0.824545	2.81034	0.942386	3.21149			0.737588	2.51153	0.834242	2.83737	0.962636	3.27706		
0.778733	2.64401	0.596637	2.00843	0.779064	2.64395	0.826446	2.8079	0.944238	3.20762			0.739543	2.51022	0.836316	2.83544	0.964167	3.27189		
0.781077	2.64361	0.598634	2.00885	0.781408	2.64355	0.828351	2.80549	0.946091	3.20378			0.741497	2.50892	0.838392	2.83353	0.965701	3.26677		
0.783419	2.6432	0.600632	2.00927	0.783749	2.64314	0.830259	2.80311	0.947946	3.19996			0.743451	2.50763	0.840469	2.83163	0.967238	3.26169		
0.785759	2.64278	0.602629	2.00969	0.786088	2.64272	0.832171	2.80075	0.949802	3.19617			0.745405	2.50634	0.842548	2.82975	0.968779	3.25666		
0.788096	2.64236	0.604626	2.0101	0.788425	2.6423	0.834088	2.79843	0.951659	3.19241			0.747358	2.50506	0.844628	2.82789	0.970324	3.25167		
0.79043	2.64194	0.606623	2.01051	0.790759	2.64187	0.836008	2.79613	0.953518	3.18868			0.74931	2.50379	0.846709	2.82604	0.971872	3.24672		
0.792762	2.6415	0.608619	2.01092	0.79309	2.64144	0.837932	2.79386	0.955377	3.18498			0.751263	2.50252	0.848792	2.82421	0.973424	3.24181		
0.795091	2.64106	0.610615	2.01133	0.795419	2.641	0.83986	2.79162	0.957238	3.1813			0.753214	2.50126	0.850876	2.82239	0.974979	3.23695		
0.797417	2.64062	0.612611	2.01173	0.797745	2.64056	0.841793	2.7894	0.9591	3.17765			0.755166	2.5	0.852961	2.82059	0.976537	3.23212		
0.799741	2.64017	0.614607	2.01212	0.800068	2.6401	0.843729	2.78721	0.960964	3.17403			0.757117	2.49875	0.855048	2.81881	0.978099	3.22734		
0.802061	2.63971	0.616602	2.01252	0.802388	2.63964	0.84567	2.78505	0.962828	3.17043			0.759067	2.49751	0.857136	2.81704	0.979664	3.2226		
0.804379	2.63925	0.618597	2.01291	0.804705	2.63918	0.847616	2.78292	0.964694	3.16685			0.761017	2.49628	0.859225	2.81529	0.981233	3.21789		
0.806694	2.63877	0.620592	2.01329	0.80702	2.63871	0.849565	2.78081	0.966561	3.16331			0.762967	2.49505	0.861315	2.81354	0.982805	3.21323		
0.809005	2.63829	0.622586	2.01368	0.809331	2.63823	0.851519	2.77873	0.968429	3.15979			0.764916	2.49382	0.863406	2.81182	0.98438	3.20861		
0.811314	2.63781	0.62458	2.01406	0.811639	2.63774	0.853477	2.77668	0.970298	3.15629			0.766865	2.4926	0.865498	2.81011	0.985959	3.20403		
0.813619	2.63731	0.626574	2.01444	0.813943	2.63724	0.85544	2.77466	0.972168	3.15282			0.768814	2.49139	0.867592	2.80841	0.987542	3.19948		
0.815921	2.63681	0.628568	2.01481	0.816245	2.63674	0.857408	2.77266	0.974039	3.14937			0.770762	2.49019	0.869686	2.80672	0.989128	3.19498		
0.818219	2.6363	0.630561	2.01518	0.818543	2.63623	0.85938	2.77069	0.975912	3.14595			0.77271	2.48899	0.871782	2.80505	0.990717	3.19051		
0.820514	2.63578	0.632554	2.01555	0.820837	2.63571	0.861357	2.76875	0.977785	3.14255			0.774657	2.4878	0.873878	2.80339	0.99231	3.18608		
0.822805	2.63526	0.634547	2.01591	0.823128	2.63518	0.863339	2.76683	0.97966	3.13917			0.776605	2.48661	0.875976	2.80175	0.993906	3.18168		
0.825093	2.63472	0.636539	2.01628	0.825416	2.63465	0.865325	2.76494	0.981535	3.13582			0.778552	2.48543	0.878074	2.80011	0.995505	3.17733		
0.827378	2.63418	0.638532	2.01663	0.827699	2.6341	0.867317	2.76308	0.983412	3.13249			0.780498	2.48426	0.880174	2.79849	0.997108	3.17301		
0.829658	2.63363	0.640523	2.01699	0.829979	2.63355	0.869313	2.76125	0.98529	3.12919			0.782445	2.48309	0.882274	2.79689	0.998714	3.16872		
0.831935	2.63307	0.642515	2.01734	0.832255	2.63299	0.871315	2.75944	0.987169	3.12591			0.784391	2.48192	0.884375	2.79529	1.00032	3.16448		
0.834207	2.6325	0.644506	2.01769	0.834528	2.63242	0.873321	2.75765	0.989048	3.12265			0.786336	2.48077	0.886477	2.79371				
0.836476	2.63192	0.646497	2.01804	0.836796	2.63184	0.875333	2.7559	0.990929	3.11941			0.788282	2.47962	0.888579	2.79214				
0.838741	2.63133	0.648488	2.01838	0.83906	2.63125	0.87735	2.75417	0.992811	3.11619			0.790227	2.47847	0.890683	2.79058				
0.841002	2.63073	0.650479	2.01873	0.84132	2.63065	0.879372	2.75247	0.994693	3.113			0.792172	2.47733	0.892787	2.78903				
0.843259	2.63013	0.652469	2.01906	0.843576	2.63004	0.881399	2.75079	0.996577	3.10982			0.794117	2.4762	0.894892	2.78749				
0.845511	2.62951	0.654459	2.0194	0.845828	2.62943	0.883431	2.74914	0.998462	3.10667			0.796062	2.47507	0.896997	2.78596				
0.847759	2.62889	0.656449	2.01973	0.848076	2.6288	0.885469	2.74752	1.00035	3.10354			0.798006	2.47395	0.899103	2.78445				
0.850003	2.62825	0.658438	2.02006	0.850319	2.62816	0.887513	2.74592					0.79995	2.47284	0.90121	2.78294				
0.852243	2.62761	0.660427	2.02039	0.852558	2.62752	0.889562	2.74435					0.801894	2.47173	0.903318	2.78145				
0.854478	2.62695	0.662416	2.02072	0.854793	2.62686	0.891616	2.7428					0.803838	2.47062	0.905426	2.77996				
0.856709	2.62629	0.664405	2.02104	0.857023	2.62619	0.893676	2.74128					0.805781	2.46952	0.907534	2.77849				
0.858935	2.62561	0.666393	2.02136	0.859248	2.62552	0.895742	2.73979					0.807725	2.46843	0.909643	2.77702				
0.861156	2.62493	0.668381	2.02167	0.861469	2.62483	0.897813	2.73832					0.809668	2.46735	0.911753	2.77557				
0.863373	2.62423	0.670369	2.02199	0.863686	2.62413	0.899889	2.73687					0.811611	2.46626	0.913863	2.77412				
0.865586	2.62353	0.672356	2.0223	0.865897	2.62343	0.901972	2.73546					0.813554	2.46519	0.915973	2.77269				
0.867794	2.62281	0.674343	2.02261	0.868105	2.62271	0.90406	2.73406					0.815496	2.46412	0.918084	2.77126				
0.869997	2.62209	0.67633	2.02292	0.870307	2.62199	0.906154	2.7327					0.817439	2.46305	0.920195	2.76985				
0.872195	2.62135	0.678317	2.02322	0.872505	2.62125	0.908253	2.73135					0.819381	2.462	0.922307	2.76844				
0.874389	2.62061	0.680303	2.02352	0.874698	2.6205	0.910359	2.73004					0.821323	2.46094	0.924419	2.76704				
0.876578	2.61985	0.68229	2.02382	0.876886	2.61975	0.91247	2.72874					0.823266	2.45989	0.926531	2.76565				
0.878762	2.61909	0.684275	2.02412	0.87907	2.61898	0.914587	2.72747					0.825208	2.45885	0.928644	2.76427				
0.880941	2.61831	0.686261	2.02441	0.881248	2.6182	0.916709	2.72623					0.82715	2.45781	0.930757	2.76289				
0.883116	2.61753	0.688246	2.0247	0.883422	2.61742	0.918837	2.72501					0.829091	2.45678	0.93287	2.76153				
0.885286	2.61673	0.690231	2.02499	0.885592	2.61662	0.920971	2.72381					0.831033	2.45576	0.934983	2.76017				
0.887451	2.61593	0.692216	2.02528	0.887756	2.61582	0.923111	2.72263					0.832975	2.45474	0.937097	2.75882				
0.889612	2.61512	0.694201	2.02556	0.889916	2.615	0.925256	2.72148					0.834917	2.45372	0.93921	2.75748				
0.891767	2.61429	0.696185	2.02585	0.892071	2.61418	0.927407	2.72036					0.836858	2.45271	0.941324	2.75615				
0.893919	2.61346	0.698169	2.02613	0.894221	2.61334	0.929564	2.71925					0.838799	2.45171	0.943438	2.75482				
0.896065	2.61262	0.700153	2.0264	0.896367	2.6125	0.931726	2.71817					0.840741	2.45071	0.945552	2.75351				
0.898207	2.61177	0.702136	2.02668	0.898508	2.61165	0.933894	2.71711					0.842682	2.44971	0.947666	2.7522				
0.900344	2.61091	0.704119	2.02695	0.900645	2.61079	0.936067	2.71607					0.844623	2.44872	0.94978	2.75089				
0.902476	2.61004	0.706102	2.02722	0.902777	2.60992	0.938246	2.71505					0.846565	2.44774	0.951894	2.7496				
0.904604	2.60917	0.708085	2.02749	0.904904	2.60904	0.94043	2.71405					0.848506	2.44676	0.954009	2.74831				
0.906728	2.60828	0.710067	2.02776	0.907027	2.60816	0.94262	2.71308					0.850447	2.44579	0.956123	2.74702				
0.908847	2.60739	0.712049	2.02802	0.909145	2.60726	0.944815	2.71212					0.852388	2.44482	0.958237	2.74575				
0.910961	2.60649	0.714031	2.02829	0.911259	2.60636	0.947015	2.71119					0.854329	2.44386	0.960351	2.74448				
0.913072	2.60558	0.716013	2.02855	0.913369	2.60545	0.94922	2.71027					0.85627	2.4429	0.962465	2.74321				
0.915178	2.60467	0.717994	2.0288	0.915474	2.60454	0.951431	2.70937					0.858212	2.44195	0.964578	2.74196				
0.91728	2.60374	0.719975	2.02906	0.917576	2.60361	0.953647	2.7085					0.860153	2.441	0.966692	2.74071				
0.919377	2.60281	0.721956	2.02931	0.919673	2.60268	0.955867	2.70764					0.862094	2.44006	0.968805	2.73946				
0.921471	2.60188	0.723937	2.02957	0.921766	2.60175	0.958093	2.7068					0.864035	2.43912	0.970919	2.73822				
0.92356	2.60094	0.725917	2.02982	0.923854	2.6008	0.960323	2.70598					0.865976	2.43818	0.973032	2.73699				
0.925646	2.59999	0.727897	2.03006	0.925939	2.59985	0.962558	2.70518					0.867917	2.43726	0.975145	2.73577				
0.927727	2.59903	0.729877	2.03031	0.928021	2.5989	0.964798	2.70439					0.869858	2.43633	0.977257	2.73454				
0.929805	2.59807	0.731856	2.03055	0.930098	2.59794	0.967043	2.70362					0.8718	2.43541	0.97937	2.73333				
0.931879	2.59711	0.733836	2.0308	0.932171	2.59697	0.969292	2.70287					0.873741	2.4345	0.981482	2.73212				
0.93395	2.59614	0.735815	2.03104	0.934241	2.596	0.971545	2.70213					0.875682	2.43359	0.983593	2.73092				
0.936016	2.59516	0.737794	2.03127	0.936308	2.59502	0.973803	2.70141					0.877624	2.43269	0.985705	2.72972				
0.93808	2.59418	0.739772	2.03151	0.93837	2.59404	0.976065	2.7007					0.879565	2.43179	0.987816	2.72852				
0.94014	2.59319	0.74175	2.03174	0.94043	2.59305	0.978331	2.70001					0.881506	2.4309	0.989926	2.72733				
0.942196	2.5922	0.743728	2.03198	0.942486	2.59206	0.980602	2.69934					0.883448	2.43001	0.992037	2.72615				
0.944249	2.59121	0.745706	2.03221	0.944538	2.59107	0.982876	2.69868					0.885389	2.42912	0.994146	2.72497				
0.946299	2.59021	0.747684	2.03244	0.946588	2.59007	0.985154	2.69803					0.887331	2.42824	0.996256	2.7238				
0.948346	2.58921	0.749661	2.03266	0.948634	2.58907	0.987437	2.6974					0.889273	2.42737	0.998365	2.72263				
0.95039	2.58821	0.751638	2.03289	0.950677	2.58807	0.989723	2.69678					0.891215	2.4265	1.00047	2.72146				
0.95243	2.5872	0.753614	2.03311	0.952718	2.58706	0.992012	2.69618					0.893156	2.42563						
0.954468	2.58619	0.755591	2.03333	0.954755	2.58605	0.994305	2.69558					0.895098	2.42477						
0.956503	2.58518	0.757567	2.03355	0.95679	2.58504	0.996602	2.695					0.89704	2.42391						
0.958536	2.58417	0.759543	2.03377	0.958822	2.58402	0.998902	2.69443					0.898982	2.42306						
0.960565	2.58315	0.761519	2.03399	0.960851	2.58301	1.00121	2.69388					0.900925	2.42221						
0.962592	2.58213	0.763494	2.0342	0.962878	2.58199							0.902867	2.42137						
0.964617	2.58111	0.76547	2.03441	0.964902	2.58097							0.90481	2.42053						
0.966639	2.58009	0.767445	2.03462	0.966924	2.57994							0.906752	2.4197						
0.968658	2.57907	0.769419	2.03483	0.968943	2.57892							0.908695	2.41887						
0.970676	2.57804	0.771394	2.03504	0.97096	2.5779							0.910637	2.41804						
0.972691	2.57702	0.773368	2.03525	0.972975	2.57687							0.91258	2.41722						
0.974704	2.57599	0.775342	2.03545	0.974987	2.57585							0.914523	2.4164						
0.976714	2.57496	0.777316	2.03565	0.976998	2.57482							0.916466	2.41559						
0.978723	2.57394	0.779289	2.03585	0.979006	2.57379							0.91841	2.41478						
0.98073	2.57291	0.781263	2.03605	0.981013	2.57277							0.920353	2.41398						
0.982735	2.57188	0.783236	2.03625	0.983017	2.57174							0.922297	2.41318						
0.984738	2.57086	0.785209	2.03645	0.98502	2.57071							0.92424	2.41238						
0.986739	2.56983	0.787181	2.03664	0.987021	2.56969							0.926184	2.41159						
0.988738	2.56881	0.789153	2.03683	0.98902	2.56866							0.928128	2.41081						
0.990736	2.56778	0.791126	2.03703	0.991017	2.56764							0.930072	2.41002						
0.992732	2.56676	0.793097	2.03722	0.993013	2.56661							0.932016	2.40924						
0.994726	2.56573	0.795069	2.0374	0.995007	2.56559							0.933961	2.40847						
0.996719	2.56471	0.79704	2.03759	0.997	2.56456							0.935906	2.4077						
0.998711	2.56369	0.799012	2.03778	0.998992	2.56354							0.93785	2.40693						
1.0007	2.56267	0.800982	2.03796	1.00098	2.56252							0.939795	2.40617						
		0.802953	2.03814									0.94174	2.40541						
		0.804923	2.03832									0.943685	2.40466						
		0.806894	2.0385									0.945631	2.40391						
		0.808864	2.03868									0.947576	2.40316						
		0.810833	2.03886									0.949522	2.40242						
		0.812803	2.03903									0.951468	2.40168						
		0.814772	2.03921									0.953414	2.40095						
		0.816741	2.03938									0.955361	2.40022						
		0.81871	2.03955									0.957307	2.39949						
		0.820678	2.03972									0.959254	2.39877						
		0.822647	2.03989									0.961201	2.39805						
		0.824615	2.04006									0.963148	2.39734						
		0.826583	2.04022									0.965095	2.39663						
		0.82855	2.04039									0.967042	2.39592						
		0.830518	2.04055									0.96899	2.39522						
		0.832485	2.04071									0.970938	2.39452						
		0.834452	2.04087									0.972886	2.39382						
		0.836419	2.04103									0.974834	2.39313						
		0.838385	2.04119									0.976783	2.39244						
		0.840352	2.04135									0.978731	2.39175						
		0.842318	2.0415									0.98068	2.39107						
		0.844283	2.04166									0.98263	2.39039						
		0.846249	2.04181									0.984579	2.38972						
		0.848215	2.04196									0.986528	2.38905						
		0.85018	2.04211									0.988478	2.38838						
		0.852145	2.04226									0.990428	2.38772						
		0.854109	2.04241									0.992378	2.38706						
		0.856074	2.04256									0.994329	2.3864						
		0.858038	2.0427									0.996279	2.38575						
		0.860002	2.04285									0.99823	2.3851						
		0.861966	2.04299									1.00018	2.38445						
		0.86393	2.04313																
		0.865893	2.04327																
		0.867857	2.04341																
		0.86982	2.04355																
		0.871782	2.04369																
		0.873745	2.04383																
		0.875707	2.04396																
		0.87767	2.0441																
		0.879632	2.04423																
		0.881593	2.04437																
		0.883555	2.0445																
		0.885516	2.04463																
		0.887477	2.04476																
		0.889438	2.04489																
		0.891399	2.04501																
		0.893359	2.04514																
		0.89532	2.04526																
		0.89728	2.04539																
		0.89924	2.04551																
		0.901199	2.04563																
		0.903159	2.04576																
		0.905118	2.04588																
		0.907077	2.046																
		0.909036	2.04611																
		0.910995	2.04623																
		0.912954	2.04635																
		0.914912	2.04646																
		0.91687	2.04658																
		0.918828	2.04669																
		0.920786	2.04681																
		0.922743	2.04692																
		0.9247	2.04703																
		0.926658	2.04714																
		0.928615	2.04725																
		0.930571	2.04736																
		0.932528	2.04746																
		0.934484	2.04757																
		0.93644	2.04768																
		0.938396	2.04778																
		0.940352	2.04789																
		0.942308	2.04799																
		0.944263	2.04809																
		0.946218	2.04819																
		0.948174	2.0483																
		0.950128	2.0484																
		0.952083	2.0485																
		0.954038	2.04859																
		0.955992	2.04869																
		0.957946	2.04879																
		0.9599	2.04889																
		0.961854	2.04898																
		0.963807	2.04908																
		0.965761	2.04917																
		0.967714	2.04926																
		0.969667	2.04936																
		0.97162	2.04945																
		0.973573	2.04954																
		0.975525	2.04963																
		0.977477	2.04972																
		0.97943	2.04981																
		0.981382	2.0499																
		0.983334	2.04998																
		0.985285	2.05007																
		0.987237	2.05016																
		0.989188	2.05024																
		0.991139	2.05033																
		0.99309	2.05041																
		0.995041	2.05049																
		0.996991	2.05058																
		0.998942	2.05066																
		1.00089	2.05074																
