Sym0		Asym0		Sym2		Sym3		Sym4		Asym1		Asym3	
461  Points		490  Points		148  Points		115  Points		105  Points		328  Points		124  Points	
Freq (MHz)	Vph (m/ms)	Freq (MHz)	Vph (m/ms)	Freq (MHz)	Vph (m/ms)	Freq (MHz)	Vph (m/ms)	Freq (MHz)	Vph (m/ms)	Freq (MHz)	Vph (m/ms)	Freq (MHz)	Vph (m/ms)
0.00368087	9.08154	0.000675802	0.296772	0.279536	582.442	0.458664	1705.08	0.559032	1177.68	0.139823	292.811	0.419304	608.422
0.0121413	9.08095	0.00132776	0.413778	0.27975	198.175	0.458717	382.043	0.559153	397.582	0.140355	99.5982	0.41949	258.807
0.0205988	9.07955	0.00218023	0.526553	0.280174	119.562	0.458836	215.175	0.559393	239.253	0.141406	60.4062	0.419827	164.473
0.0290515	9.07748	0.00321712	0.634258	0.280805	85.7415	0.459021	149.807	0.559752	171.19	0.14296	43.6839	0.420314	120.632
0.0374973	9.07466	0.00442075	0.736305	0.281644	66.9509	0.459275	114.94	0.560229	133.341	0.145	34.4886	0.420949	95.3248
0.0459341	9.0711	0.00577249	0.832292	0.282686	55.0142	0.459597	93.2724	0.560825	109.255	0.147502	28.7192	0.421733	78.8634
0.0543597	9.06678	0.00725397	0.922035	0.283928	46.7749	0.45999	78.5077	0.561539	92.5889	0.150438	24.7933	0.422664	67.3103
0.062772	9.0617	0.00884753	1.00551	0.285368	40.7563	0.460453	67.8048	0.56237	80.3781	0.153781	21.9706	0.423742	58.763
0.0711686	9.05583	0.0105368	1.08284	0.286999	36.1756	0.46099	59.694	0.563317	71.0519	0.157499	19.8585	0.424964	52.1894
0.0795472	9.04915	0.0123071	1.15425	0.288819	32.5789	0.461602	53.3382	0.56438	63.7001	0.161565	18.2297	0.426329	46.9814
0.087905	9.04162	0.0141452	1.22003	0.29082	29.685	0.462291	48.226	0.565557	57.7592	0.16595	16.9432	0.427836	42.7575
0.0962396	9.03323	0.0160397	1.28053	0.292999	27.3101	0.463061	44.027	0.566848	52.8612	0.170626	15.9074	0.429483	39.2659
0.104548	9.02391	0.0179806	1.3361	0.295348	25.3294	0.463912	40.5187	0.568252	48.7559	0.175567	15.06	0.431267	36.3341
0.112827	9.01366	0.0199596	1.38712	0.297862	23.6549	0.46485	37.5453	0.569767	45.2673	0.18075	14.3572	0.433188	33.8396
0.121074	9.00241	0.0219695	1.43395	0.300534	22.2228	0.465876	34.9948	0.571392	42.2677	0.186153	13.7674	0.435242	31.6934
0.129284	8.99011	0.0237415	1.47163	0.303358	20.9859	0.466995	32.7844	0.573126	39.6624	0.191755	13.2675	0.437427	29.8288
0.137455	8.97672	0.0252644	1.5016	0.306328	19.9082	0.468209	30.8517	0.574968	37.3798	0.197537	12.8399	0.439741	28.1952
0.145582	8.96216	0.026531	1.52501	0.309437	18.9621	0.469524	29.1488	0.576917	35.3644	0.203484	12.4712	0.442181	26.7535
0.153661	8.94637	0.0275366	1.54268	0.31268	18.1259	0.470943	27.6383	0.57897	33.5728	0.209578	12.1508	0.444745	25.4727
0.161687	8.92928	0.028278	1.55523	0.316049	17.3824	0.47247	26.2904	0.581127	31.9706	0.215806	11.8707	0.447429	24.3282
0.169655	8.91081	0.0287533	1.56306	0.31954	16.7177	0.47411	25.0813	0.583385	30.53	0.222155	11.6242	0.450233	23.3003
0.177558	8.89085	0.0294376	1.57407	0.323146	16.1206	0.475867	23.9918	0.585744	29.2283	0.228614	11.4061	0.453152	22.3726
0.185392	8.86933	0.0301828	1.5857	0.326864	15.5818	0.477747	23.0059	0.588202	28.0471	0.235171	11.2121	0.456183	21.5318
0.193149	8.84612	0.0311981	1.60098	0.330688	15.0938	0.479753	22.1105	0.590758	26.9707	0.241817	11.0386	0.459325	20.7669
0.200822	8.82113	0.032485	1.61946	0.334616	14.6501	0.481892	21.2947	0.593409	25.9864	0.248543	10.8828	0.462573	20.0684
0.208403	8.79422	0.034045	1.64062	0.338645	14.2453	0.484167	20.5492	0.596154	25.0832	0.255341	10.7422	0.465926	19.4285
0.215883	8.76528	0.035879	1.6639	0.342772	13.8752	0.486583	19.8661	0.598992	24.2519	0.262203	10.6148	0.469381	18.8406
0.223255	8.73417	0.0379878	1.68872	0.346997	13.5357	0.489144	19.2389	0.601921	23.4846	0.269122	10.4989	0.472933	18.2989
0.230507	8.70075	0.0400998	1.71172	0.351319	13.2237	0.491856	18.6617	0.60494	22.7745	0.276092	10.3931	0.476582	17.7984
0.23763	8.66489	0.0422141	1.73304	0.355739	12.9364	0.494722	18.1296	0.608046	22.1157	0.283107	10.296	0.480324	17.335
0.244613	8.62645	0.0443297	1.75285	0.360261	12.6715	0.497745	17.6381	0.611239	21.5032	0.290161	10.2067	0.484155	16.9049
0.251445	8.5853	0.0464462	1.77129	0.364885	12.4269	0.500929	17.1836	0.614517	20.9324	0.297249	10.1243	0.488074	16.5048
0.258115	8.54132	0.048563	1.78847	0.369616	12.2009	0.504277	16.7627	0.617877	20.3994	0.304366	10.0478	0.492078	16.1319
0.264611	8.4944	0.0506796	1.8045	0.374459	11.992	0.507791	16.3725	0.621319	19.9009	0.311508	9.97674	0.496164	15.7837
0.270923	8.44446	0.0527959	1.81949	0.379418	11.7987	0.511473	16.0102	0.624841	19.4338	0.317749	9.91868	0.500329	15.4581
0.27704	8.39143	0.0549115	1.83353	0.384497	11.62	0.515323	15.6736	0.628442	18.9953	0.323078	9.87177	0.504571	15.153
0.282953	8.33531	0.0570263	1.84669	0.389702	11.4548	0.519342	15.3606	0.63212	18.5832	0.327491	9.83462	0.508887	14.8666
0.288654	8.2761	0.0591401	1.85906	0.395037	11.3021	0.52353	15.0692	0.635873	18.1951	0.330983	9.80623	0.513276	14.5975
0.294136	8.21386	0.061253	1.87069	0.400505	11.161	0.527886	14.7977	0.6397	17.8293	0.333553	9.78588	0.517734	14.3442
0.299394	8.14869	0.0633649	1.88164	0.406108	11.0307	0.532408	14.5446	0.6436	17.484	0.335198	9.77308	0.52226	14.1055
0.304427	8.08074	0.0654756	1.89198	0.411847	10.9105	0.537095	14.3085	0.647572	17.1576	0.337563	9.75497	0.526851	13.8802
0.309232	8.0102	0.0675852	1.90174	0.417721	10.7996	0.541944	14.088	0.651613	16.8488	0.340134	9.73567	0.531505	13.6674
0.313812	7.93728	0.0696938	1.91097	0.423729	10.6972	0.546952	13.882	0.655723	16.5562	0.343633	9.71003	0.536221	13.466
0.318171	7.86224	0.0718012	1.91971	0.429866	10.6028	0.552116	13.6893	0.6599	16.2787	0.348058	9.67855	0.540996	13.2753
0.322313	7.78536	0.0739076	1.928	0.436128	10.5156	0.55743	13.509	0.664143	16.0153	0.35341	9.64181	0.545829	13.0945
0.326246	7.70692	0.076013	1.93587	0.442509	10.435	0.562892	13.3402	0.668452	15.765	0.359687	9.6004	0.550718	12.923
0.329978	7.62721	0.0781174	1.94335	0.449001	10.3605	0.568496	13.1819	0.672824	15.5269	0.366885	9.55492	0.555662	12.76
0.333519	7.54653	0.0802207	1.95047	0.455596	10.2914	0.574238	13.0335	0.677258	15.3003	0.374075	9.51139	0.560659	12.6051
0.336877	7.46515	0.0823232	1.95725	0.461421	10.2353	0.580113	12.8942	0.681755	15.0844	0.381254	9.46959	0.565709	12.4577
0.340064	7.38333	0.0844248	1.96372	0.46644	10.1902	0.586116	12.7633	0.686312	14.8785	0.388419	9.42934	0.570808	12.3172
0.34309	7.30134	0.0865255	1.96989	0.470625	10.1546	0.592242	12.6402	0.690929	14.6821	0.395566	9.39044	0.575958	12.1834
0.345966	7.21939	0.0886255	1.97579	0.473954	10.1276	0.598486	12.5244	0.695605	14.4945	0.402691	9.35274	0.581157	12.0558
0.348701	7.13769	0.0907246	1.98144	0.476413	10.1082	0.604842	12.4154	0.700339	14.3152	0.409793	9.31608	0.586403	11.934
0.351305	7.05643	0.092823	1.98684	0.477992	10.0961	0.611305	12.3126	0.705131	14.1438	0.416867	9.28034	0.591697	11.8176
0.353789	6.97576	0.0949208	1.99201	0.480267	10.079	0.617871	12.2156	0.70998	13.9798	0.423911	9.24539	0.597038	11.7065
0.35616	6.89583	0.0970178	1.99697	0.482748	10.0608	0.624533	12.124	0.714885	13.8228	0.430921	9.2111	0.602426	11.6002
0.358427	6.81677	0.0991142	2.00174	0.486135	10.0367	0.631288	12.0374	0.719847	13.6724	0.437894	9.17738	0.607859	11.4985
0.360599	6.73866	0.10121	2.00631	0.490437	10.0073	0.638129	11.9555	0.724864	13.5283	0.444826	9.14412	0.613338	11.4012
0.362682	6.66161	0.103305	2.01071	0.495668	9.97319	0.645053	11.8778	0.729937	13.3901	0.451716	9.11124	0.618863	11.3081
0.364684	6.58567	0.1054	2.01494	0.501838	9.93502	0.652054	11.8042	0.735066	13.2576	0.458558	9.07864	0.624433	11.2189
0.36661	6.51092	0.107494	2.01901	0.508957	9.89348	0.659127	11.7344	0.74025	13.1305	0.46535	9.04624	0.630048	11.1334
0.368468	6.43739	0.109588	2.02294	0.516112	9.85409	0.666268	11.668	0.745491	13.0085	0.472089	9.01398	0.635709	11.0515
0.370261	6.36512	0.111681	2.02672	0.523296	9.81664	0.673471	11.6048	0.750789	12.8913	0.47877	8.98178	0.641416	10.973
0.371996	6.29413	0.113774	2.03037	0.530504	9.78091	0.680732	11.5445	0.756143	12.7788	0.485392	8.94957	0.647168	10.8977
0.373677	6.22445	0.115866	2.03389	0.537731	9.74673	0.688046	11.4871	0.761556	12.6708	0.49195	8.91731	0.652965	10.8254
0.375309	6.15609	0.117958	2.0373	0.544972	9.71393	0.695407	11.4321	0.767028	12.567	0.498441	8.88492	0.658808	10.7562
0.376895	6.08904	0.12005	2.04058	0.552222	9.68236	0.702812	11.3796	0.772561	12.4674	0.504863	8.85236	0.663937	10.6981
0.378438	6.02332	0.122141	2.04376	0.559477	9.65189	0.710254	11.3292	0.778155	12.3717	0.511211	8.81959	0.668337	10.6502
0.379943	5.95891	0.124232	2.04684	0.566733	9.62241	0.717729	11.2807	0.783814	12.2797	0.517483	8.78656	0.671994	10.6117
0.381413	5.8958	0.126322	2.04981	0.573987	9.5938	0.72523	11.2341	0.789539	12.1915	0.523675	8.75323	0.674897	10.5819
0.38285	5.83399	0.128412	2.0527	0.581235	9.56598	0.732754	11.1892	0.795332	12.1067	0.529786	8.71958	0.677039	10.5604
0.384256	5.77346	0.130502	2.05549	0.588474	9.53886	0.740293	11.1457	0.801197	12.0255	0.535811	8.68556	0.678413	10.5468
0.385636	5.71419	0.132592	2.0582	0.595701	9.51235	0.747843	11.1037	0.807136	11.9475	0.541749	8.65116	0.680391	10.5275
0.38699	5.65617	0.134681	2.06083	0.602915	9.4864	0.755396	11.0628	0.813153	11.8729	0.547597	8.61635	0.682548	10.5067
0.388321	5.59937	0.13677	2.06338	0.610111	9.46093	0.762948	11.023	0.819251	11.8014	0.553353	8.58111	0.68549	10.479
0.38963	5.54378	0.138859	2.06585	0.617288	9.4359	0.770491	10.9841	0.825435	11.733	0.559015	8.54545	0.689225	10.4448
0.39092	5.48937	0.140948	2.06826	0.624443	9.41124	0.77802	10.946	0.831708	11.6676	0.564581	8.50934	0.693765	10.4044
0.392193	5.43611	0.143036	2.07059	0.631575	9.38691	0.784564	10.9134	0.838074	11.6052	0.570049	8.47278	0.699121	10.3586
0.393449	5.38399	0.145124	2.07286	0.63868	9.36287	0.790126	10.886	0.844538	11.5458	0.575419	8.43577	0.705307	10.308
0.39469	5.33299	0.147212	2.07507	0.645758	9.33907	0.794713	10.8635	0.851103	11.4892	0.580689	8.39832	0.711535	10.2593
0.395918	5.28307	0.1493	2.07722	0.652807	9.31549	0.798331	10.8459	0.857774	11.4354	0.585858	8.36043	0.717804	10.2125
0.397134	5.23422	0.151387	2.07931	0.659823	9.29208	0.800986	10.833	0.864552	11.3844	0.590927	8.32211	0.724113	10.1675
0.398338	5.1864	0.153474	2.08134	0.666807	9.26881	0.802682	10.8248	0.871442	11.336	0.595894	8.28338	0.730461	10.1242
0.399533	5.13961	0.155562	2.08332	0.673755	9.24565	0.805117	10.813	0.878445	11.2903	0.60076	8.24425	0.736845	10.0825
0.400718	5.09381	0.157649	2.08525	0.680667	9.22259	0.807758	10.8002	0.885561	11.2471	0.605525	8.20474	0.743265	10.0423
0.401895	5.04897	0.159735	2.08714	0.687541	9.19959	0.811341	10.7828	0.892791	11.2063	0.61019	8.16487	0.749719	10.0036
0.403065	5.00509	0.161822	2.08897	0.694374	9.17662	0.815856	10.761	0.899182	11.1726	0.614755	8.12466	0.756206	9.96621
0.404229	4.96213	0.163908	2.09076	0.701166	9.15367	0.821292	10.7347	0.904697	11.1453	0.61922	8.08413	0.762722	9.93016
0.405386	4.92007	0.165995	2.0925	0.707915	9.13072	0.827633	10.704	0.909303	11.1236	0.623588	8.04332	0.769267	9.89534
0.406539	4.87889	0.168081	2.0942	0.714619	9.10775	0.834858	10.6689	0.912973	11.107	0.627859	8.00224	0.775838	9.86167
0.407687	4.83856	0.170167	2.09586	0.721278	9.08473	0.842027	10.6339	0.915688	11.0952	0.632035	7.96093	0.782433	9.8291
0.408685	4.80411	0.172253	2.09749	0.727889	9.06166	0.84914	10.599	0.917432	11.0877	0.636117	7.9194	0.78905	9.79756
0.409533	4.77523	0.174339	2.09907	0.734451	9.03851	0.856196	10.5642	0.919948	11.0771	0.640106	7.8777	0.795688	9.76698
0.410233	4.75169	0.176424	2.10062	0.740962	9.01528	0.863196	10.5295	0.922696	11.0659	0.644005	7.83583	0.802343	9.73731
0.410786	4.73328	0.17851	2.10213	0.747422	8.99195	0.870143	10.495	0.926453	11.0509	0.647815	7.79384	0.809014	9.7085
0.411192	4.71987	0.180595	2.10361	0.753829	8.9685	0.87704	10.4606	0.931237	11.0327	0.651538	7.75174	0.815699	9.68048
0.411452	4.71133	0.18268	2.10505	0.760182	8.94493	0.88389	10.4265	0.937069	11.0115	0.655177	7.70957	0.822394	9.65321
0.411826	4.69914	0.184766	2.10647	0.76648	8.92123	0.890697	10.3925	0.943973	10.9878	0.658732	7.66734	0.829099	9.62663
0.412231	4.68597	0.186851	2.10785	0.772721	8.89739	0.897465	10.3589	0.951975	10.962	0.662206	7.62509	0.835812	9.60071
0.412782	4.66822	0.188936	2.1092	0.778904	8.87339	0.904198	10.3256	0.960057	10.9378	0.665602	7.58284	0.842529	9.57539
0.413479	4.64603	0.191021	2.11052	0.785029	8.84924	0.910901	10.2926	0.968212	10.9148	0.66892	7.54061	0.849249	9.55063
0.414321	4.61956	0.193106	2.11182	0.791093	8.82492	0.917577	10.26	0.976436	10.8931	0.672164	7.49842	0.85597	9.5264
0.415308	4.58903	0.19519	2.11309	0.797097	8.80043	0.924231	10.2279	0.984724	10.8726	0.675334	7.45629	0.862689	9.50265
0.41644	4.55464	0.197275	2.11433	0.80304	8.77576	0.930866	10.1962	0.99307	10.8531	0.678434	7.41425	0.869406	9.47935
0.417571	4.52095	0.199359	2.11554	0.80892	8.75092	0.937486	10.165	1.00147	10.8346	0.681466	7.37231	0.876118	9.45647
0.418703	4.48793	0.201444	2.11674	0.814737	8.7259	0.944093	10.1342			0.68443	7.3305	0.882823	9.43397
0.419835	4.45557	0.203528	2.1179	0.82049	8.7007	0.950689	10.104			0.68733	7.28882	0.889519	9.41181
0.420967	4.42385	0.205613	2.11905	0.826179	8.67531	0.957279	10.0742			0.690167	7.24731	0.896204	9.38998
0.422101	4.39275	0.207697	2.12017	0.831803	8.64975	0.963862	10.045			0.692944	7.20596	0.902877	9.36845
0.423236	4.36226	0.209781	2.12127	0.837362	8.624	0.970442	10.0164			0.695661	7.1648	0.909536	9.34718
0.424372	4.33237	0.211865	2.12235	0.842855	8.59807	0.97702	9.9882			0.698322	7.12384	0.916179	9.32615
0.425509	4.30305	0.213949	2.12341	0.848282	8.57196	0.983597	9.96056			0.700927	7.0831	0.922805	9.30534
0.426649	4.2743	0.216033	2.12445	0.853642	8.54567	0.990174	9.93344			0.703479	7.04258	0.929411	9.28473
0.427791	4.24611	0.218117	2.12546	0.858937	8.51921	0.996752	9.90683			0.705979	7.00229	0.935997	9.2643
0.428934	4.21845	0.220201	2.12646	0.864164	8.49258	1.00333	9.88072			0.708429	6.96226	0.942561	9.24402
0.430081	4.19132	0.222284	2.12745	0.869326	8.46579					0.710831	6.92247	0.949101	9.22388
0.43123	4.1647	0.224368	2.12841	0.874421	8.43884					0.713186	6.88296	0.955616	9.20385
0.432381	4.13858	0.226452	2.12936	0.87945	8.41174					0.715496	6.84372	0.962104	9.18393
0.433536	4.11296	0.228535	2.13028	0.884412	8.38449					0.717762	6.80475	0.968565	9.1641
0.434693	4.0878	0.230619	2.1312	0.889309	8.35709					0.719987	6.76608	0.974996	9.14434
0.435854	4.06312	0.232702	2.13209	0.89414	8.32956					0.722171	6.7277	0.981396	9.12464
0.437018	4.03889	0.234786	2.13297	0.898905	8.3019					0.724316	6.68961	0.987765	9.10498
0.438185	4.0151	0.236869	2.13384	0.903606	8.27412					0.726423	6.65184	0.994101	9.08536
0.439355	3.99175	0.238952	2.13469	0.908242	8.24622					0.728493	6.61436	1.0004	9.06575
0.44053	3.96882	0.241036	2.13553	0.912814	8.21821					0.730528	6.57721		
0.441707	3.94631	0.243119	2.13635	0.917323	8.19011					0.73253	6.54036		
0.442889	3.9242	0.245202	2.13716	0.921769	8.1619					0.734498	6.50384		
0.444074	3.90249	0.247285	2.13795	0.926152	8.13362					0.736435	6.46763		
0.445263	3.88116	0.249368	2.13873	0.930474	8.10525					0.738342	6.43175		
0.446457	3.86021	0.251451	2.1395	0.934734	8.07681					0.74022	6.39619		
0.447654	3.83963	0.253534	2.14026	0.938934	8.04831					0.742069	6.36096		
0.448855	3.81941	0.255617	2.141	0.943074	8.01974					0.743891	6.32605		
0.45006	3.79954	0.2577	2.14174	0.947155	7.99113					0.745686	6.29148		
0.451269	3.78002	0.259783	2.14246	0.951177	7.96248					0.747457	6.25723		
0.452483	3.76083	0.261866	2.14317	0.955142	7.93379					0.749203	6.2233		
0.4537	3.74198	0.263948	2.14387	0.959049	7.90507					0.750926	6.18971		
0.454922	3.72344	0.266031	2.14455	0.962901	7.87633					0.752626	6.15644		
0.456148	3.70522	0.268114	2.14523	0.966697	7.84757					0.754304	6.1235		
0.457379	3.68731	0.270197	2.1459	0.970438	7.81881					0.755961	6.09089		
0.458614	3.6697	0.272279	2.14655	0.974126	7.79004					0.757599	6.0586		
0.459853	3.65239	0.274362	2.1472	0.97776	7.76128					0.759217	6.02664		
0.461096	3.63537	0.276444	2.14784	0.981342	7.73252					0.760816	5.99499		
0.462344	3.61862	0.278527	2.14847	0.984873	7.70379					0.762397	5.96367		
0.463597	3.60216	0.280609	2.14909	0.988352	7.67507					0.763961	5.93267		
0.464854	3.58596	0.282692	2.1497	0.991782	7.64638					0.765508	5.90198		
0.466115	3.57003	0.284774	2.1503	0.995163	7.61773					0.76704	5.87161		
0.46738	3.55436	0.286857	2.15089	0.998496	7.58912					0.768556	5.84155		
0.46865	3.53895	0.288939	2.15147	1.00178	7.56054					0.770057	5.81181		
0.469925	3.52378	0.291022	2.15205							0.771544	5.78237		
0.471204	3.50886	0.293104	2.15262							0.773017	5.75324		
0.472487	3.49417	0.295186	2.15318							0.774477	5.72441		
0.473775	3.47972	0.297269	2.15373							0.775924	5.69588		
0.475068	3.4655	0.299351	2.15427							0.77736	5.66766		
0.476365	3.4515	0.301433	2.15481							0.778783	5.63972		
0.477666	3.43772	0.303515	2.15534							0.780195	5.61209		
0.478972	3.42416	0.305598	2.15586							0.781597	5.58474		
0.480282	3.41081	0.30768	2.15638							0.782988	5.55768		
0.481596	3.39766	0.309762	2.15689							0.78437	5.53091		
0.482915	3.38472	0.311844	2.15739							0.785741	5.50442		
0.484239	3.37198	0.313926	2.15788							0.787104	5.47821		
0.485567	3.35943	0.316008	2.15837							0.788458	5.45228		
0.486899	3.34707	0.31809	2.15885							0.789803	5.42662		
0.488236	3.3349	0.320172	2.15933							0.791141	5.40123		
0.489577	3.32291	0.322254	2.1598							0.79247	5.37611		
0.490922	3.3111	0.324336	2.16027							0.793793	5.35126		
0.492272	3.29947	0.326418	2.16072							0.795108	5.32667		
0.493626	3.28802	0.3285	2.16118							0.796416	5.30234		
0.494984	3.27673	0.330582	2.16162							0.797718	5.27827		
0.496347	3.26561	0.332664	2.16207							0.799014	5.25445		
0.497714	3.25465	0.334746	2.1625							0.800303	5.23088		
0.499085	3.24385	0.336828	2.16293							0.801587	5.20756		
0.50046	3.23321	0.33891	2.16336							0.802866	5.18448		
0.50184	3.22273	0.340992	2.16378							0.804139	5.16165		
0.503224	3.2124	0.343073	2.16419							0.805408	5.13906		
0.504612	3.20221	0.345155	2.1646							0.806672	5.11671		
0.506004	3.19217	0.347237	2.16501							0.807931	5.09459		
0.5074	3.18228	0.349319	2.16541							0.809186	5.0727		
0.508801	3.17252	0.3514	2.16581							0.810437	5.05104		
0.510205	3.1629	0.353482	2.1662							0.811684	5.0296		
0.511614	3.15342	0.355564	2.16659							0.812927	5.00839		
0.513027	3.14408	0.357646	2.16697							0.814167	4.98741		
0.514443	3.13486	0.359727	2.16735							0.815404	4.96663		
0.515864	3.12577	0.361809	2.16772							0.816637	4.94608		
0.517289	3.11681	0.363891	2.16809							0.817868	4.92574		
0.518718	3.10797	0.365972	2.16845							0.819096	4.9056		
0.52015	3.09925	0.368054	2.16882							0.820321	4.88568		
0.521587	3.09066	0.370136	2.16917							0.821544	4.86596		
0.523028	3.08218	0.372217	2.16953							0.822764	4.84645		
0.524472	3.07381	0.374299	2.16988							0.823982	4.82713		
0.52592	3.06556	0.37638	2.17022							0.825198	4.80801		
0.527373	3.05742	0.378462	2.17056							0.826413	4.78909		
0.528829	3.04939	0.380543	2.1709							0.827625	4.77036		
0.530288	3.04147	0.382625	2.17123							0.828836	4.75182		
0.531752	3.03365	0.384707	2.17157							0.830045	4.73347		
0.533219	3.02594	0.386788	2.17189							0.831253	4.7153		
0.53469	3.01833	0.38887	2.17222							0.83246	4.69732		
0.536165	3.01082	0.390951	2.17254							0.833665	4.67952		
0.537644	3.00341	0.393033	2.17285							0.83487	4.6619		
0.539126	2.99609	0.395114	2.17317							0.836073	4.64446		
0.540611	2.98887	0.397195	2.17348							0.837276	4.62719		
0.542101	2.98175	0.399277	2.17378							0.838478	4.6101		
0.543594	2.97472	0.401358	2.17409							0.839679	4.59317		
0.54509	2.96777	0.40344	2.17439							0.840879	4.57642		
0.54659	2.96092	0.405521	2.17469							0.84208	4.55983		
0.548094	2.95416	0.407602	2.17498							0.843279	4.5434		
0.549601	2.94748	0.409684	2.17527							0.844479	4.52714		
0.551111	2.94088	0.411765	2.17556							0.845678	4.51103		
0.552625	2.93437	0.413847	2.17585							0.846877	4.49509		
0.554143	2.92795	0.415928	2.17613							0.848076	4.4793		
0.555664	2.9216	0.418009	2.17641							0.849275	4.46367		
0.557188	2.91533	0.420091	2.17669							0.850474	4.44819		
0.558715	2.90914	0.422172	2.17697							0.851673	4.43286		
0.560246	2.90303	0.424253	2.17724							0.852872	4.41768		
0.561781	2.897	0.426335	2.17751							0.854072	4.40265		
0.563318	2.89103	0.428416	2.17777							0.855272	4.38776		
0.564859	2.88515	0.430497	2.17804							0.856472	4.37301		
0.566403	2.87933	0.432578	2.1783							0.857673	4.35841		
0.56795	2.87359	0.43466	2.17856							0.858874	4.34395		
0.569501	2.86791	0.436741	2.17882							0.860076	4.32963		
0.571054	2.86231	0.438822	2.17907							0.861279	4.31544		
0.572611	2.85677	0.440904	2.17932							0.862482	4.30139		
0.574171	2.8513	0.442985	2.17957							0.863686	4.28747		
0.575734	2.84589	0.445066	2.17982							0.86489	4.27368		
0.5773	2.84055	0.447147	2.18007							0.866096	4.26003		
0.578869	2.83527	0.449228	2.18031							0.867302	4.2465		
0.580442	2.83006	0.45131	2.18055							0.868509	4.2331		
0.582017	2.82491	0.453391	2.18079							0.869718	4.21983		
0.583595	2.81982	0.455472	2.18102							0.870927	4.20668		
0.585177	2.81479	0.457553	2.18126							0.872137	4.19365		
0.586761	2.80981	0.459634	2.18149							0.873348	4.18075		
0.588348	2.8049	0.461715	2.18172							0.874561	4.16796		
0.589938	2.80004	0.463797	2.18195							0.875774	4.15529		
0.591531	2.79524	0.465878	2.18217							0.876989	4.14274		
0.593127	2.7905	0.467959	2.1824							0.878205	4.13031		
0.594726	2.78581	0.47004	2.18262							0.879422	4.11799		
0.596327	2.78117	0.472121	2.18284							0.88064	4.10578		
0.597932	2.77659	0.474202	2.18306							0.88186	4.09369		
0.599539	2.77206	0.476283	2.18327							0.883081	4.0817		
0.601149	2.76758	0.478364	2.18349							0.884304	4.06983		
0.602762	2.76316	0.480446	2.1837							0.885528	4.05806		
0.604377	2.75878	0.482527	2.18391							0.886753	4.0464		
0.605995	2.75445	0.484608	2.18412							0.88798	4.03484		
0.607616	2.75017	0.486689	2.18433							0.889208	4.02339		
0.60924	2.74594	0.48877	2.18453							0.890438	4.01204		
0.610866	2.74176	0.490851	2.18474							0.891669	4.00079		
0.612495	2.73762	0.492932	2.18494							0.892902	3.98965		
0.614126	2.73353	0.495013	2.18514							0.894136	3.9786		
0.61576	2.72948	0.497094	2.18534							0.895372	3.96765		
0.617397	2.72548	0.499175	2.18553							0.89661	3.9568		
0.619036	2.72152	0.501256	2.18573							0.897849	3.94604		
0.620678	2.71761	0.503337	2.18592							0.89909	3.93538		
0.622322	2.71374	0.505418	2.18612							0.900332	3.92481		
0.623969	2.70991	0.507499	2.18631							0.901577	3.91434		
0.625618	2.70612	0.50958	2.18649							0.902823	3.90396		
0.62727	2.70238	0.511661	2.18668							0.90407	3.89366		
0.628924	2.69867	0.513742	2.18687							0.90532	3.88346		
0.630581	2.69501	0.515823	2.18705							0.906571	3.87335		
0.63224	2.69138	0.517904	2.18724							0.907824	3.86332		
0.633902	2.68779	0.519985	2.18742							0.909078	3.85338		
0.635566	2.68424	0.522066	2.1876							0.910335	3.84353		
0.637232	2.68073	0.524147	2.18778							0.911593	3.83376		
0.6389	2.67726	0.526228	2.18795							0.912853	3.82408		
0.640571	2.67382	0.528309	2.18813							0.914115	3.81448		
0.642245	2.67042	0.53039	2.1883							0.915379	3.80496		
0.64392	2.66706	0.532471	2.18848							0.916645	3.79552		
0.645598	2.66373	0.534552	2.18865							0.917912	3.78616		
0.647278	2.66043	0.536633	2.18882							0.919182	3.77688		
0.64896	2.65717	0.538713	2.18899							0.920453	3.76768		
0.650645	2.65394	0.540794	2.18915							0.921726	3.75856		
0.652332	2.65075	0.542875	2.18932							0.923002	3.74952		
0.654021	2.64759	0.544956	2.18949							0.924279	3.74055		
0.655712	2.64446	0.547037	2.18965							0.925557	3.73165		
0.657405	2.64137	0.549118	2.18981							0.926838	3.72283		
0.659101	2.6383	0.551199	2.18997							0.928121	3.71409		
0.660798	2.63527	0.55328	2.19013							0.929406	3.70541		
0.662498	2.63227	0.555361	2.19029							0.930693	3.69681		
0.6642	2.6293	0.557442	2.19045							0.931982	3.68828		
0.665904	2.62635	0.559522	2.19061							0.933272	3.67982		
0.66761	2.62344	0.561603	2.19076							0.934565	3.67143		
0.669318	2.62056	0.563684	2.19092							0.935859	3.66311		
0.671028	2.61771	0.565765	2.19107							0.937156	3.65485		
0.67274	2.61488	0.567846	2.19122							0.938455	3.64667		
0.674454	2.61209	0.569927	2.19138							0.939755	3.63855		
0.676171	2.60932	0.572008	2.19153							0.941058	3.6305		
0.677889	2.60658	0.574088	2.19167							0.942363	3.62251		
0.679609	2.60386	0.576169	2.19182							0.943669	3.61459		
0.681331	2.60117	0.57825	2.19197							0.944978	3.60673		
0.683055	2.59851	0.580331	2.19211							0.946288	3.59893		
0.684781	2.59588	0.582412	2.19226							0.947601	3.5912		
0.686509	2.59327	0.584493	2.1924							0.948916	3.58353		
0.688239	2.59069	0.586573	2.19255							0.950233	3.57592		
0.68997	2.58813	0.588654	2.19269							0.951551	3.56837		
0.691704	2.58559	0.590735	2.19283							0.952872	3.56088		
0.69344	2.58309	0.592816	2.19297							0.954195	3.55345		
0.695177	2.5806	0.594896	2.19311							0.95552	3.54608		
0.696916	2.57814	0.596977	2.19324							0.956846	3.53877		
0.698657	2.5757	0.599058	2.19338							0.958175	3.53152		
0.7004	2.57329	0.601139	2.19352							0.959506	3.52432		
0.702144	2.5709	0.60322	2.19365							0.960839	3.51718		
0.70389	2.56853	0.6053	2.19378							0.962174	3.51009		
0.705639	2.56618	0.607381	2.19392							0.963511	3.50306		
0.707388	2.56386	0.609462	2.19405							0.96485	3.49609		
0.70914	2.56156	0.611543	2.19418							0.966191	3.48917		
0.710893	2.55928	0.613623	2.19431							0.967534	3.4823		
0.712648	2.55702	0.615704	2.19444							0.96888	3.47549		
0.714405	2.55478	0.617785	2.19457							0.970227	3.46873		
0.716164	2.55257	0.619866	2.1947							0.971576	3.46202		
0.717924	2.55037	0.621946	2.19482							0.972927	3.45537		
0.719686	2.5482	0.624027	2.19495							0.974281	3.44876		
0.721449	2.54604	0.626108	2.19508							0.975636	3.44221		
0.723214	2.54391	0.628189	2.1952							0.976993	3.4357		
0.724981	2.54179	0.630269	2.19532							0.978353	3.42925		
0.726749	2.5397	0.63235	2.19545							0.979714	3.42284		
0.72852	2.53762	0.634431	2.19557							0.981078	3.41648		
0.730291	2.53556	0.636511	2.19569							0.982443	3.41017		
0.732064	2.53352	0.638592	2.19581							0.983811	3.40391		
0.733839	2.5315	0.640673	2.19593							0.98518	3.3977		
0.735616	2.5295	0.642754	2.19605							0.986552	3.39153		
0.737394	2.52752	0.644834	2.19617							0.987925	3.38541		
0.739173	2.52555	0.646915	2.19628							0.989301	3.37933		
0.740954	2.5236	0.648996	2.1964							0.990678	3.3733		
0.742737	2.52167	0.651076	2.19652							0.992058	3.36732		
0.744521	2.51976	0.653157	2.19663							0.99344	3.36138		
0.746306	2.51786	0.655238	2.19674							0.994823	3.35548		
0.748093	2.51598	0.657318	2.19686							0.996209	3.34963		
0.749882	2.51412	0.659399	2.19697							0.997597	3.34382		
0.751672	2.51227	0.66148	2.19708							0.998986	3.33805		
0.753463	2.51044	0.66356	2.19719							1.00038	3.33233		
0.755256	2.50863	0.665641	2.19731										
0.757051	2.50683	0.667722	2.19742										
0.758847	2.50505	0.669802	2.19752										
0.760644	2.50328	0.671883	2.19763										
0.762443	2.50153	0.673964	2.19774										
0.764243	2.4998	0.676044	2.19785										
0.766044	2.49808	0.678125	2.19796										
0.767847	2.49637	0.680205	2.19806										
0.769651	2.49468	0.682286	2.19817										
0.771457	2.49301	0.684367	2.19827										
0.773264	2.49134	0.686447	2.19838										
0.775072	2.4897	0.688528	2.19848										
0.776882	2.48806	0.690609	2.19858										
0.778693	2.48644	0.692689	2.19868										
0.780505	2.48484	0.69477	2.19879										
0.782319	2.48325	0.69685	2.19889										
0.784134	2.48167	0.698931	2.19899										
0.78595	2.4801	0.701012	2.19909										
0.787767	2.47855	0.703092	2.19919										
0.789586	2.47701	0.705173	2.19928										
0.791406	2.47549	0.707253	2.19938										
0.793227	2.47397	0.709334	2.19948										
0.79505	2.47247	0.711415	2.19958										
0.796874	2.47099	0.713495	2.19967										
0.798699	2.46951	0.715576	2.19977										
0.800525	2.46805	0.717656	2.19986										
0.802353	2.4666	0.719737	2.19996										
0.804181	2.46516	0.721818	2.20005										
0.806011	2.46373	0.723898	2.20015										
0.807842	2.46232	0.725979	2.20024										
0.809675	2.46091	0.728059	2.20033										
0.811508	2.45952	0.73014	2.20042										
0.813343	2.45814	0.73222	2.20052										
0.815179	2.45677	0.734301	2.20061										
0.817016	2.45541	0.736381	2.2007										
0.818854	2.45406	0.738462	2.20079										
0.820693	2.45273	0.740543	2.20088										
0.822533	2.4514	0.742623	2.20097										
0.824375	2.45009	0.744704	2.20105										
0.826217	2.44878	0.746784	2.20114										
0.828061	2.44749	0.748865	2.20123										
0.829906	2.4462	0.750945	2.20132										
0.831752	2.44493	0.753026	2.2014										
0.833599	2.44367	0.755106	2.20149										
0.835447	2.44241	0.757187	2.20157										
0.837296	2.44117	0.759267	2.20166										
0.839147	2.43994	0.761348	2.20174										
0.840998	2.43871	0.763428	2.20183										
0.84285	2.4375	0.765509	2.20191										
0.844704	2.4363	0.767589	2.20199										
0.846558	2.4351	0.76967	2.20208										
0.848414	2.43392	0.77175	2.20216										
0.85027	2.43274	0.773831	2.20224										
0.852128	2.43157	0.775911	2.20232										
0.853986	2.43041	0.777992	2.2024										
0.855846	2.42926	0.780072	2.20248										
0.857706	2.42812	0.782153	2.20256										
0.859568	2.42699	0.784233	2.20264										
0.86143	2.42587	0.786314	2.20272										
0.863294	2.42476	0.788394	2.2028										
0.865158	2.42365	0.790475	2.20288										
0.867024	2.42255	0.792555	2.20296										
0.86889	2.42147	0.794636	2.20304										
0.870758	2.42038	0.796716	2.20311										
0.872626	2.41931	0.798797	2.20319										
0.874495	2.41825	0.800877	2.20327										
0.876366	2.41719	0.802958	2.20334										
0.878237	2.41614	0.805038	2.20342										
0.880109	2.4151	0.807119	2.20349										
0.881982	2.41407	0.809199	2.20357										
0.883856	2.41305	0.81128	2.20364										
0.885731	2.41203	0.81336	2.20372										
0.887606	2.41102	0.815441	2.20379										
0.889483	2.41002	0.817521	2.20386										
0.891361	2.40903	0.819601	2.20394										
0.893239	2.40804	0.821682	2.20401										
0.895118	2.40706	0.823762	2.20408										
0.896999	2.40609	0.825843	2.20415										
0.89888	2.40512	0.827923	2.20423										
0.900762	2.40416	0.830004	2.2043										
0.902644	2.40321	0.832084	2.20437										
0.904528	2.40227	0.834165	2.20444										
0.906413	2.40133	0.836245	2.20451										
0.908298	2.4004	0.838325	2.20458										
0.910184	2.39948	0.840406	2.20465										
0.912071	2.39856	0.842486	2.20472										
0.913959	2.39765	0.844567	2.20478										
0.915848	2.39675	0.846647	2.20485										
0.917737	2.39585	0.848727	2.20492										
0.919627	2.39496	0.850808	2.20499										
0.921519	2.39408	0.852888	2.20506										
0.92341	2.3932	0.854969	2.20512										
0.925303	2.39233	0.857049	2.20519										
0.927197	2.39146	0.859129	2.20526										
0.929091	2.39061	0.86121	2.20532										
0.930986	2.38975	0.86329	2.20539										
0.932882	2.38891	0.865371	2.20545										
0.934779	2.38807	0.867451	2.20552										
0.936676	2.38723	0.869531	2.20558										
0.938574	2.3864	0.871612	2.20565										
0.940473	2.38558	0.873692	2.20571										
0.942373	2.38476	0.875773	2.20577										
0.944273	2.38395	0.877853	2.20584										
0.946175	2.38314	0.879933	2.2059										
0.948077	2.38234	0.882014	2.20596										
0.949979	2.38155	0.884094	2.20603										
0.951883	2.38076	0.886175	2.20609										
0.953787	2.37998	0.888255	2.20615										
0.955692	2.3792	0.890335	2.20621										
0.957597	2.37843	0.892416	2.20627										
0.959504	2.37766	0.894496	2.20634										
0.961411	2.3769	0.896576	2.2064										
0.963319	2.37614	0.898657	2.20646										
0.965227	2.37539	0.900737	2.20652										
0.967136	2.37464	0.902817	2.20658										
0.969046	2.3739	0.904898	2.20664										
0.970957	2.37317	0.906978	2.2067										
0.972868	2.37243	0.909058	2.20676										
0.97478	2.37171	0.911139	2.20681										
0.976692	2.37099	0.913219	2.20687										
0.978606	2.37027	0.9153	2.20693										
0.98052	2.36956	0.91738	2.20699										
0.982434	2.36885	0.91946	2.20705										
0.98435	2.36815	0.921541	2.2071										
0.986266	2.36745	0.923621	2.20716										
0.988182	2.36676	0.925701	2.20722										
0.990099	2.36607	0.927782	2.20728										
0.992017	2.36539	0.929862	2.20733										
0.993936	2.36471	0.931942	2.20739										
0.995855	2.36404	0.934023	2.20745										
0.997775	2.36337	0.936103	2.2075										
0.999695	2.3627	0.938183	2.20756										
1.00162	2.36204	0.940264	2.20761										
		0.942344	2.20767										
		0.944424	2.20772										
		0.946504	2.20778										
		0.948585	2.20783										
		0.950665	2.20788										
		0.952745	2.20794										
		0.954826	2.20799										
		0.956906	2.20805										
		0.958986	2.2081										
		0.961067	2.20815										
		0.963147	2.2082										
		0.965227	2.20826										
		0.967307	2.20831										
		0.969388	2.20836										
		0.971468	2.20841										
		0.973548	2.20846										
		0.975629	2.20852										
		0.977709	2.20857										
		0.979789	2.20862										
		0.981869	2.20867										
		0.98395	2.20872										
		0.98603	2.20877										
		0.98811	2.20882										
		0.990191	2.20887										
		0.992271	2.20892										
		0.994351	2.20897										
		0.996431	2.20902										
		0.998512	2.20907										
		1.00059	2.20911										
