Sym0		Asym0		Sym1		Sym2		Sym3		Asym2		Asym3		Asym4	
465  Points		492  Points		179  Points		131  Points		115  Points		349  Points		143  Points		114  Points	
Freq (MHz)	Vph (m/ms)	Freq (MHz)	Vph (m/ms)	Freq (MHz)	Vph (m/ms)	Freq (MHz)	Vph (m/ms)	Freq (MHz)	Vph (m/ms)	Freq (MHz)	Vph (m/ms)	Freq (MHz)	Vph (m/ms)	Freq (MHz)	Vph (m/ms)
0.00604385	8.02869	0.000435106	0.224435	0.279516	986.897	0.458662	4068.15	0.559032	1041.16	0.139843	229.004	0.419286	705.691	0.698773	3511.71
0.0135228	8.02792	0.000946695	0.329816	0.27964	230.171	0.458703	439.186	0.559131	380.716	0.140321	90.9787	0.419415	274.874	0.69882	618.053
0.0209986	8.02647	0.00164418	0.432444	0.279919	130.4	0.458811	232.176	0.55932	233.019	0.141208	57.0756	0.419656	170.763	0.698933	338.897
0.0284694	8.02438	0.00251666	0.531641	0.280351	91.0729	0.458985	157.845	0.559601	167.947	0.142493	41.8391	0.420011	123.925	0.699111	233.499
0.0359334	8.02164	0.0035512	0.626816	0.280936	70.0587	0.459227	119.605	0.559973	131.335	0.144164	33.2371	0.420478	97.3119	0.699355	178.145
0.0433889	8.01827	0.00473392	0.717571	0.281672	56.999	0.459536	96.3142	0.560436	107.871	0.146204	27.7473	0.421057	80.1613	0.699665	144.039
0.0508338	8.01423	0.00605035	0.803622	0.282557	48.108	0.459914	80.6454	0.560989	91.5587	0.148595	23.9638	0.421747	68.1963	0.700041	120.923
0.0582663	8.00951	0.00748595	0.884808	0.28359	41.6732	0.460361	69.3878	0.561633	79.5649	0.151317	21.2151	0.422549	59.38	0.700481	104.225
0.0656845	8.00411	0.00902671	0.961082	0.284767	36.8069	0.460879	60.912	0.562366	70.3793	0.154348	19.1399	0.42346	52.6187	0.700987	91.6019
0.0730861	7.99801	0.0106595	1.0325	0.286087	33.0031	0.461468	54.3032	0.563188	63.1221	0.157669	17.5267	0.42448	47.2726	0.701558	81.7263
0.0804691	7.99118	0.0123719	1.09917	0.287546	29.9521	0.462131	49.0081	0.564098	57.2463	0.161257	16.2433	0.425608	42.9425	0.702194	73.7914
0.0878311	7.98361	0.014153	1.16129	0.289141	27.4539	0.462869	44.6725	0.565097	52.3937	0.165094	15.203	0.426843	39.3665	0.702894	67.2779
0.0951699	7.97527	0.0159927	1.21905	0.290868	25.3733	0.463683	41.059	0.566183	48.3204	0.169159	14.3464	0.428184	36.3654	0.703659	61.8366
0.102483	7.96613	0.0178823	1.27269	0.292725	23.6159	0.464575	38.0027	0.567355	44.8539	0.173434	13.6318	0.429629	33.8126	0.704487	57.2241
0.109767	7.95616	0.0198139	1.32248	0.294707	22.1136	0.465547	35.3854	0.568614	41.8694	0.177902	13.0289	0.431178	31.6162	0.70538	53.2655
0.117021	7.94534	0.0217809	1.36865	0.296811	20.8162	0.466602	33.1201	0.569957	39.2739	0.182547	12.5152	0.432828	29.7077	0.706335	49.8317
0.12424	7.93361	0.0237774	1.41147	0.299034	19.6858	0.467741	31.1415	0.571385	36.9971	0.187354	12.0735	0.434579	28.0351	0.707354	46.8257
0.131421	7.92096	0.0257984	1.45118	0.301371	18.6931	0.468968	29.3995	0.572896	34.9844	0.19231	11.691	0.436429	26.5581	0.708435	44.1729
0.138562	7.90732	0.0275763	1.48344	0.303818	17.8153	0.470283	27.855	0.57449	33.1932	0.197402	11.3572	0.438376	25.2453	0.709579	41.815
0.145659	7.89266	0.0291022	1.50933	0.306373	17.0345	0.47169	26.4772	0.576166	31.5895	0.202618	11.0643	0.440418	24.0714	0.710785	39.706
0.152707	7.87692	0.0303701	1.52969	0.309032	16.3361	0.473192	25.2414	0.577922	30.1459	0.207947	10.8055	0.442555	23.0161	0.712052	37.809
0.159703	7.86005	0.0313762	1.54514	0.311791	15.7083	0.47479	24.1275	0.579758	28.8401	0.21338	10.5758	0.444783	22.0629	0.71338	36.0938
0.166643	7.84198	0.0321178	1.55616	0.314649	15.1415	0.476488	23.1192	0.581673	27.6536	0.218907	10.3709	0.447102	21.1983	0.714768	34.5361
0.173521	7.82267	0.0325931	1.56306	0.317601	14.6278	0.478288	22.2029	0.583666	26.5714	0.224521	10.1871	0.449509	20.4108	0.716217	33.1153
0.180332	7.80204	0.0332773	1.57278	0.320647	14.1604	0.480193	21.3672	0.585736	25.5806	0.230212	10.0217	0.452004	19.691	0.717725	31.8145
0.187072	7.78003	0.0340222	1.58309	0.323784	13.7339	0.482206	20.6026	0.587881	24.6705	0.23523	9.89056	0.454583	19.0309	0.719292	30.6194
0.193734	7.75655	0.035037	1.59669	0.327011	13.3434	0.484329	19.9011	0.590102	23.8319	0.239546	9.78725	0.457245	18.4238	0.720918	29.5179
0.200313	7.73154	0.036323	1.61322	0.330327	12.9851	0.486564	19.2557	0.592396	23.057	0.243141	9.70713	0.459989	17.8637	0.722602	28.4997
0.206802	7.70493	0.0378818	1.63228	0.333732	12.6554	0.488914	18.6607	0.594763	22.339	0.245999	9.64693	0.462812	17.3457	0.724343	27.5558
0.213195	7.67662	0.0397142	1.65339	0.337225	12.3515	0.491381	18.1108	0.597202	21.6722	0.248108	9.60433	0.465713	16.8655	0.726142	26.6786
0.219484	7.64655	0.0418213	1.6761	0.340808	12.0708	0.493967	17.6017	0.599712	21.0515	0.249462	9.57777	0.468689	16.4193	0.727997	25.8615
0.225662	7.61464	0.043932	1.69731	0.344482	11.8112	0.496674	17.1295	0.602292	20.4725	0.251412	9.54052	0.471739	16.0038	0.729907	25.0986
0.231723	7.58082	0.0460452	1.71715	0.348248	11.5707	0.499503	16.6907	0.60494	19.9314	0.253538	9.50122	0.474861	15.6161	0.731873	24.385
0.237659	7.54503	0.0481603	1.73572	0.352109	11.3477	0.502457	16.2825	0.607656	19.4246	0.256439	9.44968	0.478054	15.2537	0.733893	23.7161
0.243462	7.50722	0.0502766	1.75312	0.356067	11.1407	0.505536	15.9022	0.61044	18.9492	0.260123	9.38744	0.481315	14.9144	0.735967	23.088
0.249126	7.46734	0.0523936	1.76946	0.360124	10.9485	0.508741	15.5473	0.613289	18.5025	0.264599	9.31627	0.484642	14.5961	0.738095	22.4972
0.254644	7.42536	0.0545109	1.7848	0.364284	10.7699	0.512072	15.2159	0.616203	18.0822	0.269876	9.238	0.488035	14.2971	0.740275	21.9406
0.260009	7.38127	0.0566283	1.79924	0.36855	10.6039	0.51553	14.906	0.619181	17.686	0.275964	9.15444	0.491491	14.0158	0.742508	21.4154
0.265216	7.33509	0.0587454	1.81284	0.372923	10.4496	0.519115	14.6159	0.622223	17.3122	0.282082	9.07686	0.495009	13.7508	0.744792	20.9191
0.27026	7.28683	0.060862	1.82567	0.377407	10.3062	0.522826	14.3441	0.625326	16.9589	0.288227	9.00461	0.498587	13.5008	0.747128	20.4496
0.275138	7.23656	0.062978	1.83778	0.381405	10.1895	0.526663	14.0892	0.628492	16.6247	0.294394	8.93714	0.502224	13.2646	0.749513	20.0047
0.279847	7.18435	0.0650932	1.84923	0.384881	10.0957	0.530625	13.85	0.631718	16.3081	0.300579	8.87393	0.505918	13.0413	0.751948	19.5828
0.284384	7.13029	0.0672076	1.86006	0.387803	10.0219	0.53471	13.6253	0.635003	16.0079	0.306781	8.81456	0.509668	12.8298	0.754433	19.182
0.28875	7.0745	0.0693211	1.87033	0.390143	9.9658	0.538917	13.414	0.638348	15.7229	0.312994	8.75863	0.513472	12.6294	0.756965	18.801
0.292946	7.01713	0.0714336	1.88007	0.391881	9.92582	0.543244	13.2153	0.641752	15.4522	0.319217	8.70578	0.51733	12.4392	0.759546	18.4385
0.296974	6.95831	0.0735451	1.88931	0.393001	9.90078	0.547689	13.0281	0.645213	15.1946	0.325446	8.65572	0.521239	12.2585	0.762174	18.093
0.300837	6.89823	0.0756557	1.8981	0.394621	9.86551	0.55225	12.8518	0.648732	14.9495	0.331678	8.60817	0.525199	12.0868	0.764848	17.7636
0.304539	6.83705	0.0777653	1.90646	0.396396	9.82812	0.556923	12.6855	0.652307	14.7159	0.337911	8.56287	0.529208	11.9234	0.767569	17.4492
0.308085	6.77494	0.0798738	1.91443	0.398832	9.77881	0.561707	12.5286	0.655938	14.4932	0.344141	8.5196	0.533266	11.7679	0.770335	17.1489
0.31148	6.71209	0.0819814	1.92202	0.40195	9.71888	0.566598	12.3804	0.659625	14.2807	0.350366	8.47817	0.537372	11.6196	0.773145	16.8617
0.314731	6.64867	0.084088	1.92927	0.405776	9.6499	0.571593	12.2403	0.663367	14.0778	0.356584	8.43838	0.541524	11.4781	0.776	16.587
0.317845	6.58484	0.0861936	1.93619	0.410339	9.57356	0.576689	12.1079	0.667165	13.8838	0.362791	8.40006	0.545723	11.3431	0.778899	16.3238
0.320828	6.52078	0.0882984	1.94281	0.415671	9.49164	0.581882	11.9825	0.671017	13.6984	0.368986	8.36308	0.549966	11.2141	0.781841	16.0717
0.323688	6.45663	0.0904022	1.94914	0.421102	9.41533	0.587169	11.8638	0.674923	13.521	0.375165	8.32729	0.554254	11.0909	0.784825	15.8298
0.32643	6.39253	0.0925052	1.95521	0.426626	9.34419	0.592546	11.7512	0.678885	13.3511	0.381327	8.29256	0.558586	10.973	0.787851	15.5978
0.329062	6.32861	0.0946074	1.96102	0.432237	9.27777	0.59801	11.6444	0.682901	13.1885	0.387468	8.25878	0.562961	10.8601	0.790919	15.3749
0.331591	6.26498	0.0967088	1.9666	0.437931	9.21568	0.603556	11.543	0.686972	13.0326	0.393587	8.22585	0.567379	10.7521	0.794028	15.1607
0.334023	6.20176	0.0988094	1.97196	0.4437	9.15755	0.609181	11.4466	0.691098	12.8831	0.39968	8.19365	0.57184	10.6486	0.797177	14.9548
0.336365	6.13904	0.100909	1.9771	0.449539	9.10301	0.61488	11.3549	0.695279	12.7398	0.405747	8.16211	0.575761	10.562	0.800366	14.7567
0.338621	6.07689	0.103008	1.98205	0.455441	9.05176	0.62065	11.2676	0.699516	12.6023	0.411783	8.13114	0.579129	10.4906	0.803594	14.566
0.340799	6.01539	0.105107	1.98681	0.461401	9.00348	0.626487	11.1844	0.70381	12.4704	0.417786	8.10065	0.581932	10.4332	0.806861	14.3824
0.342903	5.9546	0.107205	1.99139	0.467412	8.95791	0.632385	11.105	0.708162	12.3437	0.423755	8.07059	0.584159	10.3888	0.810167	14.2054
0.344938	5.89457	0.109302	1.9958	0.473468	8.9148	0.638341	11.0291	0.712572	12.2221	0.429687	8.04088	0.585803	10.3567	0.81351	14.0347
0.346909	5.83535	0.111398	2.00006	0.479564	8.87391	0.644351	10.9566	0.717042	12.1053	0.435579	8.01146	0.586857	10.3365	0.816892	13.8701
0.348821	5.77698	0.113494	2.00417	0.485695	8.83504	0.650409	10.8871	0.721573	11.9932	0.441429	7.98227	0.588377	10.3077	0.82031	13.7113
0.350678	5.71947	0.11559	2.00813	0.491856	8.798	0.656511	10.8205	0.726167	11.8855	0.447235	7.95327	0.590035	10.2768	0.823765	13.5579
0.352483	5.66286	0.117685	2.01196	0.498042	8.76262	0.662652	10.7565	0.730825	11.782	0.452994	7.92439	0.592297	10.2355	0.827256	13.4097
0.35424	5.60716	0.119779	2.01566	0.504248	8.72873	0.668031	10.7028	0.73555	11.6827	0.458705	7.8956	0.595172	10.1845	0.830783	13.2665
0.355953	5.55239	0.121873	2.01924	0.510472	8.69621	0.672635	10.6584	0.740343	11.5874	0.464364	7.86685	0.59867	10.1244	0.834346	13.1281
0.357625	5.49856	0.123967	2.0227	0.516708	8.66491	0.676453	10.6225	0.745208	11.4959	0.46997	7.8381	0.602802	10.0562	0.837943	12.9942
0.359258	5.44566	0.12606	2.02605	0.522953	8.63474	0.679477	10.5947	0.750147	11.4081	0.47552	7.80932	0.607581	9.98083	0.841575	12.8647
0.360856	5.39371	0.128152	2.0293	0.529204	8.60557	0.681705	10.5746	0.755162	11.3239	0.481013	7.78048	0.612402	9.90837	0.845242	12.7393
0.362422	5.34271	0.130244	2.03244	0.535459	8.57732	0.683131	10.5618	0.760257	11.2433	0.486446	7.75154	0.617263	9.83872	0.848942	12.6179
0.363956	5.29264	0.132336	2.03549	0.541712	8.54989	0.685184	10.5437	0.765435	11.166	0.491817	7.72248	0.622165	9.77173	0.852676	12.5003
0.365463	5.2435	0.134428	2.03845	0.547964	8.52322	0.687416	10.5241	0.7707	11.092	0.497125	7.69328	0.627108	9.70731	0.856444	12.3863
0.366943	5.19529	0.136519	2.04132	0.554209	8.49723	0.690455	10.4979	0.776053	11.0213	0.502368	7.66392	0.632091	9.64534	0.860244	12.2758
0.368399	5.148	0.13861	2.0441	0.560447	8.47185	0.694302	10.4654	0.780794	10.9622	0.507545	7.63438	0.637114	9.5857	0.864076	12.1688
0.369833	5.10162	0.1407	2.04681	0.566676	8.44703	0.698958	10.4268	0.784892	10.9137	0.512653	7.60464	0.642176	9.52831	0.867941	12.0649
0.371246	5.05613	0.14279	2.04943	0.572892	8.42271	0.704421	10.3825	0.788322	10.8748	0.517691	7.57469	0.647278	9.47305	0.871838	11.9641
0.37264	5.01152	0.14488	2.05199	0.579094	8.39885	0.710688	10.333	0.79106	10.8449	0.522659	7.54453	0.652419	9.41985	0.875767	11.8663
0.374017	4.96779	0.146969	2.05447	0.58528	8.37539	0.716948	10.2847	0.793088	10.8233	0.527555	7.51414	0.657599	9.3686	0.879726	11.7713
0.375377	4.9249	0.149059	2.05689	0.591448	8.35231	0.723195	10.2375	0.794393	10.8097	0.532378	7.48353	0.662816	9.31923	0.883717	11.6791
0.376722	4.88287	0.151148	2.05924	0.597597	8.32955	0.729423	10.1912	0.796278	10.7904	0.537127	7.45268	0.668071	9.27166	0.887738	11.5896
0.378053	4.84165	0.153236	2.06153	0.603725	8.30709	0.735628	10.1458	0.798339	10.7698	0.541803	7.42161	0.673362	9.22579	0.891789	11.5026
0.379203	4.8064	0.155325	2.06376	0.609831	8.28489	0.741805	10.1012	0.801163	10.7423	0.546403	7.39031	0.678688	9.18157	0.895871	11.418
0.380176	4.77683	0.157413	2.06593	0.615913	8.26292	0.74795	10.0573	0.80477	10.7085	0.550929	7.35879	0.68405	9.13891	0.899982	11.3358
0.380976	4.75271	0.159501	2.06805	0.621969	8.24116	0.754059	10.014	0.809184	10.669	0.555379	7.32706	0.689445	9.09774	0.903588	11.266
0.381606	4.73384	0.161589	2.07011	0.627998	8.21958	0.76013	9.97124	0.814436	10.6245	0.559755	7.29511	0.694872	9.058	0.90668	11.2078
0.382068	4.72009	0.163676	2.07212	0.634	8.19816	0.76616	9.92899	0.820559	10.5758	0.564055	7.26297	0.700331	9.01961	0.909249	11.1606
0.382363	4.71133	0.165764	2.07408	0.639972	8.17688	0.772147	9.8872	0.826787	10.5297	0.568281	7.23063	0.70582	8.98252	0.911288	11.1239
0.382786	4.69882	0.167851	2.076	0.645914	8.1557	0.778092	9.84586	0.833117	10.4859	0.572433	7.19813	0.711337	8.94666	0.912791	11.0971
0.383244	4.68531	0.169938	2.07786	0.651824	8.13463	0.783994	9.80495	0.839547	10.4443	0.57651	7.16545	0.716882	8.91197	0.913755	11.0802
0.383866	4.6671	0.172025	2.07969	0.657701	8.11363	0.789855	9.76447	0.846075	10.4049	0.580515	7.13263	0.722453	8.87838	0.915144	11.056
0.38465	4.64431	0.174111	2.08147	0.663544	8.0927	0.795674	9.72441	0.852698	10.3676	0.584447	7.09967	0.728048	8.84586	0.916656	11.0299
0.385594	4.61712	0.176198	2.08321	0.669352	8.07181	0.801456	9.68479	0.859413	10.3322	0.588307	7.06659	0.733666	8.81433	0.918719	10.9948
0.386696	4.58573	0.178284	2.08491	0.675124	8.05096	0.807201	9.64562	0.866214	10.2986	0.592097	7.0334	0.739304	8.78376	0.921337	10.9512
0.387954	4.55038	0.18037	2.08657	0.680858	8.03013	0.812913	9.60691	0.873099	10.2667	0.595818	7.00012	0.744963	8.75409	0.924518	10.8993
0.389206	4.51572	0.182456	2.08819	0.686555	8.0093	0.818594	9.5687	0.880064	10.2365	0.599469	6.96676	0.750639	8.72526	0.928268	10.8398
0.390453	4.48174	0.184542	2.08978	0.692212	7.98848	0.824248	9.53098	0.887102	10.2077	0.603053	6.93334	0.756332	8.69724	0.932597	10.7731
0.391695	4.44842	0.186628	2.09134	0.69783	7.96763	0.829877	9.4938	0.894212	10.1804	0.606571	6.89988	0.762039	8.66998	0.936953	10.7082
0.392933	4.41576	0.188713	2.09286	0.703406	7.94677	0.835485	9.45715	0.901387	10.1544	0.610024	6.86638	0.767759	8.64344	0.941336	10.6449
0.394167	4.38373	0.190799	2.09434	0.708941	7.92587	0.841075	9.42107	0.908625	10.1296	0.613413	6.83287	0.773491	8.61757	0.945744	10.5833
0.395398	4.35232	0.192884	2.0958	0.714433	7.90493	0.846649	9.38556	0.915921	10.1059	0.61674	6.79936	0.779232	8.59235	0.950179	10.5232
0.396626	4.32152	0.194969	2.09723	0.719882	7.88395	0.85221	9.35063	0.923271	10.0834	0.620005	6.76586	0.784981	8.56772	0.95464	10.4646
0.397852	4.29131	0.197054	2.09862	0.725287	7.86291	0.857761	9.3163	0.930672	10.0618	0.62321	6.73239	0.790736	8.54366	0.959126	10.4075
0.399076	4.26169	0.199139	2.09999	0.730647	7.84181	0.863304	9.28257	0.93812	10.0412	0.626357	6.69896	0.796496	8.52012	0.963637	10.3518
0.400299	4.23263	0.201224	2.10133	0.735961	7.82065	0.868841	9.24944	0.945613	10.0215	0.629447	6.66558	0.80226	8.49709	0.968173	10.2975
0.40152	4.20413	0.203309	2.10264	0.74123	7.79941	0.874374	9.21693	0.953147	10.0026	0.63248	6.63227	0.808025	8.47452	0.972734	10.2444
0.402741	4.17617	0.205393	2.10393	0.746452	7.77811	0.879905	9.18502	0.960718	9.98439	0.63546	6.59904	0.81379	8.45239	0.977319	10.1927
0.403961	4.14874	0.207478	2.10519	0.751627	7.75672	0.885435	9.15372	0.968326	9.96695	0.638385	6.5659	0.819553	8.43067	0.981928	10.1422
0.405181	4.12183	0.209562	2.10642	0.756754	7.73526	0.890965	9.12302	0.975966	9.95016	0.64126	6.53286	0.825314	8.40933	0.98656	10.093
0.406401	4.09543	0.211646	2.10763	0.761833	7.71372	0.896497	9.09292	0.983636	9.93401	0.644083	6.49993	0.83107	8.38835	0.991216	10.0448
0.407622	4.06952	0.21373	2.10882	0.766864	7.69209	0.902032	9.06341	0.991335	9.91843	0.646857	6.46712	0.836821	8.3677	0.995895	9.99786
0.408843	4.04409	0.215815	2.10999	0.771846	7.67038	0.907571	9.03449	0.999059	9.90339	0.649583	6.43444	0.842564	8.34737	1.0006	9.95198
0.410065	4.01914	0.217899	2.11113	0.776779	7.64859	0.913114	9.00614	1.00681	9.88887	0.652263	6.40189	0.848299	8.32732		
0.411288	3.99465	0.219982	2.11226	0.781662	7.62671	0.918662	8.97835			0.654897	6.3695	0.854024	8.30753		
0.412513	3.97061	0.222066	2.11336	0.786497	7.60474	0.924216	8.95112			0.657487	6.33726	0.859737	8.288		
0.413739	3.94702	0.22415	2.11444	0.791281	7.5827	0.929775	8.92443			0.660033	6.30519	0.865439	8.26869		
0.414966	3.92385	0.226234	2.11551	0.796016	7.56057	0.93534	8.89827			0.662538	6.27328	0.871126	8.2496		
0.416196	3.90111	0.228317	2.11655	0.800702	7.53836	0.940911	8.87263			0.665003	6.24156	0.876799	8.2307		
0.417428	3.87878	0.230401	2.11757	0.805337	7.51607	0.946488	8.84749			0.667428	6.21001	0.882456	8.21198		
0.418661	3.85686	0.232484	2.11858	0.809923	7.49371	0.952071	8.82284			0.669814	6.17866	0.888096	8.19342		
0.419897	3.83532	0.234568	2.11957	0.814459	7.47128	0.95766	8.79867			0.672164	6.14749	0.893717	8.17502		
0.421136	3.81418	0.236651	2.12054	0.818946	7.44877	0.963255	8.77495			0.674477	6.11653	0.899319	8.15674		
0.422377	3.79341	0.238734	2.1215	0.823383	7.4262	0.968855	8.75169			0.676755	6.08577	0.904901	8.1386		
0.423621	3.77301	0.240817	2.12244	0.827771	7.40356	0.97446	8.72886			0.678999	6.05521	0.910461	8.12056		
0.424868	3.75297	0.2429	2.12336	0.83211	7.38087	0.98007	8.70644			0.681209	6.02487	0.915999	8.10262		
0.426117	3.73328	0.244983	2.12427	0.836401	7.35811	0.985684	8.68443			0.683388	5.99474	0.921514	8.08477		
0.42737	3.71394	0.247066	2.12516	0.840642	7.33531	0.991301	8.66282			0.685536	5.96483	0.927004	8.067		
0.428625	3.69494	0.249149	2.12604	0.844836	7.31245	0.996921	8.64157			0.687653	5.93514	0.93247	8.0493		
0.429884	3.67626	0.251232	2.1269	0.848982	7.28956	1.00254	8.62069			0.689741	5.90567	0.93791	8.03166		
0.431147	3.65791	0.253315	2.12775	0.853081	7.26662					0.691801	5.87643	0.943323	8.01408		
0.432412	3.63988	0.255397	2.12859	0.857132	7.24364					0.693833	5.84741	0.948709	7.99654		
0.433681	3.62215	0.25748	2.12941	0.861137	7.22063					0.695839	5.81863	0.954066	7.97904		
0.434953	3.60473	0.259563	2.13022	0.865096	7.19759					0.697818	5.79007	0.959395	7.96156		
0.436229	3.5876	0.261645	2.13102	0.869009	7.17453					0.699773	5.76175	0.964694	7.94412		
0.437509	3.57076	0.263728	2.1318	0.872876	7.15145					0.701703	5.73366	0.969963	7.92669		
0.438792	3.55421	0.26581	2.13257	0.876699	7.12836					0.70361	5.7058	0.975201	7.90928		
0.440079	3.53793	0.267893	2.13333	0.880477	7.10525					0.705494	5.67818	0.980408	7.89187		
0.44137	3.52193	0.269975	2.13408	0.884211	7.08214					0.707356	5.65079	0.985583	7.87448		
0.442664	3.50619	0.272057	2.13482	0.887902	7.05902					0.709197	5.62364	0.990726	7.85708		
0.443962	3.49071	0.27414	2.13555	0.89155	7.03591					0.711017	5.59672	0.995836	7.83968		
0.445264	3.47549	0.276222	2.13626	0.895155	7.0128					0.712817	5.57004	1.00091	7.82227		
0.44657	3.46052	0.278304	2.13697	0.898718	6.9897					0.714598	5.5436				
0.44788	3.44579	0.280386	2.13766	0.90224	6.96661					0.71636	5.51739				
0.449194	3.4313	0.282468	2.13835	0.905722	6.94353					0.718103	5.49141				
0.450512	3.41705	0.28455	2.13902	0.909162	6.92048					0.719829	5.46567				
0.451833	3.40303	0.286632	2.13969	0.912563	6.89745					0.721539	5.44016				
0.453159	3.38923	0.288714	2.14034	0.915925	6.87445					0.723231	5.41489				
0.454489	3.37565	0.290796	2.14099	0.919248	6.85148					0.724908	5.38984				
0.455822	3.36229	0.292878	2.14163	0.922532	6.82854					0.72657	5.36503				
0.45716	3.34914	0.29496	2.14226	0.925779	6.80564					0.728217	5.34045				
0.458502	3.3362	0.297042	2.14287	0.928989	6.78278					0.729849	5.3161				
0.459847	3.32346	0.299124	2.14349	0.932162	6.75996					0.731467	5.29198				
0.461197	3.31092	0.301205	2.14409	0.935299	6.73719					0.733073	5.26808				
0.462551	3.29858	0.303287	2.14468	0.9384	6.71446					0.734665	5.24441				
0.463909	3.28642	0.305369	2.14527	0.941466	6.69179					0.736244	5.22096				
0.465271	3.27446	0.30745	2.14585	0.944498	6.66918					0.737812	5.19773				
0.466637	3.26268	0.309532	2.14642	0.947495	6.64662					0.739368	5.17473				
0.468007	3.25108	0.311613	2.14698	0.950459	6.62411					0.740912	5.15194				
0.469381	3.23966	0.313695	2.14754	0.953391	6.60168					0.742446	5.12938				
0.47076	3.22841	0.315776	2.14809	0.956289	6.5793					0.743969	5.10703				
0.472142	3.21733	0.317858	2.14863	0.959156	6.55699					0.745482	5.08489				
0.473528	3.20642	0.319939	2.14916	0.961991	6.53475					0.746985	5.06297				
0.474919	3.19568	0.322021	2.14969	0.964795	6.51258					0.748479	5.04126				
0.476313	3.18509	0.324102	2.15021	0.967569	6.49049					0.749964	5.01976				
0.477711	3.17466	0.326184	2.15073	0.970313	6.46847					0.751439	4.99846				
0.479113	3.16439	0.328265	2.15123	0.973027	6.44652					0.752907	4.97738				
0.48052	3.15427	0.330346	2.15174	0.975712	6.42466					0.754366	4.9565				
0.48193	3.1443	0.332428	2.15223	0.978369	6.40287					0.755818	4.93582				
0.483344	3.13447	0.334509	2.15272	0.980998	6.38116					0.757261	4.91534				
0.484763	3.12479	0.33659	2.1532	0.983599	6.35954					0.758698	4.89506				
0.486185	3.11524	0.338671	2.15368	0.986173	6.338					0.760127	4.87498				
0.487611	3.10584	0.340752	2.15415	0.98872	6.31655					0.76155	4.85509				
0.489041	3.09657	0.342834	2.15462	0.991242	6.29519					0.762966	4.8354				
0.490475	3.08744	0.344915	2.15508	0.993737	6.27391					0.764376	4.8159				
0.491913	3.07843	0.346996	2.15553	0.996207	6.25273					0.76578	4.79659				
0.493354	3.06956	0.349077	2.15598	0.998653	6.23164					0.767179	4.77747				
0.4948	3.06081	0.351158	2.15643	1.00107	6.21064					0.768571	4.75853				
0.496249	3.05218	0.353239	2.15687							0.769959	4.73978				
0.497702	3.04368	0.35532	2.1573							0.771341	4.72121				
0.499159	3.0353	0.357401	2.15773							0.772718	4.70282				
0.50062	3.02703	0.359482	2.15815							0.774091	4.68461				
0.502085	3.01888	0.361563	2.15857							0.775459	4.66658				
0.503553	3.01084	0.363644	2.15899							0.776823	4.64872				
0.505025	3.00291	0.365725	2.1594							0.778182	4.63104				
0.5065	2.99509	0.367806	2.1598							0.779538	4.61353				
0.50798	2.98738	0.369887	2.1602							0.78089	4.59618				
0.509463	2.97978	0.371968	2.1606							0.782238	4.57901				
0.51095	2.97228	0.374048	2.16099							0.783583	4.562				
0.51244	2.96488	0.376129	2.16138							0.784925	4.54516				
0.513934	2.95758	0.37821	2.16176							0.786263	4.52848				
0.515431	2.95038	0.380291	2.16214							0.787599	4.51196				
0.516932	2.94327	0.382372	2.16252							0.788931	4.4956				
0.518437	2.93626	0.384452	2.16289							0.790261	4.47939				
0.519945	2.92935	0.386533	2.16325							0.791589	4.46335				
0.521457	2.92252	0.388614	2.16362							0.792913	4.44745				
0.522972	2.91579	0.390694	2.16398							0.794236	4.43171				
0.52449	2.90914	0.392775	2.16433							0.795556	4.41612				
0.526012	2.90258	0.394856	2.16468							0.796875	4.40068				
0.527538	2.89611	0.396936	2.16503							0.798191	4.38539				
0.529067	2.88973	0.399017	2.16538							0.799506	4.37024				
0.530599	2.88342	0.401098	2.16572							0.800819	4.35523				
0.532135	2.8772	0.403178	2.16606							0.80213	4.34037				
0.533673	2.87106	0.405259	2.16639							0.80344	4.32565				
0.535216	2.86499	0.407339	2.16672							0.804748	4.31107				
0.536761	2.85901	0.40942	2.16705							0.806056	4.29663				
0.53831	2.8531	0.4115	2.16737							0.807362	4.28232				
0.539862	2.84726	0.413581	2.16769							0.808667	4.26815				
0.541417	2.8415	0.415661	2.16801							0.80997	4.25411				
0.542976	2.83582	0.417742	2.16832							0.811273	4.24021				
0.544537	2.8302	0.419822	2.16863							0.812575	4.22643				
0.546102	2.82465	0.421903	2.16894							0.813877	4.21279				
0.54767	2.81918	0.423983	2.16925							0.815178	4.19927				
0.549241	2.81377	0.426064	2.16955							0.816478	4.18588				
0.550815	2.80843	0.428144	2.16985							0.817777	4.17261				
0.552393	2.80316	0.430225	2.17015							0.819076	4.15946				
0.553973	2.79795	0.432305	2.17044							0.820375	4.14644				
0.555556	2.7928	0.434385	2.17073							0.821674	4.13354				
0.557142	2.78772	0.436466	2.17102							0.822972	4.12075				
0.558732	2.7827	0.438546	2.1713							0.82427	4.10809				
0.560324	2.77774	0.440626	2.17159							0.825568	4.09554				
0.561919	2.77284	0.442707	2.17187							0.826866	4.08311				
0.563518	2.768	0.444787	2.17214							0.828164	4.07079				
0.565119	2.76322	0.446867	2.17242							0.829462	4.05858				
0.566723	2.7585	0.448948	2.17269							0.83076	4.04649				
0.56833	2.75383	0.451028	2.17296							0.832059	4.0345				
0.569939	2.74922	0.453108	2.17323							0.833358	4.02263				
0.571552	2.74466	0.455188	2.17349							0.834657	4.01086				
0.573167	2.74016	0.457269	2.17376							0.835956	3.9992				
0.574785	2.73571	0.459349	2.17402							0.837256	3.98764				
0.576406	2.73131	0.461429	2.17427							0.838556	3.97619				
0.57803	2.72697	0.463509	2.17453							0.839857	3.96484				
0.579656	2.72267	0.46559	2.17478							0.841158	3.9536				
0.581286	2.71843	0.46767	2.17503							0.84246	3.94245				
0.582917	2.71423	0.46975	2.17528							0.843762	3.93141				
0.584552	2.71009	0.47183	2.17553							0.845065	3.92046				
0.586189	2.70599	0.47391	2.17577							0.846369	3.90961				
0.587829	2.70194	0.47599	2.17601							0.847674	3.89885				
0.589471	2.69793	0.478071	2.17625							0.848979	3.8882				
0.591116	2.69397	0.480151	2.17649							0.850285	3.87763				
0.592764	2.69006	0.482231	2.17673							0.851593	3.86716				
0.594414	2.68619	0.484311	2.17696							0.852901	3.85679				
0.596066	2.68237	0.486391	2.1772							0.854209	3.8465				
0.597722	2.67858	0.488471	2.17743							0.855519	3.8363				
0.599379	2.67484	0.490551	2.17765							0.85683	3.82619				
0.601039	2.67115	0.492631	2.17788							0.858142	3.81618				
0.602702	2.66749	0.494711	2.1781							0.859455	3.80624				
0.604367	2.66388	0.496791	2.17833							0.860769	3.7964				
0.606035	2.6603	0.498871	2.17855							0.862084	3.78664				
0.607705	2.65677	0.500951	2.17877							0.863401	3.77696				
0.609377	2.65327	0.503031	2.17898							0.864718	3.76737				
0.611052	2.64981	0.505111	2.1792							0.866037	3.75786				
0.612729	2.64639	0.507191	2.17941							0.867357	3.74844				
0.614408	2.64301	0.509271	2.17962							0.868678	3.73909				
0.61609	2.63966	0.511351	2.17983							0.87	3.72983				
0.617774	2.63636	0.513431	2.18004							0.871324	3.72064				
0.61946	2.63308	0.515511	2.18025							0.872649	3.71153				
0.621149	2.62985	0.517591	2.18045							0.873975	3.7025				
0.622839	2.62664	0.519671	2.18066							0.875303	3.69355				
0.624533	2.62347	0.521751	2.18086							0.876632	3.68467				
0.626228	2.62034	0.523831	2.18106							0.877962	3.67587				
0.627925	2.61724	0.525911	2.18126							0.879294	3.66714				
0.629625	2.61417	0.527991	2.18145							0.880627	3.65848				
0.631327	2.61114	0.530071	2.18165							0.881962	3.6499				
0.633031	2.60814	0.532151	2.18184							0.883298	3.64139				
0.634737	2.60517	0.534231	2.18203							0.884636	3.63295				
0.636445	2.60223	0.536311	2.18222							0.885975	3.62458				
0.638156	2.59932	0.53839	2.18241							0.887316	3.61628				
0.639868	2.59644	0.54047	2.1826							0.888658	3.60805				
0.641583	2.59359	0.54255	2.18279							0.890001	3.59989				
0.6433	2.59077	0.54463	2.18297							0.891347	3.59179				
0.645018	2.58798	0.54671	2.18316							0.892693	3.58377				
0.646739	2.58522	0.54879	2.18334							0.894042	3.5758				
0.648462	2.58249	0.55087	2.18352							0.895392	3.56791				
0.650187	2.57979	0.552949	2.1837							0.896743	3.56008				
0.651914	2.57711	0.555029	2.18388							0.898096	3.55231				
0.653642	2.57447	0.557109	2.18405							0.899451	3.5446				
0.655373	2.57185	0.559189	2.18423							0.900808	3.53696				
0.657106	2.56925	0.561269	2.1844							0.902166	3.52938				
0.65884	2.56668	0.563348	2.18458							0.903525	3.52187				
0.660577	2.56414	0.565428	2.18475							0.904887	3.51441				
0.662315	2.56162	0.567508	2.18492							0.90625	3.50701				
0.664055	2.55913	0.569588	2.18509							0.907614	3.49968				
0.665798	2.55667	0.571668	2.18526							0.908981	3.4924				
0.667542	2.55423	0.573747	2.18542							0.910349	3.48518				
0.669288	2.55181	0.575827	2.18559							0.911719	3.47802				
0.671035	2.54942	0.577907	2.18575							0.91309	3.47091				
0.672785	2.54705	0.579986	2.18592							0.914463	3.46386				
0.674536	2.5447	0.582066	2.18608							0.915838	3.45687				
0.676289	2.54238	0.584146	2.18624							0.917215	3.44994				
0.678044	2.54008	0.586226	2.1864							0.918593	3.44306				
0.679801	2.5378	0.588305	2.18656							0.919973	3.43623				
0.68156	2.53555	0.590385	2.18671							0.921355	3.42946				
0.68332	2.53332	0.592465	2.18687							0.922739	3.42274				
0.685082	2.53111	0.594544	2.18703							0.924124	3.41607				
0.686845	2.52892	0.596624	2.18718							0.925511	3.40945				
0.688611	2.52675	0.598704	2.18733							0.9269	3.40289				
0.690378	2.5246	0.600783	2.18748							0.928291	3.39638				
0.692147	2.52248	0.602863	2.18764							0.929683	3.38992				
0.693917	2.52037	0.604943	2.18779							0.931077	3.38351				
0.695689	2.51829	0.607022	2.18793							0.932473	3.37714				
0.697463	2.51622	0.609102	2.18808							0.933871	3.37083				
0.699238	2.51417	0.611182	2.18823							0.93527	3.36457				
0.701015	2.51215	0.613261	2.18838							0.936672	3.35835				
0.702794	2.51014	0.615341	2.18852							0.938075	3.35219				
0.704574	2.50815	0.617421	2.18866							0.939479	3.34607				
0.706356	2.50618	0.6195	2.18881							0.940886	3.33999				
0.708139	2.50423	0.62158	2.18895							0.942295	3.33397				
0.709924	2.5023	0.623659	2.18909							0.943705	3.32798				
0.711711	2.50039	0.625739	2.18923							0.945117	3.32205				
0.713499	2.49849	0.627819	2.18937							0.946531	3.31616				
0.715288	2.49661	0.629898	2.18951							0.947946	3.31031				
0.717079	2.49475	0.631978	2.18964							0.949364	3.30451				
0.718872	2.49291	0.634057	2.18978							0.950783	3.29875				
0.720666	2.49108	0.636137	2.18992							0.952204	3.29304				
0.722461	2.48927	0.638217	2.19005							0.953627	3.28737				
0.724258	2.48747	0.640296	2.19018							0.955052	3.28174				
0.726057	2.4857	0.642376	2.19032							0.956478	3.27615				
0.727857	2.48394	0.644455	2.19045							0.957906	3.27061				
0.729658	2.48219	0.646535	2.19058							0.959336	3.2651				
0.731461	2.48046	0.648614	2.19071							0.960768	3.25964				
0.733266	2.47875	0.650694	2.19084							0.962202	3.25422				
0.735071	2.47705	0.652773	2.19097							0.963637	3.24883				
0.736878	2.47537	0.654853	2.1911							0.965075	3.24349				
0.738687	2.4737	0.656932	2.19122							0.966514	3.23819				
0.740497	2.47205	0.659012	2.19135							0.967955	3.23292				
0.742308	2.47042	0.661091	2.19148							0.969397	3.2277				
0.744121	2.46879	0.663171	2.1916							0.970842	3.22251				
0.745935	2.46718	0.66525	2.19172							0.972288	3.21736				
0.74775	2.46559	0.66733	2.19185							0.973736	3.21225				
0.749567	2.46401	0.669409	2.19197							0.975186	3.20718				
0.751385	2.46245	0.671489	2.19209							0.976637	3.20214				
0.753204	2.46089	0.673568	2.19221							0.978091	3.19714				
0.755025	2.45936	0.675648	2.19233							0.979546	3.19217				
0.756847	2.45783	0.677727	2.19245							0.981003	3.18724				
0.75867	2.45632	0.679807	2.19257							0.982462	3.18235				
0.760494	2.45482	0.681886	2.19269							0.983922	3.17749				
0.76232	2.45334	0.683966	2.1928							0.985385	3.17267				
0.764147	2.45187	0.686045	2.19292							0.986849	3.16788				
0.765976	2.45041	0.688124	2.19304							0.988315	3.16312				
0.767805	2.44896	0.690204	2.19315							0.989782	3.1584				
0.769636	2.44753	0.692283	2.19327							0.991252	3.15372				
0.771468	2.44611	0.694363	2.19338							0.992723	3.14906				
0.773301	2.4447	0.696442	2.19349							0.994196	3.14444				
0.775136	2.4433	0.698522	2.1936							0.995671	3.13985				
0.776971	2.44191	0.700601	2.19372							0.997147	3.1353				
0.778808	2.44054	0.70268	2.19383							0.998626	3.13077				
0.780646	2.43918	0.70476	2.19394							1.00011	3.12628				
0.782486	2.43783	0.706839	2.19405												
0.784326	2.43649	0.708919	2.19416												
0.786168	2.43516	0.710998	2.19426												
0.78801	2.43385	0.713077	2.19437												
0.789854	2.43254	0.715157	2.19448												
0.791699	2.43125	0.717236	2.19459												
0.793545	2.42997	0.719316	2.19469												
0.795393	2.42869	0.721395	2.1948												
0.797241	2.42743	0.723474	2.1949												
0.799091	2.42618	0.725554	2.19501												
0.800941	2.42494	0.727633	2.19511												
0.802793	2.42371	0.729712	2.19521												
0.804646	2.42249	0.731792	2.19531												
0.8065	2.42128	0.733871	2.19542												
0.808355	2.42008	0.73595	2.19552												
0.810211	2.41889	0.73803	2.19562												
0.812068	2.41771	0.740109	2.19572												
0.813926	2.41654	0.742188	2.19582												
0.815785	2.41538	0.744268	2.19592												
0.817646	2.41422	0.746347	2.19601												
0.819507	2.41308	0.748426	2.19611												
0.821369	2.41195	0.750505	2.19621												
0.823233	2.41082	0.752585	2.1963												
0.825097	2.40971	0.754664	2.1964												
0.826962	2.4086	0.756743	2.1965												
0.828829	2.4075	0.758823	2.19659												
0.830696	2.40642	0.760902	2.19669												
0.832564	2.40534	0.762981	2.19678												
0.834434	2.40427	0.76506	2.19687												
0.836304	2.4032	0.76714	2.19697												
0.838175	2.40215	0.769219	2.19706												
0.840047	2.4011	0.771298	2.19715												
0.84192	2.40007	0.773377	2.19724												
0.843795	2.39904	0.775457	2.19733												
0.84567	2.39802	0.777536	2.19742												
0.847546	2.397	0.779615	2.19751												
0.849422	2.396	0.781694	2.1976												
0.8513	2.395	0.783774	2.19769												
0.853179	2.39401	0.785853	2.19778												
0.855059	2.39303	0.787932	2.19787												
0.856939	2.39205	0.790011	2.19796												
0.858821	2.39109	0.792091	2.19804												
0.860703	2.39013	0.79417	2.19813												
0.862586	2.38918	0.796249	2.19822												
0.864471	2.38823	0.798328	2.1983												
0.866356	2.38729	0.800407	2.19839												
0.868241	2.38636	0.802487	2.19847												
0.870128	2.38544	0.804566	2.19856												
0.872016	2.38453	0.806645	2.19864												
0.873904	2.38362	0.808724	2.19872												
0.875794	2.38272	0.810803	2.19881												
0.877684	2.38182	0.812883	2.19889												
0.879575	2.38093	0.814962	2.19897												
0.881467	2.38005	0.817041	2.19905												
0.883359	2.37918	0.81912	2.19914												
0.885253	2.37831	0.821199	2.19922												
0.887147	2.37745	0.823278	2.1993												
0.889042	2.37659	0.825358	2.19938												
0.890938	2.37574	0.827437	2.19946												
0.892835	2.3749	0.829516	2.19954												
0.894732	2.37406	0.831595	2.19961												
0.896631	2.37323	0.833674	2.19969												
0.89853	2.37241	0.835753	2.19977												
0.90043	2.37159	0.837833	2.19985												
0.90233	2.37078	0.839912	2.19993												
0.904232	2.36997	0.841991	2.2												
0.906134	2.36917	0.84407	2.20008												
0.908037	2.36838	0.846149	2.20016												
0.909941	2.36759	0.848228	2.20023												
0.911845	2.36681	0.850307	2.20031												
0.91375	2.36603	0.852386	2.20038												
0.915656	2.36526	0.854465	2.20046												
0.917563	2.3645	0.856545	2.20053												
0.919471	2.36374	0.858624	2.20061												
0.921379	2.36298	0.860703	2.20068												
0.923288	2.36223	0.862782	2.20075												
0.925197	2.36149	0.864861	2.20083												
0.927108	2.36075	0.86694	2.2009												
0.929019	2.36002	0.869019	2.20097												
0.93093	2.35929	0.871098	2.20104												
0.932843	2.35857	0.873177	2.20111												
0.934756	2.35785	0.875256	2.20119												
0.93667	2.35714	0.877335	2.20126												
0.938585	2.35643	0.879414	2.20133												
0.9405	2.35573	0.881493	2.2014												
0.942416	2.35504	0.883573	2.20147												
0.944332	2.35434	0.885652	2.20154												
0.94625	2.35366	0.887731	2.20161												
0.948168	2.35297	0.88981	2.20167												
0.950086	2.3523	0.891889	2.20174												
0.952006	2.35162	0.893968	2.20181												
0.953926	2.35096	0.896047	2.20188												
0.955846	2.35029	0.898126	2.20195												
0.957767	2.34963	0.900205	2.20201												
0.959689	2.34898	0.902284	2.20208												
0.961612	2.34833	0.904363	2.20215												
0.963535	2.34769	0.906442	2.20221												
0.965459	2.34705	0.908521	2.20228												
0.967383	2.34641	0.9106	2.20234												
0.969309	2.34578	0.912679	2.20241												
0.971234	2.34515	0.914758	2.20248												
0.973161	2.34453	0.916837	2.20254												
0.975088	2.34391	0.918916	2.2026												
0.977015	2.34329	0.920995	2.20267												
0.978943	2.34268	0.923074	2.20273												
0.980872	2.34208	0.925153	2.2028												
0.982802	2.34148	0.927232	2.20286												
0.984732	2.34088	0.929311	2.20292												
0.986662	2.34028	0.93139	2.20299												
0.988593	2.33969	0.933469	2.20305												
0.990525	2.33911	0.935548	2.20311												
0.992458	2.33853	0.937627	2.20317												
0.994391	2.33795	0.939706	2.20323												
0.996324	2.33737	0.941785	2.20329												
0.998258	2.3368	0.943864	2.20336												
1.00019	2.33624	0.945943	2.20342												
		0.948021	2.20348												
		0.9501	2.20354												
		0.952179	2.2036												
		0.954258	2.20366												
		0.956337	2.20372												
		0.958416	2.20378												
		0.960495	2.20383												
		0.962574	2.20389												
		0.964653	2.20395												
		0.966732	2.20401												
		0.968811	2.20407												
		0.97089	2.20413												
		0.972969	2.20418												
		0.975048	2.20424												
		0.977126	2.2043												
		0.979205	2.20435												
		0.981284	2.20441												
		0.983363	2.20447												
		0.985442	2.20452												
		0.987521	2.20458												
		0.9896	2.20463												
		0.991679	2.20469												
		0.993758	2.20474												
		0.995836	2.2048												
		0.997915	2.20485												
		0.999994	2.20491												
		1.00207	2.20496												
