Sym0		Asym0		Sym1		Sym2		Sym3		Sym4		Asym1		Asym2		Asym3		Asym4	
480  Points		498  Points		268  Points		201  Points		182  Points		134  Points		390  Points		219  Points		179  Points		133  Points	
Freq (MHz)	Vph (m/ms)	Freq (MHz)	Vph (m/ms)	Freq (MHz)	Vph (m/ms)	Freq (MHz)	Vph (m/ms)	Freq (MHz)	Vph (m/ms)	Freq (MHz)	Vph (m/ms)	Freq (MHz)	Vph (m/ms)	Freq (MHz)	Vph (m/ms)	Freq (MHz)	Vph (m/ms)	Freq (MHz)	Vph (m/ms)
0.00335689	5.22081	5.81765e-005	0.0663722	0.279516	579.004	0.41759	930.117	0.559017	29134.1	0.838528	1877.71	0.139835	162.594	0.419273	656.056	0.698774	1583.51	0.835178	1063.49
0.0082209	5.22069	0.000247065	0.136635	0.279569	197.653	0.417625	302.483	0.559036	587.913	0.83855	608.41	0.140103	78.1946	0.419326	266.955	0.698798	508.965	0.835202	486.428
0.0130842	5.22037	0.000565456	0.206378	0.279676	119.207	0.417697	180.637	0.559092	296.982	0.838594	363.034	0.140557	51.6107	0.419423	167.604	0.698846	303.23	0.835245	315.341
0.0179465	5.21993	0.00101074	0.275285	0.279834	85.3717	0.417805	128.791	0.559185	198.696	0.83866	258.714	0.141196	38.6298	0.419565	122.174	0.698919	215.958	0.835305	233.299
0.0228072	5.21932	0.00157961	0.343147	0.280046	66.5266	0.417949	100.09	0.559314	149.311	0.838749	200.977	0.142015	30.9616	0.419751	96.1438	0.699016	167.708	0.835384	185.143
0.0276662	5.21859	0.00226776	0.409714	0.280309	54.5218	0.41813	81.8669	0.55948	119.607	0.838859	164.32	0.143009	25.9145	0.419981	79.2782	0.699137	137.092	0.83548	153.474
0.0325229	5.21772	0.00307044	0.474808	0.280624	46.2091	0.418347	69.2727	0.559683	99.7767	0.838992	138.981	0.144174	22.3519	0.420255	67.4648	0.699283	115.939	0.835595	131.064
0.0373769	5.2167	0.00398218	0.53825	0.280991	40.1152	0.418601	60.0504	0.559922	85.6013	0.839147	120.421	0.145504	19.7109	0.420574	58.7316	0.699453	100.451	0.835728	114.371
0.0422278	5.21554	0.00499714	0.599892	0.281409	35.4585	0.418892	53.0074	0.560198	74.9655	0.839324	106.242	0.146991	17.6808	0.420936	52.0147	0.699647	88.6208	0.835879	101.455
0.0470752	5.21422	0.00610924	0.659619	0.281878	31.786	0.41922	47.4541	0.560511	66.6922	0.839524	95.0567	0.14863	16.0763	0.421343	46.6896	0.699866	79.2911	0.836049	91.1665
0.0519187	5.21275	0.00731241	0.717362	0.282398	28.817	0.419585	42.9642	0.560859	60.074	0.839745	86.0085	0.150413	14.7798	0.421792	42.3655	0.700109	71.7455	0.836236	82.7771
0.0567578	5.21114	0.00860029	0.773049	0.282967	26.3681	0.419988	39.26	0.561245	54.6605	0.839989	78.5388	0.152334	13.7131	0.422286	38.7855	0.700376	65.5174	0.836442	75.8062
0.0615919	5.20936	0.00996684	0.826653	0.283585	24.3148	0.420428	36.1525	0.561666	50.1508	0.840255	72.2681	0.154385	12.8223	0.422822	35.7735	0.700667	60.29	0.836666	69.9223
0.0664208	5.20742	0.011406	0.878154	0.284253	22.5691	0.420907	33.509	0.562123	46.3369	0.840543	66.9296	0.15656	12.069	0.423402	33.2051	0.700983	55.8404	0.836909	64.89
0.0712437	5.20532	0.0129119	0.927561	0.284968	21.0674	0.421424	31.2335	0.562616	43.0697	0.840853	62.3302	0.158852	11.4251	0.424025	30.9896	0.701322	52.0075	0.83717	60.5371
0.0760603	5.20305	0.0144791	0.974894	0.285731	19.7626	0.421979	29.2546	0.563145	40.2402	0.841184	58.3265	0.161254	10.8695	0.42469	29.0595	0.701686	48.6717	0.837449	56.7349
0.0808701	5.20061	0.0161024	1.02019	0.286541	18.6188	0.422574	27.5183	0.56371	37.7662	0.841538	54.8102	0.16376	10.3861	0.425397	27.3634	0.702073	45.7424	0.837747	53.3854
0.0856723	5.198	0.0177767	1.06349	0.287397	17.6084	0.423208	25.9831	0.56431	35.5852	0.841914	51.6975	0.166364	9.9626	0.426147	25.8617	0.702485	43.1499	0.838063	50.4125
0.0904666	5.1952	0.0194975	1.10486	0.288299	16.7098	0.423881	24.6164	0.564946	33.6484	0.842312	48.923	0.16906	9.58906	0.426938	24.5232	0.70292	40.8394	0.838398	47.7561
0.0952522	5.19222	0.0212604	1.14434	0.289245	15.9057	0.424595	23.3922	0.565617	31.9172	0.842731	46.4346	0.171481	9.29817	0.427771	23.3229	0.703379	38.7676	0.838752	45.3685
0.100029	5.18905	0.0230615	1.18201	0.290236	15.1824	0.425349	22.2896	0.566323	30.3608	0.843173	44.1903	0.173594	9.07227	0.428645	22.2407	0.703862	36.8993	0.839124	43.211
0.104795	5.18567	0.0248972	1.21794	0.29127	14.5284	0.426145	21.2917	0.567064	28.9543	0.843636	42.1561	0.175374	8.89913	0.42956	21.2604	0.704368	35.2063	0.839515	41.252
0.109551	5.1821	0.026764	1.25218	0.292347	13.9345	0.426981	20.3846	0.56784	27.6772	0.844121	40.304	0.176802	8.7702	0.430516	20.3685	0.704898	33.6651	0.839925	39.4653
0.114295	5.17831	0.0286587	1.28483	0.293467	13.3931	0.427859	19.5566	0.56865	26.5127	0.844627	38.6105	0.177863	8.67957	0.431511	19.5537	0.705452	32.2562	0.840354	37.8294
0.119028	5.1743	0.0305787	1.31594	0.294627	12.8977	0.428779	18.7982	0.569494	25.4467	0.845155	37.0564	0.178547	8.62333	0.432547	18.8066	0.706028	30.9635	0.840801	36.326
0.123747	5.17007	0.0325215	1.34559	0.295829	12.4428	0.429742	18.101	0.570373	24.4674	0.845705	35.6252	0.179537	8.54479	0.433622	18.1193	0.706628	29.7733	0.841268	34.9397
0.128453	5.1656	0.0344844	1.37385	0.297071	12.0238	0.430748	17.4583	0.571285	23.5647	0.846276	34.303	0.180621	8.46238	0.434736	17.4852	0.707252	28.6739	0.841754	33.6575
0.133144	5.16088	0.0364655	1.40078	0.298353	11.6369	0.431797	16.864	0.572231	22.7302	0.846869	33.0778	0.182109	8.35497	0.435889	16.8983	0.707898	27.6555	0.842259	32.4681
0.13782	5.15591	0.0384628	1.42645	0.299674	11.2786	0.432891	16.3131	0.573211	21.9565	0.847483	31.9395	0.184014	8.22635	0.43708	16.3538	0.708568	26.7094	0.842783	31.362
0.142479	5.15068	0.0404746	1.45093	0.301033	10.9459	0.434028	15.8011	0.574224	21.2374	0.848119	30.8792	0.18635	8.08073	0.438309	15.8473	0.709261	25.8285	0.843326	30.3306
0.14712	5.14516	0.0424993	1.47427	0.302431	10.6364	0.43521	15.3244	0.57527	20.5674	0.848775	29.8892	0.189132	7.92246	0.439576	15.3752	0.709976	25.0061	0.843889	29.3668
0.151742	5.13936	0.0445356	1.49654	0.303868	10.3479	0.436437	14.8794	0.576349	19.9417	0.849454	28.9628	0.192379	7.75578	0.44088	14.9341	0.710714	24.2367	0.844472	28.4642
0.156345	5.13326	0.0463183	1.51511	0.305342	10.0783	0.437709	14.4634	0.57746	19.3561	0.850153	28.0942	0.19568	7.60328	0.442221	14.5213	0.711475	23.5155	0.845074	27.6172
0.160926	5.12684	0.0478435	1.53035	0.306854	9.82602	0.439027	14.0737	0.578604	18.8071	0.850873	27.2781	0.199033	7.46336	0.443597	14.1341	0.712258	22.8381	0.845695	26.8209
0.165484	5.12009	0.0491083	1.54257	0.308403	9.58954	0.440391	13.708	0.57978	18.2914	0.851614	26.5101	0.202433	7.33463	0.44501	13.7703	0.713064	22.2008	0.846337	26.0709
0.170019	5.113	0.0501103	1.55198	0.309784	9.39529	0.441802	13.3643	0.580987	17.8061	0.852377	25.7859	0.20588	7.21591	0.446459	13.428	0.713892	21.6	0.846998	25.3633
0.174528	5.10555	0.0508483	1.55877	0.310984	9.23778	0.443259	13.0409	0.582227	17.3487	0.85316	25.1021	0.209369	7.10614	0.447942	13.1053	0.714743	21.0328	0.847679	24.6947
0.17901	5.09772	0.051321	1.56306	0.311992	9.11279	0.444763	12.736	0.583497	16.9169	0.853964	24.4554	0.212898	7.00443	0.44946	12.8008	0.715615	20.4965	0.84838	24.062
0.183463	5.0895	0.0520012	1.56915	0.3128	9.01718	0.446315	12.4483	0.584799	16.5087	0.854789	23.8428	0.216465	6.90998	0.451012	12.513	0.71651	19.9887	0.849102	23.4625
0.187886	5.08087	0.0527413	1.57566	0.313399	8.94863	0.447914	12.1765	0.586132	16.1223	0.855634	23.2619	0.220068	6.82209	0.452598	12.2406	0.717426	19.5073	0.849843	22.8936
0.192276	5.07181	0.0537492	1.58435	0.313785	8.9055	0.44956	11.9194	0.587495	15.756	0.8565	22.7102	0.223705	6.74015	0.454217	11.9824	0.718364	19.0502	0.850605	22.3531
0.196632	5.06229	0.0550258	1.59507	0.314344	8.84451	0.451255	11.6759	0.588889	15.4084	0.857387	22.1856	0.227373	6.66362	0.455869	11.7375	0.719324	18.6157	0.851388	21.839
0.200952	5.05231	0.0565722	1.60764	0.314956	8.77953	0.452997	11.4451	0.590312	15.0781	0.858294	21.6863	0.231071	6.592	0.457553	11.5049	0.720306	18.2022	0.852191	21.3493
0.205232	5.04184	0.0583897	1.62187	0.315796	8.69329	0.454788	11.226	0.591766	14.7638	0.859221	21.2104	0.234797	6.52487	0.45927	11.2837	0.721309	17.8083	0.853014	20.8825
0.209472	5.03085	0.0604794	1.63754	0.316872	8.58761	0.456626	11.018	0.593249	14.4646	0.860168	20.7564	0.238549	6.46184	0.461018	11.0732	0.722333	17.4325	0.853859	20.4371
0.213669	5.01934	0.0625728	1.65253	0.318193	8.46465	0.458513	10.8203	0.594761	14.1794	0.861136	20.3228	0.242326	6.40256	0.462797	10.8726	0.723378	17.0739	0.854724	20.0115
0.217821	5.00726	0.0646694	1.66689	0.319771	8.32678	0.460447	10.6322	0.596302	13.9072	0.862124	19.9084	0.246126	6.34673	0.464607	10.6813	0.724445	16.7311	0.85561	19.6046
0.221924	4.99462	0.0667687	1.68064	0.321621	8.17657	0.46243	10.4531	0.597873	13.6473	0.863132	19.5119	0.249948	6.29407	0.466447	10.4988	0.725532	16.4033	0.856517	19.2152
0.225977	4.98137	0.0688704	1.69382	0.323512	8.03435	0.46446	10.2824	0.599471	13.3988	0.86416	19.1322	0.25379	6.24432	0.468317	10.3243	0.72664	16.0894	0.857446	18.8422
0.229976	4.96751	0.0709741	1.70645	0.325447	7.89961	0.466539	10.1197	0.601098	13.1611	0.865207	18.7682	0.257652	6.19726	0.470216	10.1576	0.727769	15.7887	0.858395	18.4846
0.233919	4.95301	0.0730795	1.71858	0.327426	7.77188	0.468665	9.96444	0.602754	12.9335	0.866274	18.4191	0.261531	6.15268	0.472145	9.99802	0.728919	15.5003	0.859366	18.1416
0.237804	4.93786	0.0751862	1.73021	0.329451	7.65075	0.470838	9.8162	0.604436	12.7154	0.867361	18.084	0.265426	6.11039	0.474102	9.84523	0.730089	15.2236	0.860359	17.8122
0.241628	4.92204	0.0772941	1.74138	0.331523	7.53582	0.473059	9.67458	0.606147	12.5063	0.868468	17.762	0.269337	6.07022	0.476088	9.69881	0.731279	14.9578	0.861373	17.4957
0.245389	4.90554	0.0794029	1.75211	0.333644	7.42676	0.475032	9.55626	0.607884	12.3056	0.869594	17.4525	0.273262	6.03201	0.477841	9.57613	0.73249	14.7024	0.862409	17.1914
0.249083	4.88834	0.0815123	1.76243	0.335816	7.32323	0.476742	9.45896	0.609649	12.1129	0.870739	17.1547	0.2772	5.99563	0.479351	9.47499	0.733721	14.4568	0.863466	16.8986
0.252709	4.87045	0.0836223	1.77234	0.338041	7.22495	0.478176	9.38088	0.61144	11.9277	0.871904	16.868	0.28115	5.96094	0.480612	9.39364	0.734972	14.2204	0.864546	16.6168
0.256264	4.85185	0.0857327	1.78189	0.34032	7.13165	0.479322	9.32061	0.613258	11.7496	0.873087	16.5918	0.285111	5.92783	0.481616	9.33073	0.736243	13.9927	0.865647	16.3452
0.259747	4.83254	0.0878432	1.79107	0.342656	7.04308	0.480171	9.2771	0.615102	11.5782	0.87429	16.3256	0.289082	5.89618	0.482358	9.28526	0.737533	13.7733	0.866771	16.0835
0.263156	4.81254	0.0899538	1.79991	0.34505	6.95902	0.480718	9.24961	0.616973	11.4133	0.875512	16.0689	0.293062	5.86589	0.482835	9.25649	0.738843	13.5618	0.867917	15.8311
0.266489	4.79185	0.0920645	1.80843	0.347504	6.87925	0.481508	9.21056	0.618869	11.2544	0.876753	15.8211	0.29705	5.83687	0.483523	9.21559	0.740173	13.3578	0.869085	15.5875
0.269746	4.77049	0.094175	1.81664	0.35002	6.80358	0.482372	9.16873	0.62079	11.1012	0.878012	15.5819	0.301046	5.80903	0.484274	9.17174	0.741523	13.1609	0.870275	15.3523
0.272924	4.74846	0.0962853	1.82456	0.3526	6.73182	0.483557	9.11287	0.622737	10.9535	0.87929	15.3507	0.305048	5.7823	0.485301	9.11308	0.742891	12.9707	0.871488	15.1251
0.276025	4.72581	0.0983954	1.83219	0.355246	6.66379	0.485071	9.04385	0.624709	10.8111	0.880587	15.1273	0.309055	5.75659	0.486608	9.04047	0.744279	12.7869	0.872724	14.9055
0.279048	4.70255	0.100505	1.83956	0.357958	6.59933	0.486924	8.96274	0.626706	10.6735	0.881902	14.9113	0.313067	5.73185	0.488203	8.95494	0.745686	12.6092	0.873982	14.6932
0.281993	4.67872	0.102614	1.84668	0.360738	6.53828	0.489129	8.87077	0.628728	10.5407	0.883235	14.7022	0.317083	5.70801	0.490091	8.85766	0.747112	12.4374	0.875263	14.4878
0.284861	4.65435	0.104723	1.85355	0.363587	6.48048	0.491701	8.76924	0.630774	10.4124	0.884587	14.4998	0.321102	5.685	0.492281	8.74991	0.748557	12.2711	0.876567	14.289
0.287653	4.62949	0.106832	1.8602	0.366505	6.42579	0.494317	8.6718	0.632844	10.2883	0.885957	14.3038	0.325123	5.66279	0.494497	8.64612	0.750021	12.1102	0.877894	14.0966
0.290369	4.60417	0.10894	1.86662	0.369494	6.37406	0.496976	8.57823	0.634938	10.1683	0.887345	14.1139	0.329145	5.6413	0.496738	8.54607	0.751503	11.9543	0.879244	13.9101
0.293013	4.57845	0.111047	1.87283	0.372552	6.32515	0.499678	8.48835	0.637056	10.0523	0.888751	13.9299	0.333168	5.6205	0.499003	8.4496	0.753004	11.8032	0.880617	13.7295
0.295585	4.55237	0.113154	1.87884	0.375679	6.27893	0.502421	8.40198	0.639198	9.93992	0.890174	13.7514	0.337191	5.60035	0.501292	8.35653	0.754524	11.6568	0.882013	13.5544
0.298088	4.52597	0.11526	1.88466	0.378875	6.23526	0.505206	8.31894	0.641084	9.84495	0.891616	13.5782	0.341214	5.58079	0.503606	8.26671	0.756062	11.5148	0.883432	13.3845
0.300524	4.49931	0.117366	1.89029	0.38214	6.194	0.508032	8.23907	0.642705	9.76605	0.893075	13.4102	0.345234	5.5618	0.505943	8.17997	0.757619	11.3771	0.884875	13.2198
0.302895	4.47243	0.119471	1.89575	0.38547	6.15503	0.510898	8.16222	0.644055	9.70219	0.894551	13.247	0.349252	5.54333	0.508303	8.09618	0.759193	11.2434	0.886341	13.0599
0.304911	4.44886	0.121576	1.90104	0.388865	6.11823	0.513803	8.08824	0.645129	9.65256	0.896045	13.0885	0.353268	5.52535	0.510687	8.0152	0.760786	11.1137	0.887831	12.9047
0.306594	4.42868	0.12368	1.90617	0.392324	6.08346	0.516748	8.01701	0.645922	9.61655	0.897556	12.9346	0.357279	5.50783	0.513094	7.93692	0.762397	10.9877	0.889344	12.754
0.307961	4.41196	0.125783	1.91114	0.395843	6.05062	0.51973	7.94839	0.646432	9.59371	0.899085	12.7849	0.361286	5.49074	0.515524	7.8612	0.764027	10.8652	0.890881	12.6076
0.309027	4.39872	0.127886	1.91597	0.399421	6.01958	0.522751	7.88227	0.647165	9.56117	0.90063	12.6395	0.365288	5.47404	0.517976	7.78795	0.765674	10.7463	0.892442	12.4653
0.309803	4.38897	0.129988	1.92065	0.403054	5.99023	0.525808	7.81853	0.647966	9.52616	0.902192	12.498	0.369283	5.45772	0.520451	7.71706	0.767339	10.6306	0.894026	12.327
0.310295	4.38273	0.13209	1.9252	0.406742	5.96247	0.528902	7.75707	0.649059	9.47917	0.903772	12.3603	0.373272	5.44174	0.522948	7.64842	0.769021	10.5182	0.895634	12.1925
0.310999	4.37375	0.13419	1.92962	0.41048	5.93619	0.532031	7.69777	0.65045	9.42074	0.905368	12.2264	0.377254	5.42609	0.525467	7.58195	0.770722	10.4088	0.897266	12.0618
0.311757	4.364	0.136291	1.93391	0.414266	5.9113	0.535195	7.64056	0.652143	9.35151	0.90698	12.0959	0.381227	5.41073	0.528008	7.51755	0.77244	10.3024	0.898921	11.9346
0.312778	4.35073	0.138391	1.93809	0.418098	5.8877	0.538393	7.58533	0.654144	9.27226	0.90861	11.969	0.385192	5.39565	0.530571	7.45515	0.774176	10.1988	0.900601	11.8108
0.314053	4.33395	0.14049	1.94214	0.421972	5.8653	0.541625	7.53199	0.656462	9.18383	0.910255	11.8453	0.389147	5.38083	0.533156	7.39467	0.775703	10.1108	0.902304	11.6903
0.315569	4.31368	0.142588	1.94609	0.425885	5.84402	0.54489	7.48048	0.658802	9.09798	0.911917	11.7247	0.393092	5.36624	0.535762	7.33602	0.777015	10.0373	0.904032	11.5729
0.317316	4.28995	0.144686	1.94993	0.429836	5.82378	0.548187	7.4307	0.661164	9.01462	0.913595	11.6073	0.397026	5.35188	0.538391	7.27914	0.778107	9.97767	0.905783	11.4587
0.31928	4.2628	0.146784	1.95367	0.433822	5.8045	0.551516	7.38258	0.663548	8.93363	0.915289	11.4927	0.400948	5.33771	0.54104	7.22396	0.778976	9.93117	0.907559	11.3474
0.321201	4.23577	0.148881	1.9573	0.437839	5.78612	0.554876	7.33606	0.665954	8.85495	0.917	11.3811	0.404858	5.32373	0.543711	7.17043	0.779617	9.89736	0.909358	11.239
0.323084	4.20888	0.150977	1.96085	0.441885	5.76857	0.558266	7.29107	0.668381	8.77847	0.918726	11.2722	0.408755	5.30992	0.546404	7.11847	0.780028	9.87588	0.911182	11.1333
0.32493	4.18217	0.153073	1.9643	0.445959	5.75179	0.561685	7.24754	0.67083	8.70413	0.920468	11.1659	0.412638	5.29626	0.549117	7.06803	0.780622	9.84523	0.913029	11.0303
0.326741	4.15565	0.155169	1.96766	0.450057	5.73572	0.565134	7.20541	0.673301	8.63183	0.922225	11.0622	0.416506	5.28273	0.551853	7.01907	0.781268	9.81221	0.914901	10.9299
0.32852	4.12934	0.157264	1.97094	0.454178	5.72032	0.568611	7.16463	0.675792	8.56151	0.923998	10.9609	0.420359	5.26934	0.554609	6.97151	0.782152	9.76779	0.916796	10.832
0.330269	4.10327	0.159358	1.97414	0.458319	5.70552	0.572115	7.12515	0.678306	8.4931	0.925787	10.8621	0.424197	5.25606	0.557387	6.92533	0.783274	9.71239	0.918716	10.7365
0.331989	4.07744	0.161452	1.97726	0.462478	5.69129	0.575647	7.0869	0.68084	8.42653	0.927591	10.7656	0.428018	5.24287	0.560187	6.88046	0.784641	9.64655	0.92066	10.6433
0.333683	4.05188	0.163545	1.9803	0.466654	5.67758	0.579205	7.04984	0.683395	8.36174	0.92941	10.6713	0.431821	5.22978	0.563007	6.83687	0.786256	9.57087	0.922628	10.5524
0.335351	4.02658	0.165638	1.98327	0.470844	5.66436	0.582788	7.01392	0.685972	8.29866	0.931244	10.5792	0.435606	5.21676	0.56585	6.79451	0.788126	9.48605	0.924619	10.4637
0.336997	4.00158	0.167731	1.98617	0.475048	5.65158	0.586397	6.97909	0.688569	8.23724	0.933093	10.4892	0.439373	5.20381	0.568713	6.75334	0.790013	9.40331	0.926374	10.3881
0.338621	3.97686	0.169823	1.989	0.479262	5.63921	0.590031	6.94532	0.691188	8.17742	0.934717	10.4124	0.443121	5.19091	0.571599	6.71333	0.791917	9.32259	0.927885	10.3249
0.340225	3.95245	0.171915	1.99176	0.483486	5.62722	0.593688	6.91256	0.693827	8.11916	0.93611	10.3481	0.446848	5.17806	0.574506	6.67444	0.793838	9.24382	0.929144	10.2735
0.34181	3.92834	0.174006	1.99446	0.487718	5.61558	0.597369	6.88077	0.696488	8.06239	0.937268	10.2958	0.450555	5.16525	0.577434	6.63662	0.795776	9.16693	0.930146	10.2334
0.343377	3.90455	0.176097	1.9971	0.491957	5.60427	0.601072	6.84992	0.699169	8.00707	0.938188	10.2549	0.45424	5.15246	0.580384	6.59986	0.797731	9.09187	0.930886	10.2041
0.344928	3.88107	0.178187	1.99968	0.496201	5.59325	0.604798	6.81997	0.701872	7.95316	0.938866	10.2252	0.457904	5.1397	0.583356	6.56411	0.799703	9.01858	0.931362	10.1856
0.346465	3.85791	0.180277	2.0022	0.50045	5.58251	0.608545	6.79087	0.704595	7.90061	0.939301	10.2062	0.461545	5.12695	0.58635	6.52934	0.801692	8.94701	0.932047	10.1591
0.347987	3.83508	0.182367	2.00466	0.504701	5.57202	0.612313	6.76261	0.707339	7.84938	0.939928	10.1792	0.465162	5.11421	0.589365	6.49553	0.803698	8.87709	0.932795	10.1305
0.349496	3.81256	0.184456	2.00707	0.508954	5.56177	0.616101	6.73515	0.710105	7.79943	0.940611	10.15	0.468756	5.10146	0.592403	6.46264	0.805721	8.80879	0.933817	10.092
0.350993	3.79037	0.186545	2.00943	0.513207	5.55172	0.61991	6.70845	0.712891	7.75072	0.941543	10.1107	0.472326	5.08871	0.595462	6.43065	0.807761	8.74204	0.935118	10.0439
0.352479	3.7685	0.188634	2.01174	0.51746	5.54188	0.623737	6.68249	0.715699	7.70321	0.942727	10.0616	0.475871	5.07595	0.598543	6.39954	0.809817	8.6768	0.936704	9.9867
0.353955	3.74696	0.190722	2.014	0.521712	5.53221	0.627583	6.65725	0.718528	7.65687	0.944166	10.003	0.47939	5.06317	0.601646	6.36927	0.81189	8.61304	0.93858	9.92083
0.355421	3.72573	0.19281	2.01621	0.525961	5.5227	0.631447	6.63268	0.721378	7.61167	0.945863	9.93555	0.482883	5.05037	0.604771	6.33982	0.81398	8.55069	0.940755	9.84685
0.356879	3.70483	0.194897	2.01837	0.530207	5.51335	0.635329	6.60878	0.724249	7.56757	0.947825	9.85966	0.48635	5.03754	0.607918	6.31117	0.816087	8.48973	0.942954	9.77454
0.358329	3.68425	0.196985	2.02049	0.534449	5.50413	0.639227	6.5855	0.727142	7.52455	0.949801	9.78537	0.48979	5.02469	0.611087	6.28329	0.818211	8.43012	0.945176	9.70386
0.359771	3.66398	0.199072	2.02257	0.538685	5.49504	0.643141	6.56284	0.730056	7.48256	0.951791	9.71264	0.493203	5.01179	0.614277	6.25616	0.820351	8.3718	0.947422	9.63476
0.361207	3.64402	0.201158	2.02461	0.542916	5.48606	0.647072	6.54076	0.732992	7.4416	0.953794	9.64142	0.496588	4.99887	0.617489	6.22976	0.822507	8.31475	0.949691	9.56719
0.362637	3.62438	0.203245	2.0266	0.547141	5.47718	0.651017	6.51924	0.73595	7.40162	0.955812	9.57167	0.499945	4.9859	0.620724	6.20408	0.824681	8.25894	0.951984	9.50111
0.364061	3.60504	0.205331	2.02856	0.551358	5.46839	0.654977	6.49827	0.73893	7.3626	0.957843	9.50334	0.503274	4.97289	0.623979	6.17907	0.826871	8.20432	0.9543	9.43647
0.36548	3.58601	0.207416	2.03047	0.555567	5.45969	0.658951	6.47782	0.741932	7.32451	0.959888	9.4364	0.506574	4.95984	0.627256	6.15474	0.829077	8.15086	0.956639	9.37325
0.366894	3.56728	0.209502	2.03235	0.559767	5.45106	0.662938	6.45786	0.744957	7.28734	0.961947	9.37081	0.509846	4.94674	0.630555	6.13106	0.8313	8.09853	0.959001	9.31139
0.368305	3.54885	0.211587	2.0342	0.563958	5.44249	0.666938	6.43839	0.748004	7.25106	0.964019	9.30653	0.513088	4.9336	0.633874	6.108	0.83354	8.04731	0.961386	9.25086
0.369712	3.53071	0.213672	2.036	0.56814	5.43398	0.67095	6.41939	0.751074	7.21565	0.966104	9.24352	0.516301	4.92041	0.637215	6.08555	0.835795	7.99715	0.963794	9.19162
0.371116	3.51286	0.215757	2.03778	0.57231	5.42552	0.674973	6.40082	0.754166	7.18109	0.968203	9.18175	0.519484	4.90718	0.640576	6.0637	0.838068	7.94804	0.966224	9.13365
0.372517	3.49529	0.217841	2.03952	0.57647	5.41711	0.679008	6.38269	0.757282	7.14735	0.970315	9.12119	0.522637	4.8939	0.643957	6.04242	0.840356	7.89994	0.968678	9.0769
0.373915	3.47801	0.219926	2.04122	0.580618	5.40873	0.683052	6.36497	0.760422	7.11442	0.97244	9.0618	0.525761	4.88057	0.647359	6.02169	0.842662	7.85283	0.971154	9.02134
0.375312	3.461	0.222009	2.0429	0.584753	5.40039	0.687107	6.34764	0.763584	7.08227	0.974578	9.00356	0.528855	4.86719	0.650781	6.00151	0.844983	7.80668	0.973652	8.96694
0.376706	3.44427	0.224093	2.04455	0.588876	5.39207	0.691171	6.33069	0.766771	7.0509	0.976729	8.94642	0.53192	4.85378	0.654222	5.98185	0.847321	7.76147	0.976173	8.91367
0.3781	3.42781	0.226177	2.04616	0.592986	5.38377	0.695242	6.3141	0.769982	7.02028	0.978893	8.89038	0.534954	4.84032	0.657683	5.96269	0.849674	7.71717	0.978716	8.8615
0.379492	3.41162	0.22826	2.04775	0.597082	5.37549	0.699322	6.29787	0.773217	6.9904	0.98107	8.83538	0.537959	4.82681	0.661162	5.94403	0.852044	7.67376	0.981281	8.8104
0.380883	3.39568	0.230343	2.04931	0.601164	5.36722	0.703409	6.28196	0.776478	6.96123	0.983259	8.78142	0.540934	4.81327	0.66466	5.92584	0.85443	7.63122	0.983868	8.76035
0.382274	3.38	0.232426	2.05084	0.605232	5.35896	0.707503	6.26638	0.779763	6.93278	0.985461	8.72846	0.54388	4.79969	0.668176	5.90811	0.856833	7.58952	0.986477	8.71131
0.383664	3.36458	0.234509	2.05234	0.609284	5.3507	0.711603	6.25111	0.783073	6.90501	0.987676	8.67647	0.546796	4.78607	0.67171	5.89083	0.859251	7.54864	0.989107	8.66326
0.385054	3.3494	0.236591	2.05382	0.613321	5.34244	0.715707	6.23613	0.786409	6.87792	0.989903	8.62544	0.549683	4.77242	0.67526	5.87397	0.861685	7.50857	0.991759	8.61618
0.386444	3.33447	0.238673	2.05528	0.617342	5.33417	0.719817	6.22143	0.78977	6.85149	0.992142	8.57533	0.552541	4.75874	0.678828	5.85753	0.864136	7.46928	0.994433	8.57004
0.387835	3.31978	0.240756	2.0567	0.621347	5.3259	0.723931	6.207	0.793158	6.82571	0.994394	8.52614	0.55537	4.74503	0.682411	5.84149	0.866602	7.43075	0.997127	8.52481
0.389225	3.30533	0.242837	2.05811	0.625335	5.31762	0.728048	6.19283	0.796573	6.80057	0.996658	8.47782	0.55817	4.73129	0.686011	5.82584	0.869084	7.39297	0.999843	8.48048
0.390617	3.29111	0.244919	2.05949	0.629307	5.30933	0.732168	6.17891	0.800014	6.77605	0.998934	8.43037	0.560942	4.71753	0.689625	5.81056	0.871582	7.35592	1.00258	8.43702
0.39201	3.27711	0.247001	2.06085	0.633261	5.30102	0.73629	6.16522	0.803482	6.75214	1.00122	8.38376	0.563686	4.70375	0.693255	5.79564	0.874095	7.31958		
0.393403	3.26334	0.249082	2.06218	0.637198	5.2927	0.740414	6.15175	0.806977	6.72883			0.566402	4.68995	0.696898	5.78107	0.876624	7.28393		
0.394798	3.2498	0.251163	2.06349	0.641117	5.28435	0.744538	6.13851	0.8105	6.70611			0.56909	4.67614	0.700555	5.76684	0.879169	7.24896		
0.396193	3.23646	0.253244	2.06479	0.645018	5.27599	0.748663	6.12546	0.814051	6.68396			0.571752	4.66232	0.704225	5.75293	0.88173	7.21465		
0.397591	3.22335	0.255325	2.06606	0.6489	5.2676	0.752788	6.11262	0.81763	6.66238			0.574387	4.64849	0.707907	5.73933	0.884306	7.18098		
0.39899	3.21044	0.257406	2.06731	0.652763	5.25919	0.756913	6.09996	0.821237	6.64135			0.576995	4.63465	0.711602	5.72602	0.886897	7.14794		
0.40039	3.19773	0.259486	2.06854	0.656608	5.25075	0.761036	6.08748	0.824873	6.62087			0.579577	4.62081	0.715307	5.71301	0.889504	7.11552		
0.401793	3.18523	0.261567	2.06975	0.660433	5.24228	0.765157	6.07517	0.828538	6.60092			0.582134	4.60697	0.719023	5.70027	0.892126	7.0837		
0.403197	3.17293	0.263647	2.07094	0.664239	5.23378	0.769276	6.06302	0.832232	6.5815			0.584666	4.59314	0.72275	5.6878	0.894763	7.05247		
0.404603	3.16082	0.265727	2.07212	0.668025	5.22526	0.773392	6.05103	0.835955	6.56259			0.587172	4.57931	0.726486	5.67559	0.897416	7.02181		
0.406011	3.1489	0.267807	2.07327	0.671792	5.2167	0.777505	6.03919	0.839707	6.54418			0.589654	4.5655	0.73023	5.66362	0.900083	6.99172		
0.407422	3.13717	0.269887	2.07441	0.675538	5.20811	0.781615	6.02749	0.843488	6.52626			0.592112	4.55169	0.733983	5.65189	0.902766	6.96217		
0.408835	3.12563	0.271966	2.07553	0.679264	5.19949	0.78572	6.01592	0.847299	6.50882			0.594547	4.53791	0.737744	5.64038	0.905464	6.93316		
0.41025	3.11426	0.274046	2.07664	0.68297	5.19083	0.789821	6.00449	0.85114	6.49186			0.596958	4.52414	0.741512	5.62909	0.908177	6.90467		
0.411667	3.10308	0.276125	2.07773	0.686655	5.18215	0.793917	5.99317	0.855009	6.47536			0.599346	4.51039	0.745287	5.61801	0.910904	6.8767		
0.413087	3.09207	0.278204	2.0788	0.690319	5.17343	0.798008	5.98198	0.858909	6.45932			0.601713	4.49667	0.749067	5.60713	0.913646	6.84922		
0.41451	3.08123	0.280283	2.07985	0.693963	5.16467	0.802093	5.97091	0.862838	6.44372			0.604057	4.48298	0.752853	5.59643	0.916403	6.82224		
0.415935	3.07056	0.282362	2.08089	0.697585	5.15588	0.806173	5.95994	0.866796	6.42854			0.606379	4.46931	0.756643	5.58592	0.919175	6.79574		
0.417363	3.06005	0.284441	2.08192	0.701187	5.14706	0.810247	5.94909	0.870783	6.4138			0.608681	4.45568	0.760438	5.57559	0.921961	6.76971		
0.418794	3.04971	0.28652	2.08293	0.704768	5.1382	0.814315	5.93833	0.874799	6.39946			0.610962	4.44208	0.764237	5.56542	0.924762	6.74414		
0.420227	3.03952	0.288599	2.08393	0.708327	5.12931	0.818377	5.92768	0.878845	6.38553			0.613222	4.42851	0.768039	5.55542	0.927577	6.71901		
0.421663	3.02949	0.290677	2.08491	0.711865	5.12038	0.822433	5.91712	0.882918	6.372			0.615463	4.41499	0.771843	5.54556	0.930407	6.69433		
0.423102	3.01962	0.292756	2.08588	0.715382	5.11142	0.826482	5.90666	0.88702	6.35884			0.617685	4.40151	0.775649	5.53585	0.933251	6.67008		
0.424544	3.0099	0.294834	2.08683	0.718877	5.10243	0.830525	5.89629	0.89115	6.34606			0.619887	4.38807	0.779457	5.52628	0.936109	6.64625		
0.425989	3.00032	0.296912	2.08777	0.722351	5.0934	0.834561	5.88602	0.895307	6.33365			0.622071	4.37467	0.783266	5.51684	0.938981	6.62283		
0.427437	2.99089	0.29899	2.0887	0.725803	5.08434	0.838591	5.87583	0.899492	6.32158			0.624236	4.36133	0.787075	5.50753	0.941867	6.59982		
0.428888	2.98161	0.301068	2.08962	0.729234	5.07525	0.842614	5.86572	0.903703	6.30987			0.626384	4.34803	0.790884	5.49834	0.944768	6.5772		
0.430341	2.97246	0.303146	2.09052	0.732644	5.06613	0.846631	5.85571	0.907941	6.29848			0.628514	4.33478	0.794693	5.48926	0.947682	6.55497		
0.431798	2.96345	0.305224	2.09141	0.736032	5.05698	0.850641	5.84577	0.912205	6.28742			0.630627	4.32158	0.7985	5.48029	0.95061	6.53312		
0.433258	2.95458	0.307301	2.09229	0.739398	5.0478	0.854645	5.83592	0.916494	6.27668			0.632723	4.30844	0.802306	5.47143	0.953552	6.51165		
0.434721	2.94584	0.309379	2.09316	0.742744	5.03859	0.858643	5.82616	0.920808	6.26624			0.634803	4.29536	0.80611	5.46266	0.956508	6.49054		
0.436188	2.93723	0.311456	2.09401	0.746068	5.02935	0.862635	5.81647	0.925146	6.25609			0.636868	4.28233	0.809912	5.45398	0.959477	6.46978		
0.437657	2.92875	0.313534	2.09486	0.74937	5.02008	0.866621	5.80687	0.929508	6.24624			0.638916	4.26935	0.81371	5.4454	0.96246	6.44938		
0.439129	2.9204	0.315611	2.09569	0.752652	5.01079	0.8706	5.79734	0.933893	6.23666			0.64095	4.25644	0.817505	5.4369	0.965456	6.42932		
0.440605	2.91217	0.317688	2.09651	0.755912	5.00147	0.874574	5.78789	0.938301	6.22735			0.642968	4.24359	0.821296	5.42847	0.968466	6.40959		
0.442084	2.90406	0.319765	2.09733	0.759151	4.99213	0.878543	5.77853	0.942731	6.2183			0.644972	4.2308	0.825083	5.42012	0.97149	6.3902		
0.443566	2.89607	0.321842	2.09813	0.76237	4.98277	0.882506	5.76924	0.947182	6.2095			0.646962	4.21807	0.828865	5.41184	0.974526	6.37113		
0.445051	2.88819	0.323919	2.09892	0.765567	4.97338	0.886463	5.76003	0.951654	6.20094			0.648938	4.20541	0.832642	5.40363	0.977576	6.35237		
0.446539	2.88044	0.325996	2.0997	0.768743	4.96397	0.890415	5.75089	0.956146	6.19261			0.6509	4.19281	0.836413	5.39548	0.980639	6.33393		
0.448031	2.87279	0.328073	2.10047	0.771899	4.95454	0.894362	5.74183	0.960658	6.18452			0.65285	4.18028	0.840178	5.38739	0.983715	6.31579		
0.449526	2.86526	0.330149	2.10123	0.775034	4.94509	0.898305	5.73285	0.965189	6.17664			0.654786	4.16782	0.843937	5.37936	0.986804	6.29795		
0.451024	2.85784	0.332226	2.10198	0.778149	4.93562	0.902242	5.72394	0.969738	6.16897			0.65671	4.15542	0.847689	5.37137	0.989906	6.2804		
0.452525	2.85052	0.334302	2.10273	0.781244	4.92614	0.906174	5.71511	0.974304	6.1615			0.658621	4.14309	0.851433	5.36344	0.993021	6.26314		
0.454029	2.84331	0.336379	2.10346	0.784318	4.91664	0.910102	5.70635	0.978888	6.15422			0.660521	4.13083	0.855171	5.35555	0.996149	6.24617		
0.455537	2.8362	0.338455	2.10418	0.787372	4.90713	0.914025	5.69767	0.983488	6.14714			0.662409	4.11864	0.8589	5.3477	0.999289	6.22946		
0.457048	2.8292	0.340531	2.1049	0.790406	4.8976	0.917944	5.68905	0.988104	6.14023			0.664285	4.10651	0.862621	5.33989	1.00244	6.21304		
0.458562	2.82229	0.342607	2.10561	0.793421	4.88806	0.921859	5.68051	0.992736	6.1335			0.66615	4.09446	0.866334	5.33212				
0.460079	2.81549	0.344684	2.10631	0.796416	4.87851	0.925769	5.67204	0.997382	6.12694			0.668005	4.08248	0.870037	5.32438				
0.4616	2.80878	0.34676	2.107	0.799391	4.86894	0.929674	5.66364	1.00204	6.12053			0.669849	4.07057	0.873731	5.31668				
0.463123	2.80216	0.348836	2.10768	0.802347	4.85937	0.933576	5.65531					0.671682	4.05874	0.877416	5.309				
0.46465	2.79564	0.350911	2.10835	0.805284	4.8498	0.937473	5.64705					0.673506	4.04697	0.881091	5.30135				
0.46618	2.78921	0.352987	2.10902	0.808202	4.84021	0.941367	5.63886					0.67532	4.03528	0.884756	5.29372				
0.467713	2.78287	0.355063	2.10968	0.811101	4.83062	0.945256	5.63073					0.677124	4.02366	0.88841	5.28612				
0.46925	2.77662	0.357139	2.11033	0.813982	4.82102	0.949141	5.62266					0.678919	4.01211	0.892053	5.27854				
0.470789	2.77046	0.359214	2.11097	0.816844	4.81142	0.953021	5.61466					0.680705	4.00064	0.895686	5.27097				
0.472332	2.76438	0.36129	2.11161	0.819688	4.80182	0.956898	5.60673					0.682482	3.98924	0.899307	5.26342				
0.473878	2.75838	0.363365	2.11223	0.822513	4.79222	0.96077	5.59885					0.68425	3.97791	0.902917	5.25589				
0.475427	2.75247	0.365441	2.11286	0.825321	4.78262	0.964639	5.59104					0.68601	3.96666	0.906515	5.24837				
0.476979	2.74664	0.367516	2.11347	0.828111	4.77302	0.968502	5.58328					0.687762	3.95548	0.910101	5.24086				
0.478534	2.74089	0.369591	2.11408	0.830884	4.76342	0.972362	5.57558					0.689507	3.94438	0.913675	5.23336				
0.480092	2.73522	0.371667	2.11468	0.833639	4.75382	0.976217	5.56794					0.691243	3.93335	0.917236	5.22587				
0.481654	2.72963	0.373742	2.11527	0.836376	4.74422	0.980068	5.56036					0.692972	3.92239	0.920785	5.21839				
0.483218	2.72411	0.375817	2.11586	0.839097	4.73464	0.983914	5.55283					0.694693	3.91151	0.924321	5.21092				
0.484786	2.71867	0.377892	2.11644	0.841801	4.72505	0.987755	5.54535					0.696408	3.9007	0.927844	5.20345				
0.486356	2.7133	0.379967	2.11701	0.844488	4.71548	0.991592	5.53792					0.698115	3.88996	0.931354	5.19598				
0.48793	2.708	0.382042	2.11758	0.847159	4.70591	0.995423	5.53054					0.699816	3.8793	0.93485	5.18852				
0.489506	2.70278	0.384117	2.11814	0.849814	4.69635	0.99925	5.52321					0.70151	3.86871	0.938333	5.18106				
0.491086	2.69762	0.386191	2.1187	0.852452	4.68679	1.00307	5.51593					0.703198	3.85819	0.941803	5.1736				
0.492669	2.69254	0.388266	2.11925	0.855074	4.67725							0.70488	3.84775	0.945259	5.16614				
0.494254	2.68752	0.390341	2.11979	0.857681	4.66772							0.706556	3.83738	0.948701	5.15869				
0.495843	2.68256	0.392415	2.12033	0.860272	4.6582							0.708226	3.82709	0.952129	5.15123				
0.497434	2.67768	0.39449	2.12087	0.862847	4.6487							0.70989	3.81686	0.955542	5.14377				
0.499029	2.67286	0.396565	2.12139	0.865408	4.6392							0.711549	3.80671	0.958942	5.13631				
0.500626	2.6681	0.398639	2.12191	0.867953	4.62972							0.713202	3.79663	0.962328	5.12885				
0.502226	2.6634	0.400714	2.12243	0.870483	4.62026							0.714851	3.78663	0.965699	5.12139				
0.503829	2.65876	0.402788	2.12294	0.872999	4.61081							0.716494	3.77669	0.969056	5.11392				
0.505435	2.65419	0.404862	2.12345	0.8755	4.60138							0.718132	3.76683	0.972398	5.10645				
0.507044	2.64967	0.406936	2.12395	0.877986	4.59196							0.719766	3.75704	0.975726	5.09898				
0.508656	2.64522	0.409011	2.12444	0.880459	4.58256							0.721395	3.74732	0.97904	5.09151				
0.510271	2.64082	0.411085	2.12493	0.882917	4.57318							0.723019	3.73767	0.982338	5.08403				
0.511888	2.63648	0.413159	2.12542	0.885362	4.56382							0.72464	3.72809	0.985623	5.07655				
0.513508	2.63219	0.415233	2.1259	0.887793	4.55448							0.726256	3.71858	0.988892	5.06906				
0.515131	2.62796	0.417307	2.12637	0.89021	4.54515							0.727868	3.70914	0.992147	5.06158				
0.516756	2.62378	0.419381	2.12684	0.892614	4.53585							0.729476	3.69977	0.995388	5.05408				
0.518385	2.61966	0.421455	2.12731	0.895004	4.52657							0.731081	3.69046	0.998613	5.04659				
0.520016	2.61558	0.423529	2.12777	0.897382	4.5173							0.732681	3.68123	1.00182	5.03909				
0.52165	2.61156	0.425603	2.12823	0.899747	4.50807							0.734278	3.67207						
0.523286	2.60759	0.427677	2.12868	0.902099	4.49885							0.735872	3.66297						
0.524925	2.60367	0.42975	2.12913	0.904438	4.48965							0.737463	3.65394						
0.526567	2.5998	0.431824	2.12957	0.906765	4.48048							0.73905	3.64498						
0.528211	2.59598	0.433898	2.13001	0.909079	4.47133							0.740634	3.63608						
0.529858	2.5922	0.435971	2.13045	0.911382	4.46221							0.742215	3.62725						
0.531508	2.58847	0.438045	2.13088	0.913672	4.45311							0.743793	3.61849						
0.53316	2.58479	0.440118	2.13131	0.915951	4.44404							0.745369	3.60979						
0.534815	2.58116	0.442192	2.13173	0.918218	4.43499							0.746942	3.60116						
0.536472	2.57756	0.444265	2.13215	0.920473	4.42597							0.748512	3.5926						
0.538132	2.57402	0.446339	2.13257	0.922717	4.41697							0.75008	3.58409						
0.539795	2.57051	0.448412	2.13298	0.92495	4.408							0.751645	3.57565						
0.541459	2.56705	0.450486	2.13338	0.927172	4.39905							0.753208	3.56728						
0.543127	2.56363	0.452559	2.13379	0.929383	4.39013							0.754769	3.55897						
0.544796	2.56025	0.454632	2.13419	0.931582	4.38124							0.756328	3.55072						
0.546469	2.55692	0.456705	2.13458	0.933772	4.37238							0.757885	3.54253						
0.548143	2.55362	0.458778	2.13498	0.93595	4.36354							0.759439	3.53441						
0.54982	2.55037	0.460852	2.13537	0.938118	4.35474							0.760992	3.52634						
0.5515	2.54715	0.462925	2.13575	0.940276	4.34596							0.762543	3.51834						
0.553182	2.54397	0.464998	2.13613	0.942424	4.33721							0.764093	3.5104						
0.554866	2.54083	0.467071	2.13651	0.944562	4.32849							0.765641	3.50252						
0.556553	2.53772	0.469144	2.13689	0.94669	4.31979							0.767187	3.4947						
0.558241	2.53466	0.471217	2.13726	0.948808	4.31113							0.768731	3.48693						
0.559933	2.53162	0.47329	2.13763	0.950916	4.3025							0.770275	3.47923						
0.561626	2.52863	0.475363	2.13799	0.953015	4.29389							0.771817	3.47159						
0.563322	2.52567	0.477435	2.13836	0.955105	4.28532							0.773357	3.464						
0.56502	2.52274	0.479508	2.13872	0.957185	4.27677							0.774897	3.45647						
0.56672	2.51985	0.481581	2.13907	0.959256	4.26826							0.776435	3.449						
0.568423	2.517	0.483654	2.13942	0.961318	4.25978							0.777972	3.44158						
0.570127	2.51417	0.485726	2.13977	0.963372	4.25132							0.779509	3.43422						
0.571834	2.51138	0.487799	2.14012	0.965416	4.2429							0.781044	3.42692						
0.573543	2.50862	0.489872	2.14046	0.967452	4.23451							0.782578	3.41967						
0.575255	2.5059	0.491944	2.14081	0.969479	4.22615							0.784112	3.41248						
0.576968	2.5032	0.494017	2.14114	0.971498	4.21782							0.785644	3.40534						
0.578683	2.50054	0.496089	2.14148	0.973509	4.20952							0.787176	3.39826						
0.580401	2.4979	0.498162	2.14181	0.975512	4.20125							0.788708	3.39123						
0.582121	2.4953	0.500234	2.14214	0.977506	4.19302							0.790238	3.38426						
0.583843	2.49272	0.502307	2.14247	0.979492	4.18482							0.791768	3.37733						
0.585567	2.49018	0.504379	2.14279	0.981471	4.17664							0.793298	3.37046						
0.587293	2.48766	0.506451	2.14311	0.983442	4.1685							0.794827	3.36364						
0.589021	2.48517	0.508524	2.14343	0.985405	4.16039							0.796355	3.35688						
0.590751	2.48271	0.510596	2.14375	0.987361	4.15232							0.797884	3.35016						
0.592483	2.48028	0.512668	2.14406	0.989309	4.14427							0.799412	3.3435						
0.594217	2.47787	0.514741	2.14437	0.99125	4.13626							0.800939	3.33688						
0.595953	2.4755	0.516813	2.14468	0.993184	4.12828							0.802467	3.33032						
0.597691	2.47314	0.518885	2.14499	0.99511	4.12033							0.803994	3.32381						
0.599431	2.47082	0.520957	2.14529	0.99703	4.11241							0.805521	3.31734						
0.601173	2.46852	0.523029	2.14559	0.998943	4.10453							0.807047	3.31092						
0.602916	2.46624	0.525101	2.14589	1.00085	4.09668							0.808574	3.30456						
0.604662	2.46399	0.527173	2.14619									0.810101	3.29824						
0.60641	2.46177	0.529245	2.14648									0.811628	3.29197						
0.608159	2.45957	0.531317	2.14677									0.813154	3.28574						
0.60991	2.45739	0.533389	2.14706									0.814681	3.27956						
0.611664	2.45524	0.535461	2.14735									0.816208	3.27343						
0.613419	2.45311	0.537533	2.14763									0.817735	3.26735						
0.615176	2.451	0.539605	2.14791									0.819262	3.26131						
0.616934	2.44892	0.541677	2.14819									0.820789	3.25532						
0.618695	2.44686	0.543749	2.14847									0.822317	3.24937						
0.620457	2.44482	0.545821	2.14875									0.823845	3.24346						
0.622221	2.4428	0.547892	2.14902									0.825373	3.2376						
0.623987	2.44081	0.549964	2.14929									0.826901	3.23179						
0.625754	2.43883	0.552036	2.14956									0.82843	3.22601						
0.627524	2.43688	0.554108	2.14983									0.829959	3.22029						
0.629295	2.43495	0.556179	2.1501									0.831488	3.2146						
0.631067	2.43303	0.558251	2.15036									0.833018	3.20896						
0.632842	2.43114	0.560322	2.15062									0.834549	3.20335						
0.634618	2.42927	0.562394	2.15088									0.836079	3.19779						
0.636395	2.42742	0.564466	2.15114									0.837611	3.19227						
0.638175	2.42558	0.566537	2.15139									0.839143	3.1868						
0.639956	2.42377	0.568609	2.15165									0.840675	3.18136						
0.641739	2.42198	0.57068	2.1519									0.842208	3.17596						
0.643523	2.4202	0.572751	2.15215									0.843741	3.17061						
0.645309	2.41844	0.574823	2.1524									0.845275	3.16529						
0.647096	2.4167	0.576894	2.15264									0.84681	3.16001						
0.648885	2.41498	0.578966	2.15289									0.848346	3.15477						
0.650676	2.41328	0.581037	2.15313									0.849882	3.14957						
0.652468	2.41159	0.583108	2.15337									0.851419	3.14441						
0.654262	2.40992	0.585179	2.15361									0.852956	3.13929						
0.656057	2.40827	0.587251	2.15385									0.854494	3.1342						
0.657854	2.40664	0.589322	2.15408									0.856033	3.12915						
0.659652	2.40502	0.591393	2.15432									0.857573	3.12414						
0.661452	2.40341	0.593464	2.15455									0.859113	3.11917						
0.663253	2.40183	0.595535	2.15478									0.860655	3.11423						
0.665056	2.40026	0.597607	2.15501									0.862197	3.10932						
0.666861	2.3987	0.599678	2.15524									0.86374	3.10446						
0.668666	2.39717	0.601749	2.15546									0.865283	3.09963						
0.670473	2.39564	0.60382	2.15569									0.866828	3.09483						
0.672282	2.39414	0.605891	2.15591									0.868374	3.09007						
0.674092	2.39264	0.607962	2.15613									0.86992	3.08534						
0.675904	2.39116	0.610033	2.15635									0.871467	3.08065						
0.677716	2.3897	0.612104	2.15657									0.873015	3.07599						
0.679531	2.38825	0.614175	2.15679									0.874564	3.07137						
0.681346	2.38682	0.616246	2.157									0.876114	3.06678						
0.683163	2.3854	0.618317	2.15721									0.877665	3.06222						
0.684982	2.38399	0.620387	2.15743									0.879217	3.05769						
0.686801	2.3826	0.622458	2.15764									0.88077	3.0532						
0.688622	2.38122	0.624529	2.15785									0.882324	3.04874						
0.690445	2.37985	0.6266	2.15805									0.883879	3.04431						
0.692269	2.3785	0.628671	2.15826									0.885435	3.03992						
0.694094	2.37716	0.630741	2.15847									0.886992	3.03555						
0.69592	2.37584	0.632812	2.15867									0.88855	3.03122						
0.697748	2.37452	0.634883	2.15887									0.890109	3.02692						
0.699577	2.37322	0.636954	2.15907									0.891669	3.02264						
0.701407	2.37194	0.639024	2.15927									0.89323	3.0184						
0.703238	2.37066	0.641095	2.15947									0.894792	3.01419						
0.705071	2.3694	0.643165	2.15967									0.896355	3.01001						
0.706905	2.36814	0.645236	2.15986									0.897919	3.00586						
0.70874	2.3669	0.647307	2.16006									0.899484	3.00174						
0.710577	2.36568	0.649377	2.16025									0.901051	2.99764						
0.712414	2.36446	0.651448	2.16044									0.902618	2.99358						
0.714253	2.36326	0.653518	2.16063									0.904187	2.98954						
0.716093	2.36206	0.655589	2.16082									0.905756	2.98554						
0.717935	2.36088	0.657659	2.16101									0.907327	2.98156						
0.719777	2.35971	0.65973	2.1612									0.908899	2.97761						
0.721621	2.35855	0.6618	2.16138									0.910472	2.97368						
0.723466	2.3574	0.66387	2.16157									0.912046	2.96979						
0.725312	2.35626	0.665941	2.16175									0.913622	2.96592						
0.727159	2.35514	0.668011	2.16193									0.915198	2.96208						
0.729007	2.35402	0.670081	2.16211									0.916776	2.95826						
0.730856	2.35291	0.672152	2.16229									0.918354	2.95448						
0.732707	2.35181	0.674222	2.16247									0.919934	2.95071						
0.734559	2.35073	0.676292	2.16265									0.921515	2.94698						
0.736411	2.34965	0.678362	2.16282									0.923098	2.94327						
0.738265	2.34859	0.680433	2.163									0.924681	2.93959						
0.74012	2.34753	0.682503	2.16317									0.926266	2.93593						
0.741976	2.34648	0.684573	2.16335									0.927851	2.93229						
0.743834	2.34544	0.686643	2.16352									0.929438	2.92869						
0.745692	2.34442	0.688713	2.16369									0.931027	2.9251						
0.747551	2.3434	0.690783	2.16386									0.932616	2.92154						
0.749411	2.34239	0.692854	2.16403									0.934206	2.91801						
0.751273	2.34139	0.694924	2.1642									0.935798	2.9145						
0.753135	2.3404	0.696994	2.16436									0.937391	2.91101						
0.754999	2.33941	0.699064	2.16453									0.938985	2.90755						
0.756863	2.33844	0.701134	2.16469									0.94058	2.90411						
0.758729	2.33748	0.703204	2.16486									0.942177	2.9007						
0.760595	2.33652	0.705274	2.16502									0.943775	2.89731						
0.762463	2.33557	0.707344	2.16518									0.945374	2.89394						
0.764332	2.33463	0.709413	2.16534									0.946974	2.89059						
0.766201	2.3337	0.711483	2.1655									0.948575	2.88727						
0.768072	2.33278	0.713553	2.16566									0.950178	2.88397						
0.769943	2.33186	0.715623	2.16582									0.951781	2.88069						
0.771816	2.33096	0.717693	2.16597									0.953386	2.87743						
0.773689	2.33006	0.719763	2.16613									0.954993	2.8742						
0.775564	2.32917	0.721833	2.16629									0.9566	2.87099						
0.777439	2.32829	0.723902	2.16644									0.958209	2.8678						
0.779315	2.32741	0.725972	2.16659									0.959819	2.86463						
0.781193	2.32654	0.728042	2.16674									0.96143	2.86148						
0.783071	2.32569	0.730112	2.1669									0.963042	2.85835						
0.78495	2.32483	0.732181	2.16705									0.964656	2.85524						
0.78683	2.32399	0.734251	2.1672									0.966271	2.85216						
0.788711	2.32315	0.736321	2.16734									0.967887	2.84909						
0.790593	2.32232	0.73839	2.16749									0.969504	2.84605						
0.792475	2.3215	0.74046	2.16764									0.971122	2.84302						
0.794359	2.32068	0.74253	2.16779									0.972742	2.84002						
0.796244	2.31987	0.744599	2.16793									0.974363	2.83703						
0.798129	2.31907	0.746669	2.16808									0.975985	2.83407						
0.800015	2.31828	0.748738	2.16822									0.977608	2.83112						
0.801902	2.31749	0.750808	2.16836									0.979233	2.8282						
0.803791	2.31671	0.752877	2.1685									0.980859	2.82529						
0.805679	2.31593	0.754947	2.16864									0.982486	2.8224						
0.807569	2.31516	0.757016	2.16878									0.984114	2.81953						
0.80946	2.3144	0.759086	2.16892									0.985744	2.81668						
0.811351	2.31365	0.761155	2.16906									0.987374	2.81385						
0.813243	2.3129	0.763224	2.1692									0.989006	2.81104						
0.815137	2.31215	0.765294	2.16934									0.99064	2.80824						
0.817031	2.31142	0.767363	2.16947									0.992274	2.80547						
0.818925	2.31069	0.769433	2.16961									0.99391	2.80271						
0.820821	2.30996	0.771502	2.16974									0.995546	2.79997						
0.822717	2.30925	0.773571	2.16988									0.997185	2.79725						
0.824614	2.30853	0.775641	2.17001									0.998824	2.79454						
0.826512	2.30783	0.77771	2.17014									1.00046	2.79185						
0.828411	2.30713	0.779779	2.17028																
0.830311	2.30643	0.781848	2.17041																
0.832211	2.30574	0.783918	2.17054																
0.834112	2.30506	0.785987	2.17067																
0.836014	2.30438	0.788056	2.1708																
0.837917	2.30371	0.790125	2.17092																
0.83982	2.30305	0.792194	2.17105																
0.841724	2.30239	0.794263	2.17118																
0.843629	2.30173	0.796332	2.1713																
0.845535	2.30108	0.798402	2.17143																
0.847441	2.30044	0.800471	2.17155																
0.849348	2.2998	0.80254	2.17168																
0.851256	2.29916	0.804609	2.1718																
0.853165	2.29853	0.806678	2.17192																
0.855074	2.29791	0.808747	2.17205																
0.856984	2.29729	0.810816	2.17217																
0.858895	2.29668	0.812885	2.17229																
0.860806	2.29607	0.814954	2.17241																
0.862718	2.29546	0.817022	2.17253																
0.864631	2.29486	0.819091	2.17265																
0.866545	2.29427	0.82116	2.17276																
0.868459	2.29368	0.823229	2.17288																
0.870374	2.29309	0.825298	2.173																
0.87229	2.29251	0.827367	2.17311																
0.874206	2.29194	0.829436	2.17323																
0.876123	2.29137	0.831504	2.17335																
0.87804	2.2908	0.833573	2.17346																
0.879959	2.29024	0.835642	2.17357																
0.881878	2.28968	0.837711	2.17369																
0.883797	2.28912	0.839779	2.1738																
0.885718	2.28858	0.841848	2.17391																
0.887638	2.28803	0.843917	2.17402																
0.88956	2.28749	0.845985	2.17413																
0.891482	2.28695	0.848054	2.17424																
0.893405	2.28642	0.850123	2.17435																
0.895328	2.28589	0.852191	2.17446																
0.897252	2.28537	0.85426	2.17457																
0.899177	2.28485	0.856328	2.17468																
0.901102	2.28433	0.858397	2.17479																
0.903028	2.28382	0.860466	2.17489																
0.904955	2.28331	0.862534	2.175																
0.906882	2.28281	0.864603	2.17511																
0.90881	2.28231	0.866671	2.17521																
0.910738	2.28181	0.86874	2.17532																
0.912667	2.28132	0.870808	2.17542																
0.914596	2.28083	0.872876	2.17552																
0.916527	2.28035	0.874945	2.17563																
0.918457	2.27987	0.877013	2.17573																
0.920389	2.27939	0.879082	2.17583																
0.922321	2.27892	0.88115	2.17593																
0.924253	2.27844	0.883218	2.17603																
0.926186	2.27798	0.885287	2.17614																
0.928119	2.27751	0.887355	2.17624																
0.930054	2.27705	0.889423	2.17633																
0.931988	2.2766	0.891491	2.17643																
0.933924	2.27615	0.89356	2.17653																
0.935859	2.2757	0.895628	2.17663																
0.937796	2.27525	0.897696	2.17673																
0.939733	2.27481	0.899764	2.17683																
0.94167	2.27437	0.901833	2.17692																
0.943608	2.27393	0.903901	2.17702																
0.945546	2.2735	0.905969	2.17711																
0.947486	2.27307	0.908037	2.17721																
0.949425	2.27264	0.910105	2.1773																
0.951365	2.27222	0.912173	2.1774																
0.953306	2.2718	0.914241	2.17749																
0.955247	2.27138	0.916309	2.17759																
0.957189	2.27097	0.918377	2.17768																
0.959131	2.27055	0.920446	2.17777																
0.961073	2.27015	0.922513	2.17786																
0.963017	2.26974	0.924582	2.17795																
0.96496	2.26934	0.926649	2.17805																
0.966905	2.26894	0.928717	2.17814																
0.968849	2.26854	0.930785	2.17823																
0.970794	2.26815	0.932853	2.17832																
0.97274	2.26776	0.934921	2.17841																
0.974686	2.26737	0.936989	2.1785																
0.976633	2.26699	0.939057	2.17858																
0.97858	2.2666	0.941125	2.17867																
0.980528	2.26623	0.943193	2.17876																
0.982476	2.26585	0.94526	2.17885																
0.984424	2.26547	0.947328	2.17893																
0.986373	2.2651	0.949396	2.17902																
0.988323	2.26473	0.951464	2.17911																
0.990273	2.26437	0.953532	2.17919																
0.992223	2.26401	0.955599	2.17928																
0.994174	2.26364	0.957667	2.17936																
0.996126	2.26329	0.959735	2.17945																
0.998077	2.26293	0.961802	2.17953																
1.00003	2.26258	0.96387	2.17961																
		0.965938	2.1797																
		0.968005	2.17978																
		0.970073	2.17986																
		0.972141	2.17995																
		0.974208	2.18003																
		0.976276	2.18011																
		0.978343	2.18019																
		0.980411	2.18027																
		0.982478	2.18035																
		0.984546	2.18043																
		0.986613	2.18051																
		0.988681	2.18059																
		0.990748	2.18067																
		0.992816	2.18075																
		0.994883	2.18082																
		0.99695	2.1809																
		0.999018	2.18098																
		1.00109	2.18106																
