Sym0		Asym0		Sym1		Sym2		Sym3		Sym4		Asym1		Asym2		Asym3	
475  Points		494  Points		242  Points		167  Points		142  Points		112  Points		382  Points		187  Points		147  Points	
Freq (MHz)	Vph (m/ms)	Freq (MHz)	Vph (m/ms)	Freq (MHz)	Vph (m/ms)	Freq (MHz)	Vph (m/ms)	Freq (MHz)	Vph (m/ms)	Freq (MHz)	Vph (m/ms)	Freq (MHz)	Vph (m/ms)	Freq (MHz)	Vph (m/ms)	Freq (MHz)	Vph (m/ms)
0.00506734	6.32181	0.000442112	0.200865	0.279518	633.474	0.443116	529.123	0.559023	1326.58	0.838526	8186.44	0.139785	313.758	0.419263	6793	0.698788	785.853
0.0109565	6.32135	0.000890802	0.284353	0.279599	203.65	0.443192	250.511	0.559074	413.182	0.838546	810.876	0.140043	101.686	0.4193	422.079	0.698842	383.788
0.0168438	6.32048	0.00148892	0.36633	0.279763	121.392	0.443322	164.142	0.55918	244.74	0.838598	426.59	0.140564	60.8789	0.419402	217.859	0.698933	253.918
0.0227281	6.31924	0.00223017	0.44638	0.28001	86.521	0.443507	122.093	0.55934	173.898	0.838684	289.449	0.141342	43.6161	0.41957	146.867	0.699061	189.741
0.0286085	6.31765	0.00310729	0.524188	0.28034	67.2597	0.443747	97.2226	0.559554	134.891	0.838802	219.054	0.142374	34.1236	0.419803	110.81	0.699227	151.479
0.0344838	6.31568	0.00411216	0.599483	0.280752	55.0525	0.444041	80.7946	0.559822	110.204	0.838953	176.217	0.14365	28.1446	0.420101	89.0009	0.699429	126.076
0.0403531	6.31333	0.00523605	0.672046	0.281246	46.6302	0.444391	69.1377	0.560143	93.1776	0.839136	147.408	0.145162	24.0506	0.420465	74.3936	0.699668	107.984
0.0462153	6.31061	0.00647011	0.741738	0.28182	40.4733	0.444796	60.4399	0.560519	80.7285	0.839352	126.708	0.146901	21.0841	0.420892	63.9306	0.699945	94.4458
0.0520691	6.30749	0.0078052	0.808444	0.282475	35.7799	0.445258	53.7037	0.560948	71.2319	0.839601	111.117	0.148856	18.8447	0.421385	56.0704	0.700258	83.9359
0.0579136	6.30398	0.00923238	0.872107	0.283209	32.0862	0.445776	48.3346	0.561431	63.7507	0.839882	98.953	0.151016	17.1011	0.421941	49.9517	0.700608	75.5416
0.0637474	6.30007	0.010743	0.932716	0.284021	29.1059	0.446351	43.9564	0.561967	57.7066	0.840196	89.1986	0.15337	15.7102	0.422561	45.0556	0.700995	68.6835
0.0695693	6.29575	0.0123289	0.990302	0.284911	26.6524	0.446984	40.3193	0.562556	52.7229	0.840542	81.2033	0.155907	14.5787	0.423245	41.0505	0.701418	62.976
0.0753783	6.29101	0.0139823	1.0449	0.285877	24.5988	0.447675	37.251	0.563197	48.5442	0.84092	74.5314	0.158615	13.6433	0.423992	37.7148	0.701878	58.1528
0.0811727	6.28583	0.0156958	1.09661	0.286918	22.856	0.448425	34.6288	0.563892	44.991	0.841331	68.8799	0.161484	12.8595	0.424801	34.8949	0.702374	54.0236
0.0869515	6.28022	0.017463	1.14551	0.288033	21.3596	0.449234	32.3628	0.564638	41.9334	0.841775	64.032	0.164503	12.1951	0.425673	32.4806	0.702907	50.4493
0.0927132	6.27416	0.0192775	1.1917	0.289221	20.0616	0.450104	30.386	0.565437	39.2751	0.84225	59.828	0.167663	11.6264	0.426607	30.3913	0.703476	47.3255
0.0984562	6.26763	0.021134	1.23532	0.290481	18.9258	0.451035	28.647	0.566288	36.9434	0.842758	56.1481	0.170954	11.1352	0.427601	28.5661	0.704081	44.5724
0.104179	6.26061	0.0230272	1.27646	0.29181	17.9244	0.452028	27.106	0.56719	34.882	0.843297	52.9004	0.174368	10.7077	0.428656	26.9586	0.704722	42.1282
0.10988	6.2531	0.0249529	1.31528	0.29321	17.0354	0.453083	25.7317	0.568143	33.0471	0.843869	50.0132	0.177895	10.3331	0.429771	25.5326	0.705399	39.944
0.115558	6.24508	0.0269068	1.35188	0.294677	16.2415	0.454202	24.4989	0.569147	31.4036	0.844473	47.4299	0.181528	10.0028	0.430946	24.2596	0.706112	37.9805
0.12121	6.23653	0.0288853	1.38639	0.296211	15.5286	0.455385	23.3874	0.570201	29.9235	0.845108	45.1053	0.184775	9.74569	0.43218	23.1166	0.70686	36.2063
0.126835	6.22742	0.0308852	1.41893	0.297811	14.8854	0.456634	22.3807	0.571306	28.5839	0.845776	43.0026	0.187598	9.54611	0.433471	22.0851	0.707644	34.5955
0.132431	6.21774	0.0329038	1.44961	0.299475	14.3026	0.457948	21.4649	0.572461	27.366	0.846474	41.0916	0.189969	9.39321	0.43482	21.1499	0.708463	33.1266
0.137995	6.20746	0.0349385	1.47856	0.301204	13.7723	0.459329	20.6288	0.573665	26.2542	0.847205	39.3474	0.191866	9.27939	0.436226	20.2984	0.709317	31.782
0.143526	6.19657	0.0367229	1.50246	0.302996	13.2882	0.460778	19.8627	0.574918	25.2355	0.847967	37.7493	0.193274	9.1994	0.437688	19.5201	0.710206	30.5466
0.149022	6.18503	0.0382514	1.5219	0.30485	12.8447	0.462296	19.1587	0.576219	24.2989	0.84876	36.2799	0.19418	9.14978	0.439206	18.8064	0.711129	29.4079
0.154479	6.17283	0.0395199	1.53736	0.306767	12.4372	0.463883	18.5098	0.577569	23.4351	0.849584	34.9242	0.195489	9.0805	0.440778	18.1496	0.712088	28.355
0.159895	6.15993	0.0405255	1.5492	0.308745	12.0618	0.46554	17.9101	0.578967	22.6361	0.85044	33.6699	0.196921	9.00781	0.442404	17.5435	0.71308	27.3788
0.165268	6.1463	0.0412663	1.55771	0.310784	11.715	0.467268	17.3545	0.580412	21.895	0.851326	32.5059	0.198885	8.91311	0.444083	16.9827	0.714107	26.4713
0.170594	6.13192	0.041741	1.56306	0.312885	11.3941	0.469067	16.8386	0.581905	21.206	0.852244	31.4231	0.201391	8.79975	0.445815	16.4624	0.715168	25.6256
0.175871	6.11675	0.0424241	1.57064	0.315048	11.0963	0.470939	16.3587	0.583444	20.5639	0.853192	30.4133	0.204457	8.67145	0.447598	15.9785	0.716263	24.8357
0.181096	6.10076	0.0431676	1.57871	0.317272	10.8196	0.472884	15.9113	0.585029	19.9642	0.85417	29.4694	0.208098	8.53208	0.449432	15.5275	0.717392	24.0964
0.186264	6.08392	0.0441802	1.58944	0.319559	10.562	0.474901	15.4935	0.58666	19.4029	0.85518	28.5854	0.212333	8.38538	0.451317	15.1063	0.718553	23.403
0.191374	6.0662	0.0454631	1.6026	0.321909	10.3218	0.476993	15.1026	0.588337	18.8767	0.856219	27.7557	0.216623	8.25121	0.45325	14.7123	0.719748	22.7515
0.19642	6.04757	0.0470176	1.61792	0.324323	10.0976	0.479159	14.7365	0.590059	18.3824	0.857289	26.9757	0.220965	8.12813	0.455232	14.3428	0.720976	22.1384
0.2014	6.02799	0.0488449	1.63512	0.326481	9.91415	0.481399	14.393	0.591825	17.9174	0.858388	26.241	0.225354	8.01491	0.457262	13.9959	0.722237	21.5603
0.206311	6.00743	0.050946	1.65387	0.32836	9.76596	0.483714	14.0703	0.593636	17.4792	0.859518	25.5478	0.229788	7.91047	0.459339	13.6697	0.72353	21.0144
0.211147	5.98587	0.0530509	1.67164	0.329942	9.64877	0.486104	13.7667	0.59549	17.0656	0.860677	24.8929	0.234262	7.81388	0.461462	13.3624	0.724856	20.4982
0.215906	5.96326	0.0551588	1.68849	0.331211	9.55938	0.488569	13.4808	0.597388	16.6748	0.861866	24.2732	0.238774	7.72433	0.463631	13.0725	0.726214	20.0094
0.220583	5.93961	0.0572692	1.70448	0.332155	9.49542	0.491109	13.2113	0.599329	16.3049	0.863084	23.686	0.24332	7.6411	0.465844	12.7987	0.727603	19.5459
0.225175	5.91487	0.0593817	1.71967	0.332763	9.45526	0.493724	12.9569	0.601313	15.9545	0.864331	23.1289	0.247898	7.56356	0.468101	12.5397	0.729025	19.1059
0.229679	5.88905	0.0614955	1.7341	0.333645	9.39855	0.496414	12.7165	0.603339	15.6221	0.865608	22.5996	0.252505	7.49117	0.470401	12.2945	0.730477	18.6877
0.234091	5.86212	0.0636106	1.74782	0.334612	9.33826	0.499178	12.4893	0.605407	15.3064	0.866914	22.0962	0.257138	7.42343	0.472744	12.062	0.731961	18.2897
0.238407	5.83408	0.0657264	1.76088	0.335941	9.25843	0.502017	12.2741	0.607516	15.0062	0.868248	21.6169	0.261795	7.3599	0.475129	11.8413	0.733476	17.9106
0.242624	5.80495	0.0678428	1.77331	0.337647	9.16096	0.504929	12.0704	0.609667	14.7206	0.869611	21.16	0.266473	7.30021	0.477555	11.6317	0.735022	17.5491
0.246741	5.77472	0.0699594	1.78517	0.339748	9.04804	0.507914	11.8772	0.611859	14.4485	0.871002	20.724	0.271171	7.24401	0.480021	11.4323	0.736599	17.204
0.250755	5.74341	0.0720761	1.79647	0.342265	8.92215	0.510972	11.6939	0.614091	14.189	0.872421	20.3076	0.275885	7.19098	0.482527	11.2426	0.738205	16.8743
0.254664	5.71107	0.0741927	1.80725	0.345225	8.78593	0.514101	11.5199	0.616364	13.9414	0.873869	19.9095	0.280615	7.14084	0.485072	11.0617	0.739842	16.5591
0.258466	5.67771	0.076309	1.81756	0.348264	8.65798	0.517301	11.3546	0.618677	13.7049	0.875344	19.5286	0.285358	7.09336	0.487656	10.8893	0.741508	16.2574
0.262161	5.64339	0.0784251	1.8274	0.351383	8.53778	0.520572	11.1974	0.621029	13.4788	0.876848	19.1638	0.290112	7.04829	0.490277	10.7247	0.743205	15.9684
0.26575	5.60815	0.0805405	1.83682	0.354585	8.42484	0.523911	11.0478	0.623421	13.2626	0.878378	18.8141	0.294875	7.00544	0.492936	10.5675	0.74493	15.6913
0.269231	5.57207	0.0826555	1.84583	0.357869	8.31872	0.527318	10.9054	0.625853	13.0555	0.879936	18.4787	0.299646	6.96463	0.495631	10.4172	0.746685	15.4256
0.272606	5.53519	0.0847698	1.85447	0.361237	8.21902	0.530792	10.7697	0.628324	12.8572	0.881522	18.1568	0.304422	6.92567	0.498363	10.2734	0.748469	15.1704
0.275877	5.49759	0.0868835	1.86274	0.36469	8.12534	0.534332	10.6404	0.630833	12.667	0.883134	17.8475	0.309203	6.88842	0.500773	10.1532	0.750281	14.9253
0.279045	5.45935	0.0889964	1.87067	0.368228	8.03731	0.537936	10.517	0.633381	12.4846	0.884773	17.5502	0.313986	6.85275	0.502848	10.0542	0.752123	14.6897
0.282111	5.42055	0.0911085	1.87828	0.37185	7.95461	0.541604	10.3993	0.635968	12.3096	0.886438	17.2641	0.318771	6.81851	0.504579	9.97464	0.753992	14.463
0.285081	5.38127	0.09322	1.88559	0.375556	7.8769	0.545333	10.2869	0.638594	12.1414	0.88813	16.9888	0.323554	6.7856	0.505957	9.9132	0.755889	14.2448
0.287955	5.34157	0.0953306	1.89262	0.379345	7.80387	0.548631	10.193	0.641258	11.9799	0.889848	16.7236	0.328336	6.75391	0.506975	9.86881	0.757815	14.0347
0.290737	5.30156	0.0974404	1.89937	0.383215	7.73522	0.551478	10.1158	0.643961	11.8245	0.891593	16.4681	0.333113	6.72334	0.507629	9.84074	0.759768	13.8322
0.293431	5.2613	0.0995494	1.90587	0.387164	7.67067	0.553857	10.0539	0.646702	11.6751	0.893363	16.2216	0.337886	6.69379	0.508573	9.80087	0.761749	13.6369
0.296041	5.22087	0.101658	1.91212	0.391189	7.60996	0.555753	10.0061	0.649482	11.5314	0.895158	15.9838	0.342652	6.66519	0.509602	9.75813	0.763756	13.4486
0.298569	5.18035	0.103765	1.91815	0.395289	7.55281	0.557155	9.97163	0.6523	11.3929	0.896979	15.7542	0.34741	6.63745	0.511009	9.70101	0.765791	13.2667
0.301021	5.1398	0.105872	1.92395	0.399459	7.499	0.558057	9.94984	0.655157	11.2596	0.898826	15.5325	0.352159	6.61051	0.5128	9.63038	0.767853	13.0912
0.303399	5.09929	0.107977	1.92955	0.403697	7.44828	0.559357	9.91889	0.658054	11.1312	0.900697	15.3182	0.356897	6.58429	0.514983	9.54727	0.769942	12.9215
0.305708	5.05887	0.110082	1.93495	0.407999	7.40043	0.560778	9.88575	0.660989	11.0073	0.902593	15.111	0.361623	6.55874	0.517567	9.45289	0.772057	12.7575
0.307951	5.01861	0.112187	1.94017	0.412361	7.35525	0.56272	9.84149	0.663963	10.8879	0.904514	14.9106	0.366335	6.5338	0.520563	9.34854	0.774198	12.599
0.310132	4.97856	0.11429	1.9452	0.416779	7.31253	0.565195	9.78681	0.666978	10.7728	0.90646	14.7166	0.371032	6.50941	0.523592	9.24819	0.776365	12.4455
0.312254	4.93876	0.116393	1.95007	0.42125	7.2721	0.568214	9.72257	0.670032	10.6617	0.90843	14.5288	0.375714	6.48552	0.526653	9.15166	0.778559	12.297
0.314321	4.89926	0.118495	1.95477	0.425769	7.23378	0.571791	9.64972	0.673128	10.5544	0.910423	14.3469	0.380377	6.4621	0.529747	9.05876	0.780778	12.1532
0.316336	4.86009	0.120596	1.95932	0.430334	7.1974	0.575942	9.5693	0.675858	10.4641	0.912441	14.1707	0.385022	6.43909	0.532873	8.96931	0.783023	12.0139
0.318302	4.82128	0.122697	1.96373	0.43494	7.16281	0.58014	9.49211	0.678211	10.3892	0.914483	13.9998	0.389647	6.41645	0.53603	8.88315	0.785293	11.879
0.320222	4.78287	0.124797	1.96799	0.439583	7.12988	0.584383	9.41797	0.680174	10.3287	0.916547	13.8341	0.39425	6.39415	0.53922	8.80013	0.787588	11.7481
0.3221	4.74488	0.126897	1.97212	0.44426	7.09848	0.58867	9.3467	0.681737	10.2818	0.918636	13.6733	0.39883	6.37215	0.54244	8.7201	0.789908	11.6212
0.323937	4.70734	0.128995	1.97613	0.448968	7.06847	0.592997	9.27817	0.682893	10.2478	0.920747	13.5173	0.403386	6.35041	0.545693	8.64293	0.792254	11.4981
0.325507	4.67499	0.131093	1.98001	0.453703	7.03976	0.597364	9.2122	0.683636	10.2262	0.922881	13.3658	0.407917	6.32892	0.548976	8.56849	0.794624	11.3786
0.326824	4.64771	0.133191	1.98378	0.458462	7.01223	0.601769	9.14868	0.684708	10.1956	0.925038	13.2187	0.412422	6.30763	0.552291	8.49667	0.797018	11.2627
0.327899	4.62535	0.135288	1.98743	0.463243	6.9858	0.606208	9.08745	0.685878	10.1626	0.927218	13.0758	0.416899	6.28652	0.555637	8.42735	0.799437	11.1501
0.32874	4.6078	0.137384	1.99098	0.468041	6.96037	0.61068	9.02839	0.687478	10.1185	0.92942	12.9368	0.421347	6.26556	0.559014	8.36043	0.80188	11.0407
0.329353	4.59497	0.13948	1.99442	0.472855	6.93586	0.615183	8.97138	0.689517	10.0637	0.931644	12.8018	0.425765	6.24474	0.562422	8.29581	0.804348	10.9344
0.329744	4.58679	0.141576	1.99777	0.477683	6.9122	0.619713	8.91631	0.692006	9.99905	0.933891	12.6704	0.430151	6.22402	0.565861	8.23338	0.806839	10.8311
0.330303	4.57509	0.143671	2.00102	0.48252	6.88932	0.62427	8.86306	0.694956	9.92525	0.936159	12.5427	0.434505	6.2034	0.569331	8.17307	0.809029	10.7434
0.330907	4.56242	0.145765	2.00418	0.487367	6.86717	0.62885	8.81153	0.698386	9.84325	0.938448	12.4183	0.438826	6.18284	0.572832	8.11479	0.81091	10.6703
0.331722	4.54531	0.147859	2.00726	0.492219	6.84567	0.633451	8.76161	0.701863	9.76404	0.94076	12.2973	0.443112	6.16234	0.576363	8.05846	0.812476	10.611
0.332744	4.52383	0.149952	2.01025	0.497075	6.82478	0.638071	8.71322	0.705388	9.68752	0.943092	12.1794	0.447363	6.14187	0.579926	8.00401	0.81372	10.5648
0.333966	4.49812	0.152045	2.01317	0.501934	6.80444	0.642706	8.66626	0.708963	9.6136	0.945446	12.0647	0.451577	6.12142	0.583519	7.95135	0.814638	10.5312
0.335382	4.46833	0.154138	2.016	0.506793	6.78462	0.647355	8.62065	0.712588	9.54221	0.94782	11.9529	0.455753	6.10098	0.587143	7.90043	0.815228	10.5099
0.336985	4.43464	0.15623	2.01877	0.511651	6.76528	0.652014	8.57629	0.716266	9.47327	0.950216	11.8439	0.459891	6.08054	0.590797	7.85117	0.816077	10.4795
0.338565	4.40147	0.158322	2.02146	0.516506	6.74636	0.656682	8.53311	0.719998	9.40671	0.952632	11.7377	0.46399	6.06008	0.594482	7.80352	0.817003	10.4467
0.340125	4.36882	0.160413	2.02408	0.521357	6.72785	0.661355	8.49103	0.723784	9.34246	0.955068	11.6342	0.468049	6.0396	0.598196	7.75741	0.818267	10.4027
0.341665	4.33671	0.162504	2.02664	0.526202	6.7097	0.666031	8.44998	0.727627	9.28045	0.957525	11.5332	0.472068	6.01909	0.601941	7.71279	0.819873	10.3478
0.343187	4.30512	0.164595	2.02914	0.53104	6.69189	0.670706	8.4099	0.731527	9.22063	0.960002	11.4347	0.476045	5.99854	0.605716	7.6696	0.821828	10.2827
0.344693	4.27405	0.166685	2.03157	0.53587	6.67438	0.67538	8.37071	0.735487	9.16293	0.962499	11.3386	0.479979	5.97794	0.609521	7.62778	0.824136	10.2079
0.346183	4.2435	0.168775	2.03395	0.540689	6.65716	0.680048	8.33235	0.739507	9.10731	0.965015	11.2449	0.483872	5.95729	0.613354	7.58729	0.826807	10.1241
0.347658	4.21347	0.170865	2.03627	0.545499	6.6402	0.68471	8.29477	0.74359	9.0537	0.967552	11.1533	0.487721	5.93659	0.617217	7.54808	0.8295	10.0425
0.349121	4.18395	0.172954	2.03853	0.550296	6.62348	0.689361	8.25792	0.747735	9.00205	0.969778	11.0753	0.491527	5.91582	0.621108	7.5101	0.832216	9.96301
0.350571	4.15493	0.175043	2.04074	0.55508	6.60698	0.694001	8.22174	0.751945	8.95232	0.971687	11.0101	0.495289	5.895	0.625028	7.4733	0.834954	9.88553
0.352009	4.12641	0.177131	2.0429	0.559851	6.59067	0.698627	8.18619	0.75622	8.90445	0.973274	10.957	0.499007	5.87411	0.628975	7.43764	0.837714	9.81
0.353437	4.09839	0.17922	2.04501	0.564607	6.57455	0.703238	8.15123	0.760562	8.85839	0.974534	10.9156	0.502681	5.85317	0.63295	7.40308	0.840497	9.73635
0.354855	4.07086	0.181308	2.04708	0.569347	6.55859	0.707831	8.11681	0.76497	8.81408	0.975464	10.8854	0.506311	5.83216	0.636951	7.36957	0.843301	9.66453
0.356265	4.0438	0.183396	2.04909	0.574071	6.54278	0.712406	8.08292	0.769446	8.77149	0.97606	10.8663	0.509896	5.81109	0.640978	7.33708	0.846127	9.59447
0.357666	4.01723	0.185483	2.05107	0.578777	6.52711	0.716962	8.04951	0.77399	8.73056	0.976918	10.8389	0.513436	5.78996	0.645031	7.30556	0.848975	9.52612
0.35906	3.99112	0.187571	2.053	0.583465	6.51157	0.721497	8.01657	0.778601	8.69123	0.977854	10.8094	0.516932	5.76877	0.649109	7.27498	0.851844	9.45943
0.360447	3.96546	0.189658	2.05489	0.588135	6.49613	0.726011	7.98408	0.78328	8.65347	0.97913	10.7696	0.520384	5.74753	0.653212	7.2453	0.854735	9.39433
0.361827	3.94027	0.191744	2.05673	0.592784	6.4808	0.730504	7.95201	0.788026	8.6172	0.98075	10.7199	0.523792	5.72624	0.657337	7.21648	0.857647	9.33079
0.363203	3.91551	0.193831	2.05854	0.597414	6.46555	0.734975	7.92035	0.792838	8.58238	0.98272	10.6608	0.527155	5.70491	0.661485	7.1885	0.86058	9.26875
0.364573	3.8912	0.195917	2.06031	0.602022	6.45039	0.739425	7.8891	0.797716	8.54897	0.985043	10.5927	0.530475	5.68353	0.665656	7.16131	0.863534	9.20817
0.365938	3.86732	0.198004	2.06205	0.606609	6.43529	0.743854	7.85824	0.802658	8.51689	0.987726	10.5162	0.533752	5.66212	0.669847	7.13488	0.866509	9.14899
0.367299	3.84386	0.200089	2.06375	0.611174	6.42026	0.748263	7.82777	0.807664	8.48611	0.990428	10.4414	0.536986	5.64068	0.674058	7.10919	0.869505	9.09119
0.368657	3.82081	0.202175	2.06541	0.615716	6.40528	0.752652	7.79768	0.812731	8.45656	0.993149	10.3682	0.540177	5.6192	0.678289	7.08419	0.872521	9.03471
0.370012	3.79817	0.204261	2.06704	0.620235	6.39035	0.757023	7.76798	0.817857	8.4282	0.995887	10.2967	0.543327	5.59771	0.682538	7.05987	0.875557	8.97953
0.371364	3.77594	0.206346	2.06864	0.62473	6.37546	0.761376	7.73867	0.823043	8.40098	0.998644	10.2267	0.546434	5.5762	0.686804	7.03619	0.878614	8.92559
0.372713	3.7541	0.208431	2.07021	0.6292	6.36061	0.765712	7.70973	0.828284	8.37483	1.00142	10.1582	0.549501	5.55468	0.691087	7.01313	0.881691	8.87287
0.374061	3.73264	0.210516	2.07174	0.633646	6.34578	0.770034	7.68119	0.83358	8.34972			0.552527	5.53316	0.695386	6.99066	0.884788	8.82132
0.375406	3.71156	0.212601	2.07325	0.638066	6.33098	0.774341	7.65303	0.838928	8.32559			0.555513	5.51164	0.699699	6.96874	0.887905	8.77092
0.376751	3.69085	0.214685	2.07473	0.642461	6.31619	0.778635	7.62525	0.844327	8.3024			0.55846	5.49013	0.704025	6.94737	0.891041	8.72164
0.378094	3.67051	0.21677	2.07618	0.646829	6.30142	0.782918	7.59788	0.849773	8.2801			0.561369	5.46863	0.708364	6.92651	0.894197	8.67343
0.379437	3.65053	0.218854	2.0776	0.65117	6.28665	0.787191	7.57089	0.855266	8.25865			0.564239	5.44716	0.712715	6.90613	0.897373	8.62627
0.380779	3.63089	0.220938	2.079	0.655485	6.27189	0.791456	7.5443	0.860804	8.23801			0.567072	5.4257	0.717077	6.88622	0.900568	8.58014
0.38212	3.6116	0.223022	2.08037	0.659772	6.25713	0.795712	7.5181	0.866383	8.21813			0.569868	5.40428	0.721448	6.86676	0.903781	8.535
0.383462	3.59265	0.225106	2.08171	0.664031	6.24236	0.799962	7.49231	0.872002	8.19897			0.572628	5.3829	0.725827	6.84772	0.907014	8.49082
0.384804	3.57402	0.227189	2.08303	0.668263	6.2276	0.804207	7.46691	0.87766	8.1805			0.575353	5.36155	0.730215	6.82909	0.910266	8.44758
0.386147	3.55572	0.229273	2.08433	0.672465	6.21282	0.808448	7.4419	0.883354	8.16269			0.578044	5.34026	0.734609	6.81084	0.913537	8.40526
0.38749	3.53774	0.231356	2.08561	0.67664	6.19803	0.812685	7.4173	0.889083	8.1455			0.5807	5.31902	0.739009	6.79295	0.916826	8.36383
0.388834	3.52007	0.233439	2.08686	0.680785	6.18323	0.816921	7.39308	0.894845	8.1289			0.583323	5.29783	0.743413	6.77541	0.920134	8.32326
0.390179	3.5027	0.235522	2.08809	0.684901	6.16842	0.821155	7.36926	0.900637	8.11285			0.585914	5.27671	0.747822	6.7582	0.92346	8.28353
0.391526	3.48564	0.237605	2.0893	0.688987	6.15359	0.825388	7.34583	0.906459	8.09734			0.588472	5.25565	0.752233	6.74131	0.926804	8.24463
0.392873	3.46886	0.239688	2.09048	0.693045	6.13874	0.829621	7.32279	0.912309	8.08233			0.591	5.23467	0.756646	6.72471	0.930166	8.20652
0.394223	3.45238	0.24177	2.09165	0.697072	6.12388	0.833856	7.30013	0.918185	8.06779			0.593497	5.21376	0.761061	6.7084	0.933547	8.16919
0.395574	3.43617	0.243853	2.0928	0.701069	6.10899	0.838092	7.27785	0.924085	8.05371			0.595964	5.19293	0.765476	6.69235	0.936945	8.13262
0.396926	3.42024	0.245935	2.09393	0.705037	6.09409	0.84233	7.25595	0.930009	8.04005			0.598402	5.17218	0.76989	6.67656	0.940361	8.0968
0.398281	3.40458	0.248018	2.09504	0.708974	6.07916	0.84657	7.23441	0.935954	8.02679			0.600811	5.15153	0.774302	6.661	0.943794	8.06169
0.399638	3.38918	0.2501	2.09613	0.712881	6.06422	0.850813	7.21324	0.94192	8.01392			0.603193	5.13096	0.778713	6.64568	0.947245	8.02728
0.400997	3.37405	0.252182	2.0972	0.716758	6.04925	0.85506	7.19243	0.947905	8.00142			0.605548	5.11048	0.78312	6.63057	0.950714	7.99356
0.402358	3.35917	0.254264	2.09826	0.720604	6.03427	0.85931	7.17198	0.953907	7.98925			0.607876	5.09011	0.787523	6.61566	0.954199	7.9605
0.403721	3.34453	0.256346	2.0993	0.724421	6.01926	0.863563	7.15186	0.959926	7.97741			0.610178	5.06983	0.791921	6.60095	0.957702	7.9281
0.405087	3.33015	0.258427	2.10032	0.728206	6.00424	0.867821	7.13209	0.96596	7.96587			0.612454	5.04966	0.796314	6.58641	0.961221	7.89634
0.406456	3.316	0.260509	2.10133	0.731962	5.98919	0.872083	7.11266	0.972007	7.95462			0.614707	5.02959	0.800701	6.57205	0.964758	7.86519
0.407827	3.30209	0.262591	2.10232	0.735687	5.97413	0.876348	7.09354	0.978066	7.94364			0.616935	5.00963	0.805081	6.55785	0.968311	7.83465
0.409201	3.2884	0.264672	2.10329	0.739382	5.95905	0.880618	7.07475	0.984136	7.93292			0.619139	4.98978	0.809453	6.5438	0.971881	7.80469
0.410577	3.27495	0.266753	2.10425	0.743047	5.94395	0.884893	7.05628	0.990216	7.92242			0.621321	4.97004	0.813816	6.52989	0.975467	7.77532
0.411957	3.26171	0.268835	2.1052	0.746682	5.92884	0.889171	7.0381	0.996304	7.91215			0.62348	4.95042	0.818171	6.51612	0.979069	7.74651
0.413339	3.24869	0.270916	2.10613	0.750286	5.91372	0.893454	7.02023	1.0024	7.90208			0.625617	4.93092	0.822516	6.50247	0.982688	7.71824
0.414724	3.23588	0.272997	2.10705	0.753862	5.89858	0.89774	7.00264					0.627734	4.91153	0.82685	6.48895	0.986323	7.69051
0.416113	3.22328	0.275078	2.10795	0.757407	5.88343	0.90203	6.98534					0.629829	4.89226	0.831174	6.47553	0.989974	7.66331
0.417504	3.21089	0.277159	2.10884	0.760923	5.86827	0.906324	6.96832					0.631904	4.87311	0.835486	6.46221	0.99364	7.63661
0.418899	3.19869	0.27924	2.10972	0.764409	5.8531	0.910622	6.95156					0.63396	4.85409	0.839785	6.449	0.997322	7.61042
0.420297	3.1867	0.28132	2.11058	0.767867	5.83793	0.914922	6.93507					0.635997	4.83519	0.844072	6.43587	1.00102	7.58471
0.421698	3.17489	0.283401	2.11143	0.771295	5.82275	0.919226	6.91883					0.638014	4.81641	0.848346	6.42283		
0.423102	3.16327	0.285482	2.11227	0.774695	5.80756	0.923532	6.90283					0.640014	4.79776	0.852606	6.40987		
0.424509	3.15184	0.287562	2.1131	0.778066	5.79238	0.927841	6.88708					0.641996	4.77924	0.856851	6.39698		
0.42592	3.14059	0.289643	2.11391	0.781409	5.77719	0.932152	6.87155					0.643961	4.76085	0.861082	6.38416		
0.427334	3.12952	0.291723	2.11472	0.784723	5.76201	0.936464	6.85625					0.645909	4.74258	0.865298	6.3714		
0.428752	3.11862	0.293803	2.11551	0.78801	5.74683	0.940778	6.84117					0.64784	4.72444	0.869497	6.3587		
0.430173	3.10789	0.295884	2.11629	0.791269	5.73165	0.945093	6.8263					0.649756	4.70644	0.873681	6.34605		
0.431597	3.09733	0.297964	2.11706	0.794501	5.71648	0.949409	6.81163					0.651656	4.68856	0.877848	6.33346		
0.433025	3.08694	0.300044	2.11782	0.797706	5.70132	0.953725	6.79716					0.653541	4.67081	0.881998	6.32091		
0.434456	3.07671	0.302124	2.11857	0.800884	5.68617	0.958041	6.78288					0.655411	4.65319	0.88613	6.30841		
0.43589	3.06663	0.304204	2.11931	0.804036	5.67104	0.962356	6.76879					0.657267	4.63571	0.890245	6.29594		
0.437328	3.05671	0.306284	2.12004	0.807161	5.65591	0.966671	6.75487					0.65911	4.61835	0.894342	6.28351		
0.43877	3.04695	0.308363	2.12076	0.810261	5.6408	0.970984	6.74112					0.660938	4.60113	0.89842	6.27111		
0.440215	3.03733	0.310443	2.12147	0.813334	5.62571	0.975296	6.72754					0.662754	4.58403	0.902479	6.25875		
0.441664	3.02786	0.312523	2.12217	0.816382	5.61064	0.979605	6.71412					0.664557	4.56707	0.90652	6.24641		
0.443116	3.01854	0.314603	2.12286	0.819406	5.59559	0.983912	6.70085					0.666347	4.55024	0.910541	6.23409		
0.444571	3.00935	0.316682	2.12354	0.822404	5.58056	0.988217	6.68772					0.668125	4.53354	0.914543	6.2218		
0.44603	3.00031	0.318762	2.12421	0.825378	5.56555	0.992517	6.67474					0.669892	4.51697	0.918525	6.20954		
0.447493	2.9914	0.320841	2.12488	0.828327	5.55057	0.996814	6.6619					0.671647	4.50053	0.922487	6.19729		
0.448959	2.98262	0.322921	2.12553	0.831253	5.53561	1.00111	6.64919					0.673391	4.48422	0.926429	6.18506		
0.450429	2.97398	0.325	2.12618	0.834155	5.52068							0.675124	4.46805	0.930351	6.17284		
0.451902	2.96546	0.327079	2.12682	0.837033	5.50578							0.676847	4.452	0.934252	6.16064		
0.453379	2.95707	0.329158	2.12745	0.839889	5.49092							0.67856	4.43608	0.938132	6.14845		
0.454859	2.94881	0.331238	2.12808	0.842722	5.47608							0.680263	4.42028	0.941992	6.13628		
0.456342	2.94066	0.333317	2.12869	0.845532	5.46128							0.681956	4.40462	0.945831	6.12412		
0.45783	2.93264	0.335396	2.1293	0.84832	5.44651							0.68364	4.38908	0.949648	6.11197		
0.45932	2.92473	0.337475	2.1299	0.851086	5.43177							0.685315	4.37368	0.953445	6.09982		
0.460814	2.91694	0.339554	2.13049	0.85383	5.41708							0.686981	4.35839	0.95722	6.08769		
0.462312	2.90927	0.341633	2.13108	0.856553	5.40242							0.688638	4.34324	0.960975	6.07557		
0.463813	2.9017	0.343712	2.13166	0.859255	5.3878							0.690287	4.3282	0.964707	6.06345		
0.465318	2.89424	0.345791	2.13223	0.861936	5.37322							0.691929	4.3133	0.968419	6.05134		
0.466826	2.88689	0.347869	2.1328	0.864597	5.35869							0.693562	4.29852	0.972109	6.03924		
0.468337	2.87965	0.349948	2.13336	0.867237	5.34419							0.695188	4.28386	0.975778	6.02715		
0.469852	2.87251	0.352027	2.13391	0.869858	5.32974							0.696807	4.26932	0.979426	6.01506		
0.47137	2.86547	0.354106	2.13445	0.872459	5.31533							0.698418	4.2549	0.983052	6.00299		
0.472892	2.85853	0.356184	2.13499	0.87504	5.30097							0.700023	4.24061	0.986657	5.99092		
0.474417	2.85169	0.358263	2.13553	0.877602	5.28665							0.701621	4.22644	0.990241	5.97885		
0.475946	2.84494	0.360341	2.13605	0.880145	5.27238							0.703213	4.21238	0.993804	5.9668		
0.477477	2.83829	0.36242	2.13657	0.88267	5.25815							0.704798	4.19845	0.997345	5.95475		
0.479013	2.83173	0.364498	2.13709	0.885176	5.24398							0.706378	4.18463	1.00087	5.94271		
0.480551	2.82527	0.366577	2.1376	0.887664	5.22985							0.707951	4.17093				
0.482093	2.81889	0.368655	2.1381	0.890134	5.21577							0.709519	4.15735				
0.483638	2.8126	0.370733	2.1386	0.892587	5.20175							0.711082	4.14388				
0.485186	2.8064	0.372812	2.13909	0.895022	5.18777							0.712639	4.13053				
0.486738	2.80029	0.37489	2.13958	0.89744	5.17385							0.714191	4.11729				
0.488293	2.79425	0.376968	2.14006	0.899841	5.15997							0.715738	4.10417				
0.489851	2.7883	0.379046	2.14054	0.902225	5.14615							0.71728	4.09116				
0.491413	2.78244	0.381125	2.14101	0.904593	5.13238							0.718818	4.07825				
0.492977	2.77665	0.383203	2.14147	0.906945	5.11867							0.720352	4.06546				
0.494545	2.77094	0.385281	2.14193	0.909281	5.10501							0.721881	4.05278				
0.496116	2.7653	0.387359	2.14239	0.911601	5.0914							0.723405	4.04021				
0.49769	2.75974	0.389437	2.14284	0.913906	5.07785							0.724926	4.02775				
0.499267	2.75426	0.391515	2.14329	0.916196	5.06436							0.726443	4.01539				
0.500848	2.74885	0.393593	2.14373	0.91847	5.05092							0.727957	4.00314				
0.502431	2.74351	0.395671	2.14416	0.92073	5.03753							0.729466	3.99099				
0.504017	2.73824	0.397749	2.1446	0.922975	5.0242							0.730973	3.97895				
0.505607	2.73305	0.399826	2.14502	0.925205	5.01093							0.732476	3.96701				
0.5072	2.72792	0.401904	2.14545	0.927422	4.99772							0.733976	3.95518				
0.508795	2.72285	0.403982	2.14587	0.929624	4.98456							0.735472	3.94345				
0.510394	2.71786	0.40606	2.14628	0.931813	4.97146							0.736966	3.93181				
0.511995	2.71293	0.408138	2.14669	0.933988	4.95842							0.738457	3.92028				
0.5136	2.70806	0.410215	2.1471	0.93615	4.94543							0.739946	3.90885				
0.515208	2.70326	0.412293	2.1475	0.938299	4.93251							0.741431	3.89752				
0.516818	2.69851	0.414371	2.1479	0.940435	4.91964							0.742915	3.88628				
0.518431	2.69383	0.416448	2.14829	0.942558	4.90683							0.744396	3.87514				
0.520048	2.68921	0.418526	2.14868	0.944668	4.89408							0.745874	3.8641				
0.521667	2.68465	0.420603	2.14907	0.946766	4.88139							0.747351	3.85315				
0.523289	2.68015	0.422681	2.14945	0.948852	4.86876							0.748825	3.84229				
0.524913	2.6757	0.424758	2.14983	0.950926	4.85618							0.750298	3.83153				
0.526541	2.67131	0.426836	2.15021	0.952989	4.84367							0.751768	3.82086				
0.528172	2.66698	0.428913	2.15058	0.955039	4.83121							0.753237	3.81028				
0.529805	2.6627	0.430991	2.15095	0.957079	4.81882							0.754704	3.7998				
0.531441	2.65847	0.433068	2.15131	0.959107	4.80648							0.75617	3.7894				
0.533079	2.6543	0.435145	2.15167	0.961123	4.7942							0.757634	3.77909				
0.534721	2.65017	0.437223	2.15203	0.963129	4.78199							0.759097	3.76887				
0.536365	2.6461	0.4393	2.15238	0.965125	4.76983							0.760558	3.75874				
0.538012	2.64208	0.441377	2.15273	0.96711	4.75773							0.762018	3.74869				
0.539661	2.63811	0.443455	2.15308	0.969084	4.74569							0.763477	3.73873				
0.541313	2.63419	0.445532	2.15343	0.971048	4.73371							0.764934	3.72886				
0.542968	2.63032	0.447609	2.15377	0.973002	4.72179							0.766391	3.71907				
0.544625	2.62649	0.449686	2.15411	0.974947	4.70993							0.767847	3.70936				
0.546285	2.62271	0.451763	2.15444	0.976881	4.69813							0.769301	3.69974				
0.547948	2.61898	0.453841	2.15477	0.978806	4.68639							0.770755	3.69019				
0.549613	2.61529	0.455918	2.1551	0.980722	4.67471							0.772208	3.68073				
0.55128	2.61165	0.457995	2.15543	0.982628	4.66309							0.773661	3.67135				
0.55295	2.60805	0.460072	2.15575	0.984525	4.65152							0.775112	3.66205				
0.554623	2.60449	0.462149	2.15607	0.986414	4.64002							0.776564	3.65283				
0.556298	2.60098	0.464226	2.15639	0.988293	4.62858							0.778014	3.64368				
0.557975	2.59751	0.466303	2.1567	0.990164	4.61719							0.779464	3.63461				
0.559655	2.59408	0.46838	2.15701	0.992027	4.60587							0.780914	3.62562				
0.561338	2.59069	0.470457	2.15732	0.993881	4.5946							0.782364	3.61671				
0.563022	2.58734	0.472534	2.15762	0.995726	4.58339							0.783813	3.60787				
0.56471	2.58403	0.474611	2.15793	0.997564	4.57224							0.785262	3.5991				
0.566399	2.58075	0.476688	2.15823	0.999394	4.56115							0.78671	3.59041				
0.568091	2.57752	0.478764	2.15853	1.00122	4.55012							0.788159	3.58179				
0.569785	2.57433	0.480841	2.15882									0.789607	3.57324				
0.571482	2.57117	0.482918	2.15911									0.791056	3.56477				
0.573181	2.56805	0.484995	2.1594									0.792504	3.55636				
0.574882	2.56496	0.487072	2.15969									0.793952	3.54803				
0.576585	2.56191	0.489148	2.15998									0.795401	3.53976				
0.578291	2.5589	0.491225	2.16026									0.79685	3.53157				
0.579999	2.55592	0.493302	2.16054									0.798298	3.52344				
0.581709	2.55297	0.495379	2.16082									0.799747	3.51538				
0.583421	2.55006	0.497455	2.16109									0.801197	3.50739				
0.585136	2.54718	0.499532	2.16137									0.802646	3.49946				
0.586852	2.54433	0.501609	2.16164									0.804096	3.4916				
0.588571	2.54152	0.503685	2.16191									0.805546	3.4838				
0.590292	2.53874	0.505762	2.16217									0.806997	3.47607				
0.592015	2.53599	0.507838	2.16244									0.808448	3.4684				
0.59374	2.53327	0.509915	2.1627									0.8099	3.46079				
0.595468	2.53058	0.511992	2.16296									0.811352	3.45325				
0.597197	2.52791	0.514068	2.16322									0.812804	3.44577				
0.598928	2.52528	0.516145	2.16347									0.814257	3.43835				
0.600662	2.52268	0.518221	2.16373									0.815711	3.43099				
0.602397	2.52011	0.520298	2.16398									0.817165	3.42369				
0.604135	2.51757	0.522374	2.16423									0.81862	3.41645				
0.605874	2.51505	0.524451	2.16448									0.820076	3.40927				
0.607616	2.51256	0.526527	2.16472									0.821532	3.40214				
0.609359	2.5101	0.528603	2.16497									0.822989	3.39508				
0.611104	2.50767	0.53068	2.16521									0.824447	3.38807				
0.612852	2.50526	0.532756	2.16545									0.825906	3.38112				
0.614601	2.50288	0.534832	2.16569									0.827365	3.37422				
0.616352	2.50052	0.536909	2.16592									0.828826	3.36738				
0.618105	2.49819	0.538985	2.16616									0.830287	3.3606				
0.61986	2.49588	0.541061	2.16639									0.831749	3.35387				
0.621616	2.4936	0.543138	2.16662									0.833211	3.34719				
0.623375	2.49134	0.545214	2.16685									0.834675	3.34057				
0.625135	2.48911	0.54729	2.16708									0.83614	3.334				
0.626898	2.4869	0.549366	2.1673									0.837606	3.32748				
0.628662	2.48472	0.551443	2.16753									0.839072	3.32101				
0.630428	2.48255	0.553519	2.16775									0.84054	3.3146				
0.632195	2.48042	0.555595	2.16797									0.842008	3.30824				
0.633965	2.4783	0.557671	2.16819									0.843478	3.30192				
0.635736	2.4762	0.559747	2.16841									0.844949	3.29566				
0.637509	2.47413	0.561824	2.16862									0.84642	3.28945				
0.639283	2.47208	0.5639	2.16884									0.847893	3.28328				
0.64106	2.47005	0.565976	2.16905									0.849367	3.27717				
0.642838	2.46804	0.568052	2.16926									0.850842	3.2711				
0.644617	2.46605	0.570128	2.16947									0.852318	3.26508				
0.646399	2.46408	0.572204	2.16968									0.853796	3.25911				
0.648182	2.46214	0.57428	2.16988									0.855274	3.25318				
0.649967	2.46021	0.576356	2.17009									0.856754	3.2473				
0.651753	2.4583	0.578432	2.17029									0.858235	3.24147				
0.653541	2.45641	0.580508	2.17049									0.859717	3.23568				
0.655331	2.45454	0.582584	2.17069									0.8612	3.22993				
0.657122	2.45269	0.58466	2.17089									0.862684	3.22423				
0.658915	2.45086	0.586736	2.17109									0.86417	3.21858				
0.660709	2.44905	0.588812	2.17128									0.865657	3.21297				
0.662505	2.44725	0.590888	2.17148									0.867145	3.2074				
0.664302	2.44548	0.592964	2.17167									0.868634	3.20187				
0.666101	2.44372	0.59504	2.17186									0.870125	3.19639				
0.667902	2.44198	0.597116	2.17206									0.871616	3.19095				
0.669704	2.44025	0.599192	2.17224									0.87311	3.18555				
0.671508	2.43855	0.601267	2.17243									0.874604	3.18019				
0.673313	2.43686	0.603343	2.17262									0.8761	3.17488				
0.675119	2.43518	0.605419	2.1728									0.877597	3.1696				
0.676927	2.43353	0.607495	2.17299									0.879095	3.16436				
0.678737	2.43189	0.609571	2.17317									0.880595	3.15917				
0.680548	2.43026	0.611647	2.17335									0.882096	3.15401				
0.68236	2.42865	0.613722	2.17353									0.883598	3.14889				
0.684174	2.42706	0.615798	2.17371									0.885102	3.14381				
0.685989	2.42548	0.617874	2.17389									0.886607	3.13877				
0.687806	2.42392	0.61995	2.17407									0.888114	3.13377				
0.689624	2.42238	0.622025	2.17424									0.889621	3.1288				
0.691443	2.42084	0.624101	2.17442									0.891131	3.12387				
0.693264	2.41933	0.626177	2.17459									0.892641	3.11898				
0.695086	2.41783	0.628252	2.17476									0.894153	3.11413				
0.69691	2.41634	0.630328	2.17493									0.895666	3.10931				
0.698735	2.41486	0.632404	2.1751									0.897181	3.10452				
0.700561	2.4134	0.634479	2.17527									0.898697	3.09978				
0.702389	2.41196	0.636555	2.17544									0.900215	3.09506				
0.704217	2.41053	0.638631	2.1756									0.901734	3.09039				
0.706048	2.40911	0.640706	2.17577									0.903254	3.08574				
0.707879	2.4077	0.642782	2.17593									0.904776	3.08114				
0.709712	2.40631	0.644858	2.17609									0.906299	3.07656				
0.711546	2.40493	0.646933	2.17626									0.907823	3.07202				
0.713381	2.40357	0.649009	2.17642									0.909349	3.06751				
0.715218	2.40221	0.651084	2.17658									0.910877	3.06304				
0.717056	2.40087	0.65316	2.17674									0.912405	3.0586				
0.718895	2.39955	0.655235	2.17689									0.913936	3.05419				
0.720735	2.39823	0.657311	2.17705									0.915467	3.04981				
0.722577	2.39693	0.659386	2.17721									0.917	3.04547				
0.72442	2.39564	0.661462	2.17736									0.918535	3.04115				
0.726264	2.39436	0.663537	2.17751									0.920071	3.03687				
0.728109	2.39309	0.665613	2.17767									0.921608	3.03262				
0.729955	2.39184	0.667688	2.17782									0.923147	3.0284				
0.731803	2.39059	0.669764	2.17797									0.924688	3.02421				
0.733652	2.38936	0.671839	2.17812									0.926229	3.02005				
0.735502	2.38814	0.673914	2.17827									0.927773	3.01592				
0.737353	2.38693	0.67599	2.17842									0.929317	3.01182				
0.739205	2.38573	0.678065	2.17856									0.930863	3.00775				
0.741058	2.38454	0.680141	2.17871									0.932411	3.0037				
0.742913	2.38336	0.682216	2.17885									0.93396	2.99969				
0.744768	2.38219	0.684291	2.179									0.93551	2.9957				
0.746625	2.38104	0.686367	2.17914									0.937062	2.99175				
0.748483	2.37989	0.688442	2.17928									0.938615	2.98782				
0.750342	2.37875	0.690517	2.17943									0.94017	2.98392				
0.752202	2.37763	0.692593	2.17957									0.941727	2.98005				
0.754063	2.37651	0.694668	2.17971									0.943284	2.9762				
0.755925	2.37541	0.696743	2.17985									0.944843	2.97238				
0.757789	2.37431	0.698819	2.17998									0.946404	2.96859				
0.759653	2.37322	0.700894	2.18012									0.947966	2.96483				
0.761518	2.37215	0.702969	2.18026									0.949529	2.96109				
0.763385	2.37108	0.705044	2.18039									0.951094	2.95738				
0.765252	2.37002	0.707119	2.18053									0.952661	2.95369				
0.767121	2.36897	0.709195	2.18066									0.954229	2.95003				
0.76899	2.36793	0.71127	2.1808									0.955798	2.94639				
0.770861	2.3669	0.713345	2.18093									0.957369	2.94278				
0.772733	2.36588	0.71542	2.18106									0.958941	2.9392				
0.774605	2.36487	0.717495	2.18119									0.960514	2.93564				
0.776479	2.36386	0.719571	2.18132									0.962089	2.9321				
0.778353	2.36287	0.721646	2.18145									0.963666	2.92859				
0.780229	2.36188	0.723721	2.18158									0.965244	2.9251				
0.782105	2.3609	0.725796	2.18171									0.966823	2.92164				
0.783983	2.35993	0.727871	2.18184									0.968404	2.9182				
0.785861	2.35897	0.729946	2.18196									0.969986	2.91479				
0.787741	2.35802	0.732021	2.18209									0.97157	2.91139				
0.789621	2.35707	0.734096	2.18221									0.973155	2.90803				
0.791502	2.35614	0.736172	2.18234									0.974741	2.90468				
0.793385	2.35521	0.738247	2.18246									0.976329	2.90136				
0.795268	2.35429	0.740322	2.18258									0.977919	2.89806				
0.797152	2.35337	0.742397	2.18271									0.979509	2.89478				
0.799037	2.35247	0.744472	2.18283									0.981102	2.89152				
0.800923	2.35157	0.746547	2.18295									0.982695	2.88829				
0.80281	2.35068	0.748622	2.18307									0.98429	2.88507				
0.804698	2.3498	0.750697	2.18319									0.985887	2.88188				
0.806586	2.34892	0.752772	2.18331									0.987485	2.87871				
0.808476	2.34805	0.754847	2.18342									0.989084	2.87557				
0.810366	2.34719	0.756922	2.18354									0.990685	2.87244				
0.812258	2.34634	0.758997	2.18366									0.992287	2.86933				
0.81415	2.34549	0.761072	2.18377									0.99389	2.86625				
0.816043	2.34465	0.763147	2.18389									0.995495	2.86318				
0.817937	2.34382	0.765222	2.184									0.997101	2.86014				
0.819831	2.34299	0.767297	2.18412									0.998709	2.85711				
0.821727	2.34217	0.769371	2.18423									1.00032	2.85411				
0.823623	2.34136	0.771446	2.18435														
0.825521	2.34056	0.773521	2.18446														
0.827419	2.33976	0.775596	2.18457														
0.829318	2.33896	0.777671	2.18468														
0.831217	2.33818	0.779746	2.18479														
0.833118	2.3374	0.781821	2.1849														
0.835019	2.33662	0.783896	2.18501														
0.836921	2.33586	0.78597	2.18512														
0.838824	2.3351	0.788045	2.18523														
0.840728	2.33434	0.79012	2.18533														
0.842633	2.33359	0.792195	2.18544														
0.844538	2.33285	0.79427	2.18555														
0.846444	2.33211	0.796344	2.18565														
0.848351	2.33138	0.798419	2.18576														
0.850258	2.33066	0.800494	2.18586														
0.852167	2.32994	0.802569	2.18597														
0.854076	2.32922	0.804643	2.18607														
0.855986	2.32852	0.806718	2.18617														
0.857896	2.32781	0.808793	2.18627														
0.859808	2.32712	0.810868	2.18638														
0.86172	2.32643	0.812942	2.18648														
0.863633	2.32574	0.815017	2.18658														
0.865546	2.32506	0.817092	2.18668														
0.867461	2.32439	0.819166	2.18678														
0.869376	2.32372	0.821241	2.18688														
0.871291	2.32305	0.823316	2.18698														
0.873208	2.32239	0.82539	2.18707														
0.875125	2.32174	0.827465	2.18717														
0.877043	2.32109	0.82954	2.18727														
0.878961	2.32044	0.831614	2.18737														
0.88088	2.3198	0.833689	2.18746														
0.8828	2.31917	0.835763	2.18756														
0.884721	2.31854	0.837838	2.18765														
0.886642	2.31792	0.839913	2.18775														
0.888564	2.3173	0.841987	2.18784														
0.890487	2.31668	0.844062	2.18794														
0.89241	2.31607	0.846136	2.18803														
0.894334	2.31546	0.848211	2.18812														
0.896258	2.31486	0.850285	2.18821														
0.898184	2.31427	0.85236	2.18831														
0.90011	2.31368	0.854434	2.1884														
0.902036	2.31309	0.856509	2.18849														
0.903963	2.3125	0.858583	2.18858														
0.905891	2.31193	0.860658	2.18867														
0.90782	2.31135	0.862732	2.18876														
0.909749	2.31078	0.864807	2.18885														
0.911678	2.31022	0.866881	2.18894														
0.913609	2.30965	0.868956	2.18902														
0.91554	2.3091	0.87103	2.18911														
0.917471	2.30854	0.873104	2.1892														
0.919403	2.30799	0.875179	2.18929														
0.921336	2.30745	0.877253	2.18937														
0.923269	2.30691	0.879328	2.18946														
0.925203	2.30637	0.881402	2.18954														
0.927138	2.30584	0.883476	2.18963														
0.929073	2.30531	0.885551	2.18971														
0.931009	2.30478	0.887625	2.1898														
0.932945	2.30426	0.8897	2.18988														
0.934882	2.30375	0.891774	2.18997														
0.936819	2.30323	0.893848	2.19005														
0.938757	2.30272	0.895923	2.19013														
0.940696	2.30222	0.897997	2.19022														
0.942635	2.30171	0.900071	2.1903														
0.944575	2.30121	0.902145	2.19038														
0.946515	2.30072	0.90422	2.19046														
0.948456	2.30023	0.906294	2.19054														
0.950397	2.29974	0.908368	2.19062														
0.952339	2.29926	0.910443	2.1907														
0.954282	2.29877	0.912517	2.19078														
0.956225	2.2983	0.914591	2.19086														
0.958168	2.29782	0.916665	2.19094														
0.960112	2.29735	0.918739	2.19102														
0.962057	2.29688	0.920814	2.1911														
0.964002	2.29642	0.922888	2.19117														
0.965948	2.29596	0.924962	2.19125														
0.967894	2.2955	0.927036	2.19133														
0.969841	2.29505	0.92911	2.1914														
0.971788	2.2946	0.931185	2.19148														
0.973736	2.29415	0.933259	2.19156														
0.975684	2.2937	0.935333	2.19163														
0.977633	2.29326	0.937407	2.19171														
0.979582	2.29282	0.939481	2.19178														
0.981532	2.29239	0.941555	2.19186														
0.983482	2.29195	0.943629	2.19193														
0.985433	2.29153	0.945704	2.19201														
0.987384	2.2911	0.947778	2.19208														
0.989336	2.29068	0.949852	2.19215														
0.991288	2.29026	0.951926	2.19223														
0.993241	2.28984	0.954	2.1923														
0.995194	2.28942	0.956074	2.19237														
0.997147	2.28901	0.958148	2.19244														
0.999102	2.2886	0.960222	2.19251														
1.00106	2.2882	0.962296	2.19259														
		0.96437	2.19266														
		0.966444	2.19273														
		0.968518	2.1928														
		0.970592	2.19287														
		0.972666	2.19294														
		0.97474	2.19301														
		0.976814	2.19308														
		0.978888	2.19314														
		0.980962	2.19321														
		0.983036	2.19328														
		0.98511	2.19335														
		0.987184	2.19342														
		0.989258	2.19348														
		0.991332	2.19355														
		0.993406	2.19362														
		0.99548	2.19368														
		0.997553	2.19375														
		0.999627	2.19382														
		1.0017	2.19388														
