Sym0		Asym0		Sym1		Sym2		Sym3		Sym4		Asym1		Asym2		Asym3		Asym4	
482  Points		497  Points		273  Points		207  Points		188  Points		138  Points		392  Points		225  Points		185  Points		139  Points	
Freq (MHz)	Vph (m/ms)	Freq (MHz)	Vph (m/ms)	Freq (MHz)	Vph (m/ms)	Freq (MHz)	Vph (m/ms)	Freq (MHz)	Vph (m/ms)	Freq (MHz)	Vph (m/ms)	Freq (MHz)	Vph (m/ms)	Freq (MHz)	Vph (m/ms)	Freq (MHz)	Vph (m/ms)	Freq (MHz)	Vph (m/ms)
0.00235316	5.05471	0.000312237	0.1511	0.279514	606.695	0.414502	445.913	0.559034	601.896	0.838531	1278.45	0.139811	188.719	0.419272	664.32	0.698775	1238.64	0.828971	2175.61
0.00706252	5.05464	0.000654963	0.218458	0.279563	200.776	0.414553	222.728	0.559086	300.506	0.838556	528.194	0.140042	83.7302	0.419321	268.31	0.6988	467.162	0.828987	631.501
0.0117713	5.05438	0.00112008	0.285019	0.27966	120.33	0.414639	148.459	0.559172	200.264	0.838602	332.873	0.140449	53.9312	0.419412	168.133	0.698848	287.884	0.829019	369.369
0.0164793	5.05403	0.00170426	0.350562	0.279805	85.9404	0.414759	111.355	0.559292	150.191	0.838668	243.023	0.141032	39.8853	0.419544	122.451	0.698919	208.059	0.829069	261.033
0.021186	5.05354	0.00240336	0.414858	0.279998	66.8654	0.414913	89.1071	0.559447	120.167	0.838756	191.38	0.141785	31.7362	0.419718	96.3117	0.699012	162.905	0.829136	201.844
0.0258914	5.05295	0.00321271	0.477734	0.28024	54.743	0.415102	74.284	0.559636	100.163	0.838864	157.848	0.142706	26.4304	0.419933	79.3883	0.699127	133.865	0.82922	164.544
0.0305949	5.05223	0.00412727	0.539047	0.28053	46.3617	0.415325	63.7028	0.55986	85.8818	0.838993	134.323	0.143789	22.7119	0.42019	67.5405	0.699266	113.622	0.829321	138.887
0.0352961	5.05139	0.00514154	0.598668	0.280867	40.2239	0.415583	55.7723	0.560118	75.177	0.839143	116.909	0.145029	19.9691	0.420487	58.7848	0.699427	98.7053	0.82944	120.158
0.0399947	5.05041	0.00624974	0.656486	0.281251	35.5372	0.415876	49.6088	0.56041	66.856	0.839313	103.498	0.146421	17.8684	0.420826	52.0522	0.69961	87.2582	0.829575	105.886
0.0446905	5.04932	0.00744617	0.712438	0.281683	31.843	0.416204	44.682	0.560736	60.2033	0.839505	92.8538	0.147958	16.2126	0.421206	46.7157	0.699816	78.197	0.829728	94.6499
0.049383	5.0481	0.0087249	0.766459	0.28216	28.8576	0.416568	40.6546	0.561096	54.7639	0.839717	84.2003	0.149634	14.8774	0.421627	42.3828	0.700045	70.8469	0.829898	85.5743
0.0540718	5.04675	0.0100802	0.818523	0.282684	26.396	0.416967	37.3018	0.561491	50.2343	0.83995	77.0275	0.151441	13.7806	0.422089	38.7957	0.700296	64.7655	0.830086	78.0913
0.0587566	5.04527	0.0115064	0.868619	0.283254	24.3323	0.417401	34.4678	0.561919	46.4046	0.840203	70.9857	0.153375	12.8658	0.422591	35.778	0.70057	59.651	0.83029	71.8159
0.0634368	5.04365	0.012998	0.91674	0.283869	22.5781	0.417872	32.0415	0.56238	43.1246	0.840477	65.8272	0.155428	12.0929	0.423134	33.2048	0.700866	55.29	0.830512	66.4779
0.0681122	5.04189	0.0145498	0.962912	0.284528	21.0692	0.418379	29.9413	0.562876	40.2845	0.840772	61.3719	0.157595	11.4327	0.423717	30.9851	0.701184	51.5278	0.830751	61.882
0.0727823	5.03999	0.0161568	1.00717	0.285232	19.7582	0.418922	28.1062	0.563405	37.8017	0.841087	57.4854	0.159868	10.8633	0.424339	29.0513	0.701525	48.2494	0.831008	57.8839
0.0774467	5.03795	0.0178144	1.04954	0.285979	18.6089	0.419502	26.4893	0.563967	35.6132	0.841423	54.0656	0.162242	10.3683	0.425002	27.352	0.701888	45.3672	0.831282	54.3743
0.0821049	5.03576	0.0195182	1.09008	0.286769	17.5937	0.42012	25.0543	0.564563	33.6699	0.841779	51.0333	0.164712	9.93456	0.425704	25.8473	0.702273	42.8138	0.831574	51.2689
0.0867564	5.03343	0.021264	1.12884	0.287601	16.6907	0.420774	23.7725	0.565192	31.933	0.842156	48.3265	0.167271	9.55215	0.426445	24.5061	0.702681	40.5362	0.831883	48.5019
0.0914006	5.03093	0.023048	1.16589	0.288475	15.8826	0.421467	22.6209	0.565853	30.3716	0.842554	45.8955	0.169571	9.25441	0.427226	23.3032	0.70311	38.4921	0.832209	46.021
0.0960372	5.02827	0.0248668	1.20127	0.28939	15.1556	0.422197	21.5809	0.566548	28.9606	0.842972	43.7004	0.17158	9.02321	0.428045	22.2188	0.703562	36.6476	0.832554	43.7842
0.100665	5.02545	0.0267169	1.23506	0.290346	14.4982	0.422966	20.6374	0.567275	27.6795	0.84341	41.7086	0.173273	8.84601	0.428903	21.2363	0.704035	34.9749	0.832915	41.7572
0.105285	5.02246	0.0285956	1.26733	0.291341	13.9012	0.423774	19.7777	0.568035	26.5114	0.843868	39.8932	0.174632	8.71406	0.429799	20.3422	0.704531	33.4512	0.833295	39.912
0.109895	5.01929	0.0304999	1.29812	0.292376	13.3568	0.424621	18.9914	0.568827	25.442	0.844347	38.2319	0.175642	8.62131	0.430732	19.5254	0.705048	32.0576	0.833693	38.2252
0.114495	5.01594	0.0324274	1.32752	0.293449	12.8585	0.425507	18.2698	0.569651	24.4596	0.844846	36.706	0.176293	8.56376	0.431704	18.7764	0.705587	30.7783	0.834108	36.6774
0.119084	5.0124	0.0343759	1.35558	0.294561	12.401	0.426434	17.6053	0.570507	23.5541	0.845366	35.2997	0.177235	8.48338	0.432712	18.0873	0.706148	29.5998	0.834541	35.2523
0.123662	5.00867	0.036343	1.38236	0.29571	11.9794	0.4274	16.9916	0.571395	22.7169	0.845906	33.9995	0.178268	8.39904	0.433757	17.4514	0.70673	28.5107	0.834992	33.9357
0.128228	5.00473	0.0383271	1.40794	0.296896	11.59	0.428407	16.4233	0.572314	21.9407	0.846465	32.7939	0.179686	8.28912	0.434839	16.8628	0.707334	27.5014	0.835461	32.716
0.13278	5.00058	0.0403263	1.43235	0.298119	11.2293	0.429455	15.8957	0.573265	21.2193	0.847045	31.6731	0.181502	8.15749	0.435958	16.3166	0.70796	26.5635	0.835948	31.5828
0.137319	4.99621	0.0423392	1.45567	0.299377	10.8944	0.430545	15.4048	0.574247	20.547	0.847645	30.6285	0.183728	8.00846	0.437112	15.8086	0.708607	25.6897	0.836453	30.5273
0.141844	4.99162	0.0443641	1.47795	0.300672	10.5827	0.431676	14.947	0.57526	19.9192	0.848265	29.6526	0.186383	7.84647	0.438302	15.3349	0.709275	24.8737	0.836977	29.5419
0.146353	4.98678	0.0463999	1.49924	0.302002	10.292	0.432848	14.5192	0.576303	19.3317	0.848904	28.739	0.189482	7.67587	0.439526	14.8923	0.709964	24.1101	0.837519	28.6198
0.150845	4.9817	0.0481818	1.51702	0.303367	10.0204	0.434064	14.1187	0.577378	18.7808	0.849564	27.8819	0.192635	7.51977	0.440786	14.4779	0.710674	23.3941	0.838079	27.7553
0.155319	4.97636	0.0497062	1.53164	0.304766	9.76607	0.435321	13.7432	0.578482	18.2632	0.850243	27.0762	0.195838	7.37654	0.44208	14.0893	0.711406	22.7213	0.838658	26.9431
0.159775	4.97074	0.05097	1.54336	0.306201	9.52759	0.436622	13.3904	0.579617	17.7762	0.850943	26.3177	0.199089	7.24476	0.443408	13.7241	0.712158	22.0881	0.839255	26.1787
0.164212	4.96485	0.0519713	1.55241	0.307479	9.33163	0.437966	13.0585	0.580781	17.3171	0.851661	25.6022	0.202386	7.1232	0.44477	13.3804	0.712932	21.491	0.83987	25.4581
0.168627	4.95866	0.0527086	1.55894	0.30859	9.17266	0.439353	12.7457	0.581976	16.8836	0.8524	24.9262	0.205725	7.01082	0.446165	13.0564	0.713726	20.9272	0.840505	24.7775
0.17302	4.95216	0.0531809	1.56306	0.309523	9.04649	0.440784	12.4507	0.583199	16.4739	0.853158	24.2867	0.209103	6.90667	0.447593	12.7505	0.71454	20.394	0.841158	24.1339
0.177389	4.94534	0.0538605	1.56892	0.31027	8.94995	0.442259	12.172	0.584452	16.0859	0.853935	23.6808	0.21252	6.80996	0.449054	12.4614	0.715376	19.8889	0.84183	23.5244
0.181733	4.93818	0.0546	1.57519	0.310824	8.8807	0.443778	11.9085	0.585734	15.7181	0.854732	23.1059	0.215973	6.71997	0.450546	12.1877	0.716231	19.4099	0.842521	22.9463
0.18605	4.93066	0.0556068	1.58356	0.311182	8.83714	0.445341	11.6589	0.587044	15.369	0.855549	22.5597	0.219459	6.63606	0.452071	11.9283	0.717107	18.9551	0.843231	22.3973
0.190339	4.92277	0.0568821	1.5939	0.311698	8.77552	0.446948	11.4224	0.588384	15.0373	0.856384	22.0403	0.222977	6.5577	0.453626	11.6822	0.718003	18.5226	0.84396	21.8753
0.194598	4.9145	0.0584269	1.60604	0.312264	8.70986	0.4486	11.198	0.589751	14.7217	0.857239	21.5457	0.226525	6.48437	0.455213	11.4484	0.71892	18.1109	0.844708	21.3784
0.198825	4.90582	0.0602424	1.6198	0.313041	8.62269	0.450296	10.9849	0.591146	14.4211	0.858113	21.0741	0.230102	6.41564	0.45683	11.226	0.719856	17.7187	0.845475	20.9049
0.203019	4.89672	0.0623298	1.63496	0.314036	8.51584	0.452037	10.7823	0.59257	14.1346	0.859006	20.6242	0.233705	6.35111	0.458477	11.0143	0.720813	17.3444	0.846262	20.4532
0.207176	4.88718	0.0644208	1.6495	0.315257	8.39146	0.453822	10.5895	0.59402	13.8612	0.859918	20.1943	0.237333	6.29044	0.460155	10.8126	0.721789	16.9871	0.847068	20.0218
0.211296	4.87717	0.066515	1.66344	0.316715	8.25193	0.455653	10.406	0.595499	13.6	0.860848	19.7833	0.240985	6.23331	0.461861	10.6202	0.722785	16.6455	0.847894	19.6095
0.215376	4.86668	0.068612	1.67681	0.318422	8.0998	0.457527	10.2311	0.597004	13.3503	0.861798	19.39	0.244659	6.17943	0.463597	10.4365	0.7238	16.3188	0.848739	19.215
0.219414	4.85569	0.0707114	1.68965	0.320168	7.95564	0.459446	10.0643	0.598536	13.1114	0.862767	19.0132	0.248354	6.12854	0.465361	10.261	0.724835	16.0059	0.849604	18.8372
0.223407	4.84418	0.0728129	1.70197	0.321951	7.81895	0.46141	9.90519	0.600095	12.8826	0.863754	18.652	0.252069	6.08042	0.467153	10.0931	0.72589	15.7061	0.850489	18.4752
0.227353	4.83213	0.0749162	1.71381	0.323775	7.68925	0.463417	9.75321	0.60168	12.6633	0.86476	18.3054	0.255803	6.03485	0.468973	9.93253	0.726963	15.4185	0.851394	18.128
0.23125	4.81952	0.0770209	1.72519	0.325639	7.5661	0.465469	9.60799	0.603291	12.4531	0.865784	17.9726	0.259553	5.99163	0.470821	9.7787	0.728056	15.1424	0.852319	17.7946
0.235095	4.80633	0.0791268	1.73613	0.327545	7.44913	0.467292	9.48665	0.604928	12.2512	0.866826	17.6529	0.26332	5.95061	0.472695	9.63126	0.729168	14.8773	0.853264	17.4745
0.238886	4.79255	0.0812337	1.74665	0.329494	7.33799	0.468873	9.38684	0.606591	12.0574	0.867887	17.3454	0.267102	5.91161	0.474351	9.50771	0.730299	14.6224	0.854229	17.1667
0.242621	4.77815	0.0833414	1.75678	0.331489	7.23234	0.470198	9.30674	0.60828	11.8711	0.868967	17.0495	0.270899	5.87449	0.475778	9.40584	0.731449	14.3772	0.855214	16.8706
0.246296	4.76313	0.0854497	1.76652	0.33353	7.13189	0.471258	9.2449	0.609993	11.692	0.870064	16.7645	0.274708	5.83912	0.476969	9.32389	0.732618	14.1412	0.856219	16.5856
0.24991	4.74748	0.0875584	1.77591	0.335619	7.03638	0.472043	9.20025	0.611732	11.5196	0.87118	16.49	0.278529	5.80538	0.477918	9.26051	0.733805	13.9139	0.857245	16.3111
0.25346	4.73118	0.0896675	1.78496	0.337758	6.94556	0.472549	9.17204	0.613495	11.3536	0.872313	16.2253	0.282362	5.77315	0.478619	9.21469	0.735011	13.6948	0.858292	16.0465
0.256944	4.71424	0.0917768	1.79368	0.339949	6.85921	0.473279	9.13196	0.615283	11.1937	0.873465	15.97	0.286205	5.74233	0.47907	9.1857	0.736235	13.4836	0.859359	15.7914
0.260361	4.69664	0.0938861	1.80209	0.342194	6.7771	0.474079	9.08903	0.617095	11.0395	0.874634	15.7235	0.290057	5.71283	0.47972	9.14449	0.737478	13.2797	0.860447	15.5453
0.263708	4.67839	0.0959955	1.81021	0.344495	6.69905	0.475175	9.03168	0.618932	10.8908	0.875821	15.4855	0.293918	5.68456	0.48043	9.1003	0.738739	13.0829	0.861555	15.3076
0.266984	4.6595	0.0981047	1.81804	0.346853	6.62488	0.476575	8.96082	0.620792	10.7474	0.877026	15.2555	0.297786	5.65744	0.4814	9.04119	0.740018	12.8929	0.862685	15.0781
0.270189	4.63998	0.100214	1.8256	0.34927	6.55441	0.47829	8.87754	0.622676	10.6089	0.878248	15.0331	0.301662	5.63139	0.482636	8.968	0.741316	12.7092	0.863835	14.8563
0.27332	4.61983	0.102322	1.83291	0.351749	6.48749	0.480331	8.78307	0.624584	10.4751	0.879488	14.818	0.305544	5.60634	0.484144	8.88178	0.742631	12.5315	0.865006	14.6418
0.276378	4.59909	0.104431	1.83997	0.35429	6.42397	0.482713	8.67876	0.626514	10.3458	0.880745	14.6098	0.309431	5.58224	0.485929	8.78371	0.743964	12.3597	0.866199	14.4344
0.279361	4.57777	0.106539	1.8468	0.356895	6.3637	0.485136	8.57861	0.628468	10.2208	0.882019	14.4083	0.313323	5.55901	0.488001	8.67506	0.745315	12.1934	0.867412	14.2336
0.282271	4.5559	0.108647	1.8534	0.359565	6.30654	0.487599	8.48242	0.630445	10.0999	0.883311	14.2131	0.317218	5.53661	0.490097	8.57037	0.746684	12.0324	0.868647	14.0392
0.285108	4.5335	0.110754	1.85979	0.362302	6.25237	0.490103	8.39	0.632444	9.98296	0.884619	14.0239	0.321117	5.51497	0.492217	8.46946	0.74807	11.8764	0.869903	13.851
0.287872	4.51063	0.112861	1.86597	0.365105	6.20105	0.492646	8.30114	0.634466	9.86972	0.885945	13.8405	0.325019	5.49407	0.49436	8.37212	0.749474	11.7253	0.871181	13.6685
0.290565	4.48731	0.114967	1.87196	0.367976	6.15245	0.495229	8.21568	0.636246	9.77397	0.887287	13.6626	0.328922	5.47384	0.496527	8.2782	0.750895	11.5788	0.87248	13.4917
0.293187	4.46358	0.117073	1.87776	0.370915	6.10646	0.497851	8.13347	0.637776	9.69441	0.888647	13.49	0.332826	5.45424	0.498717	8.18753	0.752333	11.4366	0.873801	13.3202
0.29574	4.43949	0.119178	1.88339	0.373921	6.06295	0.500511	8.05433	0.639051	9.63001	0.890023	13.3224	0.336731	5.43524	0.50093	8.09996	0.753789	11.2987	0.875143	13.1538
0.297911	4.41823	0.121283	1.88884	0.376994	6.0218	0.503209	7.97813	0.640065	9.57996	0.891415	13.1598	0.340635	5.4168	0.503165	8.01535	0.755262	11.1649	0.876507	12.9924
0.299723	4.39993	0.123387	1.89412	0.380133	5.9829	0.505944	7.90472	0.640814	9.54364	0.892824	13.0017	0.344539	5.39889	0.505422	7.93356	0.756753	11.0349	0.877893	12.8357
0.301194	4.38469	0.125491	1.89925	0.383337	5.94614	0.508716	7.83399	0.641295	9.5206	0.89425	12.8482	0.34844	5.38146	0.507702	7.85447	0.75826	10.9087	0.8793	12.6835
0.302341	4.37259	0.127594	1.90423	0.386604	5.91139	0.511524	7.76581	0.641988	9.48777	0.895692	12.6989	0.35234	5.3645	0.510003	7.77796	0.759784	10.7861	0.880729	12.5356
0.303176	4.36365	0.129697	1.90906	0.389934	5.87856	0.514367	7.70006	0.642743	9.45246	0.89715	12.5537	0.356237	5.34797	0.512326	7.70393	0.761326	10.6669	0.88218	12.3919
0.303706	4.35792	0.131799	1.91376	0.393324	5.84753	0.517245	7.63664	0.643776	9.40505	0.898624	12.4125	0.36013	5.33184	0.514671	7.63225	0.762884	10.551	0.883654	12.2523
0.304462	4.34967	0.1339	1.91832	0.396771	5.81819	0.520158	7.57543	0.645089	9.34608	0.900114	12.2752	0.364019	5.31608	0.517037	7.56284	0.764459	10.4382	0.885149	12.1165
0.305277	4.34067	0.136001	1.92275	0.400274	5.79045	0.523104	7.51635	0.646687	9.27622	0.90162	12.1414	0.367903	5.30069	0.519423	7.49561	0.76605	10.3286	0.886666	11.9844
0.306373	4.32841	0.138101	1.92706	0.403831	5.76421	0.526083	7.4593	0.648577	9.19624	0.903142	12.0112	0.371782	5.28562	0.521831	7.43045	0.767659	10.2219	0.888205	11.8559
0.307741	4.31286	0.140201	1.93125	0.407438	5.73938	0.529095	7.40419	0.650766	9.10696	0.90468	11.8844	0.375655	5.27086	0.52426	7.36729	0.769284	10.118	0.889766	11.7309
0.309367	4.294	0.1423	1.93533	0.411094	5.71586	0.532139	7.35094	0.652976	9.02028	0.906233	11.7609	0.379521	5.25639	0.526709	7.30606	0.770713	10.0297	0.89135	11.6091
0.311238	4.27183	0.144398	1.93929	0.414795	5.69356	0.535214	7.29947	0.655206	8.93608	0.907802	11.6405	0.383379	5.24218	0.529179	7.24666	0.771942	9.95598	0.892955	11.4906
0.313337	4.24634	0.146496	1.94316	0.41854	5.67242	0.53832	7.24971	0.657458	8.85427	0.909386	11.5231	0.38723	5.22823	0.53167	7.18904	0.772964	9.89613	0.894583	11.3752
0.315388	4.22085	0.148594	1.94692	0.422325	5.65234	0.541456	7.20158	0.659729	8.77476	0.910986	11.4087	0.391072	5.2145	0.53418	7.13313	0.773778	9.84947	0.896233	11.2627
0.317394	4.19537	0.15069	1.95058	0.426147	5.63325	0.544621	7.15502	0.662021	8.69747	0.912601	11.2971	0.394904	5.20099	0.536711	7.07886	0.774378	9.81554	0.897905	11.1532
0.319356	4.16996	0.152787	1.95415	0.430005	5.6151	0.547816	7.10996	0.664334	8.62231	0.914231	11.1883	0.398727	5.18768	0.539263	7.02617	0.774763	9.79398	0.8996	11.0464
0.321278	4.14463	0.154883	1.95763	0.433896	5.5978	0.551039	7.06634	0.666666	8.5492	0.915876	11.082	0.402539	5.17455	0.541834	6.975	0.775319	9.76322	0.901317	10.9423
0.323161	4.11941	0.156978	1.96102	0.437817	5.5813	0.554289	7.02411	0.669019	8.47807	0.917536	10.9784	0.40634	5.16159	0.544426	6.9253	0.775924	9.73008	0.903056	10.8408
0.325008	4.09433	0.159073	1.96432	0.441767	5.56554	0.557567	6.9832	0.671391	8.40886	0.919211	10.8771	0.410129	5.14879	0.547037	6.87702	0.776751	9.68549	0.904817	10.7418
0.326821	4.06941	0.161167	1.96755	0.445742	5.55048	0.560872	6.94356	0.673784	8.34148	0.920901	10.7783	0.413905	5.13612	0.549669	6.8301	0.777803	9.62988	0.906601	10.6452
0.328603	4.04467	0.163261	1.9707	0.449741	5.53604	0.564203	6.90515	0.676196	8.27588	0.922605	10.6818	0.417669	5.12359	0.552321	6.78451	0.779083	9.56377	0.908407	10.551
0.330354	4.02012	0.165355	1.97377	0.453762	5.52221	0.567559	6.86791	0.678627	8.212	0.924324	10.5875	0.421418	5.11117	0.554993	6.74019	0.780596	9.48778	0.910235	10.459
0.332078	3.99579	0.167448	1.97677	0.457802	5.50891	0.57094	6.83181	0.681078	8.14978	0.926057	10.4953	0.425153	5.09885	0.557685	6.69711	0.782347	9.40259	0.912085	10.3693
0.333775	3.97169	0.16954	1.9797	0.46186	5.49613	0.574346	6.79679	0.683549	8.08916	0.927805	10.4053	0.428874	5.08663	0.560397	6.65521	0.784115	9.31948	0.913716	10.2928
0.335448	3.94783	0.171632	1.98256	0.465935	5.48382	0.577776	6.76281	0.686039	8.03009	0.929339	10.3284	0.432578	5.0745	0.563129	6.61447	0.785899	9.23838	0.915119	10.2289
0.337098	3.92422	0.173724	1.98535	0.470024	5.47194	0.58123	6.72984	0.688548	7.97252	0.930656	10.2641	0.436267	5.06243	0.565881	6.57485	0.787699	9.15922	0.916289	10.1768
0.338727	3.90087	0.175815	1.98808	0.474125	5.46046	0.584706	6.69784	0.691077	7.91639	0.931751	10.2117	0.439938	5.05043	0.568654	6.53631	0.789515	9.08195	0.917219	10.1362
0.340336	3.87779	0.177906	1.99075	0.478238	5.44935	0.588205	6.66677	0.693624	7.86167	0.93262	10.1708	0.443592	5.03849	0.571447	6.49881	0.791347	9.0065	0.917907	10.1067
0.341927	3.85499	0.179996	1.99336	0.48236	5.43859	0.591725	6.63659	0.696191	7.80831	0.933261	10.141	0.447228	5.02659	0.57426	6.46233	0.793195	8.93281	0.918349	10.0879
0.3435	3.83247	0.182086	1.99591	0.486491	5.42814	0.595267	6.60727	0.698777	7.75626	0.933673	10.122	0.450845	5.01473	0.577093	6.42683	0.795059	8.86084	0.918986	10.061
0.345057	3.81024	0.184176	1.99841	0.490629	5.41799	0.59883	6.57878	0.701382	7.70549	0.934265	10.095	0.454443	5.0029	0.579947	6.39229	0.79694	8.79052	0.919681	10.0321
0.3466	3.7883	0.186265	2.00085	0.494773	5.4081	0.602414	6.5511	0.704007	7.65596	0.934911	10.0658	0.45802	4.9911	0.582821	6.35867	0.798836	8.7218	0.920631	9.99313
0.348128	3.76665	0.188354	2.00324	0.498921	5.39847	0.606017	6.52418	0.70665	7.60762	0.935793	10.0264	0.461578	4.97931	0.585716	6.32595	0.800748	8.65464	0.921839	9.94447
0.349644	3.7453	0.190442	2.00557	0.503073	5.38907	0.60964	6.498	0.709312	7.56045	0.936912	9.9772	0.465114	4.96753	0.588632	6.2941	0.802677	8.58899	0.923312	9.88654
0.351148	3.72424	0.19253	2.00786	0.507227	5.37987	0.613282	6.47254	0.711994	7.51441	0.938272	9.91859	0.468629	4.95576	0.591568	6.2631	0.804621	8.52481	0.925055	9.81983
0.352641	3.70348	0.194618	2.01011	0.511383	5.37087	0.616942	6.44777	0.714694	7.46946	0.939878	9.85101	0.472122	4.94398	0.594524	6.23292	0.806581	8.46204	0.927076	9.74491
0.354125	3.68302	0.196706	2.0123	0.515539	5.36205	0.62062	6.42367	0.717414	7.42558	0.941733	9.775	0.475592	4.9322	0.597502	6.20354	0.808557	8.40066	0.929119	9.67166
0.355598	3.66285	0.198793	2.01445	0.519694	5.35339	0.624316	6.4002	0.720153	7.38273	0.943601	9.70058	0.479038	4.9204	0.6005	6.17494	0.810549	8.34062	0.931183	9.60005
0.357064	3.64299	0.20088	2.01656	0.523848	5.34488	0.62803	6.37736	0.722911	7.34089	0.945484	9.62771	0.482462	4.90859	0.603519	6.14709	0.812557	8.28188	0.93327	9.53002
0.358521	3.62341	0.202966	2.01863	0.527999	5.33651	0.631759	6.35511	0.725688	7.30003	0.947379	9.55635	0.485861	4.89676	0.606558	6.11997	0.81458	8.2244	0.935379	9.46154
0.359971	3.60413	0.205052	2.02065	0.532147	5.32826	0.635505	6.33343	0.728485	7.26012	0.949288	9.48645	0.489236	4.8849	0.609619	6.09357	0.81662	8.16816	0.937509	9.39455
0.361415	3.58514	0.207138	2.02264	0.536292	5.32013	0.639267	6.31231	0.731301	7.22113	0.95121	9.41797	0.492586	4.87302	0.6127	6.06786	0.818675	8.11311	0.939661	9.32901
0.362853	3.56644	0.209224	2.02458	0.540431	5.3121	0.643044	6.29172	0.734136	7.18304	0.953145	9.35087	0.49591	4.8611	0.615802	6.04282	0.820746	8.05922	0.941834	9.26489
0.364285	3.54803	0.211309	2.02649	0.544565	5.30416	0.646837	6.27165	0.736991	7.14583	0.955093	9.28511	0.499209	4.84915	0.618924	6.01843	0.822832	8.00646	0.94403	9.20215
0.365712	3.5299	0.213394	2.02836	0.548693	5.2963	0.650643	6.25208	0.739865	7.10948	0.957054	9.22066	0.502482	4.83717	0.622067	5.99468	0.824935	7.9548	0.946246	9.14074
0.367135	3.51205	0.215479	2.0302	0.552815	5.28852	0.654463	6.23299	0.742759	7.07396	0.959028	9.15748	0.505729	4.82514	0.62523	5.97155	0.827053	7.90421	0.948484	9.08063
0.368554	3.49448	0.217563	2.032	0.556928	5.28081	0.658297	6.21436	0.745673	7.03925	0.961015	9.09553	0.508949	4.81308	0.628414	5.94903	0.829187	7.85466	0.950744	9.02179
0.36997	3.47718	0.219648	2.03377	0.561034	5.27315	0.662144	6.19618	0.748607	7.00533	0.963014	9.03478	0.512143	4.80098	0.631618	5.92708	0.831336	7.80613	0.953024	8.96418
0.371382	3.46016	0.221731	2.03551	0.565131	5.26555	0.666004	6.17843	0.751561	6.97218	0.965026	8.9752	0.515309	4.78884	0.634843	5.9057	0.833502	7.75859	0.955326	8.90776
0.372792	3.4434	0.223815	2.03721	0.569219	5.25799	0.669876	6.1611	0.754535	6.93979	0.96705	8.91677	0.518448	4.77665	0.638087	5.88488	0.835682	7.712	0.957649	8.85252
0.374199	3.42691	0.225899	2.03888	0.573296	5.25047	0.673759	6.14417	0.757529	6.90813	0.969087	8.85944	0.52156	4.76442	0.641351	5.86458	0.837879	7.66636	0.959992	8.7984
0.375604	3.41068	0.227982	2.04053	0.577364	5.24299	0.677654	6.12762	0.760544	6.87719	0.971136	8.80319	0.524644	4.75215	0.644634	5.84481	0.840091	7.62162	0.962357	8.7454
0.377008	3.3947	0.230065	2.04214	0.581421	5.23553	0.68156	6.11145	0.76358	6.84696	0.973198	8.748	0.527701	4.73984	0.647937	5.82555	0.842318	7.57778	0.964742	8.69347
0.37841	3.37898	0.232148	2.04373	0.585466	5.22809	0.685476	6.09564	0.766636	6.81741	0.975271	8.69383	0.53073	4.72749	0.651258	5.80677	0.844561	7.5348	0.967149	8.64259
0.379811	3.3635	0.23423	2.04529	0.589499	5.22067	0.689402	6.08018	0.769713	6.78853	0.977357	8.64065	0.533731	4.71509	0.654599	5.78847	0.84682	7.49267	0.969575	8.59274
0.381211	3.34828	0.236313	2.04682	0.59352	5.21327	0.693337	6.06504	0.772811	6.7603	0.979455	8.58846	0.536705	4.70266	0.657958	5.77063	0.849094	7.45137	0.972022	8.54388
0.38261	3.33329	0.238395	2.04832	0.597528	5.20587	0.697281	6.05024	0.775931	6.73272	0.981565	8.53721	0.539651	4.69018	0.661335	5.75323	0.851383	7.41086	0.97449	8.49599
0.384009	3.31855	0.240477	2.0498	0.601523	5.19848	0.701233	6.03574	0.779072	6.70577	0.983687	8.48689	0.54257	4.67767	0.66473	5.73627	0.853688	7.37115	0.976977	8.44904
0.385409	3.30403	0.242558	2.05126	0.605505	5.19109	0.705194	6.02154	0.782235	6.67943	0.98582	8.43748	0.545461	4.66512	0.668142	5.71973	0.856008	7.33219	0.979485	8.40302
0.386808	3.28975	0.24464	2.05269	0.609472	5.1837	0.709162	6.00763	0.78542	6.65369	0.987965	8.38894	0.548325	4.65254	0.671571	5.7036	0.858344	7.29399	0.982013	8.35791
0.388207	3.2757	0.246721	2.05409	0.613425	5.1763	0.713137	5.99399	0.788627	6.62854	0.990122	8.34127	0.551161	4.63993	0.675017	5.68786	0.860694	7.25651	0.98456	8.31366
0.389607	3.26186	0.248802	2.05547	0.617363	5.16889	0.717119	5.98063	0.791857	6.60397	0.992291	8.29443	0.55397	4.62728	0.678479	5.6725	0.86306	7.21975	0.987128	8.27028
0.391007	3.24825	0.250883	2.05683	0.621286	5.16147	0.721107	5.96752	0.795109	6.57996	0.994471	8.24842	0.556753	4.61461	0.681957	5.6575	0.865442	7.18368	0.989715	8.22773
0.392409	3.23486	0.252964	2.05817	0.625193	5.15404	0.7251	5.95465	0.798383	6.55651	0.996662	8.2032	0.559509	4.60192	0.68545	5.64287	0.867838	7.14829	0.992321	8.18599
0.393811	3.22167	0.255045	2.05949	0.629085	5.14659	0.729099	5.94202	0.801681	6.5336	0.998865	8.15877	0.562238	4.5892	0.688958	5.62857	0.870249	7.11356	0.994947	8.14505
0.395215	3.2087	0.257125	2.06078	0.63296	5.13912	0.733102	5.92962	0.805002	6.51122	1.00108	8.1151	0.564941	4.57646	0.692481	5.61462	0.872676	7.07948	0.997592	8.10489
0.396619	3.19593	0.259206	2.06206	0.636819	5.13163	0.737109	5.91744	0.808346	6.48936			0.567618	4.5637	0.696017	5.60098	0.875117	7.04603	1.00026	8.06548
0.398025	3.18336	0.261286	2.06331	0.640661	5.12412	0.74112	5.90547	0.811714	6.46802			0.570269	4.55093	0.699567	5.58765	0.877574	7.0132		
0.399433	3.17099	0.263366	2.06455	0.644485	5.11659	0.745134	5.8937	0.815105	6.44718			0.572895	4.53814	0.703129	5.57462	0.880046	6.98097		
0.400842	3.15881	0.265445	2.06576	0.648293	5.10903	0.749151	5.88213	0.818521	6.42684			0.575496	4.52534	0.706704	5.56188	0.882532	6.94933		
0.402254	3.14683	0.267525	2.06696	0.652083	5.10144	0.75317	5.87074	0.821961	6.40698			0.578073	4.51254	0.710291	5.54942	0.885033	6.91827		
0.403667	3.13503	0.269604	2.06814	0.655855	5.09382	0.757191	5.85953	0.825425	6.38759			0.580624	4.49973	0.713889	5.53722	0.887549	6.88778		
0.405081	3.12342	0.271684	2.0693	0.659609	5.08617	0.761213	5.84848	0.828914	6.36867			0.583152	4.48693	0.717498	5.52528	0.89008	6.85783		
0.406499	3.11199	0.273763	2.07044	0.663345	5.07849	0.765236	5.83761	0.832427	6.35021			0.585656	4.47412	0.721117	5.51359	0.892625	6.82842		
0.407918	3.10074	0.275842	2.07157	0.667062	5.07078	0.76926	5.82689	0.835965	6.33219			0.588137	4.46132	0.724746	5.50215	0.895185	6.79954		
0.409339	3.08966	0.277921	2.07268	0.67076	5.06303	0.773283	5.81632	0.839529	6.31462			0.590594	4.44852	0.728384	5.49093	0.897759	6.77118		
0.410763	3.07876	0.28	2.07377	0.67444	5.05526	0.777306	5.80589	0.843117	6.29748			0.593029	4.43573	0.732031	5.47993	0.900348	6.74332		
0.412189	3.06802	0.282078	2.07485	0.6781	5.04744	0.781329	5.7956	0.846731	6.28076			0.595442	4.42295	0.735685	5.46914	0.902951	6.71595		
0.413617	3.05745	0.284157	2.07591	0.681742	5.0396	0.78535	5.78544	0.85037	6.26446			0.597833	4.41019	0.739348	5.45856	0.905569	6.68907		
0.415048	3.04704	0.286235	2.07696	0.685363	5.03172	0.789369	5.77541	0.854035	6.24857			0.600202	4.39745	0.743017	5.44817	0.908201	6.66266		
0.416482	3.0368	0.288313	2.07799	0.688966	5.0238	0.793387	5.7655	0.857725	6.23308			0.602551	4.38472	0.746693	5.43797	0.910847	6.63671		
0.417918	3.02671	0.290391	2.07901	0.692548	5.01585	0.797402	5.75571	0.86144	6.21798			0.604878	4.37202	0.750374	5.42796	0.913508	6.61121		
0.419357	3.01677	0.292469	2.08001	0.696111	5.00786	0.801414	5.74603	0.865181	6.20327			0.607186	4.35934	0.754061	5.41811	0.916182	6.58616		
0.420799	3.00699	0.294547	2.081	0.699655	4.99984	0.805423	5.73646	0.868948	6.18893			0.609473	4.34669	0.757753	5.40843	0.918871	6.56154		
0.422243	2.99735	0.296625	2.08197	0.703178	4.99178	0.80943	5.72699	0.87274	6.17496			0.611741	4.33406	0.761449	5.39891	0.921574	6.53735		
0.42369	2.98787	0.298702	2.08294	0.706681	4.98369	0.813432	5.71762	0.876557	6.16136			0.613989	4.32147	0.76515	5.38954	0.92429	6.51357		
0.42514	2.97852	0.30078	2.08388	0.710164	4.97556	0.817431	5.70834	0.8804	6.1481			0.616219	4.3089	0.768853	5.38032	0.927021	6.4902		
0.426593	2.96932	0.302857	2.08482	0.713627	4.96739	0.821426	5.69916	0.884268	6.1352			0.618431	4.29638	0.772559	5.37124	0.929765	6.46722		
0.428049	2.96025	0.304935	2.08574	0.71707	4.9592	0.825416	5.69006	0.888161	6.12263			0.620624	4.28389	0.776268	5.36229	0.932523	6.44464		
0.429508	2.95133	0.307012	2.08665	0.720492	4.95097	0.829402	5.68105	0.892079	6.11039			0.6228	4.27143	0.779978	5.35346	0.935295	6.42244		
0.43097	2.94253	0.309089	2.08755	0.723895	4.9427	0.833384	5.67212	0.896021	6.09848			0.624958	4.25902	0.78369	5.34476	0.93808	6.40062		
0.432434	2.93387	0.311166	2.08843	0.727277	4.9344	0.83736	5.66328	0.899988	6.08688			0.6271	4.24665	0.787403	5.33617	0.940879	6.37917		
0.433902	2.92534	0.313242	2.08931	0.730639	4.92607	0.841332	5.65451	0.903979	6.07559			0.629225	4.23433	0.791116	5.3277	0.943691	6.35807		
0.435373	2.91693	0.315319	2.09017	0.73398	4.91771	0.845298	5.64581	0.907995	6.0646			0.631333	4.22205	0.794828	5.31932	0.946517	6.33733		
0.436847	2.90865	0.317396	2.09102	0.737302	4.90932	0.84926	5.63719	0.912034	6.0539			0.633426	4.20981	0.798541	5.31105	0.949356	6.31693		
0.438324	2.90049	0.319472	2.09186	0.740603	4.9009	0.853216	5.62864	0.916096	6.04349			0.635503	4.19763	0.802252	5.30288	0.952209	6.29688		
0.439804	2.89245	0.321549	2.09269	0.743884	4.89244	0.857167	5.62017	0.920181	6.03336			0.637566	4.18549	0.805962	5.29479	0.955074	6.27715		
0.441287	2.88453	0.323625	2.09351	0.747145	4.88396	0.861113	5.61175	0.924289	6.0235			0.639613	4.1734	0.80967	5.28679	0.957953	6.25775		
0.442773	2.87673	0.325701	2.09432	0.750385	4.87545	0.865053	5.60341	0.928419	6.0139			0.641646	4.16137	0.813376	5.27887	0.960845	6.23868		
0.444263	2.86904	0.327778	2.09512	0.753606	4.86692	0.868988	5.59513	0.932572	6.00456			0.643664	4.14939	0.817079	5.27103	0.96375	6.21991		
0.445755	2.86146	0.329854	2.09591	0.756807	4.85836	0.872917	5.58692	0.936745	5.99546			0.645669	4.13746	0.820778	5.26327	0.966669	6.20145		
0.447251	2.85399	0.33193	2.09668	0.759988	4.84977	0.876841	5.57876	0.94094	5.98661			0.64766	4.12559	0.824474	5.25557	0.9696	6.1833		
0.44875	2.84663	0.334006	2.09745	0.76315	4.84116	0.88076	5.57068	0.945155	5.97799			0.649638	4.11377	0.828167	5.24794	0.972543	6.16544		
0.450252	2.83938	0.336081	2.09821	0.766291	4.83253	0.884673	5.56265	0.949391	5.96961			0.651603	4.10202	0.831854	5.24037	0.9755	6.14787		
0.451757	2.83223	0.338157	2.09896	0.769413	4.82388	0.888581	5.55468	0.953646	5.96144			0.653556	4.09032	0.835537	5.23285	0.97847	6.13059		
0.453265	2.82518	0.340233	2.0997	0.772516	4.8152	0.892484	5.54677	0.95792	5.95348			0.655496	4.07868	0.839215	5.2254	0.981452	6.11359		
0.454776	2.81823	0.342308	2.10044	0.775599	4.80651	0.896381	5.53892	0.962213	5.94574			0.657424	4.06709	0.842888	5.21799	0.984447	6.09686		
0.456291	2.81139	0.344384	2.10116	0.778663	4.79779	0.900274	5.53113	0.966525	5.93819			0.65934	4.05557	0.846554	5.21064	0.987454	6.0804		
0.457809	2.80464	0.346459	2.10187	0.781708	4.78906	0.90416	5.52339	0.970854	5.93084			0.661245	4.04411	0.850214	5.20333	0.990474	6.0642		
0.45933	2.79799	0.348534	2.10258	0.784734	4.78031	0.908042	5.51571	0.975201	5.92368			0.663138	4.03272	0.853868	5.19606	0.993506	6.04827		
0.460854	2.79143	0.35061	2.10328	0.787741	4.77155	0.911919	5.50808	0.979564	5.9167			0.665021	4.02138	0.857515	5.18883	0.996551	6.03258		
0.462381	2.78496	0.352685	2.10397	0.790729	4.76277	0.91579	5.50052	0.983943	5.90989			0.666893	4.01011	0.861154	5.18164	0.999608	6.01715		
0.463911	2.77859	0.35476	2.10465	0.793699	4.75398	0.919657	5.493	0.988339	5.90325			0.668755	3.9989	0.864786	5.17449	1.00268	6.00197		
0.465445	2.7723	0.356835	2.10532	0.79665	4.74517	0.923519	5.48554	0.992749	5.89678			0.670606	3.98775	0.86841	5.16736				
0.466981	2.7661	0.35891	2.10599	0.799583	4.73636	0.927375	5.47813	0.997175	5.89047			0.672448	3.97667	0.872026	5.16027				
0.468521	2.75999	0.360985	2.10664	0.802497	4.72753	0.931227	5.47077	1.00161	5.88431			0.67428	3.96566	0.875633	5.15321				
0.470064	2.75396	0.36306	2.10729	0.805394	4.7187	0.935073	5.46346					0.676102	3.95471	0.879232	5.14617				
0.47161	2.74802	0.365134	2.10794	0.808273	4.70986	0.938915	5.45621					0.677916	3.94382	0.882821	5.13915				
0.473159	2.74216	0.367209	2.10857	0.811134	4.70101	0.942752	5.449					0.67972	3.933	0.886401	5.13215				
0.474711	2.73638	0.369283	2.1092	0.813978	4.69215	0.946584	5.44185					0.681516	3.92224	0.889971	5.12518				
0.476266	2.73068	0.371358	2.10982	0.816805	4.68329	0.950411	5.43474					0.683303	3.91156	0.893532	5.11822				
0.477824	2.72506	0.373432	2.11044	0.819614	4.67443	0.954233	5.42768					0.685082	3.90093	0.897082	5.11128				
0.479385	2.71951	0.375507	2.11104	0.822406	4.66556	0.95805	5.42066					0.686853	3.89038	0.900622	5.10435				
0.48095	2.71404	0.377581	2.11165	0.825181	4.65669	0.961862	5.41369					0.688616	3.87989	0.904151	5.09744				
0.482517	2.70864	0.379655	2.11224	0.827939	4.64782	0.96567	5.40677					0.690371	3.86947	0.90767	5.09054				
0.484088	2.70332	0.38173	2.11283	0.830681	4.63895	0.969472	5.39989					0.692119	3.85911	0.911177	5.08364				
0.485661	2.69807	0.383804	2.11341	0.833407	4.63008	0.973269	5.39305					0.69386	3.84882	0.914673	5.07676				
0.487237	2.69289	0.385878	2.11398	0.836116	4.62121	0.977061	5.38626					0.695593	3.8386	0.918158	5.06988				
0.488817	2.68778	0.387952	2.11455	0.83881	4.61235	0.980849	5.37951					0.69732	3.82845	0.921631	5.06301				
0.490399	2.68273	0.390026	2.11512	0.841487	4.60349	0.98463	5.37279					0.69904	3.81836	0.925092	5.05615				
0.491985	2.67776	0.3921	2.11567	0.844149	4.59463	0.988407	5.36612					0.700754	3.80834	0.928541	5.04929				
0.493573	2.67285	0.394173	2.11622	0.846795	4.58578	0.992179	5.35949					0.702461	3.79838	0.931978	5.04243				
0.495164	2.66801	0.396247	2.11677	0.849426	4.57693	0.995945	5.35289					0.704162	3.78849	0.935403	5.03557				
0.496758	2.66322	0.398321	2.11731	0.852042	4.56809	0.999705	5.34633					0.705857	3.77867	0.938815	5.02872				
0.498355	2.65851	0.400394	2.11784	0.854642	4.55926	1.00346	5.3398					0.707546	3.76892	0.942214	5.02187				
0.499955	2.65385	0.402468	2.11837	0.857228	4.55044							0.70923	3.75923	0.945601	5.01502				
0.501558	2.64926	0.404542	2.1189	0.859799	4.54163							0.710908	3.7496	0.948975	5.00816				
0.503163	2.64472	0.406615	2.11941	0.862356	4.53282							0.71258	3.74005	0.952336	5.00131				
0.504772	2.64025	0.408688	2.11993	0.864898	4.52403							0.714248	3.73056	0.955684	4.99445				
0.506383	2.63583	0.410762	2.12043	0.867426	4.51525							0.71591	3.72113	0.959019	4.9876				
0.507997	2.63147	0.412835	2.12093	0.86994	4.50648							0.717568	3.71177	0.962341	4.98074				
0.509614	2.62717	0.414908	2.12143	0.87244	4.49772							0.719221	3.70248	0.965649	4.97387				
0.511233	2.62292	0.416982	2.12192	0.874926	4.48898							0.720869	3.69325	0.968944	4.96701				
0.512856	2.61872	0.419055	2.12241	0.877398	4.48025							0.722513	3.68409	0.972225	4.96014				
0.514481	2.61458	0.421128	2.12289	0.879858	4.47153							0.724152	3.67499	0.975493	4.95327				
0.516109	2.61049	0.423201	2.12337	0.882304	4.46283							0.725787	3.66595	0.978747	4.94639				
0.517739	2.60646	0.425274	2.12384	0.884736	4.45414							0.727419	3.65698	0.981988	4.93951				
0.519372	2.60247	0.427347	2.12431	0.887156	4.44547							0.729046	3.64807	0.985215	4.93263				
0.521008	2.59854	0.42942	2.12478	0.889563	4.43682							0.730669	3.63923	0.988429	4.92574				
0.522647	2.59465	0.431493	2.12523	0.891958	4.42819							0.732289	3.63045	0.991629	4.91885				
0.524288	2.59082	0.433566	2.12569	0.89434	4.41957							0.733905	3.62173	0.994815	4.91195				
0.525932	2.58703	0.435638	2.12614	0.896709	4.41097							0.735517	3.61308	0.997987	4.90505				
0.527578	2.58329	0.437711	2.12659	0.899066	4.40239							0.737126	3.60449	1.00115	4.89815				
0.529227	2.5796	0.439784	2.12703	0.901412	4.39383							0.738732	3.59596						
0.530879	2.57595	0.441856	2.12746	0.903745	4.38529							0.740335	3.58749						
0.532533	2.57234	0.443929	2.1279	0.906067	4.37676							0.741935	3.57908						
0.534189	2.56879	0.446001	2.12833	0.908376	4.36826							0.743532	3.57073						
0.535849	2.56527	0.448074	2.12875	0.910675	4.35978							0.745126	3.56245						
0.53751	2.5618	0.450146	2.12917	0.912962	4.35132							0.746717	3.55423						
0.539175	2.55837	0.452219	2.12959	0.915238	4.34288							0.748305	3.54606						
0.540841	2.55498	0.454291	2.13001	0.917502	4.33447							0.749891	3.53796						
0.54251	2.55164	0.456363	2.13042	0.919756	4.32607							0.751475	3.52991						
0.544182	2.54833	0.458436	2.13082	0.921999	4.3177							0.753056	3.52193						
0.545856	2.54507	0.460508	2.13122	0.924231	4.30935							0.754635	3.514						
0.547532	2.54184	0.46258	2.13162	0.926453	4.30103							0.756212	3.50613						
0.549211	2.53866	0.464652	2.13202	0.928664	4.29272							0.757787	3.49832						
0.550892	2.53551	0.466724	2.13241	0.930865	4.28445							0.759359	3.49056						
0.552575	2.5324	0.468796	2.1328	0.933056	4.27619							0.76093	3.48287						
0.554261	2.52932	0.470869	2.13318	0.935237	4.26796							0.762499	3.47523						
0.555949	2.52628	0.472941	2.13356	0.937408	4.25976							0.764066	3.46765						
0.55764	2.52328	0.475013	2.13394	0.939569	4.25158							0.765631	3.46012						
0.559332	2.52032	0.477084	2.13432	0.94172	4.24342							0.767195	3.45265						
0.561027	2.51739	0.479156	2.13469	0.943862	4.23529							0.768757	3.44523						
0.562725	2.51449	0.481228	2.13506	0.945994	4.22719							0.770318	3.43787						
0.564424	2.51163	0.4833	2.13542	0.948117	4.21911							0.771877	3.43057						
0.566126	2.5088	0.485372	2.13578	0.950231	4.21106							0.773435	3.42331						
0.56783	2.506	0.487443	2.13614	0.952336	4.20303							0.774991	3.41612						
0.569536	2.50324	0.489515	2.1365	0.954432	4.19503							0.776546	3.40897						
0.571244	2.50051	0.491587	2.13685	0.956519	4.18706							0.778101	3.40188						
0.572955	2.49781	0.493658	2.1372	0.958597	4.17911							0.779654	3.39484						
0.574667	2.49514	0.49573	2.13754	0.960667	4.17119							0.781206	3.38786						
0.576382	2.4925	0.497801	2.13789	0.962728	4.1633							0.782757	3.38092						
0.578099	2.48989	0.499873	2.13823	0.964781	4.15543							0.784307	3.37404						
0.579818	2.48732	0.501944	2.13857	0.966825	4.1476							0.785856	3.36721						
0.581539	2.48477	0.504016	2.1389	0.968862	4.13979							0.787405	3.36043						
0.583262	2.48225	0.506087	2.13923	0.97089	4.132							0.788952	3.3537						
0.584987	2.47976	0.508158	2.13956	0.97291	4.12425							0.790499	3.34702						
0.586714	2.4773	0.51023	2.13989	0.974923	4.11652							0.792045	3.34039						
0.588443	2.47486	0.512301	2.14021	0.976928	4.10882							0.793591	3.33381						
0.590175	2.47245	0.514372	2.14053	0.978925	4.10115							0.795136	3.32727						
0.591908	2.47007	0.516444	2.14085	0.980914	4.09351							0.796681	3.32079						
0.593643	2.46772	0.518515	2.14117	0.982896	4.08589							0.798225	3.31436						
0.59538	2.46539	0.520586	2.14148	0.984871	4.07831							0.799769	3.30797						
0.597119	2.46309	0.522657	2.14179	0.986839	4.07075							0.801312	3.30163						
0.59886	2.46082	0.524728	2.1421	0.988799	4.06322							0.802855	3.29534						
0.600603	2.45856	0.526799	2.14241	0.990753	4.05572							0.804398	3.28909						
0.602348	2.45634	0.52887	2.14271	0.992699	4.04825							0.80594	3.28289						
0.604095	2.45414	0.530941	2.14301	0.994639	4.04081							0.807483	3.27674						
0.605843	2.45196	0.533012	2.14331	0.996572	4.03339							0.809025	3.27063						
0.607594	2.44981	0.535083	2.14361	0.998498	4.02601							0.810567	3.26457						
0.609346	2.44768	0.537154	2.1439	1.00042	4.01865							0.812108	3.25855						
0.6111	2.44557	0.539225	2.14419									0.81365	3.25258						
0.612856	2.44349	0.541295	2.14448									0.815192	3.24665						
0.614614	2.44143	0.543366	2.14477									0.816734	3.24076						
0.616374	2.43939	0.545437	2.14506									0.818276	3.23492						
0.618135	2.43737	0.547508	2.14534									0.819818	3.22912						
0.619898	2.43538	0.549578	2.14562									0.82136	3.22337						
0.621663	2.43341	0.551649	2.1459									0.822902	3.21766						
0.62343	2.43145	0.55372	2.14617									0.824444	3.21199						
0.625198	2.42952	0.55579	2.14645									0.825987	3.20636						
0.626968	2.42761	0.557861	2.14672									0.82753	3.20077						
0.62874	2.42572	0.559931	2.14699									0.829073	3.19522						
0.630514	2.42385	0.562002	2.14726									0.830616	3.18972						
0.632289	2.422	0.564072	2.14753									0.83216	3.18425						
0.634066	2.42017	0.566143	2.14779									0.833704	3.17883						
0.635844	2.41836	0.568213	2.14805									0.835248	3.17344						
0.637624	2.41656	0.570284	2.14831									0.836793	3.1681						
0.639406	2.41479	0.572354	2.14857									0.838338	3.16279						
0.64119	2.41304	0.574424	2.14883									0.839884	3.15752						
0.642975	2.4113	0.576495	2.14908									0.84143	3.1523						
0.644761	2.40958	0.578565	2.14933									0.842977	3.1471						
0.646549	2.40788	0.580635	2.14958									0.844524	3.14195						
0.648339	2.40619	0.582705	2.14983									0.846071	3.13684						
0.65013	2.40453	0.584776	2.15008									0.84762	3.13176						
0.651923	2.40288	0.586846	2.15033									0.849168	3.12672						
0.653718	2.40125	0.588916	2.15057									0.850718	3.12171						
0.655513	2.39963	0.590986	2.15081									0.852268	3.11675						
0.657311	2.39803	0.593056	2.15105									0.853819	3.11181						
0.65911	2.39645	0.595126	2.15129									0.85537	3.10692						
0.66091	2.39488	0.597196	2.15153									0.856922	3.10206						
0.662712	2.39333	0.599266	2.15176									0.858475	3.09723						
0.664515	2.3918	0.601336	2.15199									0.860028	3.09244						
0.66632	2.39028	0.603406	2.15223									0.861582	3.08769						
0.668127	2.38877	0.605476	2.15246									0.863137	3.08296						
0.669934	2.38728	0.607546	2.15268									0.864693	3.07828						
0.671743	2.38581	0.609616	2.15291									0.866249	3.07362						
0.673554	2.38435	0.611686	2.15314									0.867806	3.069						
0.675366	2.3829	0.613755	2.15336									0.869364	3.06442						
0.677179	2.38147	0.615825	2.15358									0.870923	3.05986						
0.678994	2.38006	0.617895	2.1538									0.872483	3.05534						
0.68081	2.37865	0.619965	2.15402									0.874043	3.05085						
0.682627	2.37727	0.622034	2.15424									0.875604	3.04639						
0.684446	2.37589	0.624104	2.15446									0.877167	3.04197						
0.686266	2.37453	0.626174	2.15467									0.87873	3.03757						
0.688088	2.37318	0.628243	2.15488									0.880294	3.03321						
0.689911	2.37185	0.630313	2.15509									0.881859	3.02888						
0.691735	2.37053	0.632382	2.1553									0.883425	3.02458						
0.69356	2.36922	0.634452	2.15551									0.884991	3.02031						
0.695387	2.36792	0.636521	2.15572									0.886559	3.01607						
0.697215	2.36664	0.638591	2.15593									0.888128	3.01186						
0.699044	2.36537	0.64066	2.15613									0.889697	3.00768						
0.700875	2.36411	0.64273	2.15633									0.891268	3.00353						
0.702707	2.36286	0.644799	2.15654									0.892839	2.99941						
0.70454	2.36162	0.646869	2.15674									0.894412	2.99531						
0.706374	2.3604	0.648938	2.15694									0.895985	2.99125						
0.70821	2.35919	0.651007	2.15713									0.89756	2.98722						
0.710046	2.35799	0.653077	2.15733									0.899136	2.98321						
0.711884	2.3568	0.655146	2.15753									0.900712	2.97923						
0.713723	2.35562	0.657215	2.15772									0.90229	2.97528						
0.715564	2.35446	0.659285	2.15791									0.903868	2.97136						
0.717405	2.3533	0.661354	2.1581									0.905448	2.96746						
0.719248	2.35216	0.663423	2.1583									0.907029	2.96359						
0.721092	2.35103	0.665492	2.15848									0.908611	2.95975						
0.722937	2.3499	0.667561	2.15867									0.910193	2.95593						
0.724783	2.34879	0.66963	2.15886									0.911777	2.95215						
0.726631	2.34769	0.671699	2.15904									0.913362	2.94838						
0.728479	2.3466	0.673769	2.15923									0.914948	2.94465						
0.730329	2.34552	0.675838	2.15941									0.916536	2.94094						
0.732179	2.34445	0.677907	2.15959									0.918124	2.93725						
0.734031	2.34338	0.679976	2.15977									0.919713	2.93359						
0.735884	2.34233	0.682045	2.15995									0.921304	2.92996						
0.737738	2.34129	0.684114	2.16013									0.922895	2.92635						
0.739593	2.34026	0.686183	2.16031									0.924488	2.92276						
0.74145	2.33924	0.688251	2.16049									0.926082	2.91921						
0.743307	2.33822	0.69032	2.16066									0.927677	2.91567						
0.745165	2.33722	0.692389	2.16084									0.929273	2.91216						
0.747025	2.33622	0.694458	2.16101									0.93087	2.90867						
0.748885	2.33524	0.696527	2.16118									0.932468	2.90521						
0.750747	2.33426	0.698596	2.16135									0.934068	2.90177						
0.752609	2.33329	0.700664	2.16152									0.935668	2.89835						
0.754473	2.33233	0.702733	2.16169									0.93727	2.89496						
0.756337	2.33138	0.704802	2.16186									0.938873	2.89159						
0.758203	2.33044	0.706871	2.16202									0.940477	2.88824						
0.76007	2.32951	0.708939	2.16219									0.942082	2.88492						
0.761937	2.32858	0.711008	2.16235									0.943689	2.88161						
0.763806	2.32766	0.713076	2.16252									0.945296	2.87833						
0.765675	2.32675	0.715145	2.16268									0.946905	2.87507						
0.767546	2.32585	0.717214	2.16284									0.948515	2.87184						
0.769417	2.32496	0.719282	2.163									0.950126	2.86862						
0.77129	2.32408	0.721351	2.16316									0.951738	2.86543						
0.773163	2.3232	0.723419	2.16332									0.953351	2.86226						
0.775038	2.32233	0.725488	2.16348									0.954966	2.85911						
0.776913	2.32147	0.727556	2.16364									0.956581	2.85598						
0.778789	2.32061	0.729625	2.16379									0.958198	2.85287						
0.780667	2.31977	0.731693	2.16395									0.959816	2.84978						
0.782545	2.31893	0.733762	2.1641									0.961436	2.84672						
0.784424	2.3181	0.73583	2.16426									0.963056	2.84367						
0.786304	2.31727	0.737898	2.16441									0.964678	2.84064						
0.788185	2.31646	0.739967	2.16456									0.9663	2.83764						
0.790067	2.31564	0.742035	2.16471									0.967924	2.83465						
0.791949	2.31484	0.744103	2.16486									0.969549	2.83168						
0.793833	2.31405	0.746172	2.16501									0.971176	2.82874						
0.795717	2.31326	0.74824	2.16516									0.972803	2.82581						
0.797603	2.31247	0.750308	2.1653									0.974432	2.8229						
0.799489	2.3117	0.752376	2.16545									0.976062	2.82001						
0.801376	2.31093	0.754444	2.1656									0.977693	2.81714						
0.803264	2.31017	0.756513	2.16574									0.979325	2.81429						
0.805153	2.30941	0.758581	2.16588									0.980959	2.81145						
0.807042	2.30866	0.760649	2.16603									0.982593	2.80864						
0.808933	2.30792	0.762717	2.16617									0.984229	2.80584						
0.810824	2.30718	0.764785	2.16631									0.985866	2.80306						
0.812716	2.30645	0.766853	2.16645									0.987504	2.8003						
0.814609	2.30572	0.768921	2.16659									0.989143	2.79756						
0.816503	2.30501	0.770989	2.16673									0.990784	2.79483						
0.818397	2.30429	0.773057	2.16687									0.992426	2.79213						
0.820293	2.30359	0.775125	2.167									0.994069	2.78944						
0.822189	2.30289	0.777193	2.16714									0.995713	2.78677						
0.824086	2.30219	0.779261	2.16728									0.997358	2.78411						
0.825984	2.3015	0.781329	2.16741									0.999004	2.78147						
0.827882	2.30082	0.783397	2.16755									1.00065	2.77885						
0.829782	2.30014	0.785465	2.16768																
0.831682	2.29947	0.787533	2.16781																
0.833583	2.29881	0.7896	2.16794																
0.835484	2.29815	0.791668	2.16808																
0.837387	2.29749	0.793736	2.16821																
0.83929	2.29684	0.795804	2.16834																
0.841194	2.2962	0.797872	2.16846																
0.843098	2.29556	0.799939	2.16859																
0.845004	2.29492	0.802007	2.16872																
0.84691	2.2943	0.804075	2.16885																
0.848817	2.29367	0.806142	2.16897																
0.850724	2.29305	0.80821	2.1691																
0.852633	2.29244	0.810278	2.16922																
0.854542	2.29183	0.812345	2.16935																
0.856451	2.29123	0.814413	2.16947																
0.858362	2.29063	0.81648	2.1696																
0.860273	2.29004	0.818548	2.16972																
0.862185	2.28945	0.820615	2.16984																
0.864097	2.28886	0.822683	2.16996																
0.866011	2.28828	0.82475	2.17008																
0.867925	2.28771	0.826818	2.1702																
0.869839	2.28714	0.828885	2.17032																
0.871754	2.28657	0.830953	2.17044																
0.87367	2.28601	0.83302	2.17056																
0.875587	2.28546	0.835087	2.17067																
0.877504	2.2849	0.837155	2.17079																
0.879422	2.28436	0.839222	2.17091																
0.881341	2.28381	0.841289	2.17102																
0.88326	2.28327	0.843357	2.17114																
0.88518	2.28274	0.845424	2.17125																
0.8871	2.28221	0.847491	2.17136																
0.889021	2.28168	0.849558	2.17148																
0.890943	2.28116	0.851626	2.17159																
0.892866	2.28064	0.853693	2.1717																
0.894789	2.28013	0.85576	2.17181																
0.896712	2.27961	0.857827	2.17192																
0.898637	2.27911	0.859894	2.17203																
0.900561	2.27861	0.861961	2.17214																
0.902487	2.27811	0.864028	2.17225																
0.904413	2.27761	0.866095	2.17236																
0.90634	2.27712	0.868163	2.17247																
0.908267	2.27664	0.87023	2.17257																
0.910195	2.27615	0.872297	2.17268																
0.912123	2.27567	0.874364	2.17279																
0.914052	2.2752	0.876431	2.17289																
0.915982	2.27472	0.878497	2.173																
0.917912	2.27426	0.880564	2.1731																
0.919843	2.27379	0.882631	2.17321																
0.921775	2.27333	0.884698	2.17331																
0.923707	2.27287	0.886765	2.17341																
0.925639	2.27242	0.888832	2.17351																
0.927572	2.27197	0.890899	2.17362																
0.929506	2.27152	0.892966	2.17372																
0.93144	2.27107	0.895032	2.17382																
0.933375	2.27063	0.897099	2.17392																
0.93531	2.2702	0.899166	2.17402																
0.937246	2.26976	0.901233	2.17412																
0.939182	2.26933	0.903299	2.17422																
0.941119	2.2689	0.905366	2.17432																
0.943057	2.26848	0.907433	2.17441																
0.944995	2.26806	0.909499	2.17451																
0.946933	2.26764	0.911566	2.17461																
0.948872	2.26722	0.913633	2.1747																
0.950812	2.26681	0.915699	2.1748																
0.952752	2.2664	0.917766	2.1749																
0.954692	2.266	0.919832	2.17499																
0.956633	2.26559	0.921899	2.17509																
0.958575	2.26519	0.923965	2.17518																
0.960517	2.2648	0.926032	2.17527																
0.96246	2.2644	0.928098	2.17537																
0.964403	2.26401	0.930165	2.17546																
0.966347	2.26362	0.932231	2.17555																
0.968291	2.26324	0.934298	2.17564																
0.970235	2.26286	0.936364	2.17574																
0.97218	2.26248	0.93843	2.17583																
0.974126	2.2621	0.940497	2.17592																
0.976072	2.26173	0.942563	2.17601																
0.978019	2.26135	0.944629	2.1761																
0.979966	2.26098	0.946696	2.17619																
0.981913	2.26062	0.948762	2.17628																
0.983861	2.26026	0.950828	2.17636																
0.985809	2.25989	0.952895	2.17645																
0.987758	2.25954	0.954961	2.17654																
0.989708	2.25918	0.957027	2.17663																
0.991657	2.25883	0.959093	2.17671																
0.993608	2.25848	0.961159	2.1768																
0.995558	2.25813	0.963225	2.17689																
0.99751	2.25778	0.965292	2.17697																
0.999461	2.25744	0.967358	2.17706																
1.00141	2.2571	0.969424	2.17714																
		0.97149	2.17723																
		0.973556	2.17731																
		0.975622	2.17739																
		0.977688	2.17748																
		0.979754	2.17756																
		0.98182	2.17764																
		0.983886	2.17772																
		0.985952	2.17781																
		0.988018	2.17789																
		0.990084	2.17797																
		0.99215	2.17805																
		0.994215	2.17813																
		0.996281	2.17821																
		0.998347	2.17829																
		1.00041	2.17837																
