Sym0		Asym0		Sym1		Sym2		Sym3		Asym1		Asym3		Asym4	
462  Points		491  Points		155  Points		118  Points		108  Points		334  Points		129  Points		103  Points	
Freq (MHz)	Vph (m/ms)	Freq (MHz)	Vph (m/ms)	Freq (MHz)	Vph (m/ms)	Freq (MHz)	Vph (m/ms)	Freq (MHz)	Vph (m/ms)	Freq (MHz)	Vph (m/ms)	Freq (MHz)	Vph (m/ms)	Freq (MHz)	Vph (m/ms)
0.00697387	8.79348	0.000485165	0.247855	0.27955	461.189	0.458691	525.578	0.559021	2255.11	0.139814	305.468	0.419266	1999.22	0.698796	971.581
0.0151652	8.7926	0.00104752	0.362569	0.279773	181.926	0.458786	254.255	0.559106	473.985	0.140303	100.981	0.419368	367.412	0.6989	423.337
0.0233528	8.79095	0.00181009	0.473741	0.280191	113.459	0.458948	167.737	0.559303	264.912	0.14128	60.8678	0.419609	202.406	0.699085	270.688
0.031535	8.78864	0.00275884	0.580498	0.280801	82.5586	0.459178	125.191	0.559611	183.903	0.142732	43.8798	0.419989	139.773	0.699353	199.001
0.0397097	8.78561	0.00387782	0.682206	0.281602	64.9911	0.459475	99.8965	0.56003	140.9	0.144642	34.5662	0.420509	106.823	0.699702	157.377
0.0478748	8.78187	0.00514974	0.778384	0.282591	53.6774	0.459842	83.1359	0.560559	114.251	0.146989	28.7302	0.421167	86.514	0.700132	130.192
0.0560283	8.7774	0.00655733	0.868794	0.283766	45.7959	0.46028	71.2187	0.561198	96.1275	0.149748	24.7605	0.421962	72.7535	0.700644	111.048
0.0641679	8.77218	0.00808343	0.953312	0.285123	40.0003	0.460789	62.3142	0.561947	83.0085	0.152894	21.906	0.422894	62.8224	0.701237	96.8412
0.0722915	8.76619	0.00971211	1.03199	0.286658	35.5667	0.461371	55.4114	0.562805	73.0778	0.1564	19.7693	0.423961	55.3237	0.70191	85.8837
0.0803967	8.7594	0.0114284	1.10498	0.288367	32.0714	0.462029	49.906	0.563771	65.3031	0.160238	18.1204	0.425163	49.4665	0.702664	77.1777
0.088481	8.75181	0.0132191	1.17249	0.290245	29.2494	0.462765	45.4151	0.564845	59.0543	0.164383	16.8173	0.426497	44.7688	0.703497	70.0961
0.0965417	8.74336	0.0150722	1.23481	0.292288	26.9271	0.463581	41.6838	0.566025	53.9249	0.168809	15.7672	0.427963	40.9206	0.704411	64.2249
0.104576	8.73403	0.0169775	1.29226	0.29449	24.9854	0.46448	38.5362	0.567311	49.6412	0.173492	14.9073	0.429558	37.7135	0.705403	59.2797
0.112581	8.72379	0.0189259	1.34518	0.296847	23.3403	0.465463	35.8469	0.568701	46.0117	0.178409	14.1935	0.431282	35.0016	0.706475	55.0588
0.120554	8.71258	0.0209099	1.39389	0.299352	21.9307	0.466536	33.524	0.570196	42.8989	0.18354	13.5941	0.433131	32.6806	0.707625	51.4151
0.128491	8.70037	0.022923	1.43872	0.301999	20.711	0.4677	31.4988	0.571792	40.2011	0.188866	13.0856	0.435104	30.6732	0.708852	48.2388
0.136389	8.6871	0.0246966	1.47488	0.304784	19.6467	0.468958	29.7188	0.57349	37.8416	0.194369	12.6503	0.437199	28.9214	0.710157	45.4461
0.144244	8.67271	0.0262204	1.50373	0.307701	18.711	0.470316	28.1432	0.575288	35.7617	0.200032	12.2745	0.439414	27.3803	0.711539	42.9724
0.152051	8.65715	0.0274874	1.52629	0.310744	17.8828	0.471775	26.7397	0.577186	33.9154	0.205842	11.948	0.441747	26.0154	0.712997	40.7666
0.159805	8.64034	0.0284931	1.54336	0.313908	17.1456	0.473341	25.4828	0.57918	32.2661	0.211784	11.6622	0.444194	24.7988	0.71453	38.788
0.167504	8.62222	0.0292345	1.55548	0.317189	16.4858	0.475017	24.3516	0.581271	30.7848	0.217845	11.4105	0.446755	23.7085	0.716139	37.0038
0.175139	8.60269	0.0297099	1.56306	0.32058	15.8925	0.476807	23.329	0.583458	29.4475	0.224016	11.1878	0.449425	22.7266	0.717821	35.3871
0.182707	8.58168	0.0303942	1.57372	0.324079	15.3567	0.478715	22.4012	0.585737	28.2349	0.230285	10.9895	0.452204	21.8382	0.719577	33.9159
0.190201	8.55909	0.0311392	1.58499	0.327682	14.8709	0.480745	21.5564	0.588109	27.1307	0.236643	10.8122	0.455088	21.0312	0.721406	32.5717
0.197613	8.53482	0.0321544	1.59981	0.331385	14.4289	0.482902	20.7848	0.590572	26.1216	0.243081	10.6528	0.458075	20.2954	0.723307	31.3392
0.204938	8.50877	0.0334412	1.61777	0.335186	14.0254	0.485189	20.0781	0.593125	25.1962	0.249591	10.5091	0.461162	19.6222	0.725279	30.2054
0.212166	8.48082	0.0350008	1.63836	0.339084	13.6561	0.487611	19.4292	0.595765	24.3448	0.256166	10.3788	0.464347	19.0043	0.727322	29.159
0.21929	8.45086	0.0368344	1.66106	0.343077	13.3172	0.490171	18.8321	0.598492	23.5593	0.262799	10.2602	0.467627	18.4356	0.729434	28.1907
0.226301	8.41878	0.0389427	1.68533	0.347166	13.0056	0.492872	18.2815	0.601304	22.8326	0.269484	10.1519	0.471	17.9107	0.731616	27.2923
0.23319	8.38445	0.0410544	1.70785	0.351351	12.7184	0.495718	17.7728	0.6042	22.1586	0.276215	10.0527	0.474463	17.425	0.733865	26.4567
0.239947	8.34776	0.0431684	1.72879	0.355634	12.4535	0.498713	17.3022	0.607179	21.5321	0.282987	9.96132	0.478014	16.9746	0.736182	25.6777
0.246563	8.30859	0.045284	1.74828	0.360017	12.2086	0.501857	16.8662	0.610238	20.9485	0.288917	9.88748	0.481649	16.5559	0.738565	24.95
0.253026	8.26685	0.0474004	1.76645	0.364503	11.9822	0.505155	16.4615	0.613377	20.4036	0.293991	9.82833	0.485367	16.166	0.741013	24.2689
0.259328	8.22245	0.0495173	1.78342	0.369096	11.7726	0.508607	16.0856	0.616594	19.8941	0.298198	9.78183	0.489166	15.8021	0.743526	23.6301
0.265458	8.17532	0.0516342	1.79928	0.3738	11.5786	0.512214	15.7361	0.619887	19.4167	0.301532	9.7465	0.493042	15.462	0.746103	23.0301
0.271408	8.12541	0.0537507	1.81414	0.378619	11.3989	0.515978	15.4106	0.623257	18.9686	0.303986	9.72128	0.496993	15.1434	0.748743	22.4655
0.277169	8.07271	0.0558668	1.82807	0.383558	11.2325	0.519899	15.1073	0.6267	18.5475	0.305559	9.70547	0.501018	14.8447	0.751444	21.9334
0.282733	8.01722	0.0579821	1.84116	0.388619	11.0784	0.523976	14.8244	0.630216	18.1511	0.307821	9.68318	0.505114	14.564	0.754207	21.4312
0.288095	7.95899	0.0600965	1.85346	0.393806	10.9359	0.528209	14.5604	0.633803	17.7773	0.310283	9.65949	0.509278	14.2999	0.75703	20.9566
0.293251	7.89812	0.0622101	1.86506	0.399122	10.8039	0.532595	14.3137	0.637461	17.4246	0.313634	9.62818	0.51351	14.0511	0.759912	20.5075
0.298196	7.83472	0.0643225	1.87599	0.404566	10.6819	0.537134	14.083	0.641187	17.0912	0.317877	9.58995	0.517806	13.8164	0.762853	20.0819
0.302932	7.76896	0.066434	1.88631	0.41014	10.5691	0.541823	13.8672	0.644981	16.7757	0.323016	9.54566	0.522164	13.5948	0.765851	19.6782
0.307457	7.70102	0.0685444	1.89608	0.415842	10.4648	0.54666	13.6651	0.648842	16.4768	0.329051	9.49618	0.526584	13.3852	0.768905	19.2948
0.311777	7.63111	0.0706537	1.90532	0.421668	10.3683	0.55164	13.4758	0.652768	16.1934	0.335984	9.44238	0.531063	13.1867	0.772015	18.9302
0.315893	7.55948	0.072762	1.91408	0.427615	10.279	0.556762	13.2982	0.656759	15.9243	0.342922	9.39145	0.5356	12.9986	0.77518	18.5833
0.319813	7.48637	0.0748692	1.9224	0.432892	10.2067	0.56202	13.1316	0.660812	15.6687	0.349861	9.34308	0.540192	12.8202	0.778399	18.2528
0.323543	7.41203	0.0769754	1.9303	0.437456	10.1487	0.567412	12.9751	0.664928	15.4255	0.356798	9.29701	0.544839	12.6508	0.781672	17.9376
0.327091	7.33672	0.0790806	1.93782	0.441275	10.1031	0.572933	12.8281	0.669106	15.194	0.363729	9.25298	0.549539	12.4897	0.784996	17.6368
0.330466	7.26069	0.0811848	1.94497	0.444322	10.0686	0.578578	12.6898	0.673343	14.9734	0.370652	9.21078	0.554291	12.3365	0.788372	17.3495
0.333677	7.18418	0.083288	1.9518	0.446576	10.0439	0.584344	12.5596	0.677641	14.7631	0.377563	9.17021	0.559093	12.1906	0.791798	17.0748
0.336733	7.1074	0.0853905	1.95831	0.448026	10.0285	0.590225	12.4369	0.681996	14.5624	0.38446	9.13109	0.563945	12.0515	0.795274	16.812
0.339644	7.03058	0.087492	1.96453	0.450118	10.0067	0.596217	12.3213	0.686411	14.3708	0.391339	9.09326	0.568845	11.9189	0.798799	16.5603
0.342419	6.9539	0.0895927	1.97047	0.452403	9.9837	0.602316	12.2122	0.690882	14.1876	0.398198	9.05656	0.573794	11.7924	0.802372	16.3192
0.345066	6.87753	0.0916926	1.97616	0.455529	9.95328	0.608516	12.1092	0.69541	14.0125	0.405033	9.02086	0.578789	11.6716	0.805993	16.088
0.347595	6.80163	0.0937918	1.98161	0.459511	9.91627	0.614813	12.0118	0.699995	13.845	0.411841	8.98603	0.583831	11.5562	0.80966	15.8661
0.350013	6.72633	0.0958902	1.98684	0.464365	9.87356	0.621202	11.9196	0.704636	13.6846	0.41862	8.95196	0.588919	11.4458	0.813374	15.6531
0.35233	6.65175	0.0979879	1.99185	0.470112	9.82612	0.627678	11.8323	0.709333	13.531	0.425367	8.91854	0.594052	11.3402	0.817132	15.4484
0.354552	6.57799	0.100085	1.99667	0.476769	9.7749	0.634237	11.7496	0.714085	13.3838	0.432078	8.88567	0.59923	11.2391	0.820936	15.2517
0.356686	6.50514	0.102181	2.00129	0.483485	9.7268	0.640874	11.6711	0.718893	13.2426	0.43875	8.85326	0.604452	11.1424	0.824783	15.0625
0.358738	6.43326	0.104277	2.00574	0.490254	9.68151	0.647584	11.5966	0.723756	13.1073	0.445381	8.82123	0.60972	11.0497	0.828674	14.8803
0.360716	6.36242	0.106373	2.01002	0.497068	9.63873	0.654362	11.5257	0.728675	12.9774	0.451968	8.78948	0.615031	10.9609	0.832608	14.7049
0.362624	6.29267	0.108467	2.01414	0.503922	9.59822	0.661204	11.4581	0.733651	12.8527	0.458507	8.75796	0.620387	10.8758	0.836583	14.536
0.364468	6.22404	0.110562	2.01812	0.510808	9.55975	0.668106	11.3938	0.738683	12.7331	0.464995	8.72659	0.625788	10.7941	0.840601	14.3731
0.366253	6.15657	0.112655	2.02195	0.517722	9.52309	0.675061	11.3323	0.743773	12.6182	0.471429	8.69531	0.631232	10.7158	0.844659	14.216
0.367984	6.09028	0.114749	2.02565	0.524659	9.48808	0.682065	11.2736	0.748922	12.5078	0.477807	8.66406	0.636013	10.6502	0.848759	14.0645
0.369664	6.02517	0.116842	2.02922	0.531613	9.45453	0.689114	11.2173	0.75413	12.4018	0.484125	8.63278	0.640115	10.5961	0.852898	13.9182
0.371297	5.96127	0.118934	2.03267	0.538579	9.4223	0.696202	11.1634	0.759399	12.3	0.490381	8.60142	0.643525	10.5526	0.857077	13.7769
0.372888	5.89858	0.121026	2.036	0.545554	9.39126	0.703323	11.1116	0.764731	12.2022	0.496571	8.56994	0.646233	10.5189	0.861295	13.6404
0.374439	5.83708	0.123118	2.03922	0.552534	9.36127	0.710474	11.0617	0.770127	12.1083	0.502692	8.53829	0.648231	10.4946	0.865551	13.5085
0.375954	5.77679	0.125209	2.04234	0.559516	9.33224	0.717647	11.0137	0.77559	12.0182	0.508742	8.50644	0.649513	10.4792	0.869847	13.381
0.377435	5.7177	0.1273	2.04537	0.566495	9.30406	0.724839	10.9672	0.781122	11.9316	0.514718	8.47435	0.651359	10.4573	0.874179	13.2576
0.378885	5.65978	0.12939	2.04829	0.573468	9.27664	0.732042	10.9222	0.786726	11.8486	0.520618	8.44199	0.653372	10.4339	0.87855	13.1383
0.380307	5.60304	0.131481	2.05113	0.580434	9.24991	0.739251	10.8786	0.792405	11.769	0.526439	8.40934	0.656117	10.4026	0.882957	13.0227
0.381702	5.54745	0.133571	2.05388	0.587388	9.22379	0.745533	10.8415	0.798162	11.6927	0.532179	8.37636	0.659605	10.3638	0.887402	12.9109
0.383074	5.493	0.13566	2.05655	0.594329	9.19821	0.750885	10.8105	0.804001	11.6196	0.537835	8.34304	0.663845	10.3182	0.891882	12.8025
0.384423	5.43967	0.13775	2.05914	0.601255	9.17312	0.755307	10.7853	0.809925	11.5497	0.543406	8.30937	0.668848	10.2665	0.896399	12.6975
0.385752	5.38745	0.139839	2.06166	0.608162	9.14846	0.7588	10.7656	0.815938	11.4829	0.54889	8.27533	0.674631	10.2092	0.900951	12.5958
0.387062	5.33631	0.141928	2.0641	0.615049	9.12418	0.761366	10.7513	0.822044	11.4191	0.554286	8.24091	0.680457	10.1542	0.905538	12.4971
0.388355	5.28624	0.144016	2.06648	0.621913	9.10023	0.763006	10.7421	0.828247	11.3583	0.559591	8.20612	0.686325	10.1013	0.91016	12.4014
0.389632	5.23721	0.146105	2.06879	0.628754	9.07658	0.765363	10.7291	0.834551	11.3003	0.564805	8.17094	0.692234	10.0505	0.914817	12.3086
0.390895	5.1892	0.148193	2.07103	0.635568	9.05319	0.767922	10.715	0.840959	11.2452	0.569927	8.13539	0.698185	10.0016	0.919508	12.2186
0.392145	5.14219	0.150281	2.07322	0.642355	9.03002	0.771397	10.6959	0.847473	11.1929	0.574957	8.09946	0.704175	9.95455	0.924233	12.1312
0.393384	5.09617	0.152368	2.07534	0.649112	9.00704	0.775783	10.672	0.854096	11.1433	0.579893	8.06317	0.710205	9.90927	0.928991	12.0463
0.394611	5.0511	0.154456	2.07741	0.655837	8.98421	0.781071	10.6434	0.859958	11.1021	0.584735	8.02652	0.716272	9.86568	0.933782	11.9639
0.395829	5.00697	0.156543	2.07943	0.66253	8.96152	0.787249	10.6102	0.865022	11.0686	0.589484	7.98953	0.722376	9.82368	0.938606	11.8838
0.397037	4.96376	0.15863	2.08139	0.669189	8.93894	0.794302	10.5725	0.869256	11.0419	0.59414	7.95221	0.728515	9.78321	0.943462	11.8061
0.398238	4.92145	0.160717	2.08331	0.675811	8.91643	0.801311	10.5352	0.872633	11.0215	0.598702	7.91458	0.734687	9.74419	0.94835	11.7305
0.399432	4.88001	0.162804	2.08518	0.682397	8.89398	0.808272	10.4981	0.875132	11.0068	0.603172	7.87666	0.740892	9.70653	0.953269	11.657
0.400619	4.83943	0.164891	2.087	0.688943	8.87158	0.815183	10.4613	0.87674	10.9975	0.607551	7.83847	0.747127	9.67018	0.95822	11.5855
0.401649	4.80475	0.166977	2.08878	0.695449	8.84919	0.822042	10.4247	0.87906	10.9845	0.611838	7.80003	0.75339	9.63506	0.963201	11.516
0.402524	4.77567	0.169064	2.09051	0.701914	8.8268	0.828848	10.3882	0.881595	10.9705	0.616036	7.76135	0.759681	9.60111	0.968213	11.4484
0.403245	4.75197	0.17115	2.0922	0.708335	8.8044	0.835601	10.352	0.885065	10.952	0.620145	7.72248	0.765996	9.56825	0.972605	11.391
0.403815	4.73344	0.173236	2.09385	0.714712	8.78196	0.842301	10.3159	0.88949	10.9294	0.624167	7.68342	0.772334	9.53644	0.976367	11.3431
0.404233	4.71993	0.175322	2.09547	0.721044	8.75948	0.848952	10.2801	0.894893	10.9031	0.628103	7.6442	0.778693	9.5056	0.97949	11.3042
0.4045	4.71133	0.177408	2.09705	0.727328	8.73694	0.855554	10.2444	0.901303	10.8736	0.631955	7.60484	0.785071	9.47569	0.981967	11.2739
0.404884	4.69905	0.179493	2.09859	0.733565	8.71432	0.862112	10.2091	0.90875	10.8416	0.635724	7.56537	0.791466	9.44665	0.983792	11.2519
0.405301	4.68579	0.181579	2.10009	0.739752	8.69163	0.868629	10.174	0.916291	10.8114	0.639411	7.52581	0.797876	9.41842	0.984963	11.2379
0.405867	4.66792	0.183664	2.10157	0.745889	8.66884	0.875109	10.1392	0.923921	10.7828	0.643019	7.48618	0.804299	9.39096	0.986648	11.218
0.406583	4.64557	0.185749	2.10301	0.751974	8.64594	0.881555	10.1048	0.931635	10.7559	0.646549	7.44651	0.810733	9.36421	0.988483	11.1965
0.407446	4.61891	0.187835	2.10442	0.758007	8.62293	0.887971	10.0708	0.939427	10.7305	0.650003	7.40681	0.817176	9.33814	0.990984	11.1676
0.408458	4.58814	0.18992	2.1058	0.763986	8.5998	0.894362	10.0373	0.947292	10.7064	0.653383	7.36711	0.823626	9.3127	0.994157	11.1315
0.409616	4.55351	0.192005	2.10715	0.769911	8.57655	0.900731	10.0041	0.955226	10.6835	0.656691	7.32743	0.830081	9.28784	0.998008	11.0887
0.410774	4.51956	0.19409	2.10847	0.77578	8.55316	0.907081	9.97147	0.963224	10.6619	0.659928	7.28778	0.836539	9.26353	1.00255	11.0395
0.41193	4.48629	0.196174	2.10976	0.781593	8.52963	0.913416	9.93931	0.971281	10.6413	0.663096	7.24819	0.842999	9.23973		
0.413086	4.45369	0.198259	2.11103	0.787349	8.50596	0.919738	9.90766	0.979393	10.6218	0.666197	7.20868	0.849457	9.2164		
0.414241	4.42172	0.200344	2.11227	0.793048	8.48214	0.926051	9.87654	0.987555	10.6031	0.669233	7.16925	0.855913	9.19351		
0.415396	4.39039	0.202428	2.11349	0.798687	8.45818	0.932356	9.84595	0.995764	10.5854	0.672206	7.12994	0.862365	9.17103		
0.416551	4.35967	0.204512	2.11468	0.804268	8.43406	0.938656	9.8159	1.00402	10.5685	0.675117	7.09074	0.86881	9.14893		
0.417707	4.32955	0.206597	2.11585	0.809789	8.40979	0.944952	9.78639			0.677969	7.05169	0.875248	9.12717		
0.418864	4.30001	0.208681	2.11699	0.815251	8.38537	0.951247	9.75742			0.680762	7.01278	0.881676	9.10574		
0.420021	4.27105	0.210765	2.11812	0.820651	8.3608	0.95754	9.729			0.6835	6.97405	0.888094	9.0846		
0.42118	4.24264	0.212849	2.11922	0.825991	8.33608	0.963834	9.70112			0.686182	6.93549	0.894498	9.06372		
0.422341	4.21477	0.214933	2.1203	0.83127	8.3112	0.97013	9.67377			0.688812	6.89712	0.900888	9.0431		
0.423503	4.18744	0.217017	2.12136	0.836487	8.28618	0.976428	9.64694			0.69139	6.85895	0.907262	9.0227		
0.424668	4.16062	0.219101	2.1224	0.841644	8.26101	0.982728	9.62063			0.693919	6.82099	0.913618	9.0025		
0.425834	4.13431	0.221185	2.12342	0.846738	8.2357	0.989031	9.59482			0.6964	6.78325	0.919956	8.98249		
0.427003	4.10849	0.223269	2.12442	0.851771	8.21026	0.995338	9.56951			0.698834	6.74574	0.926274	8.96264		
0.428174	4.08316	0.225352	2.12541	0.856743	8.18467	1.00165	9.54468			0.701223	6.70847	0.93257	8.94293		
0.429347	4.05829	0.227436	2.12637	0.861653	8.15896					0.703568	6.67144	0.938842	8.92336		
0.430524	4.03389	0.229519	2.12732	0.866502	8.13312					0.705871	6.63466	0.945091	8.9039		
0.431703	4.00993	0.231603	2.12826	0.87129	8.10716					0.708133	6.59814	0.951313	8.88454		
0.432885	3.98641	0.233686	2.12917	0.876017	8.08109					0.710356	6.56189	0.957509	8.86527		
0.434071	3.96333	0.23577	2.13007	0.880683	8.05491					0.71254	6.5259	0.963677	8.84606		
0.43526	3.94066	0.237853	2.13096	0.885289	8.02862					0.714688	6.49019	0.969816	8.82692		
0.436452	3.9184	0.239936	2.13183	0.889836	8.00224					0.716799	6.45475	0.975924	8.80783		
0.437647	3.89653	0.242019	2.13268	0.894323	7.97576					0.718877	6.4196	0.982001	8.78877		
0.438846	3.87506	0.244103	2.13352	0.898751	7.9492					0.720921	6.38473	0.988045	8.76974		
0.440048	3.85398	0.246186	2.13435	0.90312	7.92256					0.722933	6.35015	0.994056	8.75073		
0.441254	3.83326	0.248269	2.13516	0.907432	7.89585					0.724913	6.31586	1.00003	8.73172		
0.442464	3.81291	0.250352	2.13596	0.911686	7.86907					0.726864	6.28186				
0.443678	3.79292	0.252435	2.13675	0.915883	7.84223					0.728786	6.24816				
0.444895	3.77327	0.254518	2.13752	0.920023	7.81534					0.73068	6.21475				
0.446117	3.75397	0.256601	2.13828	0.924108	7.7884					0.732547	6.18165				
0.447342	3.73499	0.258683	2.13903	0.928138	7.76142					0.734387	6.14884				
0.448571	3.71635	0.260766	2.13977	0.932113	7.7344					0.736203	6.11633				
0.449805	3.69802	0.262849	2.14049	0.936035	7.70735					0.737994	6.08412				
0.451042	3.68001	0.264932	2.14121	0.939903	7.68029					0.739762	6.0522				
0.452284	3.6623	0.267014	2.14191	0.943719	7.6532					0.741508	6.02059				
0.45353	3.64489	0.269097	2.1426	0.947483	7.6261					0.743232	5.98928				
0.45478	3.62777	0.27118	2.14329	0.951196	7.599					0.744934	5.95827				
0.456034	3.61094	0.273262	2.14396	0.954858	7.5719					0.746617	5.92755				
0.457292	3.59438	0.275345	2.14462	0.95847	7.5448					0.74828	5.89713				
0.458555	3.57811	0.277427	2.14527	0.962034	7.51772					0.749924	5.86701				
0.459822	3.5621	0.27951	2.14592	0.965549	7.49065					0.75155	5.83719				
0.461093	3.54635	0.281592	2.14655	0.969016	7.4636					0.753159	5.80765				
0.462369	3.53086	0.283674	2.14717	0.972437	7.43658					0.75475	5.77841				
0.463648	3.51562	0.285757	2.14779	0.975811	7.4096					0.756326	5.74947				
0.464933	3.50062	0.287839	2.14839	0.97914	7.38264					0.757886	5.72081				
0.466221	3.48587	0.289921	2.14899	0.982424	7.35573					0.759431	5.69243				
0.467514	3.47136	0.292004	2.14958	0.985664	7.32887					0.760961	5.66435				
0.468811	3.45707	0.294086	2.15016	0.988861	7.30205					0.762478	5.63654				
0.470113	3.44301	0.296168	2.15074	0.992015	7.27529					0.763981	5.60902				
0.471419	3.42918	0.29825	2.1513	0.995127	7.24858					0.765471	5.58178				
0.472729	3.41556	0.300332	2.15186	0.998198	7.22194					0.766948	5.55482				
0.474044	3.40216	0.302414	2.15241	1.00123	7.19536					0.768414	5.52813				
0.475362	3.38896	0.304497	2.15295							0.769868	5.50171				
0.476686	3.37597	0.306579	2.15349							0.771311	5.47557				
0.478013	3.36318	0.308661	2.15401							0.772743	5.44969				
0.479345	3.35059	0.310743	2.15453							0.774166	5.42408				
0.480682	3.33819	0.312825	2.15505							0.775578	5.39873				
0.482022	3.32598	0.314907	2.15556							0.776981	5.37365				
0.483367	3.31396	0.316989	2.15606							0.778374	5.34882				
0.484716	3.30211	0.31907	2.15655							0.779759	5.32425				
0.48607	3.29045	0.321152	2.15704							0.781136	5.29993				
0.487427	3.27896	0.323234	2.15752							0.782504	5.27587				
0.488789	3.26764	0.325316	2.158							0.783865	5.25205				
0.490156	3.25649	0.327398	2.15847							0.785218	5.22848				
0.491526	3.24551	0.32948	2.15893							0.786564	5.20515				
0.492901	3.23468	0.331561	2.15939							0.787904	5.18206				
0.49428	3.22402	0.333643	2.15984							0.789237	5.15921				
0.495663	3.21351	0.335725	2.16029							0.790563	5.1366				
0.49705	3.20316	0.337807	2.16073							0.791884	5.11422				
0.498441	3.19295	0.339888	2.16116							0.793199	5.09207				
0.499837	3.1829	0.34197	2.16159							0.794508	5.07015				
0.501236	3.17298	0.344052	2.16202							0.795812	5.04846				
0.50264	3.16321	0.346133	2.16244							0.797111	5.02699				
0.504048	3.15358	0.348215	2.16286							0.798405	5.00574				
0.505459	3.14409	0.350297	2.16327							0.799695	4.9847				
0.506875	3.13473	0.352378	2.16367							0.80098	4.96389				
0.508295	3.1255	0.35446	2.16407							0.802261	4.94328				
0.509719	3.1164	0.356541	2.16447							0.803538	4.92289				
0.511147	3.10743	0.358623	2.16486							0.804812	4.90271				
0.512579	3.09858	0.360704	2.16525							0.806081	4.88273				
0.514015	3.08986	0.362786	2.16563							0.807348	4.86296				
0.515454	3.08126	0.364868	2.16601							0.808611	4.84339				
0.516898	3.07277	0.366949	2.16639							0.809871	4.82401				
0.518345	3.0644	0.36903	2.16676							0.811128	4.80483				
0.519796	3.05615	0.371112	2.16712							0.812383	4.78585				
0.521252	3.04801	0.373193	2.16748							0.813634	4.76706				
0.52271	3.03998	0.375275	2.16784							0.814884	4.74846				
0.524173	3.03206	0.377356	2.1682							0.816131	4.73005				
0.52564	3.02424	0.379438	2.16855							0.817376	4.71182				
0.52711	3.01653	0.381519	2.16889							0.818619	4.69377				
0.528584	3.00892	0.3836	2.16924							0.819859	4.67591				
0.530061	3.00141	0.385682	2.16957							0.821099	4.65823				
0.531542	2.994	0.387763	2.16991							0.822336	4.64072				
0.533027	2.9867	0.389844	2.17024							0.823572	4.62338				
0.534516	2.97948	0.391926	2.17057							0.824807	4.60622				
0.536008	2.97236	0.394007	2.1709							0.82604	4.58923				
0.537504	2.96534	0.396088	2.17122							0.827272	4.57241				
0.539003	2.9584	0.398169	2.17154							0.828503	4.55575				
0.540506	2.95156	0.400251	2.17185							0.829733	4.53926				
0.542012	2.9448	0.402332	2.17216							0.830962	4.52293				
0.543522	2.93813	0.404413	2.17247							0.832191	4.50676				
0.545035	2.93155	0.406494	2.17278							0.833418	4.49075				
0.546552	2.92505	0.408576	2.17308							0.834645	4.4749				
0.548072	2.91863	0.410657	2.17338							0.835872	4.4592				
0.549596	2.91229	0.412738	2.17367							0.837098	4.44365				
0.551123	2.90604	0.414819	2.17397							0.838323	4.42826				
0.552653	2.89986	0.4169	2.17426							0.839549	4.41301				
0.554187	2.89376	0.418981	2.17455							0.840774	4.39791				
0.555724	2.88774	0.421063	2.17483							0.841999	4.38296				
0.557264	2.88179	0.423144	2.17511							0.843224	4.36815				
0.558807	2.87591	0.425225	2.17539							0.844449	4.35349				
0.560354	2.87011	0.427306	2.17567							0.845674	4.33896				
0.561904	2.86438	0.429387	2.17594							0.846899	4.32458				
0.563457	2.85872	0.431468	2.17621							0.848125	4.31033				
0.565014	2.85313	0.433549	2.17648							0.849351	4.29621				
0.566573	2.84761	0.43563	2.17675							0.850577	4.28223				
0.568136	2.84215	0.437711	2.17701							0.851803	4.26839				
0.569701	2.83676	0.439792	2.17727							0.85303	4.25467				
0.57127	2.83144	0.441873	2.17753							0.854257	4.24108				
0.572842	2.82618	0.443954	2.17779							0.855485	4.22763				
0.574417	2.82098	0.446035	2.17804							0.856714	4.21429				
0.575995	2.81585	0.448116	2.17829							0.857943	4.20108				
0.577576	2.81077	0.450197	2.17854							0.859173	4.188				
0.57916	2.80576	0.452278	2.17879							0.860404	4.17504				
0.580747	2.80081	0.454359	2.17903							0.861635	4.1622				
0.582337	2.79591	0.45644	2.17928							0.862867	4.14947				
0.583929	2.79107	0.458521	2.17952							0.8641	4.13687				
0.585525	2.78629	0.460602	2.17975							0.865334	4.12438				
0.587124	2.78157	0.462683	2.17999							0.866569	4.11201				
0.588725	2.7769	0.464764	2.18022							0.867805	4.09975				
0.590329	2.77228	0.466845	2.18046							0.869042	4.0876				
0.591936	2.76772	0.468926	2.18068							0.870281	4.07556				
0.593546	2.76321	0.471007	2.18091							0.87152	4.06364				
0.595159	2.75875	0.473088	2.18114							0.87276	4.05182				
0.596774	2.75434	0.475169	2.18136							0.874002	4.04011				
0.598392	2.74998	0.47725	2.18158							0.875245	4.0285				
0.600013	2.74568	0.479331	2.1818							0.876489	4.017				
0.601637	2.74142	0.481411	2.18202							0.877734	4.0056				
0.603263	2.73721	0.483492	2.18224							0.87898	3.99431				
0.604892	2.73304	0.485573	2.18245							0.880228	3.98311				
0.606523	2.72893	0.487654	2.18266							0.881477	3.97202				
0.608157	2.72486	0.489735	2.18288							0.882728	3.96103				
0.609794	2.72083	0.491816	2.18308							0.88398	3.95013				
0.611433	2.71685	0.493896	2.18329							0.885234	3.93933				
0.613075	2.71292	0.495977	2.1835							0.886488	3.92863				
0.61472	2.70903	0.498058	2.1837							0.887745	3.91802				
0.616367	2.70518	0.500139	2.1839							0.889003	3.9075				
0.618016	2.70137	0.50222	2.1841							0.890262	3.89708				
0.619668	2.6976	0.504301	2.1843							0.891523	3.88675				
0.621323	2.69388	0.506381	2.1845							0.892785	3.8765				
0.622979	2.6902	0.508462	2.18469							0.894049	3.86635				
0.624639	2.68655	0.510543	2.18489							0.895315	3.85629				
0.6263	2.68295	0.512624	2.18508							0.896582	3.84631				
0.627965	2.67938	0.514704	2.18527							0.897851	3.83642				
0.629631	2.67586	0.516785	2.18546							0.899122	3.82661				
0.6313	2.67237	0.518866	2.18565							0.900394	3.81689				
0.632971	2.66892	0.520947	2.18583							0.901668	3.80726				
0.634645	2.6655	0.523027	2.18602							0.902944	3.7977				
0.636321	2.66212	0.525108	2.1862							0.904221	3.78823				
0.637999	2.65878	0.527189	2.18638							0.9055	3.77884				
0.639679	2.65547	0.529269	2.18656							0.906781	3.76953				
0.641362	2.6522	0.53135	2.18674							0.908063	3.76029				
0.643047	2.64896	0.533431	2.18692							0.909347	3.75114				
0.644734	2.64576	0.535512	2.1871							0.910633	3.74206				
0.646423	2.64259	0.537592	2.18727							0.911921	3.73306				
0.648115	2.63945	0.539673	2.18745							0.913211	3.72414				
0.649809	2.63634	0.541754	2.18762							0.914502	3.71529				
0.651505	2.63327	0.543834	2.18779							0.915796	3.70651				
0.653203	2.63023	0.545915	2.18796							0.917091	3.69781				
0.654903	2.62722	0.547996	2.18813							0.918388	3.68918				
0.656605	2.62424	0.550076	2.18829							0.919686	3.68062				
0.65831	2.62129	0.552157	2.18846							0.920987	3.67214				
0.660016	2.61837	0.554238	2.18862							0.92229	3.66372				
0.661725	2.61548	0.556318	2.18879							0.923594	3.65537				
0.663436	2.61262	0.558399	2.18895							0.9249	3.64709				
0.665148	2.60979	0.56048	2.18911							0.926208	3.63888				
0.666863	2.60699	0.56256	2.18927							0.927518	3.63074				
0.66858	2.60422	0.564641	2.18943							0.92883	3.62266				
0.670299	2.60147	0.566721	2.18959							0.930144	3.61465				
0.672019	2.59875	0.568802	2.18974							0.93146	3.60671				
0.673742	2.59606	0.570883	2.1899							0.932778	3.59883				
0.675467	2.5934	0.572963	2.19005							0.934097	3.59101				
0.677193	2.59076	0.575044	2.1902							0.935419	3.58325				
0.678922	2.58815	0.577124	2.19036							0.936742	3.57556				
0.680652	2.58556	0.579205	2.19051							0.938067	3.56793				
0.682385	2.583	0.581286	2.19066							0.939395	3.56037				
0.684119	2.58046	0.583366	2.19081							0.940724	3.55286				
0.685855	2.57795	0.585447	2.19095							0.942055	3.54541				
0.687593	2.57546	0.587527	2.1911							0.943388	3.53802				
0.689333	2.573	0.589608	2.19124							0.944724	3.53069				
0.691075	2.57056	0.591688	2.19139							0.946061	3.52342				
0.692818	2.56815	0.593769	2.19153							0.9474	3.51621				
0.694563	2.56576	0.595849	2.19167							0.948741	3.50905				
0.69631	2.56339	0.59793	2.19182							0.950084	3.50195				
0.698059	2.56104	0.600011	2.19196							0.951428	3.4949				
0.69981	2.55872	0.602091	2.1921							0.952775	3.48791				
0.701562	2.55642	0.604172	2.19223							0.954124	3.48098				
0.703316	2.55414	0.606252	2.19237							0.955475	3.4741				
0.705072	2.55188	0.608333	2.19251							0.956828	3.46727				
0.70683	2.54964	0.610413	2.19264							0.958183	3.4605				
0.708589	2.54743	0.612494	2.19278							0.959539	3.45378				
0.71035	2.54523	0.614574	2.19291							0.960898	3.44711				
0.712113	2.54306	0.616655	2.19305							0.962259	3.44049				
0.713877	2.54091	0.618735	2.19318							0.963621	3.43392				
0.715643	2.53877	0.620816	2.19331							0.964986	3.4274				
0.717411	2.53666	0.622896	2.19344							0.966353	3.42094				
0.71918	2.53457	0.624977	2.19357							0.967721	3.41452				
0.720951	2.53249	0.627057	2.1937							0.969092	3.40815				
0.722723	2.53044	0.629138	2.19382							0.970464	3.40183				
0.724498	2.5284	0.631218	2.19395							0.971839	3.39556				
0.726273	2.52638	0.633298	2.19408							0.973215	3.38934				
0.728051	2.52438	0.635379	2.1942							0.974594	3.38316				
0.729829	2.5224	0.637459	2.19433							0.975974	3.37703				
0.73161	2.52044	0.63954	2.19445							0.977357	3.37095				
0.733392	2.51849	0.64162	2.19457							0.978741	3.36491				
0.735175	2.51657	0.643701	2.1947							0.980127	3.35892				
0.73696	2.51466	0.645781	2.19482							0.981516	3.35297				
0.738747	2.51277	0.647862	2.19494							0.982906	3.34706				
0.740535	2.51089	0.649942	2.19506							0.984298	3.3412				
0.742324	2.50903	0.652022	2.19518							0.985692	3.33539				
0.744115	2.50719	0.654103	2.19529							0.987088	3.32962				
0.745908	2.50536	0.656183	2.19541							0.988486	3.32388				
0.747702	2.50355	0.658264	2.19553							0.989886	3.3182				
0.749497	2.50176	0.660344	2.19564							0.991288	3.31255				
0.751294	2.49998	0.662424	2.19576							0.992692	3.30695				
0.753092	2.49822	0.664505	2.19587							0.994098	3.30138				
0.754892	2.49648	0.666585	2.19599							0.995506	3.29586				
0.756693	2.49475	0.668666	2.1961							0.996916	3.29038				
0.758495	2.49303	0.670746	2.19621							0.998328	3.28494				
0.760299	2.49133	0.672826	2.19632							0.999741	3.27953				
0.762104	2.48965	0.674907	2.19643							1.00116	3.27417				
0.763911	2.48798	0.676987	2.19654												
0.765719	2.48632	0.679068	2.19665												
0.767528	2.48468	0.681148	2.19676												
0.769339	2.48305	0.683228	2.19687												
0.771151	2.48144	0.685309	2.19698												
0.772964	2.47984	0.687389	2.19709												
0.774779	2.47825	0.689469	2.19719												
0.776595	2.47668	0.69155	2.1973												
0.778412	2.47512	0.69363	2.1974												
0.780231	2.47357	0.695711	2.19751												
0.782051	2.47204	0.697791	2.19761												
0.783872	2.47052	0.699871	2.19771												
0.785694	2.46902	0.701952	2.19782												
0.787518	2.46752	0.704032	2.19792												
0.789343	2.46604	0.706112	2.19802												
0.791169	2.46457	0.708193	2.19812												
0.792996	2.46312	0.710273	2.19822												
0.794825	2.46167	0.712353	2.19832												
0.796655	2.46024	0.714434	2.19842												
0.798486	2.45882	0.716514	2.19852												
0.800318	2.45741	0.718594	2.19861												
0.802151	2.45602	0.720674	2.19871												
0.803986	2.45463	0.722755	2.19881												
0.805822	2.45326	0.724835	2.1989												
0.807658	2.45189	0.726915	2.199												
0.809497	2.45054	0.728996	2.1991												
0.811336	2.4492	0.731076	2.19919												
0.813176	2.44787	0.733156	2.19928												
0.815018	2.44655	0.735237	2.19938												
0.81686	2.44525	0.737317	2.19947												
0.818704	2.44395	0.739397	2.19956												
0.820549	2.44266	0.741477	2.19965												
0.822395	2.44139	0.743558	2.19975												
0.824242	2.44012	0.745638	2.19984												
0.82609	2.43887	0.747718	2.19993												
0.827939	2.43762	0.749798	2.20002												
0.82979	2.43639	0.751879	2.20011												
0.831641	2.43516	0.753959	2.20019												
0.833493	2.43394	0.756039	2.20028												
0.835347	2.43274	0.758119	2.20037												
0.837201	2.43154	0.7602	2.20046												
0.839057	2.43035	0.76228	2.20054												
0.840914	2.42918	0.76436	2.20063												
0.842771	2.42801	0.76644	2.20072												
0.84463	2.42685	0.768521	2.2008												
0.84649	2.4257	0.770601	2.20089												
0.84835	2.42456	0.772681	2.20097												
0.850212	2.42342	0.774761	2.20106												
0.852075	2.4223	0.776842	2.20114												
0.853939	2.42119	0.778922	2.20122												
0.855803	2.42008	0.781002	2.20131												
0.857669	2.41898	0.783082	2.20139												
0.859536	2.41789	0.785162	2.20147												
0.861403	2.41681	0.787243	2.20155												
0.863272	2.41574	0.789323	2.20163												
0.865141	2.41468	0.791403	2.20171												
0.867012	2.41362	0.793483	2.20179												
0.868883	2.41257	0.795563	2.20187												
0.870755	2.41153	0.797644	2.20195												
0.872629	2.4105	0.799724	2.20203												
0.874503	2.40948	0.801804	2.20211												
0.876378	2.40846	0.803884	2.20219												
0.878254	2.40745	0.805964	2.20226												
0.880131	2.40645	0.808045	2.20234												
0.882009	2.40546	0.810125	2.20242												
0.883887	2.40447	0.812205	2.2025												
0.885767	2.40349	0.814285	2.20257												
0.887647	2.40252	0.816365	2.20265												
0.889529	2.40156	0.818445	2.20272												
0.891411	2.4006	0.820526	2.2028												
0.893294	2.39965	0.822606	2.20287												
0.895178	2.39871	0.824686	2.20295												
0.897063	2.39777	0.826766	2.20302												
0.898949	2.39684	0.828846	2.20309												
0.900835	2.39592	0.830926	2.20317												
0.902722	2.39501	0.833007	2.20324												
0.904611	2.3941	0.835087	2.20331												
0.9065	2.3932	0.837167	2.20338												
0.908389	2.3923	0.839247	2.20345												
0.91028	2.39141	0.841327	2.20353												
0.912172	2.39053	0.843407	2.2036												
0.914064	2.38966	0.845487	2.20367												
0.915957	2.38879	0.847568	2.20374												
0.917851	2.38792	0.849648	2.20381												
0.919745	2.38707	0.851728	2.20388												
0.921641	2.38622	0.853808	2.20395												
0.923537	2.38537	0.855888	2.20401												
0.925434	2.38453	0.857968	2.20408												
0.927332	2.3837	0.860048	2.20415												
0.929231	2.38287	0.862128	2.20422												
0.93113	2.38205	0.864209	2.20429												
0.93303	2.38124	0.866289	2.20435												
0.934931	2.38043	0.868369	2.20442												
0.936833	2.37963	0.870449	2.20449												
0.938735	2.37883	0.872529	2.20455												
0.940638	2.37804	0.874609	2.20462												
0.942542	2.37725	0.876689	2.20468												
0.944446	2.37647	0.878769	2.20475												
0.946352	2.3757	0.880849	2.20481												
0.948258	2.37493	0.882929	2.20488												
0.950165	2.37416	0.885009	2.20494												
0.952072	2.3734	0.88709	2.20501												
0.95398	2.37265	0.88917	2.20507												
0.955889	2.3719	0.89125	2.20513												
0.957799	2.37116	0.89333	2.2052												
0.959709	2.37042	0.89541	2.20526												
0.96162	2.36968	0.89749	2.20532												
0.963532	2.36896	0.89957	2.20539												
0.965444	2.36823	0.90165	2.20545												
0.967357	2.36752	0.90373	2.20551												
0.969271	2.3668	0.90581	2.20557												
0.971185	2.36609	0.90789	2.20563												
0.973101	2.36539	0.90997	2.20569												
0.975016	2.36469	0.91205	2.20575												
0.976933	2.364	0.91413	2.20581												
0.97885	2.36331	0.91621	2.20587												
0.980768	2.36262	0.918291	2.20593												
0.982686	2.36194	0.920371	2.20599												
0.984605	2.36127	0.922451	2.20605												
0.986525	2.3606	0.924531	2.20611												
0.988445	2.35993	0.926611	2.20617												
0.990366	2.35927	0.928691	2.20623												
0.992288	2.35861	0.930771	2.20629												
0.99421	2.35796	0.932851	2.20634												
0.996133	2.35731	0.934931	2.2064												
0.998056	2.35667	0.937011	2.20646												
0.99998	2.35603	0.939091	2.20651												
1.00191	2.35539	0.941171	2.20657												
		0.943251	2.20663												
		0.945331	2.20668												
		0.947411	2.20674												
		0.949491	2.2068												
		0.951571	2.20685												
		0.953651	2.20691												
		0.955731	2.20696												
		0.957811	2.20702												
		0.959891	2.20707												
		0.961971	2.20713												
		0.964051	2.20718												
		0.966131	2.20723												
		0.968211	2.20729												
		0.970291	2.20734												
		0.972371	2.20739												
		0.974451	2.20745												
		0.976531	2.2075												
		0.978611	2.20755												
		0.980691	2.2076												
		0.982771	2.20766												
		0.984851	2.20771												
		0.986931	2.20776												
		0.989011	2.20781												
		0.991091	2.20786												
		0.993171	2.20791												
		0.995251	2.20796												
		0.997331	2.20801												
		0.99941	2.20806												
		1.00149	2.20811												
