Sym0		Asym0		Sym1		Sym2		Sym3		Sym4		Asym1		Asym2		Asym3		Asym4	
480  Points		498  Points		263  Points		194  Points		175  Points		130  Points		390  Points		213  Points		173  Points		127  Points	
Freq (MHz)	Vph (m/ms)	Freq (MHz)	Vph (m/ms)	Freq (MHz)	Vph (m/ms)	Freq (MHz)	Vph (m/ms)	Freq (MHz)	Vph (m/ms)	Freq (MHz)	Vph (m/ms)	Freq (MHz)	Vph (m/ms)	Freq (MHz)	Vph (m/ms)	Freq (MHz)	Vph (m/ms)	Freq (MHz)	Vph (m/ms)
0.00231621	5.38433	4.04499e-005	0.0562202	0.279517	561.34	0.420824	470.722	0.559035	626.199	0.838527	2951.19	0.139754	8276.14	0.419274	666.123	0.698773	1929.05	0.841613	2725.59
0.00733245	5.3841	0.000212548	0.128725	0.279575	195.557	0.420879	230.532	0.559092	306.446	0.838546	689.692	0.139857	147.439	0.419329	268.608	0.698796	540.057	0.841629	678.472
0.0123481	5.38379	0.000518369	0.200694	0.279691	118.446	0.420974	152.671	0.559188	202.889	0.838588	390.491	0.140159	74.5417	0.419432	168.257	0.698846	314	0.841664	387.476
0.0173625	5.3833	0.00095543	0.271848	0.279864	84.9867	0.421106	114.149	0.559323	151.667	0.838655	272.36	0.140657	50.0208	0.419583	122.523	0.698922	221.365	0.841718	271.184
0.0223754	5.38265	0.00152013	0.341889	0.280093	66.2984	0.421277	91.1702	0.559498	121.116	0.838745	209.116	0.141349	37.7567	0.41978	96.3637	0.699023	170.951	0.841791	208.593
0.0273863	5.38183	0.00220813	0.410588	0.280378	54.3745	0.421487	75.9098	0.559711	100.827	0.838859	169.72	0.142229	30.4211	0.420025	79.4313	0.699151	139.253	0.841884	169.487
0.0323945	5.38084	0.00301417	0.477708	0.280719	46.1093	0.421735	65.0408	0.559963	86.3752	0.838996	142.825	0.143295	25.5561	0.420316	67.5794	0.699305	117.483	0.841996	142.736
0.0373999	5.37969	0.00393265	0.543082	0.281116	40.0461	0.422023	56.9081	0.560254	75.5609	0.839157	123.297	0.144538	22.1049	0.420655	58.8223	0.699485	101.609	0.842126	123.286
0.0424017	5.37838	0.00495725	0.606536	0.281568	35.4106	0.422349	50.5955	0.560584	67.1655	0.839342	108.474	0.145954	19.5375	0.42104	52.0897	0.699691	89.5227	0.842276	108.508
0.0473995	5.37688	0.00608165	0.667965	0.282074	31.7537	0.422715	45.5549	0.560952	60.4605	0.83955	96.8407	0.147534	17.5591	0.421472	46.754	0.699924	80.0142	0.842446	96.8993
0.0523928	5.37521	0.00729919	0.727269	0.282635	28.7966	0.42312	41.4379	0.561359	54.983	0.839782	87.4674	0.149273	15.9926	0.421951	42.4226	0.700182	72.3389	0.842634	87.5398
0.0573811	5.37335	0.00860325	0.784385	0.28325	26.3572	0.423566	38.0131	0.561805	50.425	0.840037	79.7546	0.151161	14.7251	0.422475	38.8373	0.700466	66.0139	0.842842	79.8341
0.0623638	5.37132	0.00998739	0.839289	0.283918	24.3116	0.424052	35.1201	0.562289	46.5737	0.840316	73.2974	0.153192	13.6813	0.423046	35.8217	0.700776	60.7123	0.84307	73.3798
0.0673404	5.3691	0.0114452	0.891959	0.284638	22.5724	0.424578	32.6447	0.562811	43.2772	0.840618	67.8128	0.155358	12.8089	0.423662	33.2507	0.701112	56.2046	0.843316	67.8954
0.0723103	5.36669	0.0129706	0.942409	0.28541	21.0764	0.425146	30.5032	0.563371	40.4242	0.840944	63.0967	0.157652	12.0708	0.424324	31.0334	0.701473	52.3255	0.843582	63.1778
0.0772728	5.36408	0.0145578	0.990666	0.286233	19.7765	0.425754	28.6329	0.563969	37.9313	0.841293	58.9986	0.160067	11.4396	0.425031	29.1021	0.701861	48.9523	0.843868	59.077
0.0822274	5.36127	0.0162012	1.03677	0.287106	18.6371	0.426405	26.9857	0.564604	35.7348	0.841666	55.4046	0.162595	10.8949	0.425783	27.4053	0.702274	45.9924	0.844173	55.4797
0.0871735	5.35826	0.0178957	1.08077	0.288029	17.6307	0.427097	25.5245	0.565278	33.7851	0.842062	52.2275	0.165231	10.4209	0.42658	25.9032	0.702713	43.3745	0.844498	52.2987
0.0921103	5.35504	0.0196366	1.12273	0.289	16.7357	0.427833	24.2199	0.565988	32.0433	0.842481	49.3989	0.167967	10.0055	0.427421	24.5645	0.703177	41.0429	0.844842	49.4659
0.0970371	5.35159	0.0214192	1.16271	0.29002	15.935	0.428611	23.0483	0.566736	30.478	0.842923	46.8647	0.170797	9.63917	0.428306	23.3643	0.703666	38.9531	0.845207	46.9273
0.101953	5.34793	0.0232396	1.2008	0.291087	15.2148	0.429432	21.9907	0.567521	29.0639	0.843389	44.5812	0.173337	9.35389	0.429234	22.2825	0.704181	37.0697	0.845591	44.6394
0.106858	5.34403	0.0250939	1.23706	0.2922	14.5637	0.430298	21.0316	0.568343	27.7805	0.843878	42.5133	0.175552	9.13236	0.430206	21.3026	0.704722	35.3637	0.845994	42.5671
0.11175	5.33989	0.0269787	1.27157	0.29336	13.9727	0.431208	20.1581	0.569201	26.6106	0.84439	40.632	0.177418	8.96258	0.431221	20.4112	0.705287	33.8113	0.846418	40.6813
0.11663	5.3355	0.0288908	1.30441	0.294564	13.4339	0.432163	19.3596	0.570096	25.5399	0.844925	38.9131	0.178914	8.83614	0.432279	19.597	0.705878	32.3928	0.846862	38.9581
0.121495	5.33086	0.0308273	1.33566	0.295813	12.941	0.433163	18.6269	0.571027	24.5567	0.845483	37.3367	0.180025	8.74728	0.433378	18.8506	0.706494	31.0917	0.847326	37.3774
0.126345	5.32594	0.0327857	1.3654	0.297105	12.4885	0.434209	17.9526	0.571993	23.6506	0.846064	35.8859	0.180741	8.69213	0.434519	18.1642	0.707134	29.8941	0.84781	35.9224
0.131179	5.32076	0.0347635	1.39369	0.298441	12.0719	0.435302	17.3302	0.572996	22.8132	0.846668	34.5463	0.181778	8.61513	0.435702	17.5308	0.7078	28.7884	0.848314	34.5787
0.135996	5.31528	0.0367588	1.42062	0.299819	11.6872	0.436441	16.7541	0.574033	22.0371	0.847295	33.3057	0.182912	8.53432	0.436925	16.9448	0.70849	27.7643	0.848839	33.3341
0.140795	5.3095	0.0387694	1.44624	0.30124	11.331	0.437628	16.2196	0.575107	21.3159	0.847944	32.1537	0.18447	8.42902	0.438189	16.4012	0.709205	26.8134	0.849384	32.1782
0.145575	5.30341	0.0407937	1.47064	0.302701	11.0005	0.438862	15.7224	0.576215	20.644	0.848616	31.0811	0.186463	8.30293	0.439493	15.8957	0.709944	25.928	0.849949	31.1018
0.150334	5.29699	0.04283	1.49388	0.304204	10.6931	0.440144	15.259	0.577357	20.0168	0.849311	30.0801	0.188905	8.16019	0.440837	15.4245	0.710708	25.1018	0.850535	30.0972
0.155071	5.29023	0.0446134	1.51323	0.305749	10.4065	0.441476	14.8263	0.578534	19.43	0.850028	29.1438	0.191813	8.00506	0.442219	14.9844	0.711496	24.329	0.851142	29.1574
0.159785	5.28312	0.0461394	1.52909	0.307334	10.1389	0.442856	14.4214	0.579746	18.8799	0.850768	28.2663	0.195205	7.84171	0.44364	14.5725	0.712309	23.6048	0.85177	28.2764
0.164474	5.27563	0.0474049	1.54179	0.308959	9.88863	0.444285	14.0419	0.580991	18.3633	0.85153	27.4421	0.198652	7.69228	0.4451	14.1863	0.713145	22.9247	0.852419	27.4489
0.169136	5.26776	0.0484077	1.55157	0.310626	9.65408	0.445765	13.6857	0.58227	17.8773	0.852315	26.6667	0.202151	7.55519	0.446597	13.8235	0.714006	22.2849	0.853088	26.6703
0.173771	5.25948	0.0491462	1.55861	0.312111	9.4615	0.447294	13.3507	0.583582	17.4193	0.853122	25.9359	0.205698	7.42908	0.448131	13.4822	0.71489	21.682	0.853779	25.9365
0.178375	5.25077	0.0496193	1.56306	0.313402	9.3054	0.448874	13.0354	0.584927	16.987	0.853951	25.246	0.209291	7.31278	0.449702	13.1606	0.715798	21.113	0.854491	25.2436
0.182948	5.24163	0.0503001	1.56937	0.314487	9.18159	0.450505	12.7381	0.586305	16.5785	0.854802	24.5938	0.212927	7.20527	0.45131	12.857	0.716729	20.575	0.855224	24.5885
0.187487	5.23201	0.0510408	1.57612	0.315356	9.0869	0.452187	12.4575	0.587716	16.1918	0.855675	23.9762	0.216604	7.10565	0.452953	12.5702	0.717685	20.0657	0.855979	23.9681
0.19199	5.22192	0.0520495	1.58512	0.316001	9.01902	0.453919	12.1923	0.589159	15.8253	0.85657	23.3906	0.220318	7.01315	0.454631	12.2988	0.718663	19.583	0.856755	23.3799
0.196456	5.21132	0.0533273	1.59621	0.316417	8.97632	0.455704	11.9414	0.590634	15.4776	0.857486	22.8347	0.224068	6.92707	0.456345	12.0416	0.719665	19.1247	0.857553	22.8215
0.200881	5.20018	0.0548752	1.60921	0.317019	8.91596	0.457539	11.7037	0.59214	15.1473	0.858425	22.3062	0.227851	6.84683	0.458093	11.7977	0.720689	18.6892	0.858373	22.2906
0.205264	5.1885	0.0566945	1.62389	0.317678	8.85166	0.459427	11.4784	0.593678	14.8331	0.859385	21.8033	0.231666	6.77187	0.459874	11.5661	0.721737	18.2749	0.859214	21.7854
0.209602	5.17624	0.0587863	1.64004	0.318583	8.76634	0.461366	11.2647	0.595247	14.534	0.860367	21.3242	0.23551	6.70172	0.461689	11.3459	0.722808	17.8802	0.860078	21.304
0.213892	5.16339	0.0608818	1.65547	0.319742	8.66183	0.463357	11.0616	0.596847	14.2489	0.86137	20.8672	0.239382	6.63596	0.463537	11.1363	0.723901	17.5038	0.860964	20.8449
0.218132	5.14992	0.0629804	1.67022	0.321166	8.54029	0.465399	10.8687	0.598478	13.9769	0.862395	20.4309	0.24328	6.57421	0.465418	10.9367	0.725017	17.1445	0.861872	20.4066
0.222319	5.1358	0.0650818	1.68434	0.322868	8.4041	0.467493	10.6851	0.600138	13.7172	0.86344	20.0139	0.247201	6.51612	0.46733	10.7463	0.726155	16.8013	0.862802	19.9877
0.226451	5.12102	0.0671856	1.69784	0.324864	8.25583	0.469639	10.5103	0.601829	13.469	0.864507	19.615	0.251146	6.46141	0.469275	10.5647	0.727315	16.473	0.863755	19.587
0.230524	5.10556	0.0692913	1.71077	0.326906	8.11559	0.471836	10.3438	0.60355	13.2316	0.865595	19.2331	0.255111	6.40978	0.47125	10.3912	0.728498	16.1588	0.864731	19.2034
0.234535	5.08939	0.0713985	1.72316	0.328997	7.98285	0.474084	10.185	0.6053	13.0044	0.866704	18.8672	0.259096	6.36099	0.473256	10.2254	0.729703	15.8578	0.865729	18.8358
0.238483	5.0725	0.0735071	1.73504	0.331138	7.85715	0.476383	10.0336	0.607079	12.7867	0.867834	18.5162	0.263098	6.31482	0.475292	10.0667	0.73093	15.5693	0.86675	18.4834
0.242364	5.05488	0.0756167	1.74643	0.333329	7.73809	0.478732	9.88902	0.608887	12.5779	0.868985	18.1794	0.267118	6.27106	0.477358	9.91482	0.732178	15.2924	0.867794	18.1451
0.246176	5.03651	0.0777271	1.75735	0.335574	7.62528	0.481132	9.75093	0.610724	12.3776	0.870156	17.8559	0.271153	6.22953	0.479453	9.76929	0.733448	15.0265	0.868862	17.8203
0.249916	5.01738	0.079838	1.76784	0.337874	7.51836	0.483264	9.63559	0.612589	12.1853	0.871348	17.5449	0.275203	6.19007	0.481303	9.64738	0.73474	14.771	0.869952	17.5081
0.253582	4.9975	0.0819495	1.77791	0.34023	7.41703	0.485111	9.54075	0.614482	12.0006	0.872561	17.2458	0.279265	6.15251	0.482896	9.54688	0.736053	14.5253	0.871066	17.2078
0.257172	4.97687	0.0840612	1.7876	0.342646	7.32099	0.486659	9.46466	0.616403	11.823	0.873793	16.9579	0.28334	6.11672	0.484226	9.46606	0.737387	14.2889	0.872203	16.9189
0.260683	4.95547	0.0861729	1.7969	0.345122	7.22998	0.487896	9.40594	0.618352	11.6521	0.875046	16.6806	0.287425	6.08258	0.485285	9.40357	0.738742	14.0613	0.873364	16.6407
0.264115	4.93334	0.0882848	1.80585	0.347661	7.14373	0.488813	9.36355	0.620328	11.4877	0.876319	16.4133	0.29152	6.04995	0.486068	9.3584	0.740119	13.8421	0.874548	16.3726
0.267467	4.91049	0.0903964	1.81447	0.350264	7.06203	0.489403	9.33676	0.622331	11.3293	0.877612	16.1556	0.295624	6.01874	0.486571	9.32983	0.741516	13.6307	0.875756	16.1141
0.270736	4.88692	0.0925079	1.82276	0.352934	6.98464	0.490255	9.29872	0.624361	11.1767	0.878925	15.907	0.299735	5.98884	0.487296	9.28921	0.742934	13.4268	0.876989	15.8648
0.273924	4.86268	0.0946191	1.83075	0.355671	6.91138	0.491188	9.25799	0.626418	11.0296	0.880258	15.6669	0.303853	5.96017	0.488088	9.24566	0.744373	13.23	0.878245	15.6242
0.277029	4.83779	0.09673	1.83845	0.358478	6.84205	0.492466	9.20358	0.628501	10.8876	0.88161	15.435	0.307977	5.93264	0.489171	9.18741	0.745832	13.04	0.879525	15.3919
0.280053	4.81229	0.0988405	1.84588	0.361355	6.77646	0.494099	9.13637	0.63061	10.7507	0.882982	15.2109	0.312105	5.90617	0.490549	9.11532	0.747311	12.8565	0.88083	15.1674
0.282994	4.78622	0.10095	1.85304	0.364303	6.71444	0.496098	9.05741	0.632745	10.6184	0.884374	14.9942	0.316238	5.88068	0.492229	9.03041	0.748811	12.679	0.882159	14.9504
0.285856	4.75962	0.10306	1.85995	0.367323	6.6558	0.498475	8.96788	0.634906	10.4906	0.885784	14.7846	0.320373	5.85612	0.49422	8.93384	0.750331	12.5075	0.883512	14.7406
0.288639	4.73254	0.105169	1.86663	0.370416	6.6004	0.501247	8.86909	0.637092	10.3672	0.887214	14.5817	0.32451	5.83242	0.496528	8.82691	0.751871	12.3415	0.88489	14.5376
0.291344	4.70502	0.107277	1.87308	0.37358	6.54808	0.504065	8.7743	0.639304	10.2478	0.888663	14.3852	0.328649	5.80952	0.498863	8.72392	0.753431	12.1808	0.886293	14.3412
0.293975	4.67713	0.109385	1.87931	0.376815	6.49866	0.506928	8.68331	0.641541	10.1323	0.890131	14.1949	0.332788	5.78736	0.501223	8.62467	0.755011	12.0252	0.88772	14.1509
0.296532	4.6489	0.111492	1.88533	0.380121	6.45201	0.509836	8.59593	0.643803	10.0206	0.891618	14.0105	0.336926	5.76591	0.503609	8.52899	0.756611	11.8745	0.889172	13.9666
0.299019	4.62039	0.113599	1.89116	0.383497	6.40797	0.512787	8.51199	0.645794	9.92614	0.893124	13.8316	0.341063	5.7451	0.50602	8.43671	0.75823	11.7284	0.89065	13.7881
0.301437	4.59166	0.115705	1.8968	0.386941	6.36639	0.515782	8.43131	0.647506	9.8477	0.894648	13.6582	0.345198	5.7249	0.508456	8.34765	0.759869	11.5867	0.892152	13.6149
0.303791	4.56276	0.11781	1.90226	0.39045	6.32715	0.51882	8.35373	0.648932	9.78422	0.896191	13.4898	0.349329	5.70527	0.510917	8.26168	0.761527	11.4494	0.893679	13.447
0.306082	4.53372	0.119915	1.90755	0.394024	6.2901	0.521899	8.27911	0.650066	9.73489	0.897752	13.3264	0.353457	5.68616	0.513402	8.17865	0.763204	11.3161	0.895232	13.2842
0.308313	4.50461	0.122019	1.91267	0.39766	6.25511	0.52502	8.20731	0.650903	9.6991	0.899331	13.1678	0.35758	5.66754	0.515912	8.09843	0.764901	11.1867	0.896809	13.1261
0.310211	4.4792	0.124123	1.91764	0.401355	6.22204	0.52818	8.13819	0.651441	9.67641	0.900929	13.0136	0.361698	5.64938	0.518445	8.02089	0.766617	11.0611	0.898412	12.9727
0.311796	4.45754	0.126226	1.92245	0.405107	6.19079	0.531381	8.07163	0.652216	9.64407	0.902544	12.8639	0.365809	5.63164	0.521003	7.94593	0.768352	10.939	0.900041	12.8237
0.313085	4.43965	0.128328	1.92713	0.408913	6.16122	0.53462	8.00751	0.653061	9.60929	0.904178	12.7182	0.369913	5.6143	0.523584	7.87341	0.770106	10.8205	0.901695	12.6789
0.314091	4.42551	0.13043	1.93166	0.41277	6.13323	0.537898	7.94572	0.654216	9.5626	0.905829	12.5767	0.37401	5.59732	0.526189	7.80325	0.771878	10.7053	0.903374	12.5383
0.314823	4.41513	0.132531	1.93606	0.416675	6.10672	0.541213	7.88616	0.655684	9.50456	0.907498	12.4389	0.378097	5.58068	0.528817	7.73535	0.77367	10.5932	0.905079	12.4016
0.315289	4.40849	0.134631	1.94033	0.420625	6.08157	0.544564	7.82871	0.657472	9.4358	0.909185	12.3049	0.382176	5.56436	0.531468	7.6696	0.77548	10.4843	0.90681	12.2687
0.315953	4.39895	0.136731	1.94449	0.424617	6.05769	0.547952	7.77329	0.659586	9.35711	0.910888	12.1744	0.386244	5.54832	0.534142	7.60593	0.777309	10.3783	0.908566	12.1394
0.31667	4.3886	0.13883	1.94852	0.428649	6.035	0.551374	7.7198	0.662034	9.26932	0.91261	12.0474	0.390301	5.53256	0.536839	7.54425	0.779157	10.2751	0.910348	12.0137
0.317635	4.37454	0.140928	1.95245	0.432718	6.0134	0.554831	7.66817	0.664506	9.18412	0.914348	11.9237	0.394346	5.51703	0.539559	7.48448	0.780782	10.1875	0.912156	11.8913
0.318841	4.35681	0.143026	1.95626	0.43682	5.99281	0.558321	7.61831	0.667001	9.10141	0.916104	11.8032	0.398379	5.50174	0.542302	7.42655	0.782179	10.1144	0.913989	11.7722
0.320278	4.33544	0.145124	1.95997	0.440954	5.97317	0.561844	7.57014	0.669519	9.02109	0.917876	11.6858	0.402398	5.48665	0.545068	7.37039	0.783341	10.055	0.915849	11.6563
0.321935	4.3105	0.147221	1.96358	0.445116	5.95441	0.565399	7.5236	0.672061	8.94307	0.919665	11.5713	0.406403	5.47174	0.547857	7.31592	0.784265	10.0087	0.917734	11.5434
0.3238	4.28206	0.149317	1.9671	0.449304	5.93644	0.568985	7.4786	0.674626	8.86726	0.921471	11.4597	0.410393	5.45701	0.550668	7.2631	0.784948	9.97504	0.919645	11.4335
0.325629	4.25383	0.151413	1.97053	0.453516	5.91923	0.572602	7.43509	0.677214	8.79359	0.923294	11.3508	0.414367	5.44244	0.553502	7.21186	0.785386	9.95367	0.921582	11.3263
0.327424	4.22584	0.153508	1.97386	0.457749	5.9027	0.576249	7.393	0.679825	8.72198	0.925133	11.2446	0.418325	5.42799	0.556359	7.16213	0.786017	9.92317	0.923544	11.222
0.329187	4.19811	0.155603	1.97711	0.462002	5.88682	0.579925	7.35228	0.682459	8.65235	0.926989	11.141	0.422266	5.41368	0.559238	7.11388	0.786705	9.89031	0.925533	11.1202
0.330919	4.17065	0.157698	1.98028	0.466272	5.87152	0.583629	7.31286	0.685117	8.58464	0.92886	11.0399	0.426188	5.39947	0.56214	7.06704	0.787645	9.84611	0.927547	11.0211
0.332624	4.14348	0.159792	1.98337	0.470557	5.85676	0.58736	7.27469	0.687797	8.51877	0.930748	10.9412	0.430092	5.38536	0.565065	7.02157	0.788839	9.79099	0.929587	10.9244
0.334303	4.11662	0.161885	1.98638	0.474855	5.84251	0.591118	7.23772	0.6905	8.45468	0.932652	10.8448	0.433976	5.37133	0.568013	6.97741	0.790293	9.72549	0.931653	10.8301
0.335957	4.09006	0.163978	1.98932	0.479165	5.82872	0.594903	7.2019	0.693226	8.39232	0.934572	10.7506	0.437839	5.35737	0.570984	6.93454	0.792011	9.65022	0.933745	10.7381
0.337588	4.06383	0.16607	1.99219	0.483484	5.81535	0.598713	7.16718	0.695975	8.33163	0.936507	10.6587	0.441682	5.34347	0.573977	6.8929	0.794	9.56585	0.935863	10.6483
0.339198	4.03792	0.168163	1.99499	0.487812	5.80238	0.602547	7.13352	0.698747	8.27255	0.938459	10.5688	0.445503	5.32963	0.576993	6.85245	0.796007	9.48358	0.938006	10.5608
0.340789	4.01235	0.170254	1.99772	0.492146	5.78978	0.606405	7.10087	0.701542	8.21502	0.940172	10.4922	0.449301	5.31582	0.580032	6.81316	0.798032	9.40333	0.939895	10.4862
0.34236	3.98712	0.172345	2.00039	0.496486	5.7775	0.610286	7.06919	0.70436	8.15901	0.941641	10.428	0.453077	5.30204	0.583095	6.77498	0.800075	9.32502	0.94152	10.4238
0.343915	3.96223	0.174436	2.003	0.500829	5.76554	0.61419	7.03845	0.707202	8.10445	0.942863	10.3758	0.456828	5.28828	0.58618	6.73789	0.802135	9.24861	0.942875	10.3731
0.345453	3.93769	0.176527	2.00555	0.505176	5.75385	0.618116	7.00861	0.710066	8.05132	0.943833	10.335	0.460554	5.27453	0.589288	6.70185	0.804214	9.17403	0.943953	10.3335
0.346977	3.9135	0.178617	2.00804	0.509523	5.74243	0.622062	6.97962	0.712954	7.99955	0.944548	10.3053	0.464256	5.26079	0.59242	6.66682	0.806311	9.10121	0.94475	10.3047
0.348487	3.88965	0.180707	2.01047	0.51387	5.73125	0.626029	6.95146	0.715866	7.94912	0.945007	10.2864	0.467932	5.24704	0.595574	6.63277	0.808425	9.03011	0.945261	10.2864
0.349985	3.86616	0.182796	2.01285	0.518217	5.72028	0.630015	6.92409	0.718801	7.89998	0.945669	10.2594	0.471581	5.23328	0.598752	6.59968	0.810557	8.96067	0.945999	10.2602
0.35147	3.84302	0.184885	2.01518	0.522561	5.70952	0.63402	6.89748	0.72176	7.8521	0.946389	10.2303	0.475203	5.21951	0.601952	6.56752	0.812707	8.89284	0.946803	10.232
0.352945	3.82023	0.186973	2.01746	0.526902	5.69894	0.638043	6.87159	0.724742	7.80543	0.947372	10.1911	0.478797	5.20572	0.605176	6.53625	0.814874	8.82658	0.947903	10.1941
0.35441	3.79778	0.189062	2.01969	0.53124	5.68853	0.642083	6.84641	0.727749	7.75995	0.94862	10.142	0.482363	5.1919	0.608423	6.50585	0.817059	8.76182	0.949303	10.1467
0.355865	3.77568	0.19115	2.02187	0.535572	5.67827	0.64614	6.82189	0.73078	7.71562	0.950138	10.0836	0.485901	5.17805	0.611693	6.47629	0.819262	8.69853	0.951008	10.0902
0.357312	3.75392	0.193237	2.024	0.539898	5.66815	0.650213	6.79802	0.733836	7.67241	0.951928	10.0163	0.48941	5.16417	0.614986	6.44755	0.821482	8.63667	0.953026	10.0253
0.358751	3.73251	0.195325	2.02609	0.544218	5.65815	0.6543	6.77476	0.736916	7.63029	0.953996	9.94065	0.492889	5.15025	0.618301	6.41961	0.82372	8.57619	0.955366	9.95237
0.360183	3.71143	0.197412	2.02814	0.548531	5.64827	0.658402	6.7521	0.740022	7.58923	0.956079	9.86656	0.496338	5.13628	0.62164	6.39243	0.825975	8.51705	0.957731	9.8811
0.361608	3.69068	0.199499	2.03015	0.552835	5.6385	0.662518	6.73	0.743153	7.5492	0.958176	9.79404	0.499757	5.12227	0.625	6.366	0.828247	8.45921	0.960121	9.81144
0.363028	3.67027	0.201585	2.03211	0.55713	5.62882	0.666646	6.70844	0.746309	7.51018	0.960289	9.72303	0.503145	5.10822	0.628384	6.34029	0.830537	8.40264	0.962536	9.74336
0.364442	3.65018	0.203671	2.03404	0.561415	5.61922	0.670786	6.68741	0.749491	7.47215	0.962415	9.6535	0.506502	5.09412	0.631789	6.31528	0.832844	8.3473	0.964976	9.67679
0.365851	3.63042	0.205757	2.03593	0.56569	5.6097	0.674938	6.66687	0.752699	7.43507	0.964556	9.58539	0.509828	5.07997	0.635217	6.29096	0.835169	8.29316	0.967441	9.61171
0.367256	3.61098	0.207843	2.03778	0.569954	5.60024	0.679099	6.64681	0.755934	7.39893	0.966711	9.51868	0.513122	5.06577	0.638666	6.26729	0.837511	8.24017	0.96993	9.54806
0.368657	3.59185	0.209928	2.03959	0.574207	5.59084	0.683271	6.6272	0.759195	7.3637	0.96888	9.45331	0.516385	5.05152	0.642137	6.24426	0.83987	8.18832	0.972444	9.48581
0.370054	3.57303	0.212013	2.04137	0.578447	5.58149	0.687451	6.60803	0.762484	7.32936	0.971063	9.38926	0.519616	5.03721	0.645628	6.22184	0.842246	8.13757	0.974983	9.42491
0.371449	3.55452	0.214098	2.04312	0.582674	5.57219	0.691639	6.58928	0.7658	7.2959	0.97326	9.32649	0.522816	5.02286	0.649141	6.20003	0.844639	8.08789	0.977546	9.36534
0.37284	3.53631	0.216183	2.04483	0.586888	5.56293	0.695835	6.57092	0.769144	7.26329	0.975471	9.26495	0.525983	5.00846	0.652674	6.17879	0.847049	8.03924	0.980133	9.30705
0.37423	3.51839	0.218267	2.04651	0.591089	5.55369	0.700036	6.55295	0.772516	7.23151	0.977696	9.20463	0.529119	4.99401	0.656228	6.15811	0.849476	7.99161	0.982745	9.25001
0.375617	3.50077	0.220351	2.04816	0.595274	5.54448	0.704244	6.53533	0.775917	7.20054	0.979934	9.14548	0.532223	4.97952	0.659801	6.13798	0.85192	7.94497	0.98538	9.19419
0.377003	3.48344	0.222435	2.04978	0.599445	5.5353	0.708456	6.51807	0.779347	7.17038	0.982186	9.08748	0.535294	4.96498	0.663393	6.11836	0.854381	7.89928	0.988039	9.13955
0.378387	3.46639	0.224519	2.05137	0.603601	5.52613	0.712672	6.50113	0.782806	7.14099	0.984451	9.03059	0.538334	4.9504	0.667004	6.09926	0.856859	7.85453	0.990722	9.08606
0.379771	3.44962	0.226603	2.05293	0.607741	5.51697	0.716892	6.48451	0.786296	7.11237	0.98673	8.97479	0.541343	4.93577	0.670634	6.08064	0.859354	7.81069	0.993428	9.03369
0.381154	3.43312	0.228686	2.05446	0.611864	5.50782	0.721114	6.46819	0.789815	7.0845	0.989022	8.92005	0.54432	4.92111	0.674281	6.0625	0.861865	7.76774	0.996158	8.98241
0.382536	3.4169	0.230769	2.05597	0.615971	5.49867	0.725337	6.45215	0.793365	7.05737	0.991327	8.86634	0.547265	4.90641	0.677946	6.04481	0.864393	7.72565	0.998911	8.93219
0.383917	3.40094	0.232852	2.05745	0.620061	5.48952	0.729561	6.43638	0.796947	7.03095	0.993646	8.81363	0.55018	4.89168	0.681627	6.02756	0.866938	7.68441	1.00169	8.88301
0.385299	3.38524	0.234935	2.0589	0.624133	5.48037	0.733786	6.42087	0.800559	7.00524	0.995977	8.7619	0.553063	4.87692	0.685325	6.01074	0.869499	7.64398		
0.386681	3.36979	0.237017	2.06033	0.628188	5.47122	0.738009	6.40561	0.804203	6.98022	0.998322	8.71112	0.555916	4.86213	0.689038	5.99433	0.872077	7.60436		
0.388063	3.3546	0.2391	2.06173	0.632224	5.46205	0.742232	6.39058	0.80788	6.95588	1.00068	8.66128	0.558739	4.84732	0.692767	5.97831	0.874671	7.56551		
0.389446	3.33966	0.241182	2.06311	0.636242	5.45287	0.746452	6.37577	0.811589	6.9322			0.561532	4.83249	0.69651	5.96267	0.877281	7.52743		
0.39083	3.32496	0.243264	2.06447	0.640241	5.44367	0.750669	6.36117	0.81533	6.90918			0.564295	4.81764	0.700266	5.94739	0.879908	7.49009		
0.392215	3.3105	0.245346	2.0658	0.644221	5.43446	0.754883	6.34677	0.819105	6.88679			0.567029	4.80278	0.704037	5.93247	0.882551	7.45348		
0.3936	3.29627	0.247427	2.06711	0.648182	5.42523	0.759093	6.33256	0.822912	6.86503			0.569733	4.7879	0.707819	5.91788	0.88521	7.41757		
0.394987	3.28228	0.249509	2.0684	0.652122	5.41598	0.763299	6.31853	0.826754	6.84388			0.57241	4.77302	0.711614	5.90362	0.887885	7.38235		
0.396375	3.26851	0.25159	2.06967	0.656043	5.40671	0.767499	6.30468	0.830628	6.82333			0.575058	4.75814	0.71542	5.88967	0.890577	7.3478		
0.397765	3.25496	0.253671	2.07092	0.659944	5.39741	0.771694	6.29099	0.834537	6.80337			0.577678	4.74325	0.719237	5.87602	0.893284	7.31392		
0.399156	3.24163	0.255752	2.07215	0.663823	5.38808	0.775882	6.27745	0.838479	6.78398			0.580271	4.72837	0.723064	5.86266	0.896007	7.28067		
0.400549	3.22852	0.257833	2.07336	0.667683	5.37873	0.780064	6.26407	0.842455	6.76515			0.582837	4.7135	0.7269	5.84958	0.898745	7.24805		
0.401944	3.21561	0.259914	2.07455	0.671521	5.36935	0.784239	6.25083	0.846465	6.74687			0.585377	4.69864	0.730745	5.83676	0.9015	7.21605		
0.403341	3.20291	0.261995	2.07572	0.675338	5.35994	0.788407	6.23773	0.850509	6.72913			0.587891	4.68378	0.734598	5.8242	0.90427	7.18464		
0.40474	3.19042	0.264075	2.07687	0.679133	5.3505	0.792567	6.22476	0.854586	6.71192			0.590379	4.66895	0.738459	5.81187	0.907055	7.15381		
0.406142	3.17812	0.266155	2.078	0.682907	5.34103	0.79672	6.21192	0.858697	6.69521			0.592842	4.65414	0.742327	5.79979	0.909856	7.12356		
0.407545	3.16602	0.268235	2.07912	0.68666	5.33153	0.800865	6.1992	0.862841	6.679			0.595281	4.63935	0.746201	5.78792	0.912673	7.09387		
0.408951	3.15412	0.270315	2.08022	0.69039	5.32199	0.805001	6.1866	0.867018	6.66328			0.597695	4.62458	0.75008	5.77627	0.915505	7.06472		
0.410359	3.1424	0.272395	2.0813	0.694099	5.31243	0.80913	6.17412	0.871228	6.64803			0.600085	4.60985	0.753965	5.76482	0.918352	7.0361		
0.41177	3.13086	0.274475	2.08237	0.697785	5.30283	0.81325	6.16176	0.87547	6.63324			0.602453	4.59515	0.757854	5.75357	0.921214	7.008		
0.413183	3.11951	0.276555	2.08342	0.701449	5.29319	0.817363	6.14951	0.879743	6.61889			0.604797	4.58048	0.761746	5.7425	0.924091	6.98041		
0.414599	3.10833	0.278634	2.08446	0.705091	5.28353	0.821467	6.13736	0.884048	6.60498			0.607119	4.56585	0.765642	5.73161	0.926983	6.95333		
0.416018	3.09733	0.280714	2.08548	0.708711	5.27383	0.825563	6.12533	0.888384	6.5915			0.60942	4.55126	0.76954	5.72089	0.929891	6.92672		
0.417439	3.08651	0.282793	2.08648	0.712308	5.2641	0.829652	6.1134	0.892751	6.57842			0.611699	4.53671	0.77344	5.71034	0.932813	6.9006		
0.418863	3.07585	0.284872	2.08747	0.715882	5.25434	0.833732	6.10158	0.897147	6.56573			0.613956	4.5222	0.777342	5.69993	0.93575	6.87494		
0.42029	3.06535	0.286951	2.08845	0.719434	5.24454	0.837805	6.08987	0.901572	6.55343			0.616194	4.50775	0.781244	5.68968	0.938701	6.84974		
0.42172	3.05502	0.28903	2.08941	0.722963	5.23471	0.841871	6.07825	0.906025	6.54151			0.618411	4.49334	0.785147	5.67956	0.941667	6.82498		
0.423153	3.04485	0.291109	2.09036	0.726469	5.22486	0.845929	6.06675	0.910507	6.52994			0.620608	4.47899	0.789049	5.66958	0.944648	6.80066		
0.424588	3.03483	0.293188	2.0913	0.729953	5.21497	0.84998	6.05534	0.915015	6.51871			0.622787	4.46469	0.79295	5.65972	0.947643	6.77677		
0.426027	3.02497	0.295267	2.09222	0.733414	5.20505	0.854025	6.04404	0.91955	6.50782			0.624946	4.45044	0.79685	5.64998	0.950653	6.7533		
0.427469	3.01526	0.297345	2.09313	0.736853	5.1951	0.858063	6.03284	0.924111	6.49726			0.627087	4.43626	0.800748	5.64036	0.953676	6.73023		
0.428914	3.0057	0.299424	2.09403	0.740268	5.18512	0.862095	6.02174	0.928696	6.487			0.62921	4.42213	0.804644	5.63085	0.956714	6.70757		
0.430361	2.99628	0.301502	2.09491	0.743662	5.17512	0.866122	6.01075	0.933306	6.47705			0.631316	4.40806	0.808537	5.62144	0.959767	6.6853		
0.431812	2.98701	0.30358	2.09579	0.747032	5.16509	0.870142	5.99985	0.937939	6.46738			0.633404	4.39406	0.812426	5.61212	0.962833	6.66341		
0.433267	2.97788	0.305659	2.09665	0.750381	5.15503	0.874157	5.98906	0.942594	6.458			0.635475	4.38012	0.816311	5.6029	0.965913	6.6419		
0.434724	2.96888	0.307737	2.0975	0.753706	5.14494	0.878166	5.97837	0.947272	6.44888			0.63753	4.36624	0.820191	5.59376	0.969007	6.62076		
0.436184	2.96002	0.309815	2.09834	0.75701	5.13484	0.882171	5.96778	0.951971	6.44002			0.63957	4.35244	0.824067	5.58471	0.972115	6.59998		
0.437648	2.95129	0.311892	2.09916	0.760291	5.12471	0.886171	5.95729	0.95669	6.43141			0.641593	4.3387	0.827937	5.57573	0.975237	6.57956		
0.439115	2.9427	0.31397	2.09998	0.76355	5.11455	0.890166	5.9469	0.961429	6.42304			0.643601	4.32503	0.831802	5.56683	0.978372	6.55948		
0.440585	2.93423	0.316048	2.10078	0.766787	5.10438	0.894157	5.93661	0.966186	6.41489			0.645595	4.31143	0.83566	5.55799	0.981521	6.53974		
0.442058	2.92589	0.318126	2.10158	0.770002	5.09419	0.898144	5.92642	0.970962	6.40697			0.647573	4.2979	0.839511	5.54922	0.984684	6.52034		
0.443535	2.91767	0.320203	2.10236	0.773195	5.08397	0.902126	5.91633	0.975755	6.39926			0.649538	4.28445	0.843355	5.54051	0.98786	6.50126		
0.445015	2.90957	0.322281	2.10314	0.776366	5.07374	0.906105	5.90633	0.980566	6.39175			0.651488	4.27107	0.847192	5.53186	0.991049	6.4825		
0.446498	2.90159	0.324358	2.1039	0.779516	5.0635	0.91008	5.89643	0.985391	6.38443			0.653426	4.25776	0.851021	5.52325	0.994252	6.46405		
0.447984	2.89373	0.326435	2.10466	0.782644	5.05323	0.914052	5.88663	0.990233	6.3773			0.65535	4.24453	0.854841	5.5147	0.997467	6.44592		
0.449473	2.88598	0.328512	2.1054	0.785751	5.04296	0.91802	5.87692	0.995089	6.37035			0.657261	4.23137	0.858653	5.5062	1.0007	6.42808		
0.450966	2.87835	0.33059	2.10614	0.788837	5.03267	0.921984	5.86731	0.999958	6.36357			0.659159	4.21829	0.862455	5.49773				
0.452462	2.87082	0.332667	2.10687	0.791902	5.02237	0.925945	5.85778	1.00484	6.35695			0.661045	4.20529	0.866248	5.48931				
0.453962	2.86341	0.334744	2.10758	0.794946	5.01206	0.929903	5.84835					0.66292	4.19236	0.870031	5.48092				
0.455464	2.8561	0.336821	2.10829	0.797969	5.00174	0.933858	5.83901					0.664783	4.17952	0.873804	5.47257				
0.45697	2.8489	0.338897	2.10899	0.800972	4.99141	0.937809	5.82975					0.666634	4.16675	0.877567	5.46425				
0.458479	2.8418	0.340974	2.10969	0.803954	4.98108	0.941757	5.82058					0.668474	4.15406	0.881318	5.45596				
0.459992	2.83481	0.343051	2.11037	0.806916	4.97074	0.945702	5.8115					0.670304	4.14145	0.885059	5.44769				
0.461507	2.82791	0.345128	2.11105	0.809859	4.96039	0.949644	5.8025					0.672123	4.12893	0.888788	5.43945				
0.463026	2.82111	0.347204	2.11171	0.812781	4.95004	0.953582	5.79358					0.673932	4.11648	0.892505	5.43123				
0.464548	2.81441	0.349281	2.11237	0.815684	4.9397	0.957517	5.78474					0.675731	4.10411	0.89621	5.42303				
0.466074	2.8078	0.351357	2.11302	0.818568	4.92934	0.961448	5.77598					0.67752	4.09182	0.899903	5.41485				
0.467602	2.80129	0.353434	2.11367	0.821432	4.91899	0.965376	5.7673					0.6793	4.07961	0.903583	5.40669				
0.469134	2.79487	0.35551	2.1143	0.824277	4.90865	0.969301	5.75869					0.68107	4.06749	0.907251	5.39854				
0.470669	2.78853	0.357586	2.11493	0.827104	4.8983	0.973221	5.75016					0.682832	4.05544	0.910906	5.3904				
0.472207	2.78229	0.359662	2.11556	0.829911	4.88796	0.977138	5.74169					0.684585	4.04348	0.914547	5.38227				
0.473749	2.77613	0.361738	2.11617	0.8327	4.87762	0.981051	5.7333					0.68633	4.0316	0.918175	5.37416				
0.475293	2.77006	0.363814	2.11678	0.835471	4.86729	0.98496	5.72497					0.688066	4.0198	0.921789	5.36605				
0.476841	2.76407	0.36589	2.11738	0.838224	4.85696	0.988865	5.71671					0.689794	4.00808	0.925389	5.35795				
0.478392	2.75816	0.367966	2.11797	0.840959	4.84664	0.992766	5.70851					0.691514	3.99644	0.928976	5.34985				
0.479946	2.75234	0.370042	2.11856	0.843677	4.83634	0.996662	5.70037					0.693227	3.98488	0.932548	5.34176				
0.481503	2.74659	0.372118	2.11914	0.846376	4.82604	1.00055	5.6923					0.694933	3.9734	0.936106	5.33367				
0.483064	2.74093	0.374194	2.11971	0.849059	4.81575							0.696631	3.96201	0.939649	5.32559				
0.484627	2.73534	0.37627	2.12028	0.851724	4.80547							0.698322	3.95069	0.943177	5.31751				
0.486194	2.72982	0.378345	2.12084	0.854373	4.79521							0.700007	3.93946	0.946691	5.30943				
0.487763	2.72438	0.380421	2.1214	0.857005	4.78496							0.701684	3.9283	0.95019	5.30135				
0.489336	2.71902	0.382496	2.12195	0.85962	4.77472							0.703356	3.91723	0.953674	5.29328				
0.490912	2.71373	0.384572	2.12249	0.862219	4.7645							0.705021	3.90623	0.957142	5.2852				
0.49249	2.7085	0.386647	2.12303	0.864801	4.7543							0.70668	3.89532	0.960596	5.27712				
0.494072	2.70335	0.388723	2.12356	0.867368	4.74411							0.708334	3.88448	0.964034	5.26904				
0.495657	2.69827	0.390798	2.12409	0.869919	4.73394							0.709982	3.87373	0.967457	5.26096				
0.497245	2.69325	0.392873	2.12461	0.872455	4.72378							0.711624	3.86305	0.970865	5.25287				
0.498835	2.6883	0.394949	2.12513	0.874975	4.71365							0.713261	3.85245	0.974257	5.24479				
0.500429	2.68341	0.397024	2.12563	0.877479	4.70354							0.714892	3.84193	0.977633	5.2367				
0.502025	2.67859	0.399099	2.12614	0.879969	4.69344							0.716519	3.83149	0.980994	5.22861				
0.503625	2.67384	0.401174	2.12664	0.882444	4.68337							0.71814	3.82112	0.98434	5.22051				
0.505227	2.66914	0.403249	2.12713	0.884904	4.67332							0.719757	3.81083	0.98767	5.21242				
0.506833	2.66451	0.405324	2.12762	0.88735	4.66329							0.72137	3.80062	0.990984	5.20432				
0.508441	2.65993	0.407399	2.12811	0.889782	4.65328							0.722978	3.79049	0.994283	5.19622				
0.510052	2.65542	0.409474	2.12859	0.892199	4.6433							0.724581	3.78043	0.997566	5.18811				
0.511666	2.65096	0.411549	2.12906	0.894602	4.63334							0.726181	3.77044	1.00083	5.18001				
0.513283	2.64656	0.413624	2.12953	0.896992	4.62341							0.727776	3.76054						
0.514902	2.64222	0.415699	2.12999	0.899368	4.6135							0.729368	3.7507						
0.516524	2.63793	0.417773	2.13045	0.90173	4.60361							0.730956	3.74095						
0.51815	2.6337	0.419848	2.13091	0.904079	4.59376							0.73254	3.73126						
0.519777	2.62952	0.421923	2.13136	0.906415	4.58393							0.734121	3.72165						
0.521408	2.62539	0.423997	2.13181	0.908738	4.57412							0.735698	3.71211						
0.523041	2.62132	0.426072	2.13225	0.911049	4.56435							0.737272	3.70265						
0.524677	2.6173	0.428146	2.13269	0.913346	4.5546							0.738843	3.69326						
0.526316	2.61333	0.430221	2.13312	0.915632	4.54488							0.74041	3.68394						
0.527957	2.60941	0.432295	2.13355	0.917905	4.53519							0.741975	3.67469						
0.529601	2.60553	0.43437	2.13398	0.920165	4.52552							0.743537	3.66551						
0.531248	2.60171	0.436444	2.1344	0.922414	4.51589							0.745096	3.6564						
0.532897	2.59793	0.438518	2.13481	0.924651	4.50629							0.746653	3.64736						
0.534549	2.5942	0.440593	2.13523	0.926876	4.49671							0.748207	3.6384						
0.536203	2.59052	0.442667	2.13564	0.92909	4.48717							0.749758	3.6295						
0.53786	2.58688	0.444741	2.13604	0.931292	4.47766							0.751308	3.62067						
0.53952	2.58328	0.446815	2.13644	0.933483	4.46818							0.752855	3.6119						
0.541182	2.57973	0.448889	2.13684	0.935663	4.45873							0.754399	3.60321						
0.542846	2.57623	0.450964	2.13724	0.937833	4.44931							0.755942	3.59458						
0.544513	2.57276	0.453038	2.13763	0.939991	4.43993							0.757483	3.58602						
0.546183	2.56934	0.455112	2.13801	0.942139	4.43057							0.759022	3.57753						
0.547855	2.56596	0.457186	2.1384	0.944276	4.42125							0.760559	3.5691						
0.549529	2.56262	0.45926	2.13878	0.946402	4.41196							0.762094	3.56073						
0.551206	2.55932	0.461333	2.13916	0.948519	4.40271							0.763628	3.55244						
0.552885	2.55606	0.463407	2.13953	0.950625	4.39348							0.76516	3.5442						
0.554567	2.55284	0.465481	2.1399	0.952722	4.38429							0.76669	3.53603						
0.556251	2.54965	0.467555	2.14026	0.954809	4.37514							0.76822	3.52792						
0.557937	2.54651	0.469629	2.14063	0.956886	4.36602							0.769747	3.51988						
0.559626	2.5434	0.471702	2.14099	0.958953	4.35693							0.771274	3.5119						
0.561317	2.54033	0.473776	2.14135	0.961011	4.34787							0.772799	3.50398						
0.56301	2.53729	0.47585	2.1417	0.96306	4.33885							0.774323	3.49612						
0.564706	2.53429	0.477924	2.14205	0.9651	4.32987							0.775846	3.48832						
0.566404	2.53133	0.479997	2.1424	0.96713	4.32092							0.777368	3.48058						
0.568104	2.5284	0.482071	2.14274	0.969152	4.312							0.778889	3.47291						
0.569806	2.5255	0.484144	2.14308	0.971165	4.30312							0.780409	3.46529						
0.571511	2.52264	0.486218	2.14342	0.973169	4.29427							0.781929	3.45773						
0.573217	2.51981	0.488291	2.14376	0.975165	4.28546							0.783447	3.45023						
0.574926	2.51702	0.490365	2.14409	0.977152	4.27668							0.784965	3.44279						
0.576638	2.51425	0.492438	2.14442	0.979131	4.26794							0.786482	3.4354						
0.578351	2.51152	0.494512	2.14475	0.981102	4.25923							0.787999	3.42808						
0.580066	2.50882	0.496585	2.14507	0.983064	4.25056							0.789514	3.42081						
0.581784	2.50615	0.498658	2.14539	0.985019	4.24192							0.79103	3.41359						
0.583504	2.50351	0.500732	2.14571	0.986966	4.23332							0.792545	3.40643						
0.585225	2.5009	0.502805	2.14603	0.988906	4.22476							0.794059	3.39933						
0.586949	2.49832	0.504878	2.14634	0.990837	4.21623							0.795573	3.39228						
0.588675	2.49577	0.506951	2.14665	0.992761	4.20773							0.797087	3.38529						
0.590403	2.49324	0.509024	2.14696	0.994678	4.19928							0.798601	3.37835						
0.592133	2.49075	0.511098	2.14727	0.996588	4.19085							0.800114	3.37146						
0.593865	2.48828	0.513171	2.14757	0.99849	4.18247							0.801627	3.36463						
0.595599	2.48585	0.515244	2.14787	1.00039	4.17412							0.80314	3.35785						
0.597335	2.48343	0.517317	2.14817									0.804653	3.35112						
0.599073	2.48105	0.51939	2.14847									0.806166	3.34444						
0.600813	2.47869	0.521463	2.14876									0.807679	3.33782						
0.602555	2.47636	0.523536	2.14905									0.809191	3.33124						
0.604299	2.47405	0.525609	2.14934									0.810704	3.32472						
0.606045	2.47177	0.527682	2.14963									0.812217	3.31824						
0.607792	2.46951	0.529755	2.14991									0.81373	3.31182						
0.609542	2.46728	0.531828	2.1502									0.815243	3.30544						
0.611293	2.46508	0.5339	2.15048									0.816757	3.29912						
0.613047	2.46289	0.535973	2.15075									0.81827	3.29284						
0.614802	2.46073	0.538046	2.15103									0.819784	3.28661						
0.616559	2.4586	0.540119	2.1513									0.821298	3.28043						
0.618318	2.45648	0.542192	2.15157									0.822813	3.27429						
0.620078	2.45439	0.544264	2.15184									0.824328	3.2682						
0.62184	2.45233	0.546337	2.15211									0.825843	3.26216						
0.623605	2.45028	0.54841	2.15238									0.827358	3.25616						
0.625371	2.44826	0.550482	2.15264									0.828874	3.25021						
0.627138	2.44625	0.552555	2.1529									0.830391	3.2443						
0.628908	2.44427	0.554627	2.15316									0.831908	3.23844						
0.630679	2.44231	0.5567	2.15342									0.833425	3.23263						
0.632452	2.44037	0.558773	2.15367									0.834943	3.22685						
0.634226	2.43845	0.560845	2.15392									0.836462	3.22112						
0.636002	2.43655	0.562918	2.15418									0.837981	3.21544						
0.63778	2.43468	0.56499	2.15443									0.839501	3.20979						
0.63956	2.43282	0.567063	2.15467									0.841021	3.20419						
0.641341	2.43098	0.569135	2.15492									0.842542	3.19863						
0.643124	2.42916	0.571207	2.15516									0.844064	3.19311						
0.644908	2.42735	0.57328	2.15541									0.845586	3.18764						
0.646694	2.42557	0.575352	2.15565									0.847109	3.1822						
0.648482	2.42381	0.577424	2.15588									0.848633	3.17681						
0.650271	2.42206	0.579497	2.15612									0.850158	3.17145						
0.652062	2.42033	0.581569	2.15636									0.851683	3.16614						
0.653855	2.41862	0.583641	2.15659									0.853209	3.16087						
0.655649	2.41692	0.585713	2.15682									0.854736	3.15563						
0.657444	2.41525	0.587786	2.15705									0.856264	3.15043						
0.659241	2.41359	0.589858	2.15728									0.857792	3.14528						
0.66104	2.41195	0.59193	2.15751									0.859322	3.14016						
0.66284	2.41032	0.594002	2.15773									0.860852	3.13507						
0.664641	2.40871	0.596074	2.15796									0.862383	3.13003						
0.666444	2.40712	0.598146	2.15818									0.863915	3.12502						
0.668249	2.40554	0.600218	2.1584									0.865448	3.12005						
0.670055	2.40398	0.60229	2.15862									0.866982	3.11512						
0.671862	2.40243	0.604362	2.15883									0.868517	3.11022						
0.673671	2.4009	0.606434	2.15905									0.870053	3.10536						
0.675481	2.39939	0.608506	2.15926									0.87159	3.10054						
0.677293	2.39789	0.610578	2.15948									0.873127	3.09575						
0.679106	2.3964	0.61265	2.15969									0.874666	3.09099						
0.680921	2.39493	0.614722	2.1599									0.876206	3.08627						
0.682737	2.39347	0.616794	2.16011									0.877747	3.08159						
0.684554	2.39203	0.618866	2.16031									0.879288	3.07693						
0.686373	2.3906	0.620938	2.16052									0.880831	3.07232						
0.688193	2.38919	0.62301	2.16072									0.882375	3.06773						
0.690014	2.38779	0.625081	2.16093									0.88392	3.06318						
0.691837	2.3864	0.627153	2.16113									0.885466	3.05866						
0.693661	2.38503	0.629225	2.16133									0.887013	3.05418						
0.695486	2.38367	0.631297	2.16153									0.888561	3.04972						
0.697313	2.38232	0.633368	2.16172									0.89011	3.0453						
0.699141	2.38099	0.63544	2.16192									0.891661	3.04091						
0.70097	2.37967	0.637512	2.16212									0.893212	3.03656						
0.702801	2.37836	0.639583	2.16231									0.894765	3.03223						
0.704633	2.37707	0.641655	2.1625									0.896318	3.02793						
0.706466	2.37578	0.643727	2.16269									0.897873	3.02367						
0.7083	2.37451	0.645798	2.16288									0.899429	3.01944						
0.710136	2.37325	0.64787	2.16307									0.900986	3.01523						
0.711972	2.372	0.649941	2.16326									0.902544	3.01106						
0.713811	2.37077	0.652013	2.16344									0.904104	3.00691						
0.71565	2.36955	0.654084	2.16363									0.905664	3.0028						
0.71749	2.36833	0.656156	2.16381									0.907226	2.99872						
0.719332	2.36713	0.658227	2.16399									0.908789	2.99466						
0.721175	2.36594	0.660299	2.16417									0.910353	2.99063						
0.723019	2.36476	0.66237	2.16435									0.911918	2.98663						
0.724864	2.3636	0.664442	2.16453									0.913485	2.98266						
0.72671	2.36244	0.666513	2.16471									0.915052	2.97872						
0.728558	2.36129	0.668585	2.16489									0.916621	2.9748						
0.730407	2.36016	0.670656	2.16506									0.918191	2.97091						
0.732256	2.35903	0.672727	2.16524									0.919763	2.96705						
0.734107	2.35792	0.674799	2.16541									0.921335	2.96322						
0.735959	2.35682	0.67687	2.16558									0.922909	2.95941						
0.737813	2.35572	0.678941	2.16575									0.924484	2.95563						
0.739667	2.35464	0.681012	2.16592									0.92606	2.95188						
0.741522	2.35356	0.683084	2.16609									0.927637	2.94815						
0.743379	2.3525	0.685155	2.16626									0.929216	2.94445						
0.745237	2.35145	0.687226	2.16643									0.930796	2.94078						
0.747095	2.3504	0.689297	2.16659									0.932377	2.93713						
0.748955	2.34936	0.691368	2.16676									0.933959	2.9335						
0.750816	2.34834	0.693439	2.16692									0.935543	2.9299						
0.752678	2.34732	0.695511	2.16708									0.937127	2.92632						
0.75454	2.34631	0.697582	2.16725									0.938713	2.92277						
0.756404	2.34532	0.699653	2.16741									0.940301	2.91925						
0.758269	2.34433	0.701724	2.16757									0.941889	2.91575						
0.760135	2.34334	0.703795	2.16772									0.943479	2.91227						
0.762002	2.34237	0.705866	2.16788									0.94507	2.90881						
0.76387	2.34141	0.707937	2.16804									0.946662	2.90538						
0.765739	2.34045	0.710008	2.1682									0.948256	2.90197						
0.767609	2.33951	0.712079	2.16835									0.949851	2.89859						
0.76948	2.33857	0.71415	2.1685									0.951447	2.89523						
0.771352	2.33764	0.716221	2.16866									0.953044	2.89189						
0.773225	2.33672	0.718292	2.16881									0.954643	2.88858						
0.775099	2.3358	0.720363	2.16896									0.956243	2.88528						
0.776974	2.3349	0.722434	2.16911									0.957844	2.88201						
0.77885	2.334	0.724504	2.16926									0.959446	2.87876						
0.780727	2.33311	0.726575	2.16941									0.96105	2.87554						
0.782605	2.33223	0.728646	2.16956									0.962655	2.87233						
0.784483	2.33135	0.730717	2.1697									0.964261	2.86915						
0.786363	2.33049	0.732788	2.16985									0.965869	2.86599						
0.788244	2.32963	0.734858	2.16999									0.967477	2.86284						
0.790125	2.32878	0.736929	2.17014									0.969087	2.85972						
0.792007	2.32793	0.739	2.17028									0.970699	2.85663						
0.793891	2.32709	0.741071	2.17043									0.972311	2.85355						
0.795775	2.32626	0.743141	2.17057									0.973925	2.85049						
0.79766	2.32544	0.745212	2.17071									0.97554	2.84745						
0.799546	2.32463	0.747283	2.17085									0.977156	2.84443						
0.801433	2.32382	0.749353	2.17099									0.978774	2.84144						
0.80332	2.32301	0.751424	2.17113									0.980393	2.83846						
0.805209	2.32222	0.753495	2.17126									0.982013	2.8355						
0.807098	2.32143	0.755565	2.1714									0.983634	2.83256						
0.808989	2.32065	0.757636	2.17154									0.985257	2.82964						
0.81088	2.31987	0.759706	2.17167									0.986881	2.82674						
0.812772	2.3191	0.761777	2.17181									0.988506	2.82386						
0.814665	2.31834	0.763848	2.17194									0.990132	2.821						
0.816558	2.31759	0.765918	2.17207									0.99176	2.81816						
0.818453	2.31684	0.767989	2.17221									0.993389	2.81533						
0.820348	2.31609	0.770059	2.17234									0.995019	2.81252						
0.822244	2.31536	0.772129	2.17247									0.996651	2.80974						
0.824141	2.31462	0.7742	2.1726									0.998283	2.80697						
0.826039	2.3139	0.77627	2.17273									0.999917	2.80421						
0.827937	2.31318	0.778341	2.17286									1.00155	2.80148						
0.829837	2.31247	0.780411	2.17298																
0.831737	2.31176	0.782481	2.17311																
0.833638	2.31106	0.784552	2.17324																
0.835539	2.31036	0.786622	2.17336																
0.837442	2.30967	0.788693	2.17349																
0.839345	2.30899	0.790763	2.17361																
0.841249	2.30831	0.792833	2.17374																
0.843154	2.30764	0.794903	2.17386																
0.845059	2.30697	0.796974	2.17398																
0.846966	2.30631	0.799044	2.1741																
0.848873	2.30565	0.801114	2.17423																
0.85078	2.305	0.803184	2.17435																
0.852689	2.30436	0.805255	2.17447																
0.854598	2.30371	0.807325	2.17459																
0.856508	2.30308	0.809395	2.1747																
0.858418	2.30245	0.811465	2.17482																
0.86033	2.30182	0.813535	2.17494																
0.862242	2.3012	0.815605	2.17506																
0.864155	2.30059	0.817675	2.17517																
0.866068	2.29998	0.819745	2.17529																
0.867982	2.29937	0.821815	2.1754																
0.869897	2.29877	0.823886	2.17552																
0.871813	2.29817	0.825956	2.17563																
0.873729	2.29758	0.828026	2.17574																
0.875646	2.29699	0.830096	2.17585																
0.877563	2.29641	0.832166	2.17597																
0.879482	2.29583	0.834235	2.17608																
0.881401	2.29526	0.836305	2.17619																
0.88332	2.29469	0.838375	2.1763																
0.885241	2.29413	0.840445	2.17641																
0.887161	2.29357	0.842515	2.17652																
0.889083	2.29301	0.844585	2.17662																
0.891005	2.29246	0.846655	2.17673																
0.892928	2.29191	0.848725	2.17684																
0.894851	2.29137	0.850795	2.17695																
0.896775	2.29083	0.852864	2.17705																
0.8987	2.2903	0.854934	2.17716																
0.900626	2.28977	0.857004	2.17726																
0.902552	2.28924	0.859074	2.17737																
0.904478	2.28872	0.861143	2.17747																
0.906405	2.2882	0.863213	2.17757																
0.908333	2.28769	0.865283	2.17768																
0.910262	2.28718	0.867353	2.17778																
0.912191	2.28667	0.869422	2.17788																
0.91412	2.28617	0.871492	2.17798																
0.91605	2.28567	0.873562	2.17808																
0.917981	2.28518	0.875631	2.17818																
0.919913	2.28469	0.877701	2.17828																
0.921845	2.2842	0.87977	2.17838																
0.923777	2.28372	0.88184	2.17848																
0.92571	2.28324	0.88391	2.17858																
0.927644	2.28276	0.885979	2.17868																
0.929578	2.28229	0.888049	2.17878																
0.931513	2.28182	0.890118	2.17887																
0.933448	2.28135	0.892188	2.17897																
0.935384	2.28089	0.894257	2.17906																
0.937321	2.28043	0.896327	2.17916																
0.939258	2.27997	0.898396	2.17926																
0.941196	2.27952	0.900466	2.17935																
0.943134	2.27907	0.902535	2.17944																
0.945072	2.27863	0.904604	2.17954																
0.947012	2.27819	0.906674	2.17963																
0.948951	2.27775	0.908743	2.17972																
0.950892	2.27731	0.910813	2.17982																
0.952833	2.27688	0.912882	2.17991																
0.954774	2.27645	0.914951	2.18																
0.956716	2.27602	0.917021	2.18009																
0.958658	2.2756	0.91909	2.18018																
0.960601	2.27518	0.921159	2.18027																
0.962545	2.27476	0.923229	2.18036																
0.964488	2.27435	0.925298	2.18045																
0.966433	2.27394	0.927367	2.18054																
0.968378	2.27353	0.929436	2.18063																
0.970323	2.27313	0.931505	2.18071																
0.972269	2.27273	0.933575	2.1808																
0.974216	2.27233	0.935644	2.18089																
0.976163	2.27193	0.937713	2.18097																
0.97811	2.27154	0.939782	2.18106																
0.980058	2.27115	0.941851	2.18115																
0.982006	2.27076	0.94392	2.18123																
0.983955	2.27037	0.94599	2.18132																
0.985904	2.26999	0.948059	2.1814																
0.987854	2.26961	0.950128	2.18149																
0.989805	2.26924	0.952197	2.18157																
0.991755	2.26886	0.954266	2.18165																
0.993707	2.26849	0.956335	2.18174																
0.995658	2.26812	0.958404	2.18182																
0.99761	2.26776	0.960473	2.1819																
0.999563	2.26739	0.962542	2.18198																
1.00152	2.26703	0.964611	2.18206																
		0.96668	2.18215																
		0.968749	2.18223																
		0.970818	2.18231																
		0.972887	2.18239																
		0.974955	2.18247																
		0.977024	2.18255																
		0.979093	2.18262																
		0.981162	2.1827																
		0.983231	2.18278																
		0.9853	2.18286																
		0.987368	2.18294																
		0.989437	2.18301																
		0.991506	2.18309																
		0.993575	2.18317																
		0.995643	2.18324																
		0.997712	2.18332																
		0.999781	2.18339																
		1.00185	2.18347																
