Sym0		Asym0		Sym1		Sym2		Sym3		Sym4		Asym1		Asym2		Asym3	
475  Points		494  Points		237  Points		161  Points		133  Points		107  Points		381  Points		180  Points		142  Points	
Freq (MHz)	Vph (m/ms)	Freq (MHz)	Vph (m/ms)	Freq (MHz)	Vph (m/ms)	Freq (MHz)	Vph (m/ms)	Freq (MHz)	Vph (m/ms)	Freq (MHz)	Vph (m/ms)	Freq (MHz)	Vph (m/ms)	Freq (MHz)	Vph (m/ms)	Freq (MHz)	Vph (m/ms)
0.000649058	6.62288	0.000326398	0.176754	0.279515	795.9	0.451909	869.964	0.55902	1917.39	0.838525	19947.1	0.139797	275.667	0.419281	630.994	0.698772	5335.43
0.00681929	6.62262	0.000735083	0.264579	0.279596	217.943	0.451974	311.459	0.559068	457.036	0.838545	861.166	0.140097	97.3694	0.419368	262.734	0.698798	657.591
0.0129881	6.62188	0.00130174	0.350872	0.27977	126.331	0.4521	189.731	0.559177	259.486	0.838601	440.111	0.140682	59.3464	0.419527	165.961	0.698865	350.421
0.0191542	6.62069	0.00201974	0.435128	0.280036	89.0054	0.452287	136.455	0.559345	181.215	0.838692	295.614	0.141546	42.8641	0.419757	121.332	0.698973	238.879
0.0253163	6.61903	0.00288143	0.516996	0.280394	68.7581	0.452536	106.573	0.559572	139.255	0.838819	222.568	0.142684	33.7003	0.420059	95.658	0.699122	181.225
0.0314731	6.6169	0.00387792	0.596136	0.280843	56.0601	0.452847	87.4571	0.559859	113.102	0.838982	178.487	0.144086	27.8934	0.420432	78.9847	0.699312	146.011
0.0376233	6.6143	0.00499989	0.672319	0.281382	47.3599	0.45322	74.1813	0.560205	95.2451	0.839181	148.997	0.145742	23.9028	0.420876	67.2901	0.699543	122.273
0.0437654	6.61122	0.00623744	0.745349	0.282012	41.0315	0.453656	64.4277	0.560611	82.2804	0.839416	127.884	0.147642	21.0047	0.421391	58.6377	0.699814	105.19
0.0498982	6.60766	0.00758072	0.815115	0.28273	36.2254	0.454155	56.9615	0.561075	72.4425	0.839686	112.024	0.149773	18.814	0.421976	51.98	0.700127	92.3099
0.0560201	6.6036	0.00901985	0.881544	0.283537	32.4545	0.454718	51.0648	0.561598	64.7241	0.839992	99.6752	0.152122	17.107	0.422631	46.7009	0.70048	82.2524
0.0621297	6.59905	0.0105455	0.944632	0.28443	29.4193	0.455345	46.2918	0.56218	58.5086	0.840334	89.789	0.154677	15.7447	0.423356	42.4143	0.700873	74.1828
0.0682256	6.59398	0.0121485	1.0044	0.285409	26.9258	0.456037	42.3507	0.562821	53.3976	0.840711	81.6963	0.157425	14.6364	0.42415	38.866	0.701307	67.5658
0.0743062	6.58839	0.0138206	1.06092	0.286473	24.8425	0.456794	39.0429	0.563519	49.1217	0.841124	74.9506	0.160355	13.7203	0.425012	35.8817	0.701781	62.0424
0.0803697	6.58227	0.0155539	1.11428	0.287619	23.0774	0.457618	36.2284	0.564276	45.4929	0.841572	69.242	0.163454	12.9528	0.425942	33.3379	0.702296	57.363
0.0864148	6.5756	0.0173412	1.1646	0.288848	21.564	0.458509	33.8054	0.565089	42.3755	0.842056	64.349	0.16671	12.3026	0.42694	31.1449	0.70285	53.3485
0.0924395	6.56837	0.0191761	1.21199	0.290157	20.253	0.459469	31.6987	0.565961	39.6693	0.842575	60.1089	0.170113	11.7461	0.428005	29.2355	0.703445	49.8671
0.098442	6.56056	0.0210526	1.25659	0.291545	19.1073	0.460497	29.8509	0.566889	37.2986	0.843129	56.3998	0.173652	11.2657	0.429136	27.5589	0.70408	46.8198
0.10442	6.55215	0.0229654	1.29855	0.293011	18.0982	0.461595	28.2178	0.567873	35.2052	0.843718	53.128	0.177318	10.8479	0.430333	26.0756	0.704754	44.1305
0.110373	6.54312	0.0249098	1.338	0.294553	17.2035	0.462764	26.7649	0.568914	33.3438	0.844343	50.221	0.181102	10.4819	0.431594	24.7545	0.705468	41.74
0.116297	6.53346	0.0268816	1.3751	0.29617	16.4052	0.464005	25.4645	0.570011	31.6783	0.845002	47.6212	0.184994	10.1593	0.43292	23.5709	0.706221	39.6015
0.122191	6.52314	0.028877	1.40997	0.297862	15.6892	0.465318	24.2943	0.571163	30.1796	0.845696	45.2827	0.188469	9.90834	0.434309	22.5049	0.707013	37.6775
0.128052	6.51214	0.0308928	1.44277	0.299626	15.0439	0.466705	23.2364	0.572371	28.8244	0.846425	43.1682	0.191488	9.7136	0.43576	21.5402	0.707845	35.9375
0.133878	6.50044	0.0329262	1.47361	0.301462	14.4597	0.468167	22.2759	0.573632	27.5933	0.847189	41.2471	0.194021	9.56444	0.437273	20.6634	0.708715	34.3565
0.139667	6.488	0.0347103	1.49899	0.303369	13.9287	0.469704	21.4003	0.574949	26.4703	0.847987	39.4945	0.196047	9.45343	0.438848	19.8632	0.709624	32.914
0.145415	6.4748	0.0362391	1.51959	0.305346	13.4443	0.471317	20.5994	0.576319	25.442	0.848819	37.8891	0.197549	9.37543	0.440482	19.1305	0.710572	31.5927
0.151121	6.4608	0.0375082	1.53594	0.307393	13.0011	0.473008	19.8644	0.577742	24.4973	0.849685	36.4134	0.198516	9.32704	0.442175	18.4572	0.711558	30.3781
0.15678	6.44599	0.0385143	1.54845	0.309509	12.5943	0.474777	19.1879	0.579218	23.6265	0.850586	35.0524	0.199913	9.25949	0.443927	17.8366	0.712582	29.2581
0.16239	6.43032	0.0392556	1.55742	0.311694	12.2199	0.476626	18.5636	0.580747	22.8215	0.851521	33.7935	0.20144	9.18862	0.445737	17.2631	0.713644	28.2221
0.167947	6.41376	0.0397307	1.56306	0.313948	11.8746	0.478554	17.9861	0.582328	22.0754	0.852489	32.6255	0.203533	9.09631	0.447603	16.7316	0.714743	27.2611
0.173449	6.39628	0.0404144	1.57104	0.316271	11.5552	0.480562	17.4505	0.583961	21.3821	0.853491	31.5393	0.206204	8.98582	0.449525	16.2379	0.71588	26.3675
0.178891	6.37784	0.0411584	1.57953	0.318664	11.2594	0.482652	16.9528	0.585644	20.7364	0.854527	30.5266	0.209467	8.86079	0.451502	15.7783	0.717054	25.5345
0.18427	6.35841	0.042172	1.5908	0.321127	10.9848	0.484823	16.4895	0.587379	20.1336	0.855596	29.5802	0.21334	8.72498	0.453532	15.3495	0.718265	24.7562
0.189582	6.33795	0.0434562	1.6046	0.323661	10.7295	0.487077	16.0573	0.589164	19.5698	0.856698	28.6941	0.217841	8.58203	0.455616	14.9487	0.719513	24.0277
0.194824	6.31643	0.0450123	1.62064	0.326268	10.4919	0.489414	15.6535	0.590999	19.0414	0.857833	27.8626	0.222396	8.45129	0.457752	14.5733	0.720797	23.3442
0.19999	6.29381	0.0468416	1.6386	0.328948	10.2704	0.491833	15.2757	0.592883	18.5455	0.859001	27.081	0.227002	8.33134	0.459939	14.2211	0.722118	22.702
0.205077	6.27006	0.0489449	1.65814	0.331344	10.0894	0.494336	14.9216	0.594817	18.079	0.860201	26.345	0.231655	8.22098	0.462177	13.8901	0.723474	22.0974
0.210081	6.24516	0.0510521	1.67661	0.333433	9.94348	0.496921	14.5894	0.596799	17.6398	0.861434	25.6509	0.23635	8.11914	0.464464	13.5786	0.724867	21.5273
0.214998	6.21907	0.0531623	1.69407	0.335193	9.82821	0.49959	14.2772	0.598829	17.2254	0.8627	24.9951	0.241083	8.02492	0.4668	13.2851	0.726294	20.9889
0.219823	6.19178	0.0552748	1.7106	0.336605	9.74038	0.502343	13.9835	0.600908	16.834	0.863997	24.3747	0.245853	7.9375	0.469184	13.008	0.727757	20.4798
0.224553	6.16327	0.0573893	1.72627	0.337656	9.6776	0.505178	13.707	0.603034	16.4639	0.865327	23.787	0.250654	7.85621	0.471615	12.7461	0.729255	19.9976
0.229184	6.13352	0.059505	1.74111	0.338333	9.63819	0.508096	13.4462	0.605207	16.1133	0.866688	23.2295	0.255485	7.78041	0.474091	12.4984	0.730788	19.5404
0.233712	6.10255	0.0616217	1.7552	0.339315	9.58258	0.511095	13.2001	0.607427	15.781	0.868081	22.6999	0.260342	7.70957	0.476614	12.2636	0.732355	19.1063
0.238135	6.07034	0.063739	1.76857	0.340392	9.5235	0.514177	12.9677	0.609694	15.4655	0.869505	22.1964	0.265222	7.64321	0.479181	12.041	0.733956	18.6937
0.242448	6.03693	0.0658568	1.78128	0.341873	9.44535	0.517339	12.7479	0.612007	15.1658	0.87096	21.717	0.270123	7.5809	0.481792	11.8297	0.735591	18.3011
0.246651	6.00232	0.0679746	1.79337	0.343774	9.35004	0.520581	12.5399	0.614367	14.8807	0.872447	21.2602	0.275042	7.52226	0.484445	11.6288	0.73726	17.9271
0.25074	5.96656	0.0700923	1.80488	0.346116	9.23979	0.523902	12.3429	0.616772	14.6093	0.873964	20.8244	0.279977	7.46697	0.487142	11.4377	0.738962	17.5704
0.254715	5.92968	0.0722098	1.81584	0.348922	9.1171	0.527302	12.1561	0.619223	14.3506	0.875511	20.4082	0.284926	7.4147	0.48988	11.2558	0.740697	17.23
0.258575	5.89174	0.0743269	1.82629	0.352224	8.98464	0.530778	11.979	0.621719	14.104	0.877089	20.0104	0.289885	7.3652	0.492659	11.0824	0.742466	16.9047
0.262319	5.8528	0.0764435	1.83626	0.355613	8.8605	0.53433	11.8108	0.624261	13.8685	0.878698	19.6298	0.294854	7.31821	0.495478	10.917	0.744266	16.5937
0.265947	5.81292	0.0785594	1.84578	0.35909	8.74415	0.537955	11.651	0.626849	13.6436	0.880336	19.2654	0.29983	7.27351	0.498338	10.7592	0.746099	16.2961
0.269462	5.77219	0.0806748	1.85487	0.362656	8.63508	0.541654	11.4991	0.629481	13.4286	0.882004	18.9162	0.304811	7.23091	0.501236	10.6083	0.747964	16.011
0.272863	5.73068	0.0827894	1.86357	0.366311	8.53283	0.545424	11.3545	0.632159	13.2229	0.883701	18.5814	0.309795	7.19022	0.504174	10.4642	0.749861	15.7377
0.276154	5.68848	0.0849031	1.87189	0.370056	8.43694	0.549262	11.2169	0.634883	13.026	0.885428	18.2599	0.31478	7.15129	0.506764	10.3436	0.75179	15.4756
0.279336	5.64568	0.0870161	1.87987	0.373888	8.34701	0.553169	11.0857	0.637651	12.8374	0.887183	17.9512	0.319765	7.11395	0.508996	10.2445	0.753749	15.2239
0.282413	5.60237	0.0891283	1.8875	0.377807	8.26265	0.557141	10.9607	0.640466	12.6567	0.888968	17.6545	0.324747	7.07807	0.510856	10.1648	0.75574	14.9822
0.285388	5.55865	0.0912395	1.89483	0.381812	8.18348	0.561176	10.8413	0.643326	12.4833	0.890781	17.3691	0.329724	7.04353	0.512338	10.1033	0.757761	14.7498
0.288264	5.5146	0.0933499	1.90186	0.3859	8.10917	0.565273	10.7274	0.646233	12.3171	0.892623	17.0945	0.334696	7.01022	0.513432	10.0589	0.759813	14.5263
0.291046	5.47031	0.0954595	1.90861	0.390068	8.03936	0.56943	10.6185	0.649186	12.1575	0.894493	16.83	0.33966	6.97802	0.514135	10.0308	0.761896	14.3112
0.293736	5.42587	0.0975682	1.91509	0.394314	7.97375	0.573643	10.5144	0.652186	12.0042	0.89639	16.5752	0.344615	6.94684	0.515149	9.99094	0.764008	14.1041
0.29634	5.38135	0.0996761	1.92133	0.398634	7.91205	0.577359	10.4274	0.655234	11.857	0.898316	16.3294	0.349559	6.91659	0.516256	9.94821	0.76615	13.9045
0.298862	5.33685	0.101783	1.92733	0.403025	7.85396	0.580559	10.3557	0.65833	11.7155	0.900269	16.0924	0.35449	6.8872	0.517769	9.8911	0.768322	13.712
0.301305	5.29242	0.103889	1.93311	0.407483	7.79922	0.583225	10.2981	0.661474	11.5794	0.902249	15.8636	0.359407	6.85857	0.519694	9.8205	0.770522	13.5264
0.303673	5.24814	0.105995	1.93868	0.412003	7.74758	0.585347	10.2537	0.664669	11.4486	0.904257	15.6427	0.364308	6.83065	0.52204	9.73749	0.772752	13.3472
0.305972	5.20406	0.108099	1.94404	0.416582	7.6988	0.586914	10.2215	0.667913	11.3228	0.906291	15.4292	0.369191	6.80337	0.524818	9.64326	0.775011	13.1742
0.308203	5.16024	0.110203	1.94921	0.421216	7.65266	0.58792	10.2012	0.67121	11.2018	0.908353	15.2228	0.374056	6.77667	0.528038	9.53913	0.777299	13.0071
0.310372	5.11674	0.112306	1.95421	0.425899	7.60896	0.589371	10.1724	0.674559	11.0853	0.91044	15.0232	0.3789	6.75049	0.531295	9.43908	0.779614	12.8456
0.312482	5.0736	0.114408	1.95903	0.43063	7.56751	0.590953	10.1414	0.677961	10.9732	0.912554	14.8301	0.383722	6.72478	0.534586	9.3429	0.781958	12.6894
0.314537	5.03085	0.11651	1.96369	0.435402	7.52812	0.593114	10.1001	0.681419	10.8653	0.914693	14.6432	0.388521	6.69948	0.537912	9.25041	0.78433	12.5383
0.316539	4.98854	0.118611	1.96819	0.440213	7.49063	0.595861	10.0489	0.684933	10.7615	0.916859	14.4621	0.393295	6.67457	0.541273	9.16142	0.78673	12.3921
0.318492	4.94669	0.120711	1.97254	0.445058	7.45488	0.599204	9.98869	0.688043	10.6742	0.91905	14.2867	0.398042	6.64999	0.544668	9.07576	0.789157	12.2506
0.3204	4.90533	0.12281	1.97675	0.449934	7.42075	0.603152	9.92025	0.690729	10.602	0.921266	14.1167	0.402762	6.62571	0.548097	8.99329	0.791611	12.1135
0.322264	4.86448	0.124909	1.98083	0.454837	7.38808	0.607717	9.84446	0.692976	10.5439	0.923508	13.9519	0.407452	6.60168	0.551561	8.91386	0.794092	11.9806
0.324088	4.82417	0.127007	1.98478	0.459764	7.35678	0.612314	9.77146	0.694769	10.4989	0.925774	13.792	0.412112	6.57788	0.555059	8.83732	0.796601	11.8519
0.325875	4.78441	0.129105	1.98861	0.464711	7.32672	0.616941	9.70106	0.696097	10.4663	0.928066	13.6368	0.416739	6.55427	0.558591	8.76356	0.799136	11.727
0.327402	4.75022	0.131202	1.99232	0.469676	7.2978	0.621594	9.6331	0.696951	10.4457	0.930381	13.4862	0.421333	6.53082	0.562157	8.69245	0.801697	11.6059
0.328685	4.72142	0.133299	1.99591	0.474656	7.26993	0.626271	9.56743	0.698185	10.4164	0.932721	13.34	0.425893	6.50752	0.565757	8.62387	0.804285	11.4885
0.329732	4.69784	0.135395	1.9994	0.479648	7.24303	0.630966	9.50389	0.699534	10.385	0.935085	13.1979	0.430416	6.48432	0.56939	8.55772	0.806898	11.3744
0.330552	4.67935	0.13749	2.00279	0.48465	7.21702	0.635678	9.44235	0.701381	10.3429	0.937473	13.0599	0.434903	6.46122	0.573058	8.49389	0.809538	11.2637
0.331151	4.66584	0.139585	2.00608	0.489658	7.19182	0.640402	9.38267	0.703741	10.2908	0.939885	12.9257	0.43935	6.43819	0.576758	8.4323	0.812203	11.1561
0.331532	4.65724	0.141679	2.00928	0.494671	7.16737	0.645134	9.32472	0.706627	10.2295	0.94232	12.7953	0.443759	6.4152	0.580492	8.37284	0.814894	11.0517
0.332077	4.64492	0.143773	2.01238	0.499687	7.14361	0.649872	9.26839	0.710062	10.1598	0.944778	12.6684	0.448127	6.39225	0.584259	8.31543	0.817259	10.963
0.332666	4.63161	0.145867	2.0154	0.504703	7.12048	0.654612	9.21355	0.71407	10.0828	0.94726	12.5449	0.452453	6.36931	0.58806	8.25999	0.81929	10.8892
0.333462	4.61362	0.14796	2.01834	0.509718	7.09794	0.659349	9.16011	0.71815	10.0087	0.949764	12.4248	0.456737	6.34637	0.591893	8.20644	0.820981	10.8293
0.33446	4.59108	0.150052	2.0212	0.51473	7.07592	0.664082	9.10797	0.722304	9.93756	0.952292	12.3078	0.460977	6.32343	0.595759	8.1547	0.822324	10.7826
0.335654	4.56411	0.152145	2.02398	0.519737	7.05441	0.668805	9.05702	0.726534	9.86925	0.954841	12.194	0.465172	6.30046	0.599658	8.1047	0.823315	10.7487
0.337039	4.53289	0.154236	2.02669	0.524738	7.03334	0.673518	9.00719	0.730842	9.80369	0.957414	12.083	0.469323	6.27746	0.603588	8.05637	0.823951	10.7272
0.338607	4.49762	0.156328	2.02932	0.529731	7.01269	0.678215	8.95839	0.735229	9.7408	0.960008	11.975	0.473428	6.25442	0.607551	8.00966	0.824868	10.6965
0.340154	4.46294	0.158419	2.03189	0.534715	6.99242	0.682896	8.91056	0.739696	9.68049	0.962624	11.8697	0.477486	6.23134	0.611545	7.96448	0.825867	10.6635
0.341682	4.42885	0.16051	2.0344	0.539688	6.9725	0.687558	8.86363	0.744245	9.62269	0.965263	11.767	0.481498	6.2082	0.615569	7.92079	0.827231	10.619
0.343192	4.39534	0.1626	2.03684	0.544649	6.9529	0.692198	8.81755	0.748875	9.5673	0.967923	11.6669	0.485462	6.18501	0.619625	7.87852	0.828965	10.5637
0.344686	4.36242	0.16469	2.03922	0.549597	6.9336	0.696816	8.77226	0.753588	9.51426	0.970605	11.5693	0.489378	6.16177	0.623711	7.83762	0.831074	10.4979
0.346164	4.33006	0.16678	2.04154	0.554531	6.91457	0.70141	8.72772	0.758383	9.46348	0.973308	11.4741	0.493246	6.13846	0.627826	7.79804	0.833564	10.4225
0.347627	4.29828	0.168869	2.04381	0.55945	6.89579	0.705979	8.68391	0.763259	9.41487	0.976032	11.3812	0.497065	6.11509	0.63197	7.75971	0.836445	10.3381
0.349078	4.26705	0.170958	2.04602	0.564352	6.87724	0.710523	8.64078	0.768217	9.36836	0.978424	11.3021	0.500836	6.09165	0.636142	7.7226	0.839349	10.2559
0.350516	4.23639	0.173047	2.04818	0.569237	6.85889	0.715043	8.59831	0.773255	9.32386	0.980475	11.236	0.504558	6.06816	0.640342	7.68664	0.842277	10.1758
0.351943	4.20627	0.175135	2.05029	0.574103	6.84073	0.719537	8.55649	0.778371	9.28128	0.98218	11.1822	0.508232	6.04461	0.644569	7.6518	0.845229	10.0978
0.353359	4.17669	0.177223	2.05235	0.578951	6.82275	0.724007	8.51531	0.783564	9.24055	0.983533	11.1402	0.511857	6.02101	0.648821	7.61803	0.848204	10.0218
0.354766	4.14764	0.179311	2.05437	0.583778	6.80492	0.728454	8.47474	0.788833	9.20158	0.984532	11.1096	0.515434	5.99735	0.653099	7.58528	0.851202	9.94773
0.356164	4.11911	0.181399	2.05634	0.588584	6.78724	0.732878	8.43479	0.794174	9.16429	0.985172	11.0902	0.518962	5.97365	0.657402	7.55351	0.854223	9.87551
0.357553	4.0911	0.183487	2.05826	0.593369	6.76968	0.737282	8.39545	0.799586	9.12859	0.986095	11.0625	0.522442	5.9499	0.661727	7.52268	0.857266	9.80509
0.358936	4.0636	0.185574	2.06014	0.598131	6.75224	0.741666	8.35671	0.805066	9.09442	0.9871	11.0326	0.525875	5.92611	0.666075	7.49274	0.860333	9.7364
0.360311	4.0366	0.187661	2.06198	0.60287	6.7349	0.746032	8.31858	0.810611	9.06169	0.988472	10.9923	0.52926	5.90229	0.670444	7.46367	0.863422	9.66941
0.361681	4.01008	0.189747	2.06378	0.607586	6.71765	0.750382	8.28105	0.81622	9.03034	0.990213	10.942	0.532599	5.87844	0.674834	7.43542	0.866533	9.60404
0.363045	3.98405	0.191834	2.06555	0.612276	6.70049	0.754718	8.24413	0.821889	9.00028	0.99233	10.8822	0.535891	5.85457	0.679243	7.40795	0.869666	9.54025
0.364404	3.95849	0.19392	2.06727	0.616942	6.6834	0.75904	8.20781	0.827615	8.97145	0.994827	10.8133	0.539137	5.83069	0.683671	7.38124	0.872821	9.47799
0.365758	3.93339	0.196006	2.06896	0.621581	6.66638	0.763352	8.1721	0.833396	8.94379	0.997711	10.7359	0.542339	5.8068	0.688116	7.35524	0.875998	9.41721
0.367108	3.90875	0.198092	2.07061	0.626194	6.64941	0.767653	8.13699	0.83923	8.91723	1.00062	10.6603	0.545495	5.78291	0.692576	7.32992	0.879197	9.35787
0.368455	3.88455	0.200178	2.07223	0.630781	6.63249	0.771947	8.10249	0.845113	8.89172			0.548608	5.75902	0.697052	7.30526	0.882417	9.29992
0.369799	3.8608	0.202263	2.07382	0.635339	6.61562	0.776234	8.06858	0.851043	8.86719			0.551677	5.73515	0.701542	7.28122	0.885658	9.24331
0.37114	3.83747	0.204349	2.07538	0.63987	6.59878	0.780516	8.03527	0.857019	8.8436			0.554703	5.71129	0.706045	7.25777	0.88892	9.18802
0.372479	3.81456	0.206434	2.0769	0.644372	6.58196	0.784795	8.00256	0.863036	8.82089			0.557688	5.68747	0.710559	7.23489	0.892203	9.13399
0.373815	3.79207	0.208519	2.0784	0.648845	6.56517	0.789071	7.97044	0.869094	8.79902			0.560631	5.66367	0.715084	7.21254	0.895507	9.0812
0.37515	3.76998	0.210604	2.07986	0.653289	6.5484	0.793346	7.93891	0.87519	8.77794			0.563534	5.63991	0.719619	7.1907	0.898832	9.0296
0.376484	3.74829	0.212688	2.0813	0.657702	6.53164	0.797621	7.90796	0.881322	8.7576			0.566397	5.6162	0.724162	7.16935	0.902177	8.97916
0.377817	3.72699	0.214773	2.08271	0.662086	6.5149	0.801897	7.87759	0.887488	8.73797			0.569222	5.59254	0.728712	7.14846	0.905542	8.92985
0.379149	3.70607	0.216857	2.08409	0.666439	6.49815	0.806175	7.84779	0.893685	8.71901			0.572008	5.56893	0.733268	7.12801	0.908928	8.88163
0.380481	3.68552	0.218941	2.08545	0.67076	6.48141	0.810456	7.81855	0.899912	8.70067			0.574757	5.54539	0.73783	7.10798	0.912333	8.83448
0.381813	3.66534	0.221025	2.08678	0.675051	6.46467	0.81474	7.78986	0.906168	8.68294			0.577469	5.52192	0.742396	7.08834	0.915758	8.78836
0.383144	3.64552	0.223109	2.08809	0.67931	6.44793	0.819028	7.76172	0.91245	8.66577			0.580145	5.49853	0.746964	7.06907	0.919203	8.74324
0.384476	3.62605	0.225193	2.08937	0.683537	6.43118	0.823322	7.73412	0.918756	8.64913			0.582786	5.47521	0.751535	7.05016	0.922668	8.6991
0.385809	3.60692	0.227276	2.09063	0.687732	6.41442	0.82762	7.70705	0.925086	8.633			0.585393	5.45198	0.756106	7.03159	0.926151	8.65591
0.387142	3.58813	0.22936	2.09186	0.691895	6.39765	0.831925	7.68049	0.931436	8.61733			0.587967	5.42884	0.760678	7.01334	0.929654	8.61365
0.388476	3.56967	0.231443	2.09308	0.696026	6.38087	0.836235	7.65445	0.937806	8.60212			0.590507	5.4058	0.765248	6.99539	0.933177	8.57228
0.389811	3.55154	0.233526	2.09427	0.700124	6.36408	0.840553	7.62891	0.944194	8.58733			0.593016	5.38285	0.769817	6.97772	0.936717	8.53179
0.391148	3.53372	0.235609	2.09545	0.704189	6.34728	0.844876	7.60385	0.950598	8.57293			0.595494	5.36001	0.774382	6.96032	0.940277	8.49215
0.392486	3.51621	0.237692	2.0966	0.708221	6.33046	0.849207	7.57927	0.957017	8.5589			0.59794	5.33728	0.778944	6.94318	0.943856	8.45333
0.393826	3.49901	0.239775	2.09773	0.712221	6.31363	0.853545	7.55517	0.963449	8.54522			0.600358	5.31465	0.783501	6.92628	0.947453	8.41533
0.395167	3.4821	0.241858	2.09884	0.716187	6.29679	0.85789	7.53151	0.969892	8.53186			0.602745	5.29214	0.788052	6.9096	0.951068	8.3781
0.39651	3.46548	0.243941	2.09994	0.720121	6.27993	0.862242	7.50831	0.976344	8.51879			0.605105	5.26975	0.792597	6.89314	0.954701	8.34165
0.397855	3.44915	0.246023	2.10102	0.724021	6.26306	0.866602	7.48554	0.982803	8.50601			0.607437	5.24748	0.797135	6.87688	0.958353	8.30594
0.399203	3.4331	0.248106	2.10207	0.727889	6.24617	0.870968	7.46319	0.989268	8.49347			0.609742	5.22534	0.801664	6.86081	0.962022	8.27095
0.400552	3.41733	0.250188	2.10311	0.731724	6.22928	0.875342	7.44126	0.995736	8.48116			0.61202	5.20332	0.806185	6.84492	0.965709	8.23668
0.401904	3.40182	0.25227	2.10414	0.735525	6.21237	0.879722	7.41973	1.0022	8.46905			0.614273	5.18143	0.810696	6.8292	0.969414	8.20309
0.403259	3.38658	0.254352	2.10515	0.739295	6.19545	0.88411	7.3986					0.616501	5.15967	0.815196	6.81363	0.973136	8.17017
0.404615	3.37159	0.256434	2.10614	0.743031	6.17852	0.888503	7.37784					0.618704	5.13804	0.819685	6.79821	0.976876	8.13791
0.405975	3.35686	0.258516	2.10711	0.746735	6.16159	0.892903	7.35746					0.620884	5.11656	0.824162	6.78293	0.980633	8.10629
0.407337	3.34238	0.260598	2.10807	0.750407	6.14464	0.897309	7.33743					0.62304	5.0952	0.828627	6.76778	0.984406	8.07529
0.408702	3.32813	0.26268	2.10902	0.754046	6.12769	0.90172	7.31775					0.625174	5.07399	0.833078	6.75275	0.988197	8.0449
0.41007	3.31413	0.264762	2.10995	0.757654	6.11074	0.906137	7.29841					0.627285	5.05292	0.837516	6.73784	0.992004	8.0151
0.411441	3.30036	0.266843	2.11086	0.761229	6.09379	0.910559	7.2794					0.629375	5.032	0.841939	6.72303	0.995828	7.98588
0.412815	3.28681	0.268925	2.11176	0.764773	6.07684	0.914985	7.2607					0.631445	5.01121	0.846347	6.70832	0.999668	7.95722
0.414191	3.27349	0.271006	2.11265	0.768286	6.05989	0.919415	7.24232					0.633494	4.99057	0.850739	6.6937	1.00352	7.92912
0.415571	3.26039	0.273087	2.11353	0.771767	6.04294	0.92385	7.22423					0.635523	4.97008	0.855116	6.67917		
0.416954	3.2475	0.275169	2.11439	0.775218	6.02599	0.928287	7.20642					0.637533	4.94973	0.859475	6.66472		
0.418341	3.23482	0.27725	2.11524	0.778638	6.00906	0.932728	7.1889					0.639524	4.92953	0.863817	6.65034		
0.41973	3.22235	0.279331	2.11607	0.782027	5.99213	0.93717	7.17164					0.641497	4.90948	0.868141	6.63604		
0.421123	3.21008	0.281412	2.1169	0.785386	5.97522	0.941615	7.15465					0.643452	4.88958	0.872448	6.62179		
0.422519	3.19801	0.283493	2.11771	0.788716	5.95831	0.946061	7.1379					0.64539	4.86983	0.876735	6.60761		
0.423918	3.18614	0.285574	2.11851	0.792016	5.94143	0.950509	7.12139					0.647311	4.85022	0.881003	6.59348		
0.425321	3.17445	0.287655	2.1193	0.795287	5.92456	0.954957	7.10512					0.649216	4.83077	0.885252	6.5794		
0.426727	3.16295	0.289735	2.12007	0.798529	5.9077	0.959404	7.08907					0.651104	4.81147	0.889481	6.56537		
0.428137	3.15164	0.291816	2.12084	0.801743	5.89087	0.963852	7.07324					0.652977	4.79232	0.89369	6.55138		
0.42955	3.1405	0.293897	2.1216	0.804928	5.87406	0.968298	7.05761					0.654835	4.77331	0.897879	6.53744		
0.430967	3.12954	0.295977	2.12234	0.808085	5.85728	0.972743	7.04218					0.656679	4.75446	0.902046	6.52353		
0.432387	3.11875	0.298058	2.12307	0.811215	5.84052	0.977185	7.02695					0.658508	4.73576	0.906192	6.50965		
0.43381	3.10813	0.300138	2.1238	0.814317	5.82379	0.981625	7.0119					0.660323	4.71721	0.910317	6.49581		
0.435237	3.09768	0.302219	2.12451	0.817392	5.80709	0.986062	6.99703					0.662125	4.6988	0.91442	6.48199		
0.436668	3.08739	0.304299	2.12522	0.820441	5.79042	0.990496	6.98233					0.663914	4.68055	0.918502	6.4682		
0.438102	3.07726	0.306379	2.12591	0.823463	5.77379	0.994925	6.96779					0.66569	4.66245	0.922561	6.45444		
0.43954	3.06728	0.308459	2.1266	0.826459	5.75718	0.99935	6.95341					0.667454	4.64449	0.926598	6.4407		
0.440981	3.05746	0.31054	2.12728	0.82943	5.74062	1.00377	6.93917					0.669206	4.62669	0.930612	6.42698		
0.442426	3.04779	0.31262	2.12794	0.832375	5.72409							0.670946	4.60903	0.934604	6.41328		
0.443875	3.03827	0.3147	2.1286	0.835295	5.70761							0.672674	4.59152	0.938573	6.3996		
0.445327	3.02889	0.31678	2.12925	0.838191	5.69116							0.674392	4.57415	0.942519	6.38594		
0.446782	3.01966	0.318859	2.1299	0.841062	5.67475							0.676099	4.55693	0.946442	6.3723		
0.448241	3.01056	0.320939	2.13053	0.843909	5.65839							0.677796	4.53986	0.950342	6.35867		
0.449704	3.0016	0.323019	2.13116	0.846732	5.64208							0.679482	4.52293	0.954219	6.34505		
0.451171	2.99278	0.325099	2.13177	0.849532	5.62581							0.681159	4.50615	0.958073	6.33145		
0.452641	2.98409	0.327179	2.13238	0.852309	5.60959							0.682827	4.48951	0.961903	6.31787		
0.454114	2.97552	0.329258	2.13298	0.855063	5.59341							0.684485	4.47301	0.965711	6.3043		
0.455591	2.96709	0.331338	2.13358	0.857795	5.57729							0.686134	4.45665	0.969495	6.29074		
0.457072	2.95878	0.333418	2.13417	0.860504	5.56122							0.687775	4.44044	0.973255	6.27719		
0.458556	2.95059	0.335497	2.13475	0.863192	5.5452							0.689407	4.42436	0.976993	6.26366		
0.460044	2.94252	0.337577	2.13532	0.865858	5.52923							0.691031	4.40843	0.980707	6.25014		
0.461535	2.93457	0.339656	2.13589	0.868502	5.51332							0.692648	4.39263	0.984399	6.23663		
0.46303	2.92674	0.341736	2.13644	0.871126	5.49746							0.694256	4.37697	0.988067	6.22314		
0.464528	2.91902	0.343815	2.137	0.873729	5.48166							0.695857	4.36145	0.991712	6.20966		
0.46603	2.91141	0.345894	2.13754	0.876312	5.46591							0.697452	4.34606	0.995334	6.19619		
0.467535	2.90391	0.347974	2.13808	0.878875	5.45022							0.699039	4.3308	0.998933	6.18273		
0.469044	2.89652	0.350053	2.13861	0.881418	5.43459							0.700619	4.31568	1.00251	6.1693		
0.470556	2.88924	0.352132	2.13914	0.883941	5.41902							0.702193	4.3007				
0.472072	2.88206	0.354211	2.13966	0.886445	5.40351							0.703761	4.28584				
0.473591	2.87498	0.35629	2.14018	0.888931	5.38806							0.705322	4.27112				
0.475114	2.868	0.358369	2.14068	0.891397	5.37267							0.706878	4.25652				
0.47664	2.86112	0.360448	2.14119	0.893845	5.35734							0.708428	4.24206				
0.478169	2.85434	0.362528	2.14168	0.896275	5.34207							0.709972	4.22772				
0.479702	2.84765	0.364606	2.14217	0.898688	5.32687							0.711512	4.21351				
0.481238	2.84106	0.366685	2.14266	0.901082	5.31173							0.713046	4.19942				
0.482778	2.83456	0.368764	2.14314	0.90346	5.29665							0.714575	4.18546				
0.484321	2.82814	0.370843	2.14362	0.90582	5.28164							0.716099	4.17162				
0.485867	2.82182	0.372922	2.14408	0.908163	5.26669							0.717619	4.15791				
0.487416	2.81558	0.375001	2.14455	0.91049	5.25181							0.719134	4.14432				
0.488969	2.80943	0.37708	2.14501	0.912801	5.23699							0.720645	4.13084				
0.490525	2.80337	0.379158	2.14546	0.915095	5.22224							0.722151	4.11749				
0.492084	2.79738	0.381237	2.14591	0.917374	5.20756							0.723654	4.10426				
0.493647	2.79148	0.383316	2.14636	0.919637	5.19294							0.725153	4.09114				
0.495213	2.78566	0.385394	2.14679	0.921884	5.17839							0.726648	4.07814				
0.496782	2.77991	0.387473	2.14723	0.924117	5.1639							0.72814	4.06525				
0.498354	2.77425	0.389552	2.14766	0.926335	5.14949							0.729628	4.05248				
0.499929	2.76866	0.39163	2.14809	0.928538	5.13514							0.731113	4.03983				
0.501508	2.76314	0.393709	2.14851	0.930726	5.12085							0.732595	4.02728				
0.503089	2.7577	0.395787	2.14892	0.932901	5.10664							0.734074	4.01485				
0.504674	2.75233	0.397866	2.14934	0.935061	5.09249							0.73555	4.00252				
0.506262	2.74703	0.399944	2.14974	0.937208	5.07842							0.737023	3.99031				
0.507853	2.7418	0.402023	2.15015	0.939341	5.06441							0.738493	3.9782				
0.509446	2.73664	0.404101	2.15055	0.941461	5.05047							0.739961	3.9662				
0.511043	2.73155	0.406179	2.15094	0.943568	5.03659							0.741426	3.95431				
0.512643	2.72652	0.408258	2.15133	0.945661	5.02279							0.74289	3.94252				
0.514246	2.72156	0.410336	2.15172	0.947742	5.00906							0.74435	3.93084				
0.515852	2.71667	0.412414	2.15211	0.949811	4.99539							0.745809	3.91926				
0.517461	2.71183	0.414492	2.15249	0.951867	4.98179							0.747266	3.90778				
0.519073	2.70706	0.416571	2.15286	0.953911	4.96827							0.748721	3.8964				
0.520687	2.70235	0.418649	2.15323	0.955944	4.95481							0.750174	3.88513				
0.522305	2.6977	0.420727	2.1536	0.957964	4.94142							0.751625	3.87395				
0.523925	2.69311	0.422805	2.15397	0.959973	4.9281							0.753074	3.86287				
0.525549	2.68858	0.424883	2.15433	0.961971	4.91484							0.754522	3.85189				
0.527175	2.68411	0.426961	2.15469	0.963957	4.90166							0.755969	3.84101				
0.528804	2.67969	0.429039	2.15504	0.965933	4.88855							0.757414	3.83022				
0.530436	2.67533	0.431117	2.15539	0.967898	4.8755							0.758858	3.81952				
0.53207	2.67102	0.433196	2.15574	0.969852	4.86252							0.7603	3.80892				
0.533707	2.66676	0.435274	2.15608	0.971796	4.84962							0.761742	3.79842				
0.535347	2.66256	0.437351	2.15642	0.973729	4.83678							0.763182	3.788				
0.53699	2.65842	0.439429	2.15676	0.975652	4.824							0.764622	3.77767				
0.538636	2.65432	0.441507	2.1571	0.977566	4.8113							0.76606	3.76744				
0.540284	2.65027	0.443585	2.15743	0.97947	4.79867							0.767498	3.75729				
0.541935	2.64628	0.445663	2.15776	0.981364	4.7861							0.768935	3.74724				
0.543588	2.64233	0.447741	2.15808	0.983249	4.7736							0.770371	3.73727				
0.545244	2.63843	0.449819	2.1584	0.985124	4.76117							0.771806	3.72738				
0.546903	2.63458	0.451897	2.15872	0.98699	4.74881							0.773241	3.71758				
0.548564	2.63077	0.453975	2.15904	0.988848	4.73651							0.774676	3.70787				
0.550228	2.62702	0.456052	2.15935	0.990697	4.72428							0.77611	3.69824				
0.551894	2.6233	0.45813	2.15966	0.992537	4.71212							0.777543	3.6887				
0.553563	2.61963	0.460208	2.15997	0.994368	4.70003							0.778976	3.67923				
0.555235	2.61601	0.462286	2.16028	0.996191	4.688							0.780409	3.66985				
0.556909	2.61243	0.464363	2.16058	0.998007	4.67604							0.781842	3.66055				
0.558585	2.60889	0.466441	2.16088	0.999814	4.66415							0.783274	3.65133				
0.560264	2.60539	0.468519	2.16118	1.00161	4.65232							0.784706	3.64219				
0.561945	2.60194	0.470596	2.16147									0.786139	3.63312				
0.563629	2.59853	0.472674	2.16176									0.787571	3.62414				
0.565315	2.59515	0.474751	2.16205									0.789003	3.61523				
0.567004	2.59182	0.476829	2.16234									0.790435	3.6064				
0.568695	2.58852	0.478906	2.16262									0.791868	3.59764				
0.570388	2.58527	0.480984	2.1629									0.7933	3.58895				
0.572083	2.58205	0.483062	2.16318									0.794733	3.58034				
0.573781	2.57887	0.485139	2.16346									0.796166	3.57181				
0.575482	2.57572	0.487217	2.16373									0.797599	3.56334				
0.577184	2.57261	0.489294	2.16401									0.799032	3.55495				
0.578889	2.56954	0.491371	2.16428									0.800466	3.54663				
0.580596	2.5665	0.493449	2.16454									0.8019	3.53838				
0.582305	2.5635	0.495526	2.16481									0.803335	3.53019				
0.584016	2.56053	0.497604	2.16507									0.80477	3.52208				
0.58573	2.5576	0.499681	2.16533									0.806206	3.51403				
0.587446	2.5547	0.501758	2.16559									0.807642	3.50606				
0.589164	2.55183	0.503836	2.16585									0.809079	3.49814				
0.590884	2.549	0.505913	2.1661									0.810516	3.4903				
0.592606	2.54619	0.507991	2.16636									0.811954	3.48252				
0.594331	2.54342	0.510068	2.16661									0.813392	3.4748				
0.596057	2.54068	0.512145	2.16685									0.814832	3.46715				
0.597786	2.53797	0.514222	2.1671									0.816272	3.45956				
0.599516	2.53528	0.5163	2.16734									0.817712	3.45204				
0.601249	2.53263	0.518377	2.16759									0.819154	3.44457				
0.602984	2.53001	0.520454	2.16783									0.820596	3.43717				
0.604721	2.52742	0.522531	2.16806									0.822039	3.42983				
0.606459	2.52485	0.524608	2.1683									0.823483	3.42255				
0.6082	2.52232	0.526686	2.16854									0.824928	3.41533				
0.609943	2.51981	0.528763	2.16877									0.826373	3.40817				
0.611687	2.51733	0.53084	2.169									0.82782	3.40107				
0.613434	2.51487	0.532917	2.16923									0.829267	3.39402				
0.615183	2.51244	0.534994	2.16946									0.830716	3.38704				
0.616933	2.51004	0.537071	2.16968									0.832165	3.38011				
0.618686	2.50767	0.539148	2.16991									0.833616	3.37323				
0.62044	2.50532	0.541225	2.17013									0.835067	3.36641				
0.622196	2.50299	0.543302	2.17035									0.83652	3.35965				
0.623954	2.50069	0.545379	2.17057									0.837973	3.35294				
0.625714	2.49841	0.547456	2.17078									0.839428	3.34629				
0.627476	2.49616	0.549533	2.171									0.840884	3.33969				
0.629239	2.49393	0.55161	2.17121									0.84234	3.33314				
0.631004	2.49173	0.553687	2.17142									0.843798	3.32664				
0.632771	2.48955	0.555764	2.17163									0.845257	3.3202				
0.63454	2.48739	0.557841	2.17184									0.846718	3.31381				
0.636311	2.48525	0.559918	2.17205									0.848179	3.30747				
0.638083	2.48314	0.561995	2.17226									0.849641	3.30118				
0.639857	2.48105	0.564072	2.17246									0.851105	3.29494				
0.641633	2.47898	0.566149	2.17266									0.85257	3.28874				
0.643411	2.47693	0.568226	2.17286									0.854036	3.2826				
0.64519	2.4749	0.570303	2.17306									0.855504	3.27651				
0.646971	2.4729	0.57238	2.17326									0.856972	3.27046				
0.648754	2.47091	0.574456	2.17346									0.858442	3.26447				
0.650538	2.46895	0.576533	2.17365									0.859914	3.25852				
0.652324	2.467	0.57861	2.17385									0.861386	3.25261				
0.654112	2.46507	0.580687	2.17404									0.86286	3.24675				
0.655901	2.46317	0.582764	2.17423									0.864335	3.24094				
0.657691	2.46128	0.58484	2.17442									0.865811	3.23518				
0.659484	2.45941	0.586917	2.17461									0.867289	3.22946				
0.661278	2.45757	0.588994	2.1748									0.868768	3.22378				
0.663073	2.45574	0.591071	2.17498									0.870248	3.21815				
0.664871	2.45392	0.593147	2.17517									0.87173	3.21256				
0.666669	2.45213	0.595224	2.17535									0.873213	3.20701				
0.668469	2.45036	0.597301	2.17553									0.874698	3.20151				
0.670271	2.4486	0.599377	2.17571									0.876184	3.19605				
0.672074	2.44686	0.601454	2.17589									0.877671	3.19063				
0.673879	2.44513	0.603531	2.17607									0.879159	3.18525				
0.675685	2.44343	0.605608	2.17625									0.880649	3.17992				
0.677493	2.44174	0.607684	2.17642									0.882141	3.17462				
0.679302	2.44006	0.609761	2.1766									0.883633	3.16937				
0.681113	2.43841	0.611837	2.17677									0.885128	3.16415				
0.682925	2.43677	0.613914	2.17694									0.886623	3.15898				
0.684739	2.43514	0.615991	2.17711									0.88812	3.15384				
0.686554	2.43353	0.618067	2.17728									0.889619	3.14875				
0.68837	2.43194	0.620144	2.17745									0.891119	3.14369				
0.690188	2.43036	0.62222	2.17762									0.89262	3.13867				
0.692007	2.4288	0.624297	2.17779									0.894123	3.13369				
0.693828	2.42725	0.626373	2.17795									0.895627	3.12874				
0.69565	2.42572	0.62845	2.17812									0.897133	3.12383				
0.697473	2.4242	0.630526	2.17828									0.89864	3.11896				
0.699298	2.4227	0.632603	2.17844									0.900149	3.11413				
0.701124	2.42121	0.634679	2.1786									0.901659	3.10933				
0.702951	2.41974	0.636756	2.17876									0.90317	3.10457				
0.70478	2.41828	0.638832	2.17892									0.904683	3.09984				
0.70661	2.41683	0.640909	2.17908									0.906198	3.09515				
0.708441	2.41539	0.642985	2.17923									0.907714	3.09049				
0.710274	2.41398	0.645062	2.17939									0.909231	3.08587				
0.712108	2.41257	0.647138	2.17954									0.91075	3.08128				
0.713943	2.41118	0.649214	2.1797									0.912271	3.07673				
0.715779	2.40979	0.651291	2.17985									0.913792	3.07221				
0.717617	2.40843	0.653367	2.18									0.915316	3.06772				
0.719456	2.40707	0.655444	2.18015									0.916841	3.06327				
0.721296	2.40573	0.65752	2.1803									0.918367	3.05884				
0.723138	2.4044	0.659596	2.18045									0.919895	3.05445				
0.72498	2.40308	0.661673	2.1806									0.921424	3.0501				
0.726824	2.40178	0.663749	2.18075									0.922955	3.04577				
0.728669	2.40048	0.665825	2.18089									0.924487	3.04148				
0.730516	2.3992	0.667902	2.18104									0.926021	3.03721				
0.732363	2.39793	0.669978	2.18118									0.927556	3.03298				
0.734212	2.39667	0.672054	2.18132									0.929093	3.02878				
0.736062	2.39543	0.674131	2.18147									0.930632	3.02461				
0.737913	2.39419	0.676207	2.18161									0.932171	3.02046				
0.739765	2.39297	0.678283	2.18175									0.933713	3.01635				
0.741618	2.39175	0.680359	2.18189									0.935255	3.01227				
0.743473	2.39055	0.682436	2.18203									0.9368	3.00822				
0.745328	2.38936	0.684512	2.18216									0.938346	3.00419				
0.747185	2.38818	0.686588	2.1823									0.939893	3.0002				
0.749043	2.38701	0.688664	2.18244									0.941442	2.99623				
0.750902	2.38585	0.69074	2.18257									0.942992	2.99229				
0.752762	2.3847	0.692817	2.18271									0.944544	2.98838				
0.754623	2.38356	0.694893	2.18284									0.946097	2.9845				
0.756485	2.38243	0.696969	2.18297									0.947652	2.98064				
0.758348	2.38131	0.699045	2.18311									0.949208	2.97681				
0.760213	2.3802	0.701121	2.18324									0.950766	2.97301				
0.762078	2.3791	0.703197	2.18337									0.952325	2.96924				
0.763945	2.37801	0.705274	2.1835									0.953886	2.96549				
0.765812	2.37693	0.70735	2.18363									0.955448	2.96176				
0.767681	2.37586	0.709426	2.18375									0.957011	2.95807				
0.76955	2.3748	0.711502	2.18388									0.958577	2.9544				
0.771421	2.37375	0.713578	2.18401									0.960143	2.95075				
0.773292	2.3727	0.715654	2.18413									0.961711	2.94713				
0.775165	2.37167	0.71773	2.18426									0.963281	2.94354				
0.777039	2.37065	0.719806	2.18438									0.964852	2.93997				
0.778913	2.36963	0.721882	2.18451									0.966425	2.93643				
0.780789	2.36862	0.723958	2.18463									0.967999	2.93291				
0.782665	2.36762	0.726034	2.18475									0.969574	2.92941				
0.784543	2.36663	0.72811	2.18487									0.971151	2.92594				
0.786422	2.36565	0.730186	2.18499									0.97273	2.92249				
0.788301	2.36468	0.732262	2.18511									0.97431	2.91907				
0.790182	2.36371	0.734338	2.18523									0.975891	2.91567				
0.792063	2.36275	0.736414	2.18535									0.977474	2.91229				
0.793945	2.36181	0.73849	2.18547									0.979058	2.90893				
0.795829	2.36086	0.740566	2.18559									0.980644	2.9056				
0.797713	2.35993	0.742642	2.18571									0.982231	2.90229				
0.799598	2.35901	0.744718	2.18582									0.98382	2.89901				
0.801484	2.35809	0.746794	2.18594									0.98541	2.89574				
0.803371	2.35718	0.74887	2.18605									0.987002	2.8925				
0.805259	2.35628	0.750946	2.18617									0.988595	2.88928				
0.807148	2.35538	0.753022	2.18628									0.990189	2.88608				
0.809037	2.35449	0.755098	2.18639									0.991785	2.8829				
0.810928	2.35362	0.757174	2.1865									0.993382	2.87975				
0.812819	2.35274	0.75925	2.18662									0.994981	2.87661				
0.814712	2.35188	0.761326	2.18673									0.996581	2.8735				
0.816605	2.35102	0.763401	2.18684									0.998183	2.87041				
0.818499	2.35017	0.765477	2.18695									0.999786	2.86733				
0.820394	2.34932	0.767553	2.18706									1.00139	2.86428				
0.822289	2.34849	0.769629	2.18716														
0.824186	2.34766	0.771705	2.18727														
0.826083	2.34683	0.773781	2.18738														
0.827982	2.34602	0.775857	2.18749														
0.829881	2.34521	0.777932	2.18759														
0.831781	2.3444	0.780008	2.1877														
0.833681	2.34361	0.782084	2.1878														
0.835583	2.34282	0.78416	2.18791														
0.837485	2.34203	0.786236	2.18801														
0.839388	2.34125	0.788311	2.18811														
0.841292	2.34048	0.790387	2.18822														
0.843197	2.33972	0.792463	2.18832														
0.845103	2.33896	0.794539	2.18842														
0.847009	2.3382	0.796614	2.18852														
0.848916	2.33746	0.79869	2.18862														
0.850824	2.33671	0.800766	2.18872														
0.852732	2.33598	0.802841	2.18882														
0.854642	2.33525	0.804917	2.18892														
0.856552	2.33452	0.806993	2.18902														
0.858463	2.33381	0.809068	2.18912														
0.860374	2.33309	0.811144	2.18921														
0.862287	2.33239	0.81322	2.18931														
0.8642	2.33169	0.815295	2.18941														
0.866114	2.33099	0.817371	2.1895														
0.868028	2.3303	0.819447	2.1896														
0.869944	2.32961	0.821522	2.18969														
0.87186	2.32893	0.823598	2.18979														
0.873776	2.32826	0.825674	2.18988														
0.875694	2.32759	0.827749	2.18998														
0.877612	2.32693	0.829825	2.19007														
0.879531	2.32627	0.8319	2.19016														
0.88145	2.32561	0.833976	2.19025														
0.88337	2.32496	0.836052	2.19034														
0.885291	2.32432	0.838127	2.19044														
0.887213	2.32368	0.840203	2.19053														
0.889135	2.32305	0.842278	2.19062														
0.891058	2.32242	0.844354	2.19071														
0.892981	2.32179	0.846429	2.19079														
0.894906	2.32117	0.848505	2.19088														
0.896831	2.32056	0.85058	2.19097														
0.898756	2.31995	0.852656	2.19106														
0.900682	2.31934	0.854731	2.19115														
0.902609	2.31874	0.856807	2.19123														
0.904537	2.31814	0.858882	2.19132														
0.906465	2.31755	0.860958	2.19141														
0.908394	2.31696	0.863033	2.19149														
0.910323	2.31638	0.865109	2.19158														
0.912253	2.3158	0.867184	2.19166														
0.914184	2.31523	0.86926	2.19175														
0.916115	2.31466	0.871335	2.19183														
0.918047	2.31409	0.87341	2.19191														
0.919979	2.31353	0.875486	2.192														
0.921913	2.31297	0.877561	2.19208														
0.923846	2.31242	0.879637	2.19216														
0.925781	2.31187	0.881712	2.19225														
0.927715	2.31132	0.883787	2.19233														
0.929651	2.31078	0.885863	2.19241														
0.931587	2.31024	0.887938	2.19249														
0.933524	2.30971	0.890014	2.19257														
0.935461	2.30918	0.892089	2.19265														
0.937399	2.30865	0.894164	2.19273														
0.939337	2.30813	0.89624	2.19281														
0.941276	2.30761	0.898315	2.19289														
0.943216	2.3071	0.90039	2.19296														
0.945156	2.30658	0.902466	2.19304														
0.947097	2.30608	0.904541	2.19312														
0.949038	2.30557	0.906616	2.1932														
0.95098	2.30507	0.908691	2.19328														
0.952922	2.30458	0.910767	2.19335														
0.954865	2.30408	0.912842	2.19343														
0.956808	2.30359	0.914917	2.1935														
0.958752	2.30311	0.916993	2.19358														
0.960697	2.30263	0.919068	2.19365														
0.962642	2.30215	0.921143	2.19373														
0.964587	2.30167	0.923218	2.1938														
0.966534	2.3012	0.925294	2.19388														
0.96848	2.30073	0.927369	2.19395														
0.970427	2.30027	0.929444	2.19403														
0.972375	2.2998	0.931519	2.1941														
0.974323	2.29934	0.933594	2.19417														
0.976272	2.29889	0.93567	2.19424														
0.978221	2.29844	0.937745	2.19432														
0.980171	2.29799	0.93982	2.19439														
0.982121	2.29754	0.941895	2.19446														
0.984072	2.2971	0.94397	2.19453														
0.986023	2.29666	0.946045	2.1946														
0.987975	2.29622	0.948121	2.19467														
0.989927	2.29578	0.950196	2.19474														
0.99188	2.29535	0.952271	2.19481														
0.993833	2.29493	0.954346	2.19488														
0.995787	2.2945	0.956421	2.19495														
0.997741	2.29408	0.958496	2.19502														
0.999695	2.29366	0.960571	2.19509														
1.00165	2.29324	0.962646	2.19516														
		0.964721	2.19522														
		0.966796	2.19529														
		0.968872	2.19536														
		0.970947	2.19543														
		0.973022	2.19549														
		0.975097	2.19556														
		0.977172	2.19563														
		0.979247	2.19569														
		0.981322	2.19576														
		0.983397	2.19582														
		0.985472	2.19589														
		0.987547	2.19595														
		0.989622	2.19602														
		0.991697	2.19608														
		0.993772	2.19614														
		0.995847	2.19621														
		0.997922	2.19627														
		0.999997	2.19633														
		1.00207	2.1964														
