Sym0		Sym1		Sym2		Sym3		Asym1		Asym2		Asym3	
421  Points		421  Points		379  Points		251  Points		407  Points		390  Points		257  Points	
Freq (MHz)	Vph (m/ms)	Freq (MHz)	Vph (m/ms)	Freq (MHz)	Vph (m/ms)	Freq (MHz)	Vph (m/ms)	Freq (MHz)	Vph (m/ms)	Freq (MHz)	Vph (m/ms)	Freq (MHz)	Vph (m/ms)
1.00229	2.42158	1.00122	2.4214	0.433042	471.706	0.866024	2790.28	0.216515	454.977	1.0013	2.61555	0.66792	1163.76
0.999702	2.42115	0.998636	2.42098	0.433139	226.293	0.866005	662.897	0.216584	147.146	0.999301	2.61715	0.668183	425.606
0.997116	2.42073	0.996051	2.42056	0.433304	148.897	0.865964	376.11	0.216726	87.8169	0.997332	2.61882	0.668671	260.591
0.994533	2.42031	0.99347	2.42014	0.433536	110.989	0.865898	262.517	0.216938	62.6274	0.995392	2.62058	0.669356	187.916
0.991954	2.4199	0.990893	2.41973	0.433835	88.4993	0.865811	201.611	0.217221	48.7046	0.993481	2.62243	0.670205	147.038
0.989379	2.4195	0.988319	2.41933	0.434199	73.6162	0.8657	163.633	0.217574	39.878	0.991597	2.62435	0.671186	120.846
0.986807	2.4191	0.985749	2.41894	0.434628	63.0428	0.865567	137.686	0.217997	33.7874	0.989742	2.62637	0.672273	102.636
0.984239	2.41871	0.983182	2.41855	0.43512	55.1469	0.865411	118.834	0.218488	29.3349	0.987913	2.62846	0.673445	89.2441
0.981675	2.41833	0.98062	2.41817	0.435673	49.028	0.865234	104.515	0.219046	25.9408	0.986112	2.63064	0.674684	78.9831
0.979115	2.41796	0.978061	2.4178	0.436287	44.1485	0.865035	93.2693	0.21967	23.2699	0.984336	2.6329	0.675977	70.8709
0.976559	2.41759	0.975507	2.41744	0.436958	40.168	0.864814	84.2028	0.22036	21.1151	0.982586	2.63524	0.677316	64.297
0.974007	2.41723	0.972957	2.41709	0.437686	36.86	0.864573	76.7375	0.221113	19.3413	0.980861	2.63766	0.678692	58.8621
0.971459	2.41688	0.97041	2.41674	0.438469	34.0682	0.864312	70.4833	0.221928	17.8569	0.97916	2.64015	0.680099	54.294
0.968915	2.41654	0.967869	2.41641	0.439303	31.6813	0.864031	65.1672	0.222804	16.5972	0.977482	2.64273	0.681533	50.4008
0.966376	2.41621	0.965332	2.41608	0.440189	29.6177	0.86373	60.5926	0.22374	15.5157	0.975826	2.64537	0.682989	47.0434
0.963842	2.41589	0.962799	2.41576	0.441123	27.8164	0.863411	56.6144	0.224733	14.5777	0.974193	2.6481	0.684465	44.1184
0.961312	2.41558	0.960271	2.41546	0.442103	26.2307	0.863074	53.1228	0.225782	13.7569	0.97258	2.65089	0.685959	41.5473
0.958787	2.41528	0.957748	2.41516	0.443128	24.8245	0.862719	50.0336	0.226885	13.0331	0.970987	2.65375	0.687468	39.2697
0.956267	2.41499	0.95523	2.41488	0.444196	23.5692	0.862346	47.2809	0.22804	12.3906	0.969414	2.65669	0.688992	37.238
0.953752	2.41471	0.952717	2.4146	0.445305	22.442	0.861958	44.8124	0.229247	11.8166	0.96786	2.65969	0.690527	35.4146
0.951242	2.41445	0.950209	2.41434	0.446452	21.4244	0.861554	42.5861	0.230502	11.3011	0.966324	2.66275	0.692074	33.7689
0.948737	2.41419	0.947706	2.41409	0.447637	20.5013	0.861135	40.5681	0.231805	10.8359	0.964805	2.66588	0.693632	32.2763
0.946238	2.41395	0.945209	2.41386	0.448857	19.6603	0.860701	38.7304	0.233153	10.414	0.963303	2.66908	0.695199	30.9163
0.943744	2.41372	0.942718	2.41363	0.45011	18.8911	0.860253	37.0497	0.234545	10.03	0.961818	2.67234	0.696774	29.6721
0.941256	2.41351	0.940232	2.41342	0.451396	18.1849	0.859793	35.5067	0.23598	9.67906	0.960348	2.67566	0.698358	28.5294
0.938773	2.41331	0.937752	2.41323	0.452712	17.5343	0.85932	34.0852	0.237454	9.35727	0.958893	2.67904	0.699949	27.4764
0.936297	2.41312	0.935278	2.41305	0.454056	16.9331	0.858835	32.7712	0.238968	9.06125	0.957453	2.68248	0.701548	26.503
0.933827	2.41295	0.932811	2.41288	0.455429	16.376	0.858339	31.5531	0.240518	8.78814	0.956027	2.68598	0.703153	25.6003
0.931363	2.41279	0.930349	2.41273	0.456827	15.8584	0.857833	30.4207	0.242105	8.53546	0.954614	2.68954	0.704763	24.761
0.928905	2.41265	0.927894	2.41259	0.45825	15.3761	0.857318	29.3652	0.243725	8.30109	0.953215	2.69315	0.70638	23.9787
0.926454	2.41252	0.925446	2.41248	0.459697	14.9258	0.856793	28.379	0.245377	8.08316	0.951828	2.69683	0.708002	23.2477
0.924009	2.41241	0.923004	2.41237	0.461165	14.5044	0.856259	27.4556	0.247061	7.88006	0.950454	2.70055	0.709629	22.5632
0.921571	2.41232	0.920569	2.41229	0.462655	14.1093	0.855719	26.589	0.248773	7.69038	0.949092	2.70434	0.71126	21.9209
0.919141	2.41225	0.918141	2.41222	0.464164	13.738	0.855171	25.7743	0.250289	7.53506	0.947741	2.70817	0.712896	21.3169
0.916717	2.41219	0.915721	2.41218	0.465692	13.3886	0.854616	25.0069	0.251597	7.40939	0.946402	2.71207	0.714536	20.748
0.914301	2.41216	0.913307	2.41215	0.467238	13.0591	0.854056	24.2828	0.25269	7.30985	0.945074	2.71601	0.71618	20.2112
0.911892	2.41214	0.910901	2.41214	0.468801	12.7479	0.853491	23.5985	0.25356	7.2338	0.943756	2.72001	0.717827	19.7038
0.90949	2.41214	0.908503	2.41215	0.47038	12.4535	0.852921	22.9507	0.254204	7.17931	0.942449	2.72406	0.719477	19.2236
0.907097	2.41217	0.906113	2.41218	0.471973	12.1746	0.852348	22.3366	0.254618	7.14505	0.941152	2.72817	0.721131	18.7683
0.904711	2.41221	0.903731	2.41224	0.473581	11.9101	0.851771	21.7537	0.255214	7.09662	0.939865	2.73233	0.722787	18.3361
0.902334	2.41228	0.901356	2.41231	0.475202	11.6588	0.851192	21.1996	0.255866	7.04505	0.938587	2.73654	0.724446	17.9252
0.899964	2.41237	0.89899	2.41241	0.476835	11.4198	0.85061	20.6723	0.256756	6.97664	0.937319	2.7408	0.726107	17.5342
0.897603	2.41248	0.896633	2.41253	0.47848	11.1922	0.850027	20.1699	0.25789	6.89286	0.93606	2.74511	0.72777	17.1616
0.895251	2.41262	0.894284	2.41268	0.480136	10.9753	0.849443	19.6907	0.259272	6.79541	0.93481	2.74948	0.729436	16.8061
0.892907	2.41278	0.891944	2.41285	0.481802	10.7682	0.848858	19.233	0.260908	6.68618	0.933569	2.75389	0.731103	16.4667
0.890572	2.41296	0.889613	2.41305	0.483478	10.5703	0.848274	18.7956	0.262803	6.56712	0.932336	2.75836	0.732771	16.1421
0.888246	2.41317	0.88729	2.41327	0.485163	10.3811	0.847691	18.3771	0.264717	6.4543	0.931112	2.76288	0.734441	15.8315
0.885929	2.41341	0.884977	2.41351	0.486856	10.2	0.847108	17.9763	0.266648	6.34724	0.929896	2.76745	0.736112	15.534
0.883622	2.41367	0.882674	2.41379	0.488556	10.0264	0.846528	17.5922	0.268595	6.24552	0.928688	2.77207	0.737783	15.2488
0.881324	2.41396	0.88038	2.41409	0.490264	9.85986	0.845949	17.2237	0.270558	6.14875	0.927487	2.77675	0.739456	14.9751
0.879035	2.41428	0.878095	2.41442	0.491978	9.70003	0.845374	16.8698	0.272535	6.05657	0.926295	2.78147	0.741128	14.7122
0.876756	2.41463	0.87582	2.41478	0.493698	9.54647	0.844802	16.5299	0.274525	5.96869	0.92511	2.78625	0.742801	14.4595
0.874487	2.415	0.873555	2.41517	0.495423	9.39881	0.844233	16.203	0.276527	5.88478	0.923933	2.79107	0.744475	14.2164
0.872228	2.41541	0.871301	2.41558	0.497154	9.25673	0.843669	15.8884	0.278541	5.8046	0.922762	2.79595	0.746148	13.9824
0.86998	2.41584	0.869056	2.41603	0.498888	9.11989	0.84311	15.5855	0.280565	5.7279	0.921599	2.80088	0.74782	13.757
0.867741	2.41631	0.866822	2.41651	0.500627	8.98802	0.842556	15.2937	0.2826	5.65445	0.920443	2.80586	0.749493	13.5397
0.865513	2.41681	0.864598	2.41702	0.502369	8.86085	0.842007	15.0123	0.284642	5.58404	0.919294	2.81089	0.751164	13.33
0.863295	2.41734	0.862384	2.41757	0.504114	8.73811	0.841465	14.7409	0.286693	5.51648	0.918151	2.81597	0.752835	13.1276
0.861087	2.4179	0.860181	2.41814	0.505861	8.61958	0.840929	14.4789	0.288752	5.45161	0.917015	2.8211	0.754504	12.9321
0.858891	2.4185	0.857989	2.41875	0.50761	8.50505	0.8404	14.2258	0.290816	5.38924	0.915885	2.82629	0.756173	12.7432
0.856705	2.41913	0.855807	2.4194	0.509361	8.39429	0.839878	13.9812	0.292887	5.32925	0.914762	2.83153	0.757839	12.5604
0.854529	2.41979	0.853636	2.42007	0.511113	8.28714	0.839365	13.7448	0.294962	5.27147	0.913645	2.83681	0.759504	12.3836
0.852365	2.42049	0.851476	2.42079	0.512866	8.1834	0.838859	13.5161	0.297042	5.21579	0.912533	2.84215	0.761167	12.2124
0.850211	2.42122	0.849328	2.42153	0.514619	8.08291	0.838363	13.2947	0.299125	5.16209	0.911428	2.84754	0.762828	12.0465
0.848069	2.42199	0.84719	2.42232	0.516372	7.98551	0.837875	13.0804	0.301211	5.11025	0.910329	2.85299	0.764487	11.8858
0.845938	2.4228	0.845063	2.42314	0.518124	7.89106	0.837397	12.8728	0.303299	5.06017	0.909235	2.85848	0.766143	11.7299
0.843817	2.42364	0.842947	2.42399	0.51965	7.81105	0.836929	12.6715	0.305388	5.01175	0.908146	2.86403	0.767797	11.5786
0.841708	2.42451	0.840842	2.42489	0.52095	7.74447	0.836471	12.4765	0.307479	4.9649	0.907064	2.86963	0.769447	11.4318
0.83961	2.42543	0.838749	2.42582	0.522025	7.69049	0.836024	12.2872	0.30957	4.91954	0.905986	2.87528	0.771095	11.2892
0.837523	2.42638	0.836666	2.42678	0.522874	7.64849	0.835588	12.1037	0.31166	4.87558	0.904914	2.88098	0.772739	11.1507
0.835447	2.42737	0.834595	2.42779	0.523498	7.61798	0.835164	11.9255	0.313749	4.83296	0.903846	2.88674	0.77438	11.016
0.833382	2.4284	0.832535	2.42884	0.523898	7.59862	0.834752	11.7524	0.315836	4.7916	0.902784	2.89255	0.776016	10.8851
0.831329	2.42947	0.830486	2.42992	0.524471	7.571	0.834351	11.5843	0.317922	4.75143	0.901726	2.89841	0.777649	10.7577
0.829286	2.43057	0.828448	2.43104	0.525095	7.54127	0.833964	11.421	0.320004	4.7124	0.900673	2.90432	0.779278	10.6337
0.827255	2.43172	0.826421	2.4322	0.525942	7.50133	0.833589	11.2623	0.322083	4.67446	0.899624	2.91029	0.780903	10.513
0.825235	2.4329	0.824405	2.4334	0.527013	7.45157	0.833228	11.1079	0.324158	4.63753	0.89858	2.9163	0.782522	10.3954
0.823225	2.43413	0.8224	2.43464	0.528306	7.39252	0.832881	10.9578	0.326228	4.60158	0.89754	2.92237	0.784137	10.2808
0.821227	2.43539	0.820406	2.43592	0.529821	7.32475	0.832547	10.8117	0.328293	4.56655	0.896504	2.9285	0.785748	10.1691
0.819239	2.43669	0.818423	2.43724	0.531556	7.24892	0.832228	10.6696	0.330352	4.5324	0.895471	2.93468	0.787352	10.0602
0.817262	2.43804	0.816451	2.4386	0.533288	7.17508	0.831924	10.5312	0.332405	4.49908	0.894443	2.94091	0.788952	9.95399
0.815296	2.43942	0.814489	2.44	0.535015	7.10313	0.831635	10.3964	0.334451	4.46656	0.893419	2.94719	0.790545	9.85032
0.81334	2.44084	0.812538	2.44144	0.536737	7.03299	0.831362	10.2652	0.33649	4.4348	0.892397	2.95352	0.792133	9.74911
0.811395	2.4423	0.810597	2.44292	0.538455	6.9646	0.831105	10.1374	0.338521	4.40376	0.89138	2.95991	0.793715	9.65028
0.809461	2.44381	0.808667	2.44444	0.540167	6.89789	0.830863	10.0128	0.340543	4.3734	0.890365	2.96635	0.79529	9.55373
0.807536	2.44535	0.806746	2.446	0.541874	6.83278	0.830639	9.89134	0.342557	4.3437	0.889353	2.97285	0.796859	9.4594
0.805622	2.44693	0.804836	2.4476	0.543575	6.76921	0.830431	9.77295	0.344561	4.31462	0.888345	2.9794	0.798421	9.36719
0.803718	2.44856	0.802936	2.44924	0.545269	6.70712	0.830241	9.65751	0.346555	4.28613	0.887339	2.986	0.799976	9.27703
0.801823	2.45022	0.801046	2.45092	0.546958	6.64645	0.830068	9.54491	0.348539	4.25821	0.886335	2.99265	0.801524	9.18884
0.799939	2.45193	0.799165	2.45264	0.548638	6.58715	0.829912	9.43506	0.350511	4.23082	0.885334	2.99936	0.803065	9.10256
0.798064	2.45367	0.797294	2.4544	0.550312	6.52917	0.829776	9.32788	0.352472	4.20395	0.884335	3.00612	0.804598	9.01813
0.796198	2.45545	0.795432	2.4562	0.551978	6.47245	0.829657	9.22328	0.354422	4.17757	0.883338	3.01293	0.806123	8.93547
0.794342	2.45728	0.79358	2.45804	0.553637	6.41695	0.829558	9.12117	0.356359	4.15166	0.882343	3.01979	0.80764	8.85453
0.792494	2.45914	0.791736	2.45992	0.555287	6.36262	0.829477	9.02149	0.358283	4.1262	0.881349	3.02671	0.809149	8.77524
0.790656	2.46104	0.789901	2.46183	0.556928	6.30942	0.829416	8.92415	0.360193	4.10116	0.880357	3.03368	0.810649	8.69756
0.788826	2.46298	0.788075	2.46379	0.558561	6.25731	0.829375	8.82909	0.362091	4.07653	0.879366	3.0407	0.812141	8.62143
0.787005	2.46496	0.786257	2.46579	0.560184	6.20624	0.829353	8.73623	0.363974	4.05229	0.878376	3.04778	0.813623	8.5468
0.785192	2.46698	0.784447	2.46782	0.561798	6.15619	0.829352	8.64551	0.365842	4.02842	0.877387	3.0549	0.815097	8.47362
0.783387	2.46903	0.782646	2.46989	0.563402	6.10711	0.829372	8.55687	0.367695	4.00491	0.876398	3.06208	0.816561	8.40185
0.78159	2.47113	0.780852	2.472	0.564996	6.05897	0.829412	8.47024	0.369534	3.98173	0.87541	3.06931	0.818016	8.33143
0.7798	2.47326	0.779065	2.47415	0.56658	6.01174	0.829474	8.38558	0.371356	3.95888	0.874421	3.07658	0.819275	8.27114
0.778018	2.47542	0.777286	2.47633	0.568153	5.96539	0.829545	8.31335	0.373163	3.93634	0.873433	3.08391	0.820343	8.22052
0.776243	2.47763	0.775514	2.47855	0.569715	5.91988	0.829618	8.25289	0.374953	3.9141	0.872444	3.0913	0.821222	8.17918
0.774475	2.47987	0.773749	2.4808	0.571266	5.87519	0.829688	8.20365	0.376726	3.89215	0.871455	3.09873	0.821914	8.14682
0.772713	2.48214	0.77199	2.48309	0.572805	5.83129	0.829749	8.1652	0.378483	3.87047	0.870465	3.10621	0.822422	8.12321
0.770958	2.48445	0.770237	2.48542	0.574333	5.78815	0.829797	8.13719	0.380222	3.84905	0.869473	3.11373	0.822746	8.10818
0.769209	2.4868	0.76849	2.48778	0.575848	5.74575	0.829829	8.11938	0.381944	3.82788	0.868481	3.12131	0.823211	8.08668
0.767465	2.48918	0.766748	2.49017	0.577352	5.70406	0.829878	8.09393	0.383648	3.80696	0.867486	3.12894	0.823715	8.06345
0.765727	2.49159	0.765012	2.49259	0.578843	5.66307	0.829933	8.06649	0.385335	3.78627	0.86649	3.13661	0.824398	8.0321
0.763994	2.49403	0.763281	2.49505	0.580321	5.62274	0.830013	8.02951	0.387003	3.76581	0.865491	3.14434	0.825259	7.99284
0.762266	2.49651	0.761555	2.49754	0.581786	5.58306	0.830122	7.98331	0.388653	3.74556	0.86449	3.15211	0.826294	7.94593
0.760542	2.49901	0.759833	2.50006	0.583239	5.544	0.830265	7.92826	0.390284	3.72552	0.863486	3.15992	0.827501	7.89167
0.758822	2.50155	0.758114	2.5026	0.584678	5.50555	0.830448	7.86483	0.391897	3.70569	0.862479	3.16778	0.828876	7.8304
0.757105	2.50411	0.756399	2.50518	0.586103	5.4677	0.83068	7.79351	0.393491	3.68605	0.861468	3.17569	0.83024	7.77017
0.755392	2.50671	0.754687	2.50778	0.587515	5.43041	0.830935	7.72372	0.395067	3.6666	0.860454	3.18364	0.831592	7.71094
0.753682	2.50932	0.752978	2.51041	0.588912	5.39367	0.831213	7.65543	0.396624	3.64733	0.859435	3.19163	0.832933	7.6527
0.751975	2.51197	0.751272	2.51307	0.590296	5.35747	0.831514	7.58859	0.398163	3.62825	0.858412	3.19966	0.834262	7.5954
0.750269	2.51464	0.749567	2.51575	0.591666	5.32179	0.831839	7.52317	0.399682	3.60933	0.857384	3.20774	0.835579	7.53903
0.748565	2.51733	0.747863	2.51845	0.593021	5.28662	0.832187	7.45913	0.401183	3.59059	0.856351	3.21586	0.836885	7.48356
0.746862	2.52004	0.746161	2.52117	0.594361	5.25194	0.832559	7.39644	0.402666	3.57202	0.855312	3.22402	0.838178	7.42896
0.74516	2.52278	0.744458	2.52391	0.595687	5.21773	0.832956	7.33505	0.40413	3.55361	0.854267	3.23222	0.83946	7.37521
0.743457	2.52553	0.742756	2.52667	0.596999	5.18399	0.833376	7.27494	0.405576	3.53536	0.853217	3.24045	0.840729	7.32228
0.741755	2.5283	0.741053	2.52945	0.598295	5.1507	0.83382	7.21607	0.407004	3.51727	0.852159	3.24873	0.841986	7.27016
0.740051	2.53109	0.739349	2.53224	0.599577	5.11785	0.834288	7.15842	0.408414	3.49934	0.851095	3.25703	0.84323	7.21882
0.738346	2.53389	0.737644	2.53505	0.600844	5.08543	0.83478	7.10195	0.409806	3.48155	0.850023	3.26538	0.844461	7.16824
0.736639	2.5367	0.735936	2.53787	0.602095	5.05342	0.835297	7.04664	0.411181	3.46392	0.848943	3.27376	0.84568	7.11841
0.73493	2.53953	0.734225	2.54069	0.603332	5.02182	0.835838	6.99245	0.412539	3.44644	0.847855	3.28217	0.846887	7.06929
0.733217	2.54236	0.73251	2.54353	0.604554	4.99062	0.836403	6.93935	0.413879	3.42911	0.846758	3.29061	0.848081	7.02088
0.731501	2.5452	0.730792	2.54637	0.60576	4.95979	0.836993	6.88733	0.415203	3.41192	0.845652	3.29908	0.849261	6.97316
0.72978	2.54804	0.729069	2.54921	0.606952	4.92935	0.837606	6.83635	0.416511	3.39488	0.844537	3.30758	0.85043	6.92611
0.728054	2.55088	0.727341	2.55206	0.608128	4.89927	0.838244	6.78638	0.417803	3.37799	0.843412	3.31611	0.851585	6.87971
0.726322	2.55373	0.725606	2.5549	0.609289	4.86955	0.838906	6.73742	0.419079	3.36124	0.842276	3.32467	0.852727	6.83395
0.724583	2.55657	0.723865	2.55774	0.610436	4.84019	0.839592	6.68942	0.420341	3.34464	0.84113	3.33325	0.853857	6.78881
0.722838	2.55941	0.722117	2.56057	0.611567	4.81116	0.840302	6.64236	0.421587	3.32818	0.839972	3.34185	0.854974	6.74428
0.721085	2.56224	0.72036	2.5634	0.612684	4.78247	0.841037	6.59623	0.42282	3.31187	0.838803	3.35048	0.856078	6.70035
0.719324	2.56505	0.718595	2.56621	0.613786	4.75411	0.841794	6.551	0.424038	3.2957	0.837622	3.35912	0.857169	6.65699
0.717553	2.56786	0.716821	2.56901	0.614873	4.72607	0.842576	6.50665	0.425244	3.27968	0.836428	3.36779	0.858248	6.61421
0.715773	2.57065	0.715036	2.5718	0.615945	4.69835	0.843381	6.46315	0.426436	3.2638	0.835222	3.37647	0.859314	6.57198
0.713982	2.57343	0.713241	2.57456	0.617004	4.67093	0.84421	6.42049	0.427616	3.24807	0.834002	3.38517	0.860368	6.53029
0.71218	2.57618	0.711434	2.57731	0.618048	4.64382	0.845061	6.37865	0.428784	3.23249	0.832769	3.39388	0.861409	6.48914
0.710366	2.57891	0.709615	2.58003	0.619077	4.617	0.845936	6.33761	0.42994	3.21705	0.831521	3.40261	0.862438	6.44851
0.70854	2.58162	0.707784	2.58272	0.620093	4.59048	0.846834	6.29734	0.431086	3.20176	0.830259	3.41135	0.863455	6.40838
0.706701	2.58429	0.705939	2.58539	0.621095	4.56424	0.847754	6.25784	0.432221	3.18662	0.828981	3.4201	0.86446	6.36876
0.704848	2.58694	0.704081	2.58802	0.622084	4.53829	0.848697	6.21907	0.433346	3.17162	0.827689	3.42886	0.865453	6.32963
0.702982	2.58956	0.702208	2.59062	0.623059	4.51261	0.849661	6.18102	0.434462	3.15678	0.826381	3.43762	0.866434	6.29098
0.7011	2.59214	0.700321	2.59319	0.624021	4.48721	0.850648	6.14369	0.435569	3.14208	0.825056	3.44639	0.867404	6.2528
0.699204	2.59468	0.698418	2.59572	0.62497	4.46207	0.851656	6.10704	0.436668	3.12753	0.823716	3.45517	0.868362	6.21509
0.697292	2.59719	0.696499	2.59821	0.625906	4.43721	0.852686	6.07106	0.437759	3.11314	0.822358	3.46394	0.86931	6.17783
0.695364	2.59965	0.694565	2.60065	0.62683	4.4126	0.853736	6.03573	0.438842	3.09889	0.820983	3.47272	0.870246	6.14101
0.69342	2.60207	0.692614	2.60305	0.627741	4.38825	0.854808	6.00105	0.439919	3.0848	0.819592	3.4815	0.871172	6.10464
0.691459	2.60445	0.690647	2.60541	0.628641	4.36415	0.855899	5.96699	0.440989	3.07086	0.818182	3.49028	0.872088	6.0687
0.689482	2.60678	0.688662	2.60773	0.629529	4.3403	0.857011	5.93354	0.442054	3.05707	0.816754	3.49906	0.872993	6.03318
0.687487	2.60906	0.686661	2.60999	0.630406	4.3167	0.858143	5.90069	0.443114	3.04344	0.815308	3.50783	0.873888	5.99808
0.685476	2.6113	0.684643	2.61221	0.631271	4.29335	0.859294	5.86841	0.444169	3.02995	0.813844	3.5166	0.874774	5.9634
0.683448	2.61349	0.682607	2.61438	0.632126	4.27023	0.860464	5.8367	0.445219	3.01662	0.812361	3.52537	0.875651	5.92911
0.681402	2.61563	0.680554	2.6165	0.63297	4.24736	0.861653	5.80554	0.446266	3.00345	0.810859	3.53413	0.876519	5.89523
0.679339	2.61772	0.678485	2.61857	0.633804	4.22472	0.86286	5.77492	0.447309	2.99042	0.809339	3.54288	0.877378	5.86174
0.67726	2.61976	0.676398	2.62059	0.634628	4.20231	0.864085	5.74482	0.44835	2.97755	0.807799	3.55163	0.878229	5.82864
0.675163	2.62175	0.674295	2.62256	0.635443	4.18014	0.865328	5.71523	0.449389	2.96484	0.80624	3.56036	0.879072	5.79592
0.67305	2.62369	0.672174	2.62448	0.636249	4.15819	0.866587	5.68615	0.450425	2.95228	0.804662	3.56909	0.879907	5.76358
0.67092	2.62559	0.670038	2.62635	0.637045	4.13647	0.867864	5.65755	0.45146	2.93987	0.803064	3.57781	0.880735	5.73161
0.668774	2.62743	0.667885	2.62817	0.637833	4.11497	0.869157	5.62943	0.452494	2.92761	0.801447	3.58652	0.881556	5.70001
0.666612	2.62922	0.665717	2.62995	0.638613	4.0937	0.870465	5.60177	0.453528	2.91551	0.799811	3.59522	0.882371	5.66877
0.664434	2.63097	0.663533	2.63168	0.639385	4.07264	0.87179	5.57456	0.454561	2.90357	0.798155	3.60392	0.88318	5.63789
0.662241	2.63267	0.661334	2.63336	0.640149	4.05181	0.873129	5.54779	0.455595	2.89177	0.79648	3.6126	0.883983	5.60736
0.660034	2.63432	0.65912	2.63499	0.640906	4.03119	0.874483	5.52145	0.45663	2.88013	0.794786	3.62128	0.884781	5.57719
0.657811	2.63593	0.656891	2.63658	0.641656	4.01078	0.875852	5.49553	0.457665	2.86864	0.793072	3.62994	0.885574	5.54736
0.655574	2.6375	0.654649	2.63813	0.6424	3.99058	0.877234	5.47002	0.458703	2.8573	0.79134	3.6386	0.886363	5.51787
0.653324	2.63902	0.652393	2.63963	0.643138	3.9706	0.87863	5.4449	0.459742	2.84612	0.789589	3.64725	0.887148	5.48872
0.65106	2.6405	0.650124	2.64109	0.643869	3.95082	0.880038	5.42017	0.460783	2.83508	0.787819	3.6559	0.887929	5.45991
0.648784	2.64194	0.647842	2.64252	0.644596	3.93125	0.881459	5.39583	0.461827	2.8242	0.786031	3.66454	0.888708	5.43143
0.646494	2.64334	0.645548	2.6439	0.645317	3.91188	0.882893	5.37185	0.462874	2.81346	0.784225	3.67318	0.889484	5.40328
0.644193	2.6447	0.643241	2.64525	0.646033	3.89272	0.884337	5.34823	0.463924	2.80288	0.782401	3.68181	0.890257	5.37546
0.64188	2.64602	0.640924	2.64656	0.646745	3.87376	0.885793	5.32496	0.464978	2.79244	0.78056	3.69044	0.89103	5.34796
0.639556	2.64731	0.638595	2.64783	0.647452	3.855	0.88726	5.30203	0.466036	2.78215	0.778701	3.69907	0.891801	5.32078
0.637221	2.64856	0.636256	2.64907	0.648156	3.83644	0.888737	5.27943	0.467098	2.77201	0.776825	3.7077	0.892571	5.29392
0.634875	2.64978	0.633906	2.65028	0.648857	3.81808	0.890224	5.25716	0.468165	2.76201	0.774933	3.71634	0.893342	5.26737
0.63252	2.65097	0.631547	2.65145	0.649554	3.79991	0.891721	5.2352	0.469236	2.75217	0.773024	3.72498	0.894113	5.24114
0.630155	2.65213	0.629178	2.6526	0.650248	3.78194	0.893226	5.21355	0.470314	2.74246	0.771099	3.73363	0.894885	5.21521
0.62778	2.65326	0.6268	2.65372	0.650941	3.76416	0.89474	5.1922	0.471396	2.7329	0.76916	3.74228	0.895658	5.1896
0.625397	2.65436	0.624413	2.65481	0.65163	3.74657	0.896262	5.17115	0.472485	2.72349	0.767205	3.75095	0.896433	5.16428
0.623005	2.65544	0.622018	2.65587	0.652319	3.72917	0.897791	5.15038	0.473579	2.71421	0.765235	3.75962	0.897211	5.13928
0.620606	2.65649	0.619615	2.65691	0.653005	3.71196	0.899328	5.12988	0.474681	2.70508	0.763251	3.76832	0.897992	5.11457
0.618198	2.65751	0.617204	2.65793	0.653691	3.69493	0.900872	5.10965	0.475788	2.69609	0.761254	3.77703	0.898777	5.09016
0.615783	2.65851	0.614785	2.65892	0.654375	3.6781	0.902422	5.08969	0.476903	2.68724	0.759243	3.78576	0.899565	5.06605
0.61336	2.65949	0.61236	2.65989	0.65506	3.66144	0.903978	5.06999	0.478026	2.67853	0.75722	3.79452	0.900358	5.04223
0.610931	2.66044	0.609928	2.66083	0.655743	3.64497	0.905539	5.05053	0.479155	2.66996	0.755184	3.8033	0.901157	5.01871
0.608495	2.66138	0.60749	2.66176	0.656427	3.62869	0.907106	5.03132	0.480293	2.66153	0.753137	3.81211	0.901961	4.99548
0.606053	2.6623	0.605045	2.66267	0.657112	3.61258	0.908677	5.01234	0.481439	2.65324	0.751078	3.82095	0.902771	4.97254
0.603605	2.6632	0.602594	2.66356	0.657797	3.59665	0.910252	4.9936	0.482593	2.64508	0.749008	3.82983	0.903589	4.94988
0.601151	2.66408	0.600138	2.66443	0.658483	3.5809	0.911831	4.97507	0.483756	2.63706	0.746929	3.83875	0.904414	4.92752
0.598692	2.66494	0.597677	2.66529	0.65917	3.56533	0.913414	4.95677	0.484928	2.62917	0.744839	3.84771	0.905247	4.90543
0.596227	2.66579	0.59521	2.66613	0.659859	3.54993	0.914999	4.93868	0.48611	2.62142	0.74274	3.85671	0.906088	4.88364
0.593757	2.66662	0.592738	2.66696	0.66055	3.5347	0.916587	4.9208	0.487301	2.6138	0.740633	3.86576	0.906939	4.86212
0.591283	2.66744	0.590262	2.66777	0.661243	3.51965	0.918177	4.90311	0.488502	2.60632	0.738517	3.87486	0.907799	4.84088
0.588803	2.66825	0.587781	2.66857	0.661938	3.50477	0.919769	4.88563	0.489714	2.59898	0.736394	3.88402	0.90867	4.81993
0.58632	2.66904	0.585296	2.66936	0.662637	3.49006	0.921362	4.86833	0.490936	2.59176	0.734264	3.89324	0.909552	4.79925
0.583832	2.66982	0.582806	2.67014	0.663338	3.47552	0.922955	4.85122	0.492169	2.58468	0.732127	3.90252	0.910445	4.77885
0.581341	2.67059	0.580313	2.6709	0.664042	3.46115	0.92455	4.83429	0.493415	2.57774	0.729984	3.91186	0.91135	4.75872
0.578845	2.67135	0.577816	2.67166	0.66475	3.44695	0.926144	4.81754	0.494672	2.57093	0.727836	3.92128	0.912268	4.73886
0.576346	2.6721	0.575316	2.6724	0.665461	3.43291	0.927738	4.80096	0.495941	2.56425	0.725683	3.93077	0.913199	4.71928
0.573844	2.67284	0.572812	2.67314	0.666177	3.41903	0.929332	4.78454	0.497224	2.55771	0.723525	3.94034	0.914144	4.69997
0.571338	2.67357	0.570305	2.67387	0.666897	3.40532	0.930924	4.76829	0.498521	2.55131	0.721364	3.95	0.915103	4.68093
0.568829	2.67429	0.567794	2.67459	0.667622	3.39177	0.932515	4.7522	0.499832	2.54505	0.719199	3.95974	0.916077	4.66216
0.566317	2.67501	0.565281	2.6753	0.668351	3.37838	0.934104	4.73625	0.501158	2.53892	0.717031	3.96957	0.917066	4.64366
0.563802	2.67572	0.562765	2.67601	0.669086	3.36515	0.935691	4.72046	0.502499	2.53294	0.714861	3.97951	0.918072	4.62542
0.561285	2.67643	0.560247	2.67671	0.669826	3.35208	0.937275	4.70481	0.503858	2.5271	0.71269	3.98954	0.919094	4.60745
0.558765	2.67712	0.557726	2.67741	0.670572	3.33917	0.938857	4.6893	0.505235	2.52141	0.710517	3.99968	0.920133	4.58974
0.556242	2.67782	0.555203	2.6781	0.671323	3.32641	0.940435	4.67393	0.50663	2.51587	0.708344	4.00993	0.921189	4.5723
0.553718	2.67851	0.552677	2.67879	0.672081	3.31381	0.942009	4.6587	0.508046	2.51048	0.706171	4.02029	0.922264	4.55511
0.551191	2.67919	0.550149	2.67947	0.672845	3.30136	0.943579	4.64359	0.509484	2.50526	0.703998	4.03078	0.923358	4.53819
0.548662	2.67987	0.54762	2.68015	0.673615	3.28907	0.945146	4.62861	0.510945	2.5002	0.701827	4.04139	0.92447	4.52152
0.546131	2.68055	0.545088	2.68083	0.674393	3.27693	0.946707	4.61375	0.512432	2.49531	0.699657	4.05214	0.925603	4.50511
0.543598	2.68123	0.542555	2.68151	0.675178	3.26494	0.948263	4.59901	0.513946	2.4906	0.697489	4.06302	0.926755	4.48896
0.541064	2.6819	0.540019	2.68218	0.67597	3.2531	0.949814	4.58439	0.51549	2.48608	0.695324	4.07405	0.927928	4.47306
0.538528	2.68258	0.537483	2.68286	0.67677	3.24142	0.95136	4.56988	0.517066	2.48176	0.693162	4.08522	0.929122	4.45742
0.535991	2.68325	0.534945	2.68353	0.677577	3.22988	0.952899	4.55548	0.518677	2.47765	0.691004	4.09655	0.930338	4.44202
0.533452	2.68392	0.532405	2.6842	0.678393	3.21848	0.954432	4.54118	0.520327	2.47377	0.688851	4.10804	0.931575	4.42688
0.530911	2.6846	0.529865	2.68487	0.679217	3.20724	0.955959	4.52699	0.522019	2.47011	0.686702	4.1197	0.932835	4.41198
0.52837	2.68527	0.527323	2.68555	0.68005	3.19614	0.957478	4.5129	0.523755	2.4667	0.684559	4.13153	0.934117	4.39733
0.525828	2.68594	0.52478	2.68622	0.680892	3.18519	0.958991	4.49891	0.52554	2.46355	0.682422	4.14354	0.935422	4.38292
0.523284	2.68662	0.522236	2.6869	0.681743	3.17438	0.960496	4.48501	0.527376	2.46067	0.680292	4.15574	0.936751	4.36876
0.52074	2.6873	0.519691	2.68758	0.682604	3.16371	0.961993	4.47121	0.529266	2.45807	0.678169	4.16814	0.938103	4.35484
0.518195	2.68798	0.517146	2.68826	0.683474	3.15319	0.963482	4.4575	0.531213	2.45575	0.676054	4.18073	0.939479	4.34115
0.515649	2.68867	0.514599	2.68895	0.684355	3.14281	0.964964	4.44387	0.533218	2.45372	0.673948	4.19353	0.940879	4.3277
0.513102	2.68936	0.512053	2.68964	0.685245	3.13257	0.966436	4.43033	0.53528	2.45197	0.67185	4.20655	0.942303	4.31449
0.510555	2.69005	0.509505	2.69033	0.686147	3.12248	0.9679	4.41688	0.537401	2.4505	0.669762	4.21979	0.943752	4.30151
0.508007	2.69075	0.506957	2.69103	0.687059	3.11252	0.969355	4.4035	0.539577	2.4493	0.667685	4.23327	0.945226	4.28875
0.505459	2.69145	0.504409	2.69174	0.687982	3.1027	0.970801	4.3902	0.541807	2.44836	0.665618	4.24698	0.946724	4.27623
0.502911	2.69216	0.501861	2.69245	0.688917	3.09302	0.972237	4.37698	0.544088	2.44765	0.663562	4.26095	0.948247	4.26392
0.500362	2.69287	0.499312	2.69317	0.689864	3.08348	0.973664	4.36384	0.546416	2.44715	0.661519	4.27517	0.949796	4.25184
0.497814	2.6936	0.496764	2.6939	0.690822	3.07408	0.975081	4.35077	0.548787	2.44686	0.659488	4.28965	0.951369	4.23998
0.495265	2.69433	0.494215	2.69463	0.691793	3.06482	0.976488	4.33777	0.551198	2.44674	0.65747	4.30442	0.952968	4.22834
0.492717	2.69507	0.491667	2.69537	0.692777	3.0557	0.977885	4.32484	0.553643	2.44678	0.655466	4.31947	0.954592	4.21691
0.490168	2.69581	0.489118	2.69612	0.693774	3.04671	0.979272	4.31198	0.556121	2.44696	0.653477	4.33481	0.956241	4.20569
0.48762	2.69657	0.48657	2.69688	0.694785	3.03786	0.980648	4.29918	0.558626	2.44725	0.651503	4.35046	0.957915	4.19467
0.485072	2.69734	0.484022	2.69766	0.695809	3.02914	0.982014	4.28645	0.561157	2.44766	0.649545	4.36642	0.959613	4.18386
0.482525	2.69812	0.481475	2.69844	0.696847	3.02057	0.983369	4.27379	0.563709	2.44816	0.647603	4.38271	0.961337	4.17325
0.479978	2.69891	0.478929	2.69923	0.697899	3.01212	0.984713	4.26118	0.566282	2.44874	0.645678	4.39934	0.963085	4.16284
0.477431	2.69971	0.476383	2.70004	0.698967	3.00382	0.986046	4.24864	0.568871	2.44938	0.64377	4.41632	0.964858	4.15263
0.474886	2.70052	0.473837	2.70086	0.70005	2.99565	0.987368	4.23615	0.571476	2.45009	0.641881	4.43365	0.966655	4.1426
0.472341	2.70135	0.471293	2.7017	0.701148	2.98762	0.988679	4.22373	0.574094	2.45085	0.640011	4.45136	0.968476	4.13277
0.469797	2.7022	0.468749	2.70255	0.702263	2.97972	0.989978	4.21136	0.576725	2.45166	0.638161	4.46945	0.97032	4.12311
0.467254	2.70306	0.466207	2.70342	0.703394	2.97196	0.991267	4.19905	0.579366	2.4525	0.636331	4.48794	0.972189	4.11364
0.464713	2.70393	0.463666	2.7043	0.704541	2.96433	0.992544	4.1868	0.582017	2.45338	0.634522	4.50684	0.97408	4.10435
0.462172	2.70483	0.461126	2.7052	0.705706	2.95684	0.993809	4.17459	0.584676	2.45428	0.632734	4.52616	0.975995	4.09523
0.459633	2.70574	0.458588	2.70612	0.706889	2.94949	0.995064	4.16245	0.587343	2.45521	0.630968	4.54592	0.977932	4.08628
0.457096	2.70667	0.456051	2.70706	0.70809	2.94227	0.996306	4.15035	0.590016	2.45616	0.629226	4.56613	0.979891	4.0775
0.45456	2.70762	0.453515	2.70802	0.70931	2.93519	0.997538	4.13831	0.592696	2.45713	0.627506	4.58681	0.981872	4.06888
0.452025	2.7086	0.450982	2.70901	0.710549	2.92825	0.998758	4.12632	0.595381	2.45811	0.625811	4.60797	0.983875	4.06041
0.449493	2.70959	0.44845	2.71001	0.711807	2.92144	0.999966	4.11439	0.598071	2.4591	0.624141	4.62962	0.985898	4.05211
0.446963	2.71062	0.445921	2.71104	0.713085	2.91478	1.00116	4.1025	0.600766	2.46011	0.622496	4.65179	0.987943	4.04396
0.444434	2.71166	0.443393	2.7121	0.714384	2.90824			0.603464	2.46112	0.620877	4.67448	0.990008	4.03596
0.441908	2.71274	0.440868	2.71319	0.715704	2.90185			0.606166	2.46214	0.619285	4.69772	0.992092	4.0281
0.439385	2.71384	0.438346	2.7143	0.717045	2.8956			0.608871	2.46316	0.617719	4.72152	0.994196	4.02038
0.436864	2.71497	0.435826	2.71545	0.718409	2.88948			0.61158	2.46419	0.616182	4.7459	0.996319	4.0128
0.434346	2.71613	0.433309	2.71662	0.719794	2.8835			0.614291	2.46522	0.614673	4.77088	0.998461	4.00536
0.431831	2.71733	0.430795	2.71783	0.721203	2.87766			0.617004	2.46625	0.613192	4.79647	1.00062	3.99805
0.429319	2.71856	0.428285	2.71908	0.722634	2.87196			0.619719	2.46728	0.611741	4.82269		
0.42681	2.71983	0.425778	2.72037	0.72409	2.8664			0.622437	2.46831	0.610321	4.84957		
0.424305	2.72114	0.423274	2.72169	0.725569	2.86097			0.625156	2.46934	0.60893	4.87712		
0.421804	2.72249	0.420775	2.72306	0.727073	2.85569			0.627877	2.47037	0.607571	4.90537		
0.419307	2.72388	0.418279	2.72447	0.728602	2.85054			0.6306	2.4714	0.606243	4.93433		
0.416814	2.72532	0.415788	2.72593	0.730155	2.84553			0.633324	2.47242	0.604947	4.96402		
0.414325	2.72681	0.413302	2.72744	0.731735	2.84066			0.636049	2.47344	0.603684	4.99447		
0.411842	2.72835	0.41082	2.729	0.733339	2.83592			0.638775	2.47446	0.602453	5.0257		
0.409364	2.72995	0.408344	2.73062	0.73497	2.83132			0.641502	2.47547	0.601255	5.05774		
0.406891	2.7316	0.405873	2.7323	0.736627	2.82686			0.64423	2.47648	0.600091	5.0906		
0.404423	2.73331	0.403409	2.73404	0.73831	2.82253			0.646959	2.47749	0.598961	5.1243		
0.401962	2.73509	0.40095	2.73584	0.740019	2.81833			0.649689	2.47849	0.597864	5.15889		
0.399508	2.73694	0.398498	2.73772	0.741754	2.81426			0.652419	2.47948	0.596803	5.19437		
0.39706	2.73886	0.396054	2.73967	0.743515	2.81033			0.65515	2.48047	0.595776	5.23078		
0.39462	2.74086	0.393616	2.7417	0.745303	2.80652			0.657881	2.48145	0.594784	5.26813		
0.392187	2.74293	0.391187	2.74382	0.747116	2.80283			0.660613	2.48243	0.593827	5.30647		
0.389763	2.7451	0.388766	2.74602	0.748955	2.79927			0.663345	2.4834	0.592905	5.34582		
0.387347	2.74736	0.386354	2.74832	0.75082	2.79583			0.666077	2.48437	0.592019	5.3862		
0.384941	2.74972	0.383952	2.75072	0.75271	2.79251			0.66881	2.48533	0.591168	5.42764		
0.382544	2.75218	0.38156	2.75323	0.754624	2.78931			0.671543	2.48628	0.590353	5.47019		
0.380158	2.75476	0.379178	2.75585	0.756563	2.78622			0.674276	2.48723	0.589574	5.51385		
0.377783	2.75745	0.376808	2.75859	0.758526	2.78324			0.677009	2.48817	0.588831	5.55868		
0.37542	2.76027	0.374451	2.76147	0.760512	2.78036			0.679742	2.4891	0.588123	5.6047		
0.37307	2.76322	0.372105	2.76448	0.762522	2.7776			0.682476	2.49003	0.587451	5.65194		
0.370733	2.76632	0.369774	2.76764	0.764553	2.77493			0.685209	2.49095	0.586814	5.70044		
0.36841	2.76957	0.367458	2.77096	0.766607	2.77236			0.687943	2.49186	0.586214	5.75024		
0.366103	2.77299	0.365156	2.77445	0.768682	2.76989			0.690676	2.49277	0.585648	5.80138		
0.363811	2.77658	0.362872	2.77811	0.770777	2.7675			0.693409	2.49367	0.585118	5.85389		
0.361536	2.78035	0.360605	2.78197	0.772893	2.76521			0.696142	2.49456	0.584624	5.90781		
0.35928	2.78433	0.358356	2.78603	0.775028	2.763			0.698875	2.49545	0.584164	5.96318		
0.357043	2.78852	0.356127	2.79031	0.777181	2.76088			0.701608	2.49633	0.583739	6.02005		
0.354827	2.79293	0.35392	2.79482	0.779353	2.75883			0.70434	2.4972	0.583349	6.07847		
0.352632	2.79759	0.351734	2.79958	0.781542	2.75686			0.707072	2.49807	0.582993	6.13847		
0.35046	2.8025	0.349572	2.80461	0.783748	2.75496			0.709804	2.49892	0.582672	6.20011		
0.348313	2.8077	0.347435	2.80992	0.78597	2.75313			0.712536	2.49978	0.582384	6.26343		
0.346191	2.81318	0.345325	2.81553	0.788208	2.75137			0.715267	2.50062	0.58213	6.32849		
0.344097	2.81898	0.343242	2.82147	0.79046	2.74968			0.717998	2.50146	0.581909	6.39534		
0.342032	2.82511	0.34119	2.82774	0.792727	2.74804			0.720728	2.50229	0.581721	6.46403		
0.339997	2.8316	0.339168	2.83438	0.795008	2.74646			0.723459	2.50311	0.581566	6.53463		
0.337994	2.83847	0.337179	2.84142	0.797301	2.74494			0.726188	2.50392	0.581443	6.6072		
0.336026	2.84574	0.335225	2.84886	0.799608	2.74347			0.728918	2.50473	0.581353	6.68179		
0.334092	2.85343	0.333306	2.85673	0.801926	2.74206			0.731646	2.50553	0.581294	6.75848		
0.332196	2.86158	0.331426	2.86508	0.804256	2.74069			0.734375	2.50633	0.581266	6.83734		
0.330338	2.87021	0.329585	2.87391	0.806597	2.73937			0.737102	2.50712	0.581269	6.91844		
0.328521	2.87934	0.327785	2.88325	0.808949	2.73809			0.739829	2.50789	0.581303	7.00185		
0.326746	2.889	0.326027	2.89314	0.81131	2.73686			0.742556	2.50867	0.581367	7.08765		
0.325014	2.89922	0.324314	2.9036	0.813681	2.73567			0.745282	2.50943	0.581461	7.17593		
0.323328	2.91003	0.322646	2.91466	0.816062	2.73451			0.748007	2.51019	0.581584	7.26678		
0.321687	2.92145	0.321025	2.92635	0.818451	2.7334			0.750732	2.51094	0.581737	7.36028		
0.320094	2.93352	0.319452	2.93869	0.820848	2.73231			0.753456	2.51168	0.581893	7.444		
0.31855	2.94626	0.317928	2.95171	0.823254	2.73127			0.756179	2.51242	0.582043	7.51707		
0.317055	2.9597	0.316454	2.96545	0.825667	2.73025			0.758901	2.51315	0.582179	7.57871		
0.315611	2.97387	0.315031	2.97993	0.828087	2.72926			0.761623	2.51387	0.582293	7.62825		
0.314218	2.98879	0.313659	2.99517	0.830515	2.72831			0.764344	2.51458	0.582382	7.66513		
0.312876	3.0045	0.312338	3.0112	0.832949	2.72738			0.767064	2.51529	0.582467	7.69941		
0.311586	3.02101	0.31107	3.02805	0.835389	2.72648			0.769783	2.51599	0.582527	7.72345		
0.310349	3.03835	0.309854	3.04574	0.837835	2.7256			0.772501	2.51668	0.582625	7.76135		
0.309163	3.05655	0.30869	3.0643	0.840287	2.72475			0.775218	2.51736	0.582763	7.81355		
0.30803	3.07563	0.307578	3.08375	0.842745	2.72392			0.777935	2.51804	0.582947	7.88066		
0.306948	3.09561	0.306517	3.10412	0.845207	2.72311			0.78065	2.51871	0.583182	7.9635		
0.305918	3.11653	0.305508	3.12542	0.847675	2.72233			0.783364	2.51937	0.583477	8.06309		
0.304939	3.1384	0.30455	3.14769	0.850147	2.72156			0.786078	2.52002	0.58384	8.18071		
0.30401	3.16125	0.303642	3.17095	0.852624	2.72082			0.78879	2.52067	0.584229	8.30202		
0.303131	3.18509	0.302783	3.19522	0.855105	2.72009			0.791501	2.52131	0.584643	8.42717		
0.302301	3.20997	0.301973	3.22052	0.85759	2.71938			0.794211	2.52194	0.585081	8.55634		
0.301519	3.23589	0.301211	3.24688	0.860079	2.71868			0.796919	2.52256	0.585544	8.68969		
0.300785	3.26289	0.300496	3.27433	0.862572	2.71801			0.799627	2.52318	0.586032	8.8274		
0.300098	3.29099	0.299828	3.3029	0.865069	2.71734			0.802332	2.52378	0.586543	8.96967		
0.299456	3.32023	0.299205	3.3326	0.867568	2.7167			0.805037	2.52438	0.587077	9.1167		
0.29886	3.35061	0.298627	3.36348	0.870071	2.71606			0.80774	2.52497	0.587634	9.26872		
0.298307	3.38219	0.298092	3.39555	0.872577	2.71544			0.810442	2.52555	0.588214	9.42595		
0.297798	3.41498	0.297601	3.42885	0.875086	2.71483			0.813142	2.52613	0.588817	9.58865		
0.297332	3.44902	0.297151	3.46342	0.877597	2.71424			0.815841	2.52669	0.589441	9.75707		
0.296906	3.48435	0.296743	3.49928	0.880111	2.71365			0.818538	2.52725	0.590087	9.9315		
0.296522	3.52099	0.296375	3.53648	0.882627	2.71308			0.821233	2.5278	0.590754	10.1122		
0.296178	3.559	0.296047	3.57506	0.885146	2.71252			0.823926	2.52834	0.591442	10.2996		
0.295872	3.5984	0.295758	3.61504	0.887667	2.71197			0.826618	2.52887	0.59215	10.494		
0.295605	3.63923	0.295506	3.65649	0.89019	2.71142			0.829308	2.52939	0.592879	10.6957		
0.295376	3.68155	0.295292	3.69943	0.892715	2.71089			0.831995	2.5299	0.593627	10.9051		
0.295183	3.7254	0.295114	3.74392	0.895242	2.71036			0.834681	2.5304	0.594395	11.1228		
0.295027	3.77083	0.294973	3.79001	0.89777	2.70985			0.837364	2.53089	0.595182	11.349		
0.294906	3.81788	0.294866	3.83776	0.9003	2.70934			0.840045	2.53138	0.595988	11.5844		
0.294819	3.86662	0.294794	3.88721	0.902832	2.70884			0.842724	2.53185	0.596813	11.8294		
0.294767	3.9171	0.294755	3.93842	0.905364	2.70834			0.8454	2.53231	0.597655	12.0847		
0.294748	3.96939	0.294749	3.99147	0.907899	2.70786			0.848074	2.53277	0.598516	12.3509		
0.294761	4.02354	0.294776	4.04641	0.910434	2.70738			0.850745	2.53321	0.599394	12.6286		
0.294807	4.07963	0.294835	4.10332	0.912971	2.7069			0.853413	2.53364	0.60029	12.9185		
0.294873	4.13015	0.294925	4.16227	0.915508	2.70643			0.856079	2.53406	0.601202	13.2216		
0.294947	4.17445	0.295046	4.22334	0.918046	2.70597			0.858741	2.53447	0.602131	13.5386		
0.295021	4.21198	0.295196	4.28661	0.920586	2.70551			0.8614	2.53486	0.603076	13.8704		
0.295088	4.24223	0.295376	4.35217	0.923126	2.70506			0.864056	2.53525	0.604038	14.2183		
0.295142	4.26481	0.295585	4.42011	0.925666	2.70461			0.866708	2.53562	0.605015	14.5832		
0.295194	4.28584	0.295822	4.49054	0.928208	2.70416			0.869356	2.53598	0.606007	14.9664		
0.295233	4.30061	0.296086	4.56355	0.930749	2.70372			0.872001	2.53632	0.607015	15.3694		
0.295296	4.32394	0.296378	4.63927	0.933291	2.70328			0.874641	2.53665	0.608037	15.7935		
0.295388	4.35614	0.296696	4.7178	0.935834	2.70285			0.877277	2.53697	0.609074	16.2406		
0.295513	4.39768	0.29704	4.79928	0.938377	2.70242			0.879909	2.53727	0.610125	16.7125		
0.29568	4.44914	0.297409	4.88384	0.940919	2.70199			0.882536	2.53756	0.61119	17.2113		
0.295895	4.5113	0.297803	4.97163	0.943462	2.70157			0.885157	2.53783	0.612268	17.7392		
0.296167	4.58508	0.298221	5.06279	0.946005	2.70115			0.887774	2.53808	0.61336	18.2989		
0.296467	4.66159	0.298662	5.15749	0.948548	2.70073			0.890385	2.53832	0.614464	18.8932		
0.296792	4.74096	0.299127	5.25592	0.951091	2.70031			0.89299	2.53854	0.615581	19.5255		
0.297143	4.82331	0.299614	5.35825	0.953633	2.69989			0.895589	2.53874	0.616709	20.1995		
0.29752	4.90879	0.300123	5.46469	0.956176	2.69948			0.898181	2.53892	0.61785	20.9193		
0.297921	4.99753	0.300652	5.57545	0.958717	2.69906			0.900767	2.53908	0.619002	21.6897		
0.298346	5.08969	0.301203	5.69077	0.961259	2.69865			0.903345	2.53922	0.620164	22.5163		
0.298794	5.18545	0.301773	5.81089	0.963799	2.69824			0.905916	2.53933	0.621337	23.4053		
0.299265	5.28498	0.302362	5.93609	0.966339	2.69783			0.908478	2.53942	0.62252	24.364		
0.299758	5.38847	0.30297	6.06666	0.968879	2.69742			0.911032	2.53949	0.623712	25.4008		
0.300273	5.49614	0.303596	6.2029	0.971417	2.697			0.913576	2.53953	0.624913	26.5257		
0.300809	5.60819	0.304239	6.34516	0.973955	2.69659			0.916111	2.53955	0.626123	27.7503		
0.301365	5.72486	0.304898	6.49381	0.976492	2.69618			0.918636	2.53954	0.627339	29.0883		
0.301941	5.84642	0.305573	6.64924	0.979027	2.69577			0.92115	2.53949	0.628563	30.5562		
0.302536	5.97313	0.306174	6.79056	0.981562	2.69535			0.923653	2.53942	0.629792	32.1738		
0.303149	6.1053	0.306695	6.91559	0.984095	2.69494			0.926143	2.53931	0.631026	33.9651		
0.303779	6.24324	0.307131	7.02231	0.986627	2.69452			0.928621	2.53917	0.632264	35.9595		
0.304427	6.3873	0.307479	7.10891	0.989157	2.69411			0.931086	2.539	0.633504	38.1937		
0.305091	6.53786	0.307737	7.17388	0.991686	2.69369			0.933537	2.53879	0.634744	40.7133		
0.305771	6.69533	0.307976	7.23464	0.994213	2.69326			0.935972	2.53853	0.635983	43.5767		
0.306465	6.86014	0.308143	7.27749	0.996739	2.69284			0.938393	2.53824	0.637218	46.8593		
0.307173	7.0328	0.308405	7.34539	0.999262	2.69241			0.940797	2.53791	0.638447	50.6602		
0.307895	7.21382	0.308764	7.43966	1.00178	2.69198			0.943184	2.53753	0.639665	55.1126		
0.308629	7.40379	0.309222	7.56217					0.945553	2.5371	0.640868	60.3996		
0.309374	7.60335	0.309781	7.71545					0.947903	2.53663	0.64205	66.7797		
0.31013	7.81319	0.310444	7.90281					0.950235	2.53611	0.643204	74.6312		
0.310896	8.03407	0.311214	8.12849					0.952547	2.53554	0.64432	84.5297		
0.31167	8.26687	0.311991	8.36646					0.954838	2.53492	0.645385	97.3962		
0.312452	8.51251	0.312777	8.61769					0.957108	2.53424	0.646382	114.803		
0.313241	8.77205	0.313568	8.88328					0.959356	2.53352	0.647291	139.673		
0.314036	9.04664	0.314365	9.16445					0.961583	2.53273	0.648086	178.128		
0.314836	9.33759	0.315166	9.46256					0.963788	2.5319	0.648736	245.521		
0.315639	9.64637	0.31597	9.77914					0.96597	2.53101	0.649207	394.352		
0.316444	9.97461	0.316776	10.1159					0.968129	2.53006	0.64947	998.82		
0.31725	10.3242	0.317583	10.4749					0.970267	2.52907				
0.318057	10.6971	0.318388	10.8581					0.972382	2.52802				
0.318861	11.0959	0.319192	11.2683					0.974475	2.52691				
0.319663	11.5232	0.319992	11.7083					0.976546	2.52576				
0.320461	11.9822	0.320788	12.1813					0.978596	2.52456				
0.321253	12.4764	0.321577	12.6913					0.980626	2.52331				
0.322037	13.0101	0.322358	13.2426					0.982635	2.52202				
0.322813	13.5882	0.323129	13.8406					0.984626	2.52069				
0.323578	14.2165	0.323889	14.4914					0.986599	2.51931				
0.32433	14.9016	0.324636	15.2023					0.988554	2.5179				
0.325068	15.6519	0.325368	15.9821					0.990493	2.51645				
0.325791	16.4768	0.326083	16.8411					0.992416	2.51498				
0.326495	17.3884	0.32678	17.7924					0.994326	2.51347				
0.32718	18.401	0.327456	18.8515					0.996221	2.51194				
0.327843	19.5324	0.32811	20.0382					0.998105	2.51038				
0.328483	20.8051	0.328739	21.3769					0.999976	2.50881				
0.329096	22.2474	0.329341	22.8992					1.00184	2.50721				
0.329682	23.896	0.329915	24.6459										
0.330238	25.7988	0.330458	26.671										
0.330762	28.0201	0.330968	29.0473										
0.331252	30.6475	0.331444	31.8755										
0.331707	33.8048	0.331883	35.2989										
0.332124	37.6711	0.332284	39.5292										
0.332501	42.5173	0.332645	44.8912										
0.332838	48.772	0.332964	51.9121										
0.333132	57.1573	0.33324	61.5064										
0.333382	68.9902	0.333472	75.4128										
0.333587	86.9557	0.333658	97.3919										
0.333745	117.505	0.333797	137.371										
0.333857	181.028	0.33389	232.858										
0.333922	393.678	0.333935	762.658										
