Sym0		Sym1		Sym2		Sym3		Asym1		Asym2		Asym3	
416  Points		415  Points		380  Points		227  Points		399  Points		354  Points		235  Points	
Freq (MHz)	Vph (m/ms)	Freq (MHz)	Vph (m/ms)	Freq (MHz)	Vph (m/ms)	Freq (MHz)	Vph (m/ms)	Freq (MHz)	Vph (m/ms)	Freq (MHz)	Vph (m/ms)	Freq (MHz)	Vph (m/ms)
1.00179	2.45444	1.00111	2.45454	0.433024	966.338	0.866024	1136.91	0.216525	300.978	1.00015	2.88787	0.755376	3099.16
0.999481	2.45477	0.998803	2.45487	0.433127	299.922	0.866015	492.681	0.216614	126.274	0.998917	2.89262	0.755409	609.319
0.997178	2.45512	0.996502	2.45523	0.433337	177.586	0.866001	314.477	0.216775	79.948	0.997687	2.89742	0.755488	337.907
0.994881	2.45549	0.994208	2.4556	0.433653	126.202	0.865979	230.94	0.217009	58.5327	0.996461	2.90225	0.75561	233.804
0.992592	2.45588	0.991921	2.45599	0.434071	97.9356	0.865952	182.466	0.217314	46.2025	0.995238	2.90712	0.755778	178.762
0.990311	2.45628	0.989641	2.45641	0.434587	80.0606	0.865918	150.808	0.21769	38.1943	0.994018	2.91203	0.755989	144.719
0.988037	2.45671	0.987369	2.45684	0.435198	67.743	0.865877	128.509	0.218136	32.5792	0.992802	2.91698	0.756244	121.585
0.98577	2.45716	0.985105	2.4573	0.435898	58.7442	0.86583	111.953	0.218651	28.4274	0.991589	2.92197	0.756541	104.844
0.983511	2.45763	0.982848	2.45777	0.436683	51.8854	0.865777	99.1735	0.219235	25.2354	0.990379	2.92699	0.756882	92.1686
0.981259	2.45812	0.980598	2.45827	0.437547	46.4866	0.865718	89.0111	0.219885	22.7069	0.989172	2.93206	0.757264	82.2403
0.979015	2.45864	0.978357	2.45879	0.438484	42.1281	0.865652	80.7363	0.220602	20.6563	0.987969	2.93716	0.757688	74.2542
0.976779	2.45917	0.976122	2.45933	0.43949	38.537	0.865581	73.8676	0.221383	18.961	0.986768	2.9423	0.758152	67.6921
0.97455	2.45973	0.973896	2.4599	0.44056	35.5279	0.865503	68.0747	0.222227	17.5373	0.98557	2.94748	0.758655	62.2051
0.972329	2.46031	0.971678	2.46048	0.441689	32.9707	0.86542	63.1231	0.223132	16.3255	0.984374	2.9527	0.759197	57.5496
0.970116	2.46091	0.969467	2.46109	0.442873	30.7712	0.865331	58.8417	0.224098	15.2824	0.983181	2.95796	0.759777	53.5504
0.967911	2.46154	0.967264	2.46172	0.444107	28.8597	0.865236	55.1032	0.225121	14.3758	0.981991	2.96326	0.760394	50.0783
0.965713	2.46218	0.965069	2.46238	0.445387	27.1835	0.865135	51.8104	0.226202	13.581	0.980803	2.9686	0.761047	47.0359
0.963524	2.46286	0.962882	2.46306	0.446711	25.7018	0.865029	48.8879	0.227337	12.879	0.979617	2.97398	0.761735	44.3484
0.961342	2.46355	0.960702	2.46376	0.448074	24.383	0.864918	46.2766	0.228526	12.2548	0.978434	2.97939	0.762457	41.9574
0.959169	2.46427	0.958531	2.46449	0.449474	23.2016	0.864802	43.9294	0.229766	11.6966	0.977252	2.98485	0.763211	39.8166
0.957003	2.46502	0.956368	2.46524	0.450909	22.1375	0.86468	41.8079	0.231056	11.1946	0.976072	2.99034	0.763998	37.8888
0.954845	2.46578	0.954212	2.46601	0.452374	21.174	0.864554	39.8812	0.232394	10.7411	0.974894	2.99587	0.764816	36.144
0.952695	2.46658	0.952064	2.46681	0.453869	20.2977	0.864422	38.1235	0.233778	10.3296	0.973718	3.00145	0.765663	34.5574
0.950553	2.46739	0.949925	2.46764	0.455391	19.4973	0.864286	36.5136	0.235207	9.95459	0.972543	3.00706	0.76654	33.1086
0.948419	2.46823	0.947793	2.46849	0.456939	18.7634	0.864146	35.0335	0.236678	9.61171	0.97137	3.01271	0.767444	31.7805
0.946293	2.4691	0.945669	2.46936	0.458509	18.0881	0.864001	33.6681	0.238191	9.29709	0.970198	3.0184	0.768376	30.5586
0.944175	2.46999	0.943553	2.47026	0.460102	17.4647	0.863853	32.4046	0.239744	9.00751	0.969027	3.02412	0.769334	29.4309
0.942064	2.47091	0.941445	2.47119	0.461715	16.8874	0.8637	31.2319	0.241335	8.7402	0.967857	3.02989	0.770316	28.3869
0.939962	2.47185	0.939345	2.47214	0.463347	16.3514	0.863543	30.1407	0.242751	8.52355	0.966687	3.0357	0.771323	27.4176
0.937867	2.47282	0.937253	2.47311	0.464997	15.8524	0.863383	29.1227	0.243979	8.34975	0.965519	3.04154	0.772354	26.5155
0.93578	2.47382	0.935168	2.47411	0.466663	15.3868	0.86322	28.1707	0.245009	8.21302	0.964351	3.04742	0.773406	25.6737
0.933701	2.47484	0.933091	2.47514	0.468345	14.9512	0.863053	27.2786	0.245832	8.10911	0.963183	3.05334	0.77448	24.8865
0.93163	2.47588	0.931022	2.47619	0.470041	14.543	0.862883	26.4408	0.246442	8.03495	0.962016	3.0593	0.775575	24.1488
0.929566	2.47695	0.92896	2.47727	0.471752	14.1595	0.862711	25.6526	0.246835	7.98845	0.960848	3.0653	0.77669	23.4561
0.927509	2.47805	0.926906	2.47838	0.473475	13.7987	0.862536	24.9097	0.247402	7.9229	0.959681	3.07133	0.777824	22.8044
0.925461	2.47918	0.92486	2.47951	0.47521	13.4586	0.862358	24.2082	0.248022	7.8533	0.958513	3.0774	0.778977	22.1902
0.923419	2.48032	0.92282	2.48067	0.476956	13.1375	0.862179	23.5448	0.248872	7.76133	0.957345	3.08351	0.780147	21.6104
0.921385	2.4815	0.920789	2.48185	0.478713	12.8338	0.861997	22.9165	0.249957	7.64921	0.956176	3.08966	0.781334	21.0621
0.919359	2.4827	0.918764	2.48306	0.48048	12.5462	0.861814	22.3206	0.251284	7.51955	0.955006	3.09585	0.782537	20.543
0.917339	2.48393	0.916747	2.4843	0.482257	12.2733	0.861629	21.7546	0.25286	7.37516	0.953836	3.10207	0.783756	20.0507
0.915327	2.48518	0.914737	2.48556	0.484042	12.0142	0.861443	21.2164	0.254694	7.21893	0.952664	3.10832	0.78499	19.5833
0.913322	2.48646	0.912734	2.48685	0.485835	11.7678	0.861256	20.7039	0.256554	7.07199	0.95149	3.11462	0.786238	19.1389
0.911324	2.48777	0.910738	2.48816	0.487636	11.5332	0.861068	20.2154	0.258438	6.93355	0.950315	3.12095	0.7875	18.7158
0.909333	2.4891	0.908748	2.4895	0.489444	11.3095	0.860879	19.7491	0.260345	6.80294	0.949138	3.12731	0.788775	18.3126
0.907348	2.49046	0.906766	2.49086	0.491259	11.0961	0.860691	19.3037	0.262274	6.67951	0.947959	3.13371	0.790062	17.9279
0.90537	2.49184	0.90479	2.49225	0.493081	10.8922	0.860502	18.8778	0.264225	6.56271	0.946778	3.14014	0.791361	17.5605
0.903399	2.49325	0.90282	2.49367	0.494908	10.6972	0.860313	18.47	0.266195	6.45203	0.945594	3.14661	0.792672	17.2092
0.901434	2.49469	0.900857	2.49511	0.496741	10.5105	0.860125	18.0794	0.268185	6.34702	0.944408	3.15312	0.793993	16.8731
0.899475	2.49615	0.8989	2.49658	0.498578	10.3317	0.859937	17.7048	0.270192	6.24727	0.943219	3.15965	0.795325	16.551
0.897523	2.49763	0.896949	2.49807	0.500421	10.1602	0.859751	17.3453	0.272216	6.15238	0.942026	3.16622	0.796667	16.2423
0.895576	2.49914	0.895005	2.49959	0.502268	9.99551	0.859565	16.9999	0.274256	6.06203	0.94083	3.17282	0.798018	15.946
0.893635	2.50068	0.893066	2.50113	0.504118	9.83735	0.859381	16.6679	0.276312	5.9759	0.939631	3.17946	0.799377	15.6615
0.8917	2.50224	0.891132	2.5027	0.505973	9.68529	0.859199	16.3486	0.278381	5.8937	0.938427	3.18612	0.800746	15.388
0.889771	2.50382	0.889205	2.50429	0.50783	9.53898	0.859018	16.0411	0.280464	5.81517	0.937219	3.19282	0.802122	15.125
0.887847	2.50543	0.887282	2.50591	0.509691	9.3981	0.85884	15.745	0.28256	5.74008	0.936007	3.19955	0.803506	14.8718
0.885928	2.50706	0.885365	2.50755	0.511554	9.26235	0.858664	15.4594	0.284667	5.66821	0.93479	3.2063	0.804898	14.6278
0.884015	2.50872	0.883453	2.50921	0.51342	9.13145	0.858491	15.184	0.286786	5.59934	0.933568	3.21309	0.806295	14.3927
0.882106	2.5104	0.881545	2.51089	0.515287	9.00514	0.858321	14.9182	0.288915	5.5333	0.932341	3.21991	0.8077	14.1659
0.880202	2.5121	0.879642	2.5126	0.517157	8.88318	0.858155	14.6615	0.291053	5.46991	0.931108	3.22675	0.80911	13.947
0.878302	2.51382	0.877744	2.51433	0.518787	8.78028	0.857991	14.4134	0.293201	5.40902	0.92987	3.23362	0.810526	13.7356
0.876406	2.51557	0.87585	2.51608	0.520177	8.69493	0.857832	14.1736	0.295356	5.35047	0.928625	3.24051	0.811947	13.5313
0.874515	2.51734	0.87396	2.51786	0.521327	8.62594	0.857677	13.9416	0.297519	5.29413	0.927374	3.24743	0.813373	13.3337
0.872627	2.51912	0.872073	2.51965	0.522237	8.57237	0.857526	13.7171	0.299689	5.23987	0.926117	3.25438	0.814803	13.1426
0.870743	2.52093	0.87019	2.52147	0.522906	8.53352	0.857379	13.4996	0.301865	5.18758	0.924852	3.26135	0.816237	12.9575
0.868863	2.52276	0.86831	2.52331	0.523334	8.5089	0.857238	13.289	0.304047	5.13714	0.92358	3.26835	0.817676	12.7783
0.866985	2.52461	0.866434	2.52516	0.52395	8.47382	0.857101	13.0849	0.306234	5.08846	0.922301	3.27536	0.819117	12.6047
0.865111	2.52648	0.86456	2.52704	0.524619	8.4361	0.85697	12.8869	0.308426	5.04144	0.921013	3.2824	0.820562	12.4363
0.863239	2.52837	0.862688	2.52893	0.525529	8.3855	0.856845	12.6949	0.310621	4.99599	0.919717	3.28946	0.82201	12.273
0.861369	2.53027	0.860819	2.53084	0.52668	8.32262	0.856726	12.5085	0.31282	4.95203	0.918413	3.29654	0.82346	12.1145
0.859501	2.5322	0.858952	2.53277	0.528072	8.24818	0.856613	12.3276	0.315022	4.90947	0.9171	3.30364	0.824912	11.9606
0.857635	2.53414	0.857086	2.53471	0.529705	8.16302	0.856506	12.1519	0.317226	4.86825	0.915778	3.31075	0.826367	11.8111
0.85577	2.53609	0.855222	2.53667	0.531579	8.06805	0.856407	11.9812	0.319432	4.82831	0.914447	3.31789	0.827822	11.6658
0.853906	2.53806	0.853358	2.53864	0.533451	7.9759	0.856314	11.8152	0.321639	4.78956	0.913106	3.32504	0.829279	11.5246
0.852043	2.54004	0.851496	2.54063	0.535323	7.88644	0.856229	11.6539	0.323847	4.75196	0.911754	3.3322	0.830737	11.3872
0.850181	2.54204	0.849633	2.54263	0.537194	7.79956	0.856152	11.497	0.326056	4.71545	0.910393	3.33938	0.832196	11.2536
0.848318	2.54404	0.847771	2.54464	0.539063	7.71513	0.856082	11.3443	0.328264	4.67997	0.90902	3.34657	0.833654	11.1235
0.846456	2.54606	0.845908	2.54666	0.540931	7.63305	0.856021	11.1957	0.330472	4.64548	0.907637	3.35378	0.835113	10.9968
0.844592	2.54809	0.844044	2.54869	0.542797	7.55322	0.855968	11.0511	0.332678	4.61193	0.906242	3.361	0.836572	10.8734
0.842727	2.55013	0.842179	2.55073	0.544661	7.47554	0.855923	10.9102	0.334883	4.57926	0.904836	3.36822	0.83803	10.7531
0.840861	2.55217	0.840312	2.55278	0.546522	7.39993	0.855888	10.773	0.337086	4.54745	0.903418	3.37546	0.839488	10.6359
0.838993	2.55422	0.838443	2.55483	0.548381	7.32629	0.855863	10.6393	0.339287	4.51645	0.901988	3.38271	0.840944	10.5216
0.837123	2.55628	0.836572	2.55689	0.550237	7.25455	0.855846	10.509	0.341484	4.48623	0.900546	3.38996	0.842399	10.4101
0.835249	2.55834	0.834698	2.55895	0.55209	7.18463	0.85584	10.3819	0.343679	4.45674	0.89909	3.39722	0.843853	10.3012
0.833373	2.56041	0.83282	2.56101	0.553939	7.11646	0.855844	10.258	0.34587	4.42796	0.897622	3.40448	0.845305	10.195
0.831493	2.56247	0.830939	2.56308	0.555785	7.04996	0.855858	10.1372	0.348056	4.39984	0.896141	3.41175	0.846754	10.0913
0.829608	2.56454	0.829053	2.56514	0.557627	6.98507	0.855883	10.0193	0.350238	4.37237	0.894646	3.41903	0.848201	9.98992
0.827719	2.5666	0.827163	2.5672	0.559465	6.92174	0.855919	9.9042	0.352415	4.34552	0.893137	3.4263	0.849646	9.8909
0.825825	2.56866	0.825267	2.56926	0.561298	6.85989	0.855966	9.79189	0.354587	4.31925	0.891615	3.43358	0.851088	9.79412
0.823925	2.57071	0.823366	2.57132	0.563128	6.79947	0.856025	9.68225	0.356753	4.29354	0.890078	3.44086	0.852526	9.6995
0.82202	2.57276	0.821458	2.57336	0.564952	6.74044	0.856096	9.57517	0.358912	4.26836	0.888527	3.44814	0.853961	9.60696
0.820107	2.5748	0.819544	2.5754	0.566771	6.68273	0.856178	9.47059	0.361065	4.2437	0.886962	3.45543	0.855393	9.51643
0.818188	2.57684	0.817622	2.57743	0.568586	6.6263	0.85626	9.38143	0.363211	4.21953	0.885381	3.46271	0.85682	9.42784
0.816261	2.57886	0.815693	2.57945	0.570394	6.57111	0.856338	9.30683	0.36535	4.19582	0.883786	3.46998	0.858061	9.35218
0.814326	2.58087	0.813756	2.58145	0.572197	6.5171	0.856407	9.2461	0.367481	4.17256	0.882176	3.47726	0.859116	9.28877
0.812383	2.58286	0.81181	2.58344	0.573994	6.46423	0.856466	9.19869	0.369603	4.14973	0.880551	3.48453	0.859987	9.23707
0.810431	2.58484	0.809855	2.58542	0.575785	6.41247	0.85651	9.16416	0.371717	4.12732	0.87891	3.49181	0.860674	9.19667
0.808469	2.5868	0.807891	2.58737	0.57757	6.36178	0.85654	9.1422	0.373823	4.10529	0.877254	3.49907	0.861178	9.16721
0.806498	2.58874	0.805916	2.58931	0.579348	6.31211	0.856584	9.11085	0.375919	4.08364	0.875583	3.50634	0.861501	9.14847
0.804517	2.59067	0.803932	2.59123	0.581119	6.26344	0.856633	9.07702	0.378005	4.06235	0.873896	3.5136	0.861964	9.12169
0.802525	2.59257	0.801937	2.59312	0.582883	6.21572	0.856702	9.03147	0.380081	4.04141	0.872194	3.52085	0.862467	9.09278
0.800522	2.59444	0.79993	2.59499	0.58464	6.16893	0.856795	8.97455	0.382148	4.02079	0.870475	3.5281	0.86315	9.05381
0.798507	2.5963	0.797913	2.59684	0.586389	6.12304	0.856914	8.90677	0.384203	4.00049	0.868742	3.53534	0.864011	9.00505
0.796481	2.59812	0.795883	2.59866	0.58813	6.07801	0.857063	8.82867	0.386247	3.9805	0.866992	3.54258	0.865051	8.94689
0.794444	2.59992	0.793842	2.60045	0.589864	6.03382	0.857248	8.74089	0.38828	3.96079	0.865227	3.54982	0.866266	8.87975
0.792394	2.6017	0.791789	2.60221	0.591589	5.99044	0.857447	8.65502	0.390302	3.94137	0.863447	3.55705	0.867656	8.80411
0.790331	2.60344	0.789723	2.60395	0.593307	5.94783	0.85766	8.571	0.392311	3.92221	0.861651	3.56428	0.86904	8.72992
0.788257	2.60515	0.787644	2.60565	0.595015	5.90599	0.857888	8.48879	0.394308	3.90331	0.859839	3.5715	0.870417	8.65713
0.786169	2.60683	0.785553	2.60732	0.596715	5.86488	0.858132	8.40833	0.396293	3.88465	0.858012	3.57872	0.871788	8.58572
0.784069	2.60848	0.783449	2.60896	0.598405	5.82448	0.85839	8.32957	0.398265	3.86623	0.85617	3.58593	0.873153	8.51562
0.781955	2.6101	0.781332	2.61057	0.600087	5.78476	0.858665	8.25247	0.400223	3.84804	0.854313	3.59314	0.87451	8.44681
0.779829	2.61169	0.779202	2.61215	0.601759	5.74572	0.858955	8.17698	0.402169	3.83006	0.852441	3.60035	0.875861	8.37925
0.77769	2.61324	0.777058	2.61369	0.603422	5.70731	0.859261	8.10306	0.4041	3.8123	0.850554	3.60755	0.877205	8.31289
0.775538	2.61476	0.774902	2.6152	0.605074	5.66953	0.859583	8.03067	0.406018	3.79473	0.848652	3.61476	0.878541	8.2477
0.773373	2.61625	0.772734	2.61668	0.606717	5.63236	0.859922	7.95977	0.407921	3.77736	0.846736	3.62196	0.879869	8.18365
0.771195	2.6177	0.770552	2.61812	0.60835	5.59578	0.860278	7.89032	0.40981	3.76017	0.844806	3.62917	0.88119	8.12071
0.769004	2.61912	0.768357	2.61953	0.609972	5.55976	0.86065	7.82227	0.411685	3.74316	0.842862	3.63638	0.882503	8.05883
0.766801	2.6205	0.76615	2.6209	0.611584	5.5243	0.86104	7.75561	0.413545	3.72632	0.840903	3.64359	0.883808	7.998
0.764585	2.62186	0.763931	2.62225	0.613185	5.48938	0.861446	7.69028	0.41539	3.70965	0.838932	3.6508	0.885104	7.93818
0.762357	2.62318	0.7617	2.62356	0.614775	5.45497	0.861871	7.62626	0.417219	3.69314	0.836947	3.65802	0.886392	7.87935
0.760117	2.62446	0.759456	2.62483	0.616355	5.42107	0.862313	7.56351	0.419034	3.67679	0.834949	3.66524	0.887672	7.82147
0.757865	2.62572	0.757201	2.62608	0.617923	5.38767	0.862773	7.502	0.420833	3.66058	0.832938	3.67247	0.888943	7.76453
0.755602	2.62694	0.754934	2.62729	0.619479	5.35474	0.86325	7.44171	0.422617	3.64452	0.830915	3.67971	0.890204	7.70848
0.753327	2.62813	0.752656	2.62848	0.621025	5.32227	0.863746	7.38259	0.424385	3.6286	0.82888	3.68696	0.891457	7.65332
0.751041	2.62929	0.750367	2.62963	0.622559	5.29026	0.864261	7.32463	0.426137	3.61282	0.826834	3.69422	0.892701	7.59902
0.748745	2.63043	0.748067	2.63075	0.624081	5.25869	0.864794	7.2678	0.427874	3.59717	0.824775	3.7015	0.893935	7.54555
0.746437	2.63153	0.745757	2.63185	0.625591	5.22754	0.865345	7.21206	0.429595	3.58165	0.822706	3.70879	0.89516	7.4929
0.74412	2.6326	0.743437	2.63291	0.627089	5.1968	0.865915	7.1574	0.4313	3.56625	0.820626	3.7161	0.896375	7.44103
0.741793	2.63365	0.741106	2.63395	0.628575	5.16647	0.866505	7.10379	0.432989	3.55097	0.818535	3.72343	0.897581	7.38994
0.739456	2.63467	0.738767	2.63496	0.630049	5.13654	0.867113	7.0512	0.434663	3.53581	0.816434	3.73077	0.898777	7.3396
0.737109	2.63566	0.736418	2.63595	0.631511	5.10699	0.86774	6.9996	0.436321	3.52077	0.814324	3.73814	0.899964	7.28999
0.734754	2.63663	0.73406	2.63691	0.63296	5.07781	0.868386	6.94899	0.437963	3.50585	0.812204	3.74554	0.90114	7.2411
0.73239	2.63757	0.731693	2.63785	0.634397	5.04899	0.869052	6.89932	0.43959	3.49104	0.810075	3.75296	0.902307	7.19291
0.730017	2.63849	0.729318	2.63876	0.635822	5.02053	0.869737	6.85059	0.441201	3.47633	0.807938	3.76041	0.903463	7.14539
0.727636	2.63939	0.726935	2.63965	0.637234	4.99241	0.870441	6.80277	0.442797	3.46174	0.805793	3.76789	0.90461	7.09854
0.725248	2.64027	0.724544	2.64052	0.638633	4.96464	0.871165	6.75584	0.444377	3.44725	0.803639	3.77541	0.905747	7.05234
0.722851	2.64112	0.722145	2.64136	0.64002	4.93719	0.871909	6.70978	0.445942	3.43287	0.801479	3.78296	0.906873	7.00678
0.720447	2.64195	0.719739	2.64219	0.641394	4.91006	0.872672	6.66456	0.447492	3.41859	0.799311	3.79055	0.90799	6.96183
0.718037	2.64276	0.717326	2.643	0.642755	4.88325	0.873454	6.62018	0.449028	3.40442	0.797137	3.79818	0.909096	6.91748
0.715619	2.64355	0.714907	2.64378	0.644104	4.85674	0.874256	6.57661	0.450549	3.39034	0.794956	3.80585	0.910192	6.87373
0.713195	2.64433	0.712481	2.64455	0.64544	4.83054	0.875078	6.53384	0.452055	3.37638	0.79277	3.81357	0.911279	6.83055
0.710764	2.64509	0.710048	2.6453	0.646763	4.80463	0.875919	6.49184	0.453548	3.36251	0.790578	3.82133	0.912355	6.78794
0.708328	2.64582	0.70761	2.64604	0.648074	4.779	0.87678	6.4506	0.455027	3.34874	0.788382	3.82915	0.913421	6.74589
0.705885	2.64655	0.705166	2.64676	0.649372	4.75366	0.87766	6.41011	0.456491	3.33508	0.786181	3.83702	0.914477	6.70437
0.703437	2.64725	0.702716	2.64746	0.650657	4.72859	0.87856	6.37034	0.457943	3.32151	0.783975	3.84495	0.915524	6.66339
0.700983	2.64795	0.700261	2.64815	0.65193	4.70379	0.879479	6.33128	0.459382	3.30805	0.781766	3.85294	0.916561	6.62292
0.698525	2.64862	0.697801	2.64882	0.65319	4.67926	0.880418	6.29291	0.460808	3.29469	0.779554	3.86099	0.917587	6.58296
0.696061	2.64929	0.695335	2.64948	0.654438	4.65499	0.881375	6.25522	0.462221	3.28142	0.777338	3.8691	0.918605	6.5435
0.693592	2.64994	0.692865	2.65013	0.655674	4.63097	0.882352	6.2182	0.463623	3.26826	0.77512	3.87728	0.919612	6.50453
0.691119	2.65057	0.690391	2.65076	0.656897	4.60719	0.883348	6.18183	0.465012	3.2552	0.7729	3.88554	0.92061	6.46603
0.688641	2.6512	0.687912	2.65138	0.658108	4.58367	0.884363	6.14609	0.46639	3.24224	0.770679	3.89387	0.921599	6.42801
0.686159	2.65181	0.685429	2.65199	0.659307	4.56038	0.885397	6.11098	0.467758	3.22939	0.768456	3.90227	0.922579	6.39045
0.683673	2.65242	0.682942	2.65259	0.660494	4.53733	0.88645	6.07647	0.469114	3.21663	0.766233	3.91076	0.923549	6.35334
0.681183	2.65301	0.68045	2.65318	0.661669	4.51452	0.887521	6.04256	0.47046	3.20398	0.764008	3.91933	0.924511	6.31667
0.67869	2.65359	0.677956	2.65376	0.662833	4.49193	0.888611	6.00922	0.471797	3.19144	0.761785	3.928	0.925464	6.28044
0.676192	2.65416	0.675457	2.65433	0.663985	4.46957	0.889719	5.97646	0.473124	3.17899	0.759561	3.93675	0.926408	6.24464
0.673692	2.65472	0.672955	2.65489	0.665125	4.44743	0.890845	5.94425	0.474441	3.16665	0.757339	3.9456	0.927344	6.20926
0.671187	2.65528	0.67045	2.65544	0.666255	4.4255	0.891989	5.91259	0.47575	3.15442	0.755117	3.95455	0.928272	6.1743
0.66868	2.65582	0.667942	2.65598	0.667373	4.40379	0.89315	5.88146	0.477051	3.14229	0.752898	3.9636	0.929191	6.13974
0.66617	2.65636	0.665431	2.65652	0.66848	4.3823	0.89433	5.85085	0.478344	3.13027	0.750681	3.97276	0.930103	6.10558
0.663656	2.65689	0.662917	2.65705	0.669576	4.36101	0.895526	5.82075	0.479629	3.11835	0.748466	3.98203	0.931007	6.07182
0.66114	2.65741	0.6604	2.65757	0.670662	4.33993	0.89674	5.79115	0.480907	3.10655	0.746255	3.99141	0.931904	6.03844
0.658621	2.65793	0.65788	2.65808	0.671738	4.31905	0.89797	5.76203	0.482178	3.09485	0.744047	4.00092	0.932794	6.00545
0.6561	2.65844	0.655358	2.65859	0.672803	4.29837	0.899217	5.73339	0.483443	3.08325	0.741843	4.01055	0.933676	5.97283
0.653576	2.65895	0.652833	2.65909	0.673858	4.27789	0.900481	5.70522	0.484702	3.07177	0.739643	4.0203	0.934552	5.94058
0.65105	2.65944	0.650306	2.65959	0.674904	4.25761	0.901761	5.6775	0.485955	3.06039	0.737449	4.03019	0.935422	5.9087
0.648521	2.65994	0.647777	2.66008	0.67594	4.23752	0.903056	5.65022	0.487203	3.04913	0.735259	4.04022	0.936285	5.87717
0.64599	2.66043	0.645246	2.66057	0.676967	4.21762	0.904368	5.62338	0.488447	3.03797	0.733076	4.05039	0.937143	5.84601
0.643458	2.66091	0.642712	2.66105	0.677984	4.19791	0.905694	5.59697	0.489686	3.02693	0.730898	4.06071	0.937994	5.81519
0.640923	2.66139	0.640177	2.66153	0.678993	4.17839	0.907036	5.57097	0.490921	3.01599	0.728727	4.07118	0.938841	5.78471
0.638386	2.66187	0.63764	2.662	0.679993	4.15905	0.908393	5.54538	0.492152	3.00517	0.726564	4.0818	0.939682	5.75458
0.635848	2.66234	0.635101	2.66248	0.680985	4.13989	0.909764	5.52018	0.49338	2.99446	0.724408	4.09259	0.940518	5.72479
0.633307	2.66281	0.63256	2.66294	0.681968	4.12092	0.91115	5.49538	0.494606	2.98386	0.72226	4.10355	0.94135	5.69532
0.630765	2.66327	0.630018	2.66341	0.682944	4.10213	0.912549	5.47095	0.495828	2.97337	0.720121	4.11468	0.942178	5.66618
0.628222	2.66374	0.627474	2.66387	0.683911	4.08351	0.913962	5.4469	0.497049	2.96299	0.71799	4.12598	0.943002	5.63737
0.625677	2.6642	0.624928	2.66433	0.684872	4.06507	0.915389	5.42321	0.498268	2.95272	0.715869	4.13748	0.943822	5.60888
0.623131	2.66465	0.622381	2.66479	0.685825	4.0468	0.916828	5.39987	0.499486	2.94257	0.713759	4.14916	0.944639	5.5807
0.620583	2.66511	0.619833	2.66525	0.686772	4.02871	0.91828	5.37688	0.500702	2.93253	0.711658	4.16105	0.945453	5.55284
0.618034	2.66557	0.617284	2.6657	0.687711	4.01079	0.919745	5.35423	0.501918	2.9226	0.709569	4.17313	0.946265	5.52528
0.615484	2.66602	0.614733	2.66615	0.688645	3.99304	0.921222	5.33192	0.503133	2.91278	0.707491	4.18543	0.947074	5.49803
0.612932	2.66647	0.612182	2.66661	0.689572	3.97545	0.922711	5.30992	0.504348	2.90308	0.705424	4.19794	0.947881	5.47108
0.61038	2.66692	0.609629	2.66706	0.690493	3.95804	0.924211	5.28824	0.505563	2.89348	0.703371	4.21068	0.948687	5.44443
0.607826	2.66738	0.607075	2.66751	0.691409	3.94079	0.925722	5.26688	0.506779	2.884	0.70133	4.22364	0.949491	5.41807
0.605272	2.66783	0.60452	2.66796	0.692319	3.9237	0.927245	5.24581	0.507996	2.87463	0.699302	4.23685	0.950294	5.39201
0.602717	2.66828	0.601965	2.66841	0.693224	3.90678	0.928778	5.22504	0.509214	2.86537	0.697289	4.2503	0.951097	5.36624
0.60016	2.66873	0.599408	2.66886	0.694125	3.89001	0.930321	5.20456	0.510433	2.85623	0.69529	4.264	0.951899	5.34075
0.597603	2.66918	0.596851	2.66931	0.69502	3.87341	0.931873	5.18435	0.511654	2.84719	0.693306	4.27796	0.952702	5.31555
0.595046	2.66963	0.594293	2.66977	0.695912	3.85697	0.933436	5.16443	0.512877	2.83827	0.691337	4.29219	0.953505	5.29063
0.592487	2.67009	0.591735	2.67022	0.696799	3.84069	0.935007	5.14477	0.514102	2.82945	0.689384	4.3067	0.954309	5.26599
0.589928	2.67054	0.589176	2.67068	0.697682	3.82456	0.936588	5.12538	0.51533	2.82074	0.687448	4.32149	0.955113	5.24162
0.587369	2.671	0.586616	2.67113	0.698562	3.80859	0.938177	5.10624	0.516561	2.81215	0.685528	4.33658	0.95592	5.21752
0.584809	2.67146	0.584056	2.67159	0.699439	3.79277	0.939774	5.08736	0.517795	2.80366	0.683626	4.35197	0.956728	5.1937
0.582249	2.67192	0.581495	2.67205	0.700312	3.77711	0.94138	5.06872	0.519032	2.79529	0.681742	4.36767	0.957539	5.17015
0.579688	2.67238	0.578935	2.67252	0.701183	3.76159	0.942992	5.05032	0.520272	2.78702	0.679876	4.38369	0.958352	5.14686
0.577126	2.67285	0.576373	2.67298	0.702051	3.74623	0.944612	5.03215	0.521517	2.77886	0.67803	4.40004	0.959169	5.12383
0.574565	2.67332	0.573812	2.67345	0.702917	3.73102	0.946239	5.01421	0.522765	2.7708	0.676203	4.41673	0.959988	5.10107
0.572003	2.67379	0.57125	2.67393	0.703781	3.71596	0.947873	4.9965	0.524018	2.76286	0.674395	4.43377	0.960812	5.07857
0.569442	2.67426	0.568688	2.6744	0.704642	3.70105	0.949513	4.979	0.525275	2.75502	0.672609	4.45117	0.961639	5.05632
0.566879	2.67474	0.566126	2.67489	0.705503	3.68628	0.951158	4.96172	0.526537	2.74729	0.670843	4.46895	0.962471	5.03433
0.564317	2.67523	0.563564	2.67537	0.706361	3.67166	0.95281	4.94464	0.527804	2.73966	0.669099	4.4871	0.963308	5.0126
0.561755	2.67572	0.561002	2.67586	0.707219	3.65719	0.954466	4.92776	0.529077	2.73214	0.667376	4.50564	0.964151	4.99111
0.559193	2.67621	0.55844	2.67635	0.708076	3.64285	0.956128	4.91109	0.530354	2.72472	0.665676	4.52459	0.964999	4.96988
0.556631	2.67671	0.555878	2.67685	0.708932	3.62866	0.957794	4.89461	0.531637	2.71741	0.663999	4.54396	0.965853	4.94889
0.55407	2.67721	0.553316	2.67736	0.709788	3.61462	0.959465	4.87831	0.532926	2.7102	0.662346	4.56375	0.966713	4.92815
0.551508	2.67772	0.550755	2.67787	0.710643	3.60071	0.961139	4.8622	0.534221	2.70309	0.660716	4.58397	0.967581	4.90765
0.548947	2.67824	0.548193	2.67839	0.711499	3.58694	0.962817	4.84627	0.535523	2.69609	0.65911	4.60465	0.968455	4.8874
0.546385	2.67876	0.545632	2.67891	0.712354	3.57331	0.964499	4.83052	0.536831	2.68919	0.657529	4.6258	0.969338	4.86738
0.543825	2.67929	0.543072	2.67944	0.71321	3.55982	0.966184	4.81494	0.538145	2.68239	0.655973	4.64742	0.970228	4.84761
0.541264	2.67982	0.540512	2.67998	0.714067	3.54647	0.967871	4.79953	0.539466	2.67569	0.654443	4.66953	0.971127	4.82807
0.538705	2.68037	0.537952	2.68053	0.714925	3.53325	0.969561	4.78428	0.540795	2.6691	0.652939	4.69214	0.972034	4.80877
0.536145	2.68092	0.535393	2.68108	0.715783	3.52016	0.971253	4.76918	0.542131	2.6626	0.651461	4.71527	0.972951	4.7897
0.533587	2.68148	0.532835	2.68165	0.716643	3.50721	0.972947	4.75425	0.543474	2.6562	0.650009	4.73893	0.973877	4.77087
0.531029	2.68205	0.530277	2.68222	0.717505	3.49439	0.974642	4.73947	0.544825	2.64991	0.648585	4.76313	0.974814	4.75227
0.528472	2.68263	0.52772	2.6828	0.718368	3.48171	0.976339	4.72483	0.546184	2.64371	0.647188	4.78789	0.97576	4.7339
0.525915	2.68322	0.525164	2.6834	0.719233	3.46915	0.978036	4.71034	0.547551	2.63761	0.645819	4.81323	0.976718	4.71576
0.52336	2.68382	0.522608	2.684	0.720099	3.45673	0.979734	4.696	0.548927	2.63161	0.644477	4.83916	0.977687	4.69784
0.520805	2.68443	0.520054	2.68461	0.720969	3.44443	0.981433	4.68178	0.550311	2.62571	0.643165	4.86569	0.978667	4.68016
0.518251	2.68505	0.517501	2.68524	0.72184	3.43226	0.983131	4.66771	0.551705	2.61991	0.64188	4.89284	0.979659	4.66269
0.515699	2.68569	0.514948	2.68588	0.722715	3.42022	0.98483	4.65377	0.553107	2.6142	0.640625	4.92063	0.980664	4.64545
0.513147	2.68634	0.512397	2.68653	0.723591	3.40831	0.986527	4.63995	0.554519	2.6086	0.639398	4.94907	0.981682	4.62843
0.510597	2.687	0.509848	2.68719	0.724472	3.39652	0.988224	4.62626	0.555941	2.60309	0.638201	4.97819	0.982712	4.61164
0.508049	2.68767	0.507299	2.68787	0.725355	3.38485	0.98992	4.61269	0.557373	2.59768	0.637034	5.00799	0.983757	4.59506
0.505501	2.68836	0.504752	2.68857	0.726241	3.37331	0.991615	4.59924	0.558816	2.59237	0.635896	5.03849	0.984815	4.5787
0.502955	2.68906	0.502207	2.68927	0.727131	3.36189	0.993308	4.58591	0.560269	2.58716	0.634788	5.06972	0.985887	4.56256
0.500411	2.68978	0.499663	2.69	0.728025	3.35059	0.994998	4.57268	0.561734	2.58205	0.63371	5.1017	0.986975	4.54663
0.497868	2.69052	0.497121	2.69074	0.728923	3.33942	0.996687	4.55957	0.56321	2.57703	0.632662	5.13443	0.988077	4.53092
0.495328	2.69128	0.494581	2.6915	0.729824	3.32836	0.998373	4.54657	0.564699	2.57212	0.631644	5.16794	0.989195	4.51542
0.492789	2.69205	0.492042	2.69228	0.73073	3.31742	1.00006	4.53367	0.5662	2.56731	0.630657	5.20226	0.990328	4.50014
0.490252	2.69285	0.489506	2.69308	0.73164	3.3066			0.567714	2.5626	0.629699	5.23739	0.991478	4.48506
0.487717	2.69366	0.486972	2.6939	0.732555	3.2959			0.569242	2.558	0.628772	5.27337	0.992644	4.4702
0.485185	2.69449	0.48444	2.69474	0.733475	3.28531			0.570784	2.5535	0.627876	5.31021	0.993827	4.45554
0.482654	2.69535	0.481911	2.69561	0.734399	3.27484			0.572341	2.54911	0.62701	5.34793	0.995028	4.44109
0.480127	2.69623	0.479384	2.6965	0.735328	3.26449			0.573914	2.54483	0.626174	5.38657	0.996246	4.42685
0.477602	2.69714	0.47686	2.69741	0.736262	3.25425			0.575503	2.54065	0.625368	5.42613	0.997481	4.41281
0.47508	2.69807	0.474339	2.69835	0.737202	3.24412			0.57711	2.53659	0.624593	5.46664	0.998735	4.39897
0.47256	2.69903	0.47182	2.69932	0.738147	3.2341			0.578735	2.53265	0.623848	5.50814	1.00001	4.38534
0.470044	2.70002	0.469305	2.70032	0.739098	3.2242			0.58038	2.52882	0.623132	5.55064		
0.467531	2.70104	0.466793	2.70135	0.740055	3.2144			0.582044	2.52512	0.622447	5.59416		
0.465022	2.70209	0.464285	2.70241	0.741017	3.20472			0.583731	2.52154	0.621791	5.63875		
0.462516	2.70318	0.46178	2.7035	0.741986	3.19515			0.58544	2.51809	0.621165	5.68442		
0.460014	2.7043	0.459279	2.70464	0.742961	3.18568			0.587174	2.51477	0.620569	5.7312		
0.457517	2.70546	0.456783	2.7058	0.743942	3.17632			0.588933	2.51159	0.620002	5.77912		
0.455023	2.70665	0.454291	2.70701	0.74493	3.16707			0.590719	2.50855	0.619464	5.82821		
0.452534	2.70789	0.451803	2.70826	0.745924	3.15793			0.592533	2.50566	0.618954	5.87851		
0.45005	2.70917	0.44932	2.70956	0.746926	3.14889			0.594378	2.50291	0.618474	5.93004		
0.447571	2.7105	0.446843	2.7109	0.747934	3.13995			0.596254	2.50033	0.618021	5.98284		
0.445097	2.71188	0.444371	2.71229	0.748949	3.13112			0.598163	2.4979	0.617597	6.03694		
0.442629	2.71331	0.441904	2.71373	0.749972	3.1224			0.600106	2.49563	0.617201	6.09239		
0.440167	2.71479	0.439444	2.71523	0.751002	3.11377			0.602085	2.49353	0.616833	6.14921		
0.437711	2.71633	0.43699	2.71679	0.75204	3.10525			0.604099	2.4916	0.616492	6.20744		
0.435261	2.71793	0.434542	2.71841	0.753085	3.09683			0.606151	2.48983	0.616177	6.26713		
0.432819	2.71959	0.432102	2.72009	0.754139	3.08852			0.60824	2.48823	0.61589	6.32832		
0.430384	2.72132	0.42967	2.72185	0.7552	3.0803			0.610366	2.4868	0.615629	6.39104		
0.427957	2.72313	0.427245	2.72367	0.75627	3.07218			0.612529	2.48553	0.615394	6.45536		
0.425539	2.72501	0.424829	2.72557	0.757348	3.06416			0.614729	2.48441	0.615186	6.5213		
0.423129	2.72697	0.422422	2.72756	0.758435	3.05624			0.616965	2.48345	0.615002	6.58893		
0.420728	2.72901	0.420024	2.72963	0.75953	3.04842			0.619234	2.48263	0.614844	6.65828		
0.418337	2.73115	0.417636	2.7318	0.760635	3.0407			0.621537	2.48195	0.614711	6.72942		
0.415957	2.73339	0.415259	2.73406	0.761748	3.03307			0.623871	2.48141	0.614602	6.8024		
0.413588	2.73572	0.412893	2.73643	0.762871	3.02554			0.626235	2.48098	0.614517	6.87728		
0.41123	2.73817	0.410539	2.73891	0.764003	3.01811			0.628627	2.48066	0.614457	6.95412		
0.408885	2.74073	0.408198	2.74151	0.765144	3.01077			0.631044	2.48046	0.614419	7.03298		
0.406553	2.74342	0.40587	2.74423	0.766296	3.00353			0.633486	2.48034	0.614405	7.11392		
0.404235	2.74623	0.403556	2.74709	0.767457	2.99639			0.63595	2.48032	0.614414	7.19702		
0.401932	2.74919	0.401258	2.75008	0.768628	2.98934			0.638435	2.48037	0.614445	7.28235		
0.399644	2.75229	0.398975	2.75323	0.76981	2.98238			0.640938	2.4805	0.614498	7.36998		
0.397373	2.75555	0.396709	2.75654	0.771003	2.97552			0.643459	2.48069	0.614573	7.45999		
0.395119	2.75898	0.39446	2.76002	0.772206	2.96875			0.645996	2.48095	0.614669	7.55246		
0.392884	2.76258	0.392231	2.76368	0.77342	2.96207			0.648547	2.48125	0.614786	7.64749		
0.390669	2.76638	0.390021	2.76753	0.774645	2.95549			0.651112	2.48161	0.614923	7.74517		
0.388474	2.77038	0.387832	2.77159	0.775882	2.94901			0.653688	2.48201	0.615081	7.84558		
0.386301	2.77459	0.385666	2.77587	0.777131	2.94261			0.656276	2.48244	0.615258	7.94883		
0.38415	2.77902	0.383523	2.78037	0.778391	2.93631			0.658874	2.48292	0.615455	8.05503		
0.382025	2.7837	0.381404	2.78513	0.779663	2.9301			0.661482	2.48342	0.615671	8.16428		
0.379924	2.78864	0.379312	2.79014	0.780948	2.92398			0.664098	2.48395	0.615906	8.27672		
0.377851	2.79384	0.377246	2.79543	0.782246	2.91796			0.666721	2.48451	0.616126	8.37738		
0.375805	2.79934	0.375209	2.80101	0.783556	2.91203			0.669352	2.48509	0.616324	8.46523		
0.373789	2.80513	0.373202	2.8069	0.784879	2.90619			0.671989	2.48569	0.616495	8.53934		
0.371804	2.81125	0.371227	2.81311	0.786216	2.90044			0.674633	2.48631	0.616634	8.5989		
0.369851	2.8177	0.369283	2.81967	0.787567	2.89479			0.677281	2.48694	0.61674	8.64325		
0.367932	2.82451	0.367374	2.82658	0.788931	2.88923			0.679935	2.48759	0.616839	8.68447		
0.366047	2.8317	0.3655	2.83388	0.79031	2.88376			0.682594	2.48825	0.616909	8.71338		
0.364199	2.83927	0.363662	2.84158	0.791704	2.87838			0.685256	2.48892	0.61702	8.75895		
0.362388	2.84726	0.361862	2.84969	0.793112	2.8731			0.687923	2.4896	0.617174	8.82173		
0.360615	2.85568	0.360101	2.85824	0.794535	2.8679			0.690593	2.49028	0.617375	8.90246		
0.358882	2.86455	0.35838	2.86725	0.795974	2.8628			0.693267	2.49098	0.617626	9.00212		
0.357189	2.87389	0.3567	2.87673	0.797429	2.8578			0.695944	2.49168	0.617932	9.12198		
0.355538	2.88372	0.355061	2.8867	0.798899	2.85289			0.698623	2.49238	0.618297	9.26358		
0.35393	2.89405	0.353465	2.89718	0.800387	2.84807			0.701305	2.49309	0.618678	9.40971		
0.352364	2.9049	0.351912	2.9082	0.80189	2.84334			0.70399	2.49381	0.619074	9.56056		
0.350841	2.9163	0.350402	2.91976	0.803411	2.83871			0.706677	2.49452	0.619484	9.71635		
0.349363	2.92825	0.348937	2.93188	0.80495	2.83417			0.709366	2.49524	0.619908	9.87731		
0.347929	2.94079	0.347516	2.94459	0.806505	2.82972			0.712057	2.49596	0.620346	10.0437		
0.34654	2.95391	0.34614	2.95789	0.808079	2.82537			0.714749	2.49668	0.620797	10.2157		
0.345196	2.96765	0.344809	2.97181	0.809672	2.82111			0.717444	2.49741	0.621261	10.3937		
0.343896	2.98201	0.343523	2.98636	0.811282	2.81695			0.720139	2.49813	0.621737	10.5779		
0.342641	2.99701	0.342281	3.00155	0.812912	2.81288			0.722837	2.49885	0.622225	10.7687		
0.341431	3.01267	0.341083	3.0174	0.814561	2.8089			0.725535	2.49957	0.622724	10.9664		
0.340265	3.029	0.33993	3.03394	0.816228	2.80502			0.728235	2.50029	0.623234	11.1713		
0.339142	3.04602	0.338821	3.05116	0.817916	2.80123			0.730936	2.50101	0.623755	11.3839		
0.338064	3.06374	0.337755	3.06909	0.819623	2.79754			0.733638	2.50173	0.624286	11.6046		
0.337028	3.08218	0.336732	3.08774	0.821351	2.79394			0.73634	2.50245	0.624827	11.8337		
0.336035	3.10135	0.335752	3.10713	0.823098	2.79043			0.739044	2.50317	0.625376	12.0718		
0.335085	3.12127	0.334813	3.12727	0.824866	2.78701			0.741748	2.50388	0.625934	12.3195		
0.334176	3.14195	0.333916	3.14818	0.826654	2.78368			0.744454	2.50459	0.626501	12.5772		
0.333308	3.16341	0.33306	3.16988	0.828463	2.78045			0.74716	2.5053	0.627074	12.8455		
0.33248	3.18567	0.332245	3.19237	0.830293	2.7773			0.749866	2.506	0.627655	13.1252		
0.331693	3.20875	0.331469	3.21569	0.832142	2.77425			0.752573	2.50671	0.628243	13.417		
0.330944	3.23266	0.330732	3.23985	0.834013	2.77128			0.755281	2.50741	0.628836	13.7215		
0.330235	3.25742	0.330033	3.26487	0.835904	2.7684			0.757989	2.5081	0.629435	14.0397		
0.329563	3.28305	0.329373	3.29076	0.837815	2.76561			0.760697	2.5088	0.630038	14.3725		
0.32893	3.30958	0.328751	3.31755	0.839747	2.7629			0.763406	2.50949	0.630646	14.7208		
0.328333	3.33702	0.328165	3.34526	0.841699	2.76028			0.766116	2.51018	0.631257	15.0858		
0.327773	3.36539	0.327615	3.37392	0.84367	2.75774			0.768825	2.51086	0.631871	15.4687		
0.327249	3.39473	0.327102	3.40354	0.845662	2.75527			0.771535	2.51154	0.632488	15.8708		
0.32676	3.42505	0.326623	3.43416	0.847673	2.75289			0.774245	2.51222	0.633106	16.2935		
0.326307	3.45638	0.32618	3.46579	0.849703	2.75059			0.776955	2.51289	0.633725	16.7385		
0.325888	3.48875	0.325771	3.49847	0.851752	2.74836			0.779665	2.51356	0.634345	17.2076		
0.325503	3.52218	0.325396	3.53222	0.85382	2.74621			0.782376	2.51422	0.634964	17.7027		
0.325151	3.55672	0.325054	3.56708	0.855906	2.74413			0.785086	2.51488	0.635581	18.226		
0.324833	3.59238	0.324746	3.60308	0.85801	2.74211			0.787797	2.51554	0.636197	18.7801		
0.324548	3.6292	0.32447	3.64025	0.860131	2.74017			0.790508	2.51619	0.63681	19.3676		
0.324295	3.66721	0.324227	3.67862	0.862269	2.73829			0.793218	2.51684	0.63742	19.9918		
0.324074	3.70646	0.324015	3.71824	0.864424	2.73648			0.795929	2.51749	0.638025	20.656		
0.323885	3.74698	0.323835	3.75914	0.866594	2.73473			0.79864	2.51813	0.638625	21.3644		
0.323726	3.7888	0.323686	3.80136	0.868781	2.73304			0.80135	2.51876	0.639219	22.1213		
0.323599	3.83199	0.323568	3.84495	0.870983	2.73141			0.804061	2.5194	0.639806	22.9321		
0.323502	3.87656	0.32348	3.88994	0.873199	2.72983			0.806771	2.52002	0.640385	23.8026		
0.323436	3.92258	0.323422	3.9364	0.87543	2.72831			0.809482	2.52065	0.640955	24.7397		
0.323399	3.97009	0.323394	3.98436	0.877675	2.72684			0.812192	2.52127	0.641515	25.7513		
0.323392	4.01915	0.323395	4.03388	0.879933	2.72542			0.814902	2.52188	0.642065	26.8468		
0.323414	4.0698	0.323426	4.08501	0.882204	2.72405			0.817612	2.52249	0.642603	28.0369		
0.323465	4.12211	0.323485	4.13781	0.884487	2.72273			0.820322	2.5231	0.643128	29.3346		
0.323544	4.17613	0.323573	4.19235	0.886783	2.72145			0.823031	2.5237	0.64364	30.7552		
0.323652	4.23192	0.323689	4.24868	0.88909	2.72022			0.82574	2.5243	0.644137	32.317		
0.323787	4.28956	0.323833	4.30687	0.891408	2.71902			0.828449	2.52489	0.644618	34.0423		
0.323951	4.34911	0.324004	4.367	0.893737	2.71787			0.831158	2.52548	0.645082	35.9582		
0.324141	4.41065	0.324203	4.42914	0.896076	2.71675			0.833866	2.52607	0.645529	38.0983		
0.32433	4.46596	0.324428	4.49336	0.898425	2.71568			0.836574	2.52665	0.645956	40.5046		
0.324506	4.51438	0.32468	4.55976	0.900783	2.71463			0.839282	2.52722	0.646364	43.2301		
0.324663	4.55534	0.324959	4.62841	0.903151	2.71362			0.84199	2.52779	0.646751	46.3432		
0.324794	4.58833	0.325264	4.69942	0.905528	2.71264			0.844697	2.52836	0.647116	49.9331		
0.324895	4.61293	0.325594	4.77288	0.907912	2.7117			0.847403	2.52892	0.647459	54.1189		
0.32499	4.63582	0.32595	4.8489	0.910305	2.71078			0.85011	2.52948	0.647777	59.0628		
0.325058	4.6519	0.326331	4.92758	0.912706	2.70989			0.852816	2.53003	0.648072	64.9919		
0.325167	4.67727	0.326737	5.00904	0.915114	2.70903			0.855521	2.53058	0.648341	72.2341		
0.325321	4.71227	0.327168	5.09342	0.917529	2.70819			0.858226	2.53113	0.648584	81.2809		
0.325523	4.75737	0.327623	5.18083	0.919951	2.70738			0.860931	2.53167	0.6488	92.9046		
0.325781	4.81319	0.328101	5.27143	0.92238	2.7066			0.863635	2.5322	0.648989	108.391		
0.326102	4.88051	0.328604	5.36536	0.924815	2.70583			0.866338	2.53273	0.649149	130.052		
0.326493	4.9603	0.329129	5.46278	0.927256	2.70509			0.869041	2.53326	0.649282	162.506		
0.326909	5.04293	0.329678	5.56387	0.929702	2.70437			0.871744	2.53378	0.649385	216.504		
0.327349	5.12853	0.330249	5.66879	0.932154	2.70367			0.874446	2.5343	0.649459	324.18		
0.327814	5.21722	0.330842	5.77776	0.934612	2.70299			0.877147	2.53481	0.649504	644.755		
0.328302	5.30915	0.331458	5.89098	0.937074	2.70233			0.879848	2.53532	0.649519	57268.1		
0.328814	5.40448	0.332094	6.00867	0.939541	2.70168			0.882548	2.53582				
0.329349	5.50336	0.332753	6.13106	0.942013	2.70105			0.885248	2.53632				
0.329907	5.60598	0.333432	6.25843	0.94449	2.70044			0.887947	2.53681				
0.330487	5.71253	0.334131	6.39104	0.94697	2.69985			0.890645	2.5373				
0.331089	5.8232	0.334851	6.5292	0.949455	2.69926			0.893343	2.53778				
0.331713	5.9382	0.33559	6.67322	0.951943	2.6987			0.89604	2.53826				
0.332359	6.05777	0.336349	6.82345	0.954436	2.69814			0.898736	2.53874				
0.333026	6.18215	0.337126	6.98026	0.956931	2.6976			0.901431	2.53921				
0.333713	6.31161	0.337922	7.14407	0.959431	2.69708			0.904126	2.53967				
0.334421	6.44644	0.338736	7.31532	0.961933	2.69656			0.906819	2.54013				
0.335149	6.58693	0.339568	7.49449	0.964439	2.69606			0.909512	2.54059				
0.335896	6.73343	0.340306	7.65748	0.966947	2.69557			0.912204	2.54104				
0.336662	6.88629	0.340946	7.80176	0.969459	2.69508			0.914895	2.54148				
0.337447	7.04589	0.341481	7.92497	0.971973	2.69461			0.917586	2.54192				
0.338251	7.21267	0.341909	8.025	0.97449	2.69415			0.920275	2.54236				
0.339072	7.38707	0.342226	8.10007	0.97701	2.6937			0.922963	2.54279				
0.33991	7.56959	0.342519	8.1703	0.979531	2.69325			0.92565	2.54321				
0.340765	7.76078	0.342724	8.21982	0.982055	2.69282			0.928337	2.54363				
0.341637	7.96122	0.343046	8.29834	0.984582	2.69239			0.931022	2.54404				
0.342525	8.17157	0.343487	8.4074	0.98711	2.69198			0.933706	2.54445				
0.343428	8.39253	0.34405	8.5492	0.98964	2.69157			0.936389	2.54486				
0.344345	8.62489	0.344737	8.72673	0.992173	2.69116			0.93907	2.54526				
0.345277	8.8695	0.345553	8.9439	0.994707	2.69077			0.941751	2.54565				
0.346222	9.12732	0.346503	9.20579	0.997243	2.69038			0.94443	2.54604				
0.34718	9.39938	0.347464	9.48227	0.99978	2.68999			0.947108	2.54642				
0.348151	9.68687	0.348438	9.77452	1.00232	2.68962			0.949784	2.54679				
0.349132	9.99106	0.349423	10.0839					0.952459	2.54716				
0.350125	10.3134	0.350418	10.4119					0.955133	2.54753				
0.351127	10.6556	0.351423	10.7602					0.957805	2.54788				
0.352138	11.0193	0.352437	11.1307					0.960475	2.54824				
0.353157	11.4068	0.353458	11.5255					0.963144	2.54858				
0.354184	11.8202	0.354487	11.9471					0.965811	2.54892				
0.355216	12.2622	0.35552	12.3981					0.968476	2.54925				
0.356253	12.7359	0.356559	12.8817					0.97114	2.54958				
0.357293	13.2447	0.3576	13.4016					0.973801	2.5499				
0.358336	13.7926	0.358643	13.9619					0.976461	2.55021				
0.35938	14.3843	0.359687	14.5673					0.979118	2.55052				
0.360423	15.025	0.360729	15.2237					0.981774	2.55082				
0.361463	15.7211	0.361768	15.9374					0.984427	2.55111				
0.362499	16.4801	0.362802	16.7165					0.987077	2.55139				
0.363529	17.3108	0.36383	17.5702					0.989726	2.55167				
0.36455	18.2237	0.364848	18.5097					0.992371	2.55194				
0.365559	19.2318	0.365854	19.5485					0.995014	2.5522				
0.366556	20.3506	0.366846	20.7033					0.997654	2.55245				
0.367535	21.5994	0.36782	21.9947					1.00029	2.55269				
0.368495	23.0022	0.368773	23.4483										
0.369432	24.5895	0.369703	25.0968										
0.370342	26.4003	0.370604	26.9824										
0.371222	28.4855	0.371474	29.1603										
0.372066	30.913	0.372307	31.7046										
0.37287	33.7749	0.373099	34.7166										
0.37363	37.1999	0.373845	38.3393										
0.374341	41.3735	0.37454	42.7804										
0.374997	46.573	0.375178	48.3545										
0.375592	53.2318	0.375755	55.5614										
0.376123	62.0689	0.376266	65.2462										
0.376583	74.3686	0.376704	78.9598										
0.376968	92.6732	0.377067	99.8901										
0.377274	122.823	0.377349	135.796										
0.377498	181.868	0.377547	211.776										
0.377636	349.778	0.37766	480.031										
0.377687	4516.76												
