Sym0		Sym1		Sym2		Sym3		Asym1		Asym2	
389  Points		390  Points		366  Points		199  Points		400  Points		295  Points	
Freq (MHz)	Vph (m/ms)	Freq (MHz)	Vph (m/ms)	Freq (MHz)	Vph (m/ms)	Freq (MHz)	Vph (m/ms)	Freq (MHz)	Vph (m/ms)	Freq (MHz)	Vph (m/ms)
1.001	2.61966	1.00177	2.61946	0.491381	1092.62	0.866027	975.659	0.216534	252.112	0.649519	4093.67
0.99862	2.62027	0.999398	2.62007	0.491463	339.936	0.866032	459.761	0.216635	116.79	0.649519	562.506
0.996237	2.62087	0.997017	2.62067	0.49163	201.341	0.866041	300.742	0.21681	76.0488	0.649519	302.002
0.993848	2.62145	0.99463	2.62126	0.491881	143.08	0.866054	223.457	0.217058	56.4234	0.649519	206.411
0.991454	2.62202	0.992238	2.62184	0.492214	111.014	0.866071	177.775	0.217379	44.8855	0.64952	156.784
0.989053	2.62258	0.989839	2.6224	0.492628	90.726	0.866092	147.602	0.217773	37.2963	0.64952	126.396
0.986647	2.62313	0.987435	2.62295	0.49312	76.7398	0.866116	126.187	0.218238	31.9294	0.649521	105.875
0.984236	2.62367	0.985025	2.62349	0.493686	66.5175	0.866144	110.199	0.218774	27.9367	0.649521	91.0864
0.981818	2.62419	0.98261	2.62402	0.494323	58.7227	0.866176	97.8087	0.219379	24.853	0.649522	79.923
0.979396	2.6247	0.980189	2.62454	0.495028	52.5846	0.866212	87.9239	0.220053	22.4015	0.649524	71.1972
0.976969	2.62521	0.977763	2.62504	0.495799	47.6273	0.866252	79.8546	0.220793	20.4077	0.649525	64.1893
0.974536	2.6257	0.975332	2.62554	0.49663	43.5411	0.866296	73.1428	0.2216	18.7556	0.649526	58.4373
0.972099	2.62618	0.972896	2.62602	0.497519	40.116	0.866344	67.4727	0.22247	17.3653	0.649528	53.6315
0.969657	2.62665	0.970456	2.6265	0.498462	37.2041	0.866395	62.6192	0.223403	16.1802	0.649531	49.5561
0.96721	2.62711	0.96801	2.62696	0.499456	34.6988	0.866451	58.4178	0.224398	15.1587	0.649533	46.0564
0.964758	2.62756	0.965561	2.62741	0.500498	32.5208	0.86651	54.7454	0.225452	14.2698	0.649536	43.0184
0.962303	2.628	0.963106	2.62786	0.501585	30.6104	0.866574	51.5081	0.226564	13.4897	0.64954	40.3565
0.959843	2.62843	0.960648	2.62829	0.502714	28.9213	0.866641	48.633	0.227732	12.8002	0.649544	38.0049
0.957378	2.62885	0.958185	2.62872	0.503883	27.4175	0.866713	46.0624	0.228954	12.1866	0.649549	35.9123
0.95491	2.62927	0.955718	2.62913	0.505088	26.0702	0.866788	43.7505	0.230229	11.6375	0.649555	34.0382
0.952438	2.62967	0.953247	2.62954	0.506329	24.8563	0.866868	41.6601	0.231382	11.2042	0.649561	32.35
0.949962	2.63007	0.950772	2.62994	0.507601	23.7572	0.866952	39.7609	0.232395	10.864	0.649568	30.8215
0.947482	2.63046	0.948294	2.63033	0.508904	22.7573	0.86704	38.0278	0.233252	10.6009	0.649576	29.431
0.944999	2.63084	0.945812	2.63071	0.510236	21.8439	0.867132	36.44	0.233943	10.4035	0.649585	28.1605
0.942512	2.63121	0.943326	2.63109	0.511595	21.0063	0.867228	34.9799	0.234458	10.2641	0.649595	26.9953
0.940022	2.63158	0.940837	2.63146	0.512979	20.2356	0.867329	33.6327	0.23479	10.1772	0.649606	25.9228
0.937529	2.63193	0.938345	2.63182	0.514387	19.524	0.867433	32.3859	0.235272	10.0555	0.649619	24.9323
0.935032	2.63229	0.935849	2.63217	0.515817	18.8651	0.867542	31.2287	0.235802	9.92716	0.649633	24.0148
0.932533	2.63263	0.933351	2.63252	0.517268	18.2533	0.867656	30.1518	0.236531	9.7591	0.649648	23.1626
0.93003	2.63297	0.930849	2.63286	0.51874	17.6837	0.867774	29.147	0.237468	9.55651	0.649665	22.3688
0.927525	2.6333	0.928344	2.63319	0.52023	17.1521	0.867896	28.2074	0.238622	9.32529	0.649683	21.6277
0.925016	2.63363	0.925837	2.63352	0.521738	16.6549	0.868023	27.3269	0.240006	9.07164	0.649703	20.9343
0.922505	2.63395	0.923327	2.63384	0.523263	16.1888	0.868154	26.5001	0.24163	8.80168	0.649725	20.284
0.919992	2.63426	0.920814	2.63416	0.524804	15.7511	0.86829	25.7222	0.243293	8.55197	0.649749	19.673
0.917476	2.63457	0.918299	2.63447	0.526361	15.3393	0.86843	24.989	0.244992	8.32041	0.649774	19.0978
0.914957	2.63488	0.915781	2.63478	0.527932	14.9511	0.868575	24.2968	0.246727	8.10516	0.649802	18.5554
0.912436	2.63517	0.913261	2.63508	0.529516	14.5846	0.868725	23.6423	0.248496	7.90462	0.649833	18.0431
0.909913	2.63547	0.910738	2.63537	0.531114	14.238	0.868879	23.0224	0.250297	7.71741	0.649865	17.5584
0.907387	2.63576	0.908214	2.63566	0.532724	13.9097	0.869038	22.4346	0.25213	7.54228	0.649901	17.0992
0.90486	2.63604	0.905687	2.63595	0.534346	13.5984	0.869202	21.8763	0.253992	7.37816	0.649938	16.6636
0.90233	2.63632	0.903158	2.63623	0.535979	13.3028	0.869371	21.3455	0.255883	7.22407	0.649979	16.2496
0.899798	2.6366	0.900627	2.63651	0.537623	13.0217	0.869545	20.8401	0.257801	7.07917	0.650023	15.8559
0.897265	2.63687	0.898093	2.63678	0.539277	12.7541	0.869724	20.3584	0.259746	6.94267	0.650069	15.4809
0.894729	2.63714	0.895558	2.63705	0.540941	12.499	0.869908	19.8988	0.261716	6.81392	0.650119	15.1234
0.892192	2.6374	0.893022	2.63731	0.542614	12.2556	0.870097	19.4597	0.263709	6.69227	0.650172	14.7821
0.889652	2.63766	0.890483	2.63758	0.544296	12.0231	0.870292	19.04	0.265726	6.5772	0.650228	14.456
0.887111	2.63792	0.887943	2.63783	0.545986	11.8008	0.870491	18.6382	0.267764	6.46819	0.650288	14.1442
0.884569	2.63817	0.885401	2.63809	0.547685	11.5881	0.870696	18.2533	0.269823	6.3648	0.650352	13.8456
0.882025	2.63842	0.882857	2.63834	0.549171	11.41	0.870907	17.8843	0.271903	6.26661	0.65042	13.5595
0.879479	2.63867	0.880312	2.63859	0.550443	11.2632	0.871122	17.5302	0.274001	6.17326	0.650491	13.2851
0.876932	2.63891	0.877765	2.63883	0.551497	11.1453	0.871344	17.1901	0.276118	6.08441	0.650567	13.0218
0.874383	2.63915	0.875216	2.63907	0.552333	11.0541	0.87157	16.8632	0.278252	5.99975	0.650647	12.7688
0.871833	2.63939	0.872667	2.63931	0.552948	10.9882	0.871803	16.5488	0.280402	5.919	0.650732	12.5257
0.869281	2.63962	0.870116	2.63955	0.553342	10.9465	0.872041	16.2461	0.282568	5.84191	0.650821	12.2917
0.866728	2.63985	0.867563	2.63978	0.55391	10.8872	0.872285	15.9546	0.28475	5.76822	0.650915	12.0665
0.864174	2.64008	0.86501	2.64001	0.554527	10.8237	0.872535	15.6736	0.286945	5.69774	0.651014	11.8496
0.861619	2.64031	0.862455	2.64024	0.555368	10.7387	0.872791	15.4027	0.289155	5.63026	0.651105	11.6669
0.859062	2.64054	0.859899	2.64046	0.556434	10.6335	0.873053	15.1411	0.291377	5.56559	0.651185	11.5156
0.856505	2.64076	0.857341	2.64069	0.557726	10.5096	0.873321	14.8886	0.293612	5.50357	0.651253	11.3936
0.853946	2.64098	0.854783	2.64091	0.559246	10.3687	0.873595	14.6446	0.295858	5.44404	0.651309	11.2989
0.851386	2.6412	0.852223	2.64113	0.560995	10.2125	0.873875	14.4087	0.298115	5.38685	0.651351	11.2303
0.848825	2.64142	0.849663	2.64135	0.562749	10.062	0.874162	14.1806	0.300384	5.33187	0.651378	11.1869
0.846263	2.64163	0.847101	2.64156	0.564509	9.91683	0.874455	13.9598	0.302662	5.27897	0.651418	11.1251
0.8437	2.64185	0.844539	2.64178	0.566272	9.77675	0.874755	13.746	0.304949	5.22804	0.651461	11.0586
0.841137	2.64206	0.841975	2.64199	0.568041	9.64149	0.875061	13.5389	0.307245	5.17897	0.651522	10.9696
0.838572	2.64227	0.839411	2.6422	0.569814	9.51079	0.875374	13.3382	0.30955	5.13167	0.6516	10.859
0.836006	2.64248	0.836845	2.64241	0.57159	9.38443	0.875694	13.1436	0.311863	5.08603	0.651698	10.7284
0.83344	2.64269	0.834279	2.64262	0.57337	9.26219	0.876021	12.9548	0.314183	5.04197	0.651817	10.5792
0.830872	2.64289	0.831712	2.64283	0.575154	9.14388	0.876354	12.7716	0.31651	4.9994	0.65196	10.4131
0.828304	2.6431	0.829144	2.64303	0.576941	9.02932	0.876695	12.5938	0.318844	4.95826	0.652109	10.2524
0.825736	2.6433	0.826576	2.64324	0.578731	8.91831	0.877043	12.4211	0.321184	4.91846	0.652265	10.0968
0.823166	2.64351	0.824007	2.64344	0.580524	8.81071	0.877398	12.2532	0.323529	4.87995	0.652427	9.94593
0.820596	2.64371	0.821437	2.64364	0.58232	8.70635	0.877713	12.1109	0.32588	4.84266	0.652597	9.79971
0.818025	2.64391	0.818866	2.64384	0.584118	8.60508	0.877987	11.9922	0.328236	4.80653	0.652773	9.65791
0.815453	2.64411	0.816294	2.64404	0.585918	8.50678	0.878216	11.8959	0.330597	4.7715	0.652957	9.52033
0.812881	2.64431	0.813723	2.64424	0.58772	8.41131	0.878399	11.8209	0.332962	4.73753	0.653148	9.3868
0.810308	2.64451	0.81115	2.64444	0.589524	8.31855	0.878535	11.7664	0.33533	4.70456	0.653347	9.25715
0.807735	2.64471	0.808577	2.64464	0.591329	8.22838	0.878622	11.7318	0.337702	4.67254	0.653554	9.13122
0.805161	2.64491	0.806003	2.64484	0.593136	8.14069	0.878748	11.6825	0.340078	4.64144	0.653769	9.00885
0.802587	2.6451	0.803429	2.64504	0.594944	8.05539	0.878887	11.6293	0.342456	4.61121	0.653992	8.88991
0.800012	2.6453	0.800854	2.64524	0.596754	7.97237	0.879076	11.5578	0.344836	4.58182	0.654223	8.77426
0.797436	2.6455	0.798279	2.64543	0.598564	7.89154	0.879319	11.4688	0.347219	4.55322	0.654463	8.66177
0.794861	2.64569	0.795703	2.64563	0.600374	7.81282	0.879616	11.363	0.349604	4.52538	0.654712	8.55233
0.792284	2.64589	0.793127	2.64583	0.602185	7.73612	0.879971	11.2415	0.35199	4.49828	0.65497	8.44581
0.789707	2.64609	0.79055	2.64602	0.603997	7.66135	0.880385	11.1055	0.354377	4.47187	0.655237	8.34211
0.78713	2.64628	0.787973	2.64622	0.605808	7.58846	0.880807	10.9729	0.356766	4.44612	0.655514	8.24113
0.784553	2.64648	0.785396	2.64642	0.60762	7.51736	0.881237	10.8438	0.359155	4.42102	0.6558	8.14276
0.781975	2.64668	0.782818	2.64661	0.609431	7.44799	0.881676	10.7178	0.361544	4.39653	0.656096	8.04692
0.779397	2.64687	0.78024	2.64681	0.611241	7.38028	0.882123	10.5949	0.363934	4.37263	0.656402	7.95351
0.776818	2.64707	0.777662	2.64701	0.613052	7.31417	0.882578	10.4751	0.366324	4.34929	0.656718	7.86245
0.774239	2.64727	0.775083	2.6472	0.614861	7.24961	0.883042	10.3582	0.368713	4.32649	0.657044	7.77366
0.77166	2.64747	0.772504	2.6474	0.616669	7.18654	0.883515	10.244	0.371101	4.30421	0.657381	7.68705
0.769081	2.64766	0.769924	2.6476	0.618477	7.1249	0.883997	10.1326	0.373489	4.28243	0.657729	7.60257
0.766501	2.64786	0.767345	2.6478	0.620283	7.06464	0.884488	10.0238	0.375875	4.26113	0.658087	7.52014
0.763921	2.64806	0.764765	2.648	0.622087	7.00572	0.884988	9.9175	0.37826	4.24029	0.658457	7.43969
0.761341	2.64826	0.762185	2.6482	0.62389	6.94809	0.885497	9.81367	0.380643	4.21989	0.658838	7.36116
0.758761	2.64846	0.759605	2.6484	0.625692	6.89171	0.886015	9.7122	0.383025	4.19991	0.659231	7.28448
0.756181	2.64866	0.757025	2.6486	0.627491	6.83652	0.886542	9.61303	0.385404	4.18034	0.659636	7.2096
0.7536	2.64887	0.754444	2.6488	0.629288	6.7825	0.887079	9.51608	0.38778	4.16117	0.660052	7.13647
0.75102	2.64907	0.751864	2.649	0.631083	6.7296	0.887626	9.42128	0.390155	4.14237	0.660481	7.06502
0.748439	2.64927	0.749283	2.64921	0.632876	6.67779	0.888183	9.32856	0.392526	4.12393	0.660922	6.99521
0.745858	2.64948	0.746702	2.64941	0.634666	6.62703	0.888749	9.23787	0.394894	4.10585	0.661376	6.92699
0.743277	2.64969	0.744121	2.64962	0.636453	6.57729	0.889325	9.14914	0.397259	4.0881	0.661843	6.86031
0.740696	2.64989	0.74154	2.64983	0.638237	6.52853	0.889912	9.06231	0.39962	4.07067	0.662322	6.79513
0.738115	2.6501	0.738959	2.65004	0.640019	6.48072	0.890508	8.97733	0.401977	4.05356	0.662815	6.7314
0.735534	2.65031	0.736378	2.65025	0.641797	6.43384	0.891115	8.89414	0.40433	4.03674	0.663322	6.66908
0.732953	2.65053	0.733797	2.65046	0.643572	6.38785	0.891732	8.81269	0.406679	4.02022	0.663842	6.60813
0.730372	2.65074	0.731216	2.65067	0.645343	6.34273	0.89236	8.73293	0.409024	4.00397	0.664375	6.54852
0.727791	2.65096	0.728635	2.65089	0.647111	6.29844	0.892998	8.65482	0.411364	3.988	0.664923	6.4902
0.72521	2.65117	0.726054	2.6511	0.648874	6.25497	0.893647	8.5783	0.413699	3.97228	0.665485	6.43314
0.722629	2.65139	0.723473	2.65132	0.650634	6.21229	0.894307	8.50333	0.416029	3.95681	0.666062	6.37732
0.720048	2.65161	0.720892	2.65154	0.65239	6.17037	0.894978	8.42988	0.418353	3.94158	0.666653	6.32268
0.717468	2.65184	0.718311	2.65176	0.654142	6.1292	0.89566	8.35789	0.420672	3.92658	0.667259	6.2692
0.714887	2.65206	0.715731	2.65199	0.655889	6.08875	0.896353	8.28733	0.422986	3.9118	0.66788	6.21686
0.712307	2.65229	0.71315	2.65222	0.657632	6.049	0.897057	8.21816	0.425293	3.89724	0.668517	6.16562
0.709726	2.65252	0.71057	2.65244	0.65937	6.00993	0.897773	8.15035	0.427594	3.88289	0.669168	6.11546
0.707146	2.65275	0.70799	2.65268	0.661104	5.97151	0.8985	8.08385	0.429889	3.86874	0.669836	6.06634
0.704566	2.65299	0.70541	2.65291	0.662832	5.93374	0.899238	8.01864	0.432177	3.85478	0.670519	6.01824
0.701987	2.65322	0.70283	2.65315	0.664556	5.89659	0.899989	7.95468	0.434459	3.841	0.671219	5.97114
0.699407	2.65346	0.700251	2.65339	0.666274	5.86005	0.900751	7.89194	0.436733	3.82741	0.671934	5.925
0.696828	2.65371	0.697672	2.65363	0.667987	5.8241	0.901525	7.83039	0.439001	3.81399	0.672667	5.87982
0.694249	2.65395	0.695093	2.65387	0.669694	5.78871	0.902311	7.77	0.441261	3.80074	0.673415	5.83556
0.691671	2.6542	0.692514	2.65412	0.671396	5.75389	0.903109	7.71073	0.443514	3.78765	0.674181	5.7922
0.689093	2.65445	0.689936	2.65437	0.673093	5.7196	0.903919	7.65257	0.445759	3.77471	0.674963	5.74972
0.686515	2.65471	0.687358	2.65463	0.674783	5.68584	0.904742	7.59549	0.447996	3.76192	0.675763	5.7081
0.683938	2.65497	0.684781	2.65488	0.676468	5.6526	0.905576	7.53945	0.450225	3.74928	0.67658	5.66732
0.681361	2.65523	0.682203	2.65515	0.678147	5.61985	0.906423	7.48444	0.452446	3.73678	0.677414	5.62736
0.678784	2.6555	0.679627	2.65541	0.679819	5.58759	0.907283	7.43043	0.454659	3.72442	0.678267	5.5882
0.676208	2.65577	0.67705	2.65568	0.681486	5.55581	0.908155	7.37739	0.456863	3.71219	0.679137	5.54983
0.673632	2.65604	0.674475	2.65595	0.683146	5.52448	0.90904	7.32531	0.459058	3.70008	0.680025	5.51222
0.671057	2.65632	0.671899	2.65623	0.684799	5.4936	0.909938	7.27416	0.461244	3.68809	0.680931	5.47536
0.668483	2.6566	0.669325	2.65651	0.686446	5.46317	0.910848	7.22392	0.463422	3.67623	0.681856	5.43923
0.665909	2.65689	0.66675	2.6568	0.688087	5.43315	0.911771	7.17457	0.46559	3.66447	0.682799	5.40382
0.663335	2.65718	0.664177	2.65709	0.689721	5.40356	0.912708	7.12608	0.467749	3.65283	0.68376	5.3691
0.660762	2.65748	0.661604	2.65738	0.691348	5.37437	0.913657	7.07844	0.469899	3.6413	0.684741	5.33508
0.65819	2.65778	0.659031	2.65768	0.692968	5.34557	0.914619	7.03164	0.472039	3.62986	0.68574	5.30172
0.655619	2.65809	0.65646	2.65799	0.694581	5.31716	0.915594	6.98564	0.474169	3.61853	0.686758	5.26902
0.653048	2.6584	0.653889	2.6583	0.696187	5.28913	0.916582	6.94044	0.47629	3.60729	0.687796	5.23696
0.650478	2.65872	0.651318	2.65862	0.697786	5.26146	0.917584	6.89602	0.4784	3.59615	0.688852	5.20552
0.647909	2.65905	0.648749	2.65894	0.699378	5.23415	0.918599	6.85235	0.480501	3.5851	0.689929	5.17471
0.645341	2.65938	0.64618	2.65927	0.700962	5.2072	0.919627	6.80943	0.482592	3.57414	0.691024	5.14449
0.642773	2.65971	0.643613	2.6596	0.70254	5.18058	0.920668	6.76723	0.484672	3.56326	0.692139	5.11486
0.640206	2.66005	0.641046	2.65994	0.70411	5.1543	0.921723	6.72574	0.486742	3.55246	0.693273	5.08581
0.637641	2.6604	0.63848	2.66029	0.705672	5.12835	0.922791	6.68495	0.488802	3.54175	0.694428	5.05733
0.635076	2.66076	0.635915	2.66064	0.707228	5.10272	0.923873	6.64484	0.490851	3.53111	0.695602	5.0294
0.632512	2.66113	0.633351	2.66101	0.708775	5.0774	0.924967	6.60539	0.49289	3.52055	0.696796	5.00201
0.62995	2.6615	0.630788	2.66137	0.710315	5.05238	0.926076	6.5666	0.494918	3.51007	0.698009	4.97515
0.627388	2.66188	0.628226	2.66175	0.711848	5.02766	0.927197	6.52845	0.496935	3.49966	0.699243	4.94881
0.624828	2.66226	0.625665	2.66214	0.713373	5.00324	0.928332	6.49092	0.498942	3.48931	0.700497	4.92298
0.622269	2.66266	0.623106	2.66253	0.714891	4.9791	0.929481	6.454	0.500938	3.47904	0.70177	4.89765
0.619711	2.66307	0.620548	2.66293	0.7164	4.95524	0.930643	6.41768	0.502924	3.46883	0.703064	4.8728
0.617155	2.66348	0.617991	2.66334	0.717903	4.93165	0.931818	6.38195	0.504898	3.45869	0.704378	4.84844
0.6146	2.6639	0.615435	2.66377	0.719397	4.90834	0.933007	6.3468	0.506862	3.44861	0.705711	4.82454
0.612046	2.66434	0.612881	2.6642	0.720884	4.88528	0.934209	6.31221	0.508815	3.4386	0.707065	4.8011
0.609494	2.66478	0.610329	2.66464	0.722363	4.86248	0.935424	6.27817	0.510758	3.42865	0.708439	4.77812
0.606944	2.66524	0.607778	2.66509	0.723835	4.83994	0.936653	6.24467	0.51269	3.41876	0.709832	4.75557
0.604395	2.6657	0.605228	2.66555	0.725299	4.81764	0.937895	6.2117	0.514611	3.40893	0.711246	4.73345
0.601848	2.66618	0.602681	2.66603	0.726755	4.79559	0.93915	6.17925	0.516521	3.39915	0.712679	4.71176
0.599302	2.66667	0.600135	2.66651	0.728204	4.77378	0.940418	6.14731	0.518421	3.38944	0.714133	4.69048
0.596759	2.66718	0.59759	2.66701	0.729645	4.75219	0.9417	6.11587	0.52031	3.37978	0.715606	4.66961
0.594217	2.66769	0.595048	2.66752	0.731079	4.73084	0.942994	6.08491	0.522189	3.37018	0.717098	4.64913
0.591678	2.66822	0.592508	2.66805	0.732505	4.70971	0.944302	6.05444	0.524057	3.36064	0.71861	4.62904
0.58914	2.66877	0.58997	2.66859	0.733923	4.68881	0.945622	6.02443	0.525915	3.35115	0.720142	4.60933
0.586605	2.66933	0.587434	2.66914	0.735335	4.66812	0.946956	5.99489	0.527762	3.34171	0.721693	4.59
0.584072	2.6699	0.5849	2.66971	0.736738	4.64764	0.948302	5.96579	0.5296	3.33233	0.723264	4.57103
0.581542	2.67049	0.582369	2.6703	0.738135	4.62738	0.949661	5.93714	0.531427	3.323	0.724853	4.55242
0.579014	2.6711	0.57984	2.6709	0.739524	4.60732	0.951032	5.90892	0.533244	3.31373	0.726462	4.53416
0.576489	2.67173	0.577314	2.67152	0.740906	4.58746	0.952416	5.88112	0.535052	3.3045	0.728089	4.51624
0.573966	2.67237	0.574791	2.67216	0.742281	4.5678	0.953813	5.85374	0.53685	3.29534	0.729735	4.49866
0.571446	2.67304	0.57227	2.67282	0.743648	4.54834	0.955222	5.82677	0.538638	3.28622	0.7314	4.4814
0.56893	2.67372	0.569753	2.6735	0.745009	4.52907	0.956643	5.8002	0.540416	3.27716	0.733083	4.46447
0.566416	2.67443	0.567238	2.6742	0.746363	4.50999	0.958076	5.77402	0.542186	3.26815	0.734784	4.44785
0.563906	2.67516	0.564727	2.67492	0.747709	4.4911	0.959522	5.74823	0.543946	3.25919	0.736503	4.43154
0.5614	2.67591	0.562219	2.67566	0.749049	4.47239	0.960979	5.72281	0.545697	3.25028	0.73824	4.41553
0.558897	2.67669	0.559715	2.67643	0.750383	4.45387	0.962448	5.69776	0.547439	3.24143	0.739995	4.39981
0.556397	2.67749	0.557214	2.67723	0.751709	4.43552	0.963929	5.67308	0.549173	3.23263	0.741768	4.38439
0.553902	2.67832	0.554718	2.67805	0.753029	4.41735	0.965422	5.64875	0.550898	3.22388	0.743557	4.36924
0.551411	2.67918	0.552225	2.6789	0.754343	4.39935	0.966925	5.62477	0.552615	3.21519	0.745364	4.35437
0.548924	2.68007	0.549737	2.67977	0.75565	4.38152	0.968441	5.60113	0.554323	3.20655	0.747187	4.33977
0.546442	2.68099	0.547253	2.68068	0.756951	4.36386	0.969967	5.57783	0.556024	3.19796	0.749027	4.32543
0.543965	2.68194	0.544774	2.68162	0.758246	4.34637	0.971504	5.55485	0.557716	3.18943	0.750883	4.31135
0.541492	2.68292	0.5423	2.6826	0.759535	4.32904	0.973053	5.5322	0.559402	3.18094	0.752755	4.29753
0.539025	2.68394	0.539831	2.68361	0.760818	4.31188	0.974612	5.50986	0.561079	3.17252	0.754643	4.28395
0.536564	2.685	0.537368	2.68465	0.762095	4.29487	0.976181	5.48783	0.56275	3.16414	0.756547	4.27061
0.534108	2.6861	0.53491	2.68574	0.763367	4.27802	0.977762	5.46611	0.564414	3.15582	0.758466	4.2575
0.531658	2.68724	0.532459	2.68687	0.764633	4.26133	0.979352	5.44468	0.56607	3.14756	0.7604	4.24462
0.529215	2.68843	0.530013	2.68804	0.765893	4.24479	0.980953	5.42355	0.567721	3.13935	0.762349	4.23197
0.526779	2.68966	0.527575	2.68925	0.767149	4.22841	0.982563	5.4027	0.569365	3.13119	0.764312	4.21954
0.524349	2.69094	0.525143	2.69052	0.768398	4.21217	0.984184	5.38214	0.571003	3.12309	0.76629	4.20733
0.521927	2.69228	0.522719	2.69183	0.769643	4.19609	0.985814	5.36185	0.572634	3.11505	0.768281	4.19532
0.519513	2.69366	0.520302	2.6932	0.770883	4.18015	0.987454	5.34183	0.57426	3.10706	0.770287	4.18351
0.517107	2.69511	0.517893	2.69463	0.772118	4.16435	0.989103	5.32207	0.575881	3.09913	0.772305	4.17191
0.51471	2.69661	0.515493	2.69611	0.773348	4.1487	0.990761	5.30257	0.577496	3.09125	0.774337	4.1605
0.512322	2.69818	0.513102	2.69766	0.774574	4.13319	0.992428	5.28333	0.579107	3.08343	0.776382	4.14928
0.509943	2.69981	0.51072	2.69927	0.775795	4.11782	0.994104	5.26434	0.580712	3.07567	0.77844	4.13825
0.507574	2.70152	0.508348	2.70095	0.777012	4.10259	0.995789	5.2456	0.582313	3.06796	0.780509	4.1274
0.505216	2.7033	0.505986	2.70271	0.778225	4.0875	0.997482	5.22709	0.583909	3.06031	0.782591	4.11672
0.502869	2.70516	0.503635	2.70454	0.779433	4.07254	0.999184	5.20882	0.585501	3.05272	0.784685	4.10622
0.500534	2.7071	0.501296	2.70645	0.780638	4.05772	1.00089	5.19078	0.587089	3.04519	0.786789	4.09589
0.49821	2.70912	0.498969	2.70845	0.781839	4.04303			0.588674	3.03771	0.788905	4.08572
0.495899	2.71124	0.496654	2.71054	0.783036	4.02847			0.590255	3.03029	0.791032	4.07571
0.493602	2.71346	0.494352	2.71272	0.78423	4.01404			0.591832	3.02293	0.79317	4.06586
0.491319	2.71578	0.492064	2.71501	0.78542	3.99974			0.593406	3.01563	0.795318	4.05616
0.48905	2.7182	0.48979	2.7174	0.786607	3.98557			0.594978	3.00839	0.797476	4.04661
0.486797	2.72074	0.487532	2.7199	0.78779	3.97152			0.596546	3.00121	0.799643	4.0372
0.48456	2.7234	0.48529	2.72252	0.788971	3.9576			0.598112	2.99408	0.80182	4.02794
0.482339	2.72618	0.483064	2.72526	0.790149	3.94381			0.599676	2.98702	0.804006	4.01881
0.480136	2.72909	0.480855	2.72812	0.791324	3.93014			0.601237	2.98001	0.806201	4.00982
0.477952	2.73214	0.478664	2.73113	0.792496	3.91658			0.602797	2.97306	0.808404	4.00096
0.475786	2.73534	0.476492	2.73427	0.793666	3.90315			0.604355	2.96617	0.810616	3.99222
0.47364	2.73868	0.474339	2.73757	0.794834	3.88984			0.605911	2.95935	0.812835	3.98361
0.471514	2.74218	0.472207	2.74102	0.795999	3.87665			0.607466	2.95258	0.815063	3.97512
0.46941	2.74585	0.470096	2.74463	0.797162	3.86357			0.60902	2.94587	0.817297	3.96675
0.467328	2.74969	0.468006	2.74842	0.798324	3.85061			0.610572	2.93922	0.819539	3.9585
0.465268	2.75371	0.465939	2.75238	0.799483	3.83777			0.612124	2.93263	0.821788	3.95036
0.463232	2.75792	0.463895	2.75652	0.800641	3.82504			0.613676	2.9261	0.824043	3.94232
0.46122	2.76232	0.461875	2.76086	0.801797	3.81242			0.615226	2.91962	0.826305	3.93439
0.459232	2.76692	0.45988	2.76539	0.802951	3.79991			0.616777	2.91321	0.828572	3.92657
0.457271	2.77173	0.457909	2.77014	0.804104	3.78751			0.618327	2.90686	0.830845	3.91884
0.455334	2.77676	0.455965	2.77509	0.805256	3.77523			0.619877	2.90057	0.833124	3.91122
0.453425	2.78202	0.454046	2.78027	0.806407	3.76305			0.621428	2.89433	0.835408	3.90368
0.451542	2.7875	0.452155	2.78568	0.807557	3.75098			0.622979	2.88816	0.837696	3.89624
0.449687	2.79322	0.450291	2.79132	0.808706	3.73902			0.62453	2.88204	0.83999	3.8889
0.44786	2.79919	0.448454	2.79721	0.809854	3.72717			0.626082	2.87598	0.842288	3.88163
0.446061	2.80541	0.446646	2.80335	0.811002	3.71542			0.627635	2.86998	0.844589	3.87446
0.44429	2.81189	0.444866	2.80974	0.812149	3.70377			0.629189	2.86405	0.846895	3.86736
0.442548	2.81863	0.443114	2.81639	0.813295	3.69223			0.630744	2.85816	0.849204	3.86035
0.440835	2.82564	0.441392	2.82332	0.814442	3.68079			0.6323	2.85234	0.851516	3.85341
0.439151	2.83293	0.439698	2.83052	0.815588	3.66945			0.633857	2.84658	0.853832	3.84655
0.437496	2.84051	0.438034	2.838	0.816734	3.65821			0.635416	2.84087	0.85615	3.83977
0.43587	2.84837	0.436398	2.84577	0.81788	3.64708			0.636977	2.83522	0.858471	3.83305
0.434273	2.85653	0.434792	2.85383	0.819026	3.63604			0.638539	2.82963	0.860794	3.82641
0.432705	2.86499	0.433215	2.86219	0.820172	3.6251			0.640104	2.8241	0.863119	3.81983
0.431167	2.87375	0.431667	2.87085	0.821319	3.61425			0.64167	2.81863	0.865445	3.81332
0.429657	2.88283	0.430147	2.87983	0.822466	3.60351			0.643238	2.81321	0.867773	3.80687
0.428176	2.89222	0.428657	2.88911	0.823614	3.59286			0.644809	2.80785	0.870103	3.80048
0.426723	2.90193	0.427195	2.89872	0.824762	3.5823			0.646382	2.80254	0.872433	3.79415
0.425299	2.91198	0.425762	2.90866	0.825911	3.57184			0.647958	2.79729	0.874764	3.78788
0.423904	2.92235	0.424357	2.91892	0.827061	3.56147			0.649536	2.7921	0.877095	3.78167
0.422536	2.93306	0.42298	2.92952	0.828212	3.5512			0.651117	2.78696	0.879427	3.77551
0.421196	2.94411	0.421631	2.94046	0.829363	3.54101			0.652701	2.78188	0.881758	3.7694
0.419883	2.95551	0.42031	2.95175	0.830516	3.53092			0.654288	2.77686	0.88409	3.76334
0.418598	2.96727	0.419016	2.96339	0.83167	3.52092			0.655878	2.77189	0.88642	3.75733
0.41734	2.97939	0.417749	2.97539	0.832826	3.511			0.657471	2.76697	0.88875	3.75137
0.416109	2.99187	0.416508	2.98775	0.833983	3.50118			0.659067	2.76211	0.891079	3.74545
0.414904	3.00473	0.415295	3.00048	0.835141	3.49144			0.660667	2.75731	0.893407	3.73958
0.413726	3.01796	0.414108	3.01359	0.8363	3.48179			0.662269	2.75255	0.895733	3.73375
0.412573	3.03158	0.412947	3.02709	0.837462	3.47223			0.663876	2.74786	0.898057	3.72796
0.411447	3.0456	0.411812	3.04097	0.838625	3.46275			0.665486	2.74321	0.900379	3.72221
0.410346	3.06001	0.410703	3.05525	0.83979	3.45336			0.6671	2.73862	0.902699	3.7165
0.409271	3.07483	0.40962	3.06994	0.840957	3.44405			0.668718	2.73408	0.905017	3.71082
0.408221	3.09006	0.408561	3.08503	0.842125	3.43482			0.67034	2.7296	0.907332	3.70518
0.407196	3.10572	0.407528	3.10055	0.843296	3.42568			0.671966	2.72516	0.909643	3.69958
0.406195	3.12181	0.40652	3.1165	0.844469	3.41662			0.673595	2.72078	0.911952	3.694
0.40522	3.13833	0.405536	3.13288	0.845644	3.40765			0.675229	2.71646	0.914257	3.68846
0.404269	3.15531	0.404577	3.14971	0.846821	3.39875			0.676868	2.71218	0.916559	3.68294
0.403342	3.17274	0.403643	3.16699	0.848001	3.38993			0.67851	2.70795	0.918856	3.67746
0.40244	3.19064	0.402733	3.18473	0.849183	3.38119			0.680157	2.70378	0.92115	3.672
0.401562	3.20902	0.401846	3.20295	0.850368	3.37253			0.681809	2.69966	0.923439	3.66657
0.400707	3.22788	0.400984	3.22166	0.851555	3.36395			0.683465	2.69558	0.925724	3.66116
0.399877	3.24725	0.400146	3.24086	0.852744	3.35545			0.685126	2.69156	0.928004	3.65578
0.39907	3.26712	0.399331	3.26056	0.853937	3.34702			0.686792	2.68759	0.930279	3.65041
0.398287	3.28751	0.39854	3.28079	0.855132	3.33867			0.688463	2.68367	0.932548	3.64507
0.397527	3.30844	0.397773	3.30154	0.85633	3.3304			0.690138	2.67979	0.934813	3.63975
0.39679	3.32992	0.397028	3.32283	0.85753	3.3222			0.691819	2.67597	0.937071	3.63445
0.396077	3.35195	0.396308	3.34468	0.858734	3.31408			0.693505	2.6722	0.939324	3.62917
0.395387	3.37455	0.39561	3.3671	0.85994	3.30602			0.695196	2.66847	0.941571	3.62391
0.39472	3.39774	0.394935	3.39009	0.86115	3.29805			0.696893	2.66479	0.943812	3.61866
0.394076	3.42153	0.394284	3.41369	0.862363	3.29014			0.698595	2.66117	0.946046	3.61343
0.393455	3.44594	0.393655	3.43789	0.863579	3.28231			0.700302	2.65759	0.948273	3.60821
0.392856	3.47098	0.393049	3.46272	0.864798	3.27454			0.702015	2.65406	0.950494	3.603
0.392281	3.49667	0.392466	3.48819	0.86602	3.26685			0.703734	2.65057	0.952708	3.59781
0.391728	3.52302	0.391906	3.51432	0.867246	3.25923			0.705459	2.64714	0.954914	3.59263
0.391198	3.55005	0.391369	3.54113	0.868475	3.25168			0.707189	2.64375	0.957113	3.58746
0.39069	3.57778	0.390854	3.56863	0.869708	3.24419			0.708926	2.64041	0.959304	3.5823
0.390205	3.60623	0.390361	3.59685	0.870944	3.23678			0.710669	2.63712	0.961488	3.57715
0.389742	3.63542	0.389891	3.62579	0.872183	3.22943			0.712418	2.63388	0.963664	3.57201
0.389302	3.66537	0.389443	3.65549	0.873426	3.22215			0.714174	2.63068	0.965832	3.56687
0.388884	3.69609	0.389018	3.68596	0.874673	3.21494			0.715936	2.62753	0.967992	3.56175
0.388488	3.72762	0.388615	3.71722	0.875923	3.20779			0.717705	2.62443	0.970143	3.55663
0.388115	3.75997	0.388234	3.74929	0.877178	3.20071			0.71948	2.62138	0.972286	3.55152
0.387763	3.79316	0.387876	3.78221	0.878436	3.19369			0.721263	2.61837	0.97442	3.54641
0.387434	3.82723	0.387539	3.81599	0.879697	3.18674			0.723052	2.61541	0.976545	3.54131
0.387127	3.8622	0.387225	3.85066	0.880963	3.17985			0.724849	2.6125	0.978661	3.53621
0.386841	3.89809	0.386932	3.88625	0.882233	3.17302			0.726654	2.60963	0.980769	3.53111
0.386578	3.93493	0.386662	3.92277	0.883506	3.16626			0.728466	2.60681	0.982867	3.52602
0.386337	3.97275	0.386413	3.96027	0.884784	3.15956			0.730285	2.60404	0.984956	3.52094
0.386117	4.01157	0.386186	3.99876	0.886065	3.15292			0.732113	2.60132	0.987036	3.51585
0.385919	4.05144	0.385981	4.03829	0.887351	3.14635			0.733949	2.59865	0.989106	3.51077
0.385742	4.09238	0.385798	4.07887	0.888641	3.13983			0.735793	2.59602	0.991167	3.50569
0.385588	4.13443	0.385636	4.12055	0.889935	3.13338			0.737645	2.59344	0.993218	3.50061
0.385454	4.17762	0.385496	4.16336	0.891233	3.12698			0.739507	2.59092	0.995259	3.49554
0.385343	4.22198	0.385377	4.20734	0.892535	3.12065			0.741377	2.58844	0.997291	3.49046
0.385252	4.26756	0.38528	4.25252	0.893842	3.11437			0.743257	2.58601	0.999312	3.48539
0.385183	4.3144	0.385203	4.29894	0.895153	3.10815			0.745146	2.58363	1.00132	3.48032
0.385135	4.36253	0.385149	4.34664	0.896468	3.10199			0.747045	2.5813		
0.385109	4.41201	0.385115	4.39568	0.897788	3.09589			0.748954	2.57902		
0.385103	4.46287	0.385102	4.44608	0.899112	3.08984			0.750873	2.57679		
0.385118	4.51516	0.385111	4.4979	0.900441	3.08385			0.752803	2.57461		
0.385154	4.56894	0.38514	4.55118	0.901774	3.07792			0.754744	2.57248		
0.385211	4.62425	0.38519	4.60599	0.903112	3.07204			0.756696	2.57041		
0.385289	4.68115	0.385261	4.66237	0.904455	3.06622			0.75866	2.56839		
0.385387	4.7397	0.385353	4.72037	0.905802	3.06045			0.760635	2.56643		
0.385506	4.79996	0.385465	4.78006	0.907153	3.05474			0.762623	2.56452		
0.385645	4.86199	0.385597	4.84151	0.90851	3.04908			0.764624	2.56266		
0.385804	4.92585	0.38575	4.90476	0.909871	3.04347			0.766637	2.56086		
0.385984	4.99162	0.385923	4.9699	0.911237	3.03792			0.768664	2.55911		
0.386183	5.05937	0.386116	5.03699	0.912608	3.03242			0.770704	2.55743		
0.386402	5.12918	0.386329	5.10612	0.913983	3.02697			0.772758	2.55579		
0.386642	5.20112	0.386561	5.17735	0.915364	3.02158			0.774827	2.55422		
0.3869	5.27528	0.386814	5.25078	0.916749	3.01624			0.77691	2.55271		
0.387142	5.34179	0.387086	5.32648	0.918139	3.01094			0.779008	2.55125		
0.387359	5.39992	0.387377	5.40457	0.919535	3.0057			0.781121	2.54986		
0.387547	5.44901	0.387688	5.48512	0.920935	3.00051			0.78325	2.54852		
0.387701	5.48851	0.388017	5.56825	0.92234	2.99537			0.785395	2.54724		
0.387817	5.51793	0.388366	5.65407	0.923751	2.99028			0.787555	2.54602		
0.387925	5.5453	0.388733	5.7427	0.925167	2.98523			0.789732	2.54487		
0.388002	5.56451	0.389119	5.83424	0.926587	2.98024			0.791925	2.54377		
0.388124	5.5948	0.389524	5.92885	0.928013	2.97529			0.794134	2.54273		
0.388294	5.63656	0.389946	6.02665	0.929445	2.9704			0.79636	2.54175		
0.388515	5.69031	0.390387	6.12779	0.930881	2.96555			0.798602	2.54083		
0.388792	5.75675	0.390846	6.23243	0.932323	2.96075			0.80086	2.53996		
0.38913	5.83676	0.391322	6.34074	0.93377	2.95599			0.803134	2.53916		
0.389535	5.93145	0.391816	6.45288	0.935223	2.95129			0.805425	2.5384		
0.389958	6.02934	0.392327	6.56906	0.936681	2.94663			0.807731	2.53771		
0.3904	6.13058	0.392856	6.68946	0.938144	2.94201			0.810053	2.53706		
0.390859	6.23531	0.393401	6.81431	0.939613	2.93744			0.812391	2.53647		
0.391336	6.34372	0.393962	6.94384	0.941088	2.93292			0.814743	2.53593		
0.39183	6.45597	0.39454	7.07829	0.942568	2.92844			0.81711	2.53544		
0.392342	6.57226	0.395134	7.21793	0.944053	2.92401			0.819492	2.53499		
0.39287	6.69278	0.395744	7.36304	0.945545	2.91962			0.821887	2.53459		
0.393416	6.81775	0.39637	7.51392	0.947042	2.91528			0.824295	2.53424		
0.393978	6.94741	0.39701	7.6709	0.948545	2.91098			0.826717	2.53392		
0.394556	7.082	0.397666	7.83434	0.950053	2.90672			0.829151	2.53365		
0.395151	7.22178	0.398336	8.00461	0.951568	2.90251			0.831597	2.53341		
0.395761	7.36704	0.399021	8.18214	0.953088	2.89835			0.834055	2.53321		
0.396387	7.51808	0.39972	8.36736	0.954615	2.89422			0.836524	2.53305		
0.397028	7.67523	0.400432	8.56076	0.956147	2.89014			0.839003	2.53292		
0.397684	7.83885	0.401157	8.76287	0.957685	2.8861			0.841493	2.53282		
0.398355	8.00932	0.401896	8.97425	0.95923	2.8821			0.843992	2.53274		
0.39904	8.18704	0.402647	9.19553	0.96078	2.87815			0.8465	2.5327		
0.399739	8.37248	0.403409	9.4274	0.962337	2.87424			0.849017	2.53269		
0.400451	8.56611	0.404184	9.6706	0.9639	2.87037			0.851542	2.53269		
0.401177	8.76846	0.404868	9.8924	0.965469	2.86654			0.854076	2.53272		
0.401916	8.9801	0.405458	10.0892	0.967045	2.86275			0.856616	2.53278		
0.402667	9.20166	0.405949	10.2576	0.968627	2.859			0.859164	2.53285		
0.40343	9.43383	0.406341	10.3946	0.970216	2.8553			0.861719	2.53295		
0.404205	9.67734	0.40663	10.4975	0.971811	2.85163			0.86428	2.53306		
0.404991	9.93302	0.406897	10.5939	0.973413	2.84801			0.866847	2.53319		
0.405788	10.2018	0.407084	10.662	0.975021	2.84443			0.86942	2.53333		
0.406594	10.4846	0.407376	10.77	0.976636	2.84088			0.871998	2.53349		
0.40741	10.7826	0.407776	10.9202	0.978258	2.83738			0.874582	2.53367		
0.408235	11.0969	0.408284	11.1159	0.979887	2.83392			0.87717	2.53385		
0.409069	11.429	0.408903	11.3616	0.981523	2.83049			0.879763	2.53405		
0.40991	11.7804	0.409634	11.6632	0.983165	2.82711			0.88236	2.53426		
0.410758	12.1526	0.41048	12.0284	0.984815	2.82377			0.884961	2.53448		
0.411612	12.5476	0.411332	12.4158	0.986472	2.82046			0.887567	2.53471		
0.412471	12.9675	0.412189	12.8273	0.988137	2.8172			0.890176	2.53495		
0.413335	13.4148	0.413052	13.2653	0.989809	2.81398			0.892788	2.5352		
0.414202	13.892	0.413918	13.7324	0.991488	2.81079			0.895404	2.53546		
0.415072	14.4023	0.414787	14.2315	0.993174	2.80764			0.898023	2.53573		
0.415944	14.9492	0.415658	14.766	0.994869	2.80454			0.900645	2.536		
0.416815	15.5367	0.41653	15.3398	0.996571	2.80147			0.90327	2.53627		
0.417686	16.1694	0.417401	15.9572	0.998281	2.79844			0.905898	2.53656		
0.418555	16.8529	0.418271	16.6234	0.999998	2.79545			0.908528	2.53685		
0.419419	17.5933	0.419137	17.3444	1.00172	2.7925			0.91116	2.53714		
0.420279	18.398	0.419998	18.1272					0.913795	2.53744		
0.421131	19.2758	0.420854	18.98					0.916432	2.53774		
0.421975	20.237	0.4217	19.9127					0.919071	2.53805		
0.422808	21.2941	0.422537	20.9369					0.921712	2.53836		
0.423629	22.4622	0.423362	22.0669					0.924354	2.53868		
0.424434	23.7597	0.424173	23.3198					0.926999	2.53899		
0.425222	25.2094	0.424966	24.7169					0.929645	2.53931		
0.42599	26.8398	0.425741	26.2847					0.932293	2.53964		
0.426735	28.687	0.426494	28.0564					0.934942	2.53996		
0.427454	30.7974	0.427222	30.0749					0.937592	2.54029		
0.428145	33.232	0.427922	32.3956					0.940244	2.54062		
0.428803	36.0718	0.428592	35.0924					0.942898	2.54095		
0.429427	39.4278	0.429227	38.265					0.945552	2.54128		
0.430011	43.4555	0.429824	42.0523					0.948208	2.54161		
0.430553	48.38	0.430381	46.653					0.950865	2.54195		
0.43105	54.5399	0.430893	52.3619					0.953522	2.54229		
0.431497	62.4691	0.431357	59.6364					0.956181	2.54262		
0.431892	73.0616	0.431769	69.2261					0.958841	2.54296		
0.432232	87.9356	0.432127	82.4502					0.961501	2.5433		
0.432513	110.355	0.432427	101.867					0.964163	2.54364		
0.432733	148.03	0.432668	133.169					0.966825	2.54397		
0.432891	224.616	0.432846	192.121					0.969488	2.54431		
0.432984	464.962	0.432961	344.449					0.972152	2.54465		
		0.43301	1659.4					0.974816	2.54499		
								0.977481	2.54533		
								0.980147	2.54567		
								0.982813	2.54601		
								0.98548	2.54635		
								0.988147	2.54668		
								0.990815	2.54702		
								0.993483	2.54736		
								0.996152	2.54769		
								0.998821	2.54803		
								1.00149	2.54836		
