Sym0		Sym1		Sym2		Sym3		Asym1		Asym2		Asym3	
403  Points		403  Points		378  Points		215  Points		399  Points		317  Points		186  Points	
Freq (MHz)	Vph (m/ms)	Freq (MHz)	Vph (m/ms)	Freq (MHz)	Vph (m/ms)	Freq (MHz)	Vph (m/ms)	Freq (MHz)	Vph (m/ms)	Freq (MHz)	Vph (m/ms)	Freq (MHz)	Vph (m/ms)
1.00037	2.5279	1.00064	2.52773	0.433159	575.666	0.866025	1660.1	0.216543	218.333	1.00102	3.22706	0.846227	7979.27
0.998335	2.52913	0.99861	2.52896	0.43376	248.079	0.866025	570.618	0.216653	108.99	0.999622	3.23292	0.846242	767.861
0.996306	2.53037	0.996581	2.5302	0.434709	158.393	0.866024	344.519	0.216835	72.6697	0.998215	3.23881	0.84628	403.355
0.994281	2.53163	0.994555	2.53146	0.435886	116.531	0.866023	246.748	0.217091	54.5472	0.996803	3.24471	0.846342	273.532
0.992259	2.53291	0.992533	2.53273	0.437208	92.3054	0.866021	192.203	0.217419	43.6944	0.995384	3.25063	0.846429	206.943
0.99024	2.5342	0.990514	2.53402	0.438626	76.5147	0.866019	157.407	0.217818	36.4737	0.993959	3.25657	0.846539	166.439
0.988225	2.5355	0.988498	2.53533	0.440109	65.4087	0.866017	133.278	0.218288	31.3275	0.992527	3.26252	0.846672	139.205
0.986213	2.53682	0.986485	2.53664	0.441639	57.1729	0.866014	115.563	0.218828	27.4772	0.991088	3.2685	0.84683	119.639
0.984203	2.53816	0.984475	2.53798	0.443205	50.8225	0.866011	102.005	0.219436	24.4907	0.989643	3.27449	0.84701	104.903
0.982196	2.5395	0.982468	2.53932	0.444799	45.7769	0.866007	91.2943	0.220112	22.1085	0.98819	3.28049	0.847215	93.4057
0.980192	2.54087	0.980463	2.54068	0.446416	41.6717	0.866003	82.6188	0.220854	20.1656	0.986729	3.28651	0.847442	84.1862
0.97819	2.54224	0.978461	2.54205	0.448053	38.2667	0.865999	75.4491	0.221661	18.5521	0.985261	3.29254	0.847693	76.6289
0.976191	2.54363	0.976461	2.54344	0.449707	35.3968	0.865995	69.4242	0.222531	17.1917	0.983785	3.29859	0.847967	70.322
0.974193	2.54503	0.974463	2.54484	0.451376	32.9454	0.865991	64.2904	0.223463	16.0302	0.982301	3.30465	0.848264	64.9793
0.972197	2.54644	0.972467	2.54625	0.453059	30.8271	0.865986	59.8635	0.224456	15.0277	0.980808	3.31072	0.848583	60.3957
0.970203	2.54786	0.970473	2.54767	0.454754	28.9785	0.865981	56.007	0.225507	14.1542	0.979306	3.3168	0.848925	56.4204
0.96821	2.5493	0.96848	2.5491	0.456461	27.3513	0.865976	52.6172	0.226614	13.3868	0.977796	3.32289	0.849289	52.9401
0.966218	2.55074	0.966488	2.55055	0.458178	25.9079	0.865972	49.6143	0.227778	12.7078	0.976276	3.329	0.849675	49.8681
0.964227	2.5522	0.964497	2.552	0.459905	24.619	0.865967	46.9356	0.228994	12.1031	0.974747	3.33511	0.850083	47.1365
0.962237	2.55366	0.962506	2.55346	0.461641	23.4611	0.865962	44.5313	0.230263	11.5615	0.973209	3.34124	0.850512	44.692
0.960247	2.55514	0.960517	2.55494	0.463387	22.4152	0.865957	42.3614	0.231581	11.0739	0.971661	3.34737	0.850963	42.4918
0.958257	2.55662	0.958527	2.55642	0.465141	21.4658	0.865953	40.393	0.232948	10.6329	0.970103	3.35351	0.851435	40.501
0.956268	2.55811	0.956537	2.5579	0.466903	20.6002	0.865949	38.5995	0.234361	10.2322	0.968534	3.35965	0.851928	38.6913
0.954278	2.5596	0.954548	2.5594	0.468673	19.8078	0.865945	36.9585	0.23582	9.86679	0.966955	3.3658	0.852441	37.0392
0.952288	2.56111	0.952557	2.5609	0.47045	19.0798	0.865941	35.4513	0.237126	9.57377	0.965366	3.37196	0.852975	35.5249
0.950296	2.56262	0.950566	2.56241	0.472235	18.4085	0.865938	34.0622	0.238265	9.3407	0.963766	3.37813	0.853529	34.1321
0.948304	2.56413	0.948574	2.56392	0.474027	17.7877	0.865936	32.7779	0.239223	9.1586	0.962155	3.38429	0.854102	32.8467
0.94631	2.56565	0.94658	2.56544	0.475825	17.2119	0.865934	31.5869	0.239992	9.02094	0.960532	3.39047	0.854695	31.6569
0.944314	2.56717	0.944584	2.56696	0.47763	16.6764	0.865933	30.4795	0.240563	8.92309	0.958899	3.39664	0.855307	30.5524
0.942316	2.56869	0.942587	2.56849	0.47944	16.177	0.865932	29.4471	0.240931	8.86191	0.957254	3.40282	0.855937	29.5245
0.940316	2.57022	0.940587	2.57001	0.481257	15.7103	0.865932	28.4824	0.241463	8.77585	0.955597	3.409	0.856586	28.5655
0.938313	2.57175	0.938584	2.57154	0.483079	15.2732	0.865934	27.5789	0.242046	8.68477	0.953928	3.41518	0.857254	27.6687
0.936307	2.57327	0.936579	2.57307	0.484907	14.863	0.865936	26.731	0.242847	8.56483	0.952248	3.42137	0.857939	26.8283
0.934297	2.5748	0.93457	2.57459	0.486741	14.4772	0.865939	25.9337	0.243872	8.41931	0.950555	3.42755	0.858641	26.0393
0.932284	2.57632	0.932557	2.57612	0.488579	14.1137	0.865944	25.1827	0.24513	8.25193	0.94885	3.43373	0.859361	25.297
0.930267	2.57784	0.930541	2.57764	0.490423	13.7708	0.865949	24.4739	0.246629	8.06669	0.947133	3.43992	0.860097	24.5975
0.928246	2.57936	0.92852	2.57916	0.492271	13.4466	0.865957	23.8041	0.248379	7.86764	0.945403	3.4461	0.86085	23.9372
0.926219	2.58087	0.926494	2.58067	0.494124	13.1397	0.865965	23.1699	0.250162	7.68174	0.943661	3.45229	0.861619	23.3129
0.924188	2.58238	0.924464	2.58218	0.495981	12.8488	0.865975	22.5687	0.251974	7.50777	0.941907	3.45847	0.862404	22.7218
0.922151	2.58388	0.922427	2.58368	0.497842	12.5726	0.865987	21.998	0.253815	7.34466	0.940139	3.46465	0.863205	22.1613
0.920109	2.58537	0.920386	2.58517	0.499707	12.3101	0.866001	21.4555	0.255684	7.19147	0.938359	3.47083	0.86402	21.6292
0.91806	2.58686	0.918338	2.58666	0.501576	12.0602	0.866017	20.9392	0.257579	7.04735	0.936566	3.47701	0.86485	21.1233
0.916005	2.58833	0.916284	2.58813	0.503449	11.8221	0.866034	20.4472	0.2595	6.91154	0.93476	3.48319	0.865695	20.6417
0.913943	2.58979	0.914223	2.58959	0.505326	11.595	0.866054	19.9779	0.261444	6.78338	0.932942	3.48936	0.866553	20.1829
0.911874	2.59124	0.912155	2.59105	0.507205	11.3781	0.866076	19.5296	0.263411	6.66225	0.931111	3.49553	0.867426	19.7451
0.909798	2.59268	0.910079	2.59249	0.509088	11.1707	0.8661	19.1012	0.2654	6.54761	0.929266	3.5017	0.868311	19.3271
0.907714	2.5941	0.907996	2.59391	0.510974	10.9723	0.866127	18.6912	0.26741	6.43897	0.927409	3.50787	0.86921	18.9275
0.905622	2.59551	0.905906	2.59532	0.512862	10.7822	0.866156	18.2985	0.26944	6.33589	0.925539	3.51404	0.870121	18.5451
0.903521	2.59691	0.903806	2.59672	0.514754	10.6	0.866188	17.9221	0.271489	6.23796	0.923657	3.5202	0.871045	18.1789
0.901413	2.59829	0.901699	2.5981	0.516647	10.4252	0.866223	17.5609	0.273555	6.14481	0.921761	3.52636	0.87198	17.8278
0.899295	2.59965	0.899583	2.59946	0.518543	10.2573	0.866261	17.2141	0.275638	6.05611	0.919853	3.53252	0.872927	17.491
0.897169	2.60099	0.897458	2.60081	0.520442	10.0959	0.866302	16.8808	0.277738	5.97156	0.917932	3.53868	0.873886	17.1676
0.895033	2.60231	0.895323	2.60213	0.522342	9.94072	0.866347	16.5602	0.279853	5.89088	0.915999	3.54484	0.874855	16.8568
0.892889	2.60362	0.89318	2.60344	0.523999	9.81021	0.866394	16.2517	0.281982	5.81381	0.914053	3.551	0.875835	16.5579
0.890734	2.6049	0.891027	2.60473	0.525413	9.70228	0.866445	15.9546	0.284126	5.74012	0.912095	3.55716	0.876825	16.2702
0.888571	2.60616	0.888864	2.60599	0.526583	9.61524	0.8665	15.6682	0.286282	5.6696	0.910125	3.56331	0.877825	15.9932
0.886397	2.6074	0.886692	2.60724	0.527508	9.5478	0.866559	15.3921	0.28845	5.60204	0.908143	3.56947	0.878834	15.7262
0.884214	2.60863	0.88451	2.60846	0.528189	9.49896	0.866622	15.1256	0.290631	5.53727	0.906149	3.57563	0.879853	15.4687
0.882021	2.60982	0.882318	2.60966	0.528624	9.46803	0.866688	14.8683	0.292822	5.47512	0.904143	3.5818	0.880881	15.2203
0.879817	2.611	0.880117	2.61084	0.529251	9.42401	0.866759	14.6197	0.295023	5.41542	0.902125	3.58796	0.881917	14.9804
0.877605	2.61215	0.877905	2.612	0.529932	9.37674	0.866835	14.3794	0.297234	5.35805	0.900097	3.59413	0.882961	14.7486
0.875382	2.61328	0.875683	2.61313	0.530858	9.31341	0.866915	14.147	0.299454	5.30285	0.898056	3.6003	0.884013	14.5245
0.873149	2.61439	0.873452	2.61424	0.53203	9.23484	0.866999	13.9221	0.301682	5.24972	0.896005	3.60648	0.885073	14.3078
0.870906	2.61548	0.871211	2.61533	0.533448	9.14204	0.867089	13.7043	0.303919	5.19854	0.893943	3.61266	0.88614	14.098
0.868654	2.61654	0.86896	2.6164	0.535112	9.03614	0.867183	13.4934	0.306163	5.14919	0.89187	3.61885	0.887213	13.8949
0.866392	2.61758	0.866699	2.61744	0.537022	8.91839	0.867283	13.289	0.308413	5.10158	0.889787	3.62505	0.888294	13.6982
0.86412	2.6186	0.864428	2.61846	0.538932	8.80448	0.867388	13.0908	0.31067	5.05562	0.887694	3.63126	0.88938	13.5075
0.861839	2.61959	0.862148	2.61946	0.540843	8.69423	0.867498	12.8986	0.312932	5.01121	0.88559	3.63747	0.890473	13.3225
0.859548	2.62056	0.859859	2.62043	0.542754	8.58745	0.867614	12.7121	0.3152	4.96828	0.883477	3.6437	0.891571	13.1431
0.857249	2.62151	0.857561	2.62138	0.544665	8.48399	0.867736	12.531	0.317473	4.92675	0.881355	3.64994	0.892674	12.9689
0.85494	2.62244	0.855253	2.62231	0.546576	8.38369	0.867864	12.3551	0.31975	4.88656	0.879223	3.65619	0.893782	12.7998
0.852622	2.62334	0.852936	2.62322	0.548487	8.2864	0.867998	12.1842	0.32203	4.84763	0.877082	3.66246	0.894895	12.6355
0.850296	2.62423	0.850611	2.62411	0.550397	8.19199	0.868139	12.0182	0.324315	4.80989	0.874932	3.66874	0.896013	12.4758
0.847961	2.62509	0.848277	2.62498	0.552307	8.10033	0.868285	11.8567	0.326602	4.7733	0.872775	3.67504	0.897134	12.3206
0.845617	2.62593	0.845935	2.62582	0.554216	8.0113	0.868439	11.6997	0.328892	4.7378	0.870608	3.68136	0.898259	12.1696
0.843266	2.62676	0.843585	2.62665	0.556124	7.92478	0.868599	11.5469	0.331184	4.70333	0.868434	3.6877	0.899387	12.0226
0.840906	2.62756	0.841226	2.62745	0.558031	7.84067	0.868767	11.3982	0.333477	4.66985	0.866253	3.69406	0.900519	11.8796
0.838539	2.62834	0.83886	2.62824	0.559936	7.75886	0.868941	11.2535	0.335772	4.63731	0.864064	3.70044	0.901653	11.7403
0.836164	2.62911	0.836487	2.629	0.561841	7.67926	0.869123	11.1125	0.338068	4.60566	0.861868	3.70685	0.90279	11.6046
0.833782	2.62985	0.834106	2.62975	0.563743	7.60178	0.869313	10.9751	0.340365	4.57487	0.859665	3.71328	0.903929	11.4724
0.831393	2.63058	0.831717	2.63048	0.565644	7.52632	0.86951	10.8413	0.342661	4.5449	0.857456	3.71975	0.905071	11.3434
0.828997	2.63129	0.829322	2.6312	0.567543	7.45282	0.869715	10.7108	0.344958	4.5157	0.855241	3.72624	0.906213	11.2177
0.826594	2.63199	0.82692	2.63189	0.569439	7.38118	0.869929	10.5836	0.347254	4.48725	0.85302	3.73276	0.907357	11.0951
0.824185	2.63266	0.824511	2.63257	0.571334	7.31134	0.870121	10.4754	0.349549	4.45951	0.850794	3.73931	0.908503	10.9754
0.821769	2.63333	0.822097	2.63324	0.573226	7.24323	0.870291	10.3849	0.351843	4.43245	0.848562	3.7459	0.909649	10.8586
0.819347	2.63397	0.819676	2.63389	0.575115	7.17678	0.870434	10.3113	0.354135	4.40604	0.846325	3.75253	0.910795	10.7446
0.816919	2.6346	0.817249	2.63452	0.577001	7.11192	0.87055	10.2539	0.356425	4.38025	0.844084	3.75919	0.911942	10.6331
0.814486	2.63522	0.814816	2.63514	0.578885	7.0486	0.870636	10.2122	0.358713	4.35506	0.841839	3.7659	0.912941	10.5381
0.812047	2.63582	0.812378	2.63574	0.580765	6.98677	0.870692	10.1856	0.360998	4.33044	0.839589	3.77265	0.913793	10.4587
0.809603	2.63641	0.809934	2.63633	0.582642	6.92635	0.870773	10.1477	0.363281	4.30636	0.837336	3.77944	0.914497	10.3939
0.807153	2.63699	0.807485	2.63691	0.584516	6.86731	0.870863	10.1069	0.36556	4.28281	0.83508	3.78628	0.915054	10.3434
0.804699	2.63755	0.805031	2.63748	0.586386	6.8096	0.870986	10.0519	0.367835	4.25976	0.832821	3.79316	0.915463	10.3066
0.802239	2.6381	0.802573	2.63803	0.588252	6.75315	0.871145	9.9832	0.370107	4.23719	0.830559	3.8001	0.915725	10.2832
0.799775	2.63864	0.800109	2.63857	0.590114	6.69794	0.871342	9.9015	0.372374	4.21509	0.828295	3.80709	0.916101	10.2497
0.797306	2.63917	0.797641	2.6391	0.591972	6.64392	0.87158	9.80747	0.374636	4.19342	0.826029	3.81414	0.91651	10.2136
0.794834	2.63969	0.795169	2.63962	0.593825	6.59104	0.871862	9.70191	0.376894	4.17218	0.823761	3.82124	0.917066	10.165
0.792357	2.6402	0.792692	2.64013	0.595674	6.53927	0.872153	9.59876	0.379147	4.15134	0.821492	3.8284	0.917769	10.1043
0.789875	2.64069	0.790212	2.64063	0.597518	6.48857	0.872455	9.49796	0.381394	4.13089	0.819222	3.83563	0.918618	10.0319
0.78739	2.64118	0.787727	2.64111	0.599358	6.4389	0.872766	9.39943	0.383635	4.11082	0.816952	3.84292	0.919613	9.94848
0.784902	2.64166	0.785239	2.64159	0.601192	6.39023	0.873088	9.30311	0.38587	4.09111	0.814681	3.85028	0.920752	9.85463
0.782409	2.64213	0.782747	2.64206	0.603021	6.34252	0.87342	9.20891	0.388099	4.07174	0.81241	3.8577	0.92189	9.76274
0.779913	2.64259	0.780252	2.64252	0.604845	6.29575	0.873763	9.11679	0.390321	4.0527	0.81014	3.8652	0.923026	9.67274
0.777414	2.64304	0.777753	2.64298	0.606663	6.24988	0.874117	9.02667	0.392536	4.03398	0.80787	3.87278	0.924159	9.58457
0.774912	2.64348	0.775251	2.64342	0.608475	6.20488	0.874482	8.9385	0.394744	4.01557	0.805601	3.88043	0.92529	9.49818
0.772406	2.64392	0.772746	2.64386	0.610282	6.16073	0.874858	8.85222	0.396944	3.99745	0.803334	3.88816	0.926418	9.41351
0.769897	2.64434	0.770237	2.64429	0.612082	6.1174	0.875245	8.76777	0.399136	3.97961	0.801068	3.89598	0.927542	9.3305
0.767386	2.64477	0.767726	2.64471	0.613876	6.07485	0.875644	8.68511	0.40132	3.96204	0.798804	3.90388	0.928663	9.24911
0.764871	2.64518	0.765212	2.64512	0.615664	6.03308	0.876055	8.60418	0.403496	3.94473	0.796543	3.91187	0.929781	9.16928
0.762354	2.64559	0.762695	2.64553	0.617445	5.99205	0.876477	8.52494	0.405663	3.92767	0.794285	3.91995	0.930894	9.09097
0.759835	2.64599	0.760176	2.64594	0.61922	5.95174	0.876912	8.44733	0.407822	3.91085	0.79203	3.92813	0.932004	9.01413
0.757312	2.64639	0.757654	2.64633	0.620987	5.91213	0.877359	8.37132	0.409971	3.89427	0.789778	3.93641	0.93311	8.93871
0.754788	2.64678	0.75513	2.64672	0.622748	5.8732	0.877818	8.29685	0.412111	3.8779	0.78753	3.94479	0.934211	8.86468
0.752261	2.64716	0.752604	2.64711	0.624501	5.83492	0.878291	8.22389	0.41424	3.86175	0.785287	3.95328	0.935308	8.79199
0.749732	2.64754	0.750075	2.64749	0.626247	5.79728	0.878776	8.1524	0.416361	3.8458	0.783048	3.96187	0.936399	8.7206
0.747201	2.64792	0.747544	2.64787	0.627985	5.76026	0.879274	8.08234	0.41847	3.83006	0.780814	3.97058	0.937486	8.65049
0.744667	2.64829	0.745011	2.64824	0.629716	5.72384	0.879785	8.01367	0.42057	3.8145	0.778585	3.9794	0.938568	8.5816
0.742132	2.64865	0.742476	2.6486	0.631439	5.68801	0.880309	7.94636	0.422658	3.79912	0.776362	3.98834	0.939645	8.51391
0.739595	2.64901	0.739939	2.64896	0.633154	5.65274	0.880848	7.88036	0.424736	3.78392	0.774145	3.9974	0.940716	8.44738
0.737056	2.64937	0.7374	2.64932	0.63486	5.61802	0.881399	7.81566	0.426803	3.76889	0.771934	4.00659	0.941782	8.38198
0.734515	2.64972	0.734859	2.64968	0.636559	5.58383	0.881965	7.7522	0.428859	3.75403	0.76973	4.01592	0.942842	8.31768
0.731972	2.65007	0.732317	2.65003	0.638249	5.55016	0.882544	7.68997	0.430903	3.73932	0.767533	4.02537	0.943897	8.25445
0.729428	2.65042	0.729773	2.65037	0.63993	5.517	0.883138	7.62894	0.432935	3.72476	0.765344	4.03497	0.944945	8.19226
0.726882	2.65076	0.727227	2.65072	0.641603	5.48432	0.883746	7.56906	0.434956	3.71035	0.763162	4.04471	0.945987	8.13109
0.724335	2.6511	0.72468	2.65106	0.643266	5.45213	0.884368	7.51033	0.436964	3.69608	0.760989	4.05459	0.947024	8.0709
0.721786	2.65144	0.722131	2.65139	0.644921	5.4204	0.885005	7.4527	0.43896	3.68194	0.758824	4.06463	0.948054	8.01167
0.719236	2.65177	0.719582	2.65173	0.646567	5.38911	0.885657	7.39615	0.440944	3.66794	0.756669	4.07482	0.949077	7.95338
0.716684	2.65211	0.71703	2.65206	0.648204	5.35827	0.886324	7.34066	0.442915	3.65406	0.754523	4.08518	0.950095	7.896
0.714132	2.65244	0.714478	2.65239	0.649831	5.32786	0.887005	7.28619	0.444874	3.64031	0.752386	4.0957	0.951105	7.8395
0.711578	2.65276	0.711924	2.65272	0.651449	5.29786	0.887702	7.23274	0.44682	3.62667	0.75026	4.10639	0.95211	7.78388
0.709022	2.65309	0.709369	2.65305	0.653057	5.26826	0.888414	7.18027	0.448753	3.61315	0.748145	4.11726	0.953107	7.72909
0.706466	2.65341	0.706812	2.65337	0.654656	5.23906	0.889141	7.12876	0.450673	3.59974	0.74604	4.1283	0.954098	7.67514
0.703909	2.65374	0.704255	2.65369	0.656245	5.21025	0.889883	7.07819	0.45258	3.58644	0.743947	4.13953	0.955082	7.62198
0.70135	2.65406	0.701697	2.65401	0.657824	5.18181	0.890641	7.02854	0.454473	3.57324	0.741866	4.15096	0.95606	7.56962
0.698791	2.65438	0.699138	2.65433	0.659393	5.15373	0.891415	6.97978	0.456354	3.56014	0.739796	4.16258	0.95703	7.51801
0.69623	2.65469	0.696577	2.65465	0.660952	5.12601	0.892204	6.9319	0.458221	3.54715	0.73774	4.1744	0.957994	7.46716
0.693669	2.65501	0.694016	2.65497	0.662501	5.09864	0.89301	6.88488	0.460075	3.53425	0.735696	4.18643	0.958951	7.41704
0.691107	2.65533	0.691454	2.65528	0.66404	5.07161	0.893831	6.83869	0.461915	3.52144	0.733666	4.19867	0.959901	7.36763
0.688544	2.65564	0.688891	2.6556	0.665569	5.04491	0.894668	6.79333	0.463742	3.50873	0.731649	4.21114	0.960845	7.31892
0.68598	2.65596	0.686327	2.65591	0.667087	5.01853	0.895521	6.74877	0.465556	3.4961	0.729647	4.22383	0.961782	7.27089
0.683416	2.65627	0.683763	2.65623	0.668595	4.99247	0.89639	6.70499	0.467356	3.48357	0.727659	4.23675	0.962712	7.22353
0.68085	2.65659	0.681198	2.65654	0.670093	4.96671	0.897275	6.66198	0.469143	3.47111	0.725686	4.24991	0.963635	7.17682
0.678285	2.6569	0.678632	2.65686	0.67158	4.94126	0.898177	6.61971	0.470916	3.45875	0.723728	4.26331	0.964551	7.13075
0.675718	2.65721	0.676066	2.65717	0.673057	4.9161	0.899094	6.57819	0.472676	3.44646	0.721786	4.27697	0.965461	7.0853
0.673151	2.65753	0.673499	2.65749	0.674524	4.89122	0.900028	6.53738	0.474423	3.43426	0.719861	4.29088	0.966364	7.04047
0.670583	2.65784	0.670931	2.6578	0.67598	4.86663	0.900978	6.49728	0.476157	3.42214	0.717951	4.30506	0.967261	6.99623
0.668015	2.65816	0.668363	2.65812	0.677425	4.84231	0.901945	6.45786	0.477878	3.41009	0.716059	4.31951	0.968151	6.95258
0.665447	2.65847	0.665795	2.65843	0.67886	4.81827	0.902927	6.41912	0.479586	3.39813	0.714184	4.33424	0.969035	6.90951
0.662878	2.65879	0.663226	2.65875	0.680284	4.79448	0.903926	6.38104	0.481281	3.38624	0.712327	4.34926	0.969913	6.867
0.660308	2.65911	0.660657	2.65906	0.681698	4.77096	0.904942	6.3436	0.482963	3.37443	0.710488	4.36458	0.970784	6.82504
0.657739	2.65943	0.658087	2.65938	0.683102	4.74768	0.905973	6.30679	0.484633	3.36269	0.708667	4.38019	0.97165	6.78362
0.655169	2.65975	0.655517	2.6597	0.684495	4.72466	0.907021	6.27061	0.48629	3.35103	0.706866	4.39612	0.972509	6.74273
0.652598	2.66007	0.652946	2.66002	0.685878	4.70188	0.908084	6.23503	0.487935	3.33945	0.705083	4.41237	0.973363	6.70237
0.650027	2.66039	0.650376	2.66035	0.68725	4.67933	0.909164	6.20004	0.489568	3.32794	0.70332	4.42894	0.97421	6.66251
0.647457	2.66071	0.647805	2.66067	0.688612	4.65702	0.910261	6.16564	0.49119	3.31651	0.701577	4.44585	0.975052	6.62315
0.644885	2.66104	0.645234	2.66099	0.689963	4.63494	0.911373	6.13181	0.492799	3.30515	0.699854	4.4631	0.975889	6.58429
0.642314	2.66137	0.642663	2.66132	0.691305	4.61309	0.912501	6.09853	0.494397	3.29386	0.698152	4.4807	0.97672	6.54591
0.639743	2.6617	0.640091	2.66165	0.692636	4.59145	0.913645	6.06579	0.495984	3.28265	0.69647	4.49867	0.977546	6.508
0.637171	2.66203	0.63752	2.66199	0.693957	4.57004	0.914805	6.0336	0.49756	3.27151	0.69481	4.51701	0.978367	6.47056
0.6346	2.66237	0.634948	2.66232	0.695268	4.54883	0.91598	6.00192	0.499125	3.26045	0.693172	4.53572	0.979183	6.43357
0.632028	2.6627	0.632377	2.66266	0.696569	4.52784	0.917172	5.97076	0.500679	3.24946	0.691555	4.55483	0.979994	6.39704
0.629456	2.66304	0.629805	2.663	0.69786	4.50705	0.918378	5.9401	0.502224	3.23855	0.689961	4.57434	0.9808	6.36095
0.626885	2.66339	0.627233	2.66334	0.699141	4.48647	0.919601	5.90993	0.503758	3.22771	0.688389	4.59426	0.981602	6.32529
0.624313	2.66373	0.624662	2.66369	0.700413	4.46608	0.920838	5.88025	0.505282	3.21695	0.686839	4.61459	0.9824	6.29006
0.621742	2.66408	0.62209	2.66404	0.701675	4.4459	0.922091	5.85103	0.506797	3.20626	0.685313	4.63536	0.983194	6.25525
0.619171	2.66444	0.619519	2.66439	0.702928	4.4259	0.923359	5.82228	0.508303	3.19565	0.68381	4.65656	0.983984	6.22085
0.6166	2.6648	0.616948	2.66475	0.704171	4.4061	0.924642	5.79398	0.5098	3.18512	0.682331	4.67822	0.98477	6.18686
0.614029	2.66516	0.614377	2.66511	0.705406	4.38648	0.925939	5.76612	0.511288	3.17466	0.680875	4.70033	0.985552	6.15328
0.611458	2.66552	0.611806	2.66547	0.706631	4.36705	0.927251	5.7387	0.512768	3.16428	0.679443	4.72292	0.986331	6.12008
0.608888	2.66589	0.609236	2.66584	0.707847	4.34781	0.928578	5.7117	0.51424	3.15398	0.678035	4.746	0.987107	6.08728
0.606318	2.66627	0.606666	2.66622	0.709054	4.32874	0.929919	5.68512	0.515705	3.14376	0.676652	4.76957	0.98788	6.05485
0.603748	2.66665	0.604096	2.6666	0.710253	4.30985	0.931275	5.65895	0.517162	3.13361	0.675293	4.79364	0.988651	6.02281
0.601179	2.66703	0.601527	2.66698	0.711443	4.29114	0.932644	5.63317	0.518611	3.12354	0.673959	4.81824	0.989418	5.99113
0.59861	2.66742	0.598958	2.66737	0.712625	4.2726	0.934027	5.60779	0.520054	3.11356	0.672649	4.84336	0.990183	5.95982
0.596041	2.66782	0.596389	2.66777	0.713799	4.25423	0.935424	5.58279	0.521491	3.10365	0.671364	4.86903	0.990947	5.92887
0.593474	2.66822	0.593821	2.66817	0.714965	4.23603	0.936834	5.55816	0.522921	3.09382	0.670105	4.89526	0.991708	5.89827
0.590906	2.66863	0.591254	2.66857	0.716122	4.218	0.938257	5.53391	0.524346	3.08408	0.66887	4.92206	0.992467	5.86803
0.588339	2.66904	0.588687	2.66899	0.717273	4.20013	0.939693	5.51001	0.525765	3.07441	0.667661	4.94943	0.993225	5.83813
0.585773	2.66946	0.586121	2.66941	0.718415	4.18243	0.941143	5.48646	0.527178	3.06483	0.666477	4.97741	0.993981	5.80857
0.583208	2.66989	0.583556	2.66983	0.71955	4.16489	0.942604	5.46327	0.528587	3.05533	0.665319	5.00599	0.994737	5.77934
0.580643	2.67033	0.580991	2.67027	0.720678	4.14751	0.944079	5.4404	0.529991	3.04591	0.664185	5.0352	0.995491	5.75045
0.578079	2.67077	0.578427	2.67071	0.721799	4.13028	0.945565	5.41787	0.531391	3.03657	0.663077	5.06505	0.996245	5.72188
0.575516	2.67122	0.575864	2.67116	0.722914	4.11322	0.947064	5.39567	0.532786	3.02731	0.661995	5.09555	0.996998	5.69364
0.572954	2.67168	0.573301	2.67162	0.724021	4.09631	0.948574	5.37378	0.534178	3.01814	0.660938	5.12672	0.997752	5.66571
0.570393	2.67215	0.57074	2.67208	0.725123	4.07955	0.950096	5.3522	0.535567	3.00905	0.659906	5.15857	0.998505	5.6381
0.567833	2.67262	0.568179	2.67256	0.726218	4.06294	0.951629	5.33092	0.536952	3.00005	0.6589	5.19112	0.999258	5.6108
0.565273	2.67311	0.56562	2.67304	0.727307	4.04648	0.953173	5.30995	0.538335	2.99113	0.657919	5.22439	1.00001	5.5838
0.562715	2.6736	0.563062	2.67354	0.72839	4.03018	0.954728	5.28926	0.539715	2.98229	0.656963	5.25838		
0.560158	2.67411	0.560505	2.67404	0.729467	4.01402	0.956294	5.26886	0.541092	2.97353	0.656032	5.29313		
0.557603	2.67463	0.557949	2.67456	0.730539	3.998	0.95787	5.24874	0.542468	2.96487	0.655126	5.32865		
0.555048	2.67516	0.555394	2.67508	0.731605	3.98213	0.959456	5.22889	0.543842	2.95628	0.654245	5.36495		
0.552495	2.6757	0.552841	2.67562	0.732667	3.96641	0.961052	5.20932	0.545214	2.94778	0.653389	5.40205		
0.549943	2.67625	0.550289	2.67617	0.733724	3.95082	0.962658	5.19	0.546585	2.93937	0.652558	5.43997		
0.547393	2.67681	0.547739	2.67673	0.734776	3.93538	0.964273	5.17094	0.547955	2.93103	0.651751	5.47874		
0.544845	2.67739	0.54519	2.67731	0.735823	3.92008	0.965898	5.15213	0.549325	2.92279	0.650969	5.51837		
0.542298	2.67798	0.542643	2.6779	0.736866	3.90492	0.967531	5.13357	0.550694	2.91463	0.650211	5.55888		
0.539753	2.67859	0.540098	2.6785	0.737905	3.88989	0.969173	5.11525	0.552063	2.90655	0.649477	5.60029		
0.537209	2.67921	0.537554	2.67912	0.73894	3.875	0.970823	5.09716	0.553432	2.89856	0.648767	5.64263		
0.534668	2.67985	0.535012	2.67976	0.739972	3.86025	0.972482	5.07931	0.554801	2.89065	0.648081	5.68592		
0.532129	2.6805	0.532473	2.68041	0.740999	3.84563	0.974148	5.06168	0.556171	2.88283	0.647418	5.73018		
0.529591	2.68117	0.529935	2.68108	0.742024	3.83114	0.975823	5.04428	0.557542	2.87509	0.646778	5.77543		
0.527056	2.68186	0.5274	2.68177	0.743045	3.81679	0.977504	5.02708	0.558913	2.86743	0.646162	5.8217		
0.524524	2.68257	0.524867	2.68247	0.744064	3.80256	0.979193	5.01011	0.560286	2.85986	0.645568	5.86902		
0.521993	2.6833	0.522336	2.6832	0.745079	3.78847	0.980889	4.99334	0.56166	2.85237	0.644997	5.91741		
0.519466	2.68405	0.519808	2.68394	0.746092	3.7745	0.982591	4.97677	0.563036	2.84497	0.644448	5.9669		
0.516941	2.68482	0.517283	2.68471	0.747103	3.76067	0.9843	4.9604	0.564414	2.83765	0.643922	6.01752		
0.514419	2.68561	0.51476	2.6855	0.748111	3.74696	0.986015	4.94422	0.565793	2.83041	0.643417	6.0693		
0.5119	2.68643	0.512241	2.68632	0.749118	3.73337	0.987735	4.92824	0.567175	2.82326	0.642934	6.12226		
0.509384	2.68727	0.509724	2.68716	0.750122	3.71991	0.989462	4.91244	0.56856	2.81619	0.642472	6.17645		
0.506871	2.68814	0.507211	2.68802	0.751125	3.70658	0.991194	4.89682	0.569947	2.8092	0.642032	6.23189		
0.504362	2.68904	0.504701	2.68891	0.752127	3.69337	0.992931	4.88138	0.571337	2.80229	0.641612	6.28861		
0.501856	2.68996	0.502195	2.68984	0.753127	3.68028	0.994673	4.86612	0.57273	2.79547	0.641213	6.34665		
0.499354	2.69092	0.499693	2.69079	0.754126	3.66731	0.99642	4.85103	0.574126	2.78873	0.640834	6.40605		
0.496856	2.69191	0.497195	2.69177	0.755124	3.65446	0.998171	4.8361	0.575525	2.78206	0.640475	6.46685		
0.494363	2.69293	0.4947	2.69279	0.756121	3.64174	0.999926	4.82134	0.576928	2.77548	0.640135	6.52909		
0.491874	2.69399	0.492211	2.69384	0.757118	3.62913	1.00169	4.80674	0.578335	2.76898	0.639815	6.5928		
0.489389	2.69508	0.489726	2.69493	0.758114	3.61664			0.579746	2.76256	0.639514	6.65803		
0.48691	2.69622	0.487245	2.69606	0.75911	3.60426			0.58116	2.75622	0.639232	6.72483		
0.484435	2.69739	0.48477	2.69723	0.760106	3.592			0.582579	2.74996	0.638969	6.79324		
0.481966	2.69861	0.4823	2.69844	0.761102	3.57986			0.584002	2.74378	0.638723	6.8633		
0.479503	2.69988	0.479836	2.6997	0.762098	3.56783			0.58543	2.73767	0.638495	6.93508		
0.477046	2.70119	0.477378	2.70101	0.763094	3.55591			0.586862	2.73165	0.638285	7.00862		
0.474595	2.70255	0.474927	2.70237	0.764091	3.54411			0.5883	2.7257	0.638092	7.08398		
0.472151	2.70397	0.472482	2.70378	0.765089	3.53242			0.589742	2.71983	0.637916	7.16121		
0.469714	2.70545	0.470044	2.70524	0.766087	3.52083			0.591189	2.71404	0.637757	7.24038		
0.467284	2.70698	0.467613	2.70677	0.767087	3.50936			0.592642	2.70833	0.637614	7.32155		
0.464862	2.70858	0.46519	2.70836	0.768087	3.498			0.5941	2.70269	0.637487	7.40478		
0.462449	2.71025	0.462775	2.71002	0.769089	3.48675			0.595564	2.69712	0.637376	7.49014		
0.460044	2.71199	0.46037	2.71175	0.770092	3.4756			0.597033	2.69164	0.63728	7.57771		
0.457649	2.7138	0.457973	2.71355	0.771097	3.46456			0.598508	2.68623	0.637199	7.66756		
0.455263	2.71569	0.455586	2.71543	0.772103	3.45363			0.599989	2.68089	0.637133	7.75976		
0.452888	2.71767	0.453209	2.7174	0.773111	3.4428			0.601477	2.67563	0.637081	7.85441		
0.450523	2.71974	0.450843	2.71945	0.774121	3.43207			0.602971	2.67044	0.637043	7.95159		
0.44817	2.7219	0.448488	2.7216	0.775133	3.42145			0.604471	2.66533	0.637019	8.05139		
0.445829	2.72416	0.446145	2.72385	0.776148	3.41093			0.605978	2.66029	0.637008	8.1539		
0.443501	2.72653	0.443816	2.7262	0.777164	3.40052			0.607492	2.65532	0.63701	8.25923		
0.441186	2.72901	0.441499	2.72866	0.778184	3.3902			0.609012	2.65043	0.637026	8.36749		
0.438886	2.73161	0.439196	2.73125	0.779205	3.37998			0.61054	2.64561	0.637053	8.47878		
0.4366	2.73433	0.436909	2.73395	0.78023	3.36987			0.612075	2.64087	0.637093	8.59322		
0.434331	2.73719	0.434637	2.7368	0.781257	3.35985			0.613618	2.63619	0.637144	8.71094		
0.432078	2.74019	0.432382	2.73978	0.782287	3.34993			0.615168	2.63159	0.637207	8.83207		
0.429842	2.74335	0.430144	2.74291	0.78332	3.34011			0.616726	2.62707	0.637281	8.95674		
0.427625	2.74666	0.427924	2.7462	0.784357	3.33039			0.618293	2.62261	0.637365	9.08511		
0.425428	2.75014	0.425724	2.74965	0.785397	3.32076			0.619867	2.61823	0.63746	9.21733		
0.42325	2.75379	0.423544	2.75329	0.78644	3.31122			0.62145	2.61392	0.637551	9.33581		
0.421095	2.75764	0.421386	2.7571	0.787486	3.30178			0.623042	2.60968	0.637635	9.4393		
0.418962	2.76168	0.419249	2.76112	0.788537	3.29244			0.624643	2.60552	0.637708	9.52667		
0.416852	2.76593	0.417136	2.76534	0.789591	3.28318			0.626253	2.60142	0.637768	9.59693		
0.414766	2.77041	0.415048	2.76979	0.790648	3.27402			0.627873	2.5974	0.637814	9.64927		
0.412707	2.77511	0.412984	2.77446	0.79171	3.26495			0.629502	2.59346	0.637857	9.69794		
0.410674	2.78006	0.410948	2.77938	0.792776	3.25597			0.631141	2.58959	0.637887	9.73208		
0.408669	2.78527	0.408939	2.78455	0.793846	3.24709			0.632791	2.58579	0.637936	9.78594		
0.406692	2.79074	0.406958	2.78998	0.79492	3.23829			0.634452	2.58206	0.638004	9.86015		
0.404746	2.7965	0.405008	2.7957	0.795998	3.22957			0.636123	2.57842	0.638092	9.95566		
0.40283	2.80255	0.403088	2.80171	0.797081	3.22095			0.637807	2.57484	0.638204	10.0737		
0.400946	2.80891	0.401199	2.80803	0.798168	3.21242			0.639502	2.57135	0.63834	10.2158		
0.399095	2.81558	0.399344	2.81466	0.79926	3.20397			0.641209	2.56793	0.638504	10.3839		
0.397277	2.82259	0.397521	2.82162	0.800357	3.1956			0.64293	2.56459	0.638675	10.5577		
0.395494	2.82995	0.395733	2.82893	0.801459	3.18733			0.644663	2.56133	0.638853	10.7375		
0.393745	2.83766	0.39398	2.83659	0.802565	3.17913			0.646411	2.55815	0.639039	10.9235		
0.392032	2.84574	0.392262	2.84463	0.803676	3.17103			0.648173	2.55505	0.63923	11.116		
0.390356	2.85421	0.390581	2.85304	0.804793	3.163			0.64995	2.55203	0.639428	11.3154		
0.388716	2.86307	0.388936	2.86185	0.805914	3.15506			0.651743	2.5491	0.639631	11.5221		
0.387113	2.87234	0.387328	2.87106	0.807041	3.1472			0.653551	2.54626	0.639839	11.7364		
0.385548	2.88202	0.385758	2.88068	0.808174	3.13942			0.655377	2.5435	0.640053	11.9588		
0.38402	2.89213	0.384225	2.89074	0.809311	3.13172			0.657221	2.54084	0.640271	12.1898		
0.38253	2.90269	0.38273	2.90123	0.810454	3.1241			0.659083	2.53826	0.640493	12.4297		
0.381078	2.91369	0.381272	2.91217	0.811603	3.11657			0.660965	2.53578	0.64072	12.6792		
0.379664	2.92515	0.379853	2.92357	0.812758	3.10911			0.662866	2.53339	0.64095	12.9388		
0.378287	2.93709	0.378471	2.93544	0.813918	3.10173			0.664788	2.53111	0.641183	13.209		
0.376948	2.9495	0.377127	2.94779	0.815084	3.09443			0.666731	2.52891	0.641419	13.4907		
0.375646	2.9624	0.375821	2.96062	0.816256	3.0872			0.668697	2.52682	0.641657	13.7845		
0.374382	2.97581	0.374551	2.97396	0.817434	3.08005			0.670686	2.52484	0.641898	14.0912		
0.373155	2.98972	0.373319	2.9878	0.818618	3.07298			0.672698	2.52295	0.64214	14.4116		
0.371964	3.00415	0.372123	3.00216	0.819809	3.06599			0.674735	2.52117	0.642384	14.7467		
0.370809	3.01911	0.370964	3.01705	0.821006	3.05907			0.676796	2.5195	0.642629	15.0976		
0.369691	3.03461	0.36984	3.03248	0.822209	3.05223			0.678883	2.51793	0.642875	15.4652		
0.368608	3.05067	0.368752	3.04846	0.823418	3.04546			0.680995	2.51647	0.643121	15.8509		
0.36756	3.06728	0.3677	3.06499	0.824635	3.03876			0.683133	2.51511	0.643366	16.2561		
0.366547	3.08446	0.366682	3.0821	0.825857	3.03214			0.685297	2.51386	0.643612	16.6821		
0.365568	3.10223	0.365698	3.09978	0.827087	3.02559			0.687486	2.51271	0.643857	17.1307		
0.364623	3.12058	0.364749	3.11806	0.828323	3.01911			0.689701	2.51166	0.6441	17.6037		
0.363712	3.13955	0.363833	3.13694	0.829567	3.0127			0.691942	2.51071	0.644343	18.1031		
0.362834	3.15913	0.362951	3.15644	0.830817	3.00637			0.694207	2.50986	0.644583	18.6313		
0.361989	3.17934	0.362101	3.17657	0.832074	3.00011			0.696496	2.5091	0.644821	19.1906		
0.361176	3.2002	0.361284	3.19734	0.833339	2.99391			0.698809	2.50844	0.645057	19.7841		
0.360395	3.22172	0.360499	3.21876	0.834611	2.98779			0.701145	2.50785	0.64529	20.4149		
0.359646	3.2439	0.359746	3.24086	0.83589	2.98174			0.703502	2.50735	0.64552	21.0866		
0.358929	3.26678	0.359024	3.26364	0.837177	2.97576			0.705881	2.50693	0.645746	21.8034		
0.358242	3.29036	0.358333	3.28713	0.838471	2.96984			0.708279	2.50658	0.645968	22.57		
0.357587	3.31466	0.357674	3.31133	0.839774	2.964			0.710697	2.5063	0.646187	23.3916		
0.356962	3.3397	0.357044	3.33627	0.841083	2.95822			0.713132	2.50609	0.6464	24.2746		
0.356367	3.3655	0.356445	3.36196	0.842401	2.95252			0.715585	2.50594	0.646609	25.226		
0.355802	3.39207	0.355876	3.38842	0.843727	2.94688			0.718053	2.50584	0.646813	26.2541		
0.355266	3.41944	0.355337	3.41568	0.845061	2.9413			0.720537	2.5058	0.647012	27.3687		
0.35476	3.44762	0.354827	3.44375	0.846403	2.9358			0.723034	2.5058	0.647204	28.581		
0.354283	3.47664	0.354346	3.47265	0.847754	2.93036			0.725545	2.50586	0.647391	29.9046		
0.353835	3.50651	0.353894	3.50241	0.849113	2.92498			0.728069	2.50595	0.647572	31.3555		
0.353416	3.53727	0.353471	3.53305	0.850481	2.91968			0.730603	2.50608	0.647745	32.9532		
0.353026	3.56894	0.353077	3.5646	0.851857	2.91444			0.733149	2.50625	0.647912	34.7211		
0.352663	3.60154	0.352711	3.59707	0.853242	2.90926			0.735704	2.50645	0.648072	36.6879		
0.352329	3.6351	0.352372	3.6305	0.854636	2.90415			0.738269	2.50669	0.648225	38.8894		
0.352022	3.66965	0.352062	3.66491	0.85604	2.89911			0.740843	2.50695	0.64837	41.3702		
0.351744	3.70522	0.35178	3.70034	0.857452	2.89413			0.743425	2.50723	0.648507	44.1871		
0.351492	3.74183	0.351525	3.73681	0.858874	2.88922			0.746014	2.50754	0.648637	47.4137		
0.351268	3.77952	0.351297	3.77435	0.860306	2.88437			0.74861	2.50787	0.648758	51.1464		
0.351072	3.81833	0.351097	3.81301	0.861747	2.87959			0.751213	2.50822	0.648871	55.5145		
0.350902	3.85828	0.350924	3.8528	0.863198	2.87487			0.753822	2.50859	0.648975	60.6956		
0.350759	3.89942	0.350777	3.89377	0.864659	2.87021			0.756437	2.50898	0.64907	66.9402		
0.350643	3.94177	0.350658	3.93596	0.86613	2.86562			0.759057	2.50938	0.649157	74.6136		
0.350554	3.98539	0.350564	3.9794	0.867612	2.86109			0.761682	2.50979	0.649234	84.2699		
0.350491	4.03031	0.350498	4.02414	0.869104	2.85663			0.764312	2.51022	0.649303	96.7924		
0.350454	4.07658	0.350457	4.07023	0.870607	2.85223			0.766946	2.51065	0.649362	113.68		
0.350443	4.12423	0.350443	4.11769	0.872121	2.8479			0.769583	2.5111	0.649412	137.7		
0.350458	4.17333	0.350455	4.16659	0.873645	2.84363			0.772225	2.51156	0.649452	174.578		
0.350499	4.22392	0.350492	4.21697	0.875181	2.83942			0.77487	2.51202	0.649483	238.421		
0.350566	4.27604	0.350555	4.26889	0.876729	2.83528			0.777519	2.5125	0.649505	375.853		
0.350658	4.32977	0.350644	4.3224	0.878287	2.8312			0.78017	2.51298	0.649516	887.249		
0.350775	4.38515	0.350758	4.37755	0.879858	2.82719			0.782824	2.51346				
0.350918	4.44225	0.350897	4.43441	0.881441	2.82324			0.785481	2.51396				
0.351085	4.50112	0.351061	4.49304	0.883036	2.81935			0.788141	2.51445				
0.351278	4.56185	0.35125	4.55351	0.884643	2.81553			0.790803	2.51495				
0.351495	4.62448	0.351464	4.61588	0.886264	2.81178			0.793467	2.51546				
0.351737	4.68912	0.351703	4.68024	0.887897	2.80808			0.796133	2.51596				
0.352004	4.75582	0.351966	4.74665	0.889543	2.80445			0.798801	2.51647				
0.352256	4.81569	0.352254	4.81521	0.891202	2.80089			0.801471	2.51699				
0.352485	4.86807	0.352565	4.886	0.892875	2.79739			0.804142	2.5175				
0.352685	4.91234	0.352901	4.9591	0.894561	2.79396			0.806815	2.51802				
0.352849	4.94797	0.35326	5.03462	0.896262	2.79059			0.80949	2.51854				
0.352973	4.97452	0.353644	5.11265	0.897976	2.78728			0.812166	2.51906				
0.35309	4.99923	0.35405	5.19332	0.899705	2.78404			0.814843	2.51958				
0.353173	5.01658	0.35448	5.27672	0.901449	2.78086			0.817522	2.5201				
0.353306	5.04394	0.354934	5.36298	0.903207	2.77775			0.820202	2.52062				
0.35349	5.08167	0.35541	5.45224	0.90498	2.77471			0.822882	2.52114				
0.353732	5.13027	0.35591	5.54462	0.906768	2.77173			0.825564	2.52166				
0.354035	5.19037	0.356432	5.64027	0.908572	2.76881			0.828247	2.52218				
0.354408	5.26281	0.356976	5.73934	0.910391	2.76596			0.830931	2.5227				
0.354858	5.34859	0.357543	5.84201	0.912225	2.76317			0.833615	2.52322				
0.35533	5.43734	0.358132	5.94845	0.914076	2.76044			0.8363	2.52374				
0.355826	5.5292	0.358744	6.05883	0.915942	2.75778			0.838986	2.52426				
0.356344	5.6243	0.359377	6.17337	0.917824	2.75519			0.841673	2.52478				
0.356885	5.7228	0.360031	6.29228	0.919722	2.75266			0.84436	2.52529				
0.357448	5.82487	0.360708	6.41578	0.921636	2.75019			0.847048	2.52581				
0.358034	5.93067	0.361405	6.54412	0.923566	2.74778			0.849736	2.52632				
0.358641	6.04039	0.362124	6.67757	0.925513	2.74544			0.852425	2.52683				
0.359271	6.15424	0.362863	6.8164	0.927475	2.74315			0.855114	2.52734				
0.359922	6.27241	0.363624	6.96092	0.929454	2.74093			0.857804	2.52785				
0.360595	6.39514	0.364405	7.11147	0.931449	2.73877			0.860494	2.52836				
0.361289	6.52267	0.365206	7.26838	0.93346	2.73667			0.863185	2.52886				
0.362004	6.65525	0.366027	7.43206	0.935487	2.73462			0.865875	2.52937				
0.36274	6.79318	0.366869	7.6029	0.937529	2.73264			0.868567	2.52987				
0.363497	6.93675	0.36773	7.78137	0.939588	2.73071			0.871258	2.53036				
0.364275	7.08628	0.36861	7.96794	0.941662	2.72884			0.87395	2.53086				
0.365073	7.24212	0.369511	8.16315	0.943751	2.72702			0.876642	2.53135				
0.365891	7.40465	0.37043	8.36758	0.945856	2.72526			0.879334	2.53185				
0.366729	7.57429	0.371246	8.55373	0.947976	2.72355			0.882026	2.53234				
0.367587	7.75147	0.371954	8.71867	0.95011	2.72189			0.884718	2.53282				
0.368464	7.93667	0.372547	8.85962	0.952259	2.72029			0.887411	2.53331				
0.369361	8.13042	0.37302	8.97413	0.954422	2.71873			0.890104	2.53379				
0.370277	8.33329	0.373371	9.06011	0.956599	2.71723			0.892797	2.53427				
0.371212	8.5459	0.373696	9.14058	0.95879	2.71577			0.895489	2.53475				
0.372166	8.76894	0.373923	9.19736	0.960995	2.71435			0.898182	2.53522				
0.373139	9.00314	0.37428	9.2874	0.963212	2.71298			0.900875	2.53569				
0.37413	9.24933	0.374769	9.41253	0.965442	2.71166			0.903568	2.53616				
0.375139	9.50841	0.375394	9.57536	0.967685	2.71037			0.906261	2.53663				
0.376166	9.78137	0.376159	9.77943	0.969939	2.70913			0.908954	2.5371				
0.377211	10.0693	0.377068	10.0294	0.972206	2.70793			0.911647	2.53756				
0.378273	10.3735	0.378128	10.3313	0.974483	2.70676			0.91434	2.53802				
0.379352	10.6952	0.379205	10.6506	0.976772	2.70563			0.917033	2.53847				
0.380449	11.0361	0.380299	10.9887	0.979072	2.70454			0.919726	2.53893				
0.381562	11.3977	0.38141	11.3474	0.981382	2.70349			0.922418	2.53938				
0.382692	11.7819	0.382538	11.7285	0.983703	2.70246			0.925111	2.53983				
0.383838	12.1911	0.383682	12.1341	0.986033	2.70147			0.927803	2.54027				
0.385001	12.6275	0.384842	12.5666	0.988372	2.70051			0.930495	2.54071				
0.386179	13.0939	0.386018	13.0288	0.990721	2.69958			0.933188	2.54115				
0.387373	13.5934	0.38721	13.5237	0.993079	2.69868			0.93588	2.54159				
0.388582	14.1297	0.388417	14.0547	0.995445	2.69781			0.938571	2.54203				
0.389806	14.7069	0.38964	14.6261	0.997819	2.69696			0.941263	2.54246				
0.391046	15.3297	0.390877	15.2424	1.0002	2.69614			0.943955	2.54289				
0.392299	16.0037	0.392128	15.9092					0.946646	2.54331				
0.393567	16.7354	0.393394	16.6326					0.949337	2.54373				
0.394849	17.5325	0.394674	17.4203					0.952028	2.54415				
0.396144	18.4039	0.395967	18.2811					0.954718	2.54457				
0.397452	19.3606	0.397274	19.2255					0.957408	2.54499				
0.398773	20.4154	0.398593	20.2662					0.960098	2.5454				
0.400106	21.5843	0.399925	21.4186					0.962788	2.54581				
0.401451	22.8866	0.401268	22.7015					0.965478	2.54621				
0.402807	24.3464	0.402622	24.1383					0.968167	2.54661				
0.404173	25.9938	0.403988	25.7583					0.970856	2.54701				
0.405549	27.8675	0.405362	27.5987					0.973544	2.54741				
0.406934	30.017	0.406746	29.7074					0.976232	2.5478				
0.408326	32.5081	0.408137	32.1476					0.97892	2.5482				
0.409723	35.4287	0.409534	35.0039					0.981608	2.54858				
0.411125	38.9003	0.410935	38.392					0.984295	2.54897				
0.412527	43.0943	0.412337	42.4756					0.986981	2.54935				
0.413926	48.2621	0.413737	47.4927					0.989668	2.54973				
0.415318	54.7868	0.41513	53.8041					0.992354	2.5501				
0.416693	63.283	0.416508	61.9845					0.995039	2.55048				
0.41804	74.8026	0.417859	73.0073					0.997724	2.55085				
0.419338	91.3085	0.419166	88.6654					1.00041	2.55121				
0.420557	116.934	0.420398	112.663										
0.421642	162.139	0.421506	154.09										
0.422505	263.329	0.422406	242.841										
0.423021	695.243	0.422977	568.969										
