Sym0		Asym0		Sym1		Sym2		Sym3		Asym1		Asym2		Asym3	
423  Points		432  Points		422  Points		385  Points		338  Points		432  Points		393  Points		268  Points	
Freq (MHz)	Vph (m/ms)	Freq (MHz)	Vph (m/ms)	Freq (MHz)	Vph (m/ms)	Freq (MHz)	Vph (m/ms)	Freq (MHz)	Vph (m/ms)	Freq (MHz)	Vph (m/ms)	Freq (MHz)	Vph (m/ms)	Freq (MHz)	Vph (m/ms)
1.00252	2.41373	0.216532	253.475	1.00002	2.41304	0.433027	589.539	0.866021	5814.46	0.216527	282.799	1.00176	2.5947	0.649521	2969.6
0.9998	2.41298	0.216627	117.078	0.997304	2.41228	0.433092	250.264	0.865793	756.173	0.216616	122.959	0.99912	2.59457	0.649579	534.744
0.997086	2.41222	0.216791	76.1659	0.99459	2.41153	0.433209	158.884	0.86525	404.135	0.216774	78.6065	0.996483	2.59443	0.649717	293.887
0.994372	2.41147	0.217025	56.4827	0.991877	2.41077	0.433377	116.418	0.864461	275.568	0.217001	57.8095	0.993848	2.59429	0.649935	202.674
0.991659	2.41071	0.217327	44.9176	0.989165	2.41002	0.433598	91.8909	0.863498	208.926	0.217297	45.7492	0.991214	2.59416	0.650231	154.713
0.988947	2.40996	0.217697	37.3129	0.986454	2.40926	0.433869	75.9224	0.862417	168.143	0.217662	37.882	0.988581	2.59404	0.650603	125.144
0.986236	2.4092	0.218135	31.9359	0.983744	2.4085	0.434191	64.7017	0.861255	140.611	0.218093	32.3494	0.985951	2.59391	0.651049	105.095
0.983526	2.40844	0.218639	27.936	0.981035	2.40774	0.434564	56.3879	0.860039	120.773	0.218591	28.2497	0.983322	2.59379	0.651566	90.61
0.980818	2.40768	0.219208	24.8466	0.978328	2.40698	0.434985	49.9827	0.858786	105.799	0.219155	25.0926	0.980696	2.59368	0.652152	79.6579
0.97811	2.40692	0.219841	22.3906	0.975621	2.40621	0.435455	44.8981	0.857507	94.0955	0.219782	22.5884	0.978072	2.59357	0.652804	71.0888
0.975404	2.40615	0.220537	20.3927	0.972916	2.40545	0.435973	40.7651	0.856212	84.6965	0.220472	20.5552	0.97545	2.59347	0.653518	64.2028
0.972698	2.40539	0.221294	18.737	0.970212	2.40469	0.436537	37.3403	0.854907	76.9825	0.221224	18.8727	0.972831	2.59338	0.654291	58.5496
0.969994	2.40463	0.222111	17.3436	0.967509	2.40392	0.437147	34.4568	0.853594	70.5378	0.222036	17.4585	0.970216	2.59329	0.65512	53.8263
0.967292	2.40386	0.222987	16.1555	0.964808	2.40316	0.437802	31.9964	0.852278	65.073	0.222907	16.254	0.967604	2.59321	0.656003	49.8216
0.96459	2.4031	0.22392	15.1312	0.962108	2.40239	0.4385	29.8729	0.850961	60.3806	0.223835	15.2165	0.964995	2.59314	0.656934	46.3837
0.961891	2.40233	0.224907	14.2395	0.959409	2.40163	0.439241	28.022	0.849644	56.3077	0.224817	14.3141	0.962391	2.59309	0.657913	43.4006
0.959192	2.40157	0.225949	13.4568	0.956712	2.40086	0.440023	26.3947	0.84833	52.7394	0.225854	13.5225	0.959791	2.59304	0.658935	40.7881
0.956495	2.4008	0.227042	12.7647	0.954016	2.4001	0.440845	24.9532	0.847019	49.5874	0.226942	12.823	0.957195	2.593	0.659999	38.4814
0.9538	2.40004	0.228185	12.1487	0.951322	2.39933	0.441707	23.6676	0.845713	46.7829	0.228081	12.2007	0.954605	2.59298	0.6611	36.43
0.951106	2.39927	0.229376	11.5971	0.94863	2.39857	0.442606	22.5142	0.844412	44.2717	0.229268	11.6438	0.952019	2.59297	0.662238	34.5939
0.948414	2.3985	0.230614	11.1007	0.945939	2.3978	0.443541	21.4738	0.843116	42.01	0.230502	11.1428	0.94944	2.59298	0.663409	32.9412
0.945723	2.39774	0.231896	10.6517	0.94325	2.39704	0.444512	20.5308	0.841828	39.9625	0.231781	10.6899	0.946867	2.59301	0.664611	31.4456
0.943034	2.39698	0.233222	10.244	0.940563	2.39627	0.445517	19.6722	0.840547	38.1002	0.233102	10.2787	0.9443	2.59305	0.665842	30.0861
0.940347	2.39621	0.234589	9.87209	0.937877	2.39551	0.446555	18.8873	0.839273	36.3992	0.234465	9.90383	0.941741	2.59312	0.6671	28.8447
0.937661	2.39545	0.235995	9.53174	0.935194	2.39475	0.447624	18.1672	0.838008	34.8393	0.235868	9.56083	0.939189	2.5932	0.668384	27.707
0.934978	2.39469	0.237438	9.21917	0.932512	2.39399	0.448724	17.5043	0.836751	33.4038	0.237308	9.24593	0.936646	2.59331	0.669691	26.6604
0.932296	2.39393	0.238918	8.93124	0.929832	2.39323	0.449852	16.892	0.835503	32.0785	0.238785	8.95592	0.934112	2.59345	0.67102	25.6945
0.929617	2.39317	0.240433	8.66521	0.927155	2.39247	0.451009	16.3248	0.834264	30.8511	0.240297	8.68805	0.931587	2.59361	0.67237	24.8003
0.926939	2.39241	0.24198	8.41875	0.924479	2.39171	0.452193	15.7981	0.833035	29.7113	0.241841	8.43994	0.929073	2.59381	0.673738	23.9702
0.924264	2.39165	0.243558	8.18986	0.921805	2.39096	0.453402	15.3077	0.831815	28.6501	0.243416	8.20955	0.92657	2.59403	0.675125	23.1974
0.92159	2.39089	0.245165	7.97676	0.919134	2.3902	0.454636	14.85	0.830606	27.6595	0.245021	7.99511	0.924079	2.59429	0.676528	22.4764
0.918919	2.39014	0.246801	7.77792	0.916465	2.38945	0.455893	14.4219	0.829408	26.7329	0.246654	7.79506	0.9216	2.59459	0.677946	21.8021
0.91625	2.38939	0.248463	7.59199	0.913798	2.3887	0.457173	14.0206	0.82822	25.8643	0.248314	7.60804	0.919135	2.59492	0.679379	21.1701
0.913584	2.38864	0.25015	7.41779	0.911134	2.38795	0.458474	13.6437	0.827043	25.0484	0.249999	7.43284	0.916685	2.59531	0.680825	20.5765
0.91092	2.38789	0.251861	7.25426	0.908472	2.38721	0.459795	13.2891	0.825877	24.2807	0.251487	7.28897	0.914251	2.59573	0.682283	20.018
0.908258	2.38715	0.253594	7.10048	0.905812	2.38647	0.461135	12.9549	0.824723	23.5569	0.252769	7.17231	0.911834	2.59621	0.683753	19.4915
0.905599	2.38641	0.255348	6.95561	0.903156	2.38573	0.462494	12.6394	0.823581	22.8736	0.253838	7.07973	0.909434	2.59674	0.685234	18.9944
0.902942	2.38567	0.257122	6.81891	0.900502	2.38499	0.46387	12.3411	0.822451	22.2273	0.254689	7.00889	0.907054	2.59734	0.686724	18.5243
0.900288	2.38493	0.258913	6.68971	0.89785	2.38426	0.465262	12.0586	0.821333	21.6152	0.255317	6.95807	0.904695	2.59799	0.688223	18.079
0.897637	2.3842	0.260722	6.56743	0.895202	2.38353	0.46667	11.7907	0.820228	21.0348	0.255721	6.9261	0.902357	2.59871	0.689731	17.6566
0.894989	2.38347	0.262546	6.45152	0.892556	2.3828	0.468092	11.5363	0.819136	20.4836	0.256303	6.88087	0.900042	2.5995	0.691246	17.2554
0.892343	2.38275	0.264385	6.3415	0.889913	2.38208	0.469528	11.2945	0.818056	19.9595	0.256938	6.83266	0.897751	2.60036	0.692769	16.8739
0.889701	2.38203	0.266237	6.23692	0.887274	2.38137	0.470976	11.0642	0.816991	19.4605	0.257805	6.76864	0.895487	2.60131	0.694298	16.5106
0.887062	2.38131	0.268101	6.13739	0.884638	2.38066	0.472437	10.8448	0.815939	18.985	0.258907	6.69012	0.89325	2.60234	0.695832	16.1642
0.884426	2.3806	0.269977	6.04255	0.882005	2.37995	0.473908	10.6354	0.814901	18.5314	0.260249	6.59864	0.891041	2.60346	0.697372	15.8336
0.881793	2.37989	0.271863	5.95207	0.879375	2.37925	0.47539	10.4354	0.813877	18.0982	0.261835	6.49588	0.888862	2.60467	0.698916	15.5178
0.879163	2.37919	0.273757	5.86564	0.876749	2.37855	0.476882	10.2442	0.812867	17.6841	0.263668	6.38362	0.886715	2.60599	0.700465	15.2157
0.876537	2.3785	0.27566	5.78299	0.874126	2.37786	0.478382	10.0611	0.811872	17.2878	0.265515	6.27697	0.8846	2.6074	0.702017	14.9264
0.873915	2.37781	0.277569	5.70386	0.871507	2.37718	0.47989	9.88574	0.810892	16.9084	0.267375	6.17553	0.882518	2.60893	0.703573	14.6493
0.871296	2.37712	0.279485	5.62803	0.868892	2.3765	0.481406	9.71758	0.809928	16.5446	0.269246	6.07891	0.880471	2.61056	0.705131	14.3834
0.868681	2.37645	0.281405	5.55528	0.86628	2.37583	0.482928	9.55617	0.808979	16.1957	0.271128	5.98676	0.87846	2.61231	0.706692	14.1282
0.866071	2.37578	0.28333	5.48542	0.863673	2.37517	0.484456	9.40112	0.808046	15.8608	0.273019	5.89879	0.876484	2.61418	0.708254	13.883
0.863464	2.37512	0.285258	5.41825	0.86107	2.37451	0.485989	9.25204	0.807128	15.539	0.274919	5.8147	0.874545	2.61617	0.709817	13.6472
0.860861	2.37446	0.287187	5.35363	0.858471	2.37387	0.487527	9.1086	0.806228	15.2296	0.276826	5.73424	0.872643	2.61828	0.711382	13.4203
0.858262	2.37382	0.289119	5.29138	0.855877	2.37323	0.489068	8.97047	0.805344	14.932	0.278739	5.65715	0.870778	2.62052	0.712947	13.2017
0.855668	2.37318	0.29105	5.23137	0.853287	2.3726	0.490613	8.83735	0.804476	14.6454	0.280658	5.58323	0.86895	2.62288	0.714512	12.9911
0.853079	2.37255	0.292981	5.17346	0.850702	2.37198	0.49216	8.70898	0.803626	14.3694	0.282581	5.51226	0.867159	2.62536	0.716077	12.788
0.850494	2.37193	0.294911	5.11753	0.848121	2.37137	0.49371	8.58508	0.802794	14.1033	0.284507	5.44407	0.865404	2.62798	0.717642	12.592
0.847914	2.37132	0.296839	5.06346	0.845546	2.37077	0.49526	8.46542	0.801979	13.8467	0.286437	5.37847	0.863686	2.63072	0.719205	12.4026
0.845339	2.37073	0.298763	5.01115	0.842975	2.37019	0.496811	8.34978	0.801183	13.5991	0.288367	5.31532	0.862003	2.63358	0.720767	12.2197
0.842769	2.37014	0.300684	4.9605	0.840411	2.36961	0.498363	8.23795	0.800404	13.36	0.290299	5.25445	0.860355	2.63657	0.722327	12.0428
0.840204	2.36957	0.302601	4.91141	0.837851	2.36905	0.499913	8.12974	0.799645	13.1291	0.29223	5.19574	0.85874	2.63968	0.723885	11.8716
0.837645	2.369	0.304512	4.8638	0.835297	2.3685	0.501463	8.02495	0.798904	12.9059	0.294161	5.13905	0.857158	2.6429	0.72544	11.7059
0.835092	2.36845	0.306416	4.81758	0.832749	2.36796	0.503011	7.92343	0.798183	12.69	0.296089	5.08428	0.855608	2.64625	0.726993	11.5454
0.832544	2.36792	0.308314	4.77268	0.830207	2.36744	0.504557	7.82502	0.797482	12.4812	0.298015	5.0313	0.854089	2.64972	0.728542	11.3898
0.830003	2.3674	0.310205	4.72903	0.827671	2.36693	0.506101	7.72955	0.7968	12.2791	0.299938	4.98001	0.8526	2.65329	0.730088	11.239
0.827467	2.36689	0.312086	4.68656	0.825142	2.36643	0.507641	7.6369	0.796138	12.0835	0.301856	4.93033	0.851139	2.65698	0.73163	11.0926
0.824939	2.3664	0.313959	4.6452	0.822619	2.36596	0.50898	7.55835	0.795498	11.8939	0.303769	4.88215	0.849706	2.66078	0.733168	10.9506
0.822416	2.36592	0.315822	4.6049	0.820103	2.3655	0.510118	7.49293	0.794878	11.7103	0.305676	4.8354	0.848299	2.66469	0.734701	10.8126
0.819901	2.36546	0.317674	4.5656	0.817594	2.36505	0.511058	7.43987	0.794279	11.5322	0.307577	4.78999	0.846917	2.6687	0.736229	10.6786
0.817392	2.36502	0.319515	4.52725	0.815092	2.36463	0.5118	7.39856	0.793701	11.3596	0.30947	4.74587	0.84556	2.67281	0.737752	10.5483
0.814891	2.3646	0.321344	4.4898	0.812597	2.36423	0.512344	7.36854	0.793146	11.1921	0.311355	4.70294	0.844226	2.67702	0.739269	10.4216
0.812397	2.36419	0.32316	4.4532	0.81011	2.36384	0.512692	7.34948	0.792612	11.0295	0.313232	4.66116	0.842915	2.68133	0.740781	10.2983
0.809911	2.36381	0.324963	4.41742	0.807632	2.36348	0.513192	7.3223	0.792101	10.8717	0.315098	4.62045	0.841625	2.68574	0.742286	10.1783
0.807432	2.36345	0.326752	4.3824	0.805161	2.36313	0.513735	7.29303	0.791613	10.7185	0.316955	4.58077	0.840356	2.69024	0.743785	10.0614
0.804962	2.36311	0.328526	4.34811	0.802699	2.36281	0.514472	7.25367	0.791148	10.5697	0.3188	4.54205	0.839106	2.69483	0.745277	9.94757
0.802501	2.36279	0.330285	4.31451	0.800245	2.36252	0.515402	7.20463	0.790706	10.425	0.320634	4.50426	0.837875	2.69951	0.746762	9.83662
0.800048	2.3625	0.332028	4.28158	0.7978	2.36225	0.516523	7.14639	0.790288	10.2845	0.322455	4.46734	0.836663	2.70429	0.74824	9.72844
0.797604	2.36223	0.333755	4.24927	0.795365	2.362	0.517834	7.07951	0.789894	10.1478	0.324263	4.43124	0.835468	2.70915	0.749709	9.62293
0.795169	2.36198	0.335465	4.21756	0.792939	2.36178	0.519331	7.00459	0.789524	10.0149	0.326057	4.39593	0.834291	2.71409	0.751171	9.51999
0.792744	2.36177	0.337158	4.18641	0.790522	2.36159	0.52082	6.93156	0.789179	9.88564	0.327838	4.36136	0.833129	2.71913	0.752624	9.4195
0.790328	2.36158	0.338832	4.15581	0.788116	2.36143	0.522301	6.86033	0.788858	9.75985	0.329603	4.3275	0.831983	2.72424	0.754068	9.32138
0.787923	2.36142	0.340488	4.12572	0.78572	2.3613	0.523774	6.79083	0.788563	9.63744	0.331352	4.29431	0.830852	2.72944	0.755504	9.22553
0.785528	2.36129	0.342125	4.09612	0.783335	2.3612	0.525237	6.72298	0.788294	9.51828	0.333085	4.26176	0.829736	2.73472	0.75693	9.13188
0.783143	2.36119	0.343743	4.06699	0.78096	2.36113	0.52669	6.65672	0.78805	9.40226	0.334802	4.22982	0.828633	2.74008	0.758346	9.04034
0.780769	2.36112	0.345341	4.0383	0.778597	2.36109	0.528134	6.59198	0.787832	9.28927	0.336501	4.19846	0.827544	2.74552	0.759753	8.95082
0.778407	2.36109	0.346918	4.01005	0.776245	2.36109	0.529567	6.5287	0.787641	9.17921	0.338183	4.16765	0.826469	2.75105	0.761149	8.86327
0.776056	2.36109	0.348475	3.9822	0.773904	2.36113	0.530989	6.46683	0.787476	9.07199	0.339846	4.13736	0.825406	2.75665	0.762535	8.77761
0.773717	2.36113	0.350012	3.95474	0.771576	2.3612	0.5324	6.4063	0.787338	8.9675	0.341491	4.10757	0.824355	2.76233	0.76391	8.69376
0.77139	2.36121	0.351527	3.92766	0.76926	2.36131	0.533799	6.34706	0.787227	8.86566	0.343116	4.07826	0.823316	2.76808	0.765275	8.61167
0.769075	2.36132	0.353021	3.90094	0.766957	2.36146	0.535185	6.28907	0.787144	8.76639	0.344721	4.04941	0.822289	2.77392	0.766628	8.53127
0.766772	2.36147	0.354494	3.87457	0.764667	2.36165	0.53656	6.23227	0.787088	8.6696	0.346307	4.02099	0.821272	2.77983	0.767969	8.45251
0.764483	2.36167	0.355945	3.84853	0.762389	2.36188	0.537921	6.17663	0.78706	8.57521	0.347872	3.99298	0.820267	2.78582	0.769299	8.37533
0.762207	2.3619	0.357374	3.82281	0.760126	2.36216	0.539269	6.12209	0.787059	8.48315	0.349417	3.96538	0.819272	2.79189	0.770616	8.29968
0.759944	2.36218	0.358781	3.7974	0.757876	2.36248	0.540603	6.06861	0.787087	8.39335	0.35094	3.93815	0.818287	2.79803	0.771922	8.2255
0.757695	2.36251	0.360166	3.7723	0.75564	2.36284	0.541924	6.01617	0.787144	8.30573	0.352443	3.91129	0.817313	2.80424	0.773214	8.15275
0.75546	2.36288	0.361529	3.74748	0.753418	2.36326	0.54323	5.96471	0.787229	8.22023	0.353924	3.88479	0.816348	2.81054	0.774495	8.08137
0.75324	2.36329	0.36287	3.72294	0.75121	2.36372	0.544521	5.91421	0.787342	8.13679	0.355383	3.85862	0.815392	2.81691	0.775762	8.01133
0.751033	2.36376	0.364189	3.69868	0.749017	2.36423	0.545797	5.86463	0.787485	8.05535	0.35682	3.83278	0.814445	2.82335	0.776855	7.95135
0.748842	2.36427	0.365487	3.67469	0.74684	2.36479	0.547059	5.81594	0.787633	7.98595	0.358236	3.80725	0.813507	2.82987	0.777779	7.90098
0.746665	2.36483	0.366763	3.65096	0.744677	2.3654	0.548304	5.7681	0.787776	7.92793	0.35963	3.78203	0.812578	2.83647	0.778538	7.85983
0.744503	2.36545	0.368017	3.62748	0.742529	2.36606	0.549534	5.72109	0.787906	7.88072	0.361001	3.7571	0.811657	2.84314	0.779134	7.82762
0.742357	2.36612	0.369251	3.60425	0.740397	2.36678	0.550748	5.67489	0.788018	7.84388	0.362351	3.73245	0.810744	2.84988	0.779571	7.80412
0.740226	2.36684	0.370463	3.58127	0.738281	2.36755	0.551945	5.62945	0.788104	7.81705	0.363679	3.70809	0.809839	2.8567	0.779849	7.78915
0.738111	2.36762	0.371655	3.55853	0.73618	2.36838	0.553127	5.58476	0.788161	7.80001	0.364985	3.68399	0.808941	2.8636	0.780248	7.76774
0.736011	2.36845	0.372827	3.53602	0.734095	2.36927	0.554291	5.5408	0.788245	7.77566	0.366269	3.66016	0.808051	2.87057	0.78068	7.74462
0.733928	2.36934	0.373979	3.51376	0.732026	2.37021	0.555439	5.49754	0.788341	7.74941	0.367532	3.63658	0.807168	2.87761	0.781264	7.71339
0.73186	2.37029	0.375111	3.49172	0.729973	2.37121	0.55657	5.45495	0.788477	7.71406	0.368774	3.61326	0.806292	2.88473	0.781999	7.67429
0.729809	2.37129	0.376224	3.46991	0.727936	2.37227	0.557683	5.41303	0.788659	7.66993	0.369994	3.59018	0.805422	2.89192	0.78288	7.62755
0.727773	2.37235	0.377319	3.44833	0.725915	2.37338	0.55878	5.37174	0.788893	7.6174	0.371194	3.56735	0.804559	2.89919	0.783903	7.57348
0.725754	2.37348	0.378396	3.42697	0.723911	2.37456	0.559859	5.33107	0.789189	7.55692	0.372374	3.54475	0.803702	2.90654	0.785065	7.51241
0.72375	2.37466	0.379455	3.40584	0.721922	2.3758	0.560921	5.291	0.789556	7.48901	0.373533	3.52239	0.802851	2.91396	0.786212	7.45235
0.721763	2.37591	0.380497	3.38494	0.71995	2.3771	0.561966	5.25151	0.789952	7.42264	0.374673	3.50026	0.802006	2.92145	0.787344	7.39328
0.719792	2.37721	0.381523	3.36425	0.717994	2.37847	0.562993	5.21259	0.790378	7.35778	0.375794	3.47837	0.801166	2.92902	0.788462	7.33518
0.717837	2.37858	0.382533	3.34379	0.716054	2.37989	0.564002	5.17422	0.790832	7.29438	0.376896	3.4567	0.800332	2.93666	0.789565	7.278
0.715899	2.38001	0.383527	3.32355	0.71413	2.38138	0.564995	5.13639	0.791316	7.23239	0.377979	3.43525	0.799503	2.94438	0.790653	7.22173
0.713976	2.3815	0.384508	3.30353	0.712222	2.38293	0.565969	5.09908	0.791828	7.17179	0.379045	3.41404	0.798679	2.95217	0.791727	7.16634
0.712069	2.38306	0.385474	3.28373	0.710329	2.38455	0.566927	5.06228	0.79237	7.11253	0.380094	3.39304	0.797859	2.96004	0.792786	7.11181
0.710178	2.38468	0.386426	3.26415	0.708452	2.38623	0.567867	5.02598	0.79294	7.05457	0.381126	3.37227	0.797043	2.96798	0.79383	7.05811
0.708302	2.38636	0.387367	3.24479	0.706591	2.38797	0.56879	4.99016	0.793538	6.99789	0.382142	3.35172	0.796232	2.976	0.794859	7.00522
0.706442	2.38811	0.388295	3.22565	0.704745	2.38977	0.569696	4.95481	0.794165	6.94244	0.383142	3.33139	0.795425	2.98409	0.795873	6.95313
0.704597	2.38992	0.389211	3.20673	0.702914	2.39164	0.570585	4.91992	0.79482	6.88819	0.384128	3.31129	0.794621	2.99226	0.796873	6.9018
0.702768	2.3918	0.390117	3.18804	0.701098	2.39358	0.571458	4.88549	0.795503	6.8351	0.3851	3.2914	0.79382	3.0005	0.797858	6.85123
0.700953	2.39374	0.391013	3.16956	0.699297	2.39557	0.572314	4.85149	0.796214	6.78316	0.386057	3.27174	0.793023	3.00881	0.798828	6.80139
0.699153	2.39574	0.3919	3.15131	0.697511	2.39763	0.573153	4.81793	0.796952	6.73232	0.387002	3.25229	0.792228	3.0172	0.799784	6.75226
0.697368	2.3978	0.392778	3.13327	0.695738	2.39976	0.573976	4.78479	0.797716	6.68255	0.387935	3.23307	0.791436	3.02566	0.800725	6.70384
0.695596	2.39993	0.393648	3.11546	0.69398	2.40195	0.574784	4.75206	0.798508	6.63383	0.388856	3.21407	0.790647	3.03419	0.801652	6.65609
0.693839	2.40212	0.394511	3.09787	0.692236	2.4042	0.575575	4.71974	0.799326	6.58613	0.389766	3.19528	0.789859	3.0428	0.802564	6.60901
0.692096	2.40438	0.395367	3.08049	0.690505	2.40651	0.576352	4.68782	0.80017	6.53942	0.390666	3.17672	0.789073	3.05148	0.803463	6.56259
0.690366	2.4067	0.396217	3.06334	0.688787	2.40888	0.577113	4.65629	0.80104	6.49367	0.391556	3.15838	0.788288	3.06023	0.804348	6.5168
0.68865	2.40908	0.397062	3.04641	0.687082	2.41132	0.577859	4.62514	0.801935	6.44886	0.392438	3.14026	0.787505	3.06906	0.80522	6.47164
0.686946	2.41152	0.397901	3.02971	0.68539	2.41382	0.578591	4.59437	0.802855	6.40495	0.393311	3.12236	0.786722	3.07796	0.806078	6.42708
0.685255	2.41403	0.398737	3.01322	0.683711	2.41638	0.579309	4.56398	0.8038	6.36194	0.394176	3.10468	0.785939	3.08692	0.806922	6.38313
0.683576	2.41659	0.399569	2.99695	0.682043	2.419	0.580013	4.53394	0.804768	6.31978	0.395035	3.08723	0.785157	3.09596	0.807754	6.33976
0.681909	2.41922	0.400399	2.9809	0.680387	2.42169	0.580703	4.50427	0.805761	6.27847	0.395887	3.06999	0.784374	3.10507	0.808574	6.29696
0.680254	2.4219	0.401226	2.96507	0.678742	2.42443	0.58138	4.47495	0.806776	6.23797	0.396734	3.05297	0.783591	3.11425	0.809381	6.25473
0.678611	2.42465	0.402051	2.94946	0.677109	2.42723	0.582045	4.44598	0.807814	6.19826	0.397575	3.03618	0.782807	3.1235	0.810176	6.21305
0.676978	2.42746	0.402875	2.93407	0.675486	2.43009	0.582697	4.41735	0.808875	6.15932	0.398413	3.0196	0.782022	3.13282	0.81096	6.17192
0.675356	2.43032	0.403698	2.91889	0.673873	2.433	0.583337	4.38907	0.809957	6.12114	0.399246	3.00325	0.781235	3.1422	0.811732	6.13132
0.673744	2.43324	0.404522	2.90393	0.672271	2.43598	0.583966	4.36111	0.81106	6.08368	0.400076	2.98712	0.780446	3.15165	0.812493	6.09124
0.672142	2.43622	0.405346	2.88919	0.670678	2.43901	0.584583	4.33349	0.812184	6.04694	0.400904	2.9712	0.779654	3.16117	0.813244	6.05168
0.67055	2.43925	0.406171	2.87466	0.669093	2.44209	0.58519	4.3062	0.813329	6.01088	0.40173	2.9555	0.778859	3.17076	0.813985	6.01263
0.668967	2.44234	0.406997	2.86034	0.667518	2.44523	0.585787	4.27922	0.814493	5.9755	0.402555	2.94003	0.778062	3.1804	0.814716	5.97408
0.667392	2.44549	0.407826	2.84624	0.665951	2.44842	0.586373	4.25256	0.815676	5.94077	0.403378	2.92477	0.77726	3.19011	0.815438	5.93602
0.665826	2.44868	0.408656	2.83235	0.664392	2.45167	0.586951	4.22622	0.816877	5.90667	0.404202	2.90972	0.776454	3.19989	0.816151	5.89844
0.664267	2.45193	0.40949	2.81867	0.662841	2.45497	0.587519	4.20019	0.818097	5.87319	0.405025	2.89489	0.775644	3.20972	0.816855	5.86134
0.662716	2.45524	0.410328	2.8052	0.661296	2.45832	0.588079	4.17447	0.819334	5.84031	0.40585	2.88028	0.774828	3.21962	0.817552	5.82471
0.661172	2.45859	0.411169	2.79194	0.659758	2.46171	0.58863	4.14905	0.820588	5.80801	0.406676	2.86589	0.774007	3.22957	0.818242	5.78855
0.659635	2.46199	0.412014	2.77889	0.658226	2.46516	0.589174	4.12393	0.821858	5.77628	0.407503	2.8517	0.77318	3.23959	0.818925	5.75284
0.658103	2.46544	0.412864	2.76604	0.6567	2.46865	0.589711	4.09911	0.823144	5.7451	0.408333	2.83773	0.772346	3.24965	0.819602	5.71759
0.656577	2.46893	0.413719	2.7534	0.655178	2.47219	0.590241	4.07459	0.824445	5.71445	0.409166	2.82397	0.771505	3.25978	0.820273	5.68279
0.655056	2.47247	0.41458	2.74095	0.653661	2.47577	0.590765	4.05035	0.82576	5.68433	0.410001	2.81042	0.770657	3.26995	0.820938	5.64842
0.653539	2.47606	0.415447	2.72872	0.652148	2.47939	0.591283	4.02641	0.82709	5.65471	0.410841	2.79707	0.7698	3.28018	0.8216	5.6145
0.652026	2.47968	0.41632	2.71668	0.650638	2.48305	0.591795	4.00275	0.828433	5.62558	0.411685	2.78394	0.768935	3.29046	0.822257	5.581
0.650517	2.48335	0.417199	2.70484	0.649131	2.48675	0.592303	3.97937	0.829789	5.59694	0.412533	2.77101	0.76806	3.30079	0.822911	5.54793
0.64901	2.48705	0.418086	2.69319	0.647626	2.49049	0.592806	3.95628	0.831157	5.56875	0.413386	2.75829	0.767176	3.31116	0.823562	5.51529
0.647505	2.49079	0.41898	2.68175	0.646123	2.49426	0.593305	3.93347	0.832536	5.54102	0.414244	2.74577	0.766282	3.32158	0.824211	5.48306
0.646002	2.49457	0.419882	2.6705	0.64462	2.49807	0.593801	3.91093	0.833927	5.51372	0.415109	2.73345	0.765376	3.33204	0.824859	5.45125
0.644499	2.49838	0.420792	2.65944	0.643118	2.5019	0.594294	3.88866	0.835328	5.48685	0.415979	2.72134	0.764459	3.34254	0.825506	5.41985
0.642997	2.50221	0.42171	2.64857	0.641615	2.50577	0.594783	3.86666	0.836739	5.4604	0.416856	2.70942	0.76353	3.35308	0.826153	5.38886
0.641494	2.50608	0.422638	2.63789	0.64011	2.50965	0.595271	3.84494	0.83816	5.43434	0.41774	2.6977	0.762588	3.36366	0.8268	5.35827
0.639989	2.50997	0.423574	2.6274	0.638604	2.51356	0.595757	3.82348	0.839589	5.40868	0.418631	2.68618	0.761633	3.37427	0.827449	5.32808
0.638483	2.51388	0.424521	2.6171	0.637095	2.51749	0.596241	3.80228	0.841026	5.3834	0.41953	2.67485	0.760664	3.38491	0.828099	5.29829
0.636973	2.51781	0.425477	2.60699	0.635581	2.52144	0.596725	3.78135	0.84247	5.35848	0.420437	2.66371	0.759681	3.39559	0.828752	5.26889
0.63546	2.52175	0.426443	2.59706	0.634064	2.52539	0.597208	3.76067	0.843922	5.33392	0.421352	2.65277	0.758682	3.40629	0.829409	5.23988
0.633942	2.52571	0.42742	2.58732	0.632541	2.52936	0.597691	3.74025	0.84538	5.30971	0.422276	2.64202	0.757668	3.41701	0.830069	5.21126
0.632418	2.52968	0.428408	2.57776	0.631012	2.53334	0.598174	3.72009	0.846843	5.28583	0.423209	2.63146	0.756637	3.42776	0.830734	5.18303
0.630889	2.53366	0.429408	2.56838	0.629476	2.53732	0.598658	3.70018	0.848312	5.26229	0.424151	2.62109	0.75559	3.43853	0.831405	5.15518
0.629352	2.53764	0.43042	2.55919	0.627931	2.54129	0.599144	3.68052	0.849786	5.23906	0.425104	2.6109	0.754525	3.44932	0.832082	5.12771
0.627807	2.54161	0.431444	2.55017	0.626378	2.54527	0.599631	3.66112	0.851263	5.21614	0.426066	2.6009	0.753442	3.46013	0.832766	5.10061
0.626253	2.54559	0.432482	2.54134	0.624815	2.54923	0.60012	3.64195	0.852744	5.19351	0.427039	2.59109	0.752341	3.47095	0.833458	5.0739
0.624689	2.54955	0.433532	2.5327	0.623241	2.55319	0.600611	3.62304	0.854228	5.17118	0.428023	2.58145	0.75122	3.48177	0.834158	5.04756
0.623114	2.5535	0.434598	2.52423	0.621655	2.55712	0.601106	3.60436	0.855714	5.14913	0.429018	2.57201	0.75008	3.49261	0.834868	5.02159
0.621527	2.55744	0.435678	2.51595	0.620056	2.56104	0.601603	3.58593	0.857202	5.12735	0.430025	2.56274	0.748919	3.50346	0.835588	4.99598
0.619927	2.56135	0.436774	2.50786	0.618444	2.56493	0.602105	3.56774	0.858691	5.10584	0.431044	2.55366	0.747738	3.51431	0.836319	4.97075
0.618314	2.56524	0.437887	2.49995	0.616817	2.5688	0.60261	3.54978	0.860181	5.08459	0.432076	2.54476	0.746536	3.52516	0.837061	4.94589
0.616685	2.56911	0.439018	2.49224	0.615174	2.57263	0.60312	3.53206	0.861671	5.06359	0.433122	2.53604	0.745311	3.53601	0.837816	4.92138
0.615041	2.57293	0.440169	2.48472	0.613515	2.57642	0.603635	3.51458	0.863161	5.04282	0.434182	2.5275	0.744065	3.54686	0.838584	4.89724
0.613381	2.57672	0.44134	2.4774	0.611839	2.58017	0.604155	3.49732	0.86465	5.0223	0.435256	2.51915	0.742797	3.5577	0.839367	4.87346
0.611703	2.58047	0.442535	2.4703	0.610145	2.58388	0.604681	3.4803	0.866137	5.002	0.436346	2.51098	0.741506	3.56854	0.840164	4.85005
0.610007	2.58418	0.443755	2.46341	0.608431	2.58754	0.605213	3.46351	0.867623	4.98192	0.437452	2.503	0.740191	3.57937	0.840977	4.82698
0.608293	2.58783	0.445003	2.45675	0.606699	2.59115	0.605751	3.44694	0.869105	4.96205	0.438576	2.49521	0.738854	3.5902	0.841806	4.80428
0.606559	2.59144	0.446283	2.45034	0.604946	2.5947	0.606297	3.4306	0.870585	4.9424	0.439719	2.48762	0.737492	3.60101	0.842653	4.78193
0.604804	2.59498	0.447598	2.4442	0.603172	2.59819	0.606849	3.41448	0.872061	4.92294	0.440882	2.48022	0.736107	3.61181	0.843517	4.75993
0.603029	2.59847	0.448955	2.43835	0.601377	2.60162	0.60741	3.39859	0.873533	4.90368	0.442068	2.47303	0.734698	3.6226	0.8444	4.73828
0.601232	2.60189	0.450175	2.4335	0.599561	2.60499	0.607978	3.38292	0.875001	4.88461	0.443277	2.46606	0.733264	3.63338	0.845303	4.71698
0.599414	2.60526	0.451248	2.42958	0.597722	2.60829	0.608555	3.36747	0.876464	4.86572	0.444514	2.45931	0.731807	3.64414	0.846226	4.69603
0.597573	2.60855	0.452159	2.4265	0.595861	2.61152	0.609141	3.35223	0.877921	4.847	0.445781	2.45281	0.730325	3.65489	0.847171	4.67543
0.59571	2.61177	0.452897	2.42416	0.593978	2.61468	0.609736	3.33722	0.879372	4.82846	0.447082	2.44656	0.728818	3.66562	0.848137	4.65517
0.593825	2.61493	0.45345	2.42251	0.592072	2.61776	0.610342	3.32242	0.880816	4.81009	0.448422	2.44059	0.727288	3.67634	0.849125	4.63526
0.591917	2.61801	0.453809	2.42149	0.590143	2.62078	0.610957	3.30783	0.882254	4.79188	0.449807	2.43492	0.725733	3.68704	0.850137	4.61568
0.589987	2.62102	0.454332	2.42005	0.588192	2.62372	0.611583	3.29346	0.883685	4.77382	0.451243	2.4296	0.724154	3.69773	0.851172	4.59645
0.588034	2.62395	0.45491	2.41855	0.586218	2.62658	0.61222	3.2793	0.885107	4.75592	0.452739	2.42465	0.722551	3.70841	0.852232	4.57755
0.586058	2.62681	0.455714	2.4166	0.584222	2.62937	0.612868	3.26535	0.886522	4.73816	0.454304	2.42012	0.720925	3.71907	0.853317	4.55899
0.58406	2.62959	0.456759	2.41431	0.582204	2.63209	0.613529	3.25162	0.887927	4.72054	0.455948	2.41606	0.719275	3.72973	0.854428	4.54076
0.582041	2.6323	0.45807	2.41181	0.580164	2.63473	0.614202	3.23809	0.889324	4.70306	0.457681	2.41251	0.717602	3.74037	0.855565	4.52286
0.579999	2.63494	0.459677	2.40926	0.578103	2.6373	0.614887	3.22477	0.890711	4.68572	0.45951	2.4095	0.715906	3.75101	0.856729	4.50529
0.577937	2.63751	0.461618	2.40687	0.576021	2.6398	0.615586	3.21166	0.892088	4.6685	0.461441	2.40706	0.714188	3.76163	0.85792	4.48805
0.575853	2.64	0.463661	2.40503	0.573919	2.64223	0.616299	3.19876	0.893455	4.65141	0.463475	2.40517	0.712448	3.77226	0.859139	4.47113
0.573749	2.64242	0.465805	2.40373	0.571797	2.64458	0.617026	3.18606	0.894812	4.63444	0.46561	2.40383	0.710686	3.78288	0.860386	4.45453
0.571626	2.64477	0.46804	2.40291	0.569656	2.64687	0.617769	3.17357	0.896157	4.61759	0.467838	2.40297	0.708903	3.7935	0.861662	4.43825
0.569483	2.64705	0.470358	2.40253	0.567496	2.6491	0.618526	3.16129	0.897492	4.60085	0.470148	2.40255	0.707099	3.80412	0.862966	4.42228
0.567321	2.64927	0.472746	2.40251	0.565317	2.65125	0.619299	3.14921	0.898814	4.58422	0.472531	2.4025	0.705276	3.81475	0.8643	4.40662
0.565141	2.65142	0.475196	2.40279	0.563121	2.65335	0.620089	3.13733	0.900125	4.56771	0.474976	2.40275	0.703432	3.82539	0.865664	4.39128
0.562944	2.65352	0.477695	2.40333	0.560908	2.65538	0.620896	3.12566	0.901424	4.55129	0.477471	2.40327	0.70157	3.83604	0.867057	4.37623
0.56073	2.65555	0.480237	2.40407	0.558679	2.65736	0.62172	3.1142	0.90271	4.53498	0.480009	2.40399	0.69969	3.84671	0.86848	4.36149
0.558499	2.65752	0.482813	2.40497	0.556434	2.65928	0.622563	3.10294	0.903983	4.51876	0.482583	2.40489	0.697791	3.8574	0.869933	4.34704
0.556253	2.65943	0.485418	2.40601	0.554174	2.66115	0.623424	3.09188	0.905243	4.50265	0.485185	2.40591	0.695875	3.8681	0.871417	4.33289
0.553991	2.66129	0.488047	2.40716	0.551899	2.66296	0.624304	3.08103	0.90649	4.48662	0.487812	2.40705	0.693943	3.87884	0.87293	4.31903
0.551716	2.6631	0.490695	2.40839	0.54961	2.66472	0.625205	3.07038	0.907724	4.47069	0.490459	2.40827	0.691995	3.88961	0.874474	4.30545
0.549426	2.66486	0.49336	2.40969	0.547308	2.66644	0.626126	3.05993	0.908944	4.45484	0.493122	2.40957	0.690032	3.90041	0.876048	4.29215
0.547123	2.66657	0.496038	2.41104	0.544993	2.66811	0.627068	3.04969	0.91015	4.43908	0.4958	2.41092	0.688055	3.91125	0.877651	4.27912
0.544807	2.66824	0.498729	2.41244	0.542666	2.66973	0.628032	3.03966	0.911342	4.42341	0.498489	2.41231	0.686063	3.92214	0.879285	4.26637
0.542479	2.66986	0.501429	2.41387	0.540327	2.67132	0.629019	3.02983	0.91252	4.40782	0.501188	2.41374	0.684059	3.93307	0.880948	4.25388
0.540139	2.67144	0.504138	2.41533	0.537977	2.67286	0.630029	3.0202	0.913684	4.39231	0.503896	2.4152	0.682042	3.94406	0.882641	4.24165
0.537788	2.67298	0.506853	2.4168	0.535617	2.67437	0.631063	3.01079	0.914833	4.37688	0.506612	2.41667	0.680013	3.95511	0.884363	4.22968
0.535426	2.67448	0.509576	2.4183	0.533246	2.67583	0.632122	3.00157	0.915968	4.36152	0.509333	2.41817	0.677973	3.96622	0.886114	4.21796
0.533055	2.67595	0.512303	2.41981	0.530865	2.67727	0.633206	2.99257	0.917088	4.34624	0.51206	2.41967	0.675923	3.97741	0.887893	4.20649
0.530673	2.67738	0.515035	2.42132	0.528475	2.67867	0.634316	2.98377	0.918194	4.33104	0.514792	2.42118	0.673864	3.98867	0.889701	4.19526
0.528283	2.67878	0.517772	2.42284	0.526076	2.68004	0.635452	2.97518	0.919285	4.31591	0.517528	2.4227	0.671795	4.00001	0.891536	4.18426
0.525883	2.68015	0.520511	2.42436	0.523669	2.68139	0.636617	2.96679	0.920361	4.30085	0.520268	2.42422	0.669719	4.01143	0.893398	4.17349
0.523475	2.68149	0.523254	2.42588	0.521254	2.6827	0.637809	2.95862	0.921422	4.28586	0.52301	2.42575	0.667635	4.02295	0.895288	4.16295
0.52106	2.68281	0.526	2.4274	0.518831	2.68399	0.63903	2.95065	0.922469	4.27094	0.525756	2.42727	0.665544	4.03457	0.897204	4.15262
0.518636	2.6841	0.528748	2.42892	0.516402	2.68526	0.640281	2.94289	0.923501	4.25609	0.528504	2.42878	0.663447	4.04629	0.899145	4.14251
0.516206	2.68536	0.531498	2.43043	0.513965	2.6865	0.641561	2.93534	0.924518	4.24131	0.531254	2.4303	0.661346	4.05812	0.901112	4.13261
0.513768	2.6866	0.53425	2.43194	0.511521	2.68772	0.642873	2.92799	0.925521	4.2266	0.534005	2.43181	0.659239	4.07007	0.903104	4.12291
0.511325	2.68782	0.537004	2.43344	0.509072	2.68892	0.644215	2.92085	0.92651	4.21195	0.536759	2.43331	0.657129	4.08214	0.90512	4.11341
0.508874	2.68902	0.539759	2.43494	0.506616	2.69011	0.645589	2.91392	0.927483	4.19738	0.539514	2.4348	0.655015	4.09435	0.907159	4.1041
0.506419	2.6902	0.542515	2.43642	0.504155	2.69127	0.646994	2.9072	0.928443	4.18286	0.54227	2.43629	0.652899	4.10669	0.909222	4.09498
0.503957	2.69136	0.545273	2.4379	0.501689	2.69242	0.648433	2.90068	0.929388	4.16842	0.545027	2.43777	0.650782	4.11917	0.911307	4.08604
0.50149	2.69251	0.548031	2.43937	0.499217	2.69356	0.649904	2.89436	0.93032	4.15404	0.547785	2.43924	0.648663	4.13181	0.913414	4.07728
0.499018	2.69365	0.55079	2.44083	0.496741	2.69468	0.651408	2.88825	0.931237	4.13972	0.550544	2.4407	0.646544	4.14461	0.915542	4.06869
0.496542	2.69477	0.55355	2.44228	0.494261	2.69579	0.652945	2.88234	0.93214	4.12547	0.553304	2.44215	0.644426	4.15758	0.91769	4.06027
0.494061	2.69587	0.55631	2.44372	0.491776	2.69688	0.654515	2.87662	0.93303	4.11129	0.556064	2.44359	0.642308	4.17072	0.919859	4.052
0.491576	2.69697	0.559071	2.44515	0.489287	2.69797	0.656118	2.8711	0.933907	4.09717	0.558825	2.44502	0.640193	4.18404	0.922046	4.0439
0.489087	2.69806	0.561832	2.44657	0.486794	2.69905	0.657755	2.86577	0.93477	4.08311	0.561586	2.44644	0.63808	4.19755	0.924253	4.03594
0.486594	2.69914	0.564594	2.44798	0.484298	2.70012	0.659424	2.86063	0.93562	4.06912	0.564348	2.44785	0.63597	4.21127	0.926477	4.02814
0.484097	2.70021	0.567355	2.44937	0.481799	2.70119	0.661126	2.85567	0.936458	4.0552	0.56711	2.44925	0.633864	4.22519	0.928719	4.02047
0.481597	2.70127	0.570117	2.45076	0.479296	2.70224	0.662861	2.8509	0.937283	4.04134	0.569872	2.45064	0.631763	4.23933	0.930978	4.01295
0.479094	2.70233	0.57288	2.45213	0.47679	2.7033	0.664627	2.8463	0.938095	4.02755	0.572634	2.45201	0.629667	4.2537	0.933253	4.00556
0.476589	2.70338	0.575642	2.4535	0.474282	2.70435	0.666425	2.84188	0.938896	4.01382	0.575396	2.45337	0.627578	4.26831	0.935543	3.99829
0.47408	2.70443	0.578404	2.45485	0.471771	2.7054	0.668254	2.83763	0.939684	4.00016	0.578158	2.45473	0.625495	4.28316	0.937848	3.99116
0.471569	2.70548	0.581166	2.45619	0.469258	2.70644	0.670114	2.83354	0.940461	3.98656	0.58092	2.45607	0.62342	4.29826	0.940167	3.98414
0.469055	2.70653	0.583928	2.45751	0.466742	2.70749	0.672003	2.82961	0.941227	3.97303	0.583682	2.4574	0.621353	4.31363	0.942501	3.97724
0.46654	2.70757	0.58669	2.45883	0.464225	2.70853	0.673921	2.82584	0.941981	3.95957	0.586444	2.45871	0.619296	4.32928	0.944847	3.97045
0.464022	2.70862	0.589451	2.46014	0.461705	2.70958	0.675867	2.82221	0.942725	3.94618	0.589206	2.46002	0.617248	4.34522	0.947205	3.96377
0.461503	2.70967	0.592213	2.46143	0.459184	2.71063	0.67784	2.81873	0.943458	3.93285	0.591967	2.46131	0.61521	4.36146	0.949576	3.9572
0.458981	2.71071	0.594974	2.46271	0.456662	2.71168	0.679841	2.81538	0.944181	3.91959	0.594728	2.46259	0.613184	4.37801	0.951957	3.95072
0.456459	2.71177	0.597734	2.46398	0.454138	2.71274	0.681867	2.81217	0.944894	3.90639	0.597489	2.46386	0.61117	4.39488	0.95435	3.94435
0.453935	2.71283	0.600495	2.46523	0.451613	2.7138	0.683917	2.80909	0.945598	3.89327	0.600249	2.46512	0.609168	4.41209	0.956752	3.93807
0.45141	2.71389	0.603255	2.46648	0.449086	2.71487	0.685992	2.80613	0.946292	3.88022	0.603009	2.46637	0.60718	4.42965	0.959164	3.93187
0.448883	2.71496	0.606014	2.46771	0.446559	2.71595	0.68809	2.80329	0.946976	3.86723	0.605769	2.4676	0.605207	4.44757	0.961585	3.92577
0.446356	2.71603	0.608773	2.46893	0.444032	2.71703	0.69021	2.80057	0.947653	3.85431	0.608528	2.46882	0.603248	4.46586	0.964014	3.91975
0.443828	2.71712	0.611531	2.47014	0.441503	2.71813	0.692351	2.79795	0.94832	3.84147	0.611286	2.47003	0.601305	4.48455	0.96645	3.9138
0.4413	2.71822	0.614289	2.47134	0.438974	2.71923	0.694512	2.79543	0.94898	3.82869	0.614044	2.47123	0.599379	4.50364	0.968894	3.90794
0.438771	2.71932	0.617047	2.47252	0.436445	2.72035	0.696694	2.79301	0.949631	3.81599	0.616801	2.47242	0.59747	4.52315	0.971345	3.90215
0.436242	2.72044	0.619803	2.4737	0.433916	2.72148	0.698894	2.79069	0.950275	3.80335	0.619558	2.47359	0.59558	4.54309	0.973802	3.89642
0.433712	2.72157	0.622559	2.47486	0.431387	2.72263	0.701111	2.78845	0.950912	3.79079	0.622314	2.47476	0.593708	4.56349	0.976264	3.89077
0.431183	2.72272	0.625314	2.47601	0.428858	2.72379	0.703346	2.7863	0.951541	3.77829	0.625069	2.47591	0.591856	4.58435	0.978731	3.88518
0.428654	2.72388	0.628069	2.47714	0.426329	2.72496	0.705597	2.78424	0.952164	3.76587	0.627824	2.47704	0.590025	4.6057	0.981203	3.87965
0.426125	2.72506	0.630823	2.47827	0.423801	2.72616	0.707864	2.78224	0.952781	3.75353	0.630578	2.47817	0.588215	4.62755	0.983678	3.87418
0.423597	2.72626	0.633575	2.47938	0.421273	2.72737	0.710145	2.78033	0.953391	3.74125	0.633331	2.47928	0.586428	4.64992	0.986156	3.86877
0.42107	2.72747	0.636327	2.48048	0.418746	2.72861	0.712441	2.77848	0.953996	3.72905	0.636083	2.48039	0.584663	4.67283	0.988637	3.8634
0.418543	2.72871	0.639079	2.48157	0.41622	2.72987	0.714749	2.7767	0.954595	3.71692	0.638834	2.48148	0.582922	4.6963	0.991121	3.85809
0.416017	2.72997	0.641829	2.48265	0.413696	2.73115	0.717071	2.77498	0.955189	3.70486	0.641584	2.48256	0.581206	4.72035	0.993605	3.85283
0.413493	2.73126	0.644578	2.48372	0.411172	2.73246	0.719405	2.77332	0.955778	3.69288	0.644333	2.48362	0.579515	4.745	0.996091	3.8476
0.410969	2.73257	0.647326	2.48477	0.40865	2.7338	0.72175	2.77172	0.956362	3.68097	0.647082	2.48468	0.57785	4.77028	0.998577	3.84242
0.408448	2.73391	0.650073	2.48581	0.40613	2.73516	0.724106	2.77017	0.956942	3.66914	0.649829	2.48572	0.576212	4.79619	1.00106	3.83728
0.405928	2.73527	0.652819	2.48684	0.403612	2.73656	0.726473	2.76868	0.957517	3.65738	0.652575	2.48675	0.574602	4.82277		
0.403409	2.73667	0.655564	2.48786	0.401096	2.73799	0.72885	2.76723	0.958089	3.64569	0.65532	2.48777	0.57302	4.85004		
0.400893	2.73811	0.658308	2.48886	0.398582	2.73945	0.731236	2.76583	0.958658	3.63408	0.658064	2.48877	0.571468	4.87803		
0.39838	2.73957	0.66105	2.48985	0.39607	2.74096	0.73363	2.76447	0.959222	3.62254	0.660806	2.48976	0.569946	4.90675		
0.395868	2.74108	0.663791	2.49083	0.393562	2.7425	0.736034	2.76316	0.959784	3.61108	0.663548	2.49075	0.568454	4.93624		
0.39336	2.74263	0.666531	2.4918	0.391056	2.74408	0.738445	2.76188	0.960344	3.5997	0.666287	2.49171	0.566994	4.96651		
0.390854	2.74421	0.669269	2.49275	0.388553	2.74571	0.740864	2.76065	0.9609	3.58839	0.669026	2.49267	0.565566	4.99761		
0.388352	2.74585	0.672006	2.4937	0.386054	2.74739	0.74329	2.75945	0.961455	3.57715	0.671763	2.49361	0.564171	5.02955		
0.385853	2.74753	0.674742	2.49463	0.383559	2.74912	0.745723	2.75828	0.962007	3.56599	0.674499	2.49455	0.562809	5.06236		
0.383358	2.74926	0.677476	2.49555	0.381067	2.7509	0.748162	2.75714	0.962557	3.55491	0.677233	2.49546	0.561482	5.09608		
0.380867	2.75104	0.680208	2.49645	0.37858	2.75274	0.750608	2.75604	0.963107	3.5439	0.679965	2.49637	0.560189	5.13072		
0.37838	2.75289	0.682938	2.49734	0.376097	2.75464	0.753059	2.75496	0.963654	3.53297	0.682696	2.49726	0.558932	5.16634		
0.375898	2.75479	0.685667	2.49822	0.37362	2.7566	0.755516	2.75392	0.964201	3.52211	0.685424	2.49814	0.55771	5.20295		
0.373421	2.75676	0.688394	2.49909	0.371148	2.75863	0.757978	2.7529	0.964747	3.51133	0.688151	2.49901	0.556525	5.24059		
0.370949	2.7588	0.691119	2.49994	0.368681	2.76074	0.760445	2.7519	0.965292	3.50062	0.690877	2.49987	0.555377	5.27929		
0.368483	2.76091	0.693842	2.50078	0.36622	2.76292	0.762916	2.75093	0.965838	3.48999	0.6936	2.50071	0.554266	5.3191		
0.366023	2.7631	0.696563	2.50161	0.363766	2.76518	0.765392	2.74998	0.966382	3.47944	0.696321	2.50153	0.553194	5.36004		
0.363569	2.76537	0.699282	2.50242	0.361319	2.76753	0.767872	2.74905	0.966927	3.46896	0.69904	2.50235	0.552159	5.40215		
0.361123	2.76773	0.701998	2.50322	0.358879	2.76998	0.770356	2.74815	0.967473	3.45856	0.701756	2.50315	0.551163	5.44546		
0.358683	2.77018	0.704712	2.504	0.356447	2.77252	0.772844	2.74726	0.968019	3.44823	0.704471	2.50393	0.550206	5.49003		
0.356252	2.77273	0.707424	2.50477	0.354024	2.77517	0.775334	2.74639	0.968565	3.43798	0.707183	2.50471	0.549287	5.53589		
0.353829	2.77539	0.710133	2.50553	0.351609	2.77793	0.777829	2.74554	0.969113	3.42781	0.709892	2.50546	0.548409	5.58308		
0.351415	2.77816	0.712839	2.50627	0.349204	2.78081	0.780326	2.7447	0.969662	3.41771	0.712598	2.50621	0.547569	5.63164		
0.349011	2.78105	0.715543	2.507	0.346809	2.78382	0.782826	2.74388	0.970212	3.40768	0.715302	2.50693	0.54677	5.68162		
0.346617	2.78407	0.718243	2.50771	0.344425	2.78697	0.785328	2.74308	0.970764	3.39774	0.718003	2.50764	0.54601	5.73306		
0.344234	2.78723	0.720941	2.5084	0.342053	2.79026	0.787833	2.74229	0.971317	3.38786	0.720701	2.50834	0.545291	5.78601		
0.341863	2.79053	0.723635	2.50908	0.339693	2.79371	0.79034	2.74151	0.971873	3.37807	0.723395	2.50902	0.544611	5.84053		
0.339504	2.79399	0.726326	2.50974	0.337347	2.79732	0.792849	2.74074	0.972431	3.36834	0.726087	2.50969	0.543971	5.89665		
0.337158	2.79762	0.729013	2.51039	0.335014	2.80112	0.79536	2.73999	0.972991	3.35869	0.728774	2.51033	0.54337	5.95443		
0.334827	2.80143	0.731697	2.51102	0.332697	2.8051	0.797873	2.73925	0.973553	3.34912	0.731458	2.51096	0.54281	6.01393		
0.332511	2.80543	0.734376	2.51163	0.330395	2.80929	0.800388	2.73851	0.974119	3.33962	0.734138	2.51158	0.542289	6.0752		
0.330211	2.80964	0.737052	2.51222	0.328111	2.8137	0.802903	2.73779	0.974687	3.3302	0.736814	2.51217	0.541808	6.1383		
0.327928	2.81406	0.739723	2.5128	0.325845	2.81834	0.80542	2.73708	0.975259	3.32085	0.739486	2.51275	0.541366	6.20329		
0.325664	2.81873	0.74239	2.51335	0.323599	2.82324	0.807939	2.73637	0.975833	3.31158	0.742153	2.5133	0.540963	6.27024		
0.323419	2.82364	0.745052	2.51389	0.321374	2.8284	0.810458	2.73568	0.976412	3.30238	0.744815	2.51384	0.540598	6.3392		
0.321196	2.82883	0.747709	2.5144	0.319171	2.83385	0.812978	2.73499	0.976994	3.29325	0.747473	2.51436	0.540272	6.41025		
0.318995	2.8343	0.75036	2.51489	0.316991	2.83961	0.815498	2.73431	0.977579	3.2842	0.750125	2.51485	0.539985	6.48345		
0.316817	2.84009	0.753006	2.51536	0.314837	2.8457	0.818019	2.73363	0.978169	3.27522	0.752771	2.51532	0.539735	6.55889		
0.314665	2.84621	0.755646	2.51581	0.312709	2.85215	0.820541	2.73296	0.978763	3.26632	0.755411	2.51577	0.539522	6.63663		
0.31254	2.85269	0.758279	2.51624	0.31061	2.85898	0.823063	2.7323	0.979362	3.25749	0.758046	2.5162	0.539346	6.71677		
0.310443	2.85954	0.760906	2.51664	0.308542	2.86621	0.825585	2.73164	0.979965	3.24873	0.760673	2.5166	0.539207	6.79937		
0.308377	2.86681	0.763526	2.51701	0.306505	2.87388	0.828107	2.73098	0.980573	3.24005	0.763294	2.51698	0.539104	6.88454		
0.306343	2.87452	0.766139	2.51736	0.304502	2.88202	0.830628	2.73033	0.981185	3.23144	0.765907	2.51733	0.539036	6.97236		
0.304343	2.8827	0.768743	2.51767	0.302535	2.89066	0.83315	2.72968	0.981803	3.2229	0.768512	2.51765	0.539004	7.06294		
0.302379	2.89137	0.77134	2.51796	0.300606	2.89982	0.835671	2.72903	0.982426	3.21444	0.771109	2.51794	0.539004	7.14419		
0.300453	2.90058	0.773927	2.51822	0.298717	2.90955	0.838191	2.72839	0.983055	3.20604	0.773697	2.5182	0.539024	7.21522		
0.298567	2.91036	0.776505	2.51845	0.29687	2.91989	0.840711	2.72775	0.983689	3.19773	0.776276	2.51843	0.539056	7.27522		
0.296723	2.92075	0.779073	2.51864	0.295066	2.93086	0.84323	2.72711	0.984329	3.18948	0.778845	2.51862	0.539089	7.32349		
0.294923	2.93177	0.78163	2.5188	0.293309	2.94252	0.845748	2.72647	0.984975	3.18131	0.781403	2.51878	0.539119	7.35946		
0.29317	2.94348	0.784176	2.51892	0.291599	2.95489	0.848264	2.72583	0.985628	3.1732	0.78395	2.51891	0.53915	7.39291		
0.291464	2.95592	0.78671	2.519	0.289939	2.96802	0.85078	2.72519	0.986286	3.16518	0.786485	2.51899	0.539173	7.41638		
0.289808	2.96911	0.789231	2.51903	0.28833	2.98196	0.853294	2.72455	0.986952	3.15722	0.789007	2.51903	0.539213	7.45341		
0.288203	2.98311	0.791739	2.51903	0.286774	2.99674	0.855806	2.72391	0.987624	3.14933	0.791516	2.51903	0.539275	7.50444		
0.286651	2.99796	0.794232	2.51898	0.285273	3.0124	0.858317	2.72326	0.988303	3.14152	0.794011	2.51899	0.539364	7.57013		
0.285154	3.0137	0.79671	2.51888	0.283827	3.02899	0.860825	2.72262	0.988989	3.13378	0.79649	2.51889	0.539487	7.65131		
0.283713	3.03037	0.799172	2.51874	0.282438	3.04655	0.863332	2.72197	0.989683	3.12611	0.798954	2.51875	0.539653	7.74907		
0.282329	3.04801	0.801617	2.51854	0.281107	3.06512	0.865836	2.72132	0.990384	3.11852	0.8014	2.51856	0.539873	7.86471		
0.281002	3.06666	0.804044	2.51828	0.279834	3.08475	0.868338	2.72067	0.991093	3.11099	0.803829	2.5183	0.540123	7.9842		
0.279734	3.08637	0.806452	2.51797	0.27862	3.10546	0.870838	2.72001	0.99181	3.10354	0.806238	2.518	0.540403	8.10772		
0.278525	3.10718	0.808839	2.51759	0.277466	3.12731	0.873334	2.71935	0.992535	3.09616	0.808628	2.51763	0.540713	8.23542		
0.277375	3.12912	0.811206	2.51715	0.27637	3.15033	0.875828	2.71868	0.993268	3.08885	0.810996	2.51719	0.54105	8.3675		
0.276285	3.15223	0.81355	2.51665	0.275334	3.17456	0.878318	2.71801	0.994011	3.08161	0.813342	2.5167	0.541416	8.50415		
0.275253	3.17657	0.815871	2.51608	0.274357	3.20004	0.880805	2.71733	0.994762	3.07445	0.815665	2.51613	0.541809	8.64558		
0.274281	3.20215	0.818167	2.51543	0.273438	3.22681	0.883289	2.71665	0.995522	3.06735	0.817964	2.51549	0.542228	8.79201		
0.273366	3.22902	0.820439	2.51471	0.272576	3.2549	0.885769	2.71595	0.996291	3.06033	0.820238	2.51478	0.542674	8.94368		
0.272509	3.25722	0.822684	2.51392	0.271772	3.28436	0.888244	2.71525	0.997071	3.05339	0.822485	2.51399	0.543145	9.10083		
0.27171	3.28679	0.824902	2.51305	0.271023	3.31522	0.890716	2.71454	0.99786	3.04651	0.824706	2.51313	0.543641	9.26375		
0.270966	3.31776	0.827092	2.5121	0.27033	3.34752	0.893183	2.71382	0.998659	3.03971	0.826898	2.51219	0.544162	9.43271		
0.270276	3.35018	0.829254	2.51107	0.26969	3.3813	0.895645	2.71309	0.999469	3.03298	0.829063	2.51116	0.544705	9.60803		
0.269641	3.38409	0.831387	2.50996	0.269103	3.41661	0.898103	2.71235	1.00029	3.02632	0.831198	2.51006	0.545272	9.79002		
0.269058	3.41952	0.83349	2.50876	0.268568	3.45348	0.900555	2.7116			0.833304	2.50887	0.545862	9.97906		
0.268527	3.45652	0.835564	2.50749	0.268082	3.49197	0.903001	2.71084			0.835381	2.50761	0.546473	10.1755		
0.268045	3.49514	0.837609	2.50613	0.267646	3.53211	0.905442	2.71006			0.837428	2.50626	0.547105	10.3798		
0.267613	3.53541	0.839624	2.5047	0.267258	3.57396	0.907876	2.70927			0.839446	2.50483	0.547757	10.5923		
0.267228	3.5774	0.841611	2.50319	0.266915	3.61757	0.910304	2.70847			0.841435	2.50333	0.54843	10.8136		
0.26689	3.62116	0.843569	2.5016	0.266618	3.66299	0.912725	2.70765			0.843396	2.50175	0.549121	11.0441		
0.266596	3.66673	0.845499	2.49994	0.266365	3.71029	0.91514	2.70681			0.845329	2.50009	0.549831	11.2845		
0.266347	3.71418	0.847403	2.49821	0.266155	3.75952	0.917546	2.70596			0.847235	2.49837	0.550559	11.5352		
0.26614	3.76356	0.849281	2.49642	0.265986	3.81074	0.919945	2.70508			0.849115	2.49658	0.551305	11.797		
0.265974	3.81495	0.851135	2.49456	0.265857	3.86404	0.922335	2.70419			0.850971	2.49473	0.552066	12.0706		
0.265848	3.86841	0.852964	2.49265	0.265767	3.91947	0.924717	2.70328			0.852803	2.49282	0.552844	12.3567		
0.265761	3.92402	0.854772	2.49068	0.265715	3.97712	0.927089	2.70235			0.854612	2.49086	0.553637	12.6562		
0.265712	3.98186	0.856559	2.48867	0.265699	4.03708	0.929452	2.70139			0.856401	2.48885	0.554444	12.9699		
0.265699	4.03414	0.858327	2.48661	0.26572	4.09942	0.931805	2.70042			0.85817	2.48679	0.555265	13.299		
0.26571	4.08013	0.860076	2.48451	0.265774	4.16425	0.934148	2.69941			0.859921	2.4847	0.556099	13.6445		
0.265733	4.11918	0.861809	2.48237	0.265862	4.23167	0.936479	2.69838			0.861655	2.48256	0.556945	14.0076		
0.26576	4.15074	0.863526	2.4802	0.265982	4.30178	0.938799	2.69733			0.863374	2.4804	0.557803	14.3896		
0.265785	4.17432	0.86523	2.47801	0.266134	4.3747	0.941108	2.69624			0.865079	2.4782	0.558671	14.7921		
0.265812	4.19631	0.866921	2.47579	0.266316	4.45056	0.943403	2.69513			0.866771	2.47599	0.559549	15.2166		
0.265833	4.21178	0.868601	2.47355	0.266527	4.52948	0.945686	2.69398			0.868452	2.47375	0.560436	15.665		
0.265869	4.23622	0.870271	2.47129	0.266766	4.6116	0.947955	2.69281			0.870123	2.4715	0.56133	16.1394		
0.265925	4.27002	0.871932	2.46903	0.267032	4.69708	0.950209	2.6916			0.871784	2.46923	0.562232	16.6419		
0.266005	4.3137	0.873585	2.46675	0.267324	4.78608	0.95245	2.69035			0.873438	2.46695	0.56314	17.1751		
0.266119	4.36795	0.875232	2.46447	0.267642	4.87877	0.954674	2.68907			0.875085	2.46467	0.564053	17.7419		
0.266273	4.43365	0.876872	2.46218	0.267984	4.97533	0.956883	2.68775			0.876727	2.46239	0.56497	18.3455		
0.266478	4.51188	0.878508	2.4599	0.268349	5.07598	0.959075	2.68639			0.878363	2.4601	0.565889	18.9895		
0.266711	4.59329	0.88014	2.45761	0.268737	5.18092	0.961251	2.685			0.879995	2.45782	0.56681	19.6781		
0.266971	4.67802	0.881769	2.45533	0.269146	5.29039	0.963408	2.68356			0.881625	2.45554	0.567731	20.4161		
0.267258	4.76623	0.883396	2.45306	0.269575	5.40464	0.965547	2.68207			0.883252	2.45326	0.568652	21.2088		
0.26757	4.85809	0.885021	2.45079	0.270024	5.52394	0.967668	2.68055			0.884877	2.451	0.569569	22.0626		
0.267907	4.95379	0.886646	2.44854	0.270491	5.64859	0.969769	2.67898			0.886501	2.44874	0.570483	22.9848		
0.268267	5.05352	0.88827	2.4463	0.270975	5.77891	0.971851	2.67736			0.888126	2.4465	0.571391	23.9839		
0.26865	5.1575	0.889895	2.44407	0.271476	5.91524	0.973912	2.6757			0.88975	2.44426	0.572292	25.0698		
0.269054	5.26595	0.89152	2.44185	0.271993	6.05797	0.975953	2.67399			0.891375	2.44205	0.573183	26.2544		
0.269479	5.37913	0.893147	2.43965	0.272524	6.2075	0.977972	2.67223			0.893002	2.43985	0.574064	27.5517		
0.269924	5.4973	0.894776	2.43747	0.273068	6.36429	0.97997	2.67042			0.894631	2.43766	0.574931	28.9785		
0.270387	5.62075	0.896407	2.43531	0.273552	6.50722	0.981946	2.66856			0.896262	2.4355	0.575782	30.5554		
0.270868	5.74979	0.898041	2.43316	0.273972	6.63397	0.9839	2.66665			0.897896	2.43335	0.576616	32.3074		
0.271365	5.88477	0.899679	2.43104	0.274324	6.74237	0.985832	2.66469			0.899533	2.43122	0.577429	34.2652		
0.271878	6.02606	0.90132	2.42893	0.274605	6.83049	0.987741	2.66269			0.901174	2.42912	0.57822	36.4675		
0.272406	6.17406	0.902965	2.42685	0.274813	6.89669	0.989628	2.66063			0.902818	2.42704	0.578985	38.9633		
0.272947	6.32922	0.904614	2.42479	0.275005	6.95867	0.991492	2.65852			0.904467	2.42498	0.579721	41.8157		
0.273501	6.49201	0.906267	2.42276	0.27514	7.00241	0.993334	2.65637			0.90612	2.42294	0.580426	45.1072		
0.274067	6.66296	0.907926	2.42075	0.27535	7.0718	0.995154	2.65416			0.907778	2.42092	0.581097	48.9481		
0.274643	6.84266	0.90959	2.41876	0.275639	7.16827	0.996952	2.65191			0.909442	2.41893	0.581729	53.4891		
0.275229	7.03175	0.911259	2.4168	0.276006	7.29388	0.998727	2.64962			0.91111	2.41697	0.58232	58.9415		
0.275823	7.23094	0.912934	2.41486	0.276454	7.4514	1.00048	2.64728			0.912784	2.41503	0.582867	65.6115		
0.276425	7.441	0.914614	2.41295	0.276983	7.64451					0.914464	2.41312	0.583367	73.9601		
0.277032	7.66281	0.916301	2.41106	0.277595	7.87797					0.916151	2.41123	0.583815	84.7145		
0.277645	7.89733	0.917994	2.4092	0.278212	8.12513					0.917843	2.40937	0.58421	99.0937		
0.278261	8.14564	0.919693	2.40737	0.278831	8.38718					0.919542	2.40753	0.584549	119.308		
0.278881	8.40895	0.921399	2.40556	0.279451	8.66547					0.921247	2.40572	0.584829	149.822		
0.279501	8.68861	0.923112	2.40378	0.280073	8.96152					0.922959	2.40394	0.585048	201.222		
0.280123	8.98615	0.924831	2.40203	0.280693	9.27703					0.924678	2.40219	0.585204	306.158		
0.280743	9.3033	0.926558	2.40031	0.281311	9.61395					0.926404	2.40046	0.585296	639.374		
0.281361	9.64204	0.928292	2.39861	0.281927	9.9745					0.928138	2.39876				
0.281976	10.0046	0.930034	2.39694	0.282537	10.3612					0.929878	2.39709				
0.282586	10.3935	0.931782	2.3953	0.283142	10.777					0.931627	2.39544				
0.28319	10.8118	0.933539	2.39368	0.283739	11.2253					0.933382	2.39383				
0.283787	11.2629	0.935303	2.3921	0.284329	11.7101					0.935146	2.39224				
0.284375	11.7508	0.937075	2.39054	0.284908	12.2359					0.936917	2.39068				
0.284954	12.2801	0.938855	2.38901	0.285476	12.8082					0.938696	2.38915				
0.285521	12.8564	0.940643	2.38751	0.286032	13.4334					0.940483	2.38764				
0.286076	13.4862	0.942439	2.38604	0.286574	14.1193					0.942279	2.38617				
0.286617	14.1774	0.944243	2.38459	0.287101	14.8753					0.944082	2.38472				
0.287143	14.9395	0.946055	2.38317	0.287611	15.7126					0.945894	2.3833				
0.287652	15.7839	0.947876	2.38178	0.288104	16.6453					0.947714	2.38191				
0.288143	16.7249	0.949705	2.38042	0.288578	17.6906					0.949542	2.38054				
0.288615	17.7802	0.951543	2.37909	0.289031	18.8707					0.951379	2.37921				
0.289067	18.9722	0.953389	2.37778	0.289463	20.2133					0.953225	2.3779				
0.289497	20.3294	0.955244	2.37651	0.289872	21.755					0.955079	2.37662				
0.289904	21.889	0.957107	2.37526	0.290257	23.5438					0.956941	2.37537				
0.290287	23.7002	0.958979	2.37403	0.290616	25.6449					0.958813	2.37414				
0.290644	25.8299	0.96086	2.37284	0.29095	28.1483					0.960692	2.37294				
0.290976	28.3707	0.96275	2.37167	0.291256	31.1828					0.962581	2.37177				
0.29128	31.4551	0.964648	2.37053	0.291535	34.9383					0.964479	2.37063				
0.291556	35.2796	0.966555	2.36942	0.291784	39.708					0.966385	2.36952				
0.291802	40.1482	0.968471	2.36833	0.292003	45.9687					0.9683	2.36843				
0.292019	46.5584	0.970396	2.36727	0.292192	54.5522					0.970224	2.36737				
0.292206	55.3831	0.97233	2.36624	0.292349	67.05					0.972157	2.36633				
0.292361	68.3077	0.974272	2.36524	0.292475	86.939					0.974099	2.36532				
0.292484	89.0624	0.976224	2.36426	0.292569	123.545					0.97605	2.36434				
0.292575	127.873	0.978184	2.3633	0.29263	213.272					0.97801	2.36339				
0.292634	226.499	0.980154	2.36238	0.292659	778.197					0.979978	2.36246				
0.29266	988.842	0.982132	2.36148							0.981956	2.36156				
		0.984119	2.3606							0.983942	2.36068				
		0.986116	2.35975							0.985938	2.35983				
		0.988121	2.35893							0.987942	2.359				
		0.990135	2.35813							0.989955	2.3582				
		0.992158	2.35735							0.991977	2.35742				
		0.994189	2.35661							0.994008	2.35667				
		0.99623	2.35588							0.996048	2.35594				
		0.99828	2.35518							0.998097	2.35524				
		1.00034	2.3545							1.00015	2.35456				
