Sym0		Sym1		Sym2		Sym3		Asym1		Asym2		Asym3	
409  Points		409  Points		379  Points		219  Points		400  Points		329  Points		210  Points	
Freq (MHz)	Vph (m/ms)	Freq (MHz)	Vph (m/ms)	Freq (MHz)	Vph (m/ms)	Freq (MHz)	Vph (m/ms)	Freq (MHz)	Vph (m/ms)	Freq (MHz)	Vph (m/ms)	Freq (MHz)	Vph (m/ms)
1.00119	2.49311	1.00069	2.49332	0.433086	495.934	0.866025	1052.4	0.216513	521.622	1.00005	3.1025	0.808529	36323.7
0.999077	2.49402	0.998573	2.49424	0.433347	231.823	0.866021	476.116	0.21658	153.483	0.998779	3.10817	0.808545	794.028
0.996968	2.49496	0.996464	2.49518	0.433787	151.392	0.866016	307.648	0.21672	90.0327	0.997512	3.11388	0.808591	401.424
0.994864	2.49592	0.994362	2.49615	0.434393	112.498	0.866008	227.24	0.216933	63.7447	0.996243	3.11962	0.808666	268.63
0.992767	2.49689	0.992266	2.49713	0.435149	89.5853	0.865998	180.153	0.217218	49.3769	0.994972	3.12539	0.808771	201.872
0.990675	2.49789	0.990177	2.49813	0.436037	74.493	0.865985	149.23	0.217574	40.3274	0.993699	3.13119	0.808906	161.704
0.98859	2.49891	0.988093	2.49915	0.43704	63.8068	0.86597	127.366	0.218002	34.1096	0.992424	3.13701	0.809071	134.881
0.986511	2.49995	0.986015	2.5002	0.438142	55.8466	0.865953	111.09	0.218499	29.5779	0.991146	3.14287	0.809264	115.701
0.984438	2.50101	0.983944	2.50126	0.439329	49.6896	0.865933	98.5012	0.219066	26.1313	0.989866	3.14876	0.809488	101.307
0.982371	2.50209	0.981878	2.50235	0.44059	44.7868	0.865911	88.4746	0.2197	23.424	0.988583	3.15467	0.80974	90.1065
0.98031	2.50319	0.979818	2.50345	0.441914	40.7914	0.865887	80.3001	0.220402	21.2429	0.987298	3.16061	0.810021	81.1441
0.978254	2.50431	0.977764	2.50458	0.443293	37.4734	0.865861	73.5078	0.221168	19.4496	0.986009	3.16659	0.81033	73.8105
0.976204	2.50545	0.975715	2.50572	0.444719	34.6744	0.865833	67.7746	0.221999	17.9504	0.984717	3.17258	0.810668	67.6993
0.97416	2.50661	0.973673	2.50689	0.446187	32.2819	0.865802	62.8705	0.222892	16.6793	0.983421	3.17861	0.811034	62.5288
0.972121	2.50779	0.971635	2.50808	0.447691	30.2134	0.86577	58.6278	0.223846	15.5888	0.982121	3.18466	0.811428	58.0978
0.970088	2.50899	0.969603	2.50928	0.449227	28.4076	0.865736	54.9211	0.224859	14.6436	0.980817	3.19074	0.811849	54.2585
0.96806	2.51021	0.967576	2.51051	0.450793	26.8175	0.8657	51.6549	0.225929	13.8171	0.979509	3.19684	0.812297	50.9001
0.966037	2.51145	0.965555	2.51175	0.452384	25.4067	0.865662	48.7551	0.227056	13.0887	0.978197	3.20297	0.812772	47.9379
0.96402	2.51272	0.963539	2.51302	0.453998	24.1466	0.865622	46.1632	0.228237	12.4424	0.97688	3.20912	0.813273	45.3059
0.962007	2.514	0.961527	2.51431	0.455634	23.0144	0.86558	43.8327	0.22947	11.8654	0.975558	3.2153	0.8138	42.952
0.96	2.5153	0.959521	2.51561	0.457288	21.9916	0.865537	41.726	0.230755	11.3474	0.97423	3.2215	0.814352	40.8345
0.957997	2.51662	0.957519	2.51694	0.458961	21.0631	0.865493	39.8122	0.232088	10.88	0.972898	3.22773	0.81493	38.9197
0.955998	2.51796	0.955522	2.51828	0.460649	20.2165	0.865447	38.066	0.233469	10.4565	0.971559	3.23397	0.815532	37.1798
0.954005	2.51931	0.953529	2.51964	0.462353	19.4414	0.865399	36.4663	0.234895	10.0711	0.970215	3.24024	0.816158	35.5922
0.952015	2.52069	0.951541	2.52102	0.46407	18.7292	0.865351	34.9955	0.236365	9.71911	0.968865	3.24653	0.816808	34.1378
0.95003	2.52209	0.949557	2.52242	0.4658	18.0726	0.865301	33.6385	0.237878	9.39647	0.967508	3.25284	0.817482	32.8005
0.948049	2.5235	0.947576	2.52384	0.467543	17.4652	0.86525	32.3827	0.239229	9.13659	0.966145	3.25917	0.818178	31.5669
0.946072	2.52493	0.9456	2.52528	0.469296	16.9019	0.865198	31.2171	0.240405	8.92917	0.964774	3.26552	0.818897	30.4254
0.944099	2.52638	0.943628	2.52673	0.47106	16.3779	0.865146	30.1323	0.241393	8.76663	0.963397	3.27189	0.819637	29.3662
0.942129	2.52785	0.941659	2.5282	0.472834	15.8893	0.865092	29.1202	0.242184	8.6435	0.962012	3.27827	0.820399	28.3807
0.940163	2.52933	0.939693	2.52969	0.474618	15.4327	0.865038	28.1738	0.242771	8.55584	0.960619	3.28468	0.821182	27.4615
0.9382	2.53083	0.937731	2.53119	0.47641	15.005	0.864983	27.2868	0.243149	8.50096	0.959218	3.2911	0.821985	26.6023
0.936239	2.53235	0.935772	2.53271	0.47821	14.6036	0.864928	26.4539	0.243696	8.42369	0.95781	3.29753	0.822809	25.7974
0.934282	2.53388	0.933815	2.53425	0.480018	14.2261	0.864873	25.6702	0.244295	8.34182	0.956392	3.30398	0.823652	25.0418
0.932328	2.53543	0.931861	2.5358	0.481834	13.8705	0.864817	24.9315	0.245116	8.23384	0.954966	3.31045	0.824513	24.3312
0.930376	2.53699	0.92991	2.53737	0.483657	13.5349	0.864762	24.2341	0.246166	8.10259	0.953532	3.31692	0.825394	23.6617
0.928426	2.53857	0.927961	2.53895	0.485486	13.2177	0.864707	23.5745	0.247452	7.95129	0.952087	3.32342	0.826292	23.0299
0.926478	2.54016	0.926013	2.54054	0.487322	12.9173	0.864651	22.9498	0.248984	7.78341	0.950634	3.32992	0.827209	22.4327
0.924532	2.54177	0.924067	2.54215	0.489163	12.6326	0.864596	22.3573	0.25077	7.60253	0.94917	3.33643	0.828142	21.8673
0.922588	2.54339	0.922123	2.54377	0.49101	12.3623	0.864542	21.7945	0.252585	7.43311	0.947697	3.34296	0.829092	21.3314
0.920644	2.54502	0.92018	2.54541	0.492863	12.1054	0.864488	21.2594	0.254428	7.27413	0.946213	3.34949	0.830058	20.8227
0.918702	2.54666	0.918238	2.54705	0.49472	11.8609	0.864436	20.7498	0.256298	7.12471	0.944719	3.35604	0.83104	20.3391
0.916761	2.54831	0.916297	2.54871	0.496582	11.6279	0.864383	20.2641	0.258193	6.98402	0.943214	3.36259	0.832037	19.8789
0.91482	2.54998	0.914356	2.55038	0.498449	11.4056	0.864333	19.8006	0.260113	6.85135	0.941698	3.36915	0.833049	19.4405
0.912879	2.55165	0.912415	2.55205	0.50032	11.1933	0.864283	19.3577	0.262056	6.72606	0.940171	3.37571	0.834075	19.0223
0.910938	2.55334	0.910474	2.55374	0.502194	10.9903	0.864235	18.9343	0.26402	6.60757	0.938633	3.38229	0.835115	18.623
0.908996	2.55503	0.908533	2.55543	0.504073	10.7961	0.864188	18.5289	0.266006	6.49536	0.937083	3.38886	0.836169	18.2413
0.907054	2.55673	0.90659	2.55713	0.505954	10.61	0.864143	18.1405	0.268012	6.38895	0.935521	3.39544	0.837236	17.8761
0.905111	2.55843	0.904647	2.55884	0.507839	10.4317	0.8641	17.7681	0.270037	6.28792	0.933947	3.40203	0.838315	17.5265
0.903166	2.56014	0.902702	2.56055	0.509727	10.2605	0.864059	17.4107	0.272079	6.19188	0.932361	3.40862	0.839407	17.1913
0.90122	2.56186	0.900755	2.56227	0.511618	10.0962	0.86402	17.0674	0.274139	6.10048	0.930762	3.41521	0.84051	16.8698
0.899272	2.56358	0.898806	2.56399	0.513511	9.93819	0.863983	16.7373	0.276215	6.01339	0.929151	3.4218	0.841625	16.5611
0.897321	2.5653	0.896854	2.56571	0.515407	9.78623	0.86395	16.4199	0.278307	5.93033	0.927527	3.4284	0.84275	16.2644
0.895367	2.56702	0.8949	2.56744	0.517304	9.63995	0.863918	16.1142	0.280413	5.85102	0.92589	3.43499	0.843886	15.9792
0.89341	2.56875	0.892942	2.56916	0.519204	9.49904	0.86389	15.8198	0.282532	5.77522	0.92424	3.44159	0.845033	15.7047
0.891449	2.57047	0.89098	2.57088	0.52086	9.38039	0.863865	15.536	0.284665	5.70271	0.922577	3.44819	0.846189	15.4404
0.889485	2.5722	0.889015	2.57261	0.522274	9.28215	0.863843	15.2622	0.28681	5.63327	0.9209	3.45478	0.847354	15.1857
0.887516	2.57392	0.887045	2.57433	0.523443	9.20286	0.863824	14.9979	0.288966	5.56672	0.91921	3.46137	0.848528	14.94
0.885542	2.57563	0.88507	2.57604	0.524367	9.14136	0.863809	14.7427	0.291133	5.50288	0.917506	3.46797	0.849711	14.703
0.883564	2.57734	0.88309	2.57775	0.525047	9.0968	0.863798	14.4961	0.29331	5.44159	0.915789	3.47456	0.850902	14.4742
0.881579	2.57905	0.881104	2.57945	0.525483	9.06858	0.863791	14.2577	0.295497	5.38269	0.914058	3.48114	0.852101	14.2531
0.879589	2.58075	0.879113	2.58115	0.526109	9.02839	0.863788	14.027	0.297692	5.32605	0.912313	3.48773	0.853307	14.0393
0.877593	2.58243	0.877115	2.58284	0.526789	8.98521	0.86379	13.8038	0.299896	5.27154	0.910554	3.49431	0.854521	13.8326
0.875589	2.58411	0.87511	2.58451	0.527715	8.92734	0.863796	13.5876	0.302107	5.21903	0.908782	3.50089	0.855741	13.6326
0.873579	2.58578	0.873098	2.58618	0.528885	8.85548	0.863807	13.3782	0.304325	5.16842	0.906995	3.50747	0.856967	13.4389
0.871561	2.58744	0.871078	2.58783	0.530301	8.77054	0.863823	13.1752	0.30655	5.1196	0.905195	3.51404	0.8582	13.2512
0.869535	2.58908	0.86905	2.58947	0.531963	8.67351	0.863844	12.9783	0.30878	5.07247	0.903381	3.52061	0.859438	13.0693
0.867502	2.59071	0.867015	2.59109	0.53387	8.5655	0.86387	12.7874	0.311016	5.02695	0.901553	3.52718	0.860682	12.893
0.865459	2.59232	0.86497	2.5927	0.535777	8.46089	0.863902	12.602	0.313257	4.98295	0.899711	3.53374	0.861931	12.7219
0.863408	2.59391	0.862917	2.59429	0.537684	8.35952	0.86394	12.4221	0.315502	4.94039	0.897855	3.5403	0.863184	12.5558
0.861348	2.59549	0.860854	2.59586	0.539591	8.26123	0.863984	12.2473	0.317751	4.8992	0.895986	3.54686	0.864441	12.3945
0.859278	2.59705	0.858782	2.59742	0.541497	8.16589	0.864033	12.0775	0.320004	4.8593	0.894103	3.55342	0.865703	12.2378
0.857198	2.59858	0.8567	2.59895	0.543402	8.07336	0.86409	11.9125	0.322259	4.82064	0.892206	3.55997	0.866968	12.0855
0.855109	2.6001	0.854608	2.60046	0.545307	7.98352	0.864153	11.752	0.324517	4.78314	0.890296	3.56652	0.868237	11.9375
0.853009	2.6016	0.852506	2.60195	0.547211	7.89624	0.864222	11.5958	0.326776	4.74677	0.888373	3.57308	0.869509	11.7935
0.850899	2.60307	0.850393	2.60342	0.549113	7.81142	0.864299	11.4439	0.329038	4.71145	0.886436	3.57963	0.870783	11.6533
0.848778	2.60452	0.84827	2.60486	0.551014	7.72895	0.864383	11.2961	0.3313	4.67714	0.884487	3.58618	0.87206	11.5169
0.846647	2.60594	0.846136	2.60628	0.552913	7.64873	0.864475	11.1521	0.333563	4.64379	0.882524	3.59273	0.873339	11.384
0.844504	2.60734	0.843991	2.60767	0.554811	7.57067	0.864574	11.0119	0.335827	4.61135	0.880549	3.59928	0.87462	11.2546
0.842351	2.60871	0.841835	2.60904	0.556706	7.49467	0.864681	10.8753	0.33809	4.57979	0.878561	3.60584	0.875902	11.1285
0.840187	2.61006	0.839668	2.61038	0.558599	7.42066	0.864796	10.7422	0.340352	4.54907	0.876561	3.6124	0.877186	11.0055
0.838012	2.61138	0.83749	2.6117	0.56049	7.34854	0.86492	10.6124	0.342614	4.51913	0.874549	3.61896	0.87847	10.8856
0.835825	2.61268	0.835301	2.61299	0.562378	7.27825	0.865052	10.4859	0.344874	4.48996	0.872525	3.62553	0.879756	10.7686
0.833628	2.61395	0.833101	2.61425	0.564263	7.20971	0.865192	10.3625	0.347133	4.46151	0.87049	3.6321	0.881041	10.6545
0.831419	2.61519	0.83089	2.61549	0.566146	7.14286	0.865342	10.2421	0.34939	4.43376	0.868442	3.63868	0.882327	10.543
0.8292	2.61641	0.828668	2.6167	0.568025	7.07763	0.865501	10.1246	0.351644	4.40666	0.866384	3.64527	0.883612	10.4342
0.82697	2.6176	0.826435	2.61788	0.569901	7.01396	0.865647	10.0245	0.353895	4.3802	0.864315	3.65187	0.884897	10.3279
0.824729	2.61876	0.824192	2.61904	0.571773	6.95178	0.865777	9.94086	0.356143	4.35434	0.862235	3.65848	0.886181	10.224
0.822477	2.6199	0.821938	2.62016	0.573642	6.89105	0.865889	9.87279	0.358387	4.32907	0.860144	3.6651	0.887464	10.1225
0.820215	2.62101	0.819673	2.62127	0.575506	6.83171	0.86598	9.81966	0.360628	4.30434	0.858044	3.67173	0.888581	10.0359
0.817942	2.62209	0.817398	2.62235	0.577367	6.77371	0.866049	9.78098	0.362864	4.28015	0.855933	3.67838	0.889532	9.96337
0.81566	2.62315	0.815113	2.6234	0.579223	6.71699	0.866093	9.7564	0.365095	4.25646	0.853814	3.68504	0.890318	9.9043
0.813367	2.62418	0.812818	2.62442	0.581075	6.66152	0.866158	9.72129	0.367322	4.23326	0.851684	3.69172	0.890939	9.85815
0.811064	2.62519	0.810513	2.62543	0.582922	6.60725	0.86623	9.68344	0.369543	4.21053	0.849546	3.69842	0.891395	9.82453
0.808752	2.62617	0.808199	2.6264	0.584764	6.55413	0.86633	9.63246	0.371758	4.18824	0.847399	3.70514	0.891687	9.80315
0.806431	2.62713	0.805875	2.62736	0.586601	6.50214	0.866459	9.5688	0.373968	4.16638	0.845244	3.71188	0.892106	9.77259
0.8041	2.62807	0.803542	2.62829	0.588432	6.45121	0.866621	9.49303	0.376171	4.14493	0.843081	3.71865	0.892561	9.73963
0.801761	2.62898	0.801201	2.62919	0.590258	6.40133	0.866819	9.40576	0.378367	4.12387	0.840911	3.72544	0.89318	9.6952
0.799413	2.62987	0.798851	2.63008	0.592079	6.35246	0.867056	9.30774	0.380556	4.10319	0.838732	3.73226	0.893962	9.63967
0.797056	2.63073	0.796492	2.63094	0.593894	6.30456	0.867304	9.21191	0.382738	4.08287	0.836547	3.73911	0.894907	9.57347
0.794691	2.63158	0.794125	2.63178	0.595702	6.25759	0.867564	9.1182	0.384913	4.06289	0.834355	3.74599	0.896012	9.49712
0.792319	2.63241	0.791751	2.6326	0.597505	6.21153	0.867835	9.02656	0.387079	4.04325	0.832157	3.7529	0.897278	9.41118
0.789938	2.63321	0.789368	2.6334	0.5993	6.16635	0.868118	8.93691	0.389237	4.02393	0.829953	3.75985	0.898541	9.32699
0.78755	2.634	0.786979	2.63418	0.60109	6.12203	0.868412	8.84921	0.391386	4.00491	0.827743	3.76683	0.8998	9.24448
0.785155	2.63476	0.784582	2.63494	0.602872	6.07852	0.868719	8.76339	0.393527	3.98619	0.825528	3.77386	0.901056	9.16361
0.782753	2.63551	0.782178	2.63569	0.604648	6.03581	0.869039	8.67941	0.395658	3.96775	0.823308	3.78093	0.902307	9.08432
0.780344	2.63624	0.779767	2.63641	0.606416	5.99386	0.869371	8.5972	0.39778	3.94957	0.821083	3.78804	0.903554	9.00656
0.777928	2.63695	0.77735	2.63712	0.608177	5.95267	0.869715	8.51672	0.399892	3.93166	0.818854	3.79519	0.904797	8.93028
0.775506	2.63765	0.774927	2.63781	0.609931	5.91219	0.870073	8.43793	0.401994	3.914	0.816621	3.80239	0.906035	8.85544
0.773078	2.63833	0.772497	2.63849	0.611677	5.87242	0.870444	8.36076	0.404086	3.89657	0.814384	3.80965	0.907268	8.782
0.770644	2.63899	0.770062	2.63915	0.613415	5.83333	0.870828	8.28519	0.406166	3.87938	0.812145	3.81696	0.908496	8.70992
0.768205	2.63964	0.767621	2.63979	0.615145	5.79489	0.871227	8.21117	0.408236	3.86241	0.809902	3.82432	0.909719	8.63915
0.765759	2.64027	0.765174	2.64042	0.616866	5.75709	0.871638	8.13865	0.410295	3.84565	0.807657	3.83174	0.910936	8.56965
0.763309	2.64089	0.762723	2.64104	0.61858	5.71991	0.872064	8.0676	0.412343	3.82909	0.80541	3.83922	0.912148	8.50139
0.760853	2.6415	0.760266	2.64164	0.620284	5.68333	0.872505	7.99797	0.414378	3.81273	0.803161	3.84677	0.913354	8.43433
0.758393	2.64209	0.757804	2.64223	0.621981	5.64733	0.872959	7.92974	0.416402	3.79656	0.800911	3.85438	0.914553	8.36843
0.755927	2.64268	0.755338	2.64281	0.623668	5.6119	0.873428	7.86286	0.418414	3.78057	0.79866	3.86205	0.915746	8.30367
0.753457	2.64325	0.752867	2.64338	0.625346	5.57701	0.873912	7.7973	0.420413	3.76475	0.796408	3.8698	0.916933	8.24002
0.750983	2.6438	0.750392	2.64393	0.627015	5.54266	0.874411	7.73303	0.4224	3.74911	0.794156	3.87763	0.918114	8.17743
0.748505	2.64435	0.747912	2.64448	0.628674	5.50883	0.874925	7.67002	0.424374	3.73362	0.791904	3.88553	0.919287	8.11588
0.746022	2.64489	0.745428	2.64501	0.630324	5.4755	0.875454	7.60822	0.426335	3.71829	0.789652	3.89351	0.920454	8.05535
0.743535	2.64541	0.742941	2.64554	0.631965	5.44266	0.875999	7.54763	0.428283	3.70311	0.787402	3.90157	0.921614	7.9958
0.741045	2.64593	0.74045	2.64605	0.633595	5.41029	0.876559	7.48819	0.430218	3.68808	0.785152	3.90972	0.922767	7.93721
0.738551	2.64643	0.737955	2.64655	0.635216	5.37839	0.877136	7.4299	0.432139	3.67318	0.782904	3.91796	0.923912	7.87956
0.736054	2.64693	0.735456	2.64705	0.636827	5.34693	0.877728	7.37271	0.434047	3.65842	0.780658	3.92629	0.92505	7.82281
0.733553	2.64742	0.732955	2.64754	0.638427	5.31591	0.878336	7.3166	0.435941	3.6438	0.778415	3.93472	0.92618	7.76695
0.731048	2.6479	0.73045	2.64802	0.640017	5.28532	0.87896	7.26156	0.437821	3.6293	0.776174	3.94324	0.927303	7.71195
0.728541	2.64837	0.727942	2.64849	0.641597	5.25514	0.879601	7.20754	0.439687	3.61492	0.773936	3.95187	0.928418	7.65779
0.726031	2.64884	0.725431	2.64895	0.643166	5.22537	0.880258	7.15453	0.441539	3.60066	0.771702	3.96061	0.929525	7.60445
0.723518	2.6493	0.722917	2.64941	0.644725	5.19598	0.880932	7.10251	0.443377	3.58652	0.769472	3.96945	0.930624	7.5519
0.721002	2.64975	0.7204	2.64986	0.646273	5.16698	0.881622	7.05145	0.4452	3.57248	0.767246	3.97841	0.931716	7.50014
0.718483	2.65019	0.717881	2.6503	0.64781	5.13835	0.88233	7.00133	0.44701	3.55856	0.765025	3.98749	0.932799	7.44913
0.715962	2.65063	0.715359	2.65074	0.649336	5.11009	0.883054	6.95213	0.448805	3.54474	0.762808	3.99668	0.933874	7.39887
0.713438	2.65107	0.712835	2.65117	0.650851	5.08218	0.883795	6.90383	0.450585	3.53103	0.760598	4.00601	0.934941	7.34933
0.710912	2.65149	0.710308	2.65159	0.652356	5.05461	0.884553	6.85641	0.452352	3.51742	0.758393	4.01546	0.936	7.3005
0.708384	2.65191	0.70778	2.65201	0.653849	5.02738	0.885329	6.80984	0.454104	3.5039	0.756194	4.02504	0.937051	7.25235
0.705853	2.65233	0.705248	2.65243	0.655331	5.00048	0.886121	6.76412	0.455842	3.49049	0.754002	4.03477	0.938094	7.20488
0.703321	2.65274	0.702715	2.65284	0.656801	4.9739	0.886931	6.71921	0.457565	3.47717	0.751817	4.04463	0.939128	7.15806
0.700786	2.65315	0.70018	2.65325	0.658261	4.94763	0.887759	6.67511	0.459275	3.46394	0.74964	4.05465	0.940154	7.11189
0.698249	2.65355	0.697643	2.65365	0.659709	4.92167	0.888603	6.6318	0.46097	3.4508	0.747471	4.06481	0.941172	7.06635
0.695711	2.65395	0.695104	2.65405	0.661146	4.89601	0.889465	6.58925	0.462651	3.43775	0.74531	4.07513	0.942182	7.02143
0.693171	2.65435	0.692563	2.65444	0.662571	4.87064	0.890345	6.54745	0.464318	3.4248	0.743157	4.08561	0.943183	6.9771
0.690629	2.65474	0.690021	2.65483	0.663985	4.84556	0.891242	6.50639	0.465972	3.41193	0.741014	4.09626	0.944177	6.93336
0.688085	2.65512	0.687477	2.65522	0.665388	4.82075	0.892156	6.46605	0.467612	3.39914	0.73888	4.10708	0.945162	6.8902
0.68554	2.65551	0.684932	2.6556	0.666779	4.79622	0.893088	6.42642	0.469238	3.38645	0.736757	4.11807	0.946139	6.84761
0.682993	2.65589	0.682384	2.65598	0.668159	4.77196	0.894037	6.38747	0.470851	3.37383	0.734643	4.12925	0.947108	6.80556
0.680445	2.65627	0.679836	2.65636	0.669528	4.74796	0.895004	6.34919	0.472451	3.36131	0.732541	4.14061	0.94807	6.76406
0.677895	2.65665	0.677286	2.65674	0.670885	4.72421	0.895988	6.31158	0.474037	3.34887	0.73045	4.15217	0.949024	6.72309
0.675344	2.65702	0.674735	2.65711	0.672231	4.70072	0.89699	6.27461	0.475611	3.33651	0.72837	4.16393	0.949969	6.68264
0.672792	2.65739	0.672182	2.65748	0.673566	4.67748	0.898009	6.23827	0.477173	3.32423	0.726303	4.17589	0.950908	6.64269
0.670239	2.65777	0.669629	2.65785	0.674889	4.65447	0.899045	6.20255	0.478722	3.31204	0.724249	4.18806	0.951838	6.60325
0.667685	2.65813	0.667074	2.65822	0.676202	4.63171	0.900099	6.16744	0.480259	3.29994	0.722207	4.20044	0.952761	6.5643
0.665129	2.6585	0.664518	2.65859	0.677503	4.60918	0.901169	6.13292	0.481784	3.28792	0.720179	4.21305	0.953677	6.52583
0.662572	2.65887	0.661961	2.65896	0.678793	4.58687	0.902257	6.09898	0.483298	3.27598	0.718164	4.22589	0.954586	6.48783
0.660015	2.65923	0.659403	2.65932	0.680073	4.5648	0.903361	6.06561	0.4848	3.26412	0.716164	4.23897	0.955488	6.45029
0.657456	2.6596	0.656845	2.65969	0.681341	4.54294	0.904483	6.0328	0.486291	3.25235	0.714179	4.25229	0.956383	6.41321
0.654897	2.65996	0.654285	2.66005	0.682599	4.5213	0.905621	6.00052	0.487771	3.24066	0.712209	4.26586	0.957271	6.37657
0.652336	2.66033	0.651725	2.66041	0.683846	4.49987	0.906776	5.96879	0.489241	3.22906	0.710255	4.27968	0.958152	6.34038
0.649775	2.66069	0.649163	2.66078	0.685083	4.47866	0.907948	5.93757	0.490701	3.21754	0.708317	4.29377	0.959028	6.30462
0.647213	2.66105	0.646601	2.66114	0.686309	4.45765	0.909136	5.90686	0.492151	3.20611	0.706395	4.30814	0.959896	6.26928
0.644651	2.66141	0.644039	2.6615	0.687525	4.43684	0.91034	5.87666	0.493591	3.19477	0.70449	4.32278	0.960759	6.23436
0.642088	2.66178	0.641475	2.66186	0.688731	4.41624	0.91156	5.84694	0.495023	3.18351	0.702603	4.33771	0.961616	6.19985
0.639524	2.66214	0.638911	2.66223	0.689926	4.39583	0.912797	5.8177	0.496445	3.17233	0.700733	4.35293	0.962467	6.16574
0.636959	2.66251	0.636347	2.66259	0.691112	4.37562	0.914049	5.78893	0.497859	3.16125	0.698882	4.36846	0.963313	6.13203
0.634395	2.66287	0.633782	2.66296	0.692288	4.3556	0.915317	5.76063	0.499265	3.15025	0.69705	4.3843	0.964153	6.09871
0.631829	2.66324	0.631216	2.66333	0.693455	4.33576	0.9166	5.73277	0.500662	3.13934	0.695236	4.40047	0.964989	6.06578
0.629263	2.6636	0.62865	2.66369	0.694612	4.31612	0.917898	5.70534	0.502053	3.12852	0.693442	4.41696	0.965819	6.03323
0.626697	2.66397	0.626084	2.66406	0.69576	4.29666	0.919212	5.67836	0.503436	3.11779	0.691669	4.43379	0.966645	6.00105
0.62413	2.66434	0.623517	2.66443	0.696898	4.27738	0.92054	5.65179	0.504812	3.10714	0.689915	4.45097	0.967466	5.96924
0.621563	2.66472	0.62095	2.66481	0.698028	4.25829	0.921884	5.62563	0.506182	3.09659	0.688182	4.4685	0.968283	5.93779
0.618996	2.66509	0.618383	2.66518	0.699149	4.23937	0.923241	5.59988	0.507545	3.08613	0.686471	4.4864	0.969096	5.9067
0.616429	2.66547	0.615815	2.66556	0.700262	4.22062	0.924613	5.57452	0.508903	3.07576	0.684781	4.50468	0.969906	5.87596
0.613861	2.66585	0.613248	2.66594	0.701366	4.20205	0.925999	5.54955	0.510255	3.06548	0.683113	4.52335	0.970712	5.84557
0.611293	2.66623	0.61068	2.66632	0.702462	4.18365	0.927399	5.52496	0.511602	3.05529	0.681467	4.54241	0.971514	5.81552
0.608725	2.66661	0.608112	2.6667	0.70355	4.16542	0.928812	5.50074	0.512945	3.04519	0.679844	4.56188	0.972314	5.78581
0.606157	2.667	0.605544	2.66709	0.704631	4.14736	0.930239	5.47689	0.514283	3.03518	0.678244	4.58176	0.97311	5.75643
0.603589	2.66739	0.602976	2.66748	0.705703	4.12947	0.931679	5.45338	0.515617	3.02527	0.676667	4.60208	0.973904	5.72738
0.601021	2.66778	0.600408	2.66788	0.706769	4.11174	0.933132	5.43023	0.516947	3.01545	0.675114	4.62283	0.974696	5.69866
0.598453	2.66818	0.59784	2.66827	0.707827	4.09417	0.934597	5.40741	0.518273	3.00573	0.673586	4.64403	0.975486	5.67026
0.595885	2.66858	0.595272	2.66868	0.708878	4.07676	0.936075	5.38493	0.519596	2.9961	0.672081	4.6657	0.976274	5.64217
0.593317	2.66899	0.592704	2.66908	0.709923	4.05952	0.937565	5.36277	0.520917	2.98656	0.670601	4.68784	0.977061	5.6144
0.59075	2.6694	0.590136	2.66949	0.710961	4.04243	0.939066	5.34094	0.522235	2.97712	0.669146	4.71047	0.977846	5.58694
0.588182	2.66981	0.587569	2.66991	0.711992	4.0255	0.94058	5.31941	0.523551	2.96777	0.667716	4.73359	0.978631	5.55978
0.585615	2.67023	0.585002	2.67033	0.713018	4.00872	0.942104	5.29819	0.524865	2.95851	0.666312	4.75723	0.979414	5.53292
0.583048	2.67065	0.582435	2.67076	0.714038	3.9921	0.94364	5.27726	0.526177	2.94935	0.664933	4.78139	0.980197	5.50636
0.580482	2.67108	0.579868	2.67119	0.715052	3.97563	0.945187	5.25663	0.527489	2.94028	0.663581	4.80608	0.98098	5.4801
0.577915	2.67152	0.577302	2.67163	0.71606	3.95931	0.946744	5.23629	0.528799	2.93131	0.662254	4.83132	0.981763	5.45413
0.57535	2.67196	0.574737	2.67207	0.717064	3.94314	0.948311	5.21622	0.530108	2.92243	0.660954	4.85713	0.982547	5.42844
0.572784	2.67241	0.572172	2.67252	0.718062	3.92712	0.949889	5.19643	0.531417	2.91365	0.65968	4.88352	0.983331	5.40304
0.57022	2.67287	0.569607	2.67298	0.719056	3.91125	0.951476	5.1769	0.532726	2.90496	0.658433	4.91049	0.984116	5.37792
0.567655	2.67333	0.567043	2.67344	0.720045	3.89553	0.953072	5.15764	0.534035	2.89637	0.657212	4.93807	0.984903	5.35308
0.565092	2.6738	0.564479	2.67391	0.72103	3.87995	0.954678	5.13863	0.535344	2.88787	0.656019	4.96627	0.98569	5.32852
0.562529	2.67427	0.561917	2.67439	0.72201	3.86451	0.956293	5.11987	0.536654	2.87947	0.654852	4.9951	0.98648	5.30423
0.559967	2.67476	0.559355	2.67487	0.722987	3.84922	0.957916	5.10136	0.537965	2.87116	0.653713	5.02459	0.987272	5.28021
0.557405	2.67525	0.556794	2.67537	0.72396	3.83407	0.959548	5.08309	0.539277	2.86294	0.652601	5.05474	0.988066	5.25645
0.554845	2.67575	0.554233	2.67587	0.724929	3.81906	0.961187	5.06505	0.540591	2.85482	0.651516	5.08557	0.988862	5.23296
0.552285	2.67626	0.551674	2.67639	0.725895	3.80418	0.962835	5.04724	0.541906	2.84679	0.650459	5.1171	0.989662	5.20973
0.549726	2.67678	0.549115	2.67691	0.726859	3.78945	0.96449	5.02965	0.543223	2.83886	0.649428	5.14934	0.990465	5.18676
0.547169	2.67731	0.546558	2.67744	0.727819	3.77486	0.966152	5.01229	0.544542	2.83101	0.648425	5.18231	0.991271	5.16405
0.544612	2.67785	0.544001	2.67799	0.728777	3.7604	0.967821	4.99514	0.545864	2.82326	0.64745	5.21604	0.992081	5.14159
0.542056	2.67841	0.541446	2.67854	0.729732	3.74607	0.969497	4.97819	0.547188	2.81561	0.646501	5.25053	0.992895	5.11939
0.539502	2.67897	0.538892	2.67911	0.730685	3.73188	0.971179	4.96146	0.548515	2.80804	0.64558	5.28581	0.993714	5.09743
0.536949	2.67954	0.536339	2.67968	0.731636	3.71783	0.972867	4.94492	0.549844	2.80057	0.644686	5.32189	0.994537	5.07572
0.534397	2.68013	0.533788	2.68028	0.732585	3.70391	0.974561	4.92858	0.551177	2.79319	0.64382	5.35879	0.995366	5.05426
0.531847	2.68073	0.531238	2.68088	0.733533	3.69012	0.976261	4.91243	0.552514	2.7859	0.64298	5.39654	0.996199	5.03303
0.529298	2.68135	0.52869	2.6815	0.734479	3.67645	0.977966	4.89647	0.553854	2.7787	0.642167	5.43516	0.997039	5.01205
0.526751	2.68198	0.526143	2.68213	0.735424	3.66292	0.979676	4.88069	0.555198	2.7716	0.641381	5.47466	0.997884	4.99131
0.524206	2.68262	0.523598	2.68278	0.736368	3.64952	0.981391	4.86509	0.556546	2.76458	0.640621	5.51506	0.998735	4.9708
0.521662	2.68328	0.521054	2.68344	0.737311	3.63624	0.98311	4.84967	0.557898	2.75765	0.639888	5.5564	0.999593	4.95053
0.51912	2.68396	0.518513	2.68412	0.738254	3.6231	0.984833	4.83441	0.559254	2.75081	0.639182	5.59868	1.00046	4.93049
0.51658	2.68465	0.515974	2.68482	0.739196	3.61007	0.98656	4.81933	0.560615	2.74406	0.638502	5.64195		
0.514042	2.68536	0.513436	2.68553	0.740138	3.59717	0.988291	4.80441	0.561981	2.7374	0.637847	5.68621		
0.511507	2.68609	0.510901	2.68627	0.74108	3.5844	0.990025	4.78965	0.563352	2.73083	0.637219	5.7315		
0.508973	2.68684	0.508368	2.68702	0.742022	3.57175	0.991762	4.77504	0.564727	2.72434	0.636616	5.77784		
0.506442	2.68761	0.505838	2.6878	0.742964	3.55922	0.993503	4.76059	0.566108	2.71795	0.636038	5.82525		
0.503914	2.6884	0.50331	2.68859	0.743907	3.54681	0.995245	4.74629	0.567495	2.71164	0.635486	5.87377		
0.501388	2.68922	0.500785	2.68941	0.74485	3.53453	0.99699	4.73213	0.568887	2.70541	0.634958	5.92343		
0.498865	2.69005	0.498262	2.69026	0.745794	3.52236	0.998737	4.71812	0.570285	2.69927	0.634455	5.97425		
0.496345	2.69092	0.495743	2.69113	0.746739	3.51031	1.00049	4.70425	0.571689	2.69322	0.633977	6.02627		
0.493828	2.69181	0.493227	2.69202	0.747686	3.49838			0.573099	2.68726	0.633523	6.07951		
0.491314	2.69272	0.490714	2.69295	0.748633	3.48656			0.574515	2.68137	0.633092	6.13401		
0.488803	2.69367	0.488204	2.6939	0.749583	3.47486			0.575938	2.67558	0.632686	6.1898		
0.486297	2.69465	0.485698	2.69488	0.750533	3.46328			0.577367	2.66986	0.632302	6.24693		
0.483794	2.69565	0.483196	2.6959	0.751486	3.45181			0.578803	2.66423	0.631942	6.30541		
0.481295	2.6967	0.480698	2.69695	0.75244	3.44046			0.580247	2.65869	0.631605	6.36531		
0.4788	2.69777	0.478204	2.69804	0.753397	3.42921			0.581697	2.65323	0.63129	6.42664		
0.476309	2.69889	0.475715	2.69916	0.754356	3.41808			0.583155	2.64785	0.630997	6.48946		
0.473824	2.70004	0.47323	2.70032	0.755317	3.40706			0.584621	2.64255	0.630725	6.55381		
0.471343	2.70124	0.470751	2.70153	0.756281	3.39615			0.586094	2.63734	0.630476	6.61972		
0.468867	2.70247	0.468276	2.70278	0.757248	3.38535			0.587575	2.6322	0.630248	6.68726		
0.466397	2.70376	0.465807	2.70407	0.758217	3.37466			0.589065	2.62715	0.63004	6.75646		
0.463932	2.70509	0.463344	2.70541	0.759189	3.36407			0.590563	2.62219	0.629853	6.82739		
0.461474	2.70647	0.460887	2.70681	0.760165	3.35359			0.592069	2.6173	0.629687	6.90008		
0.459022	2.70791	0.458437	2.70826	0.761144	3.34322			0.593585	2.6125	0.62954	6.97459		
0.456576	2.7094	0.455993	2.70977	0.762126	3.33295			0.595109	2.60778	0.629413	7.05099		
0.454138	2.71096	0.453556	2.71134	0.763112	3.32279			0.596644	2.60314	0.629305	7.12933		
0.451707	2.71258	0.451128	2.71297	0.764101	3.31273			0.598187	2.59858	0.629216	7.20968		
0.449284	2.71426	0.448707	2.71467	0.765094	3.30277			0.599741	2.59411	0.629146	7.29209		
0.44687	2.71602	0.446294	2.71645	0.766091	3.29292			0.601306	2.58972	0.629094	7.37665		
0.444464	2.71785	0.443891	2.7183	0.767092	3.28317			0.602881	2.58541	0.629059	7.46341		
0.442068	2.71976	0.441497	2.72023	0.768098	3.27351			0.604467	2.58118	0.629043	7.55246		
0.439681	2.72176	0.439113	2.72225	0.769107	3.26396			0.606064	2.57705	0.629043	7.64388		
0.437305	2.72384	0.436739	2.72436	0.770121	3.25451			0.607674	2.57299	0.62906	7.73774		
0.43494	2.72602	0.434377	2.72656	0.77114	3.24515			0.609295	2.56902	0.629094	7.83414		
0.432587	2.72831	0.432027	2.72887	0.772163	3.2359			0.61093	2.56514	0.629144	7.93316		
0.430246	2.7307	0.429689	2.73128	0.773191	3.22674			0.612578	2.56135	0.62921	8.0349		
0.427918	2.7332	0.427364	2.73382	0.774224	3.21767			0.61424	2.55765	0.629291	8.13946		
0.425604	2.73582	0.425053	2.73647	0.775262	3.2087			0.615916	2.55404	0.629387	8.24695		
0.423304	2.73857	0.422757	2.73925	0.776304	3.19983			0.617607	2.55052	0.629498	8.35747		
0.42102	2.74146	0.420477	2.74217	0.777353	3.19105			0.619315	2.54709	0.629623	8.47116		
0.418752	2.74449	0.418213	2.74524	0.778406	3.18236			0.621039	2.54376	0.629762	8.58812		
0.416501	2.74768	0.415966	2.74846	0.779465	3.17377			0.62278	2.54053	0.629915	8.70848		
0.414268	2.75102	0.413738	2.75185	0.78053	3.16526			0.624539	2.53739	0.630081	8.8324		
0.412055	2.75454	0.411529	2.75541	0.7816	3.15685			0.626318	2.53436	0.630236	8.94339		
0.409861	2.75824	0.40934	2.75916	0.782676	3.14853			0.628116	2.53144	0.630376	9.04029		
0.407688	2.76214	0.407173	2.7631	0.783758	3.1403			0.629935	2.52862	0.630497	9.12207		
0.405538	2.76624	0.405028	2.76725	0.784846	3.13216			0.631777	2.52591	0.630595	9.1878		
0.403411	2.77055	0.402907	2.77162	0.78594	3.12411			0.63364	2.52332	0.63067	9.23676		
0.401309	2.77509	0.40081	2.77622	0.78704	3.11614			0.635528	2.52083	0.630739	9.28227		
0.399232	2.77988	0.398739	2.78106	0.788146	3.10827			0.637441	2.51847	0.630789	9.3142		
0.397182	2.78492	0.396696	2.78616	0.78926	3.10048			0.639379	2.51623	0.630867	9.36454		
0.39516	2.79023	0.394681	2.79154	0.790379	3.09278			0.641345	2.51411	0.630975	9.4339		
0.393167	2.79582	0.392695	2.7972	0.791505	3.08516			0.643337	2.51211	0.631116	9.52313		
0.391204	2.80171	0.39074	2.80316	0.792638	3.07763			0.645358	2.51024	0.631292	9.63334		
0.389273	2.80791	0.388817	2.80944	0.793778	3.07018			0.647408	2.50849	0.631506	9.76595		
0.387375	2.81443	0.386926	2.81604	0.794925	3.06281			0.649488	2.50688	0.631762	9.92274		
0.38551	2.8213	0.385069	2.82299	0.796079	3.05554			0.651597	2.50539	0.632027	10.0847		
0.38368	2.82853	0.383248	2.8303	0.79724	3.04834			0.653736	2.50402	0.632302	10.252		
0.381885	2.83612	0.381462	2.83799	0.798409	3.04122			0.655904	2.50278	0.632585	10.4249		
0.380127	2.8441	0.379713	2.84607	0.799585	3.03419			0.658103	2.50166	0.632878	10.6038		
0.378407	2.85249	0.378001	2.85455	0.800768	3.02724			0.66033	2.50066	0.633179	10.7889		
0.376724	2.86129	0.376328	2.86345	0.801959	3.02037			0.662586	2.49977	0.633488	10.9805		
0.37508	2.87052	0.374693	2.87279	0.803158	3.01358			0.66487	2.499	0.633804	11.179		
0.373476	2.88019	0.373098	2.88257	0.804365	3.00687			0.66718	2.49833	0.634127	11.3847		
0.371911	2.89033	0.371543	2.89282	0.80558	3.00024			0.669516	2.49776	0.634458	11.598		
0.370386	2.90093	0.370028	2.90354	0.806803	2.99369			0.671877	2.49729	0.634794	11.8194		
0.368902	2.91202	0.368554	2.91475	0.808035	2.98722			0.674261	2.4969	0.635136	12.0492		
0.367458	2.92361	0.367119	2.92646	0.809275	2.98083			0.676667	2.49661	0.635484	12.288		
0.366055	2.93572	0.365726	2.93868	0.810523	2.97452			0.679094	2.49639	0.635836	12.5363		
0.364693	2.94834	0.364373	2.95143	0.81178	2.96828			0.681541	2.49624	0.636193	12.7946		
0.363371	2.9615	0.363061	2.96472	0.813046	2.96212			0.684006	2.49616	0.636554	13.0635		
0.362089	2.9752	0.361789	2.97856	0.814321	2.95604			0.686488	2.49615	0.636919	13.3437		
0.360847	2.98947	0.360557	2.99296	0.815605	2.95004			0.688986	2.49619	0.637287	13.636		
0.359646	3.0043	0.359364	3.00793	0.816899	2.94411			0.691499	2.49629	0.637658	13.941		
0.358483	3.01972	0.358212	3.02349	0.818202	2.93826			0.694026	2.49643	0.638031	14.2597		
0.357361	3.03573	0.357098	3.03964	0.819514	2.93248			0.696565	2.49662	0.638406	14.5929		
0.356276	3.05235	0.356023	3.05641	0.820836	2.92678			0.699116	2.49685	0.638782	14.9417		
0.355231	3.06958	0.354987	3.07379	0.822168	2.92115			0.701678	2.49712	0.639159	15.3072		
0.354223	3.08745	0.353988	3.09181	0.82351	2.9156			0.704251	2.49742	0.639536	15.6905		
0.353253	3.10595	0.353026	3.11047	0.824863	2.91013			0.706832	2.49776	0.639914	16.093		
0.35232	3.12512	0.352102	3.12979	0.826225	2.90473			0.709423	2.49812	0.64029	16.5162		
0.351423	3.14495	0.351214	3.14979	0.827599	2.89941			0.712021	2.4985	0.640666	16.9616		
0.350562	3.16546	0.350362	3.17047	0.828983	2.89416			0.714627	2.49891	0.64104	17.4312		
0.349738	3.18668	0.349546	3.19185	0.830378	2.88898			0.717239	2.49934	0.641412	17.9269		
0.348948	3.2086	0.348765	3.21395	0.831784	2.88388			0.719858	2.49979	0.641782	18.4508		
0.348193	3.23125	0.348018	3.23678	0.833202	2.87885			0.722483	2.50026	0.642149	19.0056		
0.347473	3.25465	0.347306	3.26035	0.834631	2.8739			0.725114	2.50074	0.642512	19.5939		
0.346786	3.27881	0.346627	3.2847	0.836072	2.86902			0.727749	2.50124	0.642871	20.219		
0.346133	3.30375	0.345982	3.30983	0.837525	2.86422			0.730389	2.50175	0.643225	20.8844		
0.345513	3.32949	0.34537	3.33575	0.83899	2.85949			0.733033	2.50227	0.643575	21.5941		
0.344926	3.35604	0.344791	3.36251	0.840468	2.85484			0.735682	2.5028	0.643919	22.3527		
0.344372	3.38343	0.344244	3.3901	0.841959	2.85026			0.738334	2.50334	0.644257	23.1654		
0.343849	3.41168	0.343729	3.41856	0.843462	2.84575			0.74099	2.50389	0.644588	24.0382		
0.343358	3.44082	0.343245	3.44791	0.844978	2.84132			0.743649	2.50445	0.644913	24.9781		
0.342898	3.47085	0.342793	3.47816	0.846508	2.83696			0.746311	2.50501	0.64523	25.9931		
0.34247	3.50182	0.342372	3.50936	0.848052	2.83268			0.748976	2.50558	0.645539	27.0926		
0.342072	3.53374	0.341981	3.54151	0.849609	2.82847			0.751643	2.50615	0.64584	28.2877		
0.341704	3.56664	0.341621	3.57465	0.851181	2.82434			0.754313	2.50673	0.646132	29.5915		
0.341367	3.60055	0.341291	3.60881	0.852767	2.82028			0.756985	2.50731	0.646414	31.0194		
0.34106	3.6355	0.340991	3.64401	0.854367	2.81629			0.759659	2.50789	0.646687	32.5901		
0.340782	3.67152	0.34072	3.68029	0.855983	2.81239			0.762335	2.50848	0.646949	34.3264		
0.340534	3.70865	0.340479	3.71768	0.857613	2.80855			0.765013	2.50907	0.647201	36.2558		
0.340314	3.7469	0.340266	3.75621	0.859259	2.80479			0.767693	2.50966	0.647442	38.4125		
0.340124	3.78633	0.340083	3.79593	0.860921	2.80111			0.770375	2.51025	0.647671	40.8395		
0.339962	3.82696	0.339928	3.83685	0.862598	2.7975			0.773058	2.51084	0.647888	43.5909		
0.339829	3.86884	0.339801	3.87904	0.864292	2.79397			0.775742	2.51144	0.648093	46.7368		
0.339724	3.91201	0.339703	3.92251	0.866002	2.79051			0.778427	2.51203	0.648286	50.3685		
0.339647	3.9565	0.339633	3.96733	0.867728	2.78713			0.781114	2.51263	0.648465	54.6084		
0.339598	4.00236	0.33959	4.01353	0.869471	2.78382			0.783802	2.51322	0.648631	59.6234		
0.339576	4.04964	0.339575	4.06115	0.871231	2.78059			0.786491	2.51381	0.648784	65.6479		
0.339582	4.09839	0.339587	4.11026	0.873008	2.77743			0.789181	2.51441	0.648923	73.0213		
0.339615	4.14866	0.339626	4.1609	0.874803	2.77435			0.791872	2.515	0.649048	82.2544		
0.339674	4.2005	0.339693	4.21312	0.876615	2.77134			0.794564	2.51559	0.649159	94.1531		
0.339761	4.25397	0.339786	4.26699	0.878444	2.76841			0.797256	2.51618	0.649255	110.068		
0.339874	4.30912	0.339905	4.32255	0.880291	2.76555			0.79995	2.51677	0.649336	132.445		
0.340014	4.36603	0.340051	4.37989	0.882156	2.76276			0.802643	2.51736	0.649403	166.23		
0.34018	4.42475	0.340223	4.43905	0.884039	2.76005			0.805338	2.51794	0.649454	223.133		
0.340371	4.48535	0.340421	4.50011	0.885939	2.75741			0.808033	2.51852	0.649491	339.231		
0.340589	4.54791	0.340644	4.56315	0.887858	2.75484			0.810729	2.51911	0.649513	707.089		
0.340832	4.6125	0.340894	4.62824	0.889794	2.75234			0.813425	2.51969				
0.341064	4.67051	0.341168	4.69546	0.891748	2.74991			0.816122	2.52026				
0.341278	4.72127	0.341468	4.7649	0.893719	2.74755			0.818819	2.52084				
0.341465	4.76418	0.341793	4.83666	0.895709	2.74526			0.821516	2.52141				
0.341619	4.79872	0.342142	4.91082	0.897715	2.74304			0.824214	2.52198				
0.341736	4.82448	0.342516	4.98749	0.899739	2.74088			0.826912	2.52255				
0.341847	4.84844	0.342914	5.06677	0.901781	2.73879			0.829611	2.52311				
0.341926	4.86527	0.343337	5.14879	0.903839	2.73676			0.832309	2.52368				
0.342051	4.89181	0.343783	5.23366	0.905914	2.7348			0.835008	2.52424				
0.342227	4.92842	0.344253	5.3215	0.908005	2.73289			0.837707	2.52479				
0.342457	4.97558	0.344747	5.41247	0.910113	2.73105			0.840406	2.52535				
0.342748	5.03392	0.345264	5.50669	0.912237	2.72927			0.843106	2.5259				
0.343106	5.10424	0.345804	5.60434	0.914376	2.72754			0.845805	2.52645				
0.343539	5.18756	0.346366	5.70556	0.91653	2.72587			0.848505	2.52699				
0.343997	5.27378	0.346952	5.81054	0.9187	2.72425			0.851205	2.52754				
0.344478	5.36305	0.34756	5.91946	0.920884	2.72268			0.853904	2.52808				
0.344982	5.4555	0.34819	6.03253	0.923083	2.72117			0.856604	2.52861				
0.34551	5.55128	0.348842	6.14995	0.925295	2.71971			0.859304	2.52915				
0.34606	5.65056	0.349516	6.27197	0.927521	2.71829			0.862003	2.52968				
0.346634	5.75349	0.350211	6.39881	0.92976	2.71692			0.864703	2.5302				
0.34723	5.86026	0.350928	6.53076	0.932012	2.7156			0.867403	2.53073				
0.347848	5.97107	0.351666	6.66808	0.934276	2.71432			0.870102	2.53125				
0.348488	6.08612	0.352424	6.81109	0.936552	2.71308			0.872802	2.53177				
0.34915	6.20563	0.353203	6.96013	0.93884	2.71188			0.875501	2.53228				
0.349834	6.32984	0.354002	7.11553	0.941139	2.71073			0.878201	2.53279				
0.350539	6.459	0.354821	7.2777	0.943449	2.70961			0.8809	2.5333				
0.351266	6.59339	0.35566	7.44704	0.945769	2.70852			0.883599	2.5338				
0.352013	6.7333	0.356518	7.62401	0.9481	2.70747			0.886298	2.5343				
0.352781	6.87905	0.357395	7.80911	0.95044	2.70646			0.888996	2.5348				
0.353569	7.03097	0.358292	8.00286	0.95279	2.70548			0.891695	2.53529				
0.354377	7.18944	0.359088	8.17921	0.955149	2.70452			0.894393	2.53578				
0.355205	7.35487	0.359777	8.3354	0.957516	2.7036			0.897091	2.53627				
0.356053	7.52767	0.360355	8.46884	0.959892	2.70271			0.899789	2.53676				
0.35692	7.70832	0.360817	8.57721	0.962276	2.70185			0.902487	2.53724				
0.357806	7.89734	0.361159	8.65856	0.964668	2.70101			0.905184	2.53771				
0.358711	8.09527	0.361476	8.73468	0.967067	2.7002			0.907881	2.53819				
0.359634	8.30274	0.361697	8.78838	0.969474	2.69941			0.910578	2.53866				
0.360576	8.5204	0.362045	8.87353	0.971887	2.69864			0.913274	2.53912				
0.361535	8.74898	0.362522	8.99183	0.974307	2.6979			0.91597	2.53959				
0.362512	8.98929	0.36313	9.14572	0.976734	2.69718			0.918666	2.54005				
0.363506	9.2422	0.363875	9.33849	0.979167	2.69648			0.921362	2.5405				
0.364516	9.5087	0.36476	9.57448	0.981605	2.69581			0.924057	2.54096				
0.365543	9.78985	0.365791	9.85931	0.98405	2.69515			0.926752	2.54141				
0.366586	10.0869	0.366838	10.1603	0.986499	2.6945			0.929446	2.54185				
0.367645	10.401	0.3679	10.4788	0.988954	2.69388			0.93214	2.54229				
0.368719	10.7339	0.368978	10.8163	0.991414	2.69327			0.934833	2.54273				
0.369808	11.0871	0.37007	11.1746	0.993879	2.69268			0.937526	2.54317				
0.370911	11.4624	0.371177	11.5556	0.996348	2.69211			0.940219	2.5436				
0.372028	11.8621	0.372297	11.9614	0.998822	2.69155			0.942911	2.54403				
0.373159	12.2884	0.373431	12.3944	1.0013	2.69101			0.945603	2.54445				
0.374302	12.744	0.374577	12.8575					0.948294	2.54487				
0.375457	13.2321	0.375735	13.3538					0.950985	2.54529				
0.376624	13.7561	0.376904	13.887					0.953675	2.5457				
0.377802	14.32	0.378085	14.4612					0.956365	2.54611				
0.37899	14.9286	0.379275	15.0812					0.959054	2.54652				
0.380186	15.5873	0.380474	15.7528					0.961742	2.54692				
0.381392	16.3025	0.381681	16.4825					0.96443	2.54732				
0.382604	17.0816	0.382895	17.2781					0.967117	2.54772				
0.383822	17.9334	0.384114	18.1488					0.969804	2.54811				
0.385045	18.8687	0.385338	19.1058					0.97249	2.5485				
0.386271	19.9	0.386565	20.1623					0.975176	2.54888				
0.387499	21.0431	0.387792	21.3347					0.97786	2.54926				
0.388726	22.3168	0.389019	22.6429					0.980544	2.54964				
0.38995	23.7448	0.390242	24.1119					0.983228	2.55001				
0.391168	25.3569	0.391458	25.7732					0.98591	2.55038				
0.392378	27.1909	0.392665	27.667					0.988592	2.55075				
0.393574	29.2959	0.393858	29.8456					0.991273	2.55111				
0.394754	31.7366	0.395032	32.3784					0.993953	2.55147				
0.39591	34.6003	0.396183	35.3594					0.996633	2.55182				
0.397038	38.0073	0.397302	38.919					0.999311	2.55217				
0.398129	42.1285	0.398383	43.2442					1.00199	2.55251				
0.399174	47.2154	0.399416	48.6121										
0.400163	53.6533	0.400389	55.4527										
0.401081	62.065	0.401289	64.4709										
0.401916	73.5267	0.402101	76.9083										
0.40265	90.0736	0.402808	95.175										
0.403266	116.074	0.403394	124.648										
0.403747	162.92	0.40384	180.266										
0.404077	272.627	0.404132	324.808										
0.404244	831.542	0.404259	1628.79										
