Sym0		Sym1		Sym2		Sym3		Asym1		Asym2		Asym3	
422  Points		422  Points		380  Points		288  Points		422  Points		394  Points		264  Points	
Freq (MHz)	Vph (m/ms)	Freq (MHz)	Vph (m/ms)	Freq (MHz)	Vph (m/ms)	Freq (MHz)	Vph (m/ms)	Freq (MHz)	Vph (m/ms)	Freq (MHz)	Vph (m/ms)	Freq (MHz)	Vph (m/ms)
1.00035	2.41454	1.00026	2.41452	0.433022	785.872	0.866024	3807.22	0.216532	256.197	1.00232	2.59431	0.649527	2111.67
0.997672	2.41389	0.997581	2.41387	0.433082	279.944	0.86598	707.793	0.216627	117.655	0.999749	2.59436	0.649657	498.351
0.995	2.41324	0.994909	2.41322	0.433201	170.347	0.865875	390.119	0.216793	76.4101	0.997189	2.59442	0.649945	282.629
0.99233	2.41259	0.992239	2.41257	0.433377	122.455	0.865711	269.227	0.217028	56.6174	0.994636	2.5945	0.650382	197.345
0.989661	2.41195	0.98957	2.41193	0.43361	95.612	0.865488	205.503	0.217334	45.0034	0.992091	2.5946	0.650958	151.679
0.986995	2.4113	0.986904	2.41128	0.4339	78.447	0.865209	166.144	0.217708	37.3728	0.989554	2.59473	0.65166	123.24
0.98433	2.41066	0.984239	2.41064	0.434245	66.5291	0.864875	139.415	0.21815	31.9806	0.987026	2.59488	0.652473	103.835
0.981667	2.41001	0.981576	2.40999	0.434646	57.7743	0.864487	120.074	0.218659	27.971	0.984507	2.59505	0.653386	89.7538
0.979006	2.40937	0.978916	2.40935	0.4351	51.0729	0.86405	105.428	0.219235	24.8752	0.981999	2.59525	0.654385	79.0723
0.976348	2.40874	0.976257	2.40871	0.435608	45.7801	0.863564	93.9506	0.219875	22.4147	0.979501	2.59548	0.65546	70.6939
0.973691	2.4081	0.973601	2.40808	0.436167	41.4953	0.863033	84.7132	0.220579	20.4137	0.977014	2.59574	0.6566	63.9473
0.971037	2.40747	0.970947	2.40744	0.436778	37.9567	0.86246	77.1174	0.221345	18.7558	0.97454	2.59604	0.657797	58.3989
0.968385	2.40683	0.968295	2.40681	0.437438	34.9858	0.861848	70.7607	0.222172	17.3606	0.972079	2.59637	0.659044	53.7561
0.965736	2.40621	0.965645	2.40618	0.438146	32.4569	0.861198	65.3622	0.223058	16.1713	0.969633	2.59675	0.660334	49.8143
0.963088	2.40558	0.962998	2.40556	0.438901	30.2788	0.860514	60.7202	0.224003	15.146	0.967201	2.59716	0.661662	46.4261
0.960444	2.40496	0.960353	2.40494	0.439702	28.3837	0.859799	56.6857	0.225003	14.2537	0.964785	2.59762	0.663023	43.4828
0.957801	2.40434	0.957711	2.40432	0.440547	26.7202	0.859055	53.1467	0.226057	13.4706	0.962387	2.59813	0.664414	40.9022
0.955162	2.40372	0.955072	2.4037	0.441435	25.2488	0.858285	50.017	0.227164	12.7781	0.960006	2.59869	0.665831	38.6213
0.952525	2.40311	0.952435	2.40309	0.442364	23.9382	0.857491	47.2293	0.228322	12.1619	0.957645	2.59931	0.667272	36.5909
0.94989	2.4025	0.9498	2.40248	0.443332	22.7636	0.856676	44.7305	0.22953	11.6102	0.955304	2.59999	0.668734	34.7719
0.947259	2.40189	0.947169	2.40187	0.444339	21.7053	0.85584	42.4778	0.230784	11.1137	0.952985	2.60072	0.670215	33.1329
0.94463	2.40129	0.94454	2.40127	0.445383	20.7469	0.854988	40.4365	0.232085	10.6648	0.950689	2.60153	0.671713	31.6486
0.942004	2.4007	0.941915	2.40068	0.446463	19.875	0.85412	38.5781	0.233429	10.2571	0.948417	2.6024	0.673226	30.298
0.939381	2.4001	0.939292	2.40008	0.447577	19.0786	0.853238	36.8792	0.234815	9.8854	0.94617	2.60335	0.674753	29.064
0.936762	2.39952	0.936673	2.3995	0.448723	18.3485	0.852344	35.32	0.236242	9.54523	0.943949	2.60438	0.676293	27.932
0.934145	2.39894	0.934056	2.39892	0.449901	17.6767	0.85144	33.884	0.237708	9.23288	0.941756	2.60549	0.677845	26.8899
0.931532	2.39836	0.931443	2.39834	0.451108	17.0567	0.850526	32.5572	0.23921	8.94519	0.939591	2.60668	0.679408	25.9274
0.928923	2.39779	0.928834	2.39777	0.452345	16.4827	0.849605	31.3275	0.240749	8.67943	0.937457	2.60797	0.680981	25.0358
0.926316	2.39723	0.926228	2.39721	0.453608	15.9498	0.848678	30.1847	0.242321	8.43328	0.935352	2.60934	0.682562	24.2076
0.923714	2.39667	0.923625	2.39665	0.454898	15.454	0.847746	29.12	0.243925	8.2047	0.933279	2.61082	0.684152	23.4361
0.921114	2.39612	0.921026	2.3961	0.456213	14.9914	0.846811	28.1256	0.24556	7.99195	0.931238	2.61238	0.68575	22.7158
0.918519	2.39557	0.918431	2.39555	0.457552	14.5589	0.845872	27.1948	0.247224	7.79347	0.92923	2.61405	0.687355	22.0417
0.915928	2.39504	0.915839	2.39502	0.458913	14.1536	0.844932	26.3217	0.248916	7.60792	0.927254	2.61583	0.688966	21.4095
0.91334	2.39451	0.913252	2.39449	0.460296	13.7732	0.84399	25.5011	0.250634	7.43412	0.925312	2.6177	0.690583	20.8155
0.910757	2.39398	0.910669	2.39397	0.4617	13.4153	0.843049	24.7285	0.252151	7.29141	0.923403	2.61968	0.692206	20.2563
0.908177	2.39347	0.90809	2.39345	0.463122	13.0782	0.842109	23.9997	0.253459	7.1757	0.921527	2.62177	0.693834	19.7289
0.905603	2.39297	0.905515	2.39295	0.464564	12.76	0.841171	23.3113	0.25455	7.08388	0.919685	2.62396	0.695466	19.2307
0.903032	2.39247	0.902945	2.39245	0.466022	12.4592	0.840235	22.6598	0.255418	7.01363	0.917875	2.62626	0.697103	18.7593
0.900466	2.39198	0.900379	2.39197	0.467498	12.1744	0.839303	22.0426	0.25606	6.96323	0.916097	2.62867	0.698744	18.3126
0.897905	2.39151	0.897818	2.39149	0.468988	11.9045	0.838374	21.4569	0.256472	6.93153	0.914352	2.63118	0.700388	17.8887
0.895349	2.39104	0.895262	2.39103	0.470494	11.6482	0.83745	20.9005	0.257067	6.88668	0.912637	2.63379	0.702035	17.4859
0.892797	2.39059	0.89271	2.39057	0.472013	11.4046	0.836532	20.3712	0.257715	6.83888	0.910952	2.63651	0.703684	17.1027
0.890251	2.39014	0.890164	2.39013	0.473545	11.1727	0.835619	19.8671	0.258601	6.77541	0.909297	2.63933	0.705337	16.7377
0.88771	2.38971	0.887623	2.3897	0.47509	10.9518	0.834712	19.3864	0.259728	6.69757	0.90767	2.64225	0.706991	16.3896
0.885174	2.38929	0.885088	2.38928	0.476646	10.7411	0.833813	18.9277	0.2611	6.60689	0.906072	2.64526	0.708647	16.0572
0.882644	2.38889	0.882558	2.38887	0.478212	10.5398	0.832921	18.4894	0.262722	6.50505	0.9045	2.64837	0.710305	15.7396
0.880119	2.38849	0.880033	2.38848	0.479788	10.3474	0.832037	18.0703	0.264598	6.39383	0.902953	2.65158	0.711964	15.4356
0.877601	2.38811	0.877515	2.3881	0.481374	10.1633	0.831162	17.669	0.26649	6.28819	0.901432	2.65488	0.713624	15.1446
0.875088	2.38775	0.875003	2.38773	0.482968	9.98689	0.830295	17.2846	0.268395	6.18774	0.899935	2.65827	0.715285	14.8656
0.872582	2.3874	0.872497	2.38738	0.484569	9.8178	0.829439	16.916	0.270314	6.09209	0.89846	2.66174	0.716946	14.598
0.870082	2.38706	0.869997	2.38705	0.486178	9.65555	0.828592	16.5623	0.272246	6.0009	0.897008	2.6653	0.718607	14.3409
0.867589	2.38674	0.867504	2.38673	0.487793	9.49971	0.827755	16.2226	0.274188	5.91388	0.895577	2.66895	0.720269	14.0939
0.865102	2.38644	0.865017	2.38643	0.489414	9.34992	0.826929	15.8962	0.27614	5.83072	0.894167	2.67268	0.721929	13.8564
0.862622	2.38616	0.862538	2.38615	0.491041	9.20581	0.826114	15.5821	0.278102	5.75119	0.892776	2.67649	0.72359	13.6277
0.860149	2.38589	0.860065	2.38588	0.492671	9.06708	0.825311	15.2799	0.280071	5.67503	0.891404	2.68038	0.725249	13.4075
0.857684	2.38564	0.8576	2.38563	0.494306	8.93341	0.824521	14.9889	0.282048	5.60203	0.890051	2.68435	0.726907	13.1952
0.855226	2.38542	0.855143	2.38541	0.495945	8.80453	0.823742	14.7084	0.284032	5.53199	0.888715	2.6884	0.728564	12.9904
0.852776	2.38521	0.852693	2.3852	0.497586	8.68018	0.822976	14.438	0.286021	5.46471	0.887395	2.69252	0.730219	12.7927
0.850334	2.38502	0.850251	2.38501	0.499229	8.56011	0.822224	14.177	0.288015	5.40004	0.886092	2.69672	0.731872	12.6018
0.8479	2.38486	0.847817	2.38485	0.500874	8.44411	0.821485	13.9252	0.290012	5.33781	0.884805	2.70099	0.733523	12.4172
0.845474	2.38471	0.845391	2.38471	0.502521	8.33196	0.82076	13.6819	0.292013	5.27788	0.883533	2.70533	0.735172	12.2388
0.843057	2.3846	0.842974	2.38459	0.504168	8.22347	0.820049	13.4468	0.294016	5.2201	0.882275	2.70974	0.736818	12.0661
0.840648	2.3845	0.840566	2.3845	0.505815	8.11844	0.819353	13.2194	0.29602	5.16436	0.881031	2.71422	0.738462	11.899
0.838249	2.38443	0.838167	2.38443	0.507462	8.01672	0.818672	12.9996	0.298025	5.11054	0.879801	2.71878	0.740102	11.737
0.835858	2.38439	0.835777	2.38439	0.509109	7.91813	0.818007	12.7868	0.30003	5.05852	0.878584	2.7234	0.741738	11.5801
0.833477	2.38437	0.833397	2.38437	0.510754	7.82254	0.817357	12.5807	0.302034	5.0082	0.87738	2.72809	0.743372	11.4278
0.831106	2.38438	0.831026	2.38438	0.512397	7.72979	0.816724	12.3812	0.304036	4.9595	0.876188	2.73285	0.745001	11.2802
0.828745	2.38442	0.828665	2.38442	0.514037	7.63975	0.816106	12.1878	0.306036	4.91231	0.875008	2.73767	0.746626	11.1368
0.826393	2.38449	0.826314	2.38449	0.515465	7.5634	0.815506	12.0003	0.308033	4.86656	0.87384	2.74256	0.748247	10.9976
0.824052	2.38459	0.823973	2.38459	0.51668	7.49981	0.814923	11.8185	0.310027	4.82218	0.872683	2.74752	0.749863	10.8623
0.821722	2.38471	0.821643	2.38472	0.517684	7.44822	0.814357	11.6421	0.312016	4.77907	0.871537	2.75255	0.751474	10.7309
0.819402	2.38488	0.819323	2.38488	0.518476	7.40806	0.81381	11.471	0.314	4.73719	0.870402	2.75763	0.753081	10.603
0.817093	2.38507	0.817015	2.38508	0.519058	7.37887	0.81328	11.3048	0.315978	4.69646	0.869277	2.76279	0.754682	10.4786
0.814796	2.3853	0.814718	2.38531	0.51943	7.36034	0.812769	11.1434	0.317949	4.65682	0.868162	2.76801	0.756277	10.3575
0.81251	2.38556	0.812432	2.38557	0.519965	7.33391	0.812277	10.9866	0.319914	4.61823	0.867057	2.77329	0.757866	10.2396
0.810235	2.38586	0.810158	2.38587	0.520545	7.30544	0.811804	10.8343	0.32187	4.58061	0.865961	2.77864	0.75945	10.1247
0.807972	2.3862	0.807895	2.38621	0.521334	7.26717	0.81135	10.6862	0.323819	4.54393	0.864875	2.78405	0.761027	10.0128
0.805721	2.38657	0.805645	2.38658	0.52233	7.21948	0.810917	10.5422	0.325758	4.50813	0.863798	2.78953	0.762597	9.90368
0.803482	2.38698	0.803406	2.38699	0.523532	7.16283	0.810504	10.4021	0.327688	4.47318	0.86273	2.79507	0.764161	9.79725
0.801256	2.38743	0.80118	2.38745	0.524937	7.09778	0.810111	10.2658	0.329607	4.43902	0.86167	2.80067	0.765717	9.69342
0.799042	2.38792	0.798967	2.38794	0.526545	7.02491	0.809739	10.1332	0.331515	4.40563	0.860619	2.80634	0.767266	9.59209
0.796841	2.38845	0.796766	2.38847	0.528147	6.95388	0.809388	10.0041	0.333412	4.37295	0.859576	2.81207	0.768808	9.49315
0.794652	2.38902	0.794578	2.38904	0.529742	6.88459	0.809059	9.87844	0.335297	4.34096	0.858541	2.81787	0.770341	9.39652
0.792477	2.38964	0.792403	2.38966	0.53133	6.81699	0.808751	9.75604	0.337169	4.30963	0.857513	2.82373	0.771867	9.30211
0.790315	2.3903	0.790241	2.39032	0.532911	6.751	0.808466	9.63681	0.339028	4.27891	0.856494	2.82965	0.773384	9.20985
0.788165	2.391	0.788092	2.39103	0.534483	6.68655	0.808203	9.52064	0.340873	4.24879	0.855482	2.83564	0.774893	9.11964
0.78603	2.39175	0.785957	2.39177	0.536048	6.62359	0.807962	9.40743	0.342704	4.21923	0.854477	2.84169	0.776392	9.03143
0.783907	2.39254	0.783835	2.39257	0.537604	6.56205	0.807745	9.29708	0.34452	4.19021	0.853479	2.8478	0.777883	8.94512
0.781798	2.39338	0.781727	2.39341	0.53915	6.50188	0.807551	9.1895	0.346321	4.16169	0.852488	2.85398	0.779364	8.86067
0.779703	2.39427	0.779632	2.3943	0.540687	6.44303	0.80738	9.08459	0.348106	4.13367	0.851504	2.86022	0.780836	8.778
0.777622	2.3952	0.777551	2.39523	0.542215	6.38544	0.807234	8.98227	0.349874	4.1061	0.850526	2.86653	0.782298	8.69705
0.775554	2.39618	0.775483	2.39622	0.543732	6.32907	0.807111	8.88247	0.351626	4.07898	0.849554	2.8729	0.783749	8.61777
0.773499	2.39721	0.77343	2.39725	0.545239	6.27387	0.807013	8.78509	0.353361	4.05229	0.848589	2.87933	0.785191	8.54009
0.771459	2.39829	0.77139	2.39833	0.546735	6.2198	0.806939	8.69006	0.355078	4.02599	0.84763	2.88583	0.786622	8.46396
0.769432	2.39942	0.769363	2.39946	0.548219	6.16681	0.806891	8.59732	0.356777	4.00008	0.846676	2.89239	0.788042	8.38933
0.767419	2.4006	0.767351	2.40064	0.549692	6.11487	0.806867	8.50679	0.358458	3.97454	0.845728	2.89902	0.789451	8.31615
0.76542	2.40183	0.765352	2.40187	0.551153	6.06393	0.806869	8.41841	0.36012	3.94936	0.844786	2.90571	0.790849	8.24438
0.763434	2.40311	0.763367	2.40315	0.552601	6.01396	0.806896	8.33211	0.361763	3.92451	0.843849	2.91246	0.792236	8.17396
0.761462	2.40444	0.761395	2.40449	0.554037	5.96493	0.80695	8.24783	0.363387	3.89998	0.842916	2.91928	0.793611	8.10486
0.759504	2.40582	0.759437	2.40587	0.555461	5.91681	0.807029	8.16551	0.364991	3.87577	0.841989	2.92617	0.794974	8.03703
0.757559	2.40726	0.757493	2.40731	0.55687	5.86955	0.807134	8.0851	0.366576	3.85185	0.841067	2.93311	0.796152	7.97892
0.755627	2.40874	0.755562	2.40879	0.558267	5.82313	0.807247	8.01653	0.36814	3.82823	0.840149	2.94012	0.797149	7.93011
0.753709	2.41028	0.753644	2.41033	0.559649	5.77753	0.80736	7.95917	0.369684	3.80488	0.839235	2.9472	0.797968	7.89023
0.751804	2.41187	0.751739	2.41192	0.561018	5.73271	0.807464	7.91247	0.371208	3.78179	0.838326	2.95434	0.798613	7.85901
0.749912	2.41351	0.749847	2.41357	0.562372	5.68865	0.807553	7.87601	0.372712	3.75897	0.83742	2.96154	0.799085	7.83623
0.748032	2.41521	0.747969	2.41526	0.563712	5.64533	0.807623	7.84945	0.374195	3.73639	0.836518	2.96881	0.799386	7.82172
0.746166	2.41695	0.746103	2.41701	0.565037	5.60271	0.807669	7.83257	0.375657	3.71406	0.83562	2.97614	0.799818	7.80096
0.744312	2.41875	0.744249	2.41881	0.566346	5.56078	0.807739	7.80846	0.377099	3.69195	0.834725	2.98354	0.800286	7.77854
0.742471	2.4206	0.742408	2.42067	0.567641	5.51951	0.807817	7.78246	0.378521	3.67008	0.833833	2.991	0.800919	7.74826
0.740641	2.4225	0.740579	2.42257	0.56892	5.47888	0.807929	7.74743	0.379922	3.64843	0.832945	2.99853	0.801716	7.71034
0.738824	2.42446	0.738762	2.42453	0.570184	5.43888	0.80808	7.70368	0.381302	3.627	0.832059	3.00612	0.802674	7.665
0.737019	2.42647	0.736958	2.42653	0.571432	5.39949	0.808277	7.65158	0.382663	3.60578	0.831175	3.01377	0.803788	7.61254
0.735225	2.42852	0.735164	2.42859	0.572664	5.36068	0.808526	7.59157	0.384003	3.58476	0.830293	3.02148	0.805053	7.55328
0.733443	2.43063	0.733382	2.43071	0.57388	5.32243	0.808838	7.52413	0.385324	3.56395	0.829414	3.02926	0.806306	7.49499
0.731672	2.43279	0.731612	2.43287	0.57508	5.28474	0.809177	7.45818	0.386624	3.54334	0.828536	3.0371	0.807545	7.43764
0.729911	2.43501	0.729852	2.43508	0.576263	5.24759	0.809543	7.39367	0.387906	3.52293	0.82766	3.04501	0.808771	7.38122
0.728162	2.43727	0.728103	2.43735	0.57743	5.21096	0.809936	7.33058	0.389168	3.50271	0.826785	3.05298	0.809982	7.32569
0.726423	2.43958	0.726364	2.43966	0.578581	5.17483	0.810357	7.26886	0.390412	3.48268	0.825911	3.06101	0.81118	7.27102
0.724694	2.44194	0.724635	2.44202	0.579716	5.13919	0.810805	7.20848	0.391637	3.46284	0.825037	3.0691	0.812365	7.2172
0.722975	2.44435	0.722917	2.44444	0.580834	5.10404	0.81128	7.1494	0.392845	3.44319	0.824164	3.07726	0.813535	7.1642
0.721266	2.44681	0.721207	2.4469	0.581935	5.06935	0.811783	7.09158	0.394035	3.42373	0.823292	3.08547	0.814691	7.11201
0.719565	2.44932	0.719508	2.44941	0.58302	5.03511	0.812313	7.03499	0.395207	3.40446	0.822419	3.09375	0.815833	7.06058
0.717874	2.45188	0.717817	2.45197	0.584089	5.00132	0.81287	6.97961	0.396363	3.38537	0.821546	3.10209	0.816961	7.00992
0.716192	2.45448	0.716135	2.45457	0.585141	4.96796	0.813453	6.9254	0.397502	3.36646	0.820671	3.11049	0.818076	6.96
0.714518	2.45713	0.714461	2.45722	0.586177	4.93502	0.814064	6.87232	0.398626	3.34774	0.819796	3.11894	0.819175	6.9108
0.712852	2.45983	0.712796	2.45992	0.587197	4.9025	0.814702	6.82035	0.399735	3.32921	0.81892	3.12746	0.820261	6.86229
0.711194	2.46257	0.711138	2.46267	0.588201	4.87038	0.815366	6.76947	0.400829	3.31085	0.818042	3.13603	0.821333	6.81448
0.709543	2.46536	0.709487	2.46545	0.589188	4.83865	0.816056	6.71963	0.401909	3.29268	0.817162	3.14467	0.822391	6.76733
0.707899	2.46819	0.707843	2.46829	0.590159	4.8073	0.816773	6.67083	0.402975	3.2747	0.816279	3.15336	0.823435	6.72083
0.706262	2.47106	0.706206	2.47116	0.591115	4.77633	0.817516	6.62302	0.404029	3.25689	0.815394	3.1621	0.824465	6.67498
0.704631	2.47398	0.704576	2.47408	0.592055	4.74574	0.818285	6.57618	0.405069	3.23928	0.814505	3.17091	0.825481	6.62974
0.703006	2.47693	0.702951	2.47703	0.59298	4.7155	0.819079	6.53029	0.406098	3.22184	0.813613	3.17976	0.826483	6.58511
0.701386	2.47993	0.701331	2.48003	0.593889	4.68562	0.819899	6.48532	0.407116	3.2046	0.812717	3.18868	0.827472	6.54108
0.699771	2.48296	0.699716	2.48307	0.594784	4.65609	0.820743	6.44126	0.408123	3.18753	0.811817	3.19764	0.828447	6.49763
0.698161	2.48603	0.698106	2.48614	0.595663	4.6269	0.821613	6.39807	0.40912	3.17065	0.810912	3.20666	0.829409	6.45476
0.696555	2.48914	0.6965	2.48925	0.596528	4.59804	0.822507	6.35573	0.410108	3.15396	0.810002	3.21572	0.830358	6.41244
0.694952	2.49229	0.694898	2.49239	0.597379	4.56952	0.823425	6.31423	0.411087	3.13746	0.809087	3.22484	0.831294	6.37066
0.693353	2.49546	0.693298	2.49557	0.598216	4.54132	0.824366	6.27353	0.412058	3.12114	0.808166	3.23401	0.832218	6.32942
0.691756	2.49867	0.691701	2.49878	0.599039	4.51344	0.825332	6.23363	0.413021	3.10501	0.807238	3.24322	0.833128	6.28871
0.690161	2.50191	0.690106	2.50202	0.599848	4.48587	0.82632	6.19449	0.413976	3.08906	0.806304	3.25248	0.834027	6.24852
0.688567	2.50518	0.688513	2.50529	0.600645	4.45862	0.827331	6.15611	0.414926	3.07331	0.805362	3.26179	0.834913	6.20883
0.686974	2.50848	0.68692	2.50859	0.601428	4.43167	0.828364	6.11845	0.41587	3.05774	0.804412	3.27114	0.835788	6.16963
0.685382	2.5118	0.685328	2.51191	0.602199	4.40502	0.829419	6.0815	0.416808	3.04236	0.803454	3.28053	0.836651	6.13093
0.68379	2.51514	0.683735	2.51526	0.602958	4.37867	0.830496	6.04525	0.417742	3.02717	0.802488	3.28997	0.837504	6.0927
0.682196	2.51851	0.682142	2.51862	0.603704	4.35261	0.831594	6.00967	0.418671	3.01216	0.801512	3.29944	0.838345	6.05495
0.680601	2.52189	0.680546	2.52201	0.60444	4.32684	0.832712	5.97474	0.419597	2.99734	0.800527	3.30895	0.839175	6.01766
0.679003	2.52529	0.678949	2.52541	0.605164	4.30135	0.833851	5.94046	0.42052	2.98272	0.799531	3.3185	0.839996	5.98083
0.677403	2.52871	0.677348	2.52883	0.605878	4.27615	0.835009	5.9068	0.421441	2.96828	0.798525	3.32808	0.840807	5.94444
0.675799	2.53214	0.675744	2.53225	0.606581	4.25123	0.836186	5.87374	0.42236	2.95402	0.797508	3.33769	0.841608	5.9085
0.67419	2.53557	0.674135	2.53569	0.607274	4.22658	0.837383	5.84128	0.423277	2.93996	0.796479	3.34734	0.8424	5.873
0.672576	2.53901	0.672521	2.53913	0.607957	4.20221	0.838597	5.80939	0.424193	2.92608	0.795437	3.35702	0.843184	5.83792
0.670956	2.54246	0.670901	2.54257	0.608631	4.1781	0.83983	5.77806	0.425109	2.91239	0.794383	3.36672	0.84396	5.80327
0.66933	2.5459	0.669274	2.54602	0.609297	4.15427	0.841079	5.74727	0.426025	2.89888	0.793316	3.37645	0.844727	5.76904
0.667696	2.54934	0.66764	2.54946	0.609953	4.13069	0.842346	5.71701	0.426942	2.88556	0.792234	3.3862	0.845488	5.73522
0.666053	2.55278	0.665997	2.5529	0.610602	4.10738	0.843629	5.68727	0.427859	2.87243	0.791139	3.39598	0.846241	5.70181
0.664401	2.55621	0.664345	2.55633	0.611243	4.08433	0.844928	5.65804	0.428778	2.85948	0.790029	3.40577	0.846988	5.6688
0.662739	2.55962	0.662683	2.55974	0.611877	4.06153	0.846242	5.62929	0.429699	2.84671	0.788903	3.41559	0.847729	5.63618
0.661067	2.56302	0.66101	2.56314	0.612504	4.03899	0.84757	5.60102	0.430622	2.83412	0.787761	3.42541	0.848465	5.60397
0.659382	2.5664	0.659325	2.56652	0.613125	4.0167	0.848914	5.57321	0.431549	2.82172	0.786603	3.43526	0.849196	5.57214
0.657686	2.56976	0.657627	2.56987	0.613739	3.99466	0.850271	5.54586	0.432478	2.8095	0.785429	3.44511	0.849923	5.54069
0.655975	2.57309	0.655917	2.57321	0.614348	3.97287	0.851641	5.51894	0.433411	2.79746	0.784237	3.45498	0.850645	5.50963
0.654251	2.57639	0.654192	2.57651	0.614952	3.95132	0.853024	5.49245	0.434348	2.7856	0.783027	3.46485	0.851365	5.47894
0.652512	2.57966	0.652452	2.57978	0.615551	3.93002	0.854419	5.46638	0.435289	2.77392	0.781799	3.47473	0.852081	5.44863
0.650757	2.5829	0.650697	2.58301	0.616145	3.90896	0.855825	5.44071	0.436235	2.76241	0.780553	3.48462	0.852796	5.41869
0.648986	2.58609	0.648926	2.5862	0.616736	3.88813	0.857243	5.41543	0.437187	2.75109	0.779287	3.49451	0.853508	5.38911
0.647199	2.58925	0.647138	2.58935	0.617322	3.86755	0.858672	5.39054	0.438143	2.73993	0.778002	3.5044	0.85422	5.35989
0.645393	2.59235	0.645332	2.59246	0.617906	3.84719	0.86011	5.36601	0.439106	2.72896	0.776697	3.51429	0.854932	5.33104
0.64357	2.59541	0.643508	2.59552	0.618486	3.82708	0.861559	5.34186	0.440075	2.71815	0.775372	3.52417	0.855643	5.30254
0.641728	2.59842	0.641665	2.59852	0.619065	3.80719	0.863016	5.31805	0.44105	2.70752	0.774026	3.53405	0.856355	5.2744
0.639868	2.60138	0.639804	2.60148	0.619641	3.78753	0.864482	5.29459	0.442032	2.69706	0.77266	3.54393	0.857069	5.24661
0.637988	2.60428	0.637923	2.60438	0.620215	3.7681	0.865956	5.27146	0.443022	2.68677	0.771272	3.5538	0.857784	5.21917
0.636088	2.60713	0.636023	2.60722	0.620788	3.7489	0.867437	5.24865	0.444018	2.67664	0.769863	3.56367	0.858503	5.19207
0.634168	2.60992	0.634103	2.61001	0.621361	3.72992	0.868925	5.22616	0.445023	2.66669	0.768433	3.57352	0.859224	5.16532
0.632229	2.61264	0.632162	2.61273	0.621932	3.71116	0.87042	5.20397	0.446036	2.6569	0.766981	3.58337	0.85995	5.13891
0.630269	2.61531	0.630202	2.6154	0.622504	3.69263	0.871921	5.18209	0.447058	2.64728	0.765507	3.5932	0.86068	5.11284
0.62829	2.61791	0.628222	2.618	0.623076	3.67431	0.873427	5.16049	0.448088	2.63782	0.764011	3.60303	0.861415	5.08711
0.62629	2.62046	0.626221	2.62054	0.623648	3.65621	0.874938	5.13918	0.449127	2.62853	0.762493	3.61284	0.862156	5.06171
0.62427	2.62294	0.624201	2.62302	0.624221	3.63833	0.876454	5.11813	0.450176	2.6194	0.760954	3.62264	0.862903	5.03665
0.62223	2.62535	0.622161	2.62544	0.624796	3.62066	0.877973	5.09736	0.451235	2.61043	0.759392	3.63243	0.863658	5.01192
0.620171	2.62771	0.620101	2.62779	0.625372	3.6032	0.879496	5.07684	0.452304	2.60163	0.757808	3.6422	0.864421	4.98752
0.618093	2.63	0.618021	2.63008	0.625951	3.58595	0.881022	5.05658	0.453384	2.59298	0.756202	3.65197	0.865192	4.96344
0.615995	2.63223	0.615923	2.63231	0.626531	3.56891	0.88255	5.03656	0.454475	2.5845	0.754574	3.66172	0.865973	4.9397
0.613879	2.6344	0.613806	2.63447	0.627115	3.55208	0.88408	5.01677	0.455577	2.57617	0.752925	3.67146	0.866764	4.91627
0.611744	2.63651	0.611671	2.63658	0.627701	3.53546	0.885612	4.99722	0.456691	2.56801	0.751254	3.68119	0.867565	4.89317
0.609592	2.63856	0.609518	2.63863	0.628291	3.51904	0.887144	4.97789	0.457818	2.56001	0.749561	3.69091	0.868377	4.8704
0.607422	2.64055	0.607348	2.64062	0.628885	3.50282	0.888677	4.95878	0.458958	2.55217	0.747848	3.70063	0.869202	4.84794
0.605236	2.64249	0.605161	2.64256	0.629483	3.48681	0.89021	4.93988	0.460111	2.54448	0.746114	3.71033	0.870039	4.8258
0.603033	2.64437	0.602958	2.64444	0.630085	3.471	0.891743	4.92118	0.461278	2.53696	0.744359	3.72003	0.87089	4.80398
0.600814	2.6462	0.600738	2.64626	0.630692	3.45538	0.893274	4.90269	0.46246	2.52961	0.742584	3.72973	0.871755	4.78248
0.59858	2.64798	0.598504	2.64804	0.631304	3.43996	0.894805	4.88438	0.463658	2.52242	0.740789	3.73942	0.872635	4.76129
0.596331	2.6497	0.596254	2.64976	0.631922	3.42474	0.896333	4.86627	0.464872	2.5154	0.738975	3.74911	0.87353	4.74041
0.594067	2.65138	0.59399	2.65144	0.632545	3.40971	0.897859	4.84834	0.466105	2.50854	0.737142	3.7588	0.874442	4.71984
0.59179	2.65301	0.591712	2.65306	0.633174	3.39488	0.899383	4.83058	0.467356	2.50187	0.73529	3.7685	0.87537	4.69959
0.5895	2.65459	0.589421	2.65465	0.63381	3.38024	0.900903	4.813	0.468628	2.49537	0.73342	3.77821	0.876316	4.67964
0.587196	2.65614	0.587118	2.65619	0.634453	3.36579	0.902419	4.79558	0.469921	2.48906	0.731533	3.78792	0.87728	4.66001
0.584881	2.65763	0.584802	2.65769	0.635103	3.35152	0.903932	4.77833	0.471239	2.48294	0.729628	3.79764	0.878263	4.64068
0.582554	2.65909	0.582474	2.65914	0.63576	3.33745	0.90544	4.76123	0.472583	2.47702	0.727707	3.80738	0.879266	4.62165
0.580215	2.66052	0.580135	2.66056	0.636425	3.32357	0.906943	4.74429	0.473957	2.47132	0.72577	3.81714	0.880288	4.60293
0.577865	2.6619	0.577785	2.66195	0.637099	3.30986	0.90844	4.72749	0.475362	2.46584	0.723817	3.82691	0.881332	4.58451
0.575506	2.66325	0.575425	2.66329	0.63778	3.29635	0.909932	4.71084	0.476803	2.4606	0.721849	3.83671	0.882397	4.56639
0.573136	2.66456	0.573055	2.66461	0.638471	3.28302	0.911418	4.69432	0.478284	2.45562	0.719867	3.84654	0.883483	4.54856
0.570757	2.66585	0.570676	2.66589	0.639171	3.26987	0.912898	4.67794	0.479809	2.45092	0.717871	3.8564	0.884593	4.53104
0.568368	2.6671	0.568287	2.66714	0.63988	3.2569	0.91437	4.6617	0.481385	2.44652	0.715862	3.86629	0.885725	4.51381
0.565971	2.66832	0.56589	2.66836	0.640599	3.24411	0.915835	4.64558	0.483016	2.44245	0.71384	3.87623	0.886881	4.49688
0.563566	2.66952	0.563484	2.66956	0.641328	3.23151	0.917293	4.62958	0.48471	2.43873	0.711806	3.8862	0.888061	4.48023
0.561153	2.67069	0.561071	2.67073	0.642068	3.21908	0.918743	4.6137	0.48647	2.43538	0.709761	3.89622	0.889266	4.46388
0.558732	2.67183	0.55865	2.67187	0.642818	3.20683	0.920184	4.59794	0.488304	2.43243	0.707705	3.9063	0.890495	4.44782
0.556305	2.67296	0.556222	2.67299	0.64358	3.19475	0.921617	4.5823	0.490214	2.42989	0.705639	3.91642	0.89175	4.43204
0.55387	2.67405	0.553787	2.67409	0.644354	3.18286	0.92304	4.56676	0.492203	2.42777	0.703563	3.92661	0.893031	4.41654
0.551429	2.67513	0.551345	2.67517	0.64514	3.17114	0.924455	4.55133	0.494272	2.42605	0.701479	3.93686	0.894338	4.40132
0.548981	2.67619	0.548898	2.67623	0.645938	3.15959	0.925859	4.536	0.496417	2.42472	0.699386	3.94718	0.895672	4.38638
0.546528	2.67723	0.546444	2.67726	0.646749	3.14822	0.927254	4.52077	0.498634	2.42376	0.697285	3.95757	0.897032	4.37172
0.544069	2.67825	0.543985	2.67829	0.647573	3.13702	0.928639	4.50564	0.500919	2.42314	0.695178	3.96804	0.89842	4.35733
0.541604	2.67926	0.54152	2.67929	0.648411	3.126	0.930013	4.49061	0.503264	2.42281	0.693064	3.9786	0.899834	4.34321
0.539135	2.68025	0.53905	2.68028	0.649263	3.11515	0.931376	4.47567	0.505664	2.42274	0.690945	3.98924	0.901277	4.32936
0.53666	2.68122	0.536576	2.68125	0.650129	3.10447	0.932728	4.46082	0.50811	2.4229	0.68882	3.99998	0.902746	4.31577
0.534181	2.68218	0.534097	2.68221	0.651011	3.09396	0.93407	4.44605	0.510597	2.42325	0.686691	4.01081	0.904244	4.30244
0.531698	2.68313	0.531613	2.68316	0.651907	3.08363	0.935399	4.43137	0.513119	2.42376	0.684558	4.02175	0.905769	4.28937
0.52921	2.68407	0.529125	2.6841	0.65282	3.07346	0.936717	4.41677	0.515671	2.42441	0.682422	4.0328	0.907322	4.27656
0.526719	2.68499	0.526634	2.68503	0.653749	3.06347	0.938023	4.40226	0.518249	2.42518	0.680284	4.04396	0.908903	4.26399
0.524223	2.68591	0.524138	2.68594	0.654695	3.05365	0.939317	4.38782	0.52085	2.42604	0.678144	4.05525	0.910512	4.25167
0.521724	2.68682	0.521639	2.68685	0.655658	3.04401	0.940599	4.37346	0.523469	2.42698	0.676002	4.06667	0.912148	4.23959
0.519222	2.68772	0.519137	2.68775	0.65664	3.03453	0.941869	4.35917	0.526104	2.42799	0.673859	4.07821	0.913812	4.22776
0.516716	2.68861	0.516631	2.68864	0.657639	3.02522	0.943126	4.34496	0.528754	2.42905	0.671717	4.0899	0.915504	4.21615
0.514208	2.6895	0.514122	2.68953	0.658658	3.01609	0.94437	4.33082	0.531416	2.43016	0.669575	4.10174	0.917223	4.20478
0.511697	2.69038	0.511611	2.69041	0.659696	3.00713	0.945601	4.31675	0.534089	2.43131	0.667435	4.11373	0.918968	4.19364
0.509183	2.69125	0.509097	2.69128	0.660753	2.99834	0.94682	4.30275	0.53677	2.43248	0.665296	4.12587	0.920741	4.18271
0.506666	2.69213	0.50658	2.69216	0.661832	2.98972	0.948026	4.28882	0.53946	2.43369	0.663161	4.13819	0.92254	4.17201
0.504147	2.69299	0.504061	2.69302	0.662932	2.98127	0.949219	4.27495	0.542157	2.43491	0.661028	4.15068	0.924365	4.16152
0.501626	2.69386	0.50154	2.69389	0.664053	2.973	0.950398	4.26115	0.54486	2.43616	0.658899	4.16335	0.926216	4.15124
0.499103	2.69472	0.499017	2.69475	0.665197	2.9649	0.951564	4.24741	0.547569	2.43741	0.656774	4.17621	0.928092	4.14116
0.496578	2.69559	0.496492	2.69562	0.666364	2.95697	0.952718	4.23374	0.550282	2.43868	0.654655	4.18926	0.929994	4.13128
0.494051	2.69645	0.493965	2.69648	0.667554	2.94922	0.953858	4.22012	0.553	2.43995	0.652542	4.20252	0.93192	4.1216
0.491523	2.69731	0.491437	2.69734	0.668768	2.94164	0.954985	4.20657	0.555721	2.44123	0.650434	4.216	0.93387	4.11211
0.488993	2.69818	0.488906	2.69821	0.670008	2.93423	0.956098	4.19308	0.558446	2.44251	0.648334	4.22969	0.935845	4.10281
0.486461	2.69904	0.486375	2.69907	0.671272	2.927	0.957199	4.17965	0.561173	2.4438	0.646242	4.24362	0.937842	4.09369
0.483929	2.69991	0.483842	2.69994	0.672562	2.91995	0.958286	4.16628	0.563904	2.44508	0.644158	4.25778	0.939862	4.08475
0.481395	2.70078	0.481309	2.70081	0.673879	2.91307	0.95936	4.15296	0.566637	2.44636	0.642084	4.2722	0.941905	4.07599
0.47886	2.70166	0.478774	2.70169	0.675222	2.90636	0.960422	4.13971	0.569371	2.44765	0.640019	4.28687	0.943969	4.06739
0.476325	2.70254	0.476238	2.70257	0.676593	2.89983	0.96147	4.12651	0.572108	2.44893	0.637964	4.3018	0.946055	4.05896
0.473788	2.70343	0.473702	2.70346	0.677992	2.89347	0.962506	4.11337	0.574847	2.4502	0.635921	4.31702	0.948162	4.05069
0.471251	2.70432	0.471165	2.70435	0.679419	2.88729	0.963529	4.10029	0.577587	2.45147	0.633889	4.33252	0.950289	4.04257
0.468714	2.70522	0.468627	2.70525	0.680875	2.88128	0.964539	4.08727	0.580328	2.45274	0.63187	4.34832	0.952435	4.03461
0.466176	2.70613	0.466089	2.70616	0.68236	2.87545	0.965536	4.0743	0.583071	2.454	0.629864	4.36443	0.954601	4.02679
0.463638	2.70705	0.463551	2.70708	0.683875	2.86978	0.966522	4.06139	0.585814	2.45525	0.627872	4.38087	0.956785	4.01912
0.461099	2.70798	0.461013	2.70801	0.685419	2.86429	0.967495	4.04853	0.588559	2.4565	0.625895	4.39763	0.958987	4.01158
0.458561	2.70891	0.458474	2.70895	0.686993	2.85897	0.968456	4.03573	0.591304	2.45774	0.623932	4.41474	0.961206	4.00418
0.456023	2.70986	0.455936	2.7099	0.688597	2.85381	0.969405	4.02299	0.59405	2.45898	0.621986	4.4322	0.963443	3.99692
0.453485	2.71083	0.453398	2.71086	0.690231	2.84883	0.970342	4.0103	0.596797	2.4602	0.620057	4.45004	0.965696	3.98978
0.450947	2.7118	0.45086	2.71184	0.691895	2.844	0.971268	3.99767	0.599544	2.46142	0.618145	4.46826	0.967964	3.98276
0.448409	2.71279	0.448323	2.71283	0.693589	2.83934	0.972182	3.9851	0.602292	2.46263	0.616251	4.48687	0.970248	3.97586
0.445873	2.7138	0.445786	2.71383	0.695313	2.83484	0.973086	3.97258	0.60504	2.46384	0.614376	4.5059	0.972546	3.96908
0.443337	2.71482	0.44325	2.71486	0.697066	2.83049	0.973978	3.96012	0.607788	2.46503	0.612521	4.52535	0.974859	3.96241
0.440802	2.71586	0.440715	2.7159	0.698849	2.8263	0.974859	3.94772	0.610537	2.46621	0.610686	4.54524	0.977185	3.95585
0.438267	2.71692	0.438181	2.71696	0.700661	2.82226	0.97573	3.93537	0.613286	2.46739	0.608872	4.56559	0.979524	3.9494
0.435734	2.718	0.435648	2.71804	0.702502	2.81837	0.976591	3.92308	0.616035	2.46856	0.60708	4.5864	0.981876	3.94304
0.433203	2.7191	0.433116	2.71914	0.70437	2.81462	0.977442	3.91085	0.618784	2.46972	0.605311	4.60771	0.984239	3.93679
0.430672	2.72023	0.430586	2.72026	0.706267	2.81101	0.978282	3.89868	0.621533	2.47087	0.603565	4.62952	0.986614	3.93063
0.428143	2.72137	0.428057	2.72141	0.70819	2.80754	0.979113	3.88656	0.624282	2.47201	0.601843	4.65185	0.988999	3.92456
0.425616	2.72255	0.42553	2.72259	0.71014	2.80419	0.979935	3.8745	0.627031	2.47314	0.600145	4.67472	0.991395	3.91858
0.423091	2.72375	0.423005	2.72379	0.712116	2.80098	0.980747	3.86251	0.62978	2.47426	0.598474	4.69815	0.993801	3.91268
0.420568	2.72498	0.420482	2.72502	0.714117	2.79789	0.981551	3.85057	0.632529	2.47537	0.596828	4.72215	0.996215	3.90687
0.418047	2.72624	0.417961	2.72628	0.716143	2.79492	0.982346	3.83869	0.635277	2.47648	0.595209	4.74675	0.998639	3.90113
0.415528	2.72753	0.415443	2.72757	0.718192	2.79206	0.983132	3.82686	0.638026	2.47757	0.593618	4.77197	1.00107	3.89548
0.413012	2.72885	0.412927	2.7289	0.720264	2.78932	0.98391	3.8151	0.640774	2.47866	0.592056	4.79782		
0.410499	2.73022	0.410414	2.73026	0.722358	2.78668	0.984681	3.8034	0.643522	2.47973	0.590522	4.82433		
0.407989	2.73162	0.407904	2.73167	0.724473	2.78414	0.985443	3.79176	0.646269	2.4808	0.589018	4.85152		
0.405482	2.73306	0.405397	2.73311	0.726609	2.7817	0.986199	3.78018	0.649016	2.48185	0.587545	4.87942		
0.402978	2.73454	0.402893	2.73459	0.728765	2.77936	0.986947	3.76866	0.651763	2.4829	0.586102	4.90803		
0.400479	2.73607	0.400394	2.73612	0.73094	2.7771	0.987688	3.7572	0.654509	2.48394	0.584691	4.9374		
0.397983	2.73765	0.397898	2.7377	0.733134	2.77493	0.988422	3.7458	0.657255	2.48497	0.583312	4.96754		
0.395491	2.73928	0.395406	2.73933	0.735344	2.77285	0.989151	3.73446	0.66	2.48598	0.581966	4.99847		
0.393004	2.74096	0.392919	2.74102	0.737572	2.77084	0.989873	3.72319	0.662745	2.48699	0.580653	5.03023		
0.390522	2.7427	0.390437	2.74276	0.739816	2.76891	0.990589	3.71197	0.66549	2.48799	0.579375	5.06284		
0.388044	2.7445	0.38796	2.74456	0.742075	2.76705	0.9913	3.70082	0.668233	2.48898	0.57813	5.09632		
0.385573	2.74637	0.385489	2.74643	0.744348	2.76526	0.992005	3.68974	0.670976	2.48996	0.576921	5.13071		
0.383107	2.7483	0.383023	2.74837	0.746636	2.76353	0.992705	3.67871	0.673719	2.49093	0.575747	5.16603		
0.380647	2.7503	0.380563	2.75037	0.748937	2.76187	0.9934	3.66775	0.67646	2.49189	0.574609	5.20231		
0.378194	2.75239	0.37811	2.75246	0.751251	2.76026	0.99409	3.65685	0.679202	2.49284	0.573507	5.23958		
0.375747	2.75455	0.375664	2.75462	0.753577	2.75871	0.994777	3.64602	0.681942	2.49378	0.572441	5.27787		
0.373309	2.7568	0.373226	2.75688	0.755915	2.75722	0.995459	3.63525	0.684681	2.49471	0.571413	5.31722		
0.370878	2.75914	0.370795	2.75922	0.758264	2.75577	0.996137	3.62454	0.68742	2.49563	0.570421	5.35765		
0.368455	2.76159	0.368373	2.76167	0.760623	2.75438	0.996811	3.6139	0.690158	2.49655	0.569467	5.3992		
0.366042	2.76413	0.36596	2.76422	0.762993	2.75303	0.997482	3.60332	0.692895	2.49745	0.568551	5.4419		
0.363638	2.76679	0.363556	2.76688	0.765372	2.75172	0.99815	3.5928	0.695631	2.49834	0.567673	5.4858		
0.361244	2.76957	0.361163	2.76966	0.76776	2.75046	0.998815	3.58235	0.698366	2.49922	0.566833	5.53091		
0.358862	2.77247	0.358781	2.77257	0.770157	2.74923	0.999477	3.57197	0.7011	2.5001	0.566031	5.5773		
0.356491	2.77551	0.35641	2.77561	0.772561	2.74805	1.00014	3.56164	0.703833	2.50096	0.565267	5.62498		
0.354132	2.77869	0.354052	2.7788	0.774974	2.7469			0.706565	2.50181	0.564542	5.674		
0.351786	2.78203	0.351706	2.78214	0.777395	2.74578			0.709296	2.50266	0.563855	5.7244		
0.349454	2.78553	0.349375	2.78565	0.779822	2.7447			0.712026	2.50349	0.563207	5.77623		
0.347138	2.78921	0.347059	2.78934	0.782256	2.74365			0.714754	2.50431	0.562597	5.82952		
0.344837	2.79307	0.344759	2.79321	0.784696	2.74263			0.717481	2.50513	0.562025	5.88432		
0.342553	2.79714	0.342475	2.79728	0.787143	2.74164			0.720207	2.50593	0.561492	5.94069		
0.340287	2.80142	0.34021	2.80157	0.789595	2.74067			0.722932	2.50672	0.560996	5.99866		
0.33804	2.80593	0.337964	2.80609	0.792053	2.73973			0.725655	2.50751	0.560539	6.05829		
0.335813	2.81069	0.335738	2.81085	0.794516	2.73881			0.728377	2.50828	0.560119	6.11963		
0.333609	2.81571	0.333534	2.81588	0.796984	2.73792			0.731098	2.50904	0.559736	6.18273		
0.331427	2.82101	0.331353	2.8212	0.799456	2.73705			0.733816	2.50979	0.559391	6.24766		
0.32927	2.82662	0.329197	2.82681	0.801933	2.7362			0.736534	2.51053	0.559083	6.31446		
0.327139	2.83254	0.327067	2.83275	0.804415	2.73537			0.739249	2.51126	0.558811	6.3832		
0.325036	2.83881	0.324965	2.83903	0.8069	2.73456			0.741963	2.51198	0.558576	6.45394		
0.322962	2.84545	0.322892	2.84569	0.809389	2.73376			0.744675	2.51269	0.558377	6.52675		
0.320919	2.85249	0.32085	2.85273	0.811881	2.73299			0.747385	2.51339	0.558214	6.6017		
0.318909	2.85994	0.318841	2.8602	0.814377	2.73223			0.750093	2.51407	0.558085	6.67886		
0.316934	2.86784	0.316867	2.86812	0.816876	2.73149			0.752799	2.51475	0.557992	6.7583		
0.314995	2.87622	0.31493	2.87651	0.819379	2.73076			0.755503	2.51541	0.557933	6.8401		
0.313094	2.8851	0.31303	2.88541	0.821883	2.73004			0.758205	2.51606	0.557909	6.92436		
0.311234	2.89453	0.311171	2.89486	0.824391	2.72934			0.760904	2.5167	0.557918	7.01114		
0.309416	2.90452	0.309354	2.90487	0.826901	2.72866			0.763601	2.51733	0.55796	7.10055		
0.307641	2.91512	0.307581	2.91549	0.829413	2.72798			0.766296	2.51795	0.558024	7.18067		
0.305912	2.92635	0.305854	2.92675	0.831928	2.72732			0.768988	2.51855	0.558097	7.25065		
0.30423	2.93826	0.304174	2.93868	0.834445	2.72666			0.771677	2.51914	0.558172	7.30972		
0.302598	2.95088	0.302543	2.95132	0.836963	2.72602			0.774363	2.51971	0.558239	7.35722		
0.301016	2.96424	0.300963	2.96471	0.839483	2.72539			0.777046	2.52028	0.558293	7.39259		
0.299485	2.97838	0.299434	2.97888	0.842005	2.72476			0.779726	2.52083	0.558347	7.42547		
0.298007	2.99334	0.297958	2.99386	0.844528	2.72415			0.782403	2.52136	0.558386	7.44855		
0.296584	3.00915	0.296536	3.0097	0.847053	2.72354			0.785076	2.52188	0.55845	7.48492		
0.295215	3.02584	0.295169	3.02642	0.849579	2.72294			0.787746	2.52239	0.558544	7.53504		
0.293902	3.04344	0.293858	3.04406	0.852106	2.72235			0.790412	2.52288	0.558674	7.59951		
0.292644	3.06201	0.292602	3.06266	0.854634	2.72177			0.793074	2.52335	0.558845	7.67914		
0.291443	3.08155	0.291403	3.08224	0.857163	2.72119			0.795732	2.52381	0.559068	7.77492		
0.290298	3.10212	0.29026	3.10284	0.859692	2.72062			0.798385	2.52425	0.559351	7.88812		
0.28921	3.12373	0.289174	3.12449	0.862223	2.72005			0.801034	2.52467	0.559663	8.00497		
0.288177	3.14643	0.288143	3.14722	0.864753	2.71949			0.803677	2.52508	0.560004	8.12561		
0.2872	3.17024	0.287168	3.17107	0.867284	2.71893			0.806316	2.52547	0.560374	8.2502		
0.286278	3.19519	0.286248	3.19606	0.869816	2.71838			0.808949	2.52583	0.560771	8.37892		
0.285411	3.22132	0.285383	3.22223	0.872348	2.71783			0.811576	2.52618	0.561196	8.51194		
0.284597	3.24866	0.284571	3.24961	0.87488	2.71729			0.814197	2.52651	0.561647	8.64946		
0.283836	3.27723	0.283811	3.27823	0.877411	2.71675			0.816812	2.52681	0.562125	8.79167		
0.283127	3.30708	0.283104	3.30812	0.879943	2.71621			0.81942	2.52709	0.562628	8.9388		
0.282469	3.33823	0.282448	3.33931	0.882474	2.71567			0.822021	2.52735	0.563158	9.09106		
0.281861	3.37072	0.281841	3.37185	0.885005	2.71514			0.824615	2.52758	0.563712	9.24872		
0.281302	3.40458	0.281284	3.40576	0.887536	2.71461			0.8272	2.52779	0.56429	9.41202		
0.28079	3.43986	0.280773	3.44108	0.890066	2.71408			0.829777	2.52797	0.564893	9.58125		
0.280325	3.47658	0.28031	3.47786	0.892595	2.71355			0.832344	2.52812	0.56552	9.7567		
0.279906	3.5148	0.279892	3.51613	0.895124	2.71302			0.834902	2.52824	0.566169	9.93869		
0.279531	3.55455	0.279519	3.55593	0.897652	2.71249			0.83745	2.52833	0.566842	10.1276		
0.2792	3.59588	0.279189	3.59732	0.900178	2.71197			0.839988	2.52839	0.567536	10.3237		
0.278911	3.63884	0.278902	3.64033	0.902704	2.71144			0.842514	2.52841	0.568252	10.5275		
0.278663	3.68347	0.278655	3.68502	0.905228	2.71091			0.845027	2.5284	0.56899	10.7393		
0.278456	3.72984	0.278449	3.73145	0.907751	2.71038			0.847528	2.52835	0.569749	10.9597		
0.278288	3.77799	0.278283	3.77966	0.910272	2.70985			0.850016	2.52826	0.570528	11.189		
0.278158	3.82799	0.278154	3.82973	0.912792	2.70932			0.852489	2.52812	0.571328	11.4279		
0.278065	3.8799	0.278063	3.8817	0.91531	2.70878			0.854947	2.52794	0.572147	11.6769		
0.278009	3.93379	0.278008	3.93566	0.917826	2.70825			0.857389	2.52772	0.572985	11.9367		
0.277989	3.98973	0.277989	3.99167	0.92034	2.70771			0.859814	2.52745	0.573842	12.2079		
0.277999	4.0402	0.278004	4.04981	0.922852	2.70717			0.862221	2.52713	0.574717	12.4912		
0.278028	4.08455	0.278053	4.11016	0.925362	2.70662			0.86461	2.52675	0.575611	12.7874		
0.278066	4.12216	0.278134	4.1728	0.927869	2.70607			0.866979	2.52632	0.576522	13.0974		
0.278105	4.15251	0.278248	4.23783	0.930373	2.70551			0.869327	2.52583	0.57745	13.4222		
0.278138	4.17518	0.278392	4.30534	0.932875	2.70495			0.871654	2.52528	0.578394	13.7628		
0.278172	4.19631	0.278567	4.37544	0.935374	2.70439			0.873959	2.52468	0.579355	14.1203		
0.278198	4.21116	0.278771	4.44823	0.937869	2.70382			0.87624	2.52401	0.580331	14.496		
0.278241	4.23463	0.279004	4.52385	0.940362	2.70324			0.878498	2.52327	0.581323	14.8913		
0.278307	4.26704	0.279264	4.6024	0.942851	2.70266			0.880732	2.52247	0.58233	15.3077		
0.2784	4.3089	0.279552	4.68402	0.945336	2.70207			0.88294	2.5216	0.583351	15.7468		
0.278528	4.36082	0.279865	4.76886	0.947817	2.70147			0.885122	2.52066	0.584386	16.2106		
0.2787	4.42361	0.280204	4.85708	0.950295	2.70086			0.887279	2.51966	0.585434	16.7011		
0.278923	4.49827	0.280568	4.94882	0.952768	2.70025			0.889409	2.51858	0.586495	17.2207		
0.279174	4.57582	0.280955	5.04427	0.955236	2.69962			0.891513	2.51744	0.587568	17.7719		
0.279453	4.6564	0.281366	5.14362	0.9577	2.69899			0.893591	2.51623	0.588653	18.3578		
0.279758	4.74016	0.281798	5.24707	0.960159	2.69834			0.895643	2.51495	0.58975	18.9816		
0.280088	4.82722	0.282252	5.35483	0.962613	2.69769			0.897669	2.51361	0.590857	19.6471		
0.280444	4.91777	0.282727	5.46715	0.965061	2.69702			0.89967	2.51221	0.591973	20.3585		
0.280823	5.01196	0.283221	5.58426	0.967504	2.69634			0.901647	2.51075	0.593099	21.1207		
0.281226	5.10999	0.283734	5.70644	0.96994	2.69565			0.9036	2.50923	0.594234	21.9392		
0.281651	5.21204	0.284265	5.83399	0.97237	2.69494			0.90553	2.50765	0.595376	22.8206		
0.282098	5.31834	0.284814	5.96723	0.974794	2.69422			0.907439	2.50602	0.596525	23.7722		
0.282566	5.4291	0.285379	6.1065	0.97721	2.69349			0.909327	2.50435	0.597679	24.8027		
0.283054	5.54458	0.285959	6.25217	0.97962	2.69274			0.911195	2.50263	0.598838	25.9222		
0.283561	5.66504	0.286554	6.40465	0.982021	2.69197			0.913044	2.50087	0.600001	27.1428		
0.284086	5.79077	0.287084	6.54343	0.984415	2.69118			0.914877	2.49907	0.601166	28.4787		
0.284629	5.92207	0.287543	6.66632	0.986801	2.69038			0.916693	2.49724	0.602332	29.947		
0.285188	6.05928	0.287928	6.7713	0.989177	2.68955			0.918495	2.49537	0.603497	31.5681		
0.285764	6.20277	0.288236	6.85654	0.991545	2.68871			0.920283	2.49348	0.604658	33.3674		
0.286354	6.35293	0.288464	6.92052	0.993903	2.68784			0.922058	2.49157	0.605815	35.3756		
0.286958	6.51019	0.288674	6.98038	0.996252	2.68696			0.923823	2.48964	0.606964	37.6314		
0.287576	6.67503	0.288822	7.0226	0.998589	2.68605			0.925577	2.48769	0.608103	40.1835		
0.288205	6.84796	0.289053	7.08954	1.00092	2.68511			0.927322	2.48572	0.609228	43.0941		
0.288846	7.02955	0.28937	7.18253					0.929059	2.48375	0.610335	46.4446		
0.289497	7.22042	0.289773	7.30346					0.930789	2.48176	0.611419	50.3429		
0.290157	7.42124	0.290265	7.4549					0.932512	2.47977	0.612475	54.9351		
0.290826	7.63278	0.290848	7.64019					0.934231	2.47778	0.613497	60.4249		
0.291501	7.85587	0.291524	7.86369					0.935945	2.47579	0.614476	67.1044		
0.292183	8.09144	0.292206	8.0997					0.937655	2.47379	0.615405	75.4081		
0.29287	8.34051	0.292893	8.34925					0.939362	2.4718	0.616274	86.012		
0.29356	8.60424	0.293584	8.6135					0.941067	2.46982	0.61707	100.028		
0.294254	8.88392	0.294277	8.89374					0.942771	2.46783	0.617782	119.426		
0.294948	9.18098	0.294972	9.19142					0.944473	2.46586	0.618395	148.051		
0.295644	9.49706	0.295667	9.50818					0.946175	2.4639	0.618898	194.568		
0.296338	9.83401	0.296361	9.84588					0.947878	2.46195	0.619276	283.44		
0.29703	10.1939	0.297053	10.2066					0.94958	2.46	0.619519	521.115		
0.297718	10.5792	0.297742	10.5928					0.951284	2.45808	0.61962	3213.64		
0.298402	10.9925	0.298425	11.0071					0.952989	2.45616				
0.29908	11.4371	0.299103	11.4529					0.954696	2.45426				
0.29975	11.9166	0.299772	11.9336					0.956406	2.45238				
0.300411	12.4353	0.300433	12.4537					0.958118	2.45051				
0.301061	12.9982	0.301083	13.0182					0.959833	2.44866				
0.3017	13.6111	0.301721	13.6329					0.961551	2.44682				
0.302325	14.281	0.302346	14.3049					0.963273	2.44501				
0.302935	15.0163	0.302956	15.0426					0.964999	2.44321				
0.303529	15.8272	0.303549	15.8563					0.966729	2.44143				
0.304105	16.7259	0.304125	16.7582					0.968463	2.43968				
0.304662	17.7277	0.30468	17.7638					0.970202	2.43794				
0.305197	18.8514	0.305215	18.8921					0.971946	2.43622				
0.30571	20.121	0.305727	20.1671					0.973694	2.43453				
0.306199	21.567	0.306215	21.6198					0.975448	2.43285				
0.306663	23.2293	0.306678	23.2903					0.977207	2.4312				
0.307099	25.1606	0.307114	25.2319					0.978972	2.42957				
0.307507	27.4327	0.307521	27.5172					0.980742	2.42796				
0.307886	30.145	0.307899	30.2467					0.982518	2.42638				
0.308234	33.4402	0.308245	33.5649					0.9843	2.42481				
0.30855	37.5298	0.30856	37.6866					0.986088	2.42327				
0.308832	42.7424	0.308841	42.9453					0.987883	2.42176				
0.30908	49.6164	0.309088	49.8893					0.989683	2.42026				
0.309294	59.1002	0.3093	59.487					0.99149	2.41879				
0.309471	73.034	0.309476	73.6247					0.993304	2.41734				
0.309612	95.5199	0.309616	96.5315					0.995124	2.41591				
0.309715	137.939	0.309718	140.056					0.996951	2.41451				
0.309782	247.967	0.309783	254.89					0.998785	2.41313				
0.30981	1223.29	0.30981	1412.49					1.00063	2.41177				
