Sym0		Sym1		Sym2		Sym3		Asym1		Asym2		Asym3	
419  Points		419  Points		379  Points		236  Points		400  Points		375  Points		248  Points	
Freq (MHz)	Vph (m/ms)	Freq (MHz)	Vph (m/ms)	Freq (MHz)	Vph (m/ms)	Freq (MHz)	Vph (m/ms)	Freq (MHz)	Vph (m/ms)	Freq (MHz)	Vph (m/ms)	Freq (MHz)	Vph (m/ms)
1.00203	2.4343	1.00096	2.43426	0.43304	542.886	0.86602	962.178	0.216533	254.613	1.00111	2.72376	0.712955	1557.73
0.99956	2.4342	0.998498	2.43416	0.433148	241.485	0.866004	456.732	0.21663	117.322	0.999732	2.72739	0.713026	490.486
0.9971	2.43411	0.996039	2.43408	0.433339	155.335	0.865975	299.427	0.2168	76.2712	0.99836	2.73107	0.71317	291.121
0.994645	2.43404	0.993587	2.43401	0.433612	114.538	0.865934	222.712	0.217041	56.5431	0.996997	2.73479	0.713387	207.033
0.992196	2.43398	0.99114	2.43395	0.433965	90.7543	0.865882	177.284	0.217353	44.9585	0.995641	2.73856	0.713674	160.673
0.989753	2.43393	0.9887	2.43391	0.434397	75.184	0.865817	147.243	0.217736	37.344	0.994293	2.74236	0.714032	131.309
0.987315	2.4339	0.986265	2.43389	0.434905	64.2039	0.865741	125.904	0.218188	31.9616	0.992953	2.74621	0.714457	111.047
0.984884	2.43388	0.983836	2.43388	0.435487	56.0484	0.865653	109.963	0.218709	27.9586	0.99162	2.7501	0.714948	96.2264
0.982459	2.43388	0.981414	2.43388	0.43614	49.7544	0.865554	97.6014	0.219298	24.8676	0.990295	2.75403	0.715502	84.9172
0.98004	2.43389	0.978998	2.4339	0.436862	44.7518	0.865444	87.7351	0.219953	22.4107	0.988976	2.75801	0.716117	76.0056
0.977627	2.43392	0.976588	2.43394	0.437649	40.6817	0.865322	79.6775	0.220673	20.4125	0.987665	2.76202	0.71679	68.8035
0.975221	2.43397	0.974185	2.43399	0.438499	37.3066	0.865189	72.9728	0.221457	18.7569	0.98636	2.76608	0.717517	62.8632
0.972822	2.43403	0.971788	2.43406	0.439409	34.4636	0.865045	67.3064	0.222303	17.3637	0.985063	2.77018	0.718298	57.8807
0.97043	2.43411	0.969399	2.43415	0.440376	32.0367	0.86489	62.4543	0.22321	16.1761	0.983772	2.77432	0.719128	53.6422
0.968044	2.43421	0.967016	2.43425	0.441396	29.9414	0.864725	58.2526	0.224177	15.1524	0.982488	2.7785	0.720005	49.9933
0.965665	2.43432	0.964641	2.43438	0.442468	28.1146	0.86455	54.5787	0.225201	14.2615	0.98121	2.78272	0.720926	46.8193
0.963294	2.43446	0.962272	2.43452	0.443587	26.5081	0.864364	51.3389	0.226281	13.4797	0.979939	2.78699	0.721889	44.0336
0.96093	2.43461	0.959911	2.43468	0.444752	25.0846	0.864168	48.4604	0.227415	12.7884	0.978673	2.7913	0.722892	41.5692
0.958573	2.43478	0.957558	2.43486	0.44596	23.8149	0.863963	45.8859	0.228601	12.1733	0.977415	2.79565	0.723932	39.3738
0.956223	2.43497	0.955211	2.43506	0.447208	22.6754	0.863749	43.5697	0.229839	11.6228	0.976162	2.80004	0.725006	37.4059
0.953882	2.43519	0.952873	2.43529	0.448494	21.6474	0.863525	41.4747	0.231126	11.1274	0.974915	2.80448	0.726113	35.6319
0.951547	2.43542	0.950542	2.43553	0.449815	20.7153	0.863292	39.5705	0.232459	10.6795	0.973674	2.80896	0.727251	34.0248
0.949221	2.43568	0.948219	2.43579	0.451171	19.8664	0.863051	37.8322	0.233839	10.2728	0.972439	2.81348	0.728418	32.562
0.946903	2.43595	0.945904	2.43608	0.452558	19.0903	0.862802	36.2391	0.235262	9.90203	0.971209	2.81804	0.729613	31.2251
0.944592	2.43625	0.943597	2.43639	0.453975	18.3779	0.862544	34.7735	0.236728	9.56282	0.969985	2.82265	0.730832	29.9985
0.94229	2.43657	0.941298	2.43672	0.45542	17.7218	0.862279	33.4208	0.238234	9.25143	0.968766	2.8273	0.732076	28.8693
0.939996	2.43692	0.939008	2.43707	0.456891	17.1157	0.862006	32.1684	0.239779	8.96468	0.967553	2.83199	0.733342	27.8263
0.93771	2.43728	0.936726	2.43745	0.458387	16.5541	0.861727	31.0055	0.241361	8.69987	0.966346	2.83672	0.73463	26.86
0.935433	2.43768	0.934452	2.43785	0.459907	16.0323	0.86144	29.9228	0.242979	8.45464	0.965143	2.8415	0.735937	25.9623
0.933164	2.43809	0.932187	2.43828	0.461448	15.5462	0.861147	28.9123	0.244631	8.227	0.963946	2.84632	0.737263	25.1262
0.930903	2.43853	0.92993	2.43873	0.46301	15.0924	0.860848	27.9671	0.246097	8.04158	0.962753	2.85119	0.738607	24.3456
0.928652	2.439	0.927682	2.43921	0.464592	14.6677	0.860543	27.0809	0.247366	7.89223	0.961566	2.8561	0.739967	23.6151
0.926409	2.43949	0.925443	2.43971	0.466192	14.2695	0.860233	26.2484	0.248428	7.77435	0.960383	2.86105	0.741343	22.9302
0.924175	2.44001	0.923213	2.44024	0.467809	13.8954	0.859918	25.4648	0.249276	7.68453	0.959206	2.86604	0.742734	22.2866
0.921949	2.44055	0.920992	2.44079	0.469443	13.5433	0.859597	24.726	0.249903	7.62031	0.958032	2.87108	0.744139	21.6808
0.919733	2.44112	0.918779	2.44137	0.471092	13.2112	0.859273	24.0283	0.250307	7.58	0.956864	2.87617	0.745556	21.1095
0.917526	2.44171	0.916576	2.44198	0.472755	12.8976	0.858944	23.3682	0.250889	7.52308	0.9557	2.88129	0.746987	20.5699
0.915328	2.44234	0.914382	2.44262	0.474432	12.6009	0.858612	22.7429	0.251526	7.46257	0.95454	2.88646	0.748428	20.0594
0.913139	2.44299	0.912197	2.44328	0.476121	12.3199	0.858277	22.1497	0.252397	7.38246	0.953384	2.89168	0.749881	19.5758
0.910959	2.44367	0.910021	2.44397	0.477823	12.0533	0.857938	21.5861	0.253508	7.28459	0.952233	2.89694	0.751344	19.1169
0.908788	2.44438	0.907854	2.44469	0.479535	11.8	0.857597	21.05	0.254865	7.1711	0.951085	2.90224	0.752817	18.6809
0.906627	2.44511	0.905696	2.44544	0.481259	11.5591	0.857254	20.5394	0.256473	7.04432	0.949942	2.90759	0.754299	18.2662
0.904474	2.44588	0.903548	2.44622	0.482992	11.3297	0.856909	20.0526	0.258341	6.90668	0.948803	2.91298	0.755789	17.8713
0.902331	2.44667	0.901409	2.44703	0.484734	11.111	0.856562	19.5879	0.260231	6.77676	0.947667	2.91842	0.757287	17.4947
0.900198	2.4475	0.89928	2.44786	0.486485	10.9022	0.856214	19.1439	0.262143	6.65395	0.946535	2.9239	0.758794	17.1352
0.898074	2.44835	0.897159	2.44873	0.488244	10.7027	0.855866	18.7193	0.264074	6.53769	0.945406	2.92943	0.760307	16.7917
0.895958	2.44924	0.895048	2.44963	0.490011	10.5119	0.855517	18.3127	0.266025	6.42749	0.944281	2.935	0.761827	16.4631
0.893853	2.45015	0.892946	2.45056	0.491784	10.3293	0.855168	17.9231	0.267994	6.3229	0.943159	2.94062	0.763353	16.1485
0.891756	2.4511	0.890854	2.45152	0.493564	10.1542	0.854819	17.5494	0.26998	6.2235	0.94204	2.94628	0.764885	15.847
0.889669	2.45207	0.888771	2.45251	0.49535	9.98633	0.854471	17.1908	0.271981	6.12892	0.940925	2.95199	0.766422	15.5578
0.887591	2.45308	0.886697	2.45353	0.497141	9.82515	0.854124	16.8462	0.273998	6.03883	0.939812	2.95774	0.767964	15.2802
0.885522	2.45412	0.884632	2.45458	0.498938	9.6703	0.853778	16.515	0.276029	5.95292	0.938702	2.96353	0.769511	15.0134
0.883463	2.45519	0.882576	2.45566	0.500739	9.5214	0.853435	16.1963	0.278073	5.87089	0.937595	2.96938	0.771063	14.7569
0.881412	2.45629	0.88053	2.45677	0.502544	9.37811	0.853093	15.8894	0.28013	5.7925	0.93649	2.97526	0.772618	14.5101
0.879371	2.45742	0.878492	2.45792	0.504353	9.24012	0.852754	15.5938	0.282198	5.71751	0.935388	2.98119	0.774177	14.2724
0.877339	2.45859	0.876464	2.4591	0.506166	9.10714	0.852418	15.3088	0.284277	5.6457	0.934287	2.98717	0.775739	14.0433
0.875315	2.45978	0.874445	2.46031	0.507981	8.97889	0.852085	15.0339	0.286366	5.57687	0.93319	2.99319	0.777304	13.8224
0.873301	2.46101	0.872434	2.46155	0.509799	8.85513	0.851755	14.7686	0.288464	5.51084	0.932094	2.99926	0.778871	13.6092
0.871295	2.46227	0.870432	2.46282	0.511619	8.73561	0.85143	14.5123	0.290571	5.44743	0.930999	3.00537	0.780441	13.4034
0.869298	2.46356	0.868439	2.46413	0.513441	8.62012	0.851109	14.2647	0.292685	5.38648	0.929907	3.01153	0.782013	13.2045
0.86731	2.46488	0.866455	2.46546	0.515264	8.50845	0.850792	14.0252	0.294806	5.32786	0.928816	3.01773	0.783587	13.0123
0.865331	2.46624	0.864479	2.46683	0.517088	8.40041	0.850481	13.7936	0.296934	5.27142	0.927726	3.02397	0.785162	12.8263
0.86336	2.46763	0.862511	2.46823	0.518679	8.30909	0.850174	13.5695	0.299067	5.21704	0.926638	3.03026	0.786739	12.6463
0.861397	2.46905	0.860552	2.46967	0.520035	8.23322	0.849874	13.3524	0.301205	5.16461	0.925551	3.0366	0.788316	12.4719
0.859443	2.4705	0.858601	2.47113	0.521156	8.17182	0.84958	13.1421	0.303348	5.11401	0.924464	3.04298	0.789894	12.303
0.857496	2.47198	0.856659	2.47263	0.522043	8.1241	0.849292	12.9383	0.305494	5.06514	0.923378	3.0494	0.791472	12.1393
0.855558	2.47349	0.854724	2.47416	0.522695	8.08946	0.849011	12.7407	0.307643	5.01791	0.922293	3.05587	0.793051	11.9805
0.853628	2.47504	0.852797	2.47572	0.523112	8.06749	0.848737	12.549	0.309795	4.97223	0.921208	3.06238	0.794629	11.8264
0.851705	2.47662	0.850877	2.47731	0.523712	8.03618	0.84847	12.363	0.311949	4.92802	0.920123	3.06893	0.796207	11.6768
0.84979	2.47823	0.848966	2.47893	0.524364	8.00251	0.848211	12.1824	0.314104	4.8852	0.919038	3.07553	0.797784	11.5314
0.847883	2.47987	0.847061	2.48059	0.525251	7.95729	0.847961	12.0071	0.316261	4.8437	0.917952	3.08217	0.79936	11.3902
0.845983	2.48154	0.845164	2.48227	0.526371	7.90103	0.847719	11.8367	0.318417	4.80345	0.916866	3.08886	0.800935	11.253
0.84409	2.48324	0.843275	2.48399	0.527727	7.83436	0.847485	11.6711	0.320573	4.76439	0.91578	3.09558	0.802508	11.1195
0.842204	2.48497	0.841392	2.48573	0.529315	7.75798	0.847261	11.5102	0.322728	4.72645	0.914692	3.10235	0.80408	10.9896
0.840324	2.48674	0.839515	2.48751	0.531137	7.67267	0.847046	11.3536	0.324882	4.68959	0.913604	3.10916	0.80565	10.8632
0.838452	2.48853	0.837645	2.48932	0.532957	7.58976	0.846842	11.2013	0.327034	4.65374	0.912514	3.11602	0.807218	10.7401
0.836586	2.49035	0.835782	2.49115	0.534775	7.50914	0.846647	11.0531	0.329183	4.61887	0.911422	3.12291	0.808783	10.6201
0.834726	2.49221	0.833925	2.49302	0.536591	7.43071	0.846463	10.9089	0.33133	4.58491	0.910329	3.12984	0.810345	10.5033
0.832872	2.49409	0.832074	2.49491	0.538404	7.35438	0.84629	10.7684	0.333473	4.55183	0.909233	3.13682	0.811905	10.3894
0.831024	2.496	0.830228	2.49683	0.540214	7.28005	0.846128	10.6316	0.335613	4.51959	0.908135	3.14384	0.813462	10.2783
0.829182	2.49794	0.828388	2.49879	0.54202	7.20766	0.845977	10.4983	0.337748	4.48814	0.907035	3.15089	0.815015	10.1699
0.827345	2.49991	0.826553	2.50077	0.543824	7.13711	0.845838	10.3685	0.339878	4.45745	0.905931	3.15798	0.816564	10.0642
0.825513	2.5019	0.824724	2.50277	0.545623	7.06833	0.845712	10.2419	0.342003	4.42748	0.904825	3.16512	0.81811	9.96096
0.823686	2.50392	0.822899	2.5048	0.547419	7.00125	0.845597	10.1184	0.344122	4.3982	0.903715	3.17229	0.819651	9.86015
0.821864	2.50597	0.821078	2.50686	0.54921	6.9358	0.845496	9.99805	0.346234	4.36958	0.902601	3.17949	0.821189	9.76168
0.820046	2.50805	0.819262	2.50895	0.550996	6.87192	0.845408	9.88064	0.34834	4.34158	0.901484	3.18674	0.822721	9.66546
0.818232	2.51014	0.81745	2.51106	0.552777	6.80955	0.845333	9.76607	0.350439	4.31418	0.900362	3.19402	0.824249	9.57141
0.816422	2.51227	0.815642	2.51319	0.554553	6.74862	0.845272	9.65428	0.35253	4.28736	0.899236	3.20133	0.825772	9.47945
0.814616	2.51442	0.813837	2.51535	0.556324	6.68909	0.845225	9.54515	0.354613	4.26107	0.898104	3.20868	0.82729	9.38952
0.812812	2.51659	0.812035	2.51753	0.558089	6.6309	0.845192	9.43861	0.356688	4.23531	0.896968	3.21607	0.828802	9.30153
0.811012	2.51878	0.810236	2.51973	0.559848	6.574	0.845174	9.33458	0.358753	4.21005	0.895826	3.22349	0.830308	9.21542
0.809214	2.521	0.808439	2.52196	0.5616	6.51834	0.845171	9.23298	0.36081	4.18526	0.894678	3.23094	0.831809	9.13113
0.807418	2.52323	0.806644	2.5242	0.563346	6.46387	0.845183	9.13373	0.362856	4.16092	0.893524	3.23842	0.833303	9.0486
0.805625	2.52549	0.804851	2.52647	0.565085	6.41056	0.845211	9.03676	0.364892	4.13702	0.892364	3.24593	0.834791	8.96777
0.803832	2.52776	0.803059	2.52875	0.566816	6.35836	0.845254	8.942	0.366918	4.11353	0.891197	3.25347	0.836272	8.88857
0.802041	2.53005	0.801268	2.53105	0.56854	6.30723	0.845305	8.86117	0.368932	4.09044	0.890023	3.26104	0.837557	8.82086
0.800251	2.53236	0.799478	2.53336	0.570257	6.25714	0.845359	8.79353	0.370935	4.06773	0.888841	3.26864	0.838649	8.76406
0.79846	2.53468	0.797688	2.53569	0.571966	6.20804	0.845409	8.73844	0.372927	4.04538	0.887652	3.27627	0.839548	8.71772
0.79667	2.53702	0.795897	2.53804	0.573666	6.1599	0.845454	8.69542	0.374906	4.02338	0.886454	3.28392	0.840258	8.68148
0.794879	2.53937	0.794106	2.54039	0.575358	6.1127	0.84549	8.66409	0.376872	4.00171	0.885248	3.2916	0.840778	8.65504
0.793087	2.54174	0.792313	2.54276	0.577041	6.06638	0.845514	8.64417	0.378826	3.98035	0.884033	3.2993	0.841111	8.63822
0.791294	2.54411	0.790519	2.54514	0.578716	6.02094	0.845549	8.61571	0.380766	3.9593	0.882809	3.30702	0.841588	8.61417
0.789498	2.54649	0.788722	2.54752	0.580381	5.97633	0.845591	8.58501	0.382692	3.93855	0.881575	3.31477	0.842106	8.58821
0.7877	2.54888	0.786923	2.54991	0.582036	5.93253	0.84565	8.54365	0.384605	3.91807	0.880331	3.32253	0.842809	8.55318
0.785899	2.55128	0.785121	2.55231	0.583682	5.88952	0.845731	8.49197	0.386503	3.89786	0.879077	3.33032	0.843696	8.50933
0.784095	2.55368	0.783315	2.55471	0.585318	5.84726	0.845838	8.43041	0.388387	3.8779	0.877812	3.33812	0.844763	8.45699
0.782286	2.55608	0.781504	2.55711	0.586944	5.80573	0.845975	8.35947	0.390256	3.85819	0.876536	3.34595	0.84601	8.39652
0.780473	2.55848	0.779689	2.55952	0.588559	5.76492	0.84615	8.2797	0.39211	3.83872	0.875249	3.35378	0.847434	8.32832
0.778655	2.56088	0.777868	2.56192	0.590164	5.72478	0.846343	8.20166	0.393949	3.81947	0.87395	3.36164	0.848849	8.26135
0.776831	2.56328	0.776042	2.56431	0.591758	5.68531	0.846555	8.12528	0.395771	3.80045	0.872639	3.3695	0.850255	8.19559
0.775001	2.56567	0.774209	2.5667	0.593341	5.64649	0.846785	8.05053	0.397578	3.78163	0.871315	3.37738	0.851652	8.131
0.773164	2.56806	0.772368	2.56908	0.594912	5.60829	0.847034	7.97735	0.399369	3.76301	0.869979	3.38527	0.853041	8.06754
0.771319	2.57043	0.770521	2.57146	0.596473	5.57069	0.847302	7.90572	0.401144	3.74459	0.868629	3.39317	0.85442	8.00518
0.769467	2.5728	0.768665	2.57382	0.598021	5.53367	0.847589	7.83558	0.402902	3.72635	0.867266	3.40108	0.85579	7.94388
0.767606	2.57516	0.7668	2.57617	0.599558	5.49723	0.847896	7.7669	0.404643	3.7083	0.86589	3.409	0.857151	7.88362
0.765736	2.57749	0.764926	2.5785	0.601082	5.46133	0.848223	7.69965	0.406368	3.69042	0.864499	3.41692	0.858501	7.82437
0.763856	2.57982	0.763042	2.58081	0.602595	5.42597	0.84857	7.63378	0.408076	3.67271	0.863094	3.42485	0.859842	7.76609
0.761967	2.58212	0.761147	2.58311	0.604095	5.39113	0.848937	7.56925	0.409767	3.65516	0.861674	3.43278	0.861173	7.70876
0.760066	2.5844	0.759242	2.58538	0.605582	5.35679	0.849324	7.50605	0.411441	3.63777	0.860239	3.44072	0.862494	7.65235
0.758154	2.58666	0.757326	2.58763	0.607057	5.32293	0.849732	7.44412	0.413097	3.62054	0.858788	3.44866	0.863804	7.59685
0.756231	2.5889	0.755397	2.58986	0.608519	5.28956	0.85016	7.38345	0.414737	3.60345	0.857323	3.4566	0.865104	7.54221
0.754296	2.59111	0.753456	2.59205	0.609968	5.25664	0.850609	7.324	0.41636	3.58651	0.855841	3.46454	0.866393	7.48843
0.752347	2.59329	0.751502	2.59422	0.611404	5.22417	0.851079	7.26573	0.417965	3.56972	0.854344	3.47247	0.867672	7.43547
0.750386	2.59544	0.749536	2.59636	0.612827	5.19214	0.85157	7.20863	0.419554	3.55306	0.85283	3.48041	0.86894	7.38331
0.748412	2.59756	0.747555	2.59847	0.614236	5.16053	0.852082	7.15266	0.421125	3.53654	0.8513	3.48835	0.870197	7.33194
0.746424	2.59965	0.745561	2.60054	0.615632	5.12934	0.852616	7.09779	0.42268	3.52015	0.849754	3.49628	0.871443	7.28133
0.744422	2.6017	0.743553	2.60257	0.617015	5.09855	0.853171	7.044	0.424218	3.50389	0.84819	3.50421	0.872677	7.23147
0.742406	2.60372	0.741531	2.60458	0.618384	5.06815	0.853747	6.99127	0.425739	3.48776	0.84661	3.51213	0.873901	7.18233
0.740375	2.6057	0.739494	2.60654	0.619739	5.03813	0.854345	6.93956	0.427243	3.47176	0.845013	3.52005	0.875114	7.13389
0.73833	2.60764	0.737443	2.60847	0.62108	5.00848	0.854964	6.88886	0.428731	3.45588	0.843398	3.52796	0.876315	7.08615
0.73627	2.60954	0.735376	2.61036	0.622408	4.97919	0.855605	6.83914	0.430204	3.44013	0.841767	3.53587	0.877504	7.03908
0.734195	2.61141	0.733295	2.6122	0.623722	4.95026	0.856267	6.79037	0.43166	3.42449	0.840118	3.54377	0.878683	6.99266
0.732106	2.61324	0.731199	2.61401	0.625023	4.92167	0.856952	6.74254	0.4331	3.40899	0.838452	3.55167	0.87985	6.94688
0.730002	2.61502	0.729089	2.61578	0.626309	4.89342	0.857657	6.69562	0.434525	3.3936	0.836769	3.55955	0.881005	6.90173
0.727883	2.61677	0.726963	2.61751	0.627581	4.8655	0.858385	6.64959	0.435935	3.37833	0.835068	3.56743	0.882149	6.85718
0.725749	2.61847	0.724823	2.6192	0.62884	4.8379	0.859134	6.60444	0.43733	3.36318	0.83335	3.57531	0.883281	6.81324
0.723601	2.62014	0.722669	2.62084	0.630085	4.81062	0.859905	6.56013	0.438711	3.34815	0.831615	3.58318	0.884403	6.76987
0.721438	2.62176	0.7205	2.62245	0.631316	4.78364	0.860697	6.51666	0.440077	3.33324	0.829863	3.59104	0.885512	6.72708
0.719261	2.62335	0.718317	2.62402	0.632534	4.75697	0.861511	6.474	0.441429	3.31845	0.828094	3.59889	0.886611	6.68484
0.71707	2.62489	0.71612	2.62555	0.633738	4.73059	0.862346	6.43213	0.442768	3.30378	0.826308	3.60674	0.887697	6.64315
0.714865	2.6264	0.713909	2.62703	0.634928	4.70449	0.863203	6.39104	0.444094	3.28922	0.824505	3.61459	0.888773	6.60199
0.712647	2.62786	0.711685	2.62848	0.636105	4.67868	0.864081	6.35071	0.445407	3.27479	0.822685	3.62243	0.889838	6.56135
0.710416	2.62929	0.709448	2.6299	0.637268	4.65315	0.86498	6.31112	0.446708	3.26048	0.820849	3.63027	0.890891	6.52122
0.708171	2.63068	0.707198	2.63127	0.638419	4.62789	0.8659	6.27225	0.447997	3.24628	0.818997	3.6381	0.891933	6.48159
0.705914	2.63204	0.704936	2.63261	0.639555	4.6029	0.86684	6.23408	0.449274	3.23221	0.817129	3.64593	0.892965	6.44246
0.703645	2.63336	0.702661	2.63391	0.640679	4.57817	0.867802	6.19661	0.45054	3.21826	0.815245	3.65376	0.893985	6.4038
0.701363	2.63464	0.700375	2.63518	0.64179	4.5537	0.868784	6.15981	0.451795	3.20443	0.813345	3.6616	0.894995	6.36562
0.699071	2.63589	0.698077	2.63642	0.642889	4.52948	0.869786	6.12368	0.45304	3.19072	0.81143	3.66943	0.895995	6.3279
0.696766	2.6371	0.695768	2.63762	0.643974	4.50551	0.870809	6.08818	0.454276	3.17713	0.8095	3.67726	0.896983	6.29064
0.694451	2.63829	0.693448	2.63879	0.645047	4.48179	0.871852	6.05332	0.455502	3.16367	0.807556	3.6851	0.897962	6.25382
0.692126	2.63944	0.691118	2.63993	0.646108	4.45831	0.872914	6.01907	0.456719	3.15032	0.805597	3.69295	0.898931	6.21743
0.68979	2.64056	0.688778	2.64104	0.647157	4.43506	0.873996	5.98542	0.457927	3.13711	0.803624	3.7008	0.89989	6.18148
0.687444	2.64165	0.686428	2.64212	0.648194	4.41205	0.875097	5.95237	0.459128	3.12402	0.801637	3.70867	0.900839	6.14595
0.685089	2.64272	0.684069	2.64317	0.649219	4.38927	0.876218	5.91988	0.460321	3.11105	0.799637	3.71654	0.901779	6.11084
0.682724	2.64375	0.681701	2.64419	0.650233	4.36672	0.877357	5.88796	0.461507	3.09821	0.797624	3.72442	0.902709	6.07613
0.680351	2.64476	0.679323	2.64519	0.651235	4.34439	0.878515	5.85658	0.462686	3.0855	0.795599	3.73232	0.903631	6.04183
0.677969	2.64575	0.676938	2.64617	0.652226	4.32229	0.879691	5.82574	0.46386	3.07291	0.793561	3.74024	0.904544	6.00792
0.675579	2.64671	0.674545	2.64712	0.653207	4.3004	0.880886	5.79542	0.465027	3.06045	0.791511	3.74818	0.905448	5.97441
0.673181	2.64765	0.672143	2.64804	0.654177	4.27873	0.882098	5.76561	0.466189	3.04812	0.78945	3.75613	0.906344	5.94127
0.670775	2.64856	0.669734	2.64895	0.655137	4.25727	0.883327	5.7363	0.467346	3.03591	0.787378	3.76411	0.907232	5.90852
0.668362	2.64945	0.667319	2.64983	0.656087	4.23603	0.884574	5.70748	0.468499	3.02384	0.785296	3.77212	0.908113	5.87613
0.665942	2.65032	0.664896	2.65069	0.657027	4.21499	0.885837	5.67914	0.469648	3.01189	0.783203	3.78015	0.908986	5.84412
0.663516	2.65118	0.662466	2.65154	0.657957	4.19416	0.887117	5.65126	0.470794	3.00007	0.781101	3.78822	0.909852	5.81246
0.661083	2.65201	0.66003	2.65236	0.658878	4.17353	0.888414	5.62383	0.471936	2.98839	0.778989	3.79631	0.910711	5.78117
0.658643	2.65282	0.657588	2.65317	0.65979	4.15311	0.889726	5.59685	0.473076	2.97683	0.776869	3.80445	0.911564	5.75022
0.656198	2.65362	0.655141	2.65396	0.660694	4.13288	0.891053	5.5703	0.474213	2.9654	0.77474	3.81262	0.91241	5.71962
0.653747	2.6544	0.652687	2.65473	0.661589	4.11286	0.892396	5.54417	0.475348	2.9541	0.772603	3.82083	0.913251	5.68937
0.651291	2.65516	0.650229	2.65549	0.662476	4.09303	0.893754	5.51846	0.476482	2.94293	0.770459	3.82909	0.914086	5.65946
0.648829	2.65591	0.647765	2.65623	0.663355	4.07339	0.895126	5.49315	0.477615	2.93189	0.768308	3.83739	0.914916	5.62988
0.646362	2.65665	0.645296	2.65696	0.664226	4.05395	0.896513	5.46824	0.478747	2.92098	0.76615	3.84575	0.915741	5.60063
0.643891	2.65737	0.642822	2.65767	0.665091	4.0347	0.897913	5.44371	0.479879	2.9102	0.763986	3.85415	0.916562	5.57171
0.641415	2.65807	0.640344	2.65838	0.665948	4.01563	0.899327	5.41955	0.48101	2.89955	0.761817	3.86262	0.917379	5.54311
0.638934	2.65877	0.637862	2.65907	0.666799	3.99676	0.900753	5.39576	0.482142	2.88903	0.759642	3.87114	0.918192	5.51484
0.636449	2.65945	0.635375	2.65974	0.667643	3.97807	0.902193	5.37233	0.483275	2.87863	0.757463	3.87973	0.919002	5.48688
0.633961	2.66012	0.632885	2.66041	0.668481	3.95956	0.903645	5.34925	0.484409	2.86837	0.755279	3.88838	0.919809	5.45923
0.631468	2.66078	0.63039	2.66107	0.669313	3.94124	0.905108	5.32651	0.485545	2.85824	0.753092	3.89711	0.920613	5.43189
0.628971	2.66143	0.627892	2.66171	0.67014	3.9231	0.906584	5.3041	0.486682	2.84823	0.750902	3.9059	0.921415	5.40486
0.626471	2.66208	0.625391	2.66235	0.670962	3.90514	0.90807	5.28202	0.487821	2.83835	0.748708	3.91478	0.922216	5.37814
0.623968	2.66271	0.622886	2.66298	0.671778	3.88736	0.909568	5.26025	0.488963	2.8286	0.746513	3.92373	0.923015	5.35171
0.621461	2.66333	0.620378	2.6636	0.67259	3.86975	0.911076	5.2388	0.490107	2.81898	0.744315	3.93277	0.923814	5.32559
0.618951	2.66395	0.617867	2.66421	0.673398	3.85233	0.912594	5.21764	0.491254	2.80948	0.742116	3.9419	0.924611	5.29975
0.616439	2.66455	0.615353	2.66481	0.674202	3.83507	0.914121	5.19678	0.492405	2.80011	0.739917	3.95112	0.925409	5.27422
0.613923	2.66515	0.612836	2.66541	0.675002	3.81799	0.915658	5.17621	0.493559	2.79087	0.737717	3.96043	0.926207	5.24897
0.611405	2.66575	0.610317	2.666	0.675798	3.80108	0.917204	5.15592	0.494717	2.78175	0.735516	3.96985	0.927006	5.22401
0.608884	2.66634	0.607795	2.66659	0.676592	3.78434	0.918759	5.1359	0.495879	2.77276	0.733317	3.97937	0.927806	5.19933
0.60636	2.66692	0.60527	2.66717	0.677382	3.76777	0.920322	5.11615	0.497046	2.76389	0.731119	3.989	0.928608	5.17494
0.603835	2.66749	0.602743	2.66774	0.67817	3.75138	0.921892	5.09666	0.498217	2.75514	0.728922	3.99874	0.929412	5.15083
0.601306	2.66807	0.600214	2.66831	0.678956	3.73514	0.92347	5.07743	0.499394	2.74652	0.726727	4.00861	0.930218	5.127
0.598776	2.66863	0.597683	2.66888	0.67974	3.71907	0.925055	5.05844	0.500575	2.73802	0.724534	4.01859	0.931028	5.10344
0.596244	2.6692	0.59515	2.66944	0.680522	3.70317	0.926647	5.0397	0.501762	2.72964	0.722345	4.0287	0.93184	5.08016
0.59371	2.66976	0.592615	2.67	0.681302	3.68743	0.928245	5.02119	0.502955	2.72138	0.720159	4.03895	0.932657	5.05715
0.591174	2.67031	0.590079	2.67055	0.682081	3.67186	0.929849	5.00291	0.504154	2.71325	0.717977	4.04933	0.933478	5.03442
0.588636	2.67087	0.58754	2.6711	0.68286	3.65644	0.931459	4.98486	0.505359	2.70523	0.7158	4.05986	0.934304	5.01195
0.586097	2.67142	0.585	2.67165	0.683637	3.64118	0.933073	4.96702	0.50657	2.69733	0.713627	4.07053	0.935135	4.98975
0.583556	2.67197	0.582459	2.6722	0.684415	3.62609	0.934693	4.9494	0.507788	2.68955	0.71146	4.08136	0.935972	4.96781
0.581014	2.67251	0.579916	2.67275	0.685192	3.61115	0.936317	4.93199	0.509013	2.68189	0.709299	4.09235	0.936815	4.94614
0.57847	2.67306	0.577371	2.67329	0.685969	3.59637	0.937945	4.91478	0.510246	2.67435	0.707145	4.1035	0.937665	4.92472
0.575925	2.6736	0.574825	2.67384	0.686746	3.58174	0.939577	4.89777	0.511485	2.66693	0.704997	4.11482	0.938522	4.90357
0.573378	2.67415	0.572279	2.67438	0.687525	3.56727	0.941212	4.88095	0.512733	2.65962	0.702857	4.12632	0.939386	4.88268
0.570831	2.67469	0.569731	2.67493	0.688304	3.55295	0.942851	4.86432	0.513988	2.65243	0.700726	4.138	0.940259	4.86204
0.568282	2.67523	0.567182	2.67547	0.689084	3.53878	0.944492	4.84787	0.515252	2.64535	0.698602	4.14987	0.94114	4.84166
0.565733	2.67578	0.564632	2.67601	0.689865	3.52477	0.946135	4.83161	0.516524	2.63839	0.696488	4.16193	0.94203	4.82154
0.563182	2.67632	0.562081	2.67656	0.690649	3.5109	0.94778	4.81552	0.517805	2.63155	0.694383	4.1742	0.942929	4.80166
0.560631	2.67687	0.559529	2.6771	0.691433	3.49718	0.949427	4.79959	0.519095	2.62481	0.692289	4.18668	0.943839	4.78204
0.558079	2.67742	0.556977	2.67765	0.692221	3.48361	0.951075	4.78384	0.520394	2.6182	0.690205	4.19937	0.944759	4.76267
0.555526	2.67796	0.554423	2.6782	0.69301	3.47019	0.952724	4.76824	0.521703	2.61169	0.688132	4.21228	0.94569	4.74354
0.552972	2.67852	0.55187	2.67875	0.693802	3.45692	0.954373	4.75281	0.523021	2.60531	0.686072	4.22543	0.946633	4.72467
0.550418	2.67907	0.549315	2.67931	0.694596	3.44378	0.956023	4.73752	0.52435	2.59903	0.684023	4.23882	0.947587	4.70603
0.547863	2.67963	0.546761	2.67987	0.695394	3.4308	0.957672	4.72239	0.52569	2.59287	0.681987	4.25245	0.948554	4.68765
0.545308	2.68019	0.544205	2.68043	0.696195	3.41795	0.959322	4.7074	0.527041	2.58682	0.679965	4.26634	0.949533	4.6695
0.542753	2.68075	0.54165	2.68099	0.696999	3.40525	0.96097	4.69255	0.528403	2.58089	0.677957	4.28049	0.950526	4.6516
0.540197	2.68132	0.539094	2.68156	0.697807	3.39269	0.962617	4.67785	0.529777	2.57507	0.675963	4.29491	0.951533	4.63394
0.537641	2.68189	0.536538	2.68214	0.698618	3.38026	0.964263	4.66327	0.531163	2.56937	0.673985	4.30961	0.952553	4.61652
0.535085	2.68247	0.533982	2.68272	0.699434	3.36798	0.965907	4.64883	0.532562	2.56379	0.672022	4.3246	0.953589	4.59934
0.532529	2.68305	0.531426	2.6833	0.700254	3.35583	0.96755	4.63452	0.533975	2.55832	0.670075	4.33989	0.95464	4.58239
0.529973	2.68364	0.528869	2.68389	0.701078	3.34382	0.969189	4.62033	0.535401	2.55297	0.668145	4.35549	0.955706	4.56568
0.527417	2.68423	0.526313	2.68449	0.701907	3.33195	0.970827	4.60626	0.536843	2.54775	0.666232	4.3714	0.956789	4.54921
0.524861	2.68483	0.523757	2.68509	0.702741	3.32021	0.972461	4.59231	0.538299	2.54264	0.664338	4.38765	0.957888	4.53296
0.522305	2.68544	0.521201	2.68571	0.70358	3.3086	0.974092	4.57848	0.539772	2.53766	0.662461	4.40423	0.959004	4.51695
0.519749	2.68606	0.518646	2.68632	0.704425	3.29713	0.975719	4.56476	0.541262	2.53281	0.660604	4.42116	0.960137	4.50118
0.517194	2.68668	0.516091	2.68695	0.705275	3.28579	0.977342	4.55115	0.542771	2.52808	0.658767	4.43845	0.961288	4.48563
0.514639	2.68731	0.513536	2.68759	0.70613	3.27458	0.978962	4.53764	0.544298	2.52349	0.65695	4.45611	0.962457	4.47031
0.512084	2.68795	0.510981	2.68823	0.706991	3.2635	0.980577	4.52424	0.545846	2.51903	0.655153	4.47415	0.963645	4.45521
0.50953	2.6886	0.508428	2.68889	0.707859	3.25255	0.982187	4.51094	0.547416	2.51472	0.653378	4.49259	0.964852	4.44034
0.506977	2.68926	0.505875	2.68955	0.708732	3.24173	0.983792	4.49774	0.54901	2.51055	0.651625	4.51143	0.966078	4.4257
0.504424	2.68993	0.503322	2.69023	0.709612	3.23103	0.985392	4.48463	0.550628	2.50653	0.649894	4.53069	0.967323	4.41128
0.501872	2.69062	0.50077	2.69091	0.710499	3.22046	0.986987	4.47162	0.552272	2.50267	0.648187	4.55038	0.968589	4.39708
0.499321	2.69131	0.49822	2.69161	0.711393	3.21002	0.988576	4.4587	0.553945	2.49898	0.646503	4.57052	0.969875	4.3831
0.496771	2.69202	0.49567	2.69233	0.712293	3.19971	0.990158	4.44586	0.555649	2.49545	0.644843	4.59111	0.971182	4.36934
0.494221	2.69274	0.493121	2.69305	0.713201	3.18951	0.991735	4.43312	0.557385	2.4921	0.643207	4.61217	0.97251	4.35579
0.491673	2.69347	0.490574	2.69379	0.714117	3.17944	0.993305	4.42045	0.559156	2.48893	0.641597	4.63372	0.973859	4.34246
0.489126	2.69422	0.488027	2.69455	0.71504	3.1695	0.994868	4.40787	0.560963	2.48596	0.640013	4.65577	0.97523	4.32935
0.486581	2.69498	0.485482	2.69532	0.71597	3.15967	0.996425	4.39537	0.56281	2.48318	0.638454	4.67833	0.976622	4.31644
0.484037	2.69576	0.482939	2.6961	0.716909	3.14997	0.997974	4.38295	0.564697	2.4806	0.636923	4.70142	0.978036	4.30375
0.481494	2.69656	0.480397	2.69691	0.717856	3.14039	0.999516	4.3706	0.566627	2.47824	0.635418	4.72505	0.979473	4.29126
0.478953	2.69737	0.477856	2.69773	0.718812	3.13093	1.00105	4.35833	0.568601	2.47609	0.633941	4.74925	0.980932	4.27898
0.476413	2.69821	0.475317	2.69857	0.719775	3.12158			0.570621	2.47415	0.632493	4.77402	0.982413	4.2669
0.473876	2.69906	0.472781	2.69944	0.720748	3.11236			0.572685	2.47242	0.631073	4.79938	0.983918	4.25503
0.47134	2.69994	0.470246	2.70032	0.72173	3.10325			0.574796	2.47091	0.629681	4.82535	0.985445	4.24336
0.468806	2.70083	0.467713	2.70123	0.722721	3.09426			0.576951	2.4696	0.628319	4.85195	0.986995	4.23188
0.466275	2.70175	0.465182	2.70215	0.723722	3.08539			0.579151	2.46849	0.626987	4.87919	0.988567	4.2206
0.463745	2.70269	0.462654	2.70311	0.724732	3.07663			0.581393	2.46757	0.625685	4.90709	0.990163	4.20951
0.461219	2.70366	0.460129	2.70409	0.725753	3.06799			0.583675	2.46683	0.624414	4.93567	0.991782	4.19862
0.458695	2.70466	0.457606	2.7051	0.726783	3.05946			0.585996	2.46626	0.623173	4.96496	0.993424	4.18791
0.456173	2.70568	0.455086	2.70613	0.727824	3.05105			0.588353	2.46584	0.621963	4.99496	0.995089	4.17739
0.453655	2.70673	0.452568	2.7072	0.728875	3.04275			0.590742	2.46556	0.620785	5.02569	0.996777	4.16705
0.451139	2.70782	0.450054	2.7083	0.729937	3.03457			0.593163	2.46542	0.619638	5.05719	0.998488	4.15689
0.448627	2.70893	0.447544	2.70943	0.73101	3.0265			0.595612	2.46539	0.618524	5.08946	1.00022	4.14692
0.446119	2.71009	0.445037	2.71059	0.732095	3.01854			0.598086	2.46547	0.617441	5.12254		
0.443614	2.71127	0.442534	2.7118	0.733191	3.0107			0.600584	2.46564	0.616391	5.15643		
0.441113	2.7125	0.440034	2.71304	0.734299	3.00296			0.603103	2.4659	0.615373	5.19117		
0.438616	2.71377	0.437539	2.71433	0.735419	2.99534			0.60564	2.46623	0.614387	5.22678		
0.436123	2.71508	0.435049	2.71566	0.736551	2.98783			0.608195	2.46663	0.613435	5.26327		
0.433635	2.71643	0.432563	2.71703	0.737696	2.98044			0.610766	2.46709	0.612515	5.30068		
0.431152	2.71784	0.430082	2.71846	0.738854	2.97315			0.613351	2.4676	0.611628	5.33902		
0.428674	2.71929	0.427606	2.71993	0.740025	2.96598			0.615948	2.46816	0.610774	5.37833		
0.426202	2.72079	0.425136	2.72146	0.74121	2.95891			0.618556	2.46876	0.609953	5.41863		
0.423735	2.72236	0.422672	2.72305	0.742408	2.95196			0.621175	2.46939	0.609165	5.45994		
0.421274	2.72398	0.420214	2.7247	0.743621	2.94512			0.623804	2.47006	0.60841	5.50229		
0.41882	2.72566	0.417762	2.72641	0.744848	2.93839			0.62644	2.47076	0.607688	5.54571		
0.416372	2.72741	0.415318	2.72819	0.74609	2.93177			0.629084	2.47148	0.606998	5.59023		
0.413932	2.72924	0.412881	2.73005	0.747348	2.92526			0.631736	2.47222	0.606342	5.63589		
0.4115	2.73113	0.410452	2.73198	0.74862	2.91886			0.634393	2.47298	0.605718	5.6827		
0.409075	2.73311	0.408031	2.73399	0.749909	2.91257			0.637056	2.47376	0.605126	5.7307		
0.40666	2.73517	0.405619	2.73609	0.751214	2.9064			0.639725	2.47455	0.604567	5.77992		
0.404253	2.73732	0.403217	2.73828	0.752535	2.90033			0.642398	2.47535	0.60404	5.8304		
0.401856	2.73957	0.400824	2.74057	0.753873	2.89438			0.645075	2.47617	0.603545	5.88218		
0.399469	2.74192	0.398442	2.74296	0.755229	2.88854			0.647757	2.47699	0.603082	5.93528		
0.397094	2.74437	0.396071	2.74547	0.756602	2.88281			0.650442	2.47782	0.602651	5.98975		
0.394729	2.74694	0.393712	2.74809	0.757994	2.87719			0.65313	2.47865	0.602251	6.04562		
0.392377	2.74963	0.391366	2.75083	0.759403	2.87169			0.655821	2.4795	0.601882	6.10294		
0.390038	2.75245	0.389033	2.75371	0.760832	2.86629			0.658515	2.48034	0.601544	6.16174		
0.387713	2.75541	0.386714	2.75673	0.76228	2.86101			0.661212	2.48119	0.601236	6.22207		
0.385402	2.75852	0.38441	2.7599	0.763748	2.85584			0.663911	2.48204	0.600959	6.28397		
0.383107	2.76178	0.382121	2.76324	0.765235	2.85079			0.666612	2.48289	0.600712	6.3475		
0.380829	2.76521	0.37985	2.76674	0.766743	2.84585			0.669315	2.48375	0.600494	6.41269		
0.378567	2.76881	0.377597	2.77043	0.768272	2.84102			0.67202	2.4846	0.600306	6.4796		
0.376325	2.77261	0.375363	2.77431	0.769822	2.8363			0.674726	2.48545	0.600147	6.54829		
0.374102	2.77661	0.373148	2.7784	0.771392	2.8317			0.677434	2.48631	0.600017	6.6188		
0.3719	2.78082	0.370956	2.78271	0.772985	2.82721			0.680144	2.48716	0.599916	6.6912		
0.369719	2.78526	0.368785	2.78725	0.7746	2.82283			0.682854	2.48801	0.599842	6.76553		
0.367562	2.78994	0.366639	2.79205	0.776236	2.81856			0.685566	2.48886	0.599796	6.84188		
0.36543	2.79489	0.364517	2.79711	0.777896	2.81441			0.688279	2.4897	0.599778	6.92029		
0.363323	2.80011	0.362422	2.80245	0.779578	2.81037			0.690993	2.49055	0.599786	7.00085		
0.361244	2.80562	0.360356	2.8081	0.781282	2.80644			0.693707	2.49139	0.599821	7.08361		
0.359194	2.81145	0.358318	2.81406	0.78301	2.80261			0.696423	2.49222	0.599883	7.16866		
0.357174	2.8176	0.356311	2.82036	0.78476	2.7989			0.699139	2.49306	0.59997	7.25607		
0.355185	2.8241	0.354337	2.82702	0.786534	2.7953			0.701856	2.49389	0.600083	7.34593		
0.35323	2.83098	0.352397	2.83407	0.788331	2.7918			0.704573	2.49471	0.600222	7.43832		
0.35131	2.83824	0.350492	2.84151	0.790151	2.78841			0.707291	2.49554	0.600385	7.53332		
0.349426	2.84592	0.348624	2.84937	0.791993	2.78512			0.71001	2.49636	0.600572	7.63105		
0.347579	2.85404	0.346794	2.85768	0.793859	2.78194			0.712729	2.49717	0.600784	7.73159		
0.345772	2.86261	0.345004	2.86645	0.795748	2.77886			0.715448	2.49798	0.601019	7.83504		
0.344005	2.87166	0.343255	2.87572	0.797659	2.77588			0.718168	2.49879	0.601244	7.92767		
0.342279	2.88121	0.341548	2.8855	0.799592	2.77299			0.720888	2.49959	0.601449	8.0085		
0.340597	2.89129	0.339884	2.89581	0.801548	2.77021			0.723608	2.50039	0.601627	8.07668		
0.338959	2.90192	0.338265	2.90668	0.803525	2.76751			0.726328	2.50118	0.601775	8.13147		
0.337365	2.91312	0.336691	2.91813	0.805523	2.76491			0.729049	2.50196	0.601887	8.17227		
0.335818	2.92491	0.335164	2.93019	0.807543	2.7624			0.73177	2.50275	0.601992	8.21018		
0.334317	2.93732	0.333683	2.94287	0.809583	2.75997			0.73449	2.50352	0.602067	8.23677		
0.332863	2.95036	0.33225	2.9562	0.811643	2.75763			0.737211	2.5043	0.602186	8.27869		
0.331457	2.96407	0.330865	2.97019	0.813723	2.75538			0.739932	2.50506	0.602352	8.33642		
0.330099	2.97845	0.329527	2.98488	0.815822	2.7532			0.742653	2.50582	0.60257	8.41065		
0.328789	2.99354	0.328238	3.00027	0.81794	2.7511			0.745374	2.50658	0.602844	8.50228		
0.327527	3.00934	0.326998	3.01639	0.820076	2.74907			0.748095	2.50733	0.60318	8.61245		
0.326314	3.02588	0.325805	3.03326	0.822229	2.74712			0.750815	2.50808	0.603585	8.74257		
0.325149	3.04319	0.324661	3.0509	0.8244	2.74524			0.753536	2.50882	0.604011	8.8768		
0.324031	3.06127	0.323564	3.06932	0.826587	2.74342			0.756256	2.50955	0.604456	9.01532		
0.322961	3.08014	0.322514	3.08854	0.82879	2.74167			0.758977	2.51028	0.604922	9.15831		
0.321939	3.09983	0.321511	3.10859	0.831009	2.73998			0.761697	2.51101	0.605406	9.30598		
0.320962	3.12036	0.320555	3.12948	0.833243	2.73835			0.764417	2.51173	0.60591	9.45853		
0.320032	3.14173	0.319644	3.15123	0.835491	2.73678			0.767136	2.51244	0.606432	9.6162		
0.319147	3.16398	0.318779	3.17386	0.837753	2.73527			0.769856	2.51315	0.606972	9.77921		
0.318307	3.18713	0.317958	3.1974	0.840028	2.73381			0.772575	2.51385	0.60753	9.94784		
0.317511	3.21118	0.31718	3.22185	0.842316	2.73239			0.775294	2.51455	0.608105	10.1223		
0.316758	3.23617	0.316446	3.24725	0.844616	2.73103			0.778012	2.51524	0.608697	10.303		
0.316048	3.26211	0.315754	3.27361	0.846928	2.72972			0.78073	2.51593	0.609306	10.4902		
0.31538	3.28902	0.315104	3.30095	0.849252	2.72845			0.783448	2.51661	0.609931	10.6841		
0.314753	3.31694	0.314495	3.32931	0.851586	2.72722			0.786166	2.51728	0.610571	10.8853		
0.314167	3.34589	0.313926	3.3587	0.853931	2.72603			0.788883	2.51795	0.611227	11.094		
0.313621	3.37588	0.313397	3.38916	0.856286	2.72489			0.791599	2.51862	0.611898	11.3106		
0.313114	3.40695	0.312907	3.4207	0.858651	2.72378			0.794315	2.51928	0.612584	11.5357		
0.312646	3.43913	0.312455	3.45337	0.861024	2.72271			0.797031	2.51993	0.613283	11.7696		
0.312215	3.47244	0.312041	3.48718	0.863407	2.72167			0.799746	2.52057	0.613996	12.0129		
0.311822	3.50691	0.311664	3.52217	0.865798	2.72066			0.802461	2.52122	0.614723	12.2662		
0.311466	3.54259	0.311323	3.55837	0.868197	2.71969			0.805175	2.52185	0.615462	12.5299		
0.311146	3.5795	0.311018	3.59582	0.870603	2.71875			0.807889	2.52248	0.616213	12.8049		
0.310861	3.61767	0.310749	3.63456	0.873017	2.71783			0.810602	2.52311	0.616976	13.0917		
0.310611	3.65716	0.310514	3.67462	0.875438	2.71694			0.813314	2.52372	0.617751	13.3912		
0.310396	3.69799	0.310313	3.71605	0.877866	2.71608			0.816026	2.52434	0.618536	13.7041		
0.310214	3.74021	0.310146	3.75888	0.880301	2.71525			0.818737	2.52494	0.619332	14.0314		
0.310066	3.78387	0.310012	3.80317	0.882741	2.71443			0.821448	2.52555	0.620138	14.374		
0.309951	3.829	0.309911	3.84896	0.885187	2.71364			0.824157	2.52614	0.620953	14.733		
0.309868	3.87567	0.309842	3.8963	0.887639	2.71288			0.826866	2.52673	0.621776	15.1096		
0.309817	3.92391	0.309805	3.94524	0.890097	2.71213			0.829575	2.52732	0.622608	15.5051		
0.309797	3.97379	0.309799	3.99585	0.892559	2.71141			0.832283	2.52789	0.623447	15.9209		
0.309809	4.02537	0.309823	4.04817	0.895026	2.7107			0.834989	2.52847	0.624293	16.3586		
0.309851	4.0787	0.309878	4.10228	0.897499	2.71001			0.837695	2.52903	0.625146	16.8199		
0.309923	4.13384	0.309963	4.15823	0.899975	2.70934			0.840401	2.52959	0.626003	17.3068		
0.310024	4.19087	0.310077	4.2161	0.902456	2.70869			0.843105	2.53015	0.626866	17.8214		
0.310155	4.24986	0.31022	4.27595	0.904941	2.70805			0.845808	2.5307	0.627733	18.3661		
0.310293	4.30292	0.310392	4.33788	0.90743	2.70743			0.848511	2.53124	0.628602	18.9436		
0.310427	4.34941	0.310592	4.40194	0.909922	2.70682			0.851212	2.53178	0.629474	19.5569		
0.310549	4.38875	0.31082	4.46825	0.912419	2.70623			0.853913	2.53231	0.630347	20.2094		
0.310654	4.42045	0.311075	4.53688	0.914918	2.70565			0.856612	2.53283	0.631221	20.9049		
0.310735	4.4441	0.311357	4.60793	0.917421	2.70508			0.859311	2.53335	0.632094	21.648		
0.310812	4.46611	0.311666	4.6815	0.919927	2.70453			0.862008	2.53386	0.632966	22.4434		
0.310868	4.48157	0.312	4.75771	0.922436	2.70399			0.864704	2.53436	0.633834	23.297		
0.310958	4.50598	0.312361	4.83666	0.924947	2.70346			0.8674	2.53486	0.634699	24.2152		
0.311086	4.53965	0.312746	4.91849	0.927462	2.70294			0.870093	2.53536	0.635558	25.2058		
0.311257	4.58307	0.313157	5.00332	0.929979	2.70243			0.872786	2.53584	0.63641	26.2777		
0.311477	4.63682	0.313591	5.09128	0.932498	2.70193			0.875477	2.53632	0.637254	27.4411		
0.311753	4.70169	0.31405	5.18254	0.93502	2.70144			0.878167	2.5368	0.638088	28.7083		
0.312095	4.77862	0.314532	5.27724	0.937544	2.70096			0.880856	2.53726	0.638911	30.0939		
0.312462	4.85833	0.315038	5.37554	0.94007	2.70049			0.883543	2.53772	0.63972	31.6152		
0.312854	4.94095	0.315566	5.47765	0.942598	2.70002			0.886228	2.53817	0.640514	33.2933		
0.313271	5.0266	0.316116	5.58374	0.945128	2.69957			0.888913	2.53862	0.641291	35.1536		
0.313712	5.11544	0.316688	5.69402	0.947659	2.69912			0.891595	2.53906	0.642048	37.2277		
0.314177	5.2076	0.317281	5.8087	0.950193	2.69868			0.894276	2.53949	0.642784	39.5547		
0.314666	5.30325	0.317894	5.92804	0.952728	2.69825			0.896955	2.53991	0.643495	42.184		
0.315177	5.40256	0.318529	6.05228	0.955264	2.69782			0.899632	2.54033	0.64418	45.1789		
0.315711	5.50571	0.319183	6.18169	0.957802	2.6974			0.902307	2.54074	0.644836	48.6213		
0.316267	5.6129	0.319856	6.31658	0.960342	2.69699			0.904981	2.54114	0.64546	52.6202		
0.316845	5.72434	0.320548	6.45725	0.962882	2.69658			0.907652	2.54153	0.646049	57.3228		
0.317443	5.84025	0.321258	6.60406	0.965424	2.69618			0.910321	2.54192	0.646602	62.9336		
0.318063	5.96088	0.321985	6.75738	0.967967	2.69578			0.912988	2.54229	0.647114	69.7447		
0.318702	6.08648	0.32273	6.91761	0.970511	2.69539			0.915653	2.54266	0.647583	78.1888		
0.319361	6.21733	0.323491	7.08519	0.973055	2.695			0.918316	2.54302	0.648007	88.9354		
0.32004	6.35374	0.324167	7.23759	0.975601	2.69462			0.920975	2.54337	0.648383	103.078		
0.320736	6.49602	0.324753	7.37245	0.978148	2.69424			0.923633	2.54371	0.648709	122.531		
0.321451	6.64454	0.325243	7.48759	0.980695	2.69387			0.926287	2.54404	0.648982	150.989		
0.322183	6.79967	0.325635	7.58103	0.983243	2.69349			0.928939	2.54437	0.6492	196.598		
0.322933	6.96183	0.325925	7.65115	0.985792	2.69313			0.931587	2.54468	0.649363	281.578		
0.323698	7.13146	0.326193	7.71674	0.988341	2.69276			0.934233	2.54498	0.649469	495.728		
0.324479	7.30905	0.326381	7.76298	0.99089	2.69241			0.936875	2.54527	0.649516	2067.82		
0.325275	7.49515	0.326675	7.83629	0.99344	2.69205			0.939514	2.54555				
0.326086	7.69032	0.327079	7.93808	0.995991	2.69169			0.942149	2.54582				
0.32691	7.89521	0.327593	8.0704	0.998541	2.69134			0.944781	2.54608				
0.327747	8.11052	0.328221	8.236	1.00109	2.69099			0.947409	2.54633				
0.328596	8.33703	0.328966	8.43848					0.950032	2.54656				
0.329456	8.57557	0.329831	8.68251					0.952651	2.54678				
0.330327	8.8271	0.330706	8.93995					0.955265	2.54699				
0.331208	9.09264	0.331591	9.2119					0.957875	2.54718				
0.332098	9.37337	0.332484	9.49957					0.96048	2.54736				
0.332995	9.67056	0.333385	9.8043					0.963079	2.54753				
0.333899	9.98566	0.334291	10.1276					0.965672	2.54767				
0.334809	10.3203	0.335203	10.4712					0.96826	2.54781				
0.335724	10.6763	0.33612	10.837					0.970841	2.54792				
0.336642	11.0556	0.337039	11.2272					0.973416	2.54802				
0.337562	11.4608	0.33796	11.6442					0.975984	2.5481				
0.338484	11.8943	0.338882	12.0909					0.978545	2.54816				
0.339405	12.3592	0.339802	12.5705					0.981097	2.54819				
0.340324	12.8591	0.34072	13.0866					0.983642	2.54821				
0.34124	13.3979	0.341634	13.6437					0.986178	2.54821				
0.34215	13.9804	0.342541	14.2466					0.988705	2.54818				
0.343054	14.612	0.343442	14.9014					0.991222	2.54812				
0.343949	15.2991	0.344332	15.6148					0.99373	2.54804				
0.344834	16.0495	0.345212	16.3952					0.996226	2.54794				
0.345705	16.8723	0.346077	17.2525					0.998712	2.54781				
0.346562	17.7783	0.346927	18.1984					1.00119	2.54764				
0.347402	18.781	0.347758	19.2477										
0.348222	19.8967	0.348569	20.4182										
0.34902	21.1457	0.349357	21.7323										
0.349793	22.5535	0.350118	23.2182										
0.350538	24.1527	0.35085	24.9123										
0.351253	25.9853	0.351551	26.8618										
0.351934	28.1067	0.352217	29.1296										
0.352579	30.5917	0.352846	31.8012										
0.353185	33.543	0.353433	34.9957										
0.353748	37.1066	0.353977	38.8845										
0.354266	41.4964	0.354474	43.723										
0.354735	47.0393	0.354922	49.9099										
0.355153	54.2614	0.355317	58.1036										
0.355518	64.0665	0.355658	69.4752										
0.355826	78.149	0.355942	86.3268										
0.356077	100.102	0.356166	113.894										
0.356267	139.105	0.35633	167.202										
0.356396	227.714	0.356433	314.006										
0.356463	626.384	0.356473	2562.85										
