Sym0		Sym1		Sym2		Sym3		Asym1		Asym2	
390  Points		390  Points		367  Points		200  Points		401  Points		295  Points	
Freq (MHz)	Vph (m/ms)	Freq (MHz)	Vph (m/ms)	Freq (MHz)	Vph (m/ms)	Freq (MHz)	Vph (m/ms)	Freq (MHz)	Vph (m/ms)	Freq (MHz)	Vph (m/ms)
1.00021	2.61682	1.0012	2.61652	0.486076	639.758	0.866026	1362.57	0.216507	1551.52	0.649519	922.241
0.997863	2.61751	0.998864	2.61721	0.486195	276.907	0.86603	530.784	0.216555	190.701	0.649519	382.001
0.995513	2.61818	0.996517	2.6179	0.486407	176.758	0.866038	329.589	0.216676	101.65	0.649518	240.889
0.993156	2.61885	0.994163	2.61856	0.486711	129.864	0.866049	238.999	0.216871	69.3407	0.649516	175.908
0.990793	2.61949	0.991803	2.61922	0.487104	102.681	0.866064	187.473	0.21714	52.6573	0.649515	138.537
0.988424	2.62013	0.989436	2.61986	0.487582	84.9461	0.866082	154.225	0.217481	42.4795	0.649513	114.262
0.986048	2.62075	0.987063	2.62049	0.488143	72.4686	0.866104	130.995	0.217894	35.6287	0.649511	97.226
0.983665	2.62136	0.984683	2.6211	0.488782	63.2159	0.86613	113.848	0.218379	30.7069	0.649508	84.6105
0.981277	2.62195	0.982297	2.6217	0.489496	56.0835	0.866159	100.672	0.218934	27.003	0.649506	74.8928
0.978883	2.62254	0.979906	2.62229	0.490279	50.4195	0.866192	90.2303	0.219557	24.1172	0.649503	67.1772
0.976483	2.6231	0.977508	2.62286	0.491128	45.8141	0.866229	81.7519	0.220249	21.8073	0.649499	60.9028
0.974077	2.62366	0.975105	2.62343	0.492039	41.997	0.866269	74.7309	0.221008	19.9182	0.649496	55.7003
0.971666	2.62421	0.972696	2.62398	0.493007	38.7826	0.866313	68.8212	0.221832	18.3456	0.649493	51.3167
0.969249	2.62474	0.970281	2.62451	0.494029	36.0392	0.86636	63.7785	0.222719	17.0173	0.649489	47.5726
0.966826	2.62526	0.967861	2.62504	0.495101	33.6709	0.866411	59.425	0.223669	15.8812	0.649486	44.3377
0.964399	2.62577	0.965436	2.62556	0.49622	31.6061	0.866466	55.6285	0.22468	14.8993	0.649482	41.5147
0.961966	2.62627	0.963005	2.62606	0.497381	29.7902	0.866525	52.2886	0.225749	14.0427	0.649479	39.0296
0.959529	2.62676	0.96057	2.62655	0.498583	28.181	0.866587	49.3276	0.226876	13.2894	0.649476	36.8253
0.957086	2.62724	0.95813	2.62703	0.499823	26.7454	0.866654	46.6846	0.228059	12.6223	0.649473	34.8566
0.954639	2.6277	0.955685	2.62751	0.501097	25.4568	0.866724	44.311	0.229295	12.0277	0.649471	33.0877
0.952188	2.62816	0.953235	2.62797	0.502404	24.2939	0.866798	42.1675	0.230584	11.4947	0.649468	31.4897
0.949732	2.62861	0.950781	2.62842	0.503741	23.2393	0.866876	40.2224	0.231748	11.0736	0.649467	30.039
0.947272	2.62905	0.948322	2.62886	0.505107	22.2786	0.866957	38.4492	0.23277	10.7426	0.649466	28.7161
0.944807	2.62948	0.94586	2.62929	0.506499	21.3999	0.867043	36.8263	0.233635	10.4864	0.649465	27.5048
0.942338	2.62989	0.943393	2.62972	0.507916	20.5931	0.867133	35.3353	0.234331	10.2942	0.649465	26.3915
0.939866	2.63031	0.940922	2.63013	0.509356	19.8499	0.867226	33.9607	0.23485	10.1582	0.649467	25.365
0.937389	2.63071	0.938447	2.63054	0.510818	19.1631	0.867324	32.6895	0.235186	10.0735	0.649469	24.4153
0.934909	2.6311	0.935969	2.63094	0.512301	18.5264	0.867426	31.5104	0.235672	9.9548	0.649472	23.5342
0.932426	2.63149	0.933486	2.63133	0.513803	17.9348	0.867532	30.4138	0.236205	9.82964	0.649476	22.7145
0.929939	2.63187	0.931001	2.63171	0.515323	17.3835	0.867642	29.3914	0.23694	9.66562	0.649481	21.9501
0.927448	2.63224	0.928512	2.63208	0.516861	16.8685	0.867756	28.4358	0.237883	9.4678	0.649488	21.2355
0.924954	2.6326	0.926019	2.63245	0.518414	16.3866	0.867875	27.5408	0.239046	9.2419	0.649496	20.566
0.922457	2.63296	0.923524	2.63281	0.519984	15.9345	0.867998	26.7008	0.240437	8.9939	0.649506	19.9375
0.919957	2.63331	0.921025	2.63316	0.521567	15.5096	0.868125	25.9108	0.242071	8.72978	0.649517	19.3464
0.917454	2.63366	0.918523	2.63351	0.523165	15.1096	0.868256	25.1666	0.243743	8.48528	0.649531	18.7893
0.914948	2.63399	0.916018	2.63385	0.524775	14.7323	0.868392	24.4642	0.245452	8.2584	0.649546	18.2636
0.912439	2.63432	0.913511	2.63418	0.526398	14.3759	0.868533	23.8003	0.247195	8.04737	0.649563	17.7665
0.909928	2.63465	0.911	2.63451	0.528033	14.0387	0.868678	23.1719	0.248971	7.85065	0.649583	17.2958
0.907414	2.63497	0.908487	2.63483	0.529679	13.7192	0.868827	22.576	0.25078	7.66689	0.649604	16.8496
0.904897	2.63528	0.905972	2.63515	0.531336	13.416	0.868981	22.0104	0.25262	7.4949	0.649629	16.4258
0.902378	2.63559	0.903454	2.63546	0.533003	13.1279	0.86914	21.4727	0.254488	7.33363	0.649655	16.023
0.899857	2.6359	0.900933	2.63577	0.53468	12.8539	0.869304	20.9609	0.256386	7.18215	0.649685	15.6395
0.897333	2.63619	0.898411	2.63607	0.536365	12.5929	0.869473	20.4733	0.25831	7.03963	0.649717	15.2741
0.894807	2.63649	0.895886	2.63636	0.53806	12.344	0.869646	20.0081	0.26026	6.90533	0.649753	14.9254
0.892279	2.63678	0.893358	2.63666	0.539763	12.1064	0.869824	19.5639	0.262234	6.77859	0.649791	14.5924
0.889749	2.63706	0.890829	2.63694	0.541474	11.8794	0.870008	19.1393	0.264232	6.6588	0.649833	14.2741
0.887216	2.63734	0.888298	2.63722	0.543193	11.6623	0.870196	18.733	0.266253	6.54543	0.649879	13.9695
0.884682	2.63762	0.885764	2.6375	0.544919	11.4544	0.870389	18.3438	0.268296	6.438	0.649928	13.6777
0.882146	2.63789	0.883229	2.63778	0.546428	11.2803	0.870588	17.9707	0.270359	6.33607	0.649981	13.398
0.879608	2.63816	0.880692	2.63805	0.547719	11.1369	0.870792	17.6128	0.272441	6.23924	0.650038	13.1296
0.877069	2.63843	0.878153	2.63831	0.54879	11.0215	0.871001	17.2692	0.274543	6.14715	0.650099	12.8718
0.874527	2.63869	0.875612	2.63858	0.549637	10.9323	0.871216	16.9389	0.276662	6.05947	0.650164	12.6242
0.871984	2.63894	0.87307	2.63883	0.550262	10.8678	0.871436	16.6213	0.278798	5.97589	0.650233	12.386
0.86944	2.6392	0.870526	2.63909	0.550662	10.8271	0.871662	16.3157	0.280951	5.89616	0.650307	12.1567
0.866893	2.63945	0.867981	2.63934	0.551237	10.7691	0.871893	16.0213	0.283119	5.82001	0.650386	11.936
0.864346	2.6397	0.865433	2.63959	0.551863	10.7069	0.87213	15.7376	0.285303	5.74721	0.65047	11.7232
0.861797	2.63994	0.862885	2.63984	0.552716	10.6237	0.872373	15.4641	0.2875	5.67755	0.650548	11.544
0.859246	2.64019	0.860335	2.64008	0.553797	10.5208	0.872622	15.2001	0.28971	5.61084	0.650617	11.3956
0.856694	2.64043	0.857784	2.64032	0.555106	10.3995	0.872876	14.9452	0.291933	5.5469	0.650676	11.2758
0.854141	2.64066	0.855231	2.64056	0.556646	10.2615	0.873137	14.699	0.294168	5.48555	0.650724	11.1829
0.851587	2.6409	0.852677	2.6408	0.558417	10.1085	0.873404	14.461	0.296415	5.42666	0.650761	11.1156
0.849031	2.64113	0.850122	2.64103	0.560193	9.96106	0.873677	14.2309	0.298673	5.37007	0.650784	11.0729
0.846474	2.64136	0.847566	2.64126	0.561973	9.81882	0.873956	14.0082	0.300941	5.31565	0.650819	11.0122
0.843916	2.64159	0.845008	2.64149	0.563758	9.68151	0.874242	13.7925	0.303218	5.26328	0.650857	10.947
0.841357	2.64181	0.84245	2.64172	0.565547	9.5489	0.874534	13.5837	0.305505	5.21285	0.650911	10.8595
0.838797	2.64204	0.83989	2.64194	0.567339	9.42073	0.874832	13.3813	0.3078	5.16425	0.65098	10.7509
0.836236	2.64226	0.837329	2.64217	0.569135	9.29678	0.875137	13.1851	0.310104	5.11738	0.651067	10.6226
0.833673	2.64248	0.834767	2.64239	0.570933	9.17686	0.875449	12.9948	0.312416	5.07216	0.651173	10.4759
0.83111	2.6427	0.832205	2.64261	0.572735	9.06077	0.875768	12.8101	0.314734	5.02849	0.651301	10.3127
0.828546	2.64292	0.829641	2.64282	0.57454	8.94832	0.876094	12.6309	0.31706	4.98629	0.651435	10.1547
0.825981	2.64313	0.827076	2.64304	0.576348	8.83935	0.876427	12.4568	0.319392	4.9455	0.651576	10.0016
0.823415	2.64335	0.824511	2.64326	0.578157	8.73369	0.876766	12.2877	0.321729	4.90603	0.651724	9.85325
0.820849	2.64356	0.821945	2.64347	0.57997	8.6312	0.877113	12.1233	0.324073	4.86783	0.651879	9.70938
0.818281	2.64377	0.819377	2.64368	0.581784	8.53173	0.877422	11.9838	0.326421	4.83083	0.652041	9.56983
0.815713	2.64398	0.81681	2.64389	0.583599	8.43515	0.877689	11.8675	0.328774	4.79498	0.652211	9.4344
0.813144	2.64419	0.814241	2.6441	0.585417	8.34133	0.877913	11.7732	0.331132	4.76021	0.652388	9.30293
0.810574	2.6444	0.811672	2.64431	0.587236	8.25016	0.878093	11.6997	0.333493	4.72648	0.652573	9.17526
0.808004	2.64461	0.809102	2.64452	0.589056	8.16153	0.878226	11.6462	0.335859	4.69375	0.652766	9.05122
0.805433	2.64482	0.806531	2.64473	0.590877	8.07532	0.878311	11.6123	0.338227	4.66195	0.652968	8.93067
0.802861	2.64502	0.803959	2.64494	0.592699	7.99144	0.878435	11.5639	0.340598	4.63106	0.653177	8.81347
0.800289	2.64523	0.801387	2.64514	0.594522	7.90979	0.87857	11.5118	0.342972	4.60103	0.653396	8.6995
0.797716	2.64543	0.798815	2.64535	0.596345	7.83028	0.878756	11.4417	0.345349	4.57182	0.653623	8.58863
0.795143	2.64564	0.796242	2.64555	0.598168	7.75283	0.878994	11.3543	0.347727	4.54339	0.653859	8.48074
0.792569	2.64584	0.793668	2.64576	0.599992	7.67736	0.879285	11.2506	0.350107	4.51572	0.654105	8.37572
0.789994	2.64605	0.791094	2.64596	0.601815	7.60378	0.879632	11.1314	0.352488	4.48877	0.654359	8.27346
0.78742	2.64625	0.788519	2.64616	0.603639	7.53203	0.880038	10.9979	0.35487	4.4625	0.654624	8.17387
0.784844	2.64645	0.785944	2.64637	0.605462	7.46204	0.880453	10.8678	0.357253	4.4369	0.654898	8.07685
0.782268	2.64666	0.783368	2.64657	0.607284	7.39374	0.880875	10.741	0.359637	4.41192	0.655183	7.9823
0.779692	2.64686	0.780792	2.64677	0.609106	7.32706	0.881305	10.6173	0.36202	4.38756	0.655477	7.89014
0.777115	2.64706	0.778215	2.64698	0.610927	7.26196	0.881745	10.4966	0.364404	4.36377	0.655782	7.80029
0.774538	2.64727	0.775639	2.64718	0.612746	7.19836	0.882192	10.3789	0.366787	4.34053	0.656098	7.71267
0.771961	2.64747	0.773061	2.64738	0.614565	7.13623	0.882649	10.264	0.36917	4.31784	0.656424	7.62721
0.769383	2.64767	0.770484	2.64759	0.616382	7.0755	0.883114	10.1518	0.371551	4.29565	0.656762	7.54383
0.766805	2.64788	0.767906	2.64779	0.618198	7.01612	0.883588	10.0423	0.373932	4.27395	0.657111	7.46246
0.764227	2.64808	0.765327	2.648	0.620011	6.95805	0.884071	9.93529	0.376311	4.25273	0.657472	7.38304
0.761648	2.64829	0.762749	2.6482	0.621823	6.90124	0.884563	9.83078	0.378688	4.23196	0.657844	7.30551
0.759069	2.64849	0.76017	2.64841	0.623633	6.84565	0.885064	9.72866	0.381064	4.21163	0.658228	7.22981
0.75649	2.6487	0.757591	2.64861	0.625441	6.79125	0.885575	9.62885	0.383437	4.19172	0.658624	7.15587
0.753911	2.64891	0.755012	2.64882	0.627246	6.73798	0.886095	9.53129	0.385808	4.1722	0.659033	7.08365
0.751331	2.64911	0.752432	2.64902	0.629049	6.68581	0.886625	9.43589	0.388176	4.15308	0.659454	7.0131
0.748751	2.64932	0.749853	2.64923	0.630849	6.6347	0.887164	9.3426	0.390541	4.13433	0.659888	6.94416
0.746172	2.64953	0.747273	2.64944	0.632646	6.58463	0.887714	9.25135	0.392903	4.11594	0.660335	6.87678
0.743592	2.64974	0.744693	2.64965	0.634441	6.53555	0.888273	9.16207	0.395262	4.09789	0.660795	6.81093
0.741011	2.64995	0.742113	2.64986	0.636232	6.48744	0.888842	9.07471	0.397617	4.08017	0.661268	6.74655
0.738431	2.65016	0.739533	2.65007	0.63802	6.44026	0.889421	8.98922	0.399968	4.06277	0.661756	6.6836
0.735851	2.65038	0.736952	2.65029	0.639804	6.39399	0.890011	8.90553	0.402315	4.04568	0.662257	6.62205
0.73327	2.65059	0.734372	2.6505	0.641585	6.34859	0.890611	8.82359	0.404658	4.02889	0.662772	6.56184
0.73069	2.65081	0.731792	2.65072	0.643362	6.30404	0.891222	8.74336	0.406997	4.01238	0.663301	6.50296
0.72811	2.65103	0.729211	2.65093	0.645135	6.26032	0.891843	8.66479	0.40933	3.99615	0.663845	6.44535
0.725529	2.65125	0.726631	2.65115	0.646904	6.21739	0.892475	8.58783	0.411659	3.98018	0.664403	6.38899
0.722949	2.65147	0.72405	2.65137	0.648669	6.17524	0.893118	8.51243	0.413982	3.96446	0.664977	6.33384
0.720368	2.65169	0.72147	2.65159	0.650429	6.13384	0.893771	8.43855	0.4163	3.94899	0.665565	6.27987
0.717788	2.65191	0.718889	2.65182	0.652185	6.09317	0.894436	8.36615	0.418612	3.93376	0.666169	6.22704
0.715208	2.65214	0.716309	2.65204	0.653937	6.0532	0.895112	8.29519	0.420919	3.91876	0.666789	6.17534
0.712627	2.65237	0.713729	2.65227	0.655683	6.01392	0.895799	8.22563	0.423219	3.90397	0.667424	6.12472
0.710047	2.6526	0.711149	2.6525	0.657425	5.97531	0.896498	8.15744	0.425514	3.8894	0.668075	6.07517
0.707467	2.65283	0.708569	2.65273	0.659162	5.93734	0.897208	8.09058	0.427802	3.87504	0.668742	6.02665
0.704887	2.65307	0.705989	2.65297	0.660893	5.90001	0.89793	8.02501	0.430083	3.86086	0.669426	5.97914
0.702308	2.65331	0.703409	2.6532	0.66262	5.86328	0.898663	7.9607	0.432357	3.84688	0.670126	5.93262
0.699728	2.65354	0.700829	2.65344	0.66434	5.82715	0.899409	7.89762	0.434624	3.83309	0.670843	5.88705
0.697149	2.65379	0.69825	2.65368	0.666056	5.7916	0.900166	7.83574	0.436884	3.81947	0.671576	5.84242
0.69457	2.65403	0.695671	2.65393	0.667765	5.75661	0.900935	7.77503	0.439136	3.80602	0.672327	5.79871
0.691991	2.65428	0.693092	2.65418	0.669469	5.72217	0.901717	7.71545	0.441381	3.79273	0.673095	5.75589
0.689413	2.65453	0.690513	2.65442	0.671167	5.68825	0.90251	7.65699	0.443618	3.77961	0.673881	5.71394
0.686835	2.65479	0.687935	2.65468	0.672859	5.65486	0.903316	7.5996	0.445847	3.76663	0.674684	5.67284
0.684257	2.65504	0.685357	2.65493	0.674545	5.62196	0.904135	7.54328	0.448068	3.75381	0.675506	5.63258
0.681679	2.65531	0.682779	2.65519	0.676224	5.58956	0.904965	7.48799	0.450281	3.74113	0.676345	5.59312
0.679102	2.65557	0.680202	2.65546	0.677897	5.55763	0.905809	7.4337	0.452485	3.72858	0.677202	5.55446
0.676525	2.65584	0.677625	2.65572	0.679564	5.52617	0.906665	7.3804	0.45468	3.71617	0.678078	5.51658
0.673949	2.65611	0.675049	2.65599	0.681224	5.49516	0.907534	7.32806	0.456866	3.70389	0.678972	5.47945
0.671373	2.65638	0.672473	2.65627	0.682877	5.46459	0.908415	7.27665	0.459044	3.69173	0.679885	5.44307
0.668798	2.65666	0.669897	2.65654	0.684524	5.43445	0.90931	7.22616	0.461212	3.6797	0.680817	5.40741
0.666223	2.65695	0.667322	2.65683	0.686163	5.40473	0.910217	7.17657	0.463371	3.66777	0.681768	5.37246
0.663648	2.65724	0.664747	2.65711	0.687796	5.37542	0.911138	7.12785	0.46552	3.65596	0.682737	5.3382
0.661075	2.65753	0.662173	2.6574	0.689422	5.34651	0.912071	7.07999	0.46766	3.64426	0.683727	5.30462
0.658501	2.65783	0.6596	2.6577	0.69104	5.31798	0.913018	7.03296	0.469791	3.63267	0.684735	5.27171
0.655929	2.65813	0.657027	2.658	0.692652	5.28984	0.913978	6.98675	0.471911	3.62117	0.685763	5.23945
0.653357	2.65844	0.654455	2.65831	0.694256	5.26206	0.914952	6.94134	0.474021	3.60978	0.686811	5.20782
0.650785	2.65875	0.651883	2.65862	0.695853	5.23465	0.915938	6.89671	0.476121	3.59848	0.687878	5.17681
0.648215	2.65907	0.649312	2.65893	0.697442	5.20758	0.916938	6.85285	0.478211	3.58727	0.688965	5.14642
0.645645	2.65939	0.646742	2.65925	0.699024	5.18087	0.917951	6.80973	0.480291	3.57615	0.690072	5.11662
0.643076	2.65972	0.644173	2.65958	0.700598	5.15448	0.918978	6.76734	0.48236	3.56512	0.691199	5.0874
0.640508	2.66006	0.641604	2.65991	0.702165	5.12843	0.920018	6.72567	0.484419	3.55417	0.692346	5.05876
0.63794	2.6604	0.639036	2.66025	0.703724	5.1027	0.921072	6.6847	0.486467	3.5433	0.693513	5.03068
0.635374	2.66075	0.636469	2.6606	0.705276	5.07728	0.922139	6.64442	0.488505	3.53252	0.6947	5.00314
0.632808	2.66111	0.633903	2.66095	0.70682	5.05217	0.92322	6.6048	0.490532	3.52181	0.695908	4.97614
0.630244	2.66147	0.631339	2.66131	0.708356	5.02735	0.924315	6.56585	0.492548	3.51118	0.697135	4.94967
0.62768	2.66184	0.628775	2.66168	0.709884	5.00283	0.925422	6.52753	0.494554	3.50062	0.698383	4.92371
0.625118	2.66222	0.626212	2.66206	0.711404	4.9786	0.926544	6.48985	0.496548	3.49013	0.699652	4.89826
0.622557	2.6626	0.62365	2.66244	0.712917	4.95465	0.927679	6.45278	0.498532	3.47971	0.700941	4.8733
0.619996	2.663	0.621089	2.66283	0.714422	4.93098	0.928828	6.41632	0.500504	3.46936	0.70225	4.84882
0.617438	2.6634	0.61853	2.66323	0.715919	4.90757	0.92999	6.38045	0.502466	3.45908	0.703579	4.82482
0.61488	2.66381	0.615972	2.66364	0.717408	4.88443	0.931166	6.34515	0.504417	3.44886	0.704929	4.80128
0.612324	2.66424	0.613415	2.66405	0.718889	4.86155	0.932355	6.31043	0.506357	3.43871	0.706299	4.7782
0.609769	2.66467	0.610859	2.66448	0.720363	4.83892	0.933558	6.27626	0.508286	3.42861	0.70769	4.75556
0.607215	2.66511	0.608305	2.66492	0.721828	4.81654	0.934774	6.24263	0.510205	3.41859	0.709101	4.73336
0.604663	2.66556	0.605752	2.66537	0.723286	4.7944	0.936004	6.20954	0.512112	3.40862	0.710531	4.71159
0.602113	2.66602	0.603201	2.66582	0.724736	4.7725	0.937247	6.17697	0.514008	3.39871	0.711982	4.69023
0.599564	2.6665	0.600652	2.66629	0.726178	4.75084	0.938503	6.14491	0.515894	3.38886	0.713453	4.66929
0.597017	2.66698	0.598104	2.66678	0.727612	4.7294	0.939773	6.11336	0.517769	3.37907	0.714944	4.64874
0.594472	2.66748	0.595558	2.66727	0.729039	4.70819	0.941056	6.0823	0.519634	3.36933	0.716455	4.62859
0.591928	2.66799	0.593014	2.66777	0.730457	4.68721	0.942352	6.05172	0.521487	3.35966	0.717986	4.60882
0.589387	2.66852	0.590472	2.66829	0.731869	4.66644	0.943661	6.02161	0.523331	3.35003	0.719536	4.58943
0.586848	2.66906	0.587931	2.66883	0.733272	4.64588	0.944984	5.99196	0.525164	3.34047	0.721106	4.5704
0.58431	2.66961	0.585393	2.66937	0.734668	4.62554	0.946319	5.96277	0.526986	3.33096	0.722695	4.55174
0.581775	2.67018	0.582857	2.66994	0.736057	4.6054	0.947667	5.93402	0.528798	3.3215	0.724303	4.53343
0.579243	2.67077	0.580324	2.67052	0.737438	4.58546	0.949028	5.90571	0.530601	3.3121	0.725931	4.51547
0.576712	2.67137	0.577792	2.67111	0.738811	4.56573	0.950402	5.87783	0.532393	3.30276	0.727577	4.49784
0.574185	2.67199	0.575263	2.67172	0.740178	4.54619	0.951788	5.85037	0.534176	3.29346	0.729242	4.48055
0.57166	2.67263	0.572737	2.67235	0.741537	4.52684	0.953187	5.82331	0.535948	3.28423	0.730926	4.46358
0.569137	2.67328	0.570214	2.673	0.742889	4.50769	0.954598	5.79666	0.537711	3.27504	0.732628	4.44692
0.566618	2.67396	0.567693	2.67367	0.744234	4.48872	0.956022	5.77041	0.539465	3.26591	0.734348	4.43058
0.564102	2.67465	0.565176	2.67435	0.745572	4.46994	0.957458	5.74454	0.54121	3.25683	0.736087	4.41454
0.561589	2.67537	0.562661	2.67506	0.746902	4.45133	0.958906	5.71905	0.542945	3.24781	0.737843	4.3988
0.559079	2.67612	0.56015	2.6758	0.748227	4.43291	0.960366	5.69393	0.544672	3.23884	0.739617	4.38334
0.556573	2.67688	0.557642	2.67655	0.749544	4.41466	0.961838	5.66918	0.54639	3.22993	0.741408	4.36817
0.55407	2.67767	0.555138	2.67733	0.750855	4.39659	0.963321	5.64478	0.548099	3.22106	0.743216	4.35328
0.551571	2.67849	0.552637	2.67814	0.752159	4.37869	0.964816	5.62074	0.5498	3.21226	0.745042	4.33866
0.549076	2.67933	0.550141	2.67897	0.753456	4.36096	0.966323	5.59704	0.551492	3.2035	0.746884	4.32431
0.546586	2.68021	0.547648	2.67983	0.754748	4.34339	0.967841	5.57368	0.553177	3.19481	0.748742	4.31021
0.544099	2.68111	0.54516	2.68072	0.756033	4.32599	0.96937	5.55064	0.554854	3.18616	0.750616	4.29636
0.541618	2.68204	0.542677	2.68164	0.757312	4.30876	0.97091	5.52794	0.556523	3.17757	0.752507	4.28277
0.539141	2.68301	0.540198	2.6826	0.758585	4.29168	0.972461	5.50555	0.558185	3.16904	0.754413	4.26942
0.536669	2.68402	0.537724	2.68358	0.759852	4.27476	0.974023	5.48347	0.55984	3.16056	0.756334	4.2563
0.534203	2.68506	0.535255	2.68461	0.761113	4.258	0.975595	5.46169	0.561487	3.15214	0.758271	4.24341
0.531742	2.68614	0.532792	2.68567	0.762369	4.24139	0.977178	5.44022	0.563128	3.14377	0.760223	4.23075
0.529288	2.68726	0.530335	2.68677	0.763619	4.22493	0.978771	5.41904	0.564763	3.13546	0.762189	4.21831
0.526839	2.68842	0.527883	2.68792	0.764864	4.20862	0.980375	5.39815	0.566391	3.12721	0.764169	4.20608
0.524397	2.68963	0.525439	2.68911	0.766104	4.19247	0.981988	5.37754	0.568013	3.11901	0.766163	4.19407
0.521961	2.69088	0.523	2.69034	0.767338	4.17646	0.983611	5.35721	0.569629	3.11087	0.768171	4.18226
0.519533	2.69219	0.520569	2.69163	0.768567	4.16059	0.985243	5.33715	0.571239	3.10279	0.770193	4.17065
0.517113	2.69355	0.518145	2.69296	0.769792	4.14487	0.986886	5.31735	0.572844	3.09476	0.772227	4.15923
0.5147	2.69496	0.515729	2.69435	0.771011	4.1293	0.988537	5.29782	0.574444	3.0868	0.774275	4.14801
0.512295	2.69644	0.513321	2.6958	0.772226	4.11386	0.990198	5.27854	0.576039	3.07889	0.776335	4.13697
0.5099	2.69797	0.510921	2.69731	0.773437	4.09856	0.991867	5.25951	0.577629	3.07104	0.778407	4.12611
0.507513	2.69957	0.508531	2.69888	0.774643	4.0834	0.993545	5.24074	0.579214	3.06324	0.780492	4.11543
0.505136	2.70124	0.50615	2.70052	0.775845	4.06837	0.995232	5.2222	0.580795	3.05551	0.782588	4.10493
0.50277	2.70298	0.503779	2.70223	0.777043	4.05348	0.996928	5.20389	0.582372	3.04784	0.784695	4.09459
0.500414	2.7048	0.501418	2.70401	0.778237	4.03873	0.998631	5.18583	0.583945	3.04022	0.786814	4.08441
0.498069	2.70669	0.499068	2.70587	0.779427	4.0241	1.00034	5.16798	0.585515	3.03267	0.788943	4.0744
0.495736	2.70868	0.49673	2.70782	0.780614	4.00961			0.587081	3.02517	0.791083	4.06454
0.493415	2.71075	0.494404	2.70985	0.781796	3.99525			0.588643	3.01773	0.793233	4.05484
0.491107	2.71292	0.492091	2.71198	0.782976	3.98101			0.590203	3.01036	0.795393	4.04529
0.488813	2.71518	0.489791	2.7142	0.784152	3.9669			0.59176	3.00304	0.797562	4.03587
0.486533	2.71755	0.487505	2.71653	0.785325	3.95292			0.593314	2.99579	0.799741	4.02661
0.484268	2.72003	0.485233	2.71896	0.786495	3.93906			0.594866	2.98859	0.801929	4.01747
0.482019	2.72263	0.482977	2.72151	0.787662	3.92532			0.596415	2.98146	0.804126	4.00848
0.479786	2.72535	0.480737	2.72418	0.788827	3.91171			0.597963	2.97438	0.806331	3.99961
0.47757	2.7282	0.478514	2.72697	0.789989	3.89822			0.599508	2.96737	0.808544	3.99087
0.475372	2.73118	0.476308	2.72989	0.791148	3.88484			0.601053	2.96042	0.810765	3.98226
0.473193	2.73431	0.474121	2.73296	0.792305	3.87159			0.602595	2.95353	0.812993	3.97376
0.471033	2.73758	0.471952	2.73617	0.79346	3.85846			0.604137	2.9467	0.815229	3.96538
0.468893	2.74101	0.469804	2.73953	0.794613	3.84544			0.605677	2.93993	0.817472	3.95712
0.466773	2.74461	0.467675	2.74305	0.795764	3.83253			0.607217	2.93322	0.819721	3.94897
0.464676	2.74837	0.465569	2.74674	0.796913	3.81974			0.608756	2.92657	0.821977	3.94093
0.462601	2.75231	0.463484	2.75061	0.79806	3.80707			0.610294	2.91999	0.824239	3.93299
0.460549	2.75644	0.461422	2.75465	0.799206	3.7945			0.611832	2.91346	0.826507	3.92516
0.458522	2.76076	0.459384	2.75889	0.80035	3.78205			0.61337	2.907	0.828781	3.91743
0.456518	2.76528	0.45737	2.76333	0.801493	3.76971			0.614908	2.90059	0.831059	3.90979
0.45454	2.77001	0.455382	2.76797	0.802635	3.75748			0.616446	2.89425	0.833343	3.90225
0.452588	2.77496	0.453418	2.77282	0.803776	3.74535			0.617984	2.88797	0.835631	3.8948
0.450663	2.78013	0.451481	2.7779	0.804916	3.73334			0.619523	2.88175	0.837924	3.88744
0.448764	2.78553	0.449571	2.7832	0.806055	3.72143			0.621063	2.87559	0.840221	3.88016
0.446893	2.79118	0.447688	2.78874	0.807193	3.70963			0.622604	2.86949	0.842522	3.87298
0.44505	2.79707	0.445833	2.79452	0.808331	3.69793			0.624145	2.86345	0.844826	3.86587
0.443236	2.80321	0.444007	2.80056	0.809469	3.68634			0.625688	2.85746	0.847134	3.85884
0.44145	2.80962	0.442209	2.80685	0.810606	3.67484			0.627231	2.85154	0.849445	3.85189
0.439693	2.81629	0.44044	2.81341	0.811742	3.66346			0.628777	2.84568	0.851759	3.84502
0.437966	2.82324	0.4387	2.82024	0.812879	3.65217			0.630324	2.83988	0.854075	3.83822
0.436268	2.83046	0.436989	2.82734	0.814016	3.64098			0.631872	2.83414	0.856394	3.83148
0.4346	2.83798	0.435308	2.83474	0.815152	3.6299			0.633422	2.82846	0.858714	3.82482
0.432961	2.84579	0.433657	2.84242	0.816289	3.61891			0.634975	2.82284	0.861036	3.81823
0.431353	2.8539	0.432036	2.8504	0.817427	3.60802			0.636529	2.81727	0.86336	3.8117
0.429774	2.86232	0.430444	2.85869	0.818565	3.59723			0.638086	2.81177	0.865685	3.80523
0.428224	2.87104	0.428882	2.86728	0.819703	3.58653			0.639645	2.80632	0.868011	3.79882
0.426704	2.88009	0.42735	2.87619	0.820842	3.57593			0.641206	2.80093	0.870338	3.79247
0.425214	2.88945	0.425847	2.88541	0.821981	3.56542			0.64277	2.7956	0.872665	3.78618
0.423753	2.89915	0.424373	2.89497	0.823122	3.55501			0.644337	2.79032	0.874992	3.77994
0.422321	2.90917	0.422929	2.90485	0.824263	3.54469			0.645906	2.78511	0.877319	3.77376
0.420919	2.91954	0.421514	2.91507	0.825406	3.53447			0.647478	2.77995	0.879646	3.76762
0.419544	2.93026	0.420128	2.92564	0.826549	3.52433			0.649054	2.77484	0.881972	3.76154
0.418199	2.94132	0.41877	2.93655	0.827694	3.51429			0.650632	2.7698	0.884298	3.75551
0.416882	2.95274	0.417441	2.94782	0.82884	3.50433			0.652214	2.76481	0.886622	3.74952
0.415592	2.96452	0.416139	2.95945	0.829987	3.49447			0.653799	2.75988	0.888945	3.74357
0.414331	2.97667	0.414866	2.97144	0.831136	3.48469			0.655388	2.755	0.891267	3.73767
0.413097	2.9892	0.41362	2.9838	0.832287	3.475			0.65698	2.75018	0.893587	3.73181
0.41189	3.0021	0.412402	2.99655	0.833439	3.4654			0.658576	2.74541	0.895904	3.72599
0.410711	3.01539	0.411211	3.00967	0.834593	3.45589			0.660175	2.7407	0.89822	3.72021
0.409558	3.02908	0.410047	3.02319	0.835749	3.44646			0.661779	2.73604	0.900532	3.71447
0.408431	3.04317	0.408909	3.03711	0.836907	3.43712			0.663386	2.73144	0.902842	3.70876
0.407332	3.05767	0.407798	3.05143	0.838066	3.42786			0.664997	2.72689	0.905149	3.70308
0.406258	3.07258	0.406713	3.06616	0.839228	3.41868			0.666613	2.7224	0.907453	3.69744
0.40521	3.08791	0.405654	3.08131	0.840392	3.40959			0.668233	2.71795	0.909753	3.69183
0.404188	3.10368	0.404621	3.0969	0.841558	3.40058			0.669857	2.71357	0.912049	3.68625
0.403191	3.11989	0.403613	3.11291	0.842726	3.39165			0.671485	2.70923	0.914342	3.6807
0.402219	3.13654	0.402631	3.12938	0.843897	3.3828			0.673118	2.70495	0.91663	3.67517
0.401273	3.15366	0.401674	3.1463	0.84507	3.37403			0.674755	2.70072	0.918914	3.66967
0.400351	3.17124	0.400742	3.16368	0.846246	3.36534			0.676398	2.69654	0.921193	3.6642
0.399455	3.1893	0.399834	3.18153	0.847425	3.35673			0.678045	2.69242	0.923467	3.65875
0.398583	3.20785	0.398952	3.19987	0.848606	3.3482			0.679696	2.68835	0.925736	3.65332
0.397735	3.22689	0.398094	3.2187	0.849789	3.33975			0.681353	2.68432	0.928	3.64792
0.396912	3.24645	0.39726	3.23804	0.850976	3.33137			0.683015	2.68035	0.930258	3.64254
0.396112	3.26652	0.396451	3.25789	0.852165	3.32307			0.684682	2.67643	0.932511	3.63717
0.395337	3.28713	0.395665	3.27827	0.853358	3.31485			0.686354	2.67256	0.934757	3.63182
0.394586	3.30828	0.394904	3.29919	0.854553	3.3067			0.688032	2.66875	0.936998	3.62649
0.393859	3.32999	0.394166	3.32066	0.855751	3.29862			0.689715	2.66498	0.939231	3.62118
0.393155	3.35228	0.393453	3.34269	0.856953	3.29062			0.691403	2.66126	0.941459	3.61588
0.392475	3.37514	0.392763	3.36531	0.858158	3.28269			0.693098	2.65759	0.943679	3.6106
0.391819	3.39861	0.392096	3.38852	0.859366	3.27483			0.694797	2.65397	0.945893	3.60533
0.391186	3.42269	0.391453	3.41233	0.860577	3.26705			0.696503	2.65041	0.948099	3.60007
0.390576	3.4474	0.390834	3.43677	0.861791	3.25933			0.698215	2.64689	0.950298	3.59482
0.38999	3.47275	0.390237	3.46185	0.863009	3.25169			0.699932	2.64342	0.95249	3.58959
0.389427	3.49877	0.389664	3.48758	0.864231	3.24412			0.701656	2.64	0.954673	3.58436
0.388887	3.52546	0.389114	3.51398	0.865456	3.23662			0.703386	2.63663	0.956849	3.57915
0.388369	3.55285	0.388587	3.54107	0.866684	3.22918			0.705123	2.6333	0.959017	3.57394
0.387875	3.58096	0.388083	3.56887	0.867917	3.22182			0.706866	2.63003	0.961176	3.56874
0.387404	3.60981	0.387602	3.5974	0.869152	3.21452			0.708616	2.62681	0.963327	3.56355
0.386956	3.63941	0.387144	3.62668	0.870392	3.20729			0.710373	2.62363	0.96547	3.55837
0.38653	3.66978	0.386709	3.65672	0.871635	3.20012			0.712136	2.62051	0.967604	3.55319
0.386127	3.70095	0.386296	3.68755	0.872883	3.19303			0.713907	2.61743	0.969729	3.54801
0.385747	3.73294	0.385906	3.71919	0.874134	3.186			0.715685	2.6144	0.971845	3.54284
0.385389	3.76578	0.385539	3.75166	0.875389	3.17903			0.71747	2.61142	0.973952	3.53768
0.385054	3.79948	0.385194	3.78499	0.876648	3.17213			0.719263	2.60849	0.97605	3.53252
0.384741	3.83408	0.384872	3.8192	0.877911	3.16529			0.721064	2.60561	0.978138	3.52736
0.384451	3.86959	0.384572	3.85432	0.879178	3.15851			0.722872	2.60278	0.980217	3.52221
0.384183	3.90606	0.384294	3.89037	0.880449	3.1518			0.724689	2.59999	0.982286	3.51706
0.383937	3.94349	0.384039	3.92739	0.881724	3.14516			0.726514	2.59726	0.984346	3.51191
0.383713	3.98193	0.383806	3.9654	0.883004	3.13857			0.728348	2.59458	0.986396	3.50676
0.383512	4.02141	0.383595	4.00443	0.884288	3.13204			0.73019	2.59194	0.988436	3.50161
0.383333	4.06195	0.383406	4.04451	0.885576	3.12558			0.732042	2.58936	0.990467	3.49647
0.383175	4.10359	0.38324	4.08568	0.886868	3.11918			0.733903	2.58683	0.992487	3.49132
0.38304	4.14637	0.383095	4.12797	0.888165	3.11283			0.735773	2.58435	0.994497	3.48618
0.382926	4.19032	0.382972	4.17141	0.889466	3.10655			0.737653	2.58192	0.996497	3.48104
0.382834	4.23548	0.382871	4.21605	0.890772	3.10032			0.739543	2.57954	0.998488	3.4759
0.382764	4.28189	0.382791	4.26192	0.892082	3.09416			0.741444	2.57722	1.00047	3.47076
0.382716	4.32958	0.382734	4.30906	0.893397	3.08805			0.743355	2.57494		
0.382689	4.37862	0.382697	4.35752	0.894716	3.082			0.745277	2.57273		
0.382683	4.42903	0.382683	4.40734	0.89604	3.076			0.74721	2.57056		
0.382699	4.48086	0.382689	4.45856	0.897368	3.07007			0.749155	2.56845		
0.382736	4.53418	0.382718	4.51123	0.898701	3.06419			0.751112	2.5664		
0.382794	4.58902	0.382767	4.56542	0.900039	3.05836			0.753081	2.5644		
0.382874	4.64544	0.382837	4.62116	0.901382	3.05259			0.755063	2.56246		
0.382974	4.7035	0.382929	4.67851	0.90273	3.04688			0.757059	2.56057		
0.383095	4.76325	0.383041	4.73753	0.904082	3.04122			0.759067	2.55875		
0.383237	4.82477	0.383174	4.79829	0.905439	3.03561			0.761089	2.55698		
0.3834	4.88812	0.383328	4.86085	0.906801	3.03006			0.763126	2.55527		
0.383584	4.95335	0.383503	4.92527	0.908169	3.02457			0.765177	2.55362		
0.383787	5.02056	0.383698	4.99162	0.909541	3.01912			0.767243	2.55203		
0.384011	5.08981	0.383913	5.05999	0.910918	3.01373			0.769324	2.5505		
0.384256	5.16118	0.384149	5.13045	0.9123	3.00839			0.77142	2.54904		
0.38452	5.23477	0.384405	5.20308	0.913688	3.0031			0.773533	2.54763		
0.384767	5.30076	0.384681	5.27797	0.91508	2.99786			0.775661	2.54629		
0.384989	5.35844	0.384976	5.35521	0.916478	2.99268			0.777806	2.54501		
0.385181	5.40716	0.385292	5.43489	0.917881	2.98754			0.779968	2.54379		
0.385338	5.44635	0.385627	5.51714	0.919289	2.98246			0.782146	2.54264		
0.385456	5.47555	0.385981	5.60203	0.920703	2.97742			0.784341	2.54154		
0.385567	5.50271	0.386355	5.68971	0.922122	2.97243			0.786552	2.54051		
0.385646	5.52177	0.386747	5.78028	0.923546	2.9675			0.788781	2.53954		
0.385771	5.55184	0.387159	5.87387	0.924976	2.96261			0.791027	2.53863		
0.385944	5.59328	0.38759	5.97063	0.926411	2.95777			0.793289	2.53778		
0.38617	5.64662	0.388039	6.07069	0.927852	2.95298			0.795568	2.53698		
0.386453	5.71257	0.388506	6.17421	0.929298	2.94824			0.797864	2.53625		
0.386799	5.79199	0.388992	6.28136	0.93075	2.94354			0.800176	2.53557		
0.387213	5.88597	0.389496	6.39231	0.932207	2.9389			0.802504	2.53494		
0.387646	5.98314	0.390017	6.50724	0.933671	2.93429			0.804847	2.53437		
0.388097	6.08363	0.390557	6.62635	0.93514	2.92974			0.807206	2.53385		
0.388567	6.18761	0.391113	6.74986	0.936614	2.92523			0.809579	2.53338		
0.389055	6.29523	0.391687	6.878	0.938095	2.92077			0.811967	2.53296		
0.389561	6.40667	0.392278	7.01099	0.939581	2.91635			0.81437	2.53259		
0.390085	6.52212	0.392886	7.14912	0.941073	2.91198			0.816785	2.53226		
0.390626	6.64178	0.39351	7.29264	0.942572	2.90766			0.819214	2.53197		
0.391185	6.76586	0.39415	7.44187	0.944076	2.90338			0.821655	2.53172		
0.391761	6.8946	0.394806	7.59713	0.945586	2.89914			0.824108	2.53151		
0.392354	7.02823	0.395478	7.75877	0.947102	2.89495			0.826573	2.53133		
0.392964	7.16702	0.396165	7.92715	0.948625	2.8908			0.829049	2.5312		
0.39359	7.31126	0.396867	8.10269	0.950154	2.8867			0.831535	2.53109		
0.394232	7.46124	0.397584	8.28583	0.951689	2.88264			0.834032	2.53101		
0.39489	7.61728	0.398316	8.47704	0.95323	2.87862			0.836538	2.53097		
0.395564	7.77975	0.399062	8.67683	0.954778	2.87465			0.839053	2.53095		
0.396253	7.94902	0.399821	8.88578	0.956332	2.87072			0.841576	2.53096		
0.396958	8.1255	0.400594	9.10449	0.957893	2.86683			0.844108	2.53099		
0.397676	8.30964	0.401379	9.33363	0.95946	2.86299			0.846648	2.53105		
0.39841	8.5019	0.402178	9.57394	0.961034	2.85919			0.849195	2.53113		
0.399157	8.70283	0.402883	9.79309	0.962614	2.85543			0.851749	2.53122		
0.399918	8.91298	0.403492	9.9875	0.964201	2.85171			0.854309	2.53134		
0.400693	9.13298	0.404	10.1539	0.965796	2.84804			0.856876	2.53148		
0.40148	9.3635	0.404404	10.2891	0.967397	2.8444			0.859449	2.53163		
0.40228	9.60528	0.404703	10.3908	0.969005	2.84081			0.862027	2.53179		
0.403092	9.85914	0.40498	10.486	0.97062	2.83726			0.864611	2.53197		
0.403915	10.126	0.405173	10.5532	0.972242	2.83375			0.867199	2.53217		
0.40475	10.4067	0.405475	10.6598	0.973871	2.83029			0.869793	2.53238		
0.405595	10.7026	0.405889	10.8082	0.975508	2.82686			0.872391	2.5326		
0.40645	11.0146	0.406415	11.0014	0.977152	2.82348			0.874993	2.53283		
0.407315	11.3442	0.407056	11.244	0.978803	2.82013			0.877599	2.53307		
0.408189	11.6929	0.407815	11.5417	0.980463	2.81683			0.880209	2.53332		
0.40907	12.0624	0.408693	11.902	0.982129	2.81357			0.882822	2.53358		
0.409959	12.4544	0.409579	12.2841	0.983804	2.81034			0.885439	2.53384		
0.410855	12.8711	0.410472	12.69	0.985486	2.80716			0.888059	2.53412		
0.411757	13.3148	0.411372	13.1219	0.987176	2.80402			0.890683	2.5344		
0.412664	13.7882	0.412276	13.5823	0.988874	2.80092			0.893309	2.53469		
0.413575	14.2943	0.413186	14.074	0.990581	2.79786			0.895937	2.53498		
0.414489	14.8367	0.414098	14.6005	0.992296	2.79484			0.898569	2.53528		
0.415405	15.4192	0.415013	15.1653	0.994018	2.79186			0.901202	2.53559		
0.416321	16.0465	0.41593	15.7729	0.99575	2.78892			0.903838	2.5359		
0.417237	16.7238	0.416846	16.4281	0.99749	2.78602			0.906477	2.53621		
0.418151	17.4574	0.417761	17.1369	0.999239	2.78317			0.909117	2.53653		
0.419062	18.2545	0.418674	17.9059	1.001	2.78035			0.911759	2.53686		
0.419967	19.1236	0.419582	18.7432					0.914403	2.53718		
0.420866	20.0751	0.420483	19.6581					0.917049	2.53751		
0.421756	21.1209	0.421377	20.662					0.919697	2.53784		
0.422634	22.2761	0.422261	21.7685					0.922346	2.53818		
0.423499	23.5584	0.423132	22.9941					0.924997	2.53851		
0.424349	24.9903	0.423988	24.3591					0.927649	2.53885		
0.425179	26.5995	0.424827	25.8888					0.930303	2.53919		
0.425989	28.4211	0.425646	27.6148					0.932957	2.53953		
0.426773	30.5002	0.426441	29.5777					0.935613	2.53988		
0.427529	32.8959	0.42721	31.8299					0.938271	2.54022		
0.428253	35.6866	0.427948	34.4408					0.940929	2.54057		
0.428942	38.9792	0.428652	37.5038					0.943588	2.54092		
0.429591	42.9232	0.429319	41.1479					0.946249	2.54126		
0.430196	47.7341	0.429943	45.5567					0.94891	2.54161		
0.430753	53.7345	0.430521	51.0005					0.951572	2.54196		
0.431257	61.4301	0.431049	57.8939					0.954235	2.54231		
0.431705	71.6611	0.431521	66.9081					0.956899	2.54266		
0.432093	85.9332	0.431935	79.2041					0.959563	2.54301		
0.432416	107.24	0.432286	96.9813					0.962228	2.54336		
0.432672	142.505	0.432571	124.97					0.964894	2.54371		
0.432858	212.168	0.432788	175.547					0.967561	2.54406		
0.432972	414.667	0.432932	294.643					0.970228	2.54441		
0.433013	8998.33	0.433004	914.817					0.972896	2.54476		
								0.975564	2.54511		
								0.978233	2.54545		
								0.980902	2.5458		
								0.983572	2.54615		
								0.986242	2.5465		
								0.988913	2.54684		
								0.991584	2.54719		
								0.994255	2.54753		
								0.996927	2.54787		
								0.999599	2.54822		
								1.00227	2.54856		
