Sym0		Sym1		Sym2		Sym3		Asym1		Asym2		Asym3	
407  Points		408  Points		380  Points		218  Points		399  Points		325  Points		202  Points	
Freq (MHz)	Vph (m/ms)	Freq (MHz)	Vph (m/ms)	Freq (MHz)	Vph (m/ms)	Freq (MHz)	Vph (m/ms)	Freq (MHz)	Vph (m/ms)	Freq (MHz)	Vph (m/ms)	Freq (MHz)	Vph (m/ms)
1.00089	2.50443	1.00199	2.50389	0.433015	3133.43	0.866025	1215.17	0.216539	232.078	1.00017	3.14867	0.821287	2620.02
0.998813	2.50547	0.999906	2.50492	0.433168	381.909	0.866023	506.83	0.216644	112.305	0.998869	3.15445	0.82131	627.198
0.996738	2.50652	0.997829	2.50596	0.433552	203.522	0.866019	320.187	0.216822	74.1248	0.997562	3.16026	0.82136	356.259
0.994669	2.5076	0.995756	2.50703	0.434146	138.871	0.866014	234.01	0.217073	55.3599	0.996251	3.1661	0.821438	248.805
0.992605	2.5087	0.99369	2.50812	0.434926	105.506	0.866007	184.383	0.217395	44.2118	0.994938	3.17197	0.821543	191.165
0.990546	2.50981	0.991629	2.50922	0.435861	85.1572	0.865998	152.122	0.217789	36.8313	0.993621	3.17786	0.821676	155.221
0.988493	2.51095	0.989573	2.51035	0.436927	71.4594	0.865988	129.468	0.218254	31.589	0.9923	3.18378	0.821835	130.666
0.986445	2.5121	0.987522	2.51149	0.4381	61.6143	0.865976	112.686	0.218789	27.6765	0.990976	3.18972	0.822023	112.828
0.984403	2.51327	0.985477	2.51265	0.43936	54.1993	0.865963	99.7553	0.219391	24.6473	0.989647	3.19569	0.822237	99.2841
0.982365	2.51447	0.983436	2.51384	0.440694	48.4151	0.865948	89.4862	0.220062	22.2346	0.988314	3.20168	0.822478	88.6512
0.980332	2.51568	0.981401	2.51504	0.442087	43.7778	0.865932	81.1335	0.220798	20.2692	0.986976	3.2077	0.822746	80.0827
0.978304	2.5169	0.97937	2.51626	0.443532	39.9778	0.865914	74.2067	0.221599	18.6385	0.985633	3.21374	0.82304	73.031
0.976281	2.51815	0.977345	2.51749	0.445019	36.8074	0.865895	68.3693	0.222464	17.2649	0.984285	3.2198	0.823361	67.1268
0.974262	2.51942	0.975323	2.51875	0.446543	34.1224	0.865874	63.383	0.22339	16.0928	0.982932	3.22589	0.823707	62.1114
0.972248	2.5207	0.973307	2.52002	0.448099	31.8195	0.865852	59.0742	0.224376	15.0817	0.981573	3.23199	0.82408	57.7985
0.970238	2.522	0.971295	2.52132	0.449682	29.8226	0.865829	55.3138	0.225421	14.2012	0.980209	3.23812	0.824477	54.0505
0.968232	2.52332	0.969287	2.52263	0.45129	28.0748	0.865804	52.0032	0.226522	13.428	0.978839	3.24427	0.8249	50.7636
0.966231	2.52466	0.967283	2.52395	0.452921	26.5322	0.865779	49.0663	0.227679	12.7441	0.977462	3.25043	0.825348	47.8577
0.964233	2.52602	0.965284	2.5253	0.45457	25.1608	0.865752	46.4432	0.228889	12.1353	0.976079	3.25662	0.825821	45.2706
0.962239	2.52739	0.963288	2.52666	0.456238	23.9336	0.865724	44.0861	0.230152	11.5902	0.974689	3.26283	0.826318	42.9526
0.960249	2.52878	0.961296	2.52804	0.457922	22.8291	0.865696	41.9565	0.231463	11.0995	0.973292	3.26905	0.826838	40.8639
0.958263	2.53018	0.959307	2.52944	0.459621	21.8299	0.865666	40.0231	0.232824	10.6558	0.971888	3.27529	0.827383	38.9724
0.956279	2.5316	0.957322	2.53085	0.461333	20.9215	0.865636	38.2598	0.234231	10.2528	0.970476	3.28155	0.82795	37.2514
0.954299	2.53304	0.955341	2.53228	0.463059	20.0922	0.865604	36.6452	0.235682	9.88534	0.969057	3.28782	0.828541	35.6791
0.952322	2.53449	0.953362	2.53372	0.464796	19.3321	0.865573	35.1612	0.237177	9.54911	0.967629	3.29411	0.829153	34.237
0.950348	2.53596	0.951386	2.53518	0.466544	18.6329	0.86554	33.7926	0.238514	9.27867	0.966194	3.30042	0.829788	32.9097
0.948376	2.53744	0.949413	2.53666	0.468303	17.9876	0.865507	32.5265	0.239677	9.06307	0.96475	3.30673	0.830445	31.6842
0.946407	2.53894	0.947442	2.53815	0.470071	17.3902	0.865474	31.3517	0.240656	8.89428	0.963297	3.31307	0.831122	30.5491
0.94444	2.54045	0.945474	2.53965	0.471849	16.8356	0.86544	30.2587	0.241439	8.76651	0.961835	3.31941	0.831821	29.495
0.942474	2.54197	0.943508	2.54117	0.473635	16.3194	0.865407	29.2393	0.242021	8.67558	0.960364	3.32576	0.83254	28.5134
0.940511	2.54351	0.941544	2.5427	0.47543	15.8377	0.865373	28.2863	0.242396	8.61868	0.958884	3.33213	0.833279	27.5973
0.938549	2.54506	0.939581	2.54424	0.477232	15.3872	0.865339	27.3933	0.242938	8.5386	0.957394	3.33851	0.834038	26.7404
0.936589	2.54662	0.93762	2.5458	0.479042	14.9649	0.865305	26.5549	0.243532	8.45378	0.955894	3.3449	0.834816	25.937
0.934629	2.5482	0.93566	2.54737	0.480859	14.5684	0.865271	25.7663	0.244347	8.34196	0.954384	3.35129	0.835612	25.1825
0.93267	2.54978	0.933701	2.54894	0.482682	14.1953	0.865238	25.0231	0.245389	8.20613	0.952863	3.3577	0.836427	24.4725
0.930712	2.55137	0.931742	2.55053	0.484512	13.8436	0.865205	24.3216	0.246666	8.04966	0.951332	3.36411	0.83726	23.8032
0.928754	2.55298	0.929784	2.55213	0.486347	13.5115	0.865172	23.6583	0.248187	7.8762	0.94979	3.37052	0.838111	23.1712
0.926796	2.55459	0.927826	2.55374	0.488189	13.1975	0.865141	23.0302	0.249961	7.68946	0.948236	3.37695	0.838978	22.5736
0.924838	2.55621	0.925868	2.55536	0.490036	12.9001	0.86511	22.4345	0.251766	7.51472	0.946672	3.38338	0.839863	22.0076
0.922879	2.55784	0.92391	2.55698	0.491888	12.618	0.86508	21.8689	0.253599	7.35091	0.945096	3.38981	0.840763	21.4708
0.920919	2.55947	0.921951	2.55861	0.493745	12.3501	0.865051	21.331	0.25546	7.19706	0.943508	3.39625	0.841679	20.9611
0.918958	2.56111	0.91999	2.56025	0.495606	12.0953	0.865023	20.819	0.257347	7.05233	0.941909	3.40269	0.842611	20.4764
0.916996	2.56275	0.918028	2.56189	0.497472	11.8527	0.864997	20.331	0.259259	6.91595	0.940297	3.40914	0.843558	20.0149
0.915031	2.5644	0.916065	2.56353	0.499342	11.6215	0.864972	19.8654	0.261195	6.78725	0.938673	3.41559	0.844519	19.5751
0.913064	2.56605	0.914099	2.56518	0.501217	11.4008	0.864948	19.4206	0.263153	6.66562	0.937037	3.42203	0.845494	19.1555
0.911095	2.56771	0.912132	2.56684	0.503094	11.19	0.864927	18.9953	0.265133	6.55052	0.935389	3.42848	0.846483	18.7547
0.909123	2.56936	0.910161	2.56849	0.504976	10.9884	0.864907	18.5882	0.267134	6.44144	0.933727	3.43493	0.847486	18.3715
0.907147	2.57101	0.908187	2.57014	0.50686	10.7954	0.864889	18.1983	0.269154	6.33793	0.932053	3.44138	0.848501	18.0047
0.905168	2.57267	0.90621	2.5718	0.508748	10.6106	0.864873	17.8244	0.271193	6.2396	0.930366	3.44783	0.849529	17.6534
0.903185	2.57432	0.904229	2.57345	0.510639	10.4333	0.86486	17.4656	0.27325	6.14607	0.928665	3.45428	0.850569	17.3166
0.901197	2.57597	0.902244	2.5751	0.512532	10.2631	0.864849	17.121	0.275324	6.05702	0.926952	3.46073	0.85162	16.9934
0.899205	2.57761	0.900254	2.57675	0.514428	10.0996	0.864841	16.7898	0.277413	5.97212	0.925225	3.46718	0.852684	16.6831
0.897207	2.57925	0.898259	2.57839	0.516326	9.94245	0.864836	16.4712	0.279517	5.8911	0.923485	3.47362	0.853758	16.3848
0.895204	2.58088	0.896259	2.58002	0.518226	9.79124	0.864833	16.1645	0.281636	5.81372	0.921732	3.48007	0.854842	16.0979
0.893195	2.5825	0.894253	2.58165	0.520128	9.64566	0.864834	15.8691	0.283768	5.73972	0.919965	3.48651	0.855937	15.8217
0.89118	2.58412	0.892241	2.58327	0.521786	9.52314	0.864837	15.5843	0.285913	5.66889	0.918184	3.49294	0.857041	15.5558
0.889158	2.58572	0.890223	2.58488	0.523201	9.42173	0.864845	15.3097	0.28807	5.60105	0.91639	3.49938	0.858155	15.2994
0.887129	2.58732	0.888198	2.58648	0.524372	9.3399	0.864856	15.0446	0.290238	5.536	0.914583	3.50581	0.859278	15.0521
0.885093	2.5889	0.886165	2.58807	0.525298	9.27646	0.86487	14.7886	0.292417	5.47357	0.912762	3.51224	0.86041	14.8135
0.883049	2.59047	0.884125	2.58964	0.525979	9.2305	0.864889	14.5413	0.294606	5.41361	0.910927	3.51867	0.86155	14.5831
0.880997	2.59202	0.882078	2.59121	0.526415	9.20139	0.864912	14.3022	0.296804	5.35597	0.90908	3.52509	0.862698	14.3604
0.878937	2.59356	0.880022	2.59275	0.527041	9.15995	0.864939	14.0709	0.299011	5.30053	0.907218	3.53151	0.863854	14.1451
0.876868	2.59508	0.877957	2.59428	0.527723	9.11543	0.86497	13.847	0.301226	5.24714	0.905343	3.53793	0.865017	13.9368
0.87479	2.59659	0.875884	2.5958	0.52865	9.05577	0.865006	13.6303	0.303448	5.19571	0.903455	3.54435	0.866187	13.7353
0.872702	2.59807	0.873802	2.59729	0.529822	8.98172	0.865047	13.4203	0.305678	5.14612	0.901554	3.55076	0.867363	13.5401
0.870606	2.59954	0.87171	2.59877	0.53124	8.8942	0.865093	13.2168	0.307914	5.09827	0.899639	3.55718	0.868546	13.3509
0.868499	2.60098	0.869609	2.60023	0.532905	8.79426	0.865145	13.0194	0.310155	5.05207	0.897712	3.56359	0.869734	13.1676
0.866383	2.60241	0.867498	2.60166	0.534814	8.68306	0.865201	12.828	0.312402	5.00743	0.895771	3.57	0.870929	12.9898
0.864257	2.60381	0.865377	2.60308	0.536725	8.5754	0.865263	12.6422	0.314654	4.96428	0.893818	3.57642	0.872128	12.8173
0.86212	2.60519	0.863246	2.60447	0.538635	8.47111	0.865331	12.4619	0.316911	4.92252	0.891852	3.58283	0.873332	12.6498
0.859973	2.60655	0.861104	2.60584	0.540545	8.37004	0.865405	12.2867	0.319171	4.88209	0.889874	3.58924	0.874541	12.4872
0.857816	2.60788	0.858952	2.60718	0.542455	8.27204	0.865485	12.1165	0.321434	4.84293	0.887883	3.59566	0.875754	12.3292
0.855648	2.60919	0.85679	2.60851	0.544364	8.17696	0.865571	11.951	0.323701	4.80497	0.885881	3.60208	0.876971	12.1756
0.853469	2.61048	0.854617	2.60981	0.546273	8.08467	0.865664	11.7902	0.32597	4.76816	0.883866	3.6085	0.878191	12.0262
0.85128	2.61174	0.852433	2.61108	0.548181	7.99505	0.865764	11.6337	0.328241	4.73243	0.88184	3.61493	0.879415	11.8809
0.84908	2.61297	0.850239	2.61233	0.550088	7.90799	0.86587	11.4815	0.330513	4.69774	0.879802	3.62136	0.880642	11.7395
0.846869	2.61418	0.848034	2.61355	0.551993	7.82336	0.865984	11.3333	0.332787	4.66403	0.877752	3.6278	0.881872	11.6019
0.844648	2.61537	0.845818	2.61475	0.553898	7.74107	0.866105	11.189	0.335062	4.63126	0.875692	3.63424	0.883103	11.4678
0.842417	2.61653	0.843592	2.61592	0.5558	7.66102	0.866234	11.0485	0.337337	4.59938	0.873621	3.6407	0.884337	11.3372
0.840174	2.61766	0.841355	2.61707	0.557701	7.58311	0.86637	10.9117	0.339612	4.56836	0.871539	3.64716	0.885573	11.2099
0.837922	2.61877	0.839108	2.61819	0.5596	7.50726	0.866514	10.7783	0.341887	4.53816	0.869447	3.65363	0.88681	11.0858
0.835659	2.61985	0.836851	2.61929	0.561497	7.43338	0.866666	10.6482	0.344161	4.50873	0.867345	3.66012	0.888048	10.9647
0.833386	2.62091	0.834583	2.62036	0.563391	7.36139	0.866827	10.5215	0.346433	4.48004	0.865233	3.66662	0.889288	10.8466
0.831103	2.62195	0.832306	2.62141	0.565283	7.29122	0.866996	10.3978	0.348704	4.45207	0.863111	3.67313	0.890527	10.7314
0.828811	2.62296	0.830018	2.62243	0.567172	7.2228	0.867174	10.2772	0.350973	4.42477	0.860981	3.67966	0.891768	10.6189
0.826509	2.62394	0.827721	2.62343	0.569059	7.15605	0.867337	10.1744	0.35324	4.39812	0.858841	3.68621	0.893008	10.509
0.824197	2.6249	0.825415	2.6244	0.570942	7.09092	0.867481	10.0886	0.355505	4.3721	0.856693	3.69277	0.894248	10.4017
0.821877	2.62584	0.823099	2.62535	0.572822	7.02734	0.867604	10.0187	0.357766	4.34666	0.854536	3.69936	0.895487	10.2968
0.819547	2.62676	0.820774	2.62628	0.574699	6.96525	0.867703	9.96419	0.360024	4.3218	0.852371	3.70597	0.896566	10.2073
0.817209	2.62765	0.81844	2.62718	0.576572	6.9046	0.867778	9.92451	0.362278	4.29747	0.850199	3.7126	0.897486	10.1324
0.814861	2.62852	0.816097	2.62807	0.578441	6.84534	0.867826	9.89929	0.364528	4.27367	0.848019	3.71926	0.898246	10.0715
0.812506	2.62937	0.813746	2.62893	0.580306	6.78741	0.867897	9.86327	0.366774	4.25037	0.845832	3.72594	0.898846	10.0238
0.810143	2.6302	0.811387	2.62977	0.582167	6.73077	0.867975	9.82444	0.369015	4.22754	0.843638	3.73266	0.899287	9.98911
0.807771	2.63101	0.80902	2.63059	0.584024	6.67536	0.868083	9.77215	0.371251	4.20517	0.841438	3.7394	0.89957	9.96704
0.805392	2.6318	0.806645	2.63139	0.585876	6.62116	0.868223	9.70687	0.373481	4.18324	0.839232	3.74618	0.899975	9.93551
0.803006	2.63257	0.804262	2.63217	0.587724	6.5681	0.868397	9.62916	0.375706	4.16174	0.837019	3.75299	0.900416	9.90149
0.800612	2.63332	0.801872	2.63293	0.589567	6.51616	0.868608	9.53969	0.377925	4.14063	0.834802	3.75984	0.901015	9.85565
0.798212	2.63406	0.799475	2.63367	0.591404	6.4653	0.868861	9.43921	0.380138	4.11991	0.832579	3.76672	0.901772	9.79835
0.795804	2.63477	0.797072	2.6344	0.593237	6.41548	0.869124	9.34099	0.382343	4.09956	0.830351	3.77365	0.902686	9.73006
0.79339	2.63547	0.794661	2.6351	0.595063	6.36666	0.869397	9.24496	0.384542	4.07957	0.828119	3.78062	0.903757	9.65131
0.79097	2.63615	0.792244	2.6358	0.596885	6.3188	0.869682	9.15107	0.386734	4.05992	0.825883	3.78763	0.904983	9.56269
0.788544	2.63682	0.789821	2.63647	0.5987	6.27189	0.869978	9.05923	0.388917	4.04059	0.823643	3.79469	0.906207	9.47589
0.786111	2.63747	0.787392	2.63713	0.600509	6.22588	0.870285	8.96941	0.391093	4.02158	0.821399	3.8018	0.907428	9.39084
0.783673	2.63811	0.784957	2.63777	0.602313	6.18075	0.870604	8.88152	0.393261	4.00288	0.819153	3.80896	0.908645	9.3075
0.78123	2.63873	0.782516	2.6384	0.60411	6.13647	0.870935	8.79552	0.39542	3.98446	0.816904	3.81618	0.909859	9.22581
0.778781	2.63934	0.78007	2.63902	0.6059	6.09301	0.871277	8.71136	0.397571	3.96632	0.814652	3.82345	0.911069	9.14571
0.776327	2.63993	0.777619	2.63962	0.607684	6.05035	0.871632	8.62897	0.399712	3.94845	0.812398	3.83078	0.912275	9.06716
0.773868	2.64051	0.775163	2.64021	0.60946	6.00845	0.871999	8.54832	0.401844	3.93083	0.810143	3.83817	0.913477	8.99011
0.771405	2.64108	0.772701	2.64079	0.61123	5.96731	0.872379	8.46935	0.403966	3.91346	0.807886	3.84563	0.914675	8.91451
0.768937	2.64164	0.770236	2.64135	0.612993	5.92688	0.872772	8.39201	0.406078	3.89633	0.805628	3.85315	0.915868	8.84032
0.766464	2.64219	0.767765	2.6419	0.614748	5.88715	0.873178	8.31627	0.40818	3.87942	0.80337	3.86074	0.917056	8.7675
0.763987	2.64272	0.765291	2.64244	0.616495	5.84811	0.873597	8.24207	0.410272	3.86274	0.801111	3.8684	0.918239	8.69601
0.761506	2.64325	0.762812	2.64297	0.618235	5.80972	0.874029	8.16938	0.412353	3.84626	0.798853	3.87614	0.919417	8.6258
0.759021	2.64376	0.760329	2.64349	0.619967	5.77197	0.874475	8.09815	0.414423	3.82998	0.796595	3.88395	0.92059	8.55684
0.756532	2.64427	0.757842	2.644	0.62169	5.73483	0.874934	8.02836	0.416481	3.8139	0.794338	3.89185	0.921756	8.48909
0.754039	2.64476	0.755351	2.6445	0.623406	5.6983	0.875408	7.95995	0.418528	3.79801	0.792082	3.89983	0.922918	8.42253
0.751543	2.64525	0.752857	2.64499	0.625113	5.66235	0.875896	7.89291	0.420564	3.78229	0.789827	3.90789	0.924073	8.35711
0.749044	2.64573	0.750359	2.64548	0.626811	5.62697	0.876398	7.82718	0.422588	3.76675	0.787575	3.91604	0.925222	8.2928
0.746541	2.6462	0.747858	2.64595	0.628501	5.59214	0.876914	7.76273	0.424599	3.75138	0.785324	3.92429	0.926365	8.22958
0.744035	2.64666	0.745354	2.64642	0.630182	5.55784	0.877445	7.69955	0.426598	3.73616	0.783077	3.93263	0.927502	8.16741
0.741526	2.64711	0.742847	2.64687	0.631854	5.52406	0.877991	7.63759	0.428585	3.7211	0.780832	3.94107	0.928632	8.10626
0.739015	2.64756	0.740336	2.64732	0.633516	5.49078	0.878552	7.57682	0.430559	3.70619	0.778591	3.94961	0.929755	8.04611
0.7365	2.648	0.737823	2.64777	0.63517	5.458	0.879128	7.51721	0.43252	3.69142	0.776353	3.95826	0.930872	7.98693
0.733982	2.64843	0.735307	2.6482	0.636814	5.42569	0.879719	7.45874	0.434469	3.67679	0.77412	3.96702	0.931982	7.92869
0.731462	2.64886	0.732788	2.64863	0.638448	5.39384	0.880326	7.40138	0.436404	3.6623	0.771891	3.9759	0.933084	7.87137
0.72894	2.64928	0.730267	2.64906	0.640073	5.36244	0.880948	7.3451	0.438325	3.64793	0.769667	3.98489	0.93418	7.81495
0.726415	2.64969	0.727744	2.64948	0.641688	5.33148	0.881586	7.28988	0.440233	3.63369	0.767449	3.994	0.935268	7.7594
0.723888	2.6501	0.725217	2.64989	0.643292	5.30095	0.88224	7.2357	0.442128	3.61958	0.765236	4.00323	0.936349	7.7047
0.721358	2.65051	0.722689	2.6503	0.644887	5.27083	0.882909	7.18252	0.444009	3.60557	0.763029	4.01259	0.937423	7.65083
0.718827	2.65091	0.720159	2.6507	0.646472	5.24111	0.883595	7.13032	0.445876	3.59169	0.760829	4.02209	0.938489	7.59777
0.716293	2.6513	0.717626	2.6511	0.648046	5.21179	0.884297	7.07909	0.44773	3.57791	0.758635	4.03172	0.939547	7.5455
0.713757	2.65169	0.715091	2.65149	0.64961	5.18285	0.885015	7.02879	0.449569	3.56424	0.756449	4.0415	0.940598	7.49399
0.711219	2.65208	0.712555	2.65188	0.651164	5.15429	0.88575	6.97942	0.451395	3.55068	0.754271	4.05142	0.941642	7.44324
0.70868	2.65246	0.710016	2.65226	0.652707	5.12609	0.886501	6.93094	0.453207	3.53721	0.7521	4.06149	0.942677	7.39322
0.706139	2.65284	0.707476	2.65264	0.654239	5.09824	0.887269	6.88334	0.455004	3.52385	0.749938	4.07171	0.943705	7.34391
0.703596	2.65321	0.704934	2.65302	0.655761	5.07074	0.888054	6.8366	0.456788	3.51058	0.747785	4.0821	0.944725	7.2953
0.701052	2.65359	0.70239	2.65339	0.657272	5.04358	0.888855	6.7907	0.458557	3.49741	0.745641	4.09265	0.945738	7.24738
0.698506	2.65395	0.699845	2.65376	0.658772	5.01675	0.889673	6.74562	0.460313	3.48433	0.743507	4.10337	0.946742	7.20012
0.695958	2.65432	0.697298	2.65413	0.660261	4.99024	0.890508	6.70134	0.462055	3.47135	0.741383	4.11426	0.947739	7.15351
0.693409	2.65468	0.69475	2.65449	0.661739	4.96404	0.891359	6.65785	0.463783	3.45845	0.739269	4.12533	0.948728	7.10755
0.690859	2.65504	0.692201	2.65485	0.663206	4.93815	0.892228	6.61512	0.465497	3.44564	0.737166	4.13659	0.94971	7.0622
0.688307	2.6554	0.68965	2.65521	0.664663	4.91256	0.893114	6.57315	0.467197	3.43291	0.735075	4.14804	0.950684	7.01747
0.685754	2.65576	0.687097	2.65557	0.666108	4.88726	0.894017	6.53191	0.468884	3.42028	0.732995	4.15968	0.95165	6.97333
0.6832	2.65611	0.684544	2.65593	0.667542	4.86225	0.894936	6.49139	0.470557	3.40772	0.730928	4.17153	0.952608	6.92978
0.680645	2.65646	0.681989	2.65628	0.668965	4.83752	0.895873	6.45157	0.472217	3.39525	0.728873	4.18358	0.953559	6.8868
0.678089	2.65682	0.679434	2.65663	0.670377	4.81306	0.896827	6.41245	0.473863	3.38286	0.726831	4.19585	0.954503	6.84438
0.675531	2.65717	0.676877	2.65698	0.671778	4.78888	0.897798	6.37399	0.475497	3.37056	0.724803	4.20834	0.955439	6.8025
0.672973	2.65751	0.674319	2.65733	0.673168	4.76495	0.898786	6.3362	0.477117	3.35834	0.722788	4.22105	0.956368	6.76117
0.670414	2.65786	0.67176	2.65768	0.674546	4.74128	0.89979	6.29906	0.478725	3.34619	0.720788	4.234	0.95729	6.72036
0.667853	2.65821	0.6692	2.65803	0.675914	4.71787	0.900812	6.26254	0.480321	3.33413	0.718802	4.24718	0.958204	6.68008
0.665292	2.65855	0.66664	2.65837	0.677271	4.6947	0.901851	6.22665	0.481903	3.32215	0.716832	4.26062	0.959112	6.64029
0.662731	2.6589	0.664078	2.65872	0.678617	4.67177	0.902907	6.19136	0.483474	3.31025	0.714877	4.2743	0.960012	6.60101
0.660168	2.65925	0.661516	2.65906	0.679952	4.64909	0.903979	6.15666	0.485033	3.29843	0.712938	4.28825	0.960906	6.56221
0.657605	2.65959	0.658953	2.65941	0.681276	4.62663	0.905068	6.12255	0.48658	3.28669	0.711016	4.30246	0.961793	6.5239
0.655041	2.65994	0.65639	2.65975	0.682589	4.60441	0.906174	6.089	0.488116	3.27503	0.709111	4.31695	0.962674	6.48605
0.652476	2.66028	0.653825	2.6601	0.683892	4.5824	0.907297	6.05601	0.489641	3.26345	0.707222	4.33172	0.963548	6.44866
0.649911	2.66063	0.651261	2.66045	0.685184	4.56062	0.908435	6.02357	0.491155	3.25195	0.705352	4.34678	0.964416	6.41173
0.647345	2.66097	0.648695	2.66079	0.686465	4.53906	0.909591	5.99166	0.492658	3.24053	0.703499	4.36214	0.965278	6.37525
0.644779	2.66132	0.646129	2.66114	0.687736	4.51771	0.910762	5.96027	0.494151	3.2292	0.701665	4.3778	0.966134	6.3392
0.642212	2.66167	0.643563	2.66149	0.688997	4.49657	0.91195	5.92939	0.495634	3.21794	0.69985	4.39378	0.966984	6.30358
0.639645	2.66202	0.640996	2.66184	0.690247	4.47564	0.913154	5.89902	0.497107	3.20677	0.698054	4.41009	0.967829	6.26839
0.637078	2.66237	0.638429	2.66219	0.691487	4.45491	0.914373	5.86913	0.498571	3.19568	0.696278	4.42672	0.968669	6.23361
0.63451	2.66272	0.635861	2.66254	0.692718	4.43438	0.915609	5.83973	0.500025	3.18467	0.694522	4.4437	0.969503	6.19925
0.631942	2.66308	0.633293	2.66289	0.693938	4.41405	0.91686	5.81079	0.501471	3.17375	0.692787	4.46102	0.970332	6.16528
0.629373	2.66343	0.630724	2.66324	0.695149	4.39391	0.918126	5.78232	0.502908	3.16291	0.691072	4.47871	0.971156	6.13172
0.626804	2.66379	0.628156	2.6636	0.69635	4.37397	0.919408	5.7543	0.504338	3.15215	0.689379	4.49676	0.971976	6.09854
0.624236	2.66415	0.625587	2.66396	0.697541	4.35421	0.920705	5.72671	0.505759	3.14148	0.687707	4.51519	0.972791	6.06575
0.621667	2.66451	0.623018	2.66432	0.698723	4.33464	0.922017	5.69956	0.507173	3.13089	0.686058	4.53401	0.973602	6.03333
0.619097	2.66488	0.620449	2.66468	0.699896	4.31525	0.923344	5.67284	0.508579	3.12038	0.68443	4.55323	0.974409	6.00129
0.616528	2.66524	0.61788	2.66505	0.70106	4.29605	0.924685	5.64653	0.509979	3.10997	0.682826	4.57285	0.975213	5.96962
0.613959	2.66561	0.61531	2.66542	0.702215	4.27702	0.926041	5.62062	0.511372	3.09964	0.681244	4.59289	0.976012	5.93831
0.611389	2.66599	0.612741	2.66579	0.703362	4.25817	0.927411	5.59511	0.51276	3.08939	0.679685	4.61337	0.976809	5.90736
0.60882	2.66636	0.610172	2.66617	0.7045	4.2395	0.928794	5.56999	0.514141	3.07924	0.67815	4.63428	0.977602	5.87675
0.606251	2.66675	0.607603	2.66654	0.705629	4.22099	0.930192	5.54525	0.515516	3.06917	0.676639	4.65564	0.978392	5.8465
0.603682	2.66713	0.605033	2.66693	0.706751	4.20266	0.931603	5.52088	0.516887	3.05919	0.675153	4.67747	0.97918	5.81659
0.601113	2.66752	0.602464	2.66731	0.707864	4.1845	0.933028	5.49687	0.518253	3.04929	0.67369	4.69976	0.979965	5.78701
0.598544	2.66791	0.599895	2.6677	0.70897	4.1665	0.934466	5.47323	0.519614	3.03949	0.672252	4.72255	0.980748	5.75777
0.595975	2.66831	0.597327	2.6681	0.710068	4.14867	0.935916	5.44993	0.520971	3.02977	0.67084	4.74583	0.981529	5.72886
0.593407	2.66871	0.594758	2.6685	0.711159	4.13101	0.937379	5.42697	0.522324	3.02015	0.669452	4.76962	0.982309	5.70027
0.590839	2.66912	0.59219	2.6689	0.712242	4.1135	0.938855	5.40435	0.523673	3.01061	0.66809	4.79394	0.983087	5.672
0.588271	2.66953	0.589622	2.66931	0.713319	4.09616	0.940343	5.38206	0.525019	3.00117	0.666753	4.81878	0.983863	5.64405
0.585704	2.66995	0.587055	2.66973	0.714389	4.07897	0.941843	5.36009	0.526362	2.99181	0.665442	4.84418	0.984639	5.61641
0.583137	2.67037	0.584488	2.67015	0.715452	4.06194	0.943354	5.33843	0.527703	2.98254	0.664157	4.87014	0.985414	5.58907
0.580571	2.6708	0.581921	2.67057	0.716509	4.04506	0.944877	5.31708	0.529041	2.97337	0.662898	4.89667	0.986189	5.56204
0.578005	2.67124	0.579355	2.67101	0.717559	4.02834	0.946412	5.29603	0.530377	2.96428	0.661665	4.92379	0.986963	5.53532
0.57544	2.67168	0.576789	2.67145	0.718604	4.01177	0.947957	5.27527	0.531711	2.95529	0.660459	4.95151	0.987738	5.50889
0.572875	2.67213	0.574224	2.67189	0.719643	3.99536	0.949512	5.2548	0.533044	2.94639	0.659279	4.97985	0.988513	5.48275
0.570311	2.67259	0.57166	2.67234	0.720676	3.97909	0.951079	5.23462	0.534376	2.93758	0.658125	5.00882	0.989288	5.45691
0.567748	2.67305	0.569096	2.6728	0.721704	3.96297	0.952655	5.21471	0.535707	2.92885	0.656998	5.03843	0.990064	5.43135
0.565185	2.67352	0.566533	2.67327	0.722727	3.947	0.954241	5.19507	0.537037	2.92022	0.655897	5.06871	0.990841	5.40607
0.562624	2.674	0.563971	2.67375	0.723744	3.93118	0.955837	5.17569	0.538367	2.91169	0.654823	5.09967	0.99162	5.38108
0.560063	2.67449	0.56141	2.67423	0.724758	3.9155	0.957443	5.15657	0.539697	2.90324	0.653776	5.13131	0.9924	5.35636
0.557503	2.67499	0.558849	2.67473	0.725766	3.89996	0.959057	5.13771	0.541027	2.89488	0.652756	5.16367	0.993182	5.33192
0.554944	2.6755	0.55629	2.67523	0.726771	3.88456	0.96068	5.11909	0.542357	2.88662	0.651762	5.19675	0.993967	5.30775
0.552386	2.67602	0.553731	2.67574	0.727771	3.86931	0.962312	5.10071	0.543688	2.87844	0.650794	5.23058	0.994753	5.28385
0.549829	2.67655	0.551174	2.67627	0.728767	3.8542	0.963953	5.08257	0.54502	2.87036	0.649853	5.26517	0.995543	5.26021
0.547273	2.67709	0.548618	2.6768	0.72976	3.83923	0.965601	5.06467	0.546353	2.86236	0.648939	5.30053	0.996335	5.23684
0.544719	2.67764	0.546063	2.67735	0.730749	3.82439	0.967257	5.04698	0.547687	2.85446	0.648051	5.3367	0.997131	5.21372
0.542166	2.6782	0.543509	2.6779	0.731735	3.80969	0.96892	5.02953	0.549024	2.84665	0.64719	5.37368	0.99793	5.19087
0.539614	2.67877	0.540957	2.67847	0.732718	3.79513	0.970591	5.01228	0.550362	2.83892	0.646354	5.4115	0.998733	5.16827
0.537064	2.67936	0.538406	2.67905	0.733698	3.7807	0.972269	4.99525	0.551702	2.83129	0.645545	5.45017	0.99954	5.14592
0.534515	2.67996	0.535856	2.67965	0.734676	3.76641	0.973953	4.97843	0.553044	2.82374	0.644762	5.48972	1.00035	5.12382
0.531968	2.68058	0.533308	2.68025	0.735651	3.75225	0.975644	4.96181	0.554389	2.81629	0.644004	5.53017		
0.529423	2.68121	0.530762	2.68088	0.736623	3.73822	0.977341	4.94539	0.555737	2.80892	0.643272	5.57154		
0.526879	2.68186	0.528217	2.68152	0.737594	3.72432	0.979044	4.92917	0.557087	2.80164	0.642566	5.61385		
0.524338	2.68252	0.525675	2.68217	0.738563	3.71055	0.980753	4.91313	0.558441	2.79445	0.641885	5.65713		
0.521798	2.6832	0.523134	2.68284	0.73953	3.69691	0.982466	4.89728	0.559798	2.78735	0.641229	5.7014		
0.51926	2.6839	0.520595	2.68353	0.740496	3.6834	0.984185	4.88161	0.561158	2.78034	0.640598	5.74668		
0.516725	2.68461	0.518058	2.68423	0.74146	3.67001	0.985909	4.86612	0.562522	2.77341	0.639992	5.793		
0.514192	2.68535	0.515524	2.68496	0.742424	3.65675	0.987637	4.85081	0.56389	2.76657	0.63941	5.84039		
0.511661	2.6861	0.512992	2.6857	0.743386	3.64362	0.98937	4.83566	0.565263	2.75981	0.638853	5.88888		
0.509133	2.68688	0.510463	2.68647	0.744348	3.63061	0.991107	4.82068	0.566639	2.75315	0.63832	5.93848		
0.506607	2.68768	0.507936	2.68726	0.745309	3.61772	0.992847	4.80586	0.56802	2.74656	0.63781	5.98924		
0.504085	2.6885	0.505411	2.68807	0.74627	3.60496	0.994591	4.79121	0.569405	2.74007	0.637324	6.04118		
0.501565	2.68935	0.50289	2.6889	0.747231	3.59231	0.996338	4.7767	0.570795	2.73365	0.636861	6.09433		
0.499048	2.69022	0.500372	2.68976	0.748192	3.57979	0.998089	4.76235	0.572191	2.72732	0.636421	6.14873		
0.496535	2.69112	0.497857	2.69065	0.749153	3.56739	0.999842	4.74815	0.573591	2.72108	0.636004	6.2044		
0.494025	2.69205	0.495345	2.69156	0.750114	3.5551	1.0016	4.7341	0.574996	2.71492	0.635609	6.26139		
0.491519	2.69301	0.492837	2.6925	0.751076	3.54294			0.576407	2.70884	0.635237	6.31973		
0.489016	2.694	0.490332	2.69348	0.752038	3.53089			0.577824	2.70285	0.634886	6.37945		
0.486518	2.69503	0.487832	2.69448	0.753002	3.51895			0.579246	2.69694	0.634557	6.4406		
0.484023	2.69608	0.485335	2.69552	0.753966	3.50714			0.580674	2.69111	0.634249	6.50322		
0.481533	2.69718	0.482843	2.6966	0.754932	3.49543			0.582109	2.68536	0.633962	6.56735		
0.479048	2.69831	0.480355	2.69771	0.755899	3.48384			0.583549	2.67969	0.633696	6.63303		
0.476568	2.69949	0.477872	2.69886	0.756867	3.47237			0.584996	2.6741	0.63345	6.70032		
0.474093	2.7007	0.475394	2.70006	0.757837	3.461			0.58645	2.6686	0.633224	6.76924		
0.471623	2.70197	0.472922	2.7013	0.758809	3.44975			0.58791	2.66317	0.633018	6.83987		
0.469159	2.70327	0.470455	2.70258	0.759782	3.4386			0.589378	2.65783	0.632832	6.91224		
0.466701	2.70463	0.467993	2.70391	0.760758	3.42757			0.590852	2.65256	0.632664	6.98642		
0.464249	2.70605	0.465538	2.7053	0.761736	3.41664			0.592334	2.64738	0.632515	7.06245		
0.461805	2.70752	0.46309	2.70674	0.762716	3.40582			0.593823	2.64227	0.632384	7.14041		
0.459367	2.70904	0.460648	2.70823	0.763699	3.39511			0.59532	2.63724	0.632272	7.22034		
0.456937	2.71063	0.458214	2.70979	0.764685	3.38451			0.596825	2.6323	0.632177	7.30232		
0.454514	2.71229	0.455788	2.71141	0.765673	3.37401			0.598338	2.62743	0.6321	7.38641		
0.4521	2.71402	0.453369	2.7131	0.766664	3.36361			0.599859	2.62264	0.63204	7.47268		
0.449695	2.71582	0.45096	2.71486	0.767658	3.35332			0.601389	2.61792	0.631996	7.5612		
0.4473	2.71769	0.448559	2.7167	0.768656	3.34313			0.602927	2.61329	0.631969	7.65207		
0.444913	2.71966	0.446167	2.71861	0.769656	3.33304			0.604475	2.60874	0.631958	7.74534		
0.442538	2.72171	0.443786	2.72062	0.770661	3.32306			0.606031	2.60426	0.631963	7.84112		
0.440173	2.72385	0.441416	2.72271	0.771668	3.31318			0.607598	2.59986	0.631983	7.93949		
0.43782	2.72609	0.439057	2.7249	0.772679	3.30339			0.609174	2.59554	0.632018	8.04054		
0.43548	2.72844	0.43671	2.72719	0.773695	3.2937			0.61076	2.59131	0.632068	8.14437		
0.433152	2.73089	0.434375	2.72959	0.774714	3.28412			0.612357	2.58715	0.632132	8.25109		
0.430838	2.73347	0.432053	2.7321	0.775737	3.27463			0.613965	2.58307	0.63221	8.36081		
0.428538	2.73617	0.429746	2.73473	0.776764	3.26524			0.615583	2.57907	0.632302	8.47364		
0.426254	2.739	0.427454	2.7375	0.777795	3.25594			0.617214	2.57516	0.632406	8.5897		
0.423986	2.74198	0.425177	2.7404	0.778831	3.24674			0.618856	2.57133	0.632524	8.70912		
0.421734	2.7451	0.422917	2.74344	0.779871	3.23763			0.620511	2.56758	0.632655	8.83204		
0.419501	2.74838	0.420674	2.74664	0.780916	3.22862			0.622179	2.56391	0.632797	8.95859		
0.417287	2.75183	0.418449	2.75	0.781966	3.2197			0.623861	2.56033	0.632931	9.07196		
0.415092	2.75546	0.416244	2.75353	0.78302	3.21087			0.625556	2.55684	0.633052	9.17096		
0.412918	2.75927	0.414059	2.75724	0.78408	3.20214			0.627266	2.55343	0.633157	9.25451		
0.410767	2.76329	0.411896	2.76115	0.785144	3.1935			0.628992	2.55012	0.633243	9.32168		
0.408638	2.76751	0.409755	2.76526	0.786214	3.18494			0.630733	2.54689	0.633307	9.3717		
0.406534	2.77196	0.407638	2.76959	0.787288	3.17648			0.632491	2.54376	0.633368	9.41821		
0.404454	2.77664	0.405545	2.77414	0.788368	3.16811			0.634267	2.54072	0.633411	9.45085		
0.402402	2.78156	0.403478	2.77894	0.789454	3.15982			0.636061	2.53778	0.633479	9.5023		
0.400377	2.78675	0.401438	2.78399	0.790545	3.15162			0.637874	2.53494	0.633574	9.57319		
0.39838	2.79221	0.399427	2.78931	0.791642	3.14351			0.639706	2.5322	0.633697	9.6644		
0.396413	2.79796	0.397444	2.7949	0.792744	3.13549			0.64156	2.52957	0.633852	9.77708		
0.394478	2.80401	0.395492	2.80079	0.793852	3.12755			0.643436	2.52704	0.634039	9.91269		
0.392574	2.81038	0.393571	2.80699	0.794967	3.1197			0.645334	2.52462	0.634263	10.073		
0.390703	2.81707	0.391683	2.81351	0.796087	3.11193			0.647256	2.52231	0.634496	10.2387		
0.388867	2.82411	0.389829	2.82036	0.797214	3.10425			0.649202	2.52011	0.634738	10.4099		
0.387065	2.83151	0.388008	2.82757	0.798346	3.09665			0.651173	2.51803	0.634988	10.587		
0.385299	2.83928	0.386223	2.83514	0.799485	3.08913			0.653171	2.51606	0.635246	10.7701		
0.38357	2.84743	0.384475	2.84309	0.800631	3.0817			0.655195	2.51421	0.635511	10.9597		
0.381877	2.85599	0.382763	2.85144	0.801783	3.07435			0.657247	2.51248	0.635783	11.156		
0.380223	2.86496	0.381089	2.86019	0.802942	3.06708			0.659327	2.51087	0.636062	11.3594		
0.378607	2.87435	0.379453	2.86936	0.804107	3.05989			0.661434	2.50938	0.636347	11.5703		
0.37703	2.88419	0.377855	2.87896	0.80528	3.05278			0.66357	2.50801	0.636638	11.7891		
0.375493	2.89448	0.376297	2.88901	0.806459	3.04575			0.665735	2.50675	0.636934	12.0162		
0.373994	2.90524	0.374778	2.89952	0.807645	3.0388			0.667928	2.50561	0.637236	12.2521		
0.372535	2.91647	0.373298	2.9105	0.808839	3.03193			0.670148	2.50458	0.637542	12.4974		
0.371116	2.92819	0.371858	2.92196	0.81004	3.02514			0.672396	2.50367	0.637852	12.7524		
0.369737	2.94042	0.370457	2.93392	0.811248	3.01842			0.674671	2.50285	0.638166	13.0179		
0.368396	2.95315	0.369097	2.94639	0.812464	3.01178			0.676972	2.50214	0.638484	13.2945		
0.367096	2.96641	0.367775	2.95937	0.813687	3.00522			0.679298	2.50153	0.638804	13.5829		
0.365835	2.9802	0.366493	2.97288	0.814919	2.99874			0.681648	2.50101	0.639128	13.8838		
0.364612	2.99454	0.36525	2.98693	0.816158	2.99233			0.68402	2.50058	0.639453	14.1981		
0.363428	3.00944	0.364046	3.00153	0.817405	2.986			0.686415	2.50023	0.63978	14.5266		
0.362283	3.0249	0.362881	3.0167	0.81866	2.97974			0.688831	2.49996	0.640108	14.8704		
0.361175	3.04094	0.361753	3.03243	0.819923	2.97356			0.691265	2.49976	0.640437	15.2304		
0.360105	3.05758	0.360664	3.04875	0.821194	2.96745			0.693719	2.49963	0.640767	15.608		
0.359072	3.07481	0.359611	3.06567	0.822474	2.96142			0.696189	2.49956	0.641096	16.0043		
0.358076	3.09266	0.358596	3.08319	0.823763	2.95546			0.698676	2.49955	0.641425	16.4208		
0.357116	3.11113	0.357617	3.10133	0.82506	2.94957			0.701177	2.49959	0.641753	16.8591		
0.356192	3.13024	0.356674	3.12011	0.826366	2.94376			0.703693	2.49968	0.64208	17.3209		
0.355304	3.15	0.355767	3.13953	0.827681	2.93802			0.706221	2.49982	0.642405	17.8081		
0.35445	3.17043	0.354895	3.1596	0.829006	2.93235			0.708762	2.5	0.642728	18.323		
0.353631	3.19154	0.354057	3.18035	0.830339	2.92676			0.711314	2.50022	0.643048	18.8679		
0.352846	3.21334	0.353254	3.20178	0.831682	2.92123			0.713876	2.50047	0.643366	19.4454		
0.352094	3.23585	0.352485	3.22392	0.833034	2.91578			0.716448	2.50075	0.643679	20.0588		
0.351376	3.25908	0.35175	3.24677	0.834397	2.91041			0.719029	2.50107	0.643989	20.7113		
0.350691	3.28305	0.351047	3.27035	0.835769	2.9051			0.721619	2.50141	0.644294	21.4068		
0.350038	3.30779	0.350378	3.29468	0.837151	2.89986			0.724216	2.50177	0.644594	22.1498		
0.349418	3.3333	0.34974	3.31978	0.838543	2.8947			0.72682	2.50216	0.64489	22.9453		
0.348829	3.35961	0.349135	3.34567	0.839946	2.88961			0.729431	2.50257	0.645179	23.799		
0.348272	3.38673	0.348562	3.37236	0.841359	2.88458			0.732048	2.50299	0.645463	24.7176		
0.347746	3.41469	0.348019	3.39987	0.842783	2.87963			0.73467	2.50343	0.645739	25.7088		
0.347251	3.44351	0.347508	3.42824	0.844218	2.87475			0.737298	2.50389	0.646009	26.7815		
0.346787	3.47321	0.347028	3.45747	0.845664	2.86994			0.739931	2.50436	0.646272	27.9464		
0.346353	3.50381	0.346578	3.4876	0.847121	2.8652			0.742569	2.50484	0.646527	29.2157		
0.345949	3.53535	0.346158	3.51864	0.84859	2.86053			0.74521	2.50534	0.646774	30.6043		
0.345574	3.56784	0.345768	3.55062	0.85007	2.85593			0.747856	2.50584	0.647012	32.1299		
0.34523	3.60131	0.345407	3.58358	0.851563	2.85141			0.750505	2.50635	0.647241	33.8138		
0.344914	3.63579	0.345076	3.61753	0.853067	2.84695			0.753158	2.50687	0.647461	35.682		
0.344628	3.67132	0.344775	3.6525	0.854584	2.84256			0.755814	2.5074	0.647672	37.7667		
0.34437	3.70792	0.344502	3.68853	0.856114	2.83825			0.758473	2.50793	0.647872	40.1078		
0.344141	3.74562	0.344258	3.72565	0.857656	2.834			0.761135	2.50847	0.648063	42.756		
0.34394	3.78446	0.344042	3.76388	0.859212	2.82983			0.7638	2.50902	0.648242	45.7759		
0.343767	3.82448	0.343855	3.80328	0.86078	2.82573			0.766466	2.50957	0.648411	49.2519		
0.343623	3.8657	0.343695	3.84386	0.862363	2.82169			0.769135	2.51012	0.648569	53.2961		
0.343506	3.90818	0.343564	3.88567	0.863959	2.81773			0.771807	2.51068	0.648716	58.0602		
0.343416	3.95195	0.34346	3.92876	0.865568	2.81384			0.77448	2.51124	0.64885	63.7558		
0.343354	3.99705	0.343384	3.97315	0.867193	2.81002			0.777155	2.5118	0.648973	70.6858		
0.343319	4.04352	0.343334	4.0189	0.868831	2.80628			0.779832	2.51236	0.649084	79.3009		
0.343312	4.09143	0.343312	4.06605	0.870484	2.8026			0.78251	2.51293	0.649183	90.3016		
0.343331	4.14081	0.343317	4.11464	0.872153	2.799			0.78519	2.51349	0.649269	104.839		
0.343376	4.19171	0.343349	4.16474	0.873836	2.79546			0.787871	2.51406	0.649343	124.946		
0.343448	4.2442	0.343407	4.21638	0.875535	2.792			0.790554	2.51463	0.649404	154.584		
0.343547	4.29832	0.343492	4.26964	0.877249	2.78861			0.793237	2.5152	0.649452	202.64		
0.343671	4.35413	0.343602	4.32455	0.878979	2.78529			0.795922	2.51577	0.649487	294.028		
0.343821	4.41171	0.343739	4.3812	0.880725	2.78204			0.798608	2.51633	0.649509	535.497		
0.343997	4.47111	0.343902	4.43963	0.882488	2.77887			0.801295	2.5169	0.649519	2994.76		
0.344199	4.53241	0.34409	4.49992	0.884266	2.77576			0.803983	2.51747				
0.344426	4.59567	0.344304	4.56214	0.886061	2.77273			0.806672	2.51803				
0.344678	4.66098	0.344543	4.62636	0.887873	2.76977			0.809362	2.5186				
0.344919	4.71963	0.344807	4.69267	0.889702	2.76687			0.812052	2.51916				
0.345138	4.77094	0.345096	4.76115	0.891548	2.76405			0.814743	2.51973				
0.34533	4.81431	0.34541	4.83187	0.893411	2.7613			0.817435	2.52029				
0.345489	4.84922	0.345748	4.90495	0.895291	2.75862			0.820127	2.52085				
0.345609	4.87525	0.346111	4.98047	0.897188	2.75601			0.82282	2.52141				
0.345722	4.89947	0.346498	5.05854	0.899103	2.75346			0.825514	2.52196				
0.345803	4.91647	0.346909	5.13927	0.901034	2.75099			0.828208	2.52252				
0.345931	4.94329	0.347344	5.22278	0.902983	2.74858			0.830902	2.52307				
0.34611	4.98028	0.347802	5.30919	0.90495	2.74624			0.833597	2.52362				
0.346345	5.02793	0.348284	5.39863	0.906933	2.74396			0.836292	2.52417				
0.346641	5.08687	0.34879	5.49124	0.908933	2.74175			0.838987	2.52471				
0.347005	5.15791	0.349318	5.58717	0.910951	2.73961			0.841683	2.52525				
0.347445	5.24206	0.349869	5.68658	0.912985	2.73752			0.844379	2.5258				
0.347909	5.32914	0.350443	5.78964	0.915035	2.7355			0.847075	2.52633				
0.348397	5.41929	0.351039	5.89652	0.917102	2.73354			0.849772	2.52687				
0.348907	5.51263	0.351658	6.00741	0.919186	2.73164			0.852468	2.5274				
0.349441	5.60934	0.352299	6.12253	0.921285	2.7298			0.855165	2.52793				
0.349997	5.70956	0.352961	6.2421	0.9234	2.72802			0.857862	2.52846				
0.350576	5.81346	0.353645	6.36634	0.925531	2.72629			0.860559	2.52899				
0.351177	5.92123	0.354351	6.4955	0.927677	2.72462			0.863256	2.52951				
0.351801	6.03306	0.355077	6.62987	0.929837	2.723			0.865954	2.53003				
0.352446	6.14917	0.355825	6.76973	0.932013	2.72143			0.868651	2.53054				
0.353114	6.26977	0.356593	6.91539	0.934202	2.71991			0.871348	2.53106				
0.353803	6.3951	0.357382	7.0672	0.936405	2.71844			0.874046	2.53157				
0.354513	6.52542	0.358191	7.22552	0.938622	2.71702			0.876743	2.53208				
0.355245	6.661	0.359021	7.39074	0.940852	2.71565			0.87944	2.53258				
0.355997	6.80214	0.35987	7.5633	0.943095	2.71432			0.882138	2.53308				
0.35677	6.94917	0.360738	7.74365	0.945351	2.71303			0.884835	2.53358				
0.357563	7.10241	0.361626	7.93231	0.947618	2.71179			0.887532	2.53408				
0.358377	7.26225	0.362533	8.12982	0.949897	2.71059			0.890229	2.53457				
0.359211	7.4291	0.363339	8.30963	0.952188	2.70942			0.892926	2.53506				
0.360064	7.60337	0.364037	8.4689	0.95449	2.7083			0.895623	2.53555				
0.360937	7.78556	0.364621	8.60498	0.956802	2.70721			0.89832	2.53603				
0.361829	7.97617	0.365089	8.71552	0.959124	2.70615			0.901016	2.53651				
0.362741	8.17576	0.365435	8.7985	0.961457	2.70513			0.903713	2.53699				
0.363671	8.38496	0.365755	8.87616	0.963799	2.70414			0.906409	2.53746				
0.364619	8.60442	0.36598	8.93094	0.96615	2.70318			0.909105	2.53793				
0.365586	8.83489	0.366332	9.01781	0.96851	2.70226			0.911801	2.5384				
0.36657	9.07718	0.366814	9.13852	0.970879	2.70136			0.914497	2.53887				
0.367572	9.33216	0.36743	9.29557	0.973256	2.70049			0.917192	2.53933				
0.368592	9.60083	0.368184	9.49232	0.975641	2.69965			0.919887	2.53979				
0.369628	9.88426	0.369081	9.73324	0.978034	2.69883			0.922582	2.54024				
0.370681	10.1837	0.370125	10.0241	0.980434	2.69804			0.925277	2.54069				
0.371751	10.5004	0.371186	10.3315	0.982842	2.69727			0.927971	2.54114				
0.372837	10.8359	0.372264	10.6569	0.985256	2.69652			0.930665	2.54159				
0.373938	11.1919	0.373357	11.0019	0.987676	2.6958			0.933359	2.54203				
0.375055	11.5702	0.374465	11.3683	0.990104	2.6951			0.936052	2.54247				
0.376186	11.973	0.375589	11.7579	0.992537	2.69441			0.938745	2.5429				
0.377333	12.4027	0.376728	12.1731	0.994975	2.69375			0.941438	2.54333				
0.378493	12.8619	0.377881	12.6165	0.99742	2.69311			0.94413	2.54376				
0.379667	13.3538	0.379048	13.0907	0.99987	2.69248			0.946822	2.54419				
0.380854	13.8819	0.380228	13.5993	1.00233	2.69187			0.949514	2.54461				
0.382054	14.4502	0.381421	14.1459					0.952205	2.54503				
0.383266	15.0635	0.382627	14.7349					0.954896	2.54544				
0.384489	15.7272	0.383844	15.3714					0.957586	2.54586				
0.385723	16.4478	0.385072	16.0612					0.960276	2.54626				
0.386967	17.2328	0.386311	16.8113					0.962965	2.54667				
0.388219	18.091	0.387559	17.6297					0.965654	2.54707				
0.38948	19.0332	0.388816	18.5263					0.968343	2.54747				
0.390748	20.0721	0.39008	19.5126					0.971031	2.54787				
0.392021	21.2234	0.391351	20.6026					0.973718	2.54826				
0.393299	22.5062	0.392626	21.8136					0.976405	2.54865				
0.394579	23.9441	0.393905	23.1666					0.979091	2.54903				
0.395859	25.5671	0.395185	24.6881					0.981777	2.54941				
0.397136	27.4131	0.396465	26.4115					0.984462	2.54979				
0.398409	29.5313	0.39774	28.3795					0.987147	2.55016				
0.399672	31.9865	0.399009	30.6481					0.989831	2.55053				
0.400922	34.8658	0.400267	33.2917					0.992514	2.5509				
0.402153	38.2894	0.401508	36.4114					0.995197	2.55127				
0.403358	42.4276	0.402728	40.1484					0.997879	2.55163				
0.404527	47.5302	0.403917	44.7061					1.00056	2.55198				
0.40565	53.9793	0.405066	50.3881										
0.406713	62.3899	0.406162	57.6698										
0.407698	73.8199	0.407191	67.3391										
0.408584	90.2579	0.408132	80.8046										
0.409345	115.935	0.408962	100.858										
0.409954	161.73	0.409655	133.927										
0.410384	266.695	0.410182	198.85										
0.41061	756.534	0.410518	384.831										
		0.410642	5806.16										
