Sym0		Sym1		Sym2		Sym3		Asym1		Asym2		Asym3	
411  Points		411  Points		379  Points		222  Points		399  Points		335  Points		217  Points	
Freq (MHz)	Vph (m/ms)	Freq (MHz)	Vph (m/ms)	Freq (MHz)	Vph (m/ms)	Freq (MHz)	Vph (m/ms)	Freq (MHz)	Vph (m/ms)	Freq (MHz)	Vph (m/ms)	Freq (MHz)	Vph (m/ms)
1.0016	2.48227	1.00155	2.48229	0.433048	651.556	0.866025	28962.1	0.216539	228.345	1.00058	3.04991	0.795578	1121.83
0.999445	2.48305	0.999393	2.48307	0.433234	260.88	0.866024	844.139	0.216645	111.424	0.999346	3.05542	0.795618	466.582
0.997293	2.48385	0.997241	2.48387	0.433574	163.201	0.866019	428.309	0.216824	73.741	0.998108	3.06095	0.79569	294.566
0.995148	2.48467	0.995096	2.48469	0.43406	118.832	0.866011	286.951	0.217075	55.146	0.996869	3.06652	0.795795	215.239
0.993009	2.48551	0.992958	2.48553	0.434684	93.5059	0.865999	215.745	0.217398	44.0756	0.995631	3.07212	0.795932	169.59
0.990878	2.48637	0.990826	2.48639	0.435433	77.1394	0.865985	172.851	0.217793	36.737	0.994391	3.07776	0.796101	139.929
0.988753	2.48726	0.988702	2.48728	0.436296	65.6996	0.865967	144.183	0.218257	31.5198	0.993152	3.08342	0.796302	119.112
0.986634	2.48816	0.986584	2.48818	0.437261	57.2571	0.865946	123.67	0.218791	27.6235	0.991911	3.08913	0.796535	103.697
0.984523	2.48909	0.984472	2.48911	0.438317	50.7733	0.865922	108.266	0.219393	24.6053	0.99067	3.09486	0.7968	91.825
0.982418	2.49004	0.982367	2.49006	0.439453	45.6392	0.865895	96.2735	0.220062	22.2005	0.989427	3.10063	0.797096	82.4008
0.98032	2.49101	0.980269	2.49103	0.44066	41.4744	0.865865	86.672	0.220798	20.2408	0.988184	3.10643	0.797423	74.7391
0.978228	2.492	0.978178	2.49202	0.44193	38.0289	0.865832	78.8111	0.221597	18.6145	0.986939	3.11226	0.79778	68.3883
0.976143	2.49301	0.976093	2.49304	0.443255	35.1318	0.865796	72.2569	0.22246	17.2442	0.985692	3.11812	0.798168	63.0392
0.974064	2.49405	0.974014	2.49407	0.44463	32.6623	0.865757	66.7085	0.223385	16.0748	0.984443	3.12401	0.798586	58.4724
0.971992	2.49511	0.971942	2.49513	0.446049	30.5325	0.865716	61.9508	0.224369	15.0658	0.983193	3.12994	0.799033	54.5285
0.969925	2.49618	0.969876	2.49621	0.447507	28.6772	0.865671	57.8261	0.225411	14.1869	0.981941	3.13589	0.79951	51.0884
0.967866	2.49728	0.967816	2.49731	0.449	27.0465	0.865624	54.2158	0.226511	13.4152	0.980686	3.14188	0.800015	48.0618
0.965812	2.49841	0.965763	2.49843	0.450525	25.6023	0.865574	51.0293	0.227665	12.7324	0.979428	3.1479	0.800549	45.3785
0.963765	2.49955	0.963715	2.49958	0.452078	24.3143	0.865522	48.1961	0.228872	12.1246	0.978168	3.15394	0.80111	42.9835
0.961723	2.50072	0.961674	2.50074	0.453658	23.1587	0.865467	45.6606	0.230131	11.5802	0.976905	3.16002	0.801698	40.8329
0.959687	2.5019	0.959638	2.50193	0.455261	22.116	0.86541	43.3781	0.23144	11.0902	0.975639	3.16612	0.802313	38.8913
0.957658	2.50311	0.957609	2.50314	0.456885	21.1706	0.86535	41.3126	0.232796	10.6471	0.974369	3.17226	0.802955	37.1297
0.955634	2.50434	0.955585	2.50437	0.45853	20.3095	0.865289	39.4345	0.234199	10.2446	0.973096	3.17842	0.803621	35.5244
0.953616	2.50559	0.953567	2.50562	0.460193	19.5219	0.865225	37.7194	0.235647	9.87753	0.971819	3.18461	0.804314	34.0555
0.951603	2.50686	0.951554	2.50689	0.461873	18.7988	0.865159	36.147	0.237137	9.54165	0.970538	3.19082	0.80503	32.7065
0.949596	2.50816	0.949547	2.50819	0.463568	18.1328	0.865091	34.7001	0.238669	9.23324	0.969252	3.19707	0.805771	31.4634
0.947594	2.50947	0.947545	2.5095	0.465278	17.5172	0.865022	33.3644	0.240036	8.98445	0.967962	3.20334	0.806535	30.3143
0.945597	2.51081	0.945549	2.51084	0.467002	16.9466	0.86495	32.1274	0.241225	8.78563	0.966668	3.20963	0.807323	29.2489
0.943605	2.51216	0.943557	2.51219	0.468738	16.4162	0.864877	30.9786	0.242223	8.62968	0.965368	3.21595	0.808132	28.2585
0.941619	2.51354	0.941571	2.51357	0.470486	15.9221	0.864803	29.9089	0.243022	8.51145	0.964063	3.2223	0.808964	27.3355
0.939637	2.51493	0.939589	2.51497	0.472245	15.4605	0.864728	28.9104	0.243615	8.42723	0.962753	3.22867	0.809817	26.4733
0.93766	2.51635	0.937612	2.51638	0.474015	15.0284	0.864651	27.9762	0.243997	8.37448	0.961437	3.23506	0.81069	25.6662
0.935687	2.51779	0.93564	2.51782	0.475795	14.623	0.864573	27.1003	0.244549	8.30019	0.960114	3.24147	0.811584	24.909
0.933719	2.51924	0.933672	2.51928	0.477583	14.242	0.864494	26.2775	0.245153	8.22144	0.958786	3.24791	0.812497	24.1973
0.931755	2.52072	0.931708	2.52075	0.479381	13.8832	0.864414	25.5029	0.245982	8.11752	0.957451	3.25437	0.81343	23.5272
0.929795	2.52221	0.929748	2.52225	0.481186	13.5448	0.864334	24.7726	0.247041	7.99112	0.956109	3.26085	0.814381	22.8951
0.927839	2.52373	0.927792	2.52376	0.482999	13.2251	0.864253	24.0828	0.248337	7.84529	0.954761	3.26735	0.81535	22.298
0.925887	2.52526	0.92584	2.52529	0.48482	12.9225	0.864172	23.4302	0.24988	7.68335	0.953404	3.27386	0.816336	21.733
0.923938	2.52681	0.923891	2.52684	0.486647	12.6357	0.86409	22.812	0.251678	7.50868	0.952041	3.2804	0.81734	21.1976
0.921993	2.52837	0.921946	2.52841	0.488481	12.3636	0.864008	22.2254	0.253504	7.34491	0.950669	3.28696	0.81836	20.6896
0.920051	2.52996	0.920004	2.53	0.490321	12.105	0.863927	21.6681	0.255358	7.19109	0.94929	3.29353	0.819396	20.207
0.918112	2.53156	0.918065	2.5316	0.492166	11.859	0.863846	21.138	0.257238	7.04638	0.947902	3.30012	0.820447	19.7478
0.916175	2.53318	0.916128	2.53321	0.494017	11.6246	0.863765	20.6332	0.259142	6.91001	0.946505	3.30672	0.821513	19.3106
0.914241	2.53481	0.914194	2.53485	0.495873	11.401	0.863684	20.1518	0.26107	6.78131	0.945099	3.31334	0.822594	18.8936
0.912309	2.53646	0.912263	2.5365	0.497734	11.1876	0.863605	19.6923	0.26302	6.65967	0.943684	3.31997	0.823689	18.4956
0.91038	2.53812	0.910333	2.53816	0.499599	10.9836	0.863526	19.2532	0.264991	6.54454	0.94226	3.32662	0.824797	18.1154
0.908452	2.5398	0.908405	2.53984	0.501468	10.7885	0.863448	18.8333	0.266983	6.43543	0.940826	3.33327	0.825918	17.7516
0.906525	2.54149	0.906479	2.54153	0.503341	10.6016	0.863372	18.4312	0.268994	6.33189	0.939382	3.33994	0.827052	17.4034
0.9046	2.5432	0.904554	2.54324	0.505218	10.4225	0.863297	18.0459	0.271024	6.23351	0.937927	3.34663	0.828197	17.0698
0.902676	2.54491	0.90263	2.54495	0.507098	10.2507	0.863224	17.6763	0.27307	6.13993	0.936463	3.35332	0.829355	16.7498
0.900753	2.54664	0.900707	2.54668	0.508982	10.0857	0.863152	17.3216	0.275134	6.05081	0.934987	3.36002	0.830524	16.4426
0.89883	2.54838	0.898784	2.54842	0.510868	9.92711	0.863083	16.9808	0.277212	5.96584	0.9335	3.36672	0.831703	16.1476
0.896907	2.55013	0.896861	2.55017	0.512756	9.77463	0.863015	16.6531	0.279306	5.88475	0.932002	3.37344	0.832893	15.8639
0.894984	2.55189	0.894938	2.55193	0.514647	9.62787	0.86295	16.3378	0.281413	5.80729	0.930493	3.38016	0.834093	15.591
0.89306	2.55366	0.893014	2.5537	0.51654	9.48652	0.862887	16.0343	0.283534	5.7332	0.928972	3.38689	0.835302	15.3282
0.891136	2.55543	0.89109	2.55547	0.518435	9.35028	0.862828	15.7418	0.285667	5.66229	0.927438	3.39362	0.836521	15.075
0.88921	2.55721	0.889164	2.55726	0.520088	9.23551	0.862771	15.4598	0.287811	5.59435	0.925893	3.40036	0.837748	14.8309
0.887283	2.559	0.887237	2.55904	0.521497	9.14045	0.862717	15.1878	0.289966	5.5292	0.924335	3.4071	0.838983	14.5954
0.885354	2.56079	0.885307	2.56084	0.522664	9.06369	0.862666	14.9252	0.292132	5.46666	0.922765	3.41385	0.840227	14.3681
0.883422	2.56259	0.883376	2.56263	0.523586	9.00415	0.86262	14.6716	0.294307	5.4066	0.921182	3.4206	0.841478	14.1485
0.881488	2.56439	0.881442	2.56443	0.524265	8.961	0.862576	14.4264	0.296491	5.34884	0.919585	3.42734	0.842736	13.9363
0.879551	2.56619	0.879504	2.56623	0.524699	8.93366	0.862537	14.1894	0.298683	5.29328	0.917976	3.43409	0.844001	13.731
0.87761	2.56799	0.877563	2.56803	0.525323	8.89472	0.862502	13.9601	0.300883	5.23977	0.916353	3.44085	0.845272	13.5324
0.875666	2.56979	0.875619	2.56983	0.526002	8.85289	0.862471	13.7381	0.30309	5.18821	0.914717	3.4476	0.84655	13.3402
0.873717	2.57159	0.87367	2.57163	0.526925	8.7968	0.862445	13.5232	0.305303	5.13849	0.913067	3.45434	0.847833	13.1539
0.871763	2.57338	0.871716	2.57342	0.528093	8.72716	0.862424	13.3149	0.307522	5.0905	0.911404	3.46109	0.849121	12.9734
0.869805	2.57517	0.869758	2.57521	0.529505	8.6448	0.862407	13.113	0.309747	5.04416	0.909726	3.46784	0.850415	12.7984
0.867841	2.57695	0.867793	2.577	0.531163	8.55068	0.862396	12.9172	0.311976	4.99938	0.908035	3.47458	0.851713	12.6287
0.865871	2.57873	0.865823	2.57877	0.533064	8.44588	0.86239	12.7272	0.31421	4.95607	0.906329	3.48133	0.853016	12.4639
0.863894	2.5805	0.863847	2.58054	0.534966	8.34433	0.86239	12.5428	0.316447	4.91416	0.90461	3.48807	0.854322	12.3039
0.861911	2.58226	0.861863	2.5823	0.536868	8.24588	0.862396	12.3638	0.318688	4.87357	0.902876	3.4948	0.855632	12.1485
0.859921	2.58401	0.859873	2.58405	0.538769	8.1504	0.862407	12.1899	0.320932	4.83425	0.901128	3.50154	0.856946	11.9975
0.857923	2.58574	0.857875	2.58578	0.540669	8.05773	0.862425	12.0209	0.323177	4.79612	0.899366	3.50827	0.858263	11.8507
0.855918	2.58747	0.855869	2.58751	0.542569	7.96777	0.86245	11.8567	0.325425	4.75913	0.897589	3.51499	0.859582	11.7079
0.853904	2.58917	0.853855	2.58921	0.544467	7.88038	0.862481	11.6969	0.327675	4.72323	0.895798	3.52172	0.860904	11.569
0.851881	2.59086	0.851832	2.59091	0.546365	7.79546	0.86252	11.5416	0.329925	4.68835	0.893993	3.52844	0.862228	11.4337
0.849849	2.59254	0.8498	2.59258	0.54826	7.7129	0.862565	11.3903	0.332176	4.65446	0.892174	3.53515	0.863553	11.302
0.847808	2.59419	0.847759	2.59423	0.550154	7.6326	0.862618	11.2432	0.334426	4.6215	0.89034	3.54187	0.86488	11.1737
0.845757	2.59583	0.845708	2.59587	0.552047	7.55446	0.862679	11.0999	0.336677	4.58943	0.888493	3.54858	0.866209	11.0487
0.843697	2.59745	0.843647	2.59749	0.553937	7.4784	0.862747	10.9603	0.338927	4.55821	0.886631	3.55528	0.867538	10.9268
0.841626	2.59904	0.841575	2.59908	0.555824	7.40432	0.862824	10.8243	0.341175	4.5278	0.884755	3.56199	0.868868	10.808
0.839544	2.60061	0.839494	2.60065	0.55771	7.33215	0.862909	10.6918	0.343423	4.49816	0.882865	3.56869	0.870198	10.6921
0.837452	2.60216	0.837401	2.6022	0.559592	7.2618	0.863002	10.5626	0.345668	4.46926	0.880962	3.57539	0.871528	10.579
0.835349	2.60368	0.835298	2.60372	0.561472	7.19322	0.863104	10.4366	0.34791	4.44107	0.879045	3.58209	0.872858	10.4685
0.833234	2.60518	0.833183	2.60522	0.563348	7.12633	0.863216	10.3137	0.350151	4.41355	0.877114	3.58879	0.874187	10.3607
0.831109	2.60665	0.831058	2.60669	0.565222	7.06106	0.863336	10.1938	0.352388	4.38667	0.87517	3.59549	0.875515	10.2554
0.828972	2.6081	0.828921	2.60813	0.567091	6.99735	0.863467	10.0769	0.354621	4.36041	0.873213	3.60219	0.876843	10.1525
0.826824	2.60952	0.826772	2.60955	0.568958	6.93514	0.863606	9.9627	0.356851	4.33474	0.871243	3.60889	0.878169	10.0519
0.824664	2.61091	0.824612	2.61094	0.57082	6.87438	0.863736	9.86542	0.359076	4.30963	0.869261	3.6156	0.879493	9.9536
0.822493	2.61227	0.822441	2.6123	0.572678	6.81501	0.863853	9.78407	0.361297	4.28506	0.867265	3.6223	0.880645	9.86969
0.820311	2.61361	0.820258	2.61364	0.574531	6.75698	0.863954	9.71787	0.363513	4.261	0.865258	3.62901	0.881627	9.79943
0.818117	2.61492	0.818064	2.61495	0.576381	6.70024	0.864037	9.6662	0.365723	4.23744	0.863238	3.63573	0.882437	9.74218
0.815911	2.61619	0.815858	2.61623	0.578225	6.64475	0.864099	9.62858	0.367928	4.21435	0.861206	3.64245	0.883077	9.69745
0.813694	2.61745	0.813641	2.61748	0.580065	6.59045	0.86414	9.60467	0.370127	4.19172	0.859163	3.64918	0.883547	9.66486
0.811466	2.61867	0.811412	2.6187	0.581899	6.53731	0.864199	9.57051	0.372319	4.16951	0.857108	3.65592	0.883848	9.64414
0.809227	2.61986	0.809173	2.61989	0.583728	6.48529	0.864265	9.53369	0.374505	4.14772	0.855042	3.66267	0.88428	9.61452
0.806977	2.62103	0.806923	2.62106	0.585552	6.43435	0.864357	9.48409	0.376683	4.12633	0.852966	3.66943	0.88475	9.58256
0.804716	2.62217	0.804661	2.6222	0.58737	6.38445	0.864477	9.42215	0.378855	4.10532	0.850878	3.67621	0.885387	9.53948
0.802444	2.62328	0.80239	2.62331	0.589182	6.33556	0.864627	9.3484	0.381018	4.08468	0.848781	3.68299	0.886193	9.48563
0.800162	2.62437	0.800107	2.62439	0.590988	6.28763	0.864812	9.26346	0.383173	4.06439	0.846674	3.6898	0.887165	9.42142
0.79787	2.62543	0.797815	2.62545	0.592787	6.24065	0.865035	9.16803	0.38532	4.04443	0.844557	3.69662	0.888304	9.34735
0.795568	2.62646	0.795512	2.62648	0.594581	6.19457	0.865269	9.07472	0.387458	4.0248	0.842431	3.70346	0.889607	9.26397
0.793256	2.62747	0.7932	2.62749	0.596367	6.14937	0.865515	8.98346	0.389588	4.00547	0.840295	3.71032	0.890906	9.18226
0.790935	2.62845	0.790878	2.62847	0.598147	6.10502	0.865774	8.8942	0.391707	3.98645	0.838152	3.7172	0.892201	9.10216
0.788604	2.62941	0.788547	2.62943	0.599919	6.06149	0.866045	8.80687	0.393818	3.9677	0.835999	3.7241	0.893491	9.02364
0.786264	2.63034	0.786207	2.63036	0.601684	6.01876	0.866328	8.72142	0.395918	3.94923	0.833839	3.73104	0.894777	8.94663
0.783915	2.63125	0.783858	2.63127	0.603442	5.97679	0.866625	8.63779	0.398008	3.93102	0.831671	3.73799	0.896059	8.8711
0.781558	2.63214	0.781501	2.63216	0.605192	5.93557	0.866935	8.55593	0.400087	3.91306	0.829496	3.74498	0.897335	8.79699
0.779192	2.633	0.779135	2.63302	0.606934	5.89507	0.867257	8.4758	0.402156	3.89535	0.827314	3.752	0.898606	8.72426
0.776819	2.63385	0.776761	2.63387	0.608669	5.85527	0.867594	8.39735	0.404213	3.87786	0.825125	3.75906	0.899872	8.65287
0.774437	2.63467	0.77438	2.63469	0.610395	5.81614	0.867944	8.32053	0.406259	3.8606	0.82293	3.76615	0.901132	8.58279
0.772048	2.63547	0.771991	2.63549	0.612112	5.77768	0.868308	8.24529	0.408293	3.84356	0.820729	3.77327	0.902386	8.51396
0.769652	2.63626	0.769594	2.63627	0.613821	5.73985	0.868687	8.17159	0.410316	3.82671	0.818522	3.78044	0.903634	8.44637
0.767248	2.63702	0.767191	2.63704	0.615522	5.70263	0.869079	8.0994	0.412326	3.81007	0.816311	3.78765	0.904876	8.37996
0.764838	2.63777	0.76478	2.63778	0.617213	5.66602	0.869486	8.02867	0.414324	3.79362	0.814094	3.7949	0.906111	8.3147
0.762421	2.63849	0.762363	2.63851	0.618896	5.62999	0.869908	7.95936	0.416309	3.77735	0.811873	3.8022	0.90734	8.25057
0.759998	2.63921	0.75994	2.63922	0.620569	5.59452	0.870345	7.89144	0.418282	3.76125	0.809648	3.80955	0.908562	8.18753
0.757569	2.6399	0.75751	2.63992	0.622233	5.5596	0.870797	7.82488	0.420241	3.74533	0.807419	3.81695	0.909777	8.12555
0.755134	2.64058	0.755075	2.64059	0.623887	5.52521	0.871265	7.75963	0.422187	3.72956	0.805187	3.82441	0.910985	8.0646
0.752692	2.64124	0.752634	2.64126	0.625532	5.49133	0.871748	7.69566	0.42412	3.71396	0.802952	3.83192	0.912186	8.00465
0.750246	2.64189	0.750187	2.64191	0.627166	5.45796	0.872246	7.63295	0.426039	3.6985	0.800714	3.83949	0.91338	7.94567
0.747794	2.64253	0.747735	2.64254	0.628791	5.42507	0.872761	7.57146	0.427944	3.6832	0.798474	3.84712	0.914566	7.88765
0.745337	2.64315	0.745278	2.64316	0.630405	5.39266	0.873291	7.51116	0.429836	3.66803	0.796233	3.85482	0.915744	7.83054
0.742875	2.64375	0.742816	2.64377	0.63201	5.36071	0.873838	7.45202	0.431713	3.653	0.793989	3.86259	0.916914	7.77433
0.740408	2.64435	0.740349	2.64436	0.633603	5.32921	0.874401	7.39402	0.433576	3.6381	0.791745	3.87042	0.918077	7.719
0.737937	2.64493	0.737878	2.64494	0.635187	5.29814	0.874981	7.33712	0.435425	3.62334	0.7895	3.87833	0.919231	7.66453
0.735462	2.6455	0.735402	2.64552	0.636759	5.26749	0.875577	7.28131	0.437259	3.60869	0.787254	3.88632	0.920378	7.61088
0.732982	2.64606	0.732922	2.64608	0.638321	5.23726	0.87619	7.22655	0.439079	3.59416	0.785009	3.89438	0.921516	7.55804
0.730498	2.64661	0.730438	2.64662	0.639872	5.20743	0.87682	7.17282	0.440884	3.57976	0.782764	3.90253	0.922646	7.50599
0.72801	2.64715	0.72795	2.64716	0.641412	5.17799	0.877467	7.1201	0.442675	3.56546	0.78052	3.91076	0.923767	7.4547
0.725518	2.64768	0.725458	2.64769	0.642941	5.14893	0.878131	7.06836	0.444451	3.55128	0.778277	3.91908	0.92488	7.40417
0.723023	2.6482	0.722963	2.64821	0.644459	5.12024	0.878812	7.01758	0.446213	3.5372	0.776036	3.92749	0.925985	7.35437
0.720524	2.64871	0.720464	2.64872	0.645965	5.09192	0.879511	6.96774	0.447959	3.52323	0.773796	3.936	0.927081	7.30529
0.718022	2.64921	0.717962	2.64922	0.64746	5.06395	0.880227	6.91882	0.449691	3.50936	0.771559	3.9446	0.928168	7.2569
0.715517	2.64971	0.715456	2.64972	0.648944	5.03632	0.880961	6.8708	0.451409	3.49559	0.769325	3.95331	0.929246	7.20919
0.713008	2.65019	0.712948	2.6502	0.650416	5.00902	0.881713	6.82365	0.453112	3.48192	0.767094	3.96213	0.930316	7.16215
0.710497	2.65067	0.710436	2.65068	0.651877	4.98206	0.882482	6.77736	0.4548	3.46835	0.764867	3.97105	0.931378	7.11576
0.707983	2.65114	0.707922	2.65115	0.653326	4.95541	0.883268	6.73191	0.456474	3.45488	0.762644	3.98009	0.93243	7.07
0.705466	2.65161	0.705405	2.65162	0.654764	4.92908	0.884073	6.68728	0.458134	3.44149	0.760424	3.98925	0.933474	7.02486
0.702946	2.65206	0.702885	2.65207	0.656189	4.90305	0.884896	6.64345	0.459779	3.4282	0.75821	3.99852	0.93451	6.98033
0.700424	2.65252	0.700363	2.65253	0.657604	4.87731	0.885736	6.6004	0.461411	3.41501	0.756001	4.00793	0.935536	6.93639
0.697899	2.65296	0.697838	2.65297	0.659006	4.85187	0.886594	6.55812	0.463028	3.4019	0.753798	4.01746	0.936554	6.89304
0.695372	2.6534	0.695311	2.65341	0.660397	4.82672	0.88747	6.51659	0.464632	3.38888	0.7516	4.02713	0.937564	6.85025
0.692843	2.65384	0.692782	2.65385	0.661776	4.80184	0.888365	6.47579	0.466222	3.37595	0.749409	4.03693	0.938564	6.80802
0.690312	2.65427	0.690251	2.65428	0.663144	4.77724	0.889277	6.43571	0.467798	3.36311	0.747225	4.04688	0.939557	6.76633
0.687778	2.65469	0.687717	2.6547	0.6645	4.7529	0.890207	6.39634	0.469362	3.35036	0.745048	4.05697	0.940541	6.72518
0.685243	2.65511	0.685182	2.65512	0.665844	4.72883	0.891155	6.35765	0.470912	3.3377	0.742879	4.06722	0.941517	6.68455
0.682705	2.65553	0.682644	2.65554	0.667176	4.70501	0.89212	6.31963	0.472449	3.32512	0.740718	4.07762	0.942484	6.64443
0.680166	2.65594	0.680105	2.65595	0.668497	4.68144	0.893104	6.28227	0.473974	3.31263	0.738565	4.08819	0.943443	6.60481
0.677625	2.65635	0.677564	2.65636	0.669807	4.65812	0.894105	6.24556	0.475487	3.30023	0.736422	4.09892	0.944395	6.56569
0.675083	2.65676	0.675021	2.65677	0.671105	4.63505	0.895124	6.20948	0.476988	3.28792	0.734288	4.10983	0.945338	6.52705
0.672538	2.65716	0.672477	2.65717	0.672392	4.6122	0.896161	6.17401	0.478477	3.27569	0.732164	4.12091	0.946274	6.48889
0.669993	2.65756	0.669931	2.65757	0.673667	4.5896	0.897216	6.13915	0.479954	3.26355	0.730049	4.13218	0.947202	6.45119
0.667445	2.65796	0.667384	2.65797	0.674931	4.56722	0.898288	6.10488	0.48142	3.2515	0.727946	4.14363	0.948122	6.41395
0.664897	2.65835	0.664835	2.65836	0.676184	4.54506	0.899377	6.07118	0.482876	3.23954	0.725854	4.15528	0.949035	6.37716
0.662347	2.65875	0.662285	2.65876	0.677426	4.52313	0.900483	6.03805	0.48432	3.22766	0.723773	4.16713	0.949941	6.3408
0.659795	2.65914	0.659734	2.65915	0.678657	4.50141	0.901607	6.00548	0.485755	3.21587	0.721705	4.17919	0.95084	6.30488
0.657243	2.65953	0.657181	2.65954	0.679878	4.47991	0.902748	5.97345	0.48718	3.20418	0.719649	4.19146	0.951731	6.26939
0.654689	2.65991	0.654628	2.65992	0.681087	4.45862	0.903906	5.94195	0.488595	3.19257	0.717606	4.20395	0.952616	6.23432
0.652135	2.6603	0.652073	2.66031	0.682286	4.43753	0.90508	5.91097	0.49	3.18105	0.715576	4.21666	0.953495	6.19966
0.649579	2.66068	0.649517	2.66069	0.683475	4.41665	0.906271	5.88049	0.491397	3.16963	0.71356	4.22961	0.954367	6.1654
0.647022	2.66107	0.64696	2.66108	0.684653	4.39597	0.907479	5.85052	0.492786	3.15829	0.711559	4.24279	0.955233	6.13154
0.644464	2.66145	0.644403	2.66146	0.685821	4.37549	0.908703	5.82103	0.494166	3.14705	0.709572	4.25623	0.956093	6.09807
0.641906	2.66183	0.641844	2.66184	0.686979	4.3552	0.909943	5.79202	0.495538	3.1359	0.707601	4.26991	0.956948	6.06499
0.639346	2.66222	0.639284	2.66222	0.688128	4.33511	0.911199	5.76347	0.496903	3.12484	0.705645	4.28386	0.957796	6.03229
0.636786	2.6626	0.636724	2.66261	0.689266	4.31521	0.912471	5.73539	0.498261	3.11387	0.703705	4.29807	0.95864	5.99997
0.634225	2.66298	0.634163	2.66299	0.690396	4.29549	0.913758	5.70774	0.499612	3.103	0.701782	4.31256	0.959478	5.96801
0.631663	2.66336	0.631601	2.66337	0.691516	4.27596	0.915061	5.68054	0.500956	3.09222	0.699876	4.32733	0.960312	5.93642
0.629101	2.66375	0.629039	2.66375	0.692626	4.25661	0.916379	5.65376	0.502295	3.08154	0.697987	4.3424	0.961141	5.90518
0.626538	2.66413	0.626476	2.66414	0.693728	4.23745	0.917712	5.62741	0.503627	3.07095	0.696117	4.35776	0.961965	5.8743
0.623974	2.66451	0.623913	2.66452	0.694821	4.21846	0.919059	5.60146	0.504955	3.06045	0.694265	4.37344	0.962786	5.84377
0.62141	2.6649	0.621349	2.66491	0.695906	4.19965	0.920421	5.57591	0.506277	3.05006	0.692431	4.38943	0.963602	5.81358
0.618846	2.66529	0.618784	2.6653	0.696982	4.18101	0.921798	5.55076	0.507595	3.03975	0.690617	4.40575	0.964415	5.78373
0.616281	2.66567	0.616219	2.66568	0.69805	4.16255	0.923188	5.52599	0.508908	3.02955	0.688823	4.4224	0.965225	5.75421
0.613716	2.66606	0.613654	2.66607	0.699111	4.14426	0.924593	5.50159	0.510217	3.01944	0.687049	4.4394	0.966031	5.72502
0.61115	2.66646	0.611088	2.66647	0.700163	4.12613	0.926011	5.47756	0.511523	3.00943	0.685295	4.45675	0.966835	5.69616
0.608584	2.66685	0.608523	2.66686	0.701208	4.10818	0.927442	5.4539	0.512825	2.99951	0.683562	4.47447	0.967636	5.66762
0.606018	2.66725	0.605956	2.66726	0.702246	4.09039	0.928886	5.43058	0.514125	2.9897	0.681851	4.49256	0.968434	5.6394
0.603452	2.66765	0.60339	2.66766	0.703276	4.07276	0.930343	5.40761	0.515422	2.97998	0.680162	4.51103	0.969231	5.61149
0.600885	2.66805	0.600824	2.66806	0.7043	4.0553	0.931812	5.38498	0.516716	2.97036	0.678495	4.5299	0.970026	5.58389
0.598319	2.66845	0.598257	2.66846	0.705317	4.038	0.933294	5.36267	0.518009	2.96083	0.67685	4.54917	0.970819	5.5566
0.595752	2.66886	0.59569	2.66887	0.706328	4.02086	0.934788	5.34069	0.519299	2.95141	0.675229	4.56885	0.971612	5.52961
0.593185	2.66927	0.593123	2.66928	0.707333	4.00387	0.936293	5.31902	0.520589	2.94208	0.673631	4.58897	0.972403	5.50292
0.590619	2.66969	0.590557	2.6697	0.708331	3.98705	0.93781	5.29766	0.521877	2.93286	0.672056	4.60952	0.973193	5.47653
0.588052	2.67011	0.58799	2.67012	0.709324	3.97038	0.939338	5.27661	0.523165	2.92373	0.670506	4.63052	0.973984	5.45043
0.585485	2.67053	0.585424	2.67054	0.710311	3.95386	0.940877	5.25585	0.524452	2.9147	0.66898	4.65198	0.974774	5.42461
0.582919	2.67096	0.582857	2.67097	0.711294	3.9375	0.942427	5.23537	0.525739	2.90576	0.667479	4.67392	0.975564	5.39908
0.580353	2.67139	0.580291	2.67141	0.712271	3.92128	0.943987	5.21518	0.527026	2.89693	0.666003	4.69634	0.976355	5.37384
0.577787	2.67183	0.577725	2.67184	0.713243	3.90522	0.945557	5.19527	0.528314	2.88819	0.664553	4.71925	0.977147	5.34888
0.575221	2.67228	0.575159	2.67229	0.71421	3.88931	0.947137	5.17562	0.529602	2.87956	0.663128	4.74268	0.97794	5.32419
0.572656	2.67273	0.572594	2.67274	0.715174	3.87355	0.948726	5.15624	0.530891	2.87102	0.661729	4.76663	0.978735	5.29977
0.570091	2.67318	0.570029	2.67319	0.716133	3.85793	0.950324	5.13712	0.532181	2.86258	0.660356	4.79112	0.979531	5.27563
0.567526	2.67364	0.567464	2.67365	0.717088	3.84246	0.951931	5.11825	0.533473	2.85423	0.65901	4.81616	0.980329	5.25176
0.564962	2.67411	0.5649	2.67412	0.71804	3.82713	0.953547	5.09963	0.534767	2.84599	0.657691	4.84176	0.981129	5.22815
0.562398	2.67459	0.562336	2.6746	0.718988	3.81195	0.955171	5.08125	0.536062	2.83784	0.656398	4.86793	0.981933	5.2048
0.559835	2.67507	0.559773	2.67508	0.719933	3.79691	0.956804	5.06311	0.537359	2.82979	0.655132	4.8947	0.982739	5.18172
0.557273	2.67556	0.557211	2.67557	0.720874	3.78201	0.958444	5.04519	0.538659	2.82183	0.653894	4.92208	0.983548	5.15889
0.554711	2.67605	0.554649	2.67607	0.721814	3.76725	0.960091	5.0275	0.539962	2.81397	0.652683	4.95008	0.984361	5.13633
0.55215	2.67656	0.552088	2.67657	0.72275	3.75263	0.961745	5.01004	0.541268	2.80621	0.6515	4.97871	0.985178	5.11401
0.54959	2.67708	0.549528	2.67709	0.723684	3.73815	0.963407	4.99279	0.542576	2.79854	0.650344	5.008	0.985999	5.09194
0.54703	2.6776	0.546969	2.67761	0.724616	3.7238	0.965075	4.97575	0.543888	2.79097	0.649216	5.03795	0.986825	5.07013
0.544472	2.67813	0.54441	2.67815	0.725546	3.70959	0.966749	4.95891	0.545203	2.78349	0.648116	5.06859	0.987655	5.04856
0.541914	2.67868	0.541853	2.67869	0.726475	3.69552	0.968429	4.94228	0.546523	2.77611	0.647044	5.09993	0.988491	5.02724
0.539358	2.67923	0.539296	2.67924	0.727401	3.68158	0.970115	4.92585	0.547846	2.76882	0.646	5.13199	0.989332	5.00616
0.536802	2.6798	0.536741	2.67981	0.728327	3.66778	0.971806	4.9096	0.549173	2.76163	0.644984	5.16479	0.990179	4.98531
0.534248	2.68037	0.534187	2.68039	0.729251	3.6541	0.973503	4.89355	0.550505	2.75453	0.643996	5.19834	0.991032	4.96471
0.531695	2.68096	0.531634	2.68097	0.730175	3.64056	0.975204	4.87768	0.551841	2.74752	0.643035	5.23266	0.991891	4.94435
0.529143	2.68156	0.529082	2.68158	0.731098	3.62715	0.97691	4.86199	0.553181	2.74061	0.642103	5.26777	0.992758	4.92422
0.526593	2.68218	0.526532	2.68219	0.73202	3.61387	0.97862	4.84648	0.554527	2.73378	0.641199	5.30369	0.993631	4.90432
0.524044	2.6828	0.523983	2.68282	0.732942	3.60071	0.980334	4.83114	0.555878	2.72705	0.640323	5.34044	0.994512	4.88465
0.521497	2.68345	0.521436	2.68346	0.733864	3.58769	0.982052	4.81596	0.557234	2.72041	0.639475	5.37804	0.9954	4.86522
0.518951	2.6841	0.51889	2.68412	0.734786	3.57479	0.983773	4.80095	0.558596	2.71386	0.638654	5.41651	0.996297	4.84601
0.516408	2.68478	0.516346	2.68479	0.735708	3.56201	0.985497	4.7861	0.559963	2.70741	0.637861	5.45587	0.997202	4.82702
0.513866	2.68547	0.513804	2.68548	0.736631	3.54936	0.987225	4.77141	0.561336	2.70104	0.637096	5.49615	0.998115	4.80826
0.511325	2.68617	0.511264	2.68619	0.737554	3.53684	0.988954	4.75687	0.562715	2.69476	0.636358	5.53736	0.999038	4.78973
0.508787	2.6869	0.508726	2.68692	0.738478	3.52444	0.990687	4.74249	0.5641	2.68857	0.635647	5.57954	0.99997	4.77141
0.506251	2.68764	0.50619	2.68766	0.739403	3.51216	0.992421	4.72824	0.565492	2.68247	0.634963	5.62269	1.00091	4.75331
0.503718	2.68841	0.503657	2.68843	0.74033	3.5	0.994157	4.71414	0.56689	2.67645	0.634307	5.66686		
0.501186	2.68919	0.501125	2.68921	0.741257	3.48796	0.995895	4.70018	0.568295	2.67053	0.633677	5.71206		
0.498657	2.69	0.498596	2.69002	0.742187	3.47604	0.997634	4.68636	0.569707	2.66469	0.633073	5.75832		
0.496131	2.69083	0.49607	2.69085	0.743117	3.46424	0.999373	4.67267	0.571126	2.65894	0.632496	5.80567		
0.493608	2.69169	0.493547	2.69171	0.74405	3.45256	1.00111	4.65911	0.572553	2.65328	0.631945	5.85413		
0.491087	2.69257	0.491026	2.69259	0.744985	3.44099			0.573987	2.6477	0.63142	5.90374		
0.48857	2.69347	0.488509	2.69349	0.745922	3.42954			0.575428	2.64221	0.630921	5.95453		
0.486055	2.69441	0.485995	2.69443	0.746861	3.41821			0.576878	2.63681	0.630447	6.00651		
0.483544	2.69537	0.483484	2.69539	0.747803	3.40698			0.578335	2.63149	0.629998	6.05974		
0.481037	2.69636	0.480977	2.69639	0.748747	3.39588			0.579801	2.62626	0.629574	6.11424		
0.478534	2.69739	0.478473	2.69741	0.749694	3.38488			0.581276	2.62111	0.629174	6.17004		
0.476034	2.69845	0.475974	2.69848	0.750644	3.374			0.582759	2.61605	0.628799	6.22719		
0.473538	2.69955	0.473478	2.69957	0.751598	3.36323			0.584252	2.61108	0.628448	6.28572		
0.471047	2.70068	0.470987	2.70071	0.752554	3.35256			0.585754	2.60619	0.628121	6.34566		
0.468561	2.70185	0.468501	2.70188	0.753514	3.34201			0.587265	2.60139	0.627817	6.40706		
0.46608	2.70307	0.46602	2.7031	0.754477	3.33157			0.588787	2.59667	0.627536	6.46996		
0.463603	2.70433	0.463543	2.70436	0.755444	3.32123			0.590318	2.59204	0.627278	6.5344		
0.461132	2.70563	0.461073	2.70567	0.756415	3.311			0.591861	2.58749	0.627043	6.60043		
0.458667	2.70699	0.458608	2.70702	0.75739	3.30087			0.593414	2.58304	0.626829	6.6681		
0.456208	2.7084	0.456149	2.70843	0.758369	3.29085			0.594979	2.57867	0.626638	6.73745		
0.453755	2.70986	0.453696	2.7099	0.759352	3.28094			0.596556	2.57439	0.626468	6.80853		
0.451309	2.71138	0.45125	2.71142	0.760339	3.27113			0.598144	2.5702	0.626319	6.88141		
0.44887	2.71296	0.448811	2.713	0.761331	3.26142			0.599746	2.5661	0.626191	6.95613		
0.446438	2.71461	0.44638	2.71465	0.762328	3.25181			0.601361	2.56209	0.626084	7.03275		
0.444015	2.71632	0.443956	2.71636	0.763329	3.24231			0.602989	2.55817	0.625997	7.11133		
0.4416	2.71811	0.441541	2.71815	0.764335	3.23291			0.604632	2.55435	0.62593	7.19195		
0.439193	2.71997	0.439135	2.72002	0.765346	3.2236			0.60629	2.55062	0.625882	7.27465		
0.436796	2.72192	0.436739	2.72196	0.766362	3.2144			0.607964	2.54699	0.625853	7.35952		
0.434409	2.72395	0.434352	2.724	0.767383	3.20529			0.609654	2.54345	0.625843	7.44662		
0.432032	2.72607	0.431975	2.72612	0.76841	3.19628			0.611361	2.54002	0.625852	7.53603		
0.429667	2.72829	0.42961	2.72835	0.769442	3.18737			0.613087	2.5367	0.625879	7.62784		
0.427313	2.73061	0.427256	2.73067	0.77048	3.17855			0.614832	2.53347	0.625923	7.72212		
0.424971	2.73305	0.424915	2.73311	0.771524	3.16983			0.616596	2.53036	0.625985	7.81896		
0.422643	2.7356	0.422587	2.73566	0.772573	3.16121			0.618382	2.52736	0.626063	7.91845		
0.420328	2.73827	0.420273	2.73833	0.773628	3.15268			0.62019	2.52447	0.626159	8.0207		
0.418028	2.74107	0.417973	2.74114	0.77469	3.14424			0.62202	2.5217	0.62627	8.12581		
0.415744	2.74401	0.415689	2.74408	0.775757	3.1359			0.623875	2.51905	0.626398	8.23387		
0.413476	2.7471	0.413421	2.74718	0.776831	3.12764			0.625756	2.51652	0.626541	8.34501		
0.411225	2.75035	0.411171	2.75043	0.777911	3.11948			0.627662	2.51411	0.626699	8.45934		
0.408992	2.75376	0.408938	2.75384	0.778998	3.11141			0.629596	2.51184	0.626872	8.57699		
0.406779	2.75735	0.406725	2.75743	0.780091	3.10344			0.631558	2.50969	0.62706	8.69809		
0.404585	2.76112	0.404533	2.76121	0.781192	3.09555			0.63355	2.50768	0.627235	8.80654		
0.402413	2.76509	0.402361	2.76519	0.782299	3.08775			0.635572	2.50581	0.627392	8.90122		
0.400264	2.76928	0.400212	2.76938	0.783413	3.08004			0.637624	2.50407	0.627528	8.98111		
0.398138	2.77368	0.398087	2.77379	0.784534	3.07241			0.639708	2.50246	0.627638	9.04532		
0.396037	2.77832	0.395987	2.77844	0.785663	3.06488			0.641823	2.50099	0.627722	9.09314		
0.393962	2.78321	0.393912	2.78334	0.786799	3.05743			0.643969	2.49965	0.6278	9.13759		
0.391914	2.78837	0.391865	2.78849	0.787942	3.05007			0.646147	2.49844	0.627855	9.16877		
0.389895	2.7938	0.389846	2.79393	0.789093	3.04279			0.648355	2.49737	0.627943	9.21794		
0.387905	2.79952	0.387857	2.79966	0.790252	3.0356			0.650594	2.49641	0.628064	9.28567		
0.385946	2.80555	0.385899	2.8057	0.791419	3.0285			0.652863	2.49558	0.628222	9.37279		
0.384019	2.8119	0.383973	2.81206	0.792594	3.02147			0.65516	2.49486	0.62842	9.48039		
0.382125	2.81859	0.38208	2.81875	0.793776	3.01454			0.657484	2.49425	0.628659	9.60983		
0.380265	2.82563	0.380221	2.8258	0.794968	3.00768			0.659835	2.49375	0.628945	9.76284		
0.378441	2.83304	0.378397	2.83323	0.796167	3.00091			0.66221	2.49334	0.629241	9.92083		
0.376653	2.84084	0.37661	2.84103	0.797375	2.99423			0.664609	2.49302	0.629549	10.084		
0.374902	2.84904	0.374861	2.84924	0.798592	2.98762			0.667031	2.49279	0.629866	10.2527		
0.37319	2.85766	0.373149	2.85787	0.799818	2.9811			0.669473	2.49264	0.630194	10.4271		
0.371517	2.86671	0.371477	2.86693	0.801052	2.97466			0.671934	2.49256	0.63053	10.6075		
0.369883	2.8762	0.369844	2.87644	0.802296	2.9683			0.674414	2.49255	0.630876	10.7941		
0.368289	2.88617	0.368251	2.88641	0.803549	2.96202			0.67691	2.4926	0.63123	10.9874		
0.366736	2.8966	0.366699	2.89686	0.804812	2.95582			0.679422	2.49271	0.631592	11.1877		
0.365224	2.90754	0.365188	2.9078	0.806084	2.9497			0.681949	2.49287	0.631963	11.3953		
0.363753	2.91897	0.363718	2.91925	0.807366	2.94366			0.684489	2.49307	0.63234	11.6106		
0.362324	2.93093	0.36229	2.93123	0.808658	2.93771			0.687041	2.49332	0.632724	11.8341		
0.360937	2.94342	0.360904	2.94373	0.80996	2.93183			0.689604	2.49361	0.633115	12.0662		
0.359591	2.95646	0.359559	2.95678	0.811272	2.92603			0.692178	2.49394	0.633511	12.3074		
0.358286	2.97005	0.358255	2.97039	0.812595	2.92031			0.694762	2.4943	0.633913	12.5582		
0.357023	2.98422	0.356993	2.98457	0.813928	2.91467			0.697355	2.49468	0.63432	12.8192		
0.355801	2.99898	0.355772	2.99934	0.815272	2.9091			0.699955	2.4951	0.634731	13.091		
0.35462	3.01433	0.354592	3.0147	0.816628	2.90362			0.702564	2.49554	0.635146	13.3743		
0.353479	3.03029	0.353452	3.03068	0.817994	2.89822			0.705179	2.496	0.635565	13.6699		
0.352378	3.04687	0.352352	3.04727	0.819372	2.89289			0.707802	2.49648	0.635987	13.9784		
0.351318	3.06408	0.351293	3.06451	0.820762	2.88764			0.71043	2.49697	0.636412	14.3008		
0.350296	3.08195	0.350272	3.08239	0.822163	2.88247			0.713063	2.49749	0.636839	14.638		
0.349313	3.10047	0.34929	3.10093	0.823577	2.87738			0.715702	2.49801	0.637267	14.9911		
0.348369	3.11967	0.348347	3.12014	0.825003	2.87237			0.718345	2.49855	0.637696	15.3611		
0.347462	3.13955	0.347441	3.14004	0.826442	2.86743			0.720993	2.49911	0.638126	15.7493		
0.346593	3.16014	0.346573	3.16065	0.827893	2.86257			0.723645	2.49967	0.638556	16.1571		
0.345761	3.18144	0.345741	3.18197	0.829358	2.8578			0.726301	2.50024	0.638985	16.5859		
0.344965	3.20348	0.344946	3.20402	0.830835	2.8531			0.72896	2.50082	0.639413	17.0375		
0.344205	3.22627	0.344187	3.22682	0.832327	2.84847			0.731623	2.50141	0.63984	17.5137		
0.343481	3.24982	0.343464	3.25039	0.833832	2.84393			0.734288	2.502	0.640264	18.0165		
0.342792	3.27415	0.342775	3.27474	0.835351	2.83947			0.736957	2.5026	0.640686	18.5482		
0.342137	3.29928	0.342121	3.2999	0.836884	2.83508			0.739627	2.5032	0.641104	19.1114		
0.341516	3.32523	0.341501	3.32587	0.838432	2.83077			0.742301	2.50381	0.641519	19.709		
0.340929	3.35203	0.340915	3.35268	0.839995	2.82655			0.744977	2.50442	0.641929	20.3441		
0.340375	3.37968	0.340362	3.38036	0.841573	2.8224			0.747654	2.50504	0.642334	21.0205		
0.339855	3.40821	0.339842	3.40891	0.843167	2.81833			0.750334	2.50565	0.642734	21.7423		
0.339366	3.43766	0.339355	3.43838	0.844776	2.81433			0.753015	2.50627	0.643127	22.5142		
0.33891	3.46803	0.3389	3.46877	0.846401	2.81042			0.755699	2.50689	0.643514	23.3416		
0.338486	3.49935	0.338476	3.50012	0.848042	2.80659			0.758384	2.50751	0.643893	24.2308		
0.338093	3.53166	0.338084	3.53245	0.8497	2.80284			0.76107	2.50813	0.644265	25.1889		
0.337732	3.56497	0.337723	3.56579	0.851374	2.79916			0.763758	2.50876	0.644628	26.2243		
0.337401	3.59932	0.337394	3.60016	0.853065	2.79557			0.766446	2.50938	0.644983	27.3468		
0.337101	3.63474	0.337094	3.63561	0.854773	2.79205			0.769137	2.51	0.645327	28.5678		
0.336831	3.67126	0.336825	3.67215	0.856499	2.78862			0.771828	2.51062	0.645662	29.9011		
0.336591	3.70891	0.336586	3.70983	0.858242	2.78526			0.77452	2.51124	0.645986	31.3627		
0.336381	3.74773	0.336376	3.74868	0.860003	2.78198			0.777213	2.51186	0.646299	32.9724		
0.3362	3.78775	0.336196	3.78872	0.861782	2.77878			0.779907	2.51248	0.6466	34.7537		
0.336049	3.82901	0.336045	3.83001	0.863578	2.77566			0.782602	2.5131	0.646889	36.7359		
0.335926	3.87155	0.335924	3.87259	0.865393	2.77262			0.785298	2.51372	0.647165	38.9549		
0.335832	3.91541	0.33583	3.91648	0.867227	2.76965			0.787994	2.51433	0.647428	41.4562		
0.335767	3.96064	0.335766	3.96175	0.869078	2.76677			0.790691	2.51495	0.647677	44.2974		
0.335729	4.00728	0.335729	4.00842	0.870948	2.76396			0.793389	2.51556	0.647912	47.5529		
0.33572	4.05538	0.33572	4.05656	0.872837	2.76122			0.796087	2.51617	0.648132	51.3207		
0.335739	4.10499	0.335739	4.10621	0.874744	2.75856			0.798786	2.51677	0.648338	55.7324		
0.335784	4.15617	0.335786	4.15742	0.876669	2.75598			0.801485	2.51738	0.648528	60.9689		
0.335858	4.20896	0.33586	4.21026	0.878613	2.75347			0.804185	2.51798	0.648702	67.2858		
0.335958	4.26344	0.335961	4.26477	0.880575	2.75103			0.806885	2.51858	0.64886	75.0564		
0.336085	4.31965	0.336089	4.32103	0.882555	2.74866			0.809585	2.51917	0.649002	84.8485		
0.336239	4.37767	0.336243	4.37909	0.884554	2.74637			0.812286	2.51977	0.649127	97.5702		
0.336419	4.43756	0.336424	4.43903	0.88657	2.74414			0.814987	2.52036	0.649235	114.769		
0.336626	4.4994	0.336631	4.50092	0.888604	2.74198			0.817688	2.52095	0.649326	139.314		
0.336858	4.56326	0.336864	4.56482	0.890655	2.73989			0.820389	2.52153	0.649399	177.197		
0.337082	4.62062	0.337123	4.63083	0.892724	2.73787			0.823091	2.52212	0.649455	243.349		
0.337288	4.67081	0.337407	4.69903	0.89481	2.73591			0.825793	2.5227	0.649494	388.268		
0.337469	4.71325	0.337717	4.76951	0.896912	2.73401			0.828495	2.52327	0.649515	959.719		
0.337619	4.74742	0.338052	4.84235	0.899031	2.73217			0.831197	2.52385				
0.337732	4.7729	0.338412	4.91767	0.901166	2.73039			0.833899	2.52442				
0.33784	4.7966	0.338796	4.99556	0.903316	2.72868			0.836601	2.52498				
0.337917	4.81325	0.339205	5.07614	0.905482	2.72701			0.839303	2.52555				
0.338039	4.83951	0.339638	5.15952	0.907663	2.72541			0.842006	2.52611				
0.33821	4.87573	0.340095	5.24584	0.909859	2.72385			0.844708	2.52666				
0.338435	4.92239	0.340576	5.33522	0.912068	2.72235			0.84741	2.52722				
0.338719	4.98012	0.341081	5.42781	0.914292	2.7209			0.850112	2.52777				
0.33907	5.04972	0.341608	5.52376	0.916529	2.71949			0.852814	2.52831				
0.339495	5.13218	0.342159	5.62323	0.918779	2.71814			0.855516	2.52886				
0.339945	5.21753	0.342732	5.7264	0.921041	2.71682			0.858218	2.5294				
0.340418	5.30591	0.343329	5.83343	0.923316	2.71556			0.86092	2.52993				
0.340914	5.39744	0.343947	5.94454	0.925603	2.71433			0.863622	2.53047				
0.341435	5.49229	0.344587	6.05993	0.927901	2.71314			0.866324	2.531				
0.341978	5.5906	0.34525	6.17982	0.93021	2.712			0.869025	2.53152				
0.342544	5.69255	0.345934	6.30446	0.93253	2.71089			0.871726	2.53204				
0.343133	5.79831	0.346639	6.43411	0.93486	2.70982			0.874427	2.53256				
0.343744	5.90807	0.347365	6.56903	0.9372	2.70878			0.877128	2.53308				
0.344378	6.02205	0.348112	6.70953	0.939549	2.70777			0.879829	2.53359				
0.345033	6.14046	0.348879	6.85594	0.941908	2.7068			0.882529	2.5341				
0.34571	6.26353	0.349666	7.00859	0.944275	2.70586			0.885229	2.5346				
0.346408	6.39152	0.350474	7.16787	0.946651	2.70495			0.887929	2.5351				
0.347127	6.5247	0.3513	7.33418	0.949036	2.70407			0.890629	2.5356				
0.347867	6.66336	0.352146	7.50797	0.951428	2.70321			0.893328	2.53609				
0.348628	6.80782	0.353011	7.68971	0.953827	2.70238			0.896027	2.53658				
0.349409	6.95841	0.353895	7.87992	0.956234	2.70157			0.898726	2.53707				
0.35021	7.1155	0.35468	8.05304	0.958648	2.70079			0.901424	2.53755				
0.35103	7.27948	0.35536	8.20634	0.961068	2.70004			0.904122	2.53803				
0.35187	7.4508	0.355929	8.33729	0.963495	2.6993			0.906819	2.5385				
0.352729	7.6299	0.356384	8.44363	0.965929	2.69859			0.909516	2.53897				
0.353607	7.81731	0.356722	8.52346	0.968368	2.6979			0.912213	2.53944				
0.354503	8.01358	0.357034	8.59815	0.970812	2.69722			0.91491	2.53991				
0.355417	8.2193	0.357252	8.65083	0.973263	2.69657			0.917605	2.54036				
0.356348	8.43514	0.357595	8.73437	0.975718	2.69593			0.920301	2.54082				
0.357297	8.66182	0.358064	8.85042	0.978179	2.69531			0.922996	2.54127				
0.358263	8.90014	0.358664	9.00137	0.980644	2.69471			0.925691	2.54172				
0.359246	9.15098	0.359397	9.19043	0.983114	2.69412			0.928385	2.54217				
0.360244	9.41529	0.360269	9.42184	0.985588	2.69355			0.931078	2.54261				
0.361259	9.69416	0.361283	9.70107	0.988067	2.693			0.933771	2.54304				
0.362288	9.98876	0.362313	9.99607	0.99055	2.69245			0.936464	2.54348				
0.363332	10.3004	0.363358	10.3082	0.993036	2.69192			0.939155	2.54391				
0.364391	10.6306	0.364417	10.6388	0.995527	2.69141			0.941847	2.54433				
0.365463	10.981	0.365489	10.9897	0.998021	2.69091			0.944538	2.54475				
0.366549	11.3534	0.366575	11.3626	1.00052	2.69041			0.947228	2.54517				
0.367647	11.7499	0.367673	11.7597					0.949917	2.54559				
0.368757	12.1728	0.368784	12.1834					0.952606	2.546				
0.369878	12.6249	0.369905	12.6362					0.955294	2.5464				
0.371009	13.1092	0.371037	13.1213					0.957982	2.5468				
0.372151	13.6292	0.372178	13.6422					0.960668	2.5472				
0.373301	14.1889	0.373329	14.2029					0.963354	2.5476				
0.374459	14.793	0.374487	14.8081					0.96604	2.54799				
0.375624	15.4468	0.375652	15.4632					0.968724	2.54837				
0.376794	16.1567	0.376822	16.1745					0.971408	2.54875				
0.377968	16.9301	0.377996	16.9496					0.974091	2.54913				
0.379145	17.7759	0.379174	17.7972					0.976773	2.5495				
0.380324	18.7046	0.380352	18.7281					0.979454	2.54987				
0.381501	19.7289	0.381529	19.7549					0.982134	2.55024				
0.382676	20.8643	0.382704	20.8932					0.984813	2.5506				
0.383845	22.1299	0.383873	22.1621					0.987492	2.55095				
0.385006	23.5491	0.385034	23.5854					0.990169	2.55131				
0.386156	25.1517	0.386184	25.1929					0.992845	2.55165				
0.387291	26.9757	0.387318	27.0227					0.995521	2.552				
0.388407	29.0701	0.388433	29.1244					0.998195	2.55233				
0.389498	31.5001	0.389524	31.5634					1.00087	2.55267				
0.39056	34.3532	0.390585	34.4281										
0.391586	37.7507	0.39161	37.8406										
0.392568	41.8653	0.392591	41.9752										
0.393497	46.9517	0.393519	47.0891										
0.394365	53.4017	0.394385	53.5786										
0.395161	61.8516	0.395179	62.0877										
0.395872	73.4071	0.395888	73.7383										
0.396488	90.1763	0.396502	90.6744										
0.396996	116.737	0.397007	117.57										
0.397385	165.249	0.397393	166.919										
0.397647	282.272	0.397651	287.168										
0.397773	963.799	0.397775	1023.32										
