Sym0		Sym1		Sym2		Sym3		Asym1		Asym2		Asym3	
392  Points		392  Points		372  Points		204  Points		401  Points		299  Points		119  Points	
Freq (MHz)	Vph (m/ms)	Freq (MHz)	Vph (m/ms)	Freq (MHz)	Vph (m/ms)	Freq (MHz)	Vph (m/ms)	Freq (MHz)	Vph (m/ms)	Freq (MHz)	Vph (m/ms)	Freq (MHz)	Vph (m/ms)
1.00087	2.60306	1.00046	2.60325	0.469759	599.744	0.866025	127633	0.216506	14486.6	0.649519	1390.25	0.939436	2169.75
0.998665	2.60406	0.998247	2.60425	0.469933	264.113	0.866027	863.601	0.216544	214.195	0.649517	443.896	0.939449	657.42
0.996448	2.60504	0.996028	2.60523	0.47024	169.437	0.866031	433.268	0.216656	107.951	0.649513	264.111	0.939477	387.41
0.994224	2.60601	0.993802	2.6062	0.470672	124.803	0.866038	289.175	0.216842	72.2081	0.649507	187.976	0.939519	274.63
0.991992	2.60697	0.991569	2.60715	0.471224	98.8439	0.866048	217.007	0.217101	54.2882	0.649499	145.913	0.939576	212.715
0.989753	2.60791	0.989329	2.60809	0.471887	81.8768	0.86606	173.667	0.217432	43.5295	0.649489	119.231	0.939647	173.588
0.987506	2.60884	0.987081	2.60901	0.472652	69.9251	0.866076	144.758	0.217836	36.36	0.649477	100.798	0.939733	146.624
0.985252	2.60975	0.984825	2.60992	0.47351	61.0553	0.866094	124.101	0.218311	31.2448	0.649464	87.301	0.939832	126.916
0.98299	2.61065	0.982562	2.61081	0.474452	54.2141	0.866115	108.604	0.218856	27.4148	0.649448	76.9909	0.939946	111.883
0.98072	2.61153	0.980291	2.61169	0.47547	48.7788	0.866139	96.5487	0.21947	24.4421	0.649431	68.8583	0.940075	100.038
0.978443	2.61239	0.978012	2.61255	0.476556	44.3576	0.866165	86.9031	0.220152	22.07	0.649412	62.2792	0.940217	90.4646
0.976158	2.61324	0.975726	2.6134	0.477703	40.6918	0.866195	79.0104	0.220901	20.1346	0.649391	56.8471	0.940374	82.5669
0.973866	2.61407	0.973432	2.61423	0.478904	37.6037	0.866227	72.4327	0.221715	18.5268	0.649369	52.2863	0.940544	75.9406
0.971566	2.61489	0.97113	2.61504	0.480155	34.9672	0.866263	66.8665	0.222593	17.1711	0.649345	48.4025	0.940729	70.3018
0.969258	2.61569	0.968821	2.61584	0.48145	32.6903	0.866301	62.0954	0.223533	16.0132	0.649319	45.0555	0.940927	65.4453
0.966943	2.61648	0.966505	2.61662	0.482785	30.7044	0.866342	57.9604	0.224534	15.0137	0.649292	42.1411	0.941139	61.219
0.96462	2.61725	0.964181	2.61739	0.484156	28.9573	0.866386	54.3422	0.225594	14.1426	0.649263	39.5806	0.941365	57.5078
0.962291	2.618	0.961849	2.61814	0.48556	27.4085	0.866433	51.1496	0.226712	13.3774	0.649234	37.3131	0.941605	54.2231
0.959953	2.61874	0.959511	2.61888	0.486994	26.0262	0.866483	48.3118	0.227885	12.7002	0.649203	35.2912	0.941858	51.2955
0.957609	2.61946	0.957165	2.61959	0.488455	24.785	0.866537	45.7728	0.229112	12.0971	0.649171	33.4768	0.942124	48.6699
0.955257	2.62017	0.954812	2.6203	0.489942	23.6644	0.866593	43.4878	0.230391	11.5569	0.649138	31.8397	0.942404	46.3019
0.952899	2.62086	0.952452	2.62099	0.491451	22.6478	0.866652	41.4205	0.231721	11.0705	0.649104	30.3551	0.942696	44.1555
0.950534	2.62153	0.950086	2.62166	0.492982	21.7213	0.866715	39.5412	0.23292	10.6847	0.649069	29.0026	0.943002	42.201
0.948162	2.62219	0.947713	2.62232	0.494533	20.8736	0.86678	37.8253	0.233971	10.3806	0.649034	27.7653	0.943321	40.4139
0.945783	2.62284	0.945333	2.62296	0.496102	20.095	0.866849	36.2526	0.234859	10.1446	0.648998	26.6291	0.943653	38.7735
0.943398	2.62347	0.942947	2.62359	0.497688	19.3774	0.866922	34.8058	0.235573	9.96715	0.648961	25.5821	0.943997	37.2627
0.941007	2.62409	0.940554	2.62421	0.49929	18.7141	0.866997	33.4704	0.236105	9.84152	0.648924	24.6142	0.944354	35.8666
0.938609	2.6247	0.938155	2.62481	0.500907	18.099	0.867076	32.234	0.236448	9.76318	0.648887	23.7168	0.944723	34.5728
0.936206	2.62529	0.935751	2.6254	0.502538	17.5272	0.867158	31.086	0.236945	9.65327	0.64885	22.8824	0.945104	33.3704
0.933796	2.62587	0.93334	2.62597	0.504182	16.9942	0.867244	30.0173	0.237491	9.53729	0.648813	22.1046	0.945497	32.2501
0.931381	2.62643	0.930924	2.62654	0.505839	16.4962	0.867333	29.0199	0.238242	9.38512	0.648776	21.378	0.945902	31.2038
0.92896	2.62698	0.928502	2.62709	0.507508	16.0299	0.867425	28.087	0.239206	9.20131	0.64874	20.6975	0.946319	30.2245
0.926534	2.62752	0.926075	2.62762	0.509187	15.5924	0.867522	27.2125	0.240392	8.99103	0.648704	20.0589	0.946747	29.3059
0.924103	2.62805	0.923643	2.62815	0.510878	15.1812	0.867621	26.3911	0.24181	8.75971	0.648668	19.4585	0.947187	28.4426
0.921666	2.62857	0.921205	2.62866	0.512578	14.7938	0.867725	25.6181	0.243473	8.51281	0.648634	18.893	0.947638	27.6297
0.919225	2.62907	0.918763	2.62917	0.514288	14.4284	0.867832	24.8893	0.245173	8.28375	0.6486	18.3594	0.9481	26.8631
0.916778	2.62957	0.916315	2.62966	0.516007	14.0831	0.867943	24.2012	0.246908	8.07075	0.648567	17.855	0.948572	26.1388
0.914327	2.63005	0.913863	2.63014	0.517734	13.7563	0.868058	23.5503	0.248676	7.87224	0.648536	17.3777	0.949056	25.4535
0.911871	2.63052	0.911407	2.63061	0.51947	13.4466	0.868177	22.9338	0.250476	7.68685	0.648506	16.9252	0.949549	24.8042
0.909411	2.63098	0.908946	2.63107	0.521213	13.1526	0.8683	22.3491	0.252306	7.51338	0.648478	16.4956	0.950053	24.188
0.906947	2.63144	0.906481	2.63152	0.522964	12.8732	0.868426	21.7936	0.254167	7.35075	0.648451	16.0873	0.950567	23.6025
0.904478	2.63188	0.904011	2.63196	0.524722	12.6074	0.868557	21.2654	0.256055	7.19802	0.648427	15.6988	0.951091	23.0456
0.902005	2.63231	0.901538	2.63239	0.526487	12.3541	0.868692	20.7623	0.25797	7.05434	0.648404	15.3286	0.951624	22.5151
0.899529	2.63274	0.89906	2.63282	0.528258	12.1126	0.868831	20.2828	0.259912	6.91898	0.648384	14.9755	0.952167	22.0093
0.897048	2.63315	0.896579	2.63323	0.530035	11.882	0.868975	19.8252	0.261878	6.79124	0.648366	14.6384	0.952719	21.5265
0.894564	2.63356	0.894094	2.63364	0.531818	11.6616	0.869123	19.388	0.263867	6.67053	0.648351	14.3161	0.95328	21.0651
0.892076	2.63396	0.891606	2.63404	0.533607	11.4507	0.869275	18.9699	0.265879	6.55631	0.648339	14.0078	0.95385	20.6237
0.889585	2.63435	0.889114	2.63443	0.535401	11.2488	0.869432	18.5697	0.267912	6.44809	0.64833	13.7125	0.954428	20.2012
0.887091	2.63474	0.886619	2.63481	0.5372	11.0552	0.869593	18.1863	0.269966	6.34541	0.648324	13.4294	0.955014	19.7963
0.884593	2.63512	0.884121	2.63519	0.538772	10.893	0.86976	17.8186	0.27204	6.24788	0.648321	13.1579	0.955609	19.4079
0.882092	2.63549	0.88162	2.63556	0.540114	10.7592	0.869931	17.4657	0.274132	6.15513	0.648322	12.8972	0.956211	19.0351
0.879589	2.63585	0.879115	2.63592	0.541226	10.6515	0.870106	17.1267	0.276242	6.06683	0.648327	12.6467	0.956821	18.6769
0.877082	2.63621	0.876608	2.63627	0.542107	10.5682	0.870287	16.8009	0.278369	5.98267	0.648336	12.4059	0.957439	18.3325
0.874572	2.63656	0.874098	2.63662	0.542755	10.508	0.870472	16.4875	0.280512	5.90238	0.64835	12.1741	0.958063	18.0012
0.87206	2.6369	0.871585	2.63696	0.54317	10.4699	0.870663	16.1857	0.282671	5.82571	0.648367	11.9509	0.958695	17.6821
0.869545	2.63724	0.86907	2.6373	0.543767	10.4157	0.870859	15.895	0.284844	5.75241	0.648389	11.7359	0.959333	17.3747
0.867028	2.63757	0.866552	2.63763	0.544416	10.3575	0.87106	15.6148	0.287031	5.68229	0.648416	11.5285	0.959978	17.0783
0.864508	2.6379	0.864031	2.63796	0.5453	10.2797	0.871267	15.3446	0.289232	5.61513	0.648449	11.3285	0.960628	16.7923
0.861985	2.63822	0.861508	2.63828	0.546419	10.1834	0.871478	15.0837	0.291445	5.55075	0.648481	11.1598	0.961285	16.5163
0.859461	2.63854	0.858983	2.63859	0.547774	10.0698	0.871696	14.8318	0.293669	5.489	0.648512	11.02	0.961948	16.2496
0.856934	2.63885	0.856456	2.63891	0.549366	9.94044	0.871919	14.5883	0.295905	5.42971	0.648539	10.9071	0.962616	15.9918
0.854405	2.63915	0.853927	2.63921	0.551196	9.79699	0.872148	14.353	0.298152	5.37274	0.648563	10.8195	0.963289	15.7425
0.851874	2.63946	0.851395	2.63951	0.55303	9.65859	0.872382	14.1253	0.300409	5.31796	0.648581	10.7559	0.963968	15.5012
0.84934	2.63975	0.848862	2.63981	0.554866	9.52496	0.872623	13.9049	0.302675	5.26524	0.648593	10.7157	0.964651	15.2677
0.846805	2.64005	0.846326	2.6401	0.556704	9.39588	0.872869	13.6916	0.304951	5.21447	0.648611	10.6584	0.965339	15.0415
0.844268	2.64034	0.843789	2.64039	0.558546	9.2711	0.873122	13.4849	0.307234	5.16555	0.648631	10.5967	0.966031	14.8222
0.84173	2.64062	0.84125	2.64068	0.560389	9.15042	0.873381	13.2845	0.309526	5.11837	0.648659	10.5141	0.966727	14.6096
0.839189	2.6409	0.838709	2.64096	0.562235	9.03364	0.873646	13.0902	0.311825	5.07283	0.648698	10.4115	0.967427	14.4034
0.836647	2.64118	0.836166	2.64123	0.564083	8.92057	0.873917	12.9017	0.314131	5.02887	0.648747	10.2901	0.96813	14.2032
0.834103	2.64146	0.833622	2.64151	0.565932	8.81103	0.874195	12.7188	0.316444	4.98638	0.64881	10.1513	0.968837	14.0089
0.831557	2.64173	0.831076	2.64178	0.567783	8.70486	0.87448	12.5412	0.318763	4.9453	0.648888	9.99674	0.969548	13.8201
0.82901	2.642	0.828529	2.64205	0.569636	8.60191	0.874771	12.3687	0.321087	4.90556	0.648973	9.84695	0.970261	13.6367
0.826462	2.64226	0.82598	2.64231	0.57149	8.50202	0.87507	12.2011	0.323417	4.86709	0.649065	9.70173	0.970976	13.4584
0.823912	2.64253	0.82343	2.64257	0.573344	8.40507	0.875375	12.0382	0.325752	4.82983	0.649165	9.56088	0.971695	13.2849
0.821361	2.64279	0.820878	2.64283	0.5752	8.31092	0.875688	11.8798	0.32809	4.79371	0.649272	9.42421	0.972415	13.1162
0.818808	2.64304	0.818326	2.64309	0.577056	8.21946	0.876007	11.7257	0.330433	4.75869	0.649387	9.29155	0.973138	12.9519
0.816254	2.6433	0.815771	2.64334	0.578913	8.13056	0.876292	11.5948	0.33278	4.72472	0.64951	9.16273	0.973862	12.792
0.813699	2.64355	0.813216	2.6436	0.58077	8.04411	0.876538	11.4856	0.33513	4.69173	0.649641	9.03759	0.974588	12.6362
0.811143	2.6438	0.81066	2.64385	0.582628	7.96003	0.876746	11.3969	0.337483	4.6597	0.649781	8.91599	0.975315	12.4844
0.808585	2.64405	0.808102	2.64409	0.584485	7.8782	0.876912	11.3278	0.339838	4.62856	0.649929	8.79779	0.976044	12.3364
0.806027	2.64429	0.805543	2.64434	0.586342	7.79853	0.877035	11.2776	0.342195	4.59829	0.650087	8.68285	0.976773	12.1922
0.803467	2.64454	0.802983	2.64458	0.588199	7.72095	0.877114	11.2457	0.344555	4.56885	0.650254	8.57106	0.977504	12.0514
0.800906	2.64478	0.800422	2.64482	0.590056	7.64536	0.877229	11.2002	0.346916	4.54019	0.65043	8.46228	0.978235	11.9142
0.798344	2.64502	0.79786	2.64506	0.591912	7.57169	0.877355	11.1511	0.349278	4.51229	0.650615	8.35641	0.978872	11.7972
0.795782	2.64526	0.795297	2.6453	0.593767	7.49986	0.877527	11.0852	0.351641	4.4851	0.650811	8.25334	0.979415	11.6994
0.793218	2.64549	0.792734	2.64554	0.595621	7.42981	0.877748	11.0029	0.354005	4.45861	0.651017	8.15297	0.979865	11.6199
0.790654	2.64573	0.790169	2.64578	0.597474	7.36146	0.878019	10.9052	0.356369	4.43278	0.651233	8.05519	0.98022	11.5578
0.788088	2.64597	0.787603	2.64601	0.599326	7.29476	0.878343	10.7928	0.358733	4.40758	0.651459	7.95993	0.980481	11.5126
0.785522	2.6462	0.785037	2.64624	0.601176	7.22963	0.878722	10.667	0.361097	4.38298	0.651697	7.86709	0.980648	11.4838
0.782955	2.64643	0.78247	2.64647	0.603024	7.16602	0.879109	10.5442	0.36346	4.35897	0.651946	7.77659	0.980889	11.4428
0.780387	2.64666	0.779902	2.64671	0.604871	7.10389	0.879505	10.4244	0.365822	4.33551	0.652205	7.68834	0.98115	11.3985
0.777819	2.64689	0.777334	2.64694	0.606716	7.04317	0.879909	10.3075	0.368183	4.31258	0.652477	7.60228	0.981505	11.3389
0.77525	2.64712	0.774764	2.64717	0.608559	6.98381	0.880321	10.1934	0.370543	4.29017	0.65276	7.51833	0.981954	11.2645
0.77268	2.64735	0.772194	2.64739	0.610399	6.92577	0.880743	10.082	0.372901	4.26825	0.653055	7.43642	0.982497	11.1759
0.77011	2.64758	0.769624	2.64762	0.612237	6.86899	0.881173	9.9732	0.375257	4.2468	0.653363	7.35649	0.983133	11.0738
0.767538	2.64781	0.767053	2.64785	0.614073	6.81345	0.881612	9.86694	0.377611	4.22581	0.653683	7.27846	0.983862	10.959
0.764967	2.64803	0.764481	2.64808	0.615906	6.75908	0.882061	9.76313	0.379962	4.20525	0.654015	7.20229	0.984591	10.8468
0.762395	2.64826	0.761908	2.6483	0.617735	6.70587	0.882518	9.66168	0.382311	4.1851	0.654361	7.12791	0.985318	10.737
0.759822	2.64849	0.759336	2.64853	0.619562	6.65375	0.882986	9.56252	0.384656	4.16536	0.65472	7.05528	0.986044	10.6296
0.757248	2.64871	0.756762	2.64876	0.621386	6.60271	0.883462	9.46558	0.386998	4.14601	0.655092	6.98432	0.986769	10.5244
0.754675	2.64894	0.754188	2.64898	0.623206	6.5527	0.883948	9.37078	0.389337	4.12702	0.655478	6.91501	0.987493	10.4214
0.752101	2.64916	0.751614	2.64921	0.625023	6.50369	0.884444	9.27808	0.391671	4.10839	0.655878	6.84728	0.988214	10.3205
0.749526	2.64939	0.749039	2.64943	0.626836	6.45565	0.88495	9.18739	0.394002	4.09011	0.656292	6.78109	0.988934	10.2217
0.746951	2.64962	0.746464	2.64966	0.628645	6.40855	0.885466	9.09866	0.396329	4.07216	0.656721	6.71639	0.989653	10.1249
0.744375	2.64984	0.743889	2.64989	0.63045	6.36235	0.885992	9.01183	0.398651	4.05452	0.657164	6.65315	0.990369	10.03
0.7418	2.65007	0.741313	2.65011	0.632252	6.31703	0.886529	8.92685	0.400968	4.03719	0.657622	6.59133	0.991083	9.93701
0.739223	2.6503	0.738737	2.65034	0.634048	6.27256	0.887076	8.84366	0.40328	4.02015	0.658095	6.53087	0.991795	9.84582
0.736647	2.65053	0.73616	2.65057	0.635841	6.22892	0.887633	8.76221	0.405587	4.0034	0.658583	6.47175	0.992505	9.7564
0.73407	2.65075	0.733583	2.6508	0.637629	6.18607	0.888201	8.68245	0.407888	3.98692	0.659087	6.41392	0.993213	9.66869
0.731493	2.65098	0.731006	2.65103	0.639412	6.144	0.88878	8.60434	0.410184	3.9707	0.659607	6.35736	0.993918	9.58264
0.728916	2.65121	0.728429	2.65126	0.64119	6.10268	0.88937	8.52782	0.412474	3.95474	0.660143	6.30202	0.994621	9.49821
0.726338	2.65144	0.725851	2.65149	0.642963	6.06209	0.889971	8.45285	0.414757	3.93901	0.660695	6.24789	0.995321	9.41534
0.723761	2.65168	0.723274	2.65172	0.644731	6.02221	0.890583	8.37939	0.417034	3.92353	0.661263	6.19492	0.996019	9.33399
0.721183	2.65191	0.720696	2.65195	0.646494	5.98301	0.891207	8.30741	0.419305	3.90826	0.661849	6.14308	0.996714	9.25413
0.718605	2.65214	0.718118	2.65219	0.648252	5.94448	0.891842	8.23685	0.421569	3.89322	0.662451	6.09234	0.997406	9.1757
0.716027	2.65238	0.71554	2.65242	0.650003	5.90659	0.892488	8.16769	0.423825	3.87839	0.66307	6.04269	0.998096	9.09868
0.713449	2.65261	0.712961	2.65266	0.651749	5.86934	0.893146	8.09988	0.426075	3.86375	0.663707	5.99409	0.998783	9.02301
0.71087	2.65285	0.710383	2.6529	0.65349	5.83269	0.893816	8.03339	0.428316	3.84931	0.664362	5.9465	0.999467	8.94868
0.708292	2.65309	0.707804	2.65314	0.655224	5.79664	0.894498	7.96819	0.43055	3.83506	0.665034	5.89992	1.00015	8.87563
0.705713	2.65333	0.705226	2.65338	0.656952	5.76116	0.895192	7.90424	0.432777	3.82099	0.665724	5.85432		
0.703135	2.65357	0.702647	2.65362	0.658674	5.72624	0.895898	7.84151	0.434995	3.8071	0.666433	5.80966		
0.700556	2.65382	0.700069	2.65386	0.660389	5.69187	0.896617	7.77998	0.437205	3.79337	0.66716	5.76593		
0.697978	2.65406	0.69749	2.65411	0.662098	5.65803	0.897348	7.7196	0.439406	3.77981	0.667905	5.72311		
0.695399	2.65431	0.694912	2.65436	0.663801	5.6247	0.898091	7.66036	0.441599	3.7664	0.668669	5.68117		
0.692821	2.65456	0.692334	2.65461	0.665496	5.59188	0.898847	7.60222	0.443782	3.75314	0.669453	5.6401		
0.690242	2.65482	0.689755	2.65486	0.667185	5.55954	0.899616	7.54516	0.445957	3.74003	0.670255	5.59987		
0.687664	2.65507	0.687177	2.65512	0.668867	5.52767	0.900397	7.48915	0.448122	3.72705	0.671077	5.56046		
0.685086	2.65533	0.684599	2.65538	0.670542	5.49627	0.901192	7.43417	0.450278	3.71422	0.671919	5.52186		
0.682508	2.65559	0.682021	2.65564	0.672209	5.46532	0.901999	7.38019	0.452425	3.70151	0.67278	5.48405		
0.67993	2.65585	0.679443	2.6559	0.67387	5.43481	0.902819	7.32719	0.454561	3.68893	0.673661	5.44701		
0.677353	2.65612	0.676866	2.65617	0.675523	5.40472	0.903653	7.27515	0.456688	3.67647	0.674562	5.41072		
0.674776	2.65638	0.674288	2.65644	0.677168	5.37506	0.9045	7.22404	0.458805	3.66413	0.675483	5.37517		
0.672198	2.65666	0.671711	2.65671	0.678806	5.34579	0.905361	7.17384	0.460912	3.65191	0.676425	5.34033		
0.669622	2.65693	0.669135	2.65698	0.680436	5.31693	0.906234	7.12454	0.463008	3.63979	0.677387	5.3062		
0.667045	2.65721	0.666558	2.65726	0.682059	5.28844	0.907122	7.07611	0.465094	3.62778	0.67837	5.27276		
0.664469	2.65749	0.663982	2.65754	0.683673	5.26034	0.908023	7.02852	0.467169	3.61588	0.679373	5.24		
0.661893	2.65778	0.661406	2.65783	0.68528	5.2326	0.908937	6.98178	0.469233	3.60407	0.680398	5.20789		
0.659318	2.65807	0.658831	2.65812	0.686879	5.20522	0.909866	6.93584	0.471287	3.59236	0.681443	5.17642		
0.656742	2.65836	0.656256	2.65841	0.68847	5.17819	0.910808	6.89071	0.473329	3.58075	0.682509	5.14559		
0.654168	2.65866	0.653681	2.65871	0.690052	5.1515	0.911764	6.84635	0.475361	3.56922	0.683596	5.11538		
0.651594	2.65896	0.651107	2.65902	0.691627	5.12515	0.912733	6.80275	0.477382	3.55779	0.684705	5.08577		
0.64902	2.65926	0.648534	2.65932	0.693193	5.09912	0.913717	6.7599	0.479391	3.54644	0.685835	5.05675		
0.646447	2.65957	0.645961	2.65963	0.694751	5.07341	0.914715	6.71778	0.481389	3.53517	0.686986	5.02831		
0.643874	2.65989	0.643388	2.65995	0.6963	5.04801	0.915727	6.67637	0.483376	3.52399	0.688158	5.00044		
0.641302	2.66021	0.640816	2.66027	0.697842	5.02291	0.916752	6.63567	0.485351	3.51288	0.689352	4.97312		
0.638731	2.66054	0.638245	2.6606	0.699374	4.99811	0.917792	6.59564	0.487316	3.50185	0.690568	4.94635		
0.63616	2.66087	0.635674	2.66093	0.700899	4.9736	0.918846	6.55629	0.489268	3.49089	0.691805	4.9201		
0.63359	2.6612	0.633104	2.66127	0.702415	4.94938	0.919914	6.51759	0.491209	3.48001	0.693063	4.89438		
0.631021	2.66155	0.630535	2.66161	0.703922	4.92543	0.920996	6.47953	0.493139	3.4692	0.694343	4.86917		
0.628452	2.6619	0.627967	2.66196	0.705421	4.90176	0.922093	6.4421	0.495057	3.45847	0.695644	4.84446		
0.625884	2.66225	0.625399	2.66232	0.706912	4.87835	0.923203	6.40529	0.496964	3.44779	0.696967	4.82024		
0.623317	2.66261	0.622832	2.66268	0.708394	4.85521	0.924327	6.36907	0.498859	3.43719	0.698311	4.79649		
0.620751	2.66298	0.620266	2.66305	0.709867	4.83232	0.925466	6.33345	0.500743	3.42666	0.699676	4.77321		
0.618186	2.66336	0.617701	2.66343	0.711332	4.80968	0.926619	6.29841	0.502615	3.41618	0.701063	4.7504		
0.615622	2.66374	0.615137	2.66381	0.712788	4.78728	0.927785	6.26393	0.504476	3.40578	0.702471	4.72803		
0.613059	2.66413	0.612574	2.66421	0.714236	4.76513	0.928966	6.23001	0.506326	3.39543	0.7039	4.7061		
0.610496	2.66453	0.610012	2.66461	0.715676	4.74322	0.930161	6.19663	0.508164	3.38515	0.70535	4.6846		
0.607935	2.66494	0.607452	2.66502	0.717107	4.72153	0.931369	6.16378	0.509992	3.37493	0.706821	4.66352		
0.605376	2.66535	0.604892	2.66543	0.71853	4.70008	0.932592	6.13146	0.511808	3.36477	0.708313	4.64285		
0.602817	2.66578	0.602334	2.66586	0.719944	4.67885	0.933829	6.09964	0.513613	3.35467	0.709826	4.62258		
0.60026	2.66621	0.599776	2.6663	0.72135	4.65783	0.935079	6.06833	0.515407	3.34463	0.711359	4.60271		
0.597703	2.66666	0.597221	2.66674	0.722748	4.63703	0.936343	6.03751	0.51719	3.33465	0.712913	4.58323		
0.595149	2.66711	0.594666	2.6672	0.724137	4.61645	0.93762	6.00716	0.518963	3.32473	0.714487	4.56412		
0.592596	2.66758	0.592113	2.66767	0.725518	4.59607	0.938912	5.97729	0.520725	3.31487	0.716081	4.54539		
0.590044	2.66805	0.589562	2.66814	0.726891	4.5759	0.940217	5.94789	0.522477	3.30506	0.717695	4.52701		
0.587494	2.66854	0.587012	2.66863	0.728256	4.55592	0.941535	5.91893	0.524219	3.29532	0.719328	4.50899		
0.584945	2.66904	0.584464	2.66914	0.729614	4.53615	0.942866	5.89042	0.52595	3.28563	0.720982	4.49131		
0.582398	2.66955	0.581917	2.66965	0.730963	4.51657	0.944211	5.86234	0.527672	3.276	0.722655	4.47397		
0.579853	2.67008	0.579373	2.67018	0.732304	4.49718	0.945569	5.83469	0.529384	3.26643	0.724346	4.45696		
0.57731	2.67061	0.57683	2.67072	0.733638	4.47798	0.94694	5.80746	0.531086	3.25691	0.726057	4.44027		
0.574769	2.67117	0.574289	2.67127	0.734964	4.45896	0.948324	5.78064	0.532778	3.24746	0.727787	4.4239		
0.57223	2.67173	0.571751	2.67184	0.736282	4.44013	0.949721	5.75421	0.534462	3.23806	0.729535	4.40784		
0.569693	2.67232	0.569214	2.67243	0.737593	4.42148	0.951131	5.72819	0.536136	3.22872	0.731301	4.39208		
0.567159	2.67292	0.56668	2.67303	0.738897	4.403	0.952553	5.70254	0.537802	3.21944	0.733085	4.37662		
0.564627	2.67353	0.564148	2.67365	0.740193	4.38471	0.953988	5.67728	0.539459	3.21022	0.734887	4.36144		
0.562097	2.67417	0.561619	2.67429	0.741482	4.36658	0.955435	5.65239	0.541107	3.20106	0.736706	4.34654		
0.559569	2.67482	0.559092	2.67494	0.742764	4.34862	0.956894	5.62786	0.542747	3.19195	0.738543	4.33192		
0.557045	2.67549	0.556568	2.67562	0.744039	4.33083	0.958365	5.60368	0.54438	3.18291	0.740396	4.31757		
0.554523	2.67618	0.554047	2.67631	0.745308	4.31321	0.959848	5.57986	0.546004	3.17392	0.742267	4.30348		
0.552005	2.67689	0.551529	2.67703	0.74657	4.29575	0.961343	5.55638	0.547621	3.165	0.744153	4.28965		
0.549489	2.67762	0.549014	2.67776	0.747825	4.27845	0.962849	5.53323	0.549231	3.15613	0.746056	4.27606		
0.546976	2.67838	0.546502	2.67853	0.749073	4.26131	0.964367	5.51041	0.550833	3.14732	0.747974	4.26272		
0.544467	2.67916	0.543994	2.67931	0.750316	4.24433	0.965897	5.48792	0.552429	3.13858	0.749908	4.24962		
0.541962	2.67997	0.541489	2.68012	0.751552	4.22751	0.967437	5.46574	0.554018	3.1299	0.751857	4.23675		
0.53946	2.6808	0.538988	2.68096	0.752782	4.21083	0.968988	5.44387	0.5556	3.12127	0.753821	4.22411		
0.536962	2.68166	0.536491	2.68183	0.754006	4.19431	0.970551	5.4223	0.557177	3.11271	0.755799	4.21169		
0.534469	2.68255	0.533998	2.68272	0.755225	4.17794	0.972124	5.40104	0.558748	3.10421	0.757792	4.19949		
0.531979	2.68347	0.531509	2.68365	0.756438	4.16172	0.973707	5.38006	0.560312	3.09578	0.759799	4.1875		
0.529494	2.68442	0.529025	2.68461	0.757645	4.14564	0.9753	5.35937	0.561872	3.0874	0.761819	4.17571		
0.527014	2.68541	0.526546	2.6856	0.758847	4.12971	0.976904	5.33896	0.563426	3.07909	0.763853	4.16412		
0.524539	2.68643	0.524072	2.68663	0.760043	4.11393	0.978518	5.31883	0.564976	3.07084	0.7659	4.15273		
0.522069	2.68749	0.521603	2.6877	0.761235	4.09828	0.980141	5.29897	0.56652	3.06266	0.767959	4.14153		
0.519605	2.68859	0.519139	2.6888	0.762422	4.08278	0.981774	5.27937	0.56806	3.05454	0.770031	4.13052		
0.517146	2.68973	0.516682	2.68995	0.763604	4.06741	0.983417	5.26002	0.569596	3.04648	0.772115	4.11968		
0.514693	2.69091	0.51423	2.69114	0.764781	4.05219	0.985068	5.24094	0.571128	3.03849	0.774211	4.10903		
0.512247	2.69214	0.511785	2.69238	0.765954	4.03709	0.986729	5.2221	0.572657	3.03056	0.776318	4.09855		
0.509807	2.69342	0.509347	2.69367	0.767122	4.02214	0.988398	5.20351	0.574181	3.0227	0.778436	4.08823		
0.507375	2.69475	0.506916	2.69501	0.768286	4.00731	0.990076	5.18515	0.575703	3.0149	0.780565	4.07808		
0.50495	2.69613	0.504492	2.6964	0.769447	3.99262	0.991763	5.16703	0.577221	3.00716	0.782704	4.06809		
0.502532	2.69757	0.502076	2.69785	0.770603	3.97806	0.993458	5.14914	0.578737	2.99949	0.784854	4.05825		
0.500123	2.69907	0.499669	2.69936	0.771756	3.96363	0.99516	5.13147	0.580249	2.99189	0.787013	4.04857		
0.497723	2.70063	0.49727	2.70093	0.772905	3.94933	0.996871	5.11403	0.58176	2.98435	0.789182	4.03903		
0.495331	2.70226	0.49488	2.70258	0.77405	3.93516	0.998589	5.0968	0.583268	2.97688	0.79136	4.02963		
0.492949	2.70396	0.4925	2.70429	0.775192	3.92111	1.00032	5.07979	0.584775	2.96947	0.793547	4.02038		
0.490577	2.70573	0.49013	2.70607	0.776332	3.90719			0.586279	2.96213	0.795742	4.01126		
0.488216	2.70758	0.487771	2.70794	0.777468	3.89339			0.587783	2.95486	0.797946	4.00227		
0.485866	2.70951	0.485423	2.70989	0.778601	3.87971			0.589284	2.94765	0.800158	3.99342		
0.483528	2.71154	0.483087	2.71193	0.779732	3.86616			0.590785	2.9405	0.802377	3.98469		
0.481201	2.71365	0.480763	2.71406	0.780859	3.85272			0.592285	2.93343	0.804604	3.97608		
0.478888	2.71586	0.478453	2.71629	0.781985	3.83941			0.593784	2.92641	0.806838	3.96759		
0.476589	2.71817	0.476156	2.71862	0.783108	3.82621			0.595283	2.91947	0.809078	3.95921		
0.474303	2.72059	0.473873	2.72106	0.78423	3.81313			0.596781	2.91259	0.811325	3.95095		
0.472033	2.72313	0.471606	2.72362	0.785349	3.80017			0.598279	2.90578	0.813578	3.9428		
0.469778	2.72578	0.469354	2.7263	0.786466	3.78733			0.599778	2.89903	0.815837	3.93475		
0.46754	2.72856	0.467119	2.7291	0.787582	3.77459			0.601276	2.89235	0.818101	3.92681		
0.465319	2.73148	0.464901	2.73204	0.788696	3.76197			0.602775	2.88573	0.82037	3.91896		
0.463116	2.73453	0.462702	2.73513	0.789809	3.74947			0.604274	2.87918	0.822645	3.91122		
0.460932	2.73774	0.460521	2.73836	0.79092	3.73707			0.605775	2.8727	0.824924	3.90357		
0.458767	2.7411	0.458361	2.74175	0.79203	3.72479			0.607276	2.86628	0.827207	3.89601		
0.456623	2.74462	0.456221	2.74531	0.793139	3.71262			0.608778	2.85992	0.829494	3.88854		
0.454501	2.74832	0.454102	2.74904	0.794248	3.70055			0.610282	2.85363	0.831785	3.88116		
0.4524	2.75219	0.452006	2.75295	0.795355	3.68859			0.611787	2.84741	0.834079	3.87386		
0.450323	2.75626	0.449933	2.75705	0.796462	3.67674			0.613293	2.84125	0.836377	3.86665		
0.448269	2.76052	0.447884	2.76134	0.797569	3.665			0.614802	2.83516	0.838677	3.85951		
0.44624	2.76498	0.44586	2.76585	0.798675	3.65336			0.616312	2.82913	0.840981	3.85245		
0.444237	2.76966	0.443861	2.77057	0.79978	3.64183			0.617824	2.82316	0.843286	3.84546		
0.44226	2.77456	0.441889	2.77552	0.800886	3.6304			0.619338	2.81726	0.845593	3.83855		
0.440309	2.7797	0.439944	2.78069	0.801992	3.61907			0.620855	2.81142	0.847902	3.83171		
0.438387	2.78507	0.438027	2.78611	0.803097	3.60784			0.622374	2.80564	0.850213	3.82493		
0.436492	2.79069	0.436138	2.79179	0.804203	3.59672			0.623896	2.79993	0.852524	3.81822		
0.434627	2.79658	0.434278	2.79772	0.80531	3.58569			0.62542	2.79428	0.854837	3.81158		
0.432791	2.80272	0.432447	2.80392	0.806417	3.57477			0.626948	2.7887	0.85715	3.80499		
0.430985	2.80915	0.430647	2.81039	0.807524	3.56394			0.628478	2.78317	0.859464	3.79847		
0.429209	2.81585	0.428876	2.81715	0.808632	3.55321			0.630011	2.77771	0.861777	3.792		
0.427463	2.82285	0.427137	2.8242	0.809741	3.54258			0.631548	2.77231	0.864091	3.78559		
0.425749	2.83014	0.425429	2.83156	0.810851	3.53204			0.633088	2.76697	0.866403	3.77923		
0.424066	2.83775	0.423752	2.83922	0.811961	3.5216			0.634631	2.76169	0.868716	3.77292		
0.422415	2.84566	0.422106	2.84719	0.813073	3.51126			0.636178	2.75648	0.871027	3.76667		
0.420795	2.8539	0.420493	2.85549	0.814187	3.501			0.637728	2.75132	0.873337	3.76046		
0.419207	2.86246	0.41891	2.86412	0.815301	3.49085			0.639283	2.74623	0.875645	3.7543		
0.41765	2.87136	0.41736	2.87308	0.816417	3.48078			0.640841	2.74119	0.877951	3.74818		
0.416125	2.88061	0.415841	2.88239	0.817534	3.4708			0.642404	2.73622	0.880256	3.74211		
0.414632	2.8902	0.414353	2.89205	0.818654	3.46092			0.64397	2.7313	0.882558	3.73607		
0.41317	2.90014	0.412898	2.90206	0.819774	3.45113			0.645541	2.72645	0.884857	3.73008		
0.41174	2.91045	0.411473	2.91244	0.820897	3.44142			0.647116	2.72165	0.887154	3.72412		
0.41034	2.92112	0.410079	2.92318	0.822022	3.43181			0.648695	2.71691	0.889447	3.7182		
0.408972	2.93217	0.408717	2.9343	0.823148	3.42228			0.650279	2.71223	0.891737	3.71232		
0.407634	2.9436	0.407384	2.9458	0.824277	3.41284			0.651868	2.70761	0.894024	3.70647		
0.406326	2.95541	0.406083	2.95769	0.825407	3.40349			0.653462	2.70305	0.896306	3.70065		
0.405049	2.96762	0.404811	2.96998	0.82654	3.39422			0.65506	2.69854	0.898584	3.69486		
0.403802	2.98023	0.40357	2.98266	0.827676	3.38503			0.656663	2.69409	0.900858	3.68911		
0.402584	2.99325	0.402358	2.99576	0.828814	3.37594			0.658272	2.6897	0.903128	3.68338		
0.401396	3.00668	0.401175	3.00927	0.829954	3.36692			0.659885	2.68536	0.905392	3.67767		
0.400237	3.02053	0.400021	3.0232	0.831097	3.35799			0.661504	2.68108	0.907652	3.67199		
0.399107	3.03482	0.398896	3.03756	0.832243	3.34914			0.663128	2.67686	0.909906	3.66634		
0.398005	3.04953	0.3978	3.05236	0.833391	3.34037			0.664758	2.67269	0.912154	3.66071		
0.396931	3.0647	0.396731	3.06761	0.834542	3.33169			0.666393	2.66858	0.914397	3.6551		
0.395886	3.08031	0.395691	3.08332	0.835697	3.32308			0.668035	2.66453	0.916633	3.64951		
0.394868	3.09639	0.394679	3.09948	0.836854	3.31455			0.669681	2.66053	0.918863	3.64393		
0.393878	3.11294	0.393693	3.11612	0.838014	3.30611			0.671334	2.65658	0.921087	3.63838		
0.392915	3.12997	0.392736	3.13324	0.839177	3.29774			0.672993	2.65269	0.923304	3.63285		
0.391978	3.14748	0.391805	3.15085	0.840344	3.28945			0.674658	2.64885	0.925514	3.62733		
0.391069	3.1655	0.3909	3.16896	0.841514	3.28123			0.67633	2.64507	0.927717	3.62182		
0.390187	3.18403	0.390023	3.18758	0.842687	3.2731			0.678007	2.64134	0.929912	3.61633		
0.38933	3.20307	0.389172	3.20673	0.843864	3.26504			0.679692	2.63767	0.9321	3.61085		
0.3885	3.22265	0.388347	3.22641	0.845044	3.25705			0.681383	2.63405	0.93428	3.60538		
0.387696	3.24277	0.387547	3.24664	0.846227	3.24914			0.683081	2.63049	0.936452	3.59993		
0.386918	3.26345	0.386774	3.26742	0.847415	3.2413			0.684786	2.62698	0.938616	3.59448		
0.386166	3.2847	0.386027	3.28878	0.848605	3.23354			0.686498	2.62352	0.940771	3.58905		
0.385439	3.30653	0.385304	3.31072	0.8498	3.22585			0.688217	2.62012	0.942918	3.58362		
0.384737	3.32896	0.384608	3.33326	0.850999	3.21823			0.689944	2.61677	0.945056	3.5782		
0.384061	3.35199	0.383936	3.35642	0.852201	3.21068			0.691678	2.61347	0.947185	3.57279		
0.38341	3.37565	0.38329	3.3802	0.853407	3.20321			0.69342	2.61023	0.949306	3.56739		
0.382784	3.39996	0.382668	3.40462	0.854617	3.1958			0.69517	2.60705	0.951417	3.56199		
0.382182	3.42492	0.382071	3.42971	0.855831	3.18847			0.696929	2.60391	0.953518	3.55659		
0.381606	3.45055	0.381499	3.45547	0.85705	3.1812			0.698695	2.60084	0.95561	3.5512		
0.381054	3.47687	0.380952	3.48192	0.858272	3.174			0.700471	2.59781	0.957693	3.54582		
0.380526	3.5039	0.380429	3.50909	0.859499	3.16687			0.702255	2.59485	0.959765	3.54043		
0.380023	3.53166	0.379931	3.53699	0.86073	3.15981			0.704048	2.59193	0.961828	3.53505		
0.379544	3.56016	0.379457	3.56563	0.861965	3.15282			0.705851	2.58908	0.96388	3.52968		
0.37909	3.58943	0.379007	3.59505	0.863205	3.14589			0.707663	2.58627	0.965923	3.5243		
0.37866	3.61949	0.378581	3.62527	0.864449	3.13903			0.709486	2.58353	0.967955	3.51893		
0.378253	3.65037	0.378179	3.65629	0.865697	3.13224			0.711318	2.58084	0.969977	3.51356		
0.377871	3.68207	0.377801	3.68815	0.86695	3.12551			0.713161	2.57821	0.971988	3.50819		
0.377512	3.71463	0.377447	3.72088	0.868208	3.11884			0.715014	2.57564	0.97399	3.50282		
0.377178	3.74807	0.377117	3.75449	0.86947	3.11224			0.716879	2.57312	0.97598	3.49745		
0.376867	3.78242	0.376811	3.78901	0.870737	3.1057			0.718755	2.57067	0.97796	3.49208		
0.37658	3.8177	0.376528	3.82447	0.872009	3.09923			0.720644	2.56827	0.979929	3.48671		
0.376316	3.85394	0.376269	3.8609	0.873285	3.09282			0.722544	2.56594	0.981887	3.48134		
0.376076	3.89117	0.376033	3.89832	0.874566	3.08647			0.724457	2.56366	0.983835	3.47597		
0.375859	3.92942	0.375821	3.93677	0.875852	3.08018			0.726383	2.56145	0.985772	3.4706		
0.375666	3.96873	0.375632	3.97628	0.877143	3.07395			0.728323	2.5593	0.987698	3.46523		
0.375495	4.00912	0.375466	4.01687	0.878439	3.06778			0.730276	2.55721	0.989613	3.45986		
0.375348	4.05062	0.375323	4.05859	0.87974	3.06168			0.732244	2.55519	0.991518	3.45449		
0.375225	4.09328	0.375204	4.10148	0.881046	3.05563			0.734226	2.55324	0.993412	3.44912		
0.375124	4.13713	0.375107	4.14556	0.882358	3.04964			0.736224	2.55135	0.995295	3.44374		
0.375046	4.18222	0.375034	4.19088	0.883674	3.04372			0.738238	2.54952	0.997167	3.43837		
0.374991	4.22857	0.374983	4.23747	0.884995	3.03785			0.740267	2.54777	0.999029	3.433		
0.374958	4.27623	0.374955	4.28539	0.886322	3.03203			0.742313	2.54608	1.00088	3.42763		
0.374949	4.32526	0.37495	4.33467	0.887654	3.02628			0.744376	2.54447				
0.374962	4.37568	0.374967	4.38537	0.888992	3.02058			0.746456	2.54292				
0.374997	4.42756	0.375007	4.43753	0.890335	3.01494			0.748554	2.54144				
0.375055	4.48094	0.375069	4.4912	0.891683	3.00936			0.75067	2.54004				
0.375135	4.53587	0.375153	4.54643	0.893037	3.00383			0.752804	2.5387				
0.375238	4.59242	0.37526	4.60329	0.894396	2.99836			0.754956	2.53744				
0.375362	4.65063	0.375388	4.66183	0.895761	2.99294			0.757127	2.53624				
0.375509	4.71058	0.375539	4.72211	0.897132	2.98757			0.759317	2.53512				
0.375678	4.77232	0.375712	4.7842	0.898508	2.98227			0.761525	2.53406				
0.375868	4.83593	0.375906	4.84816	0.89989	2.97701			0.763752	2.53308				
0.37608	4.90147	0.376122	4.91408	0.901278	2.97181			0.765998	2.53216				
0.376314	4.96902	0.37636	4.98201	0.902671	2.96666			0.768262	2.53131				
0.376569	5.03865	0.376619	5.05205	0.904071	2.96157			0.770545	2.53053				
0.376845	5.11046	0.3769	5.12428	0.905476	2.95652			0.772845	2.52981				
0.377103	5.17487	0.377201	5.19878	0.906888	2.95153			0.775163	2.52915				
0.377336	5.23118	0.377524	5.27565	0.908305	2.9466			0.777499	2.52855				
0.377537	5.27875	0.377868	5.35499	0.909729	2.94171			0.779851	2.52802				
0.377702	5.31702	0.378232	5.4369	0.911159	2.93687			0.78222	2.52753				
0.377826	5.34554	0.378617	5.52149	0.912595	2.93209			0.784604	2.5271				
0.377943	5.37206	0.379023	5.60888	0.914037	2.92735			0.787004	2.52673				
0.378025	5.39068	0.379449	5.69919	0.915485	2.92267			0.789419	2.5264				
0.378157	5.42004	0.379896	5.79255	0.91694	2.91804			0.791847	2.52612				
0.378339	5.46052	0.380362	5.8891	0.918402	2.91345			0.79429	2.52589				
0.378577	5.51263	0.380848	5.98898	0.91987	2.90892			0.796745	2.52569				
0.378875	5.57705	0.381355	6.09237	0.921344	2.90443			0.799212	2.52554				
0.379238	5.65466	0.38188	6.19941	0.922825	2.9			0.801692	2.52543				
0.379675	5.74651	0.382425	6.31029	0.924313	2.89561			0.804182	2.52535				
0.380131	5.84148	0.38299	6.42521	0.925808	2.89127			0.806684	2.52531				
0.380608	5.93972	0.383573	6.54435	0.927309	2.88698			0.809195	2.5253				
0.381105	6.04137	0.384176	6.66794	0.928817	2.88273			0.811716	2.52531				
0.381621	6.1466	0.384797	6.79621	0.930333	2.87854			0.814246	2.52536				
0.382156	6.25559	0.385436	6.92941	0.931855	2.87439			0.816784	2.52543				
0.382711	6.3685	0.386094	7.0678	0.933385	2.87029			0.819331	2.52553				
0.383286	6.48555	0.38677	7.21166	0.934921	2.86624			0.821885	2.52564				
0.383879	6.60694	0.387464	7.36131	0.936465	2.86223			0.824446	2.52578				
0.384491	6.73289	0.388176	7.51708	0.938017	2.85827			0.827014	2.52594				
0.385121	6.86365	0.388905	7.67932	0.939575	2.85436			0.829589	2.52612				
0.38577	6.99946	0.389651	7.84841	0.941142	2.85049			0.832169	2.52632				
0.386438	7.14061	0.390415	8.02478	0.942716	2.84667			0.834755	2.52653				
0.387123	7.2874	0.391195	8.20887	0.944298	2.8429			0.837347	2.52676				
0.387826	7.44013	0.391991	8.40117	0.945887	2.83917			0.839944	2.527				
0.388546	7.59916	0.392804	8.60222	0.947485	2.83549			0.842545	2.52725				
0.389284	7.76485	0.393632	8.81259	0.94909	2.83185			0.845151	2.52751				
0.390039	7.93761	0.394476	9.03291	0.950704	2.82826			0.847761	2.52779				
0.390811	8.11786	0.395336	9.26388	0.952326	2.82472			0.850375	2.52808				
0.3916	8.30608	0.396097	9.47442	0.953956	2.82122			0.852993	2.52837				
0.392404	8.50279	0.396755	9.66114	0.955595	2.81776			0.855614	2.52868				
0.393225	8.70852	0.397305	9.82085	0.957242	2.81435			0.858239	2.52899				
0.394062	8.9239	0.397744	9.95068	0.958898	2.81099			0.860867	2.52931				
0.394914	9.14957	0.398068	10.0482	0.960563	2.80767			0.863498	2.52964				
0.395781	9.38626	0.398369	10.1396	0.962237	2.8044			0.866132	2.52997				
0.396663	9.63477	0.398578	10.204	0.96392	2.80117			0.868768	2.53031				
0.39756	9.89596	0.398908	10.3063	0.965612	2.79799			0.871407	2.53066				
0.398471	10.1708	0.399358	10.4486	0.967313	2.79486			0.874048	2.531				
0.399395	10.4603	0.399932	10.6338	0.969024	2.79177			0.876692	2.53136				
0.400333	10.7657	0.400634	10.8662	0.970744	2.78872			0.879337	2.53172				
0.401284	11.0883	0.401465	11.1513	0.972474	2.78572			0.881985	2.53208				
0.402247	11.4295	0.402431	11.4962	0.974214	2.78276			0.884634	2.53244				
0.403223	11.7909	0.403408	11.8616	0.975964	2.77985			0.887286	2.53281				
0.40421	12.1743	0.404397	12.2494	0.977724	2.77699			0.889939	2.53318				
0.405208	12.5818	0.405397	12.6617	0.979495	2.77417			0.892593	2.53356				
0.406216	13.0157	0.406408	13.1008	0.981276	2.77139			0.895249	2.53393				
0.407234	13.4785	0.407428	13.5694	0.983067	2.76867			0.897907	2.53431				
0.408261	13.9731	0.408456	14.0704	0.98487	2.76598			0.900566	2.53469				
0.409297	14.5029	0.409494	14.6073	0.986683	2.76335			0.903226	2.53507				
0.41034	15.0718	0.410538	15.1841	0.988507	2.76075			0.905888	2.53545				
0.41139	15.6842	0.411589	15.8052	0.990343	2.75821			0.90855	2.53583				
0.412445	16.3451	0.412645	16.4759	0.992189	2.75571			0.911214	2.53622				
0.413506	17.0605	0.413706	17.2024	0.994048	2.75325			0.913879	2.5366				
0.414569	17.8374	0.41477	17.9918	0.995918	2.75084			0.916544	2.53699				
0.415635	18.684	0.415836	18.8525	0.997799	2.74848			0.919211	2.53737				
0.416701	19.6099	0.416902	19.7947	0.999693	2.74616			0.921878	2.53776				
0.417765	20.6269	0.417966	20.8304	1.0016	2.74389			0.924547	2.53814				
0.418827	21.7489	0.419028	21.974					0.927216	2.53853				
0.419884	22.993	0.420083	23.2434					0.929885	2.53892				
0.420933	24.3802	0.421131	24.6604					0.932556	2.5393				
0.421973	25.9366	0.422167	26.2523					0.935227	2.53969				
0.422998	27.6952	0.42319	28.0535					0.937899	2.54007				
0.424007	29.6979	0.424195	30.108					0.940571	2.54046				
0.424995	31.9995	0.425178	32.4735					0.943244	2.54084				
0.425957	34.6722	0.426135	35.2264					0.945917	2.54122				
0.426888	37.8137	0.42706	38.4703					0.948591	2.54161				
0.427783	41.5597	0.427947	42.35					0.951266	2.54199				
0.428634	46.1036	0.42879	47.0733					0.95394	2.54237				
0.429435	51.7318	0.42958	52.9498					0.956616	2.54275				
0.430177	58.8868	0.43031	60.4628					0.959291	2.54313				
0.430852	68.2903	0.430971	70.4097					0.961967	2.54351				
0.431451	81.2051	0.431555	84.2076					0.964643	2.54388				
0.431964	100.059	0.432051	104.642					0.96732	2.54426				
0.432384	130.195	0.432452	138.038					0.969997	2.54463				
0.432701	186.106	0.432749	202.52					0.972674	2.54501				
0.43291	325.74	0.432937	379.505					0.975351	2.54538				
0.433006	1300.39	0.433012	2991.04					0.978029	2.54575				
								0.980706	2.54612				
								0.983384	2.54648				
								0.986062	2.54685				
								0.988741	2.54721				
								0.991419	2.54758				
								0.994098	2.54794				
								0.996776	2.5483				
								0.999455	2.54866				
								1.00213	2.54901				
