Sym0		Sym1		Sym2		Sym3		Asym1		Asym2		Asym3	
397  Points		397  Points		376  Points		209  Points		400  Points		305  Points		154  Points	
Freq (MHz)	Vph (m/ms)	Freq (MHz)	Vph (m/ms)	Freq (MHz)	Vph (m/ms)	Freq (MHz)	Vph (m/ms)	Freq (MHz)	Vph (m/ms)	Freq (MHz)	Vph (m/ms)	Freq (MHz)	Vph (m/ms)
1.00192	2.57091	1.00075	2.57166	0.447063	903.516	0.866026	1577.26	0.216512	560.336	1.00023	3.35096	0.894039	5977.71
0.999872	2.57222	0.998703	2.57297	0.447407	300.107	0.866027	560.502	0.216577	156.665	0.99859	3.35666	0.894051	780.431
0.99782	2.57354	0.996649	2.57429	0.448055	180.169	0.86603	340.807	0.216716	91.1169	0.996938	3.36236	0.894082	417.481
0.995765	2.57485	0.994594	2.5756	0.448943	128.9	0.866034	244.84	0.216929	64.2853	0.995277	3.36807	0.894131	284.97
0.993709	2.57617	0.992535	2.57692	0.450013	100.474	0.86604	191.045	0.217214	49.7001	0.993606	3.37379	0.894199	216.321
0.991649	2.57749	0.990474	2.57824	0.451216	82.415	0.866048	156.632	0.217571	40.5424	0.991924	3.37951	0.894285	174.335
0.989587	2.5788	0.98841	2.57955	0.452517	69.9306	0.866056	132.725	0.218	34.2631	0.990232	3.38523	0.894389	146.006
0.987521	2.58011	0.986342	2.58086	0.453892	60.7866	0.866067	115.15	0.2185	29.6932	0.988529	3.39096	0.894512	125.603
0.985452	2.58143	0.984271	2.58217	0.455324	53.8017	0.866078	101.685	0.219069	26.2214	0.986816	3.39669	0.894653	110.209
0.983379	2.58273	0.982196	2.58348	0.4568	48.2925	0.866092	91.0402	0.219706	23.4964	0.985092	3.40242	0.894813	98.1825
0.981301	2.58404	0.980116	2.58478	0.458313	43.8365	0.866106	82.4133	0.220411	21.3027	0.983357	3.40815	0.894991	88.527
0.97922	2.58534	0.978032	2.58608	0.459855	40.1583	0.866123	75.2801	0.221182	19.5	0.981611	3.41388	0.895186	80.6051
0.977133	2.58663	0.975942	2.58737	0.461423	37.0708	0.866141	69.2837	0.222017	17.9936	0.979854	3.41962	0.8954	73.9887
0.975042	2.58792	0.973848	2.58865	0.463013	34.4424	0.86616	64.1725	0.222916	16.7169	0.978086	3.42535	0.895632	68.38
0.972946	2.5892	0.971748	2.58992	0.464622	32.178	0.866181	59.7638	0.223875	15.6221	0.976307	3.43109	0.895882	63.5652
0.970843	2.59047	0.969643	2.59119	0.466248	30.2069	0.866204	55.9223	0.224895	14.6734	0.974516	3.43683	0.896149	59.3872
0.968735	2.59173	0.967531	2.59245	0.46789	28.4757	0.866229	52.545	0.225973	13.844	0.972713	3.44256	0.896434	55.7278
0.966621	2.59299	0.965414	2.5937	0.469545	26.9432	0.866255	49.5527	0.227108	13.1134	0.970899	3.4483	0.896736	52.4961
0.964501	2.59423	0.963289	2.59493	0.471214	25.5771	0.866283	46.8831	0.228297	12.4652	0.969074	3.45403	0.897055	49.6214
0.962374	2.59546	0.961158	2.59616	0.472894	24.3518	0.866313	44.4867	0.22954	11.8866	0.967236	3.45977	0.897392	47.0479
0.96024	2.59668	0.959021	2.59737	0.474586	23.2466	0.866344	42.3236	0.230834	11.3673	0.965387	3.4655	0.897746	44.7307
0.958099	2.59789	0.956875	2.59857	0.476288	22.2447	0.866378	40.3613	0.232178	10.8989	0.963527	3.47123	0.898117	42.6333
0.95595	2.59908	0.954723	2.59976	0.478	21.3323	0.866413	38.5731	0.233569	10.4745	0.961654	3.47696	0.898504	40.7261
0.953795	2.60026	0.952563	2.60093	0.479721	20.498	0.866451	36.9369	0.23482	10.136	0.95977	3.48269	0.898908	38.9844
0.951631	2.60143	0.950395	2.60209	0.481451	19.7321	0.86649	35.434	0.235913	9.86802	0.957875	3.48842	0.899328	37.3877
0.94946	2.60258	0.948219	2.60323	0.48319	19.0267	0.866531	34.0488	0.236835	9.65938	0.955967	3.49415	0.899764	35.9185
0.94728	2.60372	0.946035	2.60435	0.484937	18.3748	0.866575	32.7681	0.237575	9.50208	0.954048	3.49988	0.900216	34.5623
0.945093	2.60483	0.943842	2.60546	0.486692	17.7706	0.866621	31.5804	0.238126	9.39051	0.952117	3.5056	0.900684	33.3066
0.942897	2.60594	0.941642	2.60656	0.488454	17.2091	0.866669	30.476	0.238481	9.32083	0.950175	3.51133	0.901168	32.1407
0.940692	2.60702	0.939432	2.60763	0.490223	16.6859	0.866719	29.4464	0.238995	9.22297	0.948221	3.51705	0.901667	31.0553
0.93848	2.60809	0.937215	2.60869	0.491999	16.1972	0.866772	28.4843	0.239559	9.11954	0.946256	3.52278	0.902181	30.0424
0.936258	2.60913	0.934989	2.60972	0.493781	15.7398	0.866827	27.5833	0.240334	8.9836	0.944279	3.5285	0.90271	29.095
0.934028	2.61017	0.932754	2.61074	0.49557	15.3107	0.866884	26.7377	0.241328	8.81904	0.942291	3.53423	0.903254	28.207
0.93179	2.61118	0.93051	2.61175	0.497365	14.9074	0.866944	25.9425	0.242548	8.63029	0.940292	3.53995	0.903813	27.373
0.929542	2.61217	0.928258	2.61273	0.499166	14.5277	0.867007	25.1935	0.244006	8.42205	0.938281	3.54568	0.904385	26.5883
0.927286	2.61315	0.925997	2.61369	0.500973	14.1695	0.867072	24.4867	0.245712	8.19906	0.93626	3.55141	0.904972	25.8487
0.925022	2.6141	0.923727	2.61464	0.502785	13.8311	0.86714	23.8187	0.247452	7.99152	0.934228	3.55714	0.905572	25.1503
0.922748	2.61504	0.921449	2.61556	0.504602	13.5109	0.867211	23.1863	0.249225	7.79793	0.932185	3.56287	0.906186	24.4899
0.920467	2.61596	0.919163	2.61647	0.506425	13.2075	0.867285	22.5867	0.251029	7.617	0.930131	3.56861	0.906814	23.8645
0.918176	2.61685	0.916868	2.61736	0.508252	12.9196	0.867362	22.0176	0.252863	7.44757	0.928068	3.57435	0.907454	23.2713
0.915878	2.61773	0.914564	2.61823	0.510083	12.6459	0.867442	21.4766	0.254725	7.28861	0.925993	3.5801	0.908107	22.7081
0.913571	2.61859	0.912252	2.61908	0.51192	12.3856	0.867525	20.9618	0.256616	7.13923	0.923909	3.58585	0.908773	22.1725
0.911255	2.61944	0.909933	2.61991	0.51376	12.1377	0.867611	20.4712	0.258532	6.99861	0.921815	3.5916	0.909451	21.6626
0.908932	2.62026	0.907605	2.62072	0.515605	11.9012	0.867701	20.0032	0.260473	6.86604	0.919711	3.59736	0.910142	21.1766
0.906601	2.62107	0.905269	2.62152	0.517454	11.6754	0.867794	19.5563	0.262439	6.74087	0.917597	3.60313	0.910844	20.7129
0.904262	2.62185	0.902925	2.62229	0.519306	11.4597	0.86789	19.1291	0.264427	6.62251	0.915474	3.60891	0.911557	20.2701
0.901915	2.62262	0.900574	2.62305	0.521162	11.2533	0.86799	18.7203	0.266437	6.51045	0.913342	3.6147	0.912282	19.8466
0.899561	2.62337	0.898216	2.62379	0.523021	11.0557	0.868094	18.3288	0.268468	6.40421	0.911201	3.6205	0.913018	19.4413
0.897199	2.62411	0.89585	2.62452	0.524884	10.8663	0.868201	17.9535	0.270519	6.30336	0.909051	3.62631	0.913764	19.0531
0.89483	2.62483	0.893477	2.62523	0.526749	10.6846	0.868313	17.5935	0.272589	6.20752	0.906893	3.63213	0.914521	18.681
0.892454	2.62553	0.891097	2.62592	0.528618	10.5101	0.868428	17.2477	0.274676	6.11633	0.904726	3.63796	0.915288	18.3238
0.890071	2.62621	0.88871	2.6266	0.530248	10.3637	0.868548	16.9155	0.276781	6.02947	0.902551	3.64381	0.916065	17.9808
0.887681	2.62688	0.886317	2.62726	0.53164	10.2428	0.868671	16.596	0.278902	5.94665	0.900369	3.64968	0.916852	17.6512
0.885285	2.62754	0.883917	2.6279	0.532791	10.1454	0.868799	16.2885	0.281039	5.8676	0.898179	3.65556	0.917648	17.3341
0.882882	2.62817	0.881511	2.62853	0.533703	10.07	0.868931	15.9923	0.28319	5.79207	0.895981	3.66146	0.918453	17.0289
0.880474	2.6288	0.879098	2.62915	0.534373	10.0154	0.869068	15.7069	0.285356	5.71983	0.893776	3.66738	0.919267	16.735
0.878059	2.62941	0.87668	2.62975	0.534802	9.98085	0.869209	15.4316	0.287534	5.65069	0.891565	3.67331	0.920089	16.4516
0.875638	2.63	0.874256	2.63034	0.53542	9.93171	0.869355	15.1661	0.289725	5.58444	0.889347	3.67927	0.92092	16.1784
0.873212	2.63058	0.871827	2.63091	0.536091	9.87897	0.869506	14.9096	0.291928	5.52091	0.887122	3.68526	0.921758	15.9146
0.87078	2.63115	0.869392	2.63147	0.537004	9.80835	0.869662	14.6619	0.294142	5.45994	0.884892	3.69126	0.922604	15.6599
0.868343	2.63171	0.866951	2.63202	0.53816	9.72083	0.869822	14.4224	0.296367	5.40137	0.882655	3.6973	0.923458	15.4138
0.8659	2.63225	0.864506	2.63256	0.539558	9.61755	0.869988	14.1908	0.298602	5.34507	0.880413	3.70336	0.924318	15.1759
0.863453	2.63278	0.862056	2.63308	0.5412	9.49984	0.87016	13.9667	0.300846	5.29091	0.878166	3.70945	0.925186	14.9457
0.861	2.6333	0.859601	2.63359	0.543085	9.36913	0.870336	13.7497	0.303099	5.23877	0.875914	3.71556	0.92606	14.723
0.858543	2.63381	0.857141	2.6341	0.544972	9.24286	0.870518	13.5395	0.305361	5.18854	0.873657	3.72172	0.92694	14.5072
0.856081	2.63431	0.854677	2.63459	0.54686	9.12081	0.870706	13.3359	0.30763	5.1401	0.871396	3.7279	0.927827	14.2982
0.853615	2.6348	0.852208	2.63507	0.54875	9.00277	0.8709	13.1384	0.309907	5.09337	0.869131	3.73412	0.928719	14.0956
0.851145	2.63527	0.849735	2.63554	0.55064	8.88854	0.871099	12.9469	0.31219	5.04826	0.866861	3.74038	0.929616	13.8991
0.84867	2.63574	0.847259	2.636	0.552532	8.77794	0.871305	12.761	0.314479	5.00468	0.864588	3.74667	0.930518	13.7085
0.846192	2.6362	0.844778	2.63645	0.554424	8.67079	0.871517	12.5806	0.316775	4.96254	0.862312	3.753	0.931426	13.5234
0.84371	2.63665	0.842294	2.6369	0.556316	8.56694	0.871735	12.4054	0.319075	4.92179	0.860033	3.75938	0.932338	13.3437
0.841224	2.63708	0.839805	2.63733	0.558209	8.46624	0.871959	12.2351	0.321381	4.88234	0.857751	3.7658	0.933254	13.169
0.838734	2.63752	0.837314	2.63776	0.560103	8.36853	0.87219	12.0697	0.323691	4.84414	0.855466	3.77227	0.934174	12.9993
0.836241	2.63794	0.834819	2.63817	0.561996	8.2737	0.872428	11.9088	0.326005	4.80711	0.853179	3.77878	0.935098	12.8343
0.833744	2.63835	0.83232	2.63858	0.563889	8.1816	0.872673	11.7524	0.328323	4.77121	0.850891	3.78534	0.936026	12.6738
0.831244	2.63876	0.829819	2.63899	0.565782	8.09212	0.872924	11.6002	0.330644	4.73639	0.848601	3.79196	0.936956	12.5176
0.828742	2.63916	0.827314	2.63938	0.567675	8.00515	0.873183	11.452	0.332968	4.70258	0.846309	3.79863	0.93789	12.3655
0.826236	2.63955	0.824806	2.63977	0.569567	7.92058	0.873449	11.3078	0.335294	4.66975	0.844017	3.80535	0.938826	12.2174
0.823727	2.63993	0.822296	2.64015	0.571458	7.83832	0.873722	11.1674	0.337622	4.63784	0.841724	3.81213	0.939765	12.0731
0.821215	2.64031	0.819783	2.64053	0.573349	7.75825	0.873967	11.0479	0.339953	4.60682	0.839431	3.81897	0.940706	11.9325
0.818701	2.64069	0.817267	2.64089	0.575238	7.68031	0.87418	10.9482	0.342284	4.57664	0.837137	3.82587	0.941648	11.7955
0.816183	2.64105	0.814748	2.64126	0.577126	7.60439	0.874359	10.8672	0.344617	4.54727	0.834844	3.83284	0.942593	11.6618
0.813664	2.64141	0.812227	2.64161	0.579013	7.53043	0.874503	10.804	0.34695	4.51867	0.832551	3.83987	0.943538	11.5314
0.811142	2.64177	0.809704	2.64197	0.580899	7.45833	0.87461	10.7581	0.349283	4.49081	0.830259	3.84697	0.944485	11.4041
0.808617	2.64212	0.807178	2.64231	0.582782	7.38804	0.874679	10.7289	0.351617	4.46365	0.827968	3.85415	0.945433	11.2799
0.806091	2.64246	0.80465	2.64265	0.584664	7.31947	0.874779	10.6872	0.35395	4.43716	0.825679	3.86139	0.946259	11.1741
0.803562	2.6428	0.80212	2.64299	0.586544	7.25257	0.874888	10.6423	0.356283	4.41132	0.823392	3.86871	0.946963	11.0855
0.801031	2.64313	0.799588	2.64332	0.588422	7.18728	0.875039	10.5818	0.358615	4.3861	0.821106	3.87612	0.947546	11.0135
0.798498	2.64346	0.797053	2.64365	0.590297	7.12352	0.875233	10.5064	0.360945	4.36147	0.818823	3.8836	0.948007	10.9572
0.795963	2.64379	0.794517	2.64397	0.59217	7.06125	0.875471	10.4168	0.363274	4.33741	0.816543	3.89116	0.948346	10.9162
0.793426	2.64411	0.791979	2.64429	0.594041	7.00041	0.875756	10.3137	0.365601	4.31389	0.814265	3.89882	0.948563	10.8902
0.790887	2.64442	0.789439	2.6446	0.595908	6.94095	0.876091	10.198	0.367925	4.29089	0.811991	3.90656	0.948874	10.853
0.788346	2.64474	0.786898	2.64491	0.597773	6.88281	0.876435	10.0851	0.370248	4.26839	0.809721	3.91439	0.949213	10.8129
0.785804	2.64505	0.784354	2.64522	0.599634	6.82597	0.876788	9.9748	0.372567	4.24637	0.807454	3.92232	0.949674	10.7588
0.78326	2.64535	0.781809	2.64553	0.601493	6.77036	0.87715	9.86711	0.374884	4.22481	0.805192	3.93035	0.950256	10.6913
0.780714	2.64565	0.779263	2.64583	0.603348	6.71594	0.877521	9.76191	0.377197	4.2037	0.802934	3.93848	0.95096	10.6109
0.778167	2.64595	0.776715	2.64612	0.605199	6.66268	0.877902	9.65911	0.379506	4.183	0.800682	3.94671	0.951785	10.5183
0.775619	2.64625	0.774166	2.64642	0.607046	6.61053	0.878291	9.55865	0.381811	4.16271	0.798434	3.95505	0.952732	10.4141
0.773069	2.64654	0.771615	2.64671	0.60889	6.55946	0.878691	9.46045	0.384113	4.14281	0.796193	3.9635	0.953676	10.3121
0.770517	2.64684	0.769063	2.647	0.610729	6.50943	0.8791	9.36443	0.386409	4.12329	0.793957	3.97207	0.95462	10.2124
0.767964	2.64712	0.766509	2.64729	0.612565	6.46041	0.879519	9.27053	0.388702	4.10413	0.791727	3.98075	0.955562	10.1147
0.765411	2.64741	0.763955	2.64757	0.614396	6.41236	0.879948	9.1787	0.390989	4.08531	0.789504	3.98955	0.956502	10.019
0.762855	2.64769	0.761399	2.64785	0.616222	6.36525	0.880388	9.08885	0.39327	4.06683	0.787288	3.99848	0.95744	9.92526
0.760299	2.64797	0.758842	2.64813	0.618044	6.31906	0.880838	9.00094	0.395546	4.04867	0.785079	4.00753	0.958376	9.83343
0.757741	2.64825	0.756284	2.64841	0.619861	6.27374	0.881298	8.91491	0.397817	4.03081	0.782878	4.01672	0.95931	9.74343
0.755183	2.64853	0.753724	2.64869	0.621672	6.22928	0.881769	8.8307	0.400081	4.01325	0.780684	4.02604	0.960241	9.65521
0.752623	2.64881	0.751164	2.64896	0.623479	6.18565	0.882251	8.74827	0.402339	3.99598	0.778499	4.0355	0.96117	9.56872
0.750063	2.64908	0.748603	2.64924	0.62528	6.14282	0.882744	8.66755	0.40459	3.97898	0.776323	4.0451	0.962095	9.48389
0.747501	2.64935	0.746041	2.64951	0.627076	6.10077	0.883248	8.5885	0.406835	3.96224	0.774156	4.05485	0.963018	9.40069
0.744938	2.64962	0.743478	2.64978	0.628866	6.05947	0.883763	8.51109	0.409072	3.94575	0.771997	4.06475	0.963937	9.31905
0.742375	2.64989	0.740914	2.65005	0.630651	6.0189	0.88429	8.43525	0.411302	3.92951	0.769849	4.07481	0.964853	9.23894
0.739811	2.65016	0.738349	2.65032	0.632429	5.97903	0.884829	8.36095	0.413525	3.91351	0.767711	4.08503	0.965765	9.16031
0.737246	2.65043	0.735784	2.65058	0.634202	5.93986	0.885379	8.28814	0.41574	3.89772	0.765582	4.09541	0.966674	9.08312
0.73468	2.6507	0.733217	2.65085	0.635968	5.90135	0.885941	8.21679	0.417946	3.88216	0.763465	4.10596	0.967579	9.00732
0.732113	2.65096	0.73065	2.65112	0.637728	5.86348	0.886515	8.14686	0.420145	3.8668	0.761359	4.11668	0.96848	8.93288
0.729546	2.65123	0.728083	2.65138	0.639481	5.82625	0.887102	8.0783	0.422334	3.85165	0.759264	4.12759	0.969377	8.85976
0.726978	2.6515	0.725514	2.65165	0.641228	5.78962	0.887701	8.01109	0.424515	3.83669	0.757181	4.13867	0.97027	8.78793
0.724409	2.65176	0.722945	2.65191	0.642967	5.75359	0.888312	7.94519	0.426687	3.82192	0.75511	4.14995	0.971158	8.71733
0.72184	2.65202	0.720376	2.65218	0.6447	5.71813	0.888936	7.88057	0.42885	3.80732	0.753051	4.16141	0.972043	8.64796
0.71927	2.65229	0.717805	2.65244	0.646426	5.68323	0.889572	7.81719	0.431004	3.7929	0.751006	4.17308	0.972923	8.57976
0.7167	2.65255	0.715235	2.6527	0.648145	5.64887	0.890222	7.75502	0.433148	3.77865	0.748974	4.18495	0.973798	8.51271
0.714129	2.65282	0.712664	2.65297	0.649856	5.61504	0.890884	7.69403	0.435282	3.76456	0.746955	4.19702	0.974669	8.44677
0.711557	2.65308	0.710092	2.65323	0.651559	5.58173	0.89156	7.6342	0.437406	3.75062	0.74495	4.20931	0.975536	8.38193
0.708986	2.65335	0.70752	2.6535	0.653256	5.54891	0.892249	7.57549	0.43952	3.73683	0.742959	4.22183	0.976397	8.31815
0.706413	2.65361	0.704947	2.65376	0.654944	5.51658	0.892951	7.51788	0.441623	3.72318	0.740983	4.23456	0.977254	8.2554
0.703841	2.65388	0.702374	2.65403	0.656625	5.48472	0.893667	7.46134	0.443716	3.70968	0.739022	4.24753	0.978107	8.19366
0.701267	2.65414	0.699801	2.65429	0.658297	5.45332	0.894397	7.40584	0.445798	3.6963	0.737076	4.26074	0.978954	8.1329
0.698694	2.65441	0.697228	2.65456	0.659962	5.42237	0.89514	7.35137	0.44787	3.68306	0.735146	4.27419	0.979797	8.0731
0.69612	2.65468	0.694654	2.65483	0.661618	5.39186	0.895897	7.29789	0.44993	3.66994	0.733232	4.2879	0.980634	8.01423
0.693546	2.65494	0.692079	2.6551	0.663266	5.36176	0.896669	7.24538	0.451979	3.65695	0.731334	4.30185	0.981467	7.95627
0.690972	2.65521	0.689505	2.65537	0.664906	5.33209	0.897454	7.19383	0.454017	3.64407	0.729453	4.31608	0.982296	7.8992
0.688398	2.65548	0.68693	2.65564	0.666537	5.30281	0.898253	7.14321	0.456043	3.6313	0.727589	4.33057	0.983119	7.84301
0.685823	2.65576	0.684356	2.65591	0.668159	5.27393	0.899067	7.09349	0.458057	3.61864	0.725742	4.34534	0.983937	7.78765
0.683248	2.65603	0.681781	2.65619	0.669773	5.24543	0.899895	7.04467	0.46006	3.60609	0.723912	4.36039	0.984751	7.73313
0.680673	2.6563	0.679205	2.65646	0.671378	5.2173	0.900737	6.99671	0.462051	3.59364	0.722101	4.37573	0.98556	7.67942
0.678098	2.65658	0.67663	2.65674	0.672974	5.18954	0.901594	6.94959	0.46403	3.58129	0.720308	4.39137	0.986364	7.62649
0.675522	2.65686	0.674055	2.65702	0.674562	5.16213	0.902466	6.90331	0.465997	3.56904	0.718534	4.40731	0.987163	7.57434
0.672947	2.65714	0.67148	2.6573	0.67614	5.13507	0.903352	6.85784	0.467952	3.55688	0.716779	4.42357	0.987958	7.52295
0.670372	2.65742	0.668904	2.65758	0.677709	5.10834	0.904253	6.81316	0.469895	3.54481	0.715042	4.44015	0.988748	7.47229
0.667796	2.65771	0.666329	2.65787	0.679269	5.08195	0.905169	6.76926	0.471826	3.53282	0.713325	4.45706	0.989533	7.42235
0.665221	2.65799	0.663753	2.65816	0.68082	5.05588	0.906099	6.72612	0.473744	3.52093	0.711628	4.4743	0.990314	7.37313
0.662645	2.65828	0.661178	2.65845	0.682362	5.03012	0.907045	6.68372	0.47565	3.50912	0.709951	4.49188	0.99109	7.32459
0.66007	2.65857	0.658603	2.65874	0.683894	5.00467	0.908005	6.64205	0.477543	3.49739	0.708294	4.50982	0.991862	7.27673
0.657495	2.65887	0.656027	2.65904	0.685417	4.97952	0.90898	6.60109	0.479425	3.48574	0.706658	4.52812	0.99263	7.22953
0.65492	2.65916	0.653452	2.65933	0.686931	4.95466	0.90997	6.56082	0.481294	3.47417	0.705043	4.54679	0.993393	7.18299
0.652345	2.65946	0.650877	2.65964	0.688435	4.9301	0.910976	6.52124	0.48315	3.46267	0.703448	4.56583	0.994153	7.13708
0.64977	2.65977	0.648303	2.65994	0.68993	4.90581	0.911996	6.48233	0.484994	3.45126	0.701875	4.58526	0.994908	7.09179
0.647195	2.66007	0.645728	2.66025	0.691416	4.8818	0.913031	6.44406	0.486826	3.43991	0.700323	4.60509	0.995659	7.04711
0.644621	2.66038	0.643154	2.66056	0.692892	4.85805	0.914082	6.40644	0.488646	3.42864	0.698793	4.62532	0.996407	7.00303
0.642047	2.6607	0.64058	2.66088	0.694358	4.83457	0.915147	6.36945	0.490453	3.41744	0.697285	4.64597	0.997151	6.95954
0.639473	2.66101	0.638006	2.6612	0.695815	4.81135	0.916228	6.33306	0.492249	3.4063	0.695798	4.66704	0.997891	6.91663
0.636899	2.66133	0.635433	2.66152	0.697263	4.78838	0.917323	6.29728	0.494032	3.39524	0.694334	4.68854	0.998628	6.87427
0.634326	2.66166	0.63286	2.66185	0.698701	4.76566	0.918433	6.26208	0.495803	3.38425	0.692893	4.71049	0.999361	6.83248
0.631753	2.66199	0.630287	2.66218	0.70013	4.74318	0.919559	6.22747	0.497562	3.37333	0.691473	4.73289	1.00009	6.79122
0.629181	2.66232	0.627715	2.66252	0.701549	4.72094	0.920699	6.19341	0.49931	3.36247	0.690077	4.75575		
0.626609	2.66266	0.625143	2.66286	0.702959	4.69894	0.921855	6.15991	0.501046	3.35168	0.688703	4.77908		
0.624037	2.66301	0.622572	2.66321	0.70436	4.67716	0.923025	6.12695	0.50277	3.34095	0.687352	4.8029		
0.621466	2.66336	0.620001	2.66356	0.705751	4.65561	0.92421	6.09452	0.504483	3.33029	0.686023	4.82722		
0.618896	2.66371	0.617431	2.66392	0.707133	4.63428	0.925409	6.06262	0.506185	3.3197	0.684718	4.85204		
0.616326	2.66407	0.614862	2.66428	0.708506	4.61316	0.926623	6.03122	0.507876	3.30917	0.683436	4.87738		
0.613757	2.66444	0.612293	2.66465	0.70987	4.59226	0.927852	6.00031	0.509556	3.29871	0.682177	4.90325		
0.611188	2.66481	0.609725	2.66502	0.711225	4.57157	0.929096	5.9699	0.511225	3.28831	0.680942	4.92966		
0.60862	2.66519	0.607157	2.6654	0.71257	4.55108	0.930353	5.93997	0.512883	3.27798	0.679729	4.95662		
0.606053	2.66557	0.604591	2.66579	0.713907	4.5308	0.931626	5.9105	0.514532	3.26771	0.67854	4.98415		
0.603487	2.66596	0.602025	2.66619	0.715235	4.51071	0.932912	5.8815	0.51617	3.25751	0.677374	5.01226		
0.600921	2.66636	0.59946	2.66659	0.716554	4.49082	0.934212	5.85294	0.517798	3.24737	0.676231	5.04095		
0.598357	2.66677	0.596896	2.667	0.717865	4.47112	0.935527	5.82483	0.519416	3.2373	0.675112	5.07025		
0.595793	2.66718	0.594332	2.66742	0.719167	4.45162	0.936855	5.79715	0.521025	3.22729	0.674015	5.10017		
0.59323	2.6676	0.59177	2.66785	0.72046	4.4323	0.938198	5.7699	0.522625	3.21735	0.672942	5.13072		
0.590668	2.66803	0.589209	2.66828	0.721745	4.41316	0.939553	5.74306	0.524216	3.20748	0.671892	5.16191		
0.588108	2.66847	0.586649	2.66873	0.723022	4.3942	0.940923	5.71662	0.525797	3.19767	0.670865	5.19376		
0.585548	2.66892	0.58409	2.66918	0.724291	4.37543	0.942306	5.69059	0.527371	3.18793	0.66986	5.22629		
0.58299	2.66938	0.581533	2.66964	0.725551	4.35683	0.943702	5.66494	0.528936	3.17825	0.668879	5.2595		
0.580433	2.66985	0.578976	2.67012	0.726804	4.3384	0.945111	5.63968	0.530493	3.16864	0.66792	5.29342		
0.577877	2.67032	0.576421	2.6706	0.728049	4.32015	0.946533	5.6148	0.532042	3.1591	0.666984	5.32806		
0.575322	2.67081	0.573867	2.67109	0.729286	4.30206	0.947968	5.59028	0.533584	3.14963	0.666071	5.36344		
0.572769	2.67131	0.571315	2.6716	0.730516	4.28415	0.949415	5.56612	0.535119	3.14023	0.665179	5.39957		
0.570218	2.67182	0.568764	2.67212	0.731738	4.2664	0.950875	5.54232	0.536646	3.13089	0.664311	5.43647		
0.567668	2.67235	0.566215	2.67265	0.732954	4.24881	0.952347	5.51886	0.538167	3.12162	0.663464	5.47416		
0.565119	2.67288	0.563668	2.67319	0.734162	4.23138	0.953831	5.49574	0.539682	3.11243	0.662639	5.51266		
0.562572	2.67343	0.561122	2.67375	0.735363	4.21411	0.955328	5.47295	0.54119	3.1033	0.661836	5.55198		
0.560028	2.67399	0.558578	2.67432	0.736557	4.197	0.956836	5.45049	0.542692	3.09424	0.661054	5.59215		
0.557485	2.67457	0.556036	2.67491	0.737745	4.18004	0.958355	5.42835	0.544189	3.08525	0.660294	5.63318		
0.554944	2.67516	0.553496	2.67551	0.738926	4.16324	0.959886	5.40651	0.54568	3.07634	0.659555	5.6751		
0.552405	2.67577	0.550959	2.67613	0.740101	4.14659	0.961428	5.38499	0.547167	3.06749	0.658837	5.71793		
0.549868	2.6764	0.548423	2.67676	0.741269	4.13009	0.962982	5.36377	0.548648	3.05872	0.65814	5.76169		
0.547333	2.67704	0.54589	2.67741	0.742432	4.11374	0.964545	5.34284	0.550125	3.05002	0.657464	5.80639		
0.544801	2.6777	0.543359	2.67808	0.743589	4.09753	0.96612	5.32219	0.551598	3.04139	0.656808	5.85208		
0.542271	2.67838	0.540831	2.67877	0.74474	4.08147	0.967705	5.30184	0.553066	3.03283	0.656172	5.89876		
0.539744	2.67907	0.538305	2.67948	0.745885	4.06556	0.9693	5.28175	0.554531	3.02434	0.655556	5.94647		
0.53722	2.67979	0.535783	2.68021	0.747026	4.04979	0.970905	5.26194	0.555993	3.01593	0.65496	5.99522		
0.534698	2.68053	0.533263	2.68096	0.748161	4.03416	0.97252	5.24239	0.557451	3.00759	0.654383	6.04506		
0.53218	2.68129	0.530746	2.68174	0.749291	4.01867	0.974145	5.22311	0.558906	2.99932	0.653825	6.096		
0.529664	2.68208	0.528232	2.68254	0.750416	4.00332	0.975778	5.20408	0.560358	2.99113	0.653287	6.14807		
0.527152	2.68289	0.525722	2.68336	0.751536	3.9881	0.977421	5.18529	0.561808	2.98301	0.652767	6.20131		
0.524643	2.68373	0.523216	2.68422	0.752652	3.97303	0.979073	5.16676	0.563256	2.97496	0.652266	6.25574		
0.522138	2.68459	0.520713	2.6851	0.753764	3.95808	0.980734	5.14846	0.564702	2.96699	0.651783	6.3114		
0.519637	2.68548	0.518214	2.686	0.754871	3.94327	0.982403	5.13039	0.566146	2.95909	0.651318	6.36832		
0.51714	2.68641	0.515719	2.68694	0.755975	3.9286	0.98408	5.11256	0.567589	2.95127	0.650871	6.42654		
0.514647	2.68736	0.513228	2.68792	0.757074	3.91405	0.985766	5.09495	0.56903	2.94352	0.650442	6.48608		
0.512158	2.68835	0.510742	2.68892	0.75817	3.89964	0.987459	5.07757	0.57047	2.93584	0.650029	6.547		
0.509674	2.68937	0.508261	2.68997	0.759263	3.88535	0.98916	5.06039	0.57191	2.92824	0.649634	6.60932		
0.507195	2.69043	0.505784	2.69105	0.760352	3.87119	0.990868	5.04343	0.573349	2.92071	0.649255	6.67309		
0.504721	2.69152	0.503313	2.69216	0.761438	3.85716	0.992584	5.02668	0.574787	2.91326	0.648893	6.73834		
0.502252	2.69266	0.500848	2.69333	0.762521	3.84326	0.994306	5.01013	0.576226	2.90588	0.648547	6.80514		
0.499789	2.69384	0.498388	2.69453	0.763601	3.82948	0.996035	4.99378	0.577664	2.89858	0.648216	6.87351		
0.497332	2.69506	0.495934	2.69578	0.764678	3.81582	0.997771	4.97763	0.579103	2.89134	0.647902	6.94351		
0.494881	2.69633	0.493487	2.69708	0.765753	3.80229	0.999513	4.96167	0.580542	2.88419	0.647603	7.01518		
0.492436	2.69766	0.491047	2.69843	0.766826	3.78887	1.00126	4.94589	0.581982	2.8771	0.647318	7.08858		
0.489999	2.69903	0.488613	2.69984	0.767896	3.77558			0.583423	2.87009	0.647049	7.16377		
0.487569	2.70046	0.486188	2.7013	0.768965	3.76241			0.584864	2.86316	0.646794	7.2408		
0.485146	2.70195	0.48377	2.70282	0.770031	3.74936			0.586307	2.8563	0.646553	7.31972		
0.482732	2.7035	0.48136	2.70441	0.771096	3.73642			0.587752	2.84951	0.646327	7.4006		
0.480326	2.70512	0.478959	2.70607	0.772159	3.7236			0.589198	2.84279	0.646114	7.48351		
0.477929	2.7068	0.476568	2.70779	0.773221	3.7109			0.590646	2.83615	0.645914	7.56851		
0.475542	2.70856	0.474186	2.70959	0.774282	3.69831			0.592096	2.82958	0.645728	7.65567		
0.473165	2.71039	0.471815	2.71148	0.775342	3.68584			0.593548	2.82308	0.645554	7.74508		
0.470798	2.71231	0.469454	2.71344	0.7764	3.67348			0.595002	2.81665	0.645393	7.83679		
0.468442	2.71431	0.467105	2.7155	0.777458	3.66123			0.596459	2.8103	0.645244	7.93091		
0.466098	2.71641	0.464767	2.71764	0.778516	3.64909			0.597918	2.80401	0.645107	8.0275		
0.463766	2.7186	0.462443	2.71989	0.779572	3.63706			0.599381	2.7978	0.644982	8.12667		
0.461447	2.72089	0.460132	2.72225	0.780629	3.62515			0.600846	2.79166	0.644869	8.2285		
0.459142	2.72329	0.457834	2.72471	0.781685	3.61334			0.602314	2.78559	0.644766	8.3331		
0.456851	2.72581	0.455552	2.72729	0.782741	3.60164			0.603785	2.77959	0.644675	8.44057		
0.454575	2.72844	0.453285	2.73	0.783797	3.59005			0.60526	2.77366	0.644594	8.55102		
0.452315	2.73121	0.451035	2.73284	0.784854	3.57856			0.606739	2.76781	0.644523	8.66457		
0.450072	2.73411	0.448801	2.73582	0.785911	3.56718			0.608221	2.76202	0.644463	8.78134		
0.447846	2.73715	0.446586	2.73895	0.786968	3.5559			0.609707	2.7563	0.644412	8.90146		
0.445639	2.74034	0.444389	2.74223	0.788026	3.54473			0.611196	2.75065	0.644371	9.02506		
0.443451	2.74369	0.442213	2.74567	0.789085	3.53366			0.61269	2.74507	0.644339	9.15228		
0.441283	2.7472	0.440057	2.74928	0.790144	3.52269			0.614188	2.73955	0.644315	9.28329		
0.439136	2.7509	0.437922	2.75308	0.791205	3.51182			0.615691	2.73411	0.644301	9.41824		
0.437011	2.75477	0.43581	2.75707	0.792266	3.50106			0.617197	2.72873	0.644295	9.5573		
0.434909	2.75885	0.433722	2.76126	0.793329	3.49039			0.618709	2.72342	0.644297	9.70066		
0.432831	2.76312	0.431658	2.76565	0.794393	3.47982			0.620225	2.71817	0.644305	9.82923		
0.430778	2.76761	0.42962	2.77027	0.795459	3.46936			0.621746	2.713	0.644316	9.94162		
0.428751	2.77233	0.427608	2.77512	0.796526	3.45898			0.623272	2.70789	0.644329	10.0366		
0.42675	2.77728	0.425623	2.78021	0.797595	3.44871			0.624803	2.70284	0.644341	10.113		
0.424777	2.78248	0.423666	2.78555	0.798666	3.43853			0.626339	2.69786	0.64435	10.1699		
0.422833	2.78793	0.421738	2.79115	0.799739	3.42845			0.627881	2.69295	0.64436	10.2229		
0.420918	2.79365	0.41984	2.79703	0.800814	3.41846			0.629428	2.6881	0.644367	10.26		
0.419032	2.79964	0.417972	2.80319	0.80189	3.40856			0.63098	2.68332	0.644379	10.3187		
0.417178	2.80593	0.416136	2.80964	0.80297	3.39876			0.632538	2.6786	0.644397	10.3995		
0.415355	2.81251	0.414331	2.8164	0.804051	3.38905			0.634103	2.67394	0.644422	10.5036		
0.413565	2.8194	0.412559	2.82347	0.805135	3.37943			0.635673	2.66935	0.644455	10.6324		
0.411806	2.82661	0.410819	2.83086	0.806221	3.3699			0.637249	2.66483	0.644498	10.7876		
0.410082	2.83414	0.409114	2.83859	0.807311	3.36047			0.638831	2.66036	0.644553	10.9714		
0.40839	2.84201	0.407441	2.84666	0.808402	3.35112			0.64042	2.65596	0.644614	11.1617		
0.406733	2.85024	0.405803	2.85508	0.809497	3.34186			0.642015	2.65163	0.64468	11.3587		
0.405109	2.85881	0.404199	2.86386	0.810595	3.33268			0.643617	2.64735	0.644751	11.5629		
0.40352	2.86776	0.40263	2.87302	0.811696	3.3236			0.645226	2.64314	0.644827	11.7746		
0.401965	2.87707	0.401095	2.88255	0.812799	3.3146			0.646842	2.63899	0.644908	11.9942		
0.400445	2.88677	0.399595	2.89248	0.813906	3.30569			0.648465	2.6349	0.644993	12.2222		
0.39896	2.89687	0.398129	2.90279	0.815017	3.29686			0.650095	2.63088	0.645082	12.459		
0.397509	2.90736	0.396697	2.91352	0.81613	3.28812			0.651732	2.62692	0.645176	12.7052		
0.396092	2.91825	0.3953	2.92465	0.817248	3.27946			0.653377	2.62302	0.645272	12.9614		
0.39471	2.92957	0.393937	2.9362	0.818368	3.27088			0.65503	2.61918	0.645372	13.228		
0.393362	2.9413	0.392608	2.94818	0.819493	3.26239			0.656691	2.61541	0.645475	13.5059		
0.392047	2.95347	0.391313	2.9606	0.820621	3.25398			0.65836	2.61169	0.64558	13.7956		
0.390766	2.96608	0.390051	2.97346	0.821753	3.24565			0.660037	2.60804	0.645688	14.098		
0.389518	2.97913	0.388822	2.98677	0.822889	3.2374			0.661723	2.60445	0.645799	14.4138		
0.388304	2.99264	0.387626	3.00054	0.824028	3.22923			0.663418	2.60093	0.645911	14.7441		
0.387122	3.00661	0.386463	3.01478	0.825172	3.22114			0.665122	2.59746	0.646025	15.0898		
0.385972	3.02105	0.385331	3.02949	0.82632	3.21313			0.666835	2.59406	0.64614	15.452		
0.384855	3.03597	0.384232	3.04469	0.827472	3.20519			0.668557	2.59073	0.646257	15.8319		
0.383769	3.05138	0.383164	3.06038	0.828628	3.19734			0.67029	2.58746	0.646375	16.2308		
0.382714	3.06729	0.382127	3.07658	0.829789	3.18956			0.672033	2.58425	0.646493	16.6502		
0.381691	3.0837	0.381122	3.09329	0.830954	3.18185			0.673786	2.5811	0.646612	17.0917		
0.380698	3.10063	0.380146	3.11052	0.832124	3.17422			0.675551	2.57803	0.646731	17.5571		
0.379736	3.11809	0.379201	3.12828	0.833298	3.16667			0.677326	2.57501	0.64685	18.0483		
0.378804	3.13608	0.378286	3.14658	0.834477	3.15919			0.679113	2.57207	0.646969	18.5677		
0.377902	3.15463	0.377401	3.16544	0.83566	3.15179			0.680912	2.56919	0.647088	19.1175		
0.377029	3.17373	0.376545	3.18487	0.836848	3.14446			0.682723	2.56638	0.647205	19.7007		
0.376185	3.1934	0.375718	3.20488	0.838041	3.1372			0.684548	2.56364	0.647322	20.3204		
0.375371	3.21366	0.37492	3.22547	0.839239	3.13001			0.686385	2.56097	0.647438	20.98		
0.374585	3.23452	0.37415	3.24667	0.840442	3.1229			0.688236	2.55837	0.647552	21.6835		
0.373828	3.25598	0.373409	3.26849	0.84165	3.11585			0.690102	2.55584	0.647665	22.4356		
0.373099	3.27807	0.372696	3.29094	0.842863	3.10888			0.691982	2.55338	0.647777	23.2414		
0.372398	3.30079	0.37201	3.31403	0.844081	3.10198			0.693878	2.551	0.647886	24.1067		
0.371724	3.32417	0.371353	3.33779	0.845304	3.09514			0.69579	2.5487	0.647993	25.0387		
0.371079	3.34822	0.370723	3.36223	0.846533	3.08838			0.697718	2.54647	0.648097	26.0451		
0.37046	3.37296	0.37012	3.38736	0.847767	3.08168			0.699663	2.54432	0.6482	27.1354		
0.369869	3.39839	0.369545	3.41321	0.849006	3.07506			0.701626	2.54225	0.648299	28.3204		
0.369305	3.42455	0.368996	3.43978	0.850251	3.06849			0.703607	2.54026	0.648396	29.6131		
0.368768	3.45145	0.368474	3.46711	0.851501	3.062			0.705607	2.53835	0.648489	31.0288		
0.368258	3.4791	0.367979	3.49521	0.852757	3.05557			0.707626	2.53653	0.648579	32.5861		
0.367774	3.50754	0.36751	3.52409	0.854019	3.04921			0.709664	2.53478	0.648666	34.3073		
0.367316	3.53677	0.367067	3.55379	0.855286	3.04291			0.711723	2.53313	0.64875	36.2198		
0.366885	3.56682	0.366651	3.58433	0.85656	3.03668			0.713803	2.53155	0.648829	38.3572		
0.36648	3.59772	0.36626	3.61572	0.857839	3.03052			0.715904	2.53007	0.648905	40.7618		
0.366101	3.62949	0.365896	3.64799	0.859124	3.02441			0.718026	2.52867	0.648977	43.4872		
0.365747	3.66215	0.365557	3.68117	0.860415	3.01838			0.720169	2.52735	0.649045	46.6021		
0.36542	3.69573	0.365244	3.71528	0.861711	3.0124			0.722335	2.52612	0.649109	50.1965		
0.365118	3.73025	0.364957	3.75035	0.863015	3.00649			0.724522	2.52497	0.649169	54.3905		
0.364841	3.76574	0.364695	3.78642	0.864324	3.00064			0.726731	2.52391	0.649224	59.3478		
0.36459	3.80224	0.364458	3.8235	0.86564	2.99485			0.728961	2.52293	0.649274	65.2977		
0.364364	3.83977	0.364247	3.86163	0.866961	2.98912			0.731213	2.52203	0.64932	72.5719		
0.364164	3.87837	0.364061	3.90085	0.86829	2.98345			0.733486	2.52121	0.649362	81.668		
0.363988	3.91806	0.363899	3.94118	0.869624	2.97785			0.73578	2.52046	0.649398	93.3685		
0.363837	3.95888	0.363763	3.98266	0.870966	2.9723			0.738094	2.51979	0.64943	108.98		
0.363712	4.00087	0.363651	4.02534	0.872313	2.96682			0.740428	2.51919	0.649457	130.855		
0.363611	4.04407	0.363564	4.06924	0.873668	2.96139			0.742781	2.51866	0.64948	163.715		
0.363534	4.08851	0.363502	4.11441	0.875029	2.95603			0.745152	2.5182	0.649497	218.603		
0.363482	4.13424	0.363464	4.16089	0.876397	2.95072			0.747541	2.5178	0.649509	328.849		
0.363455	4.18129	0.36345	4.20872	0.877772	2.94547			0.749947	2.51746	0.649517	663.398		
0.363452	4.22972	0.363461	4.25795	0.879154	2.94028			0.752369	2.51717				
0.363473	4.27957	0.363495	4.30863	0.880543	2.93515			0.754807	2.51694				
0.363518	4.33089	0.363554	4.36082	0.881939	2.93008			0.75726	2.51676				
0.363587	4.38374	0.363637	4.41455	0.883342	2.92506			0.759726	2.51663				
0.36368	4.43816	0.363743	4.46989	0.884753	2.9201			0.762206	2.51654				
0.363797	4.49421	0.363874	4.5269	0.886171	2.9152			0.764699	2.51649				
0.363937	4.55195	0.364028	4.58564	0.887596	2.91035			0.767203	2.51649				
0.364101	4.61145	0.364205	4.64617	0.889029	2.90556			0.769719	2.51652				
0.364288	4.67277	0.364406	4.70856	0.89047	2.90082			0.772245	2.51658				
0.364499	4.73598	0.36463	4.77288	0.891918	2.89615			0.774781	2.51667				
0.364733	4.80116	0.364877	4.8392	0.893375	2.89152			0.777326	2.5168				
0.36499	4.86837	0.365147	4.90761	0.894839	2.88695			0.77988	2.51695				
0.36527	4.9377	0.36544	4.97819	0.896311	2.88244			0.782442	2.51713				
0.365533	4.99992	0.365756	5.05103	0.897791	2.87798			0.785012	2.51733				
0.36577	5.05432	0.366094	5.12621	0.89928	2.87358			0.787588	2.51755				
0.365976	5.10028	0.366455	5.20384	0.900777	2.86923			0.790172	2.51779				
0.366145	5.13727	0.366838	5.28402	0.902282	2.86494			0.792762	2.51806				
0.366272	5.16484	0.367244	5.36686	0.903796	2.8607			0.795358	2.51833				
0.366392	5.19048	0.367671	5.45247	0.905319	2.85651			0.79796	2.51863				
0.366477	5.20848	0.368121	5.54098	0.90685	2.85238			0.800566	2.51894				
0.366611	5.23687	0.368592	5.63252	0.908391	2.8483			0.803178	2.51926				
0.366799	5.27601	0.369085	5.72723	0.90994	2.84428			0.805794	2.51959				
0.367044	5.32642	0.3696	5.82524	0.911499	2.84031			0.808415	2.51994				
0.367352	5.38874	0.370135	5.92673	0.913067	2.83639			0.811039	2.5203				
0.367728	5.46383	0.370693	6.03185	0.914645	2.83253			0.813668	2.52066				
0.368181	5.55272	0.371271	6.14079	0.916232	2.82872			0.8163	2.52104				
0.368655	5.64467	0.37187	6.25372	0.917829	2.82496			0.818935	2.52142				
0.369151	5.7398	0.37249	6.37086	0.919436	2.82126			0.821573	2.52181				
0.369668	5.83825	0.37313	6.49241	0.921053	2.81761			0.824215	2.52221				
0.370207	5.9402	0.373791	6.61862	0.922681	2.81401			0.826859	2.52261				
0.370767	6.04581	0.374472	6.74972	0.924318	2.81047			0.829506	2.52302				
0.371348	6.15525	0.375174	6.88598	0.925967	2.80698			0.832155	2.52343				
0.371949	6.26872	0.375895	7.0277	0.927626	2.80355			0.834807	2.52385				
0.372572	6.38642	0.376636	7.17516	0.929296	2.80016			0.83746	2.52427				
0.373215	6.50857	0.377397	7.32871	0.930977	2.79683			0.840116	2.52469				
0.373879	6.6354	0.378177	7.48871	0.932669	2.79356			0.842774	2.52512				
0.374563	6.76716	0.378976	7.65553	0.934372	2.79034			0.845433	2.52555				
0.375267	6.90412	0.379794	7.82959	0.936088	2.78717			0.848095	2.52599				
0.37599	7.04656	0.380631	8.01135	0.937815	2.78406			0.850758	2.52643				
0.376734	7.1948	0.381487	8.20129	0.939554	2.78099			0.853422	2.52686				
0.377497	7.34917	0.382361	8.39995	0.941305	2.77799			0.856088	2.5273				
0.37828	7.51003	0.383254	8.60791	0.943068	2.77503			0.858755	2.52774				
0.379081	7.67777	0.384165	8.82581	0.944844	2.77214			0.861424	2.52819				
0.379902	7.8528	0.384973	9.02433	0.946633	2.76929			0.864093	2.52863				
0.380742	8.0356	0.385673	9.2003	0.948434	2.7665			0.866764	2.52907				
0.3816	8.22664	0.386258	9.35076	0.950248	2.76376			0.869436	2.52952				
0.382477	8.42648	0.386726	9.47303	0.952076	2.76108			0.872109	2.52996				
0.383372	8.6357	0.387073	9.56487	0.953916	2.75845			0.874782	2.53041				
0.384285	8.85494	0.387394	9.65084	0.95577	2.75587			0.877457	2.53085				
0.385215	9.0849	0.387618	9.71151	0.957638	2.75335			0.880133	2.5313				
0.386164	9.32634	0.38797	9.80774	0.95952	2.75088			0.882809	2.53174				
0.38713	9.58013	0.388453	9.94152	0.961415	2.74847			0.885486	2.53219				
0.388113	9.84718	0.389069	10.1157	0.963324	2.74611			0.888164	2.53263				
0.389114	10.1285	0.389822	10.3341	0.965247	2.7438			0.890842	2.53308				
0.390131	10.4253	0.390718	10.6018	0.967185	2.74154			0.893521	2.53352				
0.391165	10.7387	0.391761	10.9253	0.969136	2.73934			0.896201	2.53396				
0.392215	11.0703	0.39282	11.2679	0.971102	2.73719			0.898881	2.5344				
0.393281	11.4214	0.393896	11.631	0.973082	2.73509			0.901561	2.53484				
0.394363	11.794	0.394987	12.0167	0.975076	2.73305			0.904243	2.53528				
0.395461	12.19	0.396094	12.4269	0.977085	2.73105			0.906924	2.53571				
0.396574	12.6115	0.397215	12.8641	0.979108	2.72911			0.909606	2.53615				
0.397703	13.0611	0.398352	13.3309	0.981145	2.72722			0.912288	2.53658				
0.398846	13.5416	0.399504	13.8304	0.983197	2.72537			0.914971	2.53702				
0.400003	14.0562	0.40067	14.3661	0.985262	2.72358			0.917654	2.53745				
0.401175	14.6087	0.401849	14.9421	0.987342	2.72184			0.920337	2.53788				
0.402361	15.2033	0.403043	15.5628	0.989436	2.72014			0.923021	2.53831				
0.403561	15.845	0.40425	16.2338	0.991543	2.71849			0.925705	2.53873				
0.404773	16.5394	0.40547	16.9612	0.993664	2.71688			0.928389	2.53916				
0.405999	17.2933	0.406703	17.7524	0.995799	2.71533			0.931073	2.53958				
0.407237	18.1145	0.407947	18.6161	0.997947	2.71381			0.933757	2.54				
0.408486	19.0124	0.409203	19.5626	1.00011	2.71234			0.936442	2.54042				
0.409747	19.9982	0.410471	20.6042					0.939127	2.54084				
0.411019	21.0852	0.411748	21.7561					0.941812	2.54126				
0.4123	22.2899	0.413035	23.0365					0.944497	2.54167				
0.413591	23.6322	0.414331	24.468					0.947182	2.54208				
0.41489	25.1371	0.415634	26.0789					0.949867	2.54249				
0.416197	26.8356	0.416944	27.905					0.952552	2.5429				
0.417508	28.7677	0.418258	29.9923					0.955238	2.54331				
0.418825	30.9849	0.419575	32.4009					0.957923	2.54371				
0.420142	33.5549	0.420893	35.211					0.960608	2.54411				
0.42146	36.5691	0.422209	38.5317					0.963294	2.54451				
0.422773	40.1532	0.423518	42.5158					0.965979	2.54491				
0.424078	44.4854	0.424815	47.3839					0.968664	2.54531				
0.425367	49.8267	0.426093	53.4663					0.97135	2.5457				
0.426634	56.5759	0.427341	61.2821					0.974035	2.54609				
0.427866	65.3741	0.428546	71.6954					0.97672	2.54648				
0.429047	77.3215	0.429688	86.2602					0.979405	2.54687				
0.430152	94.4798	0.430736	108.082					0.98209	2.54725				
0.431148	121.217	0.431649	144.401					0.984775	2.54763				
0.431988	168.693	0.432374	216.922					0.98746	2.54801				
0.432612	276.47	0.432847	434.063					0.990145	2.54839				
0.432958	761.248	0.433013	368263					0.992829	2.54877				
								0.995514	2.54914				
								0.998198	2.54951				
								1.00088	2.54988				
