Sym0		Sym1		Sym2		Sym3		Asym1		Asym2		Asym3	
417  Points		418  Points		379  Points		233  Points		400  Points		368  Points		245  Points	
Freq (MHz)	Vph (m/ms)	Freq (MHz)	Vph (m/ms)	Freq (MHz)	Vph (m/ms)	Freq (MHz)	Vph (m/ms)	Freq (MHz)	Vph (m/ms)	Freq (MHz)	Vph (m/ms)	Freq (MHz)	Vph (m/ms)
1.00005	2.44016	1.00074	2.44015	0.433029	717.264	0.866024	1935.37	0.216507	2551.28	1.0011	2.77482	0.727363	2523.49
0.997635	2.44021	0.998328	2.44019	0.433129	270.748	0.866015	599.943	0.216549	200.344	0.999789	2.77886	0.727411	566.404
0.99523	2.44027	0.995921	2.44025	0.433318	166.932	0.865996	354.986	0.216664	104.32	0.998485	2.78294	0.727519	319.047
0.992831	2.44035	0.99352	2.44032	0.433596	120.718	0.865967	252.061	0.21685	70.5678	0.997187	2.78706	0.727687	222.106
0.990438	2.44044	0.991125	2.44041	0.43396	94.5896	0.865929	195.4	0.217109	53.3573	0.995896	2.79122	0.727914	170.379
0.988052	2.44055	0.988737	2.44052	0.434409	77.7974	0.86588	159.533	0.217438	42.9297	0.99461	2.79542	0.7282	138.221
0.985673	2.44068	0.986356	2.44064	0.434939	66.1015	0.865823	134.787	0.217838	35.9409	0.99333	2.79966	0.728543	116.299
0.9833	2.44082	0.983981	2.44078	0.435548	57.4913	0.865755	116.684	0.218307	30.9347	0.992055	2.80394	0.728942	100.4
0.980935	2.44099	0.981614	2.44094	0.436233	50.8909	0.865678	102.865	0.218845	27.1754	0.990787	2.80826	0.729396	88.3428
0.978576	2.44117	0.979253	2.44111	0.43699	45.6723	0.865592	91.9699	0.219451	24.2512	0.989523	2.81262	0.729903	78.8875
0.976225	2.44137	0.9769	2.44131	0.437815	41.4442	0.865497	83.1592	0.220122	21.9134	0.988266	2.81702	0.730462	71.2752
0.97388	2.44159	0.974554	2.44152	0.438706	37.9504	0.865392	75.8867	0.220859	20.0033	0.987013	2.82146	0.731071	65.0158
0.971544	2.44183	0.972215	2.44176	0.439659	35.0158	0.865278	69.7819	0.22166	18.4146	0.985766	2.82594	0.731728	59.7791
0.969214	2.44209	0.969883	2.44201	0.44067	32.5169	0.865156	64.5842	0.222522	17.0735	0.984524	2.83046	0.732431	55.334
0.966892	2.44237	0.967559	2.44228	0.441735	30.3639	0.865024	60.1053	0.223446	15.9272	0.983288	2.83503	0.733179	51.5142
0.964578	2.44266	0.965242	2.44258	0.442853	28.4901	0.864884	56.2057	0.224428	14.9368	0.982056	2.83963	0.73397	48.1968
0.962271	2.44299	0.962934	2.44289	0.444018	26.8449	0.864736	52.7798	0.225468	14.0731	0.980829	2.84427	0.734802	45.2893
0.959973	2.44333	0.960633	2.44323	0.445229	25.3892	0.864579	49.746	0.226563	13.3137	0.979607	2.84896	0.735672	42.7204
0.957682	2.44369	0.958339	2.44359	0.446482	24.0923	0.864415	47.0407	0.227713	12.6414	0.97839	2.85368	0.736581	40.4344
0.955399	2.44408	0.956054	2.44397	0.447776	22.9297	0.864242	44.6131	0.228915	12.0422	0.977177	2.85845	0.737524	38.3874
0.953124	2.44449	0.953777	2.44437	0.449106	21.8818	0.864062	42.4226	0.230167	11.5053	0.975969	2.86326	0.738502	36.5437
0.950857	2.44492	0.951508	2.44479	0.450472	20.9325	0.863874	40.436	0.231468	11.0216	0.974766	2.86811	0.739512	34.8748
0.948599	2.44538	0.949247	2.44524	0.45187	20.0686	0.863679	38.6261	0.232817	10.5838	0.973567	2.873	0.740553	33.3571
0.946349	2.44585	0.946995	2.44571	0.4533	19.2793	0.863477	36.9702	0.234211	10.186	0.972373	2.87794	0.741623	31.9709
0.944107	2.44636	0.944751	2.44621	0.454757	18.5552	0.863269	35.4495	0.235648	9.82299	0.971182	2.88291	0.742721	30.7001
0.941873	2.44689	0.942515	2.44673	0.456242	17.8888	0.863053	34.0481	0.237127	9.49062	0.969996	2.88793	0.743845	29.5307
0.939649	2.44744	0.940287	2.44728	0.457752	17.2734	0.862832	32.7524	0.238647	9.18528	0.968814	2.89299	0.744994	28.4513
0.937432	2.44802	0.938068	2.44785	0.459286	16.7035	0.862604	31.5508	0.240206	8.90392	0.967636	2.89809	0.746167	27.4519
0.935224	2.44862	0.935858	2.44844	0.460842	16.1742	0.86237	30.4336	0.241801	8.64393	0.966461	2.90323	0.747362	26.5239
0.933025	2.44925	0.933656	2.44907	0.462419	15.6814	0.862131	29.392	0.243432	8.40304	0.965291	2.90842	0.748579	25.6601
0.930835	2.44991	0.931463	2.44971	0.464016	15.2214	0.861887	28.4187	0.244881	8.20717	0.964124	2.91365	0.749817	24.8539
0.928653	2.45059	0.929279	2.45039	0.465631	14.7911	0.861638	27.5071	0.246136	8.04962	0.962961	2.91892	0.751073	24.0999
0.92648	2.4513	0.927104	2.45109	0.467263	14.3877	0.861384	26.6515	0.247188	7.9254	0.961801	2.92423	0.752349	23.3932
0.924315	2.45203	0.924937	2.45182	0.468911	14.0089	0.861126	25.847	0.248027	7.83085	0.960644	2.92959	0.753641	22.7295
0.92216	2.45279	0.922778	2.45257	0.470575	13.6523	0.860863	25.0891	0.248648	7.76328	0.959491	2.93499	0.75495	22.1049
0.920013	2.45358	0.920629	2.45335	0.472254	13.3162	0.860597	24.3738	0.249048	7.72089	0.958341	2.94043	0.756274	21.5162
0.917875	2.4544	0.918489	2.45416	0.473945	12.9988	0.860327	23.6976	0.249626	7.66106	0.957194	2.94591	0.757614	20.9604
0.915746	2.45525	0.916357	2.455	0.47565	12.6987	0.860054	23.0575	0.250257	7.59749	0.95605	2.95144	0.758967	20.4347
0.913625	2.45612	0.914234	2.45587	0.477366	12.4144	0.859778	22.4506	0.251121	7.51338	0.954909	2.95701	0.760334	19.9368
0.911514	2.45702	0.91212	2.45676	0.479094	12.1447	0.859499	21.8744	0.252223	7.4107	0.953771	2.96262	0.761714	19.4647
0.909411	2.45795	0.910015	2.45768	0.480832	11.8886	0.859218	21.3267	0.25357	7.29174	0.952635	2.96827	0.763105	19.0162
0.907317	2.45891	0.907918	2.45863	0.482579	11.6451	0.858935	20.8053	0.255168	7.159	0.951501	2.97397	0.764508	18.5898
0.905231	2.4599	0.90583	2.45962	0.484337	11.4131	0.85865	20.3084	0.257024	7.01506	0.95037	2.97971	0.765922	18.1837
0.903155	2.46092	0.903751	2.46062	0.486102	11.1921	0.858363	19.8344	0.258904	6.87936	0.949241	2.9855	0.767346	17.7967
0.901087	2.46197	0.901681	2.46166	0.487876	10.9811	0.858076	19.3817	0.260807	6.75124	0.948114	2.99132	0.768779	17.4274
0.899028	2.46304	0.899619	2.46273	0.489658	10.7795	0.857788	18.9489	0.262731	6.6301	0.946989	2.99719	0.770222	17.0746
0.896977	2.46415	0.897565	2.46383	0.491446	10.5868	0.857499	18.5347	0.264675	6.51539	0.945866	3.0031	0.771673	16.7372
0.894935	2.46528	0.895521	2.46495	0.493241	10.4022	0.857211	18.138	0.266638	6.40664	0.944744	3.00906	0.773132	16.4142
0.892901	2.46645	0.893485	2.46611	0.495042	10.2254	0.856922	17.7576	0.26862	6.30339	0.943624	3.01506	0.774599	16.1048
0.890875	2.46764	0.891457	2.4673	0.496848	10.0559	0.856634	17.3927	0.270618	6.20525	0.942506	3.0211	0.776073	15.8081
0.888858	2.46887	0.889437	2.46851	0.49866	9.89309	0.856347	17.0422	0.272632	6.11186	0.941388	3.02718	0.777553	15.5233
0.88685	2.47012	0.887426	2.46976	0.500477	9.73672	0.856061	16.7054	0.274662	6.02287	0.940272	3.0333	0.77904	15.2497
0.884849	2.47141	0.885423	2.47103	0.502297	9.58638	0.855776	16.3814	0.276706	5.938	0.939156	3.03947	0.780533	14.9868
0.882856	2.47272	0.883428	2.47234	0.504122	9.44173	0.855494	16.0696	0.278763	5.85696	0.938041	3.04568	0.782031	14.7338
0.880872	2.47406	0.881442	2.47367	0.50595	9.30244	0.855213	15.7693	0.280833	5.7795	0.936927	3.05193	0.783535	14.4902
0.878895	2.47544	0.879463	2.47504	0.507782	9.16821	0.854935	15.4799	0.282914	5.70539	0.935813	3.05822	0.785043	14.2555
0.876926	2.47684	0.877492	2.47643	0.509616	9.03878	0.854659	15.2008	0.285007	5.63441	0.934699	3.06456	0.786555	14.0292
0.874965	2.47827	0.875528	2.47786	0.511452	8.91388	0.854387	14.9314	0.287109	5.56637	0.933585	3.07094	0.788072	13.8109
0.873011	2.47973	0.873572	2.47931	0.513291	8.79328	0.854118	14.6713	0.289221	5.50109	0.932471	3.07735	0.789592	13.6001
0.871065	2.48123	0.871624	2.48079	0.515131	8.67676	0.853853	14.4201	0.291342	5.43839	0.931356	3.08381	0.791116	13.3966
0.869126	2.48275	0.869683	2.48231	0.516973	8.5641	0.853592	14.1772	0.29347	5.37813	0.930241	3.09031	0.792642	13.1998
0.867195	2.4843	0.867749	2.48385	0.518579	8.46893	0.853336	13.9423	0.295606	5.32016	0.929125	3.09685	0.794172	13.0095
0.86527	2.48588	0.865822	2.48542	0.519949	8.38992	0.853084	13.715	0.297749	5.26435	0.928008	3.10343	0.795703	12.8253
0.863352	2.48748	0.863903	2.48702	0.521081	8.326	0.852837	13.4949	0.299897	5.21058	0.92689	3.11005	0.797237	12.647
0.861441	2.48912	0.86199	2.48865	0.521977	8.27633	0.852595	13.2817	0.302051	5.15872	0.925771	3.11671	0.798773	12.4742
0.859536	2.49079	0.860083	2.4903	0.522636	8.2403	0.852359	13.0752	0.304209	5.10868	0.92465	3.12341	0.800309	12.3068
0.857638	2.49248	0.858183	2.49199	0.523057	8.21745	0.85213	12.875	0.306371	5.06035	0.923526	3.13015	0.801848	12.1445
0.855746	2.4942	0.856289	2.4937	0.523663	8.18489	0.851906	12.6807	0.308537	5.01365	0.922401	3.13693	0.803387	11.9869
0.85386	2.49595	0.854402	2.49544	0.524322	8.14987	0.85169	12.4923	0.310706	4.96847	0.921274	3.14374	0.804926	11.834
0.85198	2.49773	0.85252	2.49721	0.525218	8.10286	0.85148	12.3094	0.312877	4.92475	0.920144	3.15059	0.806466	11.6856
0.850106	2.49953	0.850644	2.49901	0.52635	8.0444	0.851277	12.1318	0.31505	4.88241	0.919011	3.15748	0.808006	11.5413
0.848237	2.50136	0.848774	2.50083	0.52772	7.97515	0.851083	11.9593	0.317224	4.84137	0.917874	3.16441	0.809546	11.4011
0.846373	2.50322	0.846909	2.50268	0.529326	7.89585	0.850896	11.7916	0.319399	4.80157	0.916735	3.17137	0.811085	11.2648
0.844515	2.5051	0.845049	2.50456	0.531168	7.80733	0.850717	11.6286	0.321574	4.76295	0.915592	3.17836	0.812624	11.1321
0.842661	2.50701	0.843193	2.50646	0.533009	7.72134	0.850547	11.4701	0.323749	4.72545	0.914445	3.1854	0.814161	11.0031
0.840812	2.50894	0.841343	2.50838	0.534848	7.63778	0.850386	11.316	0.325922	4.68901	0.913293	3.19246	0.815698	10.8774
0.838967	2.5109	0.839497	2.51033	0.536685	7.55654	0.850234	11.1659	0.328095	4.65358	0.912138	3.19956	0.817232	10.755
0.837126	2.51288	0.837655	2.51231	0.53852	7.47752	0.850092	11.0199	0.330265	4.61911	0.910977	3.20669	0.818765	10.6358
0.835289	2.51488	0.835817	2.51431	0.540353	7.40061	0.849959	10.8778	0.332433	4.58555	0.909812	3.21386	0.820296	10.5196
0.833455	2.51691	0.833982	2.51633	0.542183	7.32574	0.849837	10.7393	0.334599	4.55287	0.908641	3.22106	0.821825	10.4063
0.831625	2.51896	0.832151	2.51837	0.54401	7.25282	0.849725	10.6044	0.33676	4.52101	0.907464	3.22828	0.823351	10.2957
0.829798	2.52103	0.830323	2.52043	0.545834	7.18177	0.849624	10.473	0.338919	4.48995	0.906282	3.23554	0.824874	10.1879
0.827973	2.52312	0.828497	2.52252	0.547655	7.11251	0.849534	10.3449	0.341073	4.45964	0.905093	3.24283	0.826394	10.0826
0.826151	2.52523	0.826674	2.52463	0.549471	7.04497	0.849455	10.2199	0.343222	4.43005	0.903897	3.25014	0.827911	9.97985
0.82433	2.52737	0.824854	2.52675	0.551284	6.97909	0.849389	10.0981	0.345366	4.40114	0.902695	3.25749	0.829424	9.87948
0.822512	2.52951	0.823034	2.52889	0.553092	6.91479	0.849334	9.97931	0.347504	4.37288	0.901485	3.26486	0.830933	9.78141
0.820694	2.53168	0.821217	2.53105	0.554895	6.85201	0.849291	9.86338	0.349637	4.34526	0.900268	3.27225	0.832439	9.68557
0.818878	2.53386	0.8194	2.53323	0.556694	6.7907	0.849261	9.75024	0.351762	4.31822	0.899043	3.27967	0.83394	9.59188
0.817062	2.53606	0.817584	2.53542	0.558488	6.7308	0.849244	9.63982	0.353881	4.29176	0.89781	3.28712	0.835437	9.50026
0.815246	2.53827	0.815768	2.53763	0.560276	6.67226	0.849241	9.53201	0.355993	4.26584	0.896568	3.29458	0.836929	9.41064
0.81343	2.54049	0.813952	2.53985	0.562058	6.61502	0.849251	9.42673	0.358097	4.24044	0.895317	3.30207	0.838416	9.32294
0.811613	2.54273	0.812135	2.54208	0.563835	6.55905	0.849274	9.32391	0.360192	4.21553	0.894057	3.30958	0.839898	9.23712
0.809795	2.54497	0.810318	2.54433	0.565605	6.50428	0.849312	9.22346	0.362279	4.1911	0.892787	3.31711	0.841374	9.15309
0.807976	2.54723	0.808499	2.54658	0.567369	6.45068	0.849364	9.12532	0.364357	4.16712	0.891507	3.32466	0.842845	9.0708
0.806154	2.54949	0.806678	2.54884	0.569127	6.3982	0.849421	9.04163	0.366426	4.14358	0.890217	3.33223	0.844122	9.00047
0.80433	2.55176	0.804855	2.55111	0.570877	6.34681	0.849479	8.97158	0.368484	4.12045	0.888917	3.33981	0.845206	8.94149
0.802503	2.55404	0.803029	2.55338	0.57262	6.29647	0.849533	8.91455	0.370533	4.09772	0.887605	3.34741	0.846101	8.89339
0.800673	2.55632	0.801199	2.55566	0.574356	6.24714	0.84958	8.87001	0.372571	4.07536	0.886282	3.35502	0.846806	8.85577
0.798838	2.5586	0.799366	2.55794	0.576084	6.19878	0.849617	8.83758	0.374597	4.05337	0.884948	3.36265	0.847324	8.82835
0.797	2.56087	0.797529	2.56022	0.577804	6.15136	0.849642	8.81695	0.376613	4.03173	0.883601	3.37029	0.847655	8.8109
0.795156	2.56315	0.795686	2.5625	0.579516	6.10485	0.849679	8.78749	0.378616	4.01041	0.882242	3.37794	0.84813	8.78595
0.793306	2.56543	0.793839	2.56477	0.58122	6.05922	0.84972	8.75571	0.380608	3.98942	0.880871	3.3856	0.848646	8.75901
0.791451	2.5677	0.791985	2.56705	0.582915	6.01444	0.849781	8.7129	0.382587	3.96873	0.879487	3.39327	0.849346	8.72268
0.789589	2.56996	0.790125	2.56931	0.584601	5.97048	0.849862	8.65941	0.384554	3.94833	0.878089	3.40095	0.850228	8.67722
0.787719	2.57222	0.788258	2.57157	0.586278	5.92731	0.849969	8.5957	0.386507	3.92822	0.876678	3.40863	0.851293	8.62297
0.785842	2.57446	0.786383	2.57382	0.587946	5.88491	0.850106	8.52227	0.388447	3.90837	0.875253	3.41632	0.852536	8.5603
0.783957	2.57669	0.7845	2.57605	0.589604	5.84325	0.850278	8.43973	0.390373	3.88878	0.873814	3.42402	0.853955	8.48965
0.782063	2.57891	0.782609	2.57827	0.591252	5.80231	0.850467	8.35897	0.392285	3.86943	0.87236	3.43171	0.855367	8.42031
0.78016	2.58111	0.780708	2.58048	0.59289	5.76207	0.850673	8.27993	0.394183	3.85032	0.870892	3.43942	0.856772	8.35224
0.778247	2.5833	0.778798	2.58267	0.594518	5.7225	0.850896	8.20259	0.396066	3.83144	0.869409	3.44712	0.858168	8.2854
0.776324	2.58546	0.776878	2.58484	0.596136	5.68358	0.851137	8.12688	0.397934	3.81278	0.867911	3.45482	0.859556	8.21976
0.77439	2.5876	0.774947	2.58699	0.597743	5.64529	0.851396	8.05276	0.399787	3.79433	0.866397	3.46252	0.860936	8.15528
0.772445	2.58972	0.773006	2.58912	0.599339	5.60761	0.851672	7.9802	0.401625	3.77607	0.864868	3.47023	0.862308	8.09192
0.770488	2.59182	0.771052	2.59122	0.600924	5.57053	0.851967	7.90915	0.403448	3.75801	0.863323	3.47793	0.86367	8.02966
0.76852	2.59389	0.769087	2.59329	0.602498	5.53402	0.85228	7.83956	0.405255	3.74014	0.861762	3.48563	0.865024	7.96845
0.766539	2.59593	0.767109	2.59534	0.60406	5.49808	0.852612	7.77142	0.407045	3.72245	0.860185	3.49332	0.866368	7.90828
0.764545	2.59794	0.765119	2.59736	0.605611	5.46267	0.852963	7.70467	0.40882	3.70494	0.858592	3.50101	0.867704	7.84911
0.762538	2.59992	0.763116	2.59935	0.60715	5.42779	0.853332	7.63927	0.410579	3.68759	0.856983	3.5087	0.86903	7.79091
0.760517	2.60186	0.7611	2.60131	0.608677	5.39341	0.853721	7.57521	0.412321	3.6704	0.855357	3.51638	0.870346	7.73365
0.758484	2.60378	0.75907	2.60323	0.610192	5.35954	0.854129	7.51244	0.414047	3.65337	0.853714	3.52406	0.871653	7.67732
0.756436	2.60566	0.757026	2.60512	0.611695	5.32614	0.854557	7.45093	0.415756	3.63649	0.852055	3.53173	0.87295	7.62188
0.754374	2.6075	0.754968	2.60698	0.613185	5.29321	0.855005	7.39064	0.417449	3.61976	0.850379	3.5394	0.874237	7.5673
0.752299	2.60931	0.752897	2.6088	0.614663	5.26074	0.855472	7.33156	0.419125	3.60318	0.848686	3.54706	0.875514	7.51358
0.750209	2.61108	0.750811	2.61058	0.616129	5.22871	0.855959	7.27365	0.420784	3.58673	0.846977	3.55471	0.87678	7.46068
0.748105	2.61282	0.748712	2.61233	0.617581	5.19711	0.856467	7.21688	0.422427	3.57042	0.845251	3.56236	0.878037	7.40857
0.745987	2.61452	0.746598	2.61403	0.619021	5.16592	0.856995	7.16122	0.424053	3.55425	0.843509	3.57	0.879282	7.35726
0.743855	2.61618	0.74447	2.6157	0.620448	5.13514	0.857543	7.10666	0.425663	3.5382	0.84175	3.57764	0.880518	7.3067
0.741709	2.6178	0.742327	2.61734	0.621861	5.10476	0.858111	7.05315	0.427256	3.52228	0.839974	3.58527	0.881742	7.25688
0.739549	2.61938	0.740171	2.61893	0.623262	5.07477	0.858701	7.00068	0.428833	3.50649	0.838182	3.59289	0.882956	7.20778
0.737375	2.62093	0.738001	2.62049	0.624649	5.04515	0.859311	6.94922	0.430393	3.49081	0.836373	3.60051	0.884159	7.15939
0.735187	2.62244	0.735818	2.62201	0.626023	5.01589	0.859941	6.89876	0.431937	3.47526	0.834549	3.60813	0.885352	7.11169
0.732986	2.62391	0.733621	2.62349	0.627384	4.987	0.860593	6.84925	0.433465	3.45983	0.832708	3.61574	0.886533	7.06466
0.730772	2.62535	0.73141	2.62494	0.628731	4.95845	0.861265	6.80069	0.434977	3.44452	0.830852	3.62335	0.887704	7.01828
0.728545	2.62674	0.729187	2.62635	0.630065	4.93024	0.861958	6.75306	0.436474	3.42932	0.82898	3.63096	0.888863	6.97254
0.726305	2.62811	0.72695	2.62772	0.631386	4.90237	0.862672	6.70632	0.437955	3.41424	0.827092	3.63857	0.890012	6.92743
0.724053	2.62943	0.724702	2.62905	0.632693	4.87482	0.863407	6.66046	0.439421	3.39927	0.82519	3.64617	0.891149	6.88292
0.721789	2.63072	0.722441	2.63036	0.633986	4.84758	0.864163	6.61546	0.440871	3.38442	0.823272	3.65378	0.892276	6.83901
0.719512	2.63198	0.720168	2.63162	0.635267	4.82066	0.86494	6.5713	0.442307	3.36967	0.82134	3.66139	0.893391	6.79568
0.717224	2.63321	0.717883	2.63286	0.636534	4.79404	0.865737	6.52796	0.443729	3.35505	0.819393	3.669	0.894496	6.75292
0.714926	2.6344	0.715588	2.63406	0.637787	4.76771	0.866556	6.48543	0.445136	3.34053	0.817432	3.67662	0.895589	6.71071
0.712616	2.63556	0.713281	2.63523	0.639027	4.74168	0.867395	6.44367	0.44653	3.32613	0.815458	3.68424	0.896672	6.66905
0.710295	2.63669	0.710963	2.63637	0.640254	4.71593	0.868255	6.40269	0.44791	3.31183	0.813469	3.69187	0.897744	6.62793
0.707965	2.6378	0.708636	2.63748	0.641468	4.69046	0.869136	6.36245	0.449277	3.29766	0.811468	3.69951	0.898805	6.58732
0.705624	2.63887	0.706298	2.63856	0.642669	4.66526	0.870037	6.32294	0.450631	3.28359	0.809454	3.70716	0.899855	6.54723
0.703274	2.63991	0.703951	2.63962	0.643856	4.64033	0.870958	6.28415	0.451973	3.26964	0.807427	3.71483	0.900895	6.50763
0.700915	2.64093	0.701594	2.64064	0.645031	4.61566	0.8719	6.24606	0.453302	3.25579	0.805388	3.72251	0.901925	6.46853
0.698547	2.64192	0.699228	2.64164	0.646193	4.59125	0.872863	6.20866	0.45462	3.24207	0.803338	3.7302	0.902943	6.4299
0.69617	2.64289	0.696854	2.64261	0.647342	4.5671	0.873845	6.17192	0.455927	3.22845	0.801276	3.73791	0.903952	6.39175
0.693785	2.64383	0.694471	2.64356	0.648478	4.54319	0.874847	6.13583	0.457222	3.21495	0.799203	3.74565	0.904951	6.35406
0.691392	2.64475	0.692081	2.64449	0.649603	4.51953	0.875869	6.10038	0.458508	3.20157	0.797119	3.7534	0.905939	6.31682
0.688991	2.64565	0.689682	2.64539	0.650714	4.49611	0.876911	6.06556	0.459783	3.1883	0.795025	3.76118	0.906918	6.28003
0.686583	2.64652	0.687276	2.64627	0.651814	4.47292	0.877972	6.03134	0.461048	3.17514	0.792922	3.76899	0.907887	6.24368
0.684168	2.64738	0.684863	2.64713	0.652902	4.44997	0.879052	5.99773	0.462305	3.16211	0.790809	3.77683	0.908846	6.20776
0.681746	2.64821	0.682443	2.64797	0.653978	4.42725	0.880151	5.96469	0.463552	3.14918	0.788687	3.7847	0.909797	6.17226
0.679317	2.64903	0.680016	2.64879	0.655042	4.40476	0.881269	5.93223	0.464792	3.13638	0.786557	3.7926	0.910738	6.13717
0.676882	2.64982	0.677583	2.6496	0.656095	4.38248	0.882406	5.90032	0.466023	3.12369	0.784418	3.80055	0.91167	6.10249
0.674441	2.6506	0.675143	2.65038	0.657137	4.36043	0.883561	5.86896	0.467247	3.11113	0.782272	3.80853	0.912594	6.06822
0.671994	2.65137	0.672698	2.65115	0.658168	4.3386	0.884734	5.83812	0.468464	3.09868	0.780119	3.81655	0.913509	6.03434
0.669542	2.65211	0.670248	2.6519	0.659188	4.31698	0.885925	5.80781	0.469674	3.08635	0.777959	3.82462	0.914416	6.00085
0.667084	2.65284	0.667791	2.65263	0.660197	4.29557	0.887134	5.77801	0.470878	3.07414	0.775792	3.83273	0.915314	5.96774
0.664621	2.65356	0.66533	2.65335	0.661196	4.27437	0.88836	5.7487	0.472076	3.06205	0.773619	3.8409	0.916206	5.93501
0.662153	2.65426	0.662863	2.65406	0.662185	4.25337	0.889603	5.71988	0.473269	3.05009	0.771442	3.84912	0.917089	5.90265
0.659681	2.65495	0.660392	2.65475	0.663164	4.23258	0.890863	5.69153	0.474457	3.03824	0.769259	3.8574	0.917966	5.87065
0.657204	2.65563	0.657916	2.65543	0.664134	4.212	0.892139	5.66364	0.475641	3.02652	0.767071	3.86574	0.918836	5.83902
0.654722	2.65629	0.655436	2.6561	0.665094	4.19161	0.893432	5.63621	0.476821	3.01492	0.764879	3.87414	0.919699	5.80775
0.652237	2.65694	0.652952	2.65676	0.666045	4.17142	0.89474	5.60922	0.477997	3.00344	0.762684	3.88261	0.920555	5.77682
0.649747	2.65758	0.650463	2.6574	0.666987	4.15142	0.896064	5.58266	0.47917	2.99208	0.760485	3.89115	0.921406	5.74625
0.647254	2.65821	0.647971	2.65803	0.667921	4.13162	0.897404	5.55652	0.48034	2.98085	0.758284	3.89976	0.922251	5.71601
0.644756	2.65883	0.645475	2.65866	0.668846	4.11201	0.898758	5.5308	0.481507	2.96974	0.75608	3.90844	0.923091	5.68611
0.642256	2.65945	0.642975	2.65927	0.669763	4.09259	0.900127	5.50548	0.482673	2.95875	0.753875	3.91721	0.923926	5.65655
0.639752	2.66005	0.640472	2.65988	0.670673	4.07335	0.90151	5.48055	0.483837	2.94789	0.751668	3.92606	0.924756	5.62732
0.637245	2.66064	0.637966	2.66047	0.671575	4.0543	0.902907	5.45601	0.484999	2.93715	0.74946	3.935	0.925581	5.59841
0.634734	2.66123	0.635456	2.66106	0.67247	4.03544	0.904318	5.43184	0.486161	2.92653	0.747252	3.94403	0.926403	5.56982
0.632221	2.66181	0.632944	2.66164	0.673357	4.01676	0.905742	5.40804	0.487322	2.91603	0.745044	3.95316	0.927221	5.54155
0.629705	2.66238	0.630428	2.66221	0.674239	3.99826	0.907179	5.3846	0.488483	2.90566	0.742836	3.96239	0.928035	5.5136
0.627186	2.66294	0.62791	2.66278	0.675114	3.97994	0.908629	5.3615	0.489644	2.89542	0.740629	3.97172	0.928847	5.48596
0.624665	2.6635	0.62539	2.66334	0.675982	3.9618	0.910091	5.33875	0.490806	2.88529	0.738423	3.98115	0.929656	5.45863
0.622141	2.66405	0.622867	2.66389	0.676845	3.94384	0.911564	5.31634	0.491968	2.87529	0.736219	3.9907	0.930463	5.4316
0.619615	2.6646	0.620341	2.66444	0.677703	3.92605	0.91305	5.29425	0.493132	2.86541	0.734018	4.00037	0.931268	5.40487
0.617086	2.66514	0.617813	2.66499	0.678555	3.90843	0.914546	5.27247	0.494297	2.85565	0.731819	4.01015	0.932071	5.37844
0.614555	2.66568	0.615283	2.66553	0.679402	3.89099	0.916053	5.25101	0.495464	2.84602	0.729624	4.02006	0.932874	5.35231
0.612023	2.66621	0.612751	2.66606	0.680245	3.87372	0.917571	5.22985	0.496633	2.8365	0.727432	4.0301	0.933675	5.32647
0.609488	2.66674	0.610217	2.66659	0.681083	3.85662	0.919099	5.20899	0.497804	2.82711	0.725244	4.04028	0.934477	5.30092
0.606952	2.66727	0.607681	2.66712	0.681917	3.83968	0.920637	5.18841	0.498978	2.81784	0.723062	4.05059	0.935278	5.27566
0.604414	2.66779	0.605143	2.66764	0.682747	3.82292	0.922184	5.16812	0.500156	2.80869	0.720884	4.06105	0.93608	5.25069
0.601874	2.66831	0.602604	2.66816	0.683574	3.80632	0.92374	5.1481	0.501336	2.79966	0.718712	4.07167	0.936883	5.22599
0.599332	2.66883	0.600063	2.66868	0.684397	3.78988	0.925304	5.12836	0.50252	2.79075	0.716546	4.08243	0.937688	5.20158
0.596789	2.66934	0.59752	2.6692	0.685218	3.77361	0.926877	5.10887	0.503708	2.78196	0.714387	4.09336	0.938494	5.17745
0.594245	2.66986	0.594976	2.66971	0.686035	3.75751	0.928458	5.08964	0.5049	2.77328	0.712235	4.10445	0.939302	5.15359
0.591699	2.67037	0.592431	2.67022	0.68685	3.74156	0.930046	5.07067	0.506096	2.76473	0.710091	4.11572	0.940113	5.13
0.589152	2.67088	0.589884	2.67073	0.687663	3.72577	0.931642	5.05193	0.507297	2.75629	0.707954	4.12716	0.940927	5.10669
0.586604	2.67139	0.587336	2.67124	0.688474	3.71014	0.933245	5.03344	0.508502	2.74797	0.705827	4.13879	0.941744	5.08364
0.584054	2.6719	0.584787	2.67175	0.689284	3.69467	0.934854	5.01517	0.509713	2.73977	0.703708	4.15061	0.942565	5.06086
0.581504	2.67241	0.582237	2.67226	0.690092	3.67936	0.936469	4.99714	0.510929	2.73168	0.701599	4.16263	0.94339	5.03835
0.578952	2.67292	0.579686	2.67277	0.690898	3.6642	0.93809	4.97932	0.512151	2.72371	0.699501	4.17484	0.94422	5.0161
0.5764	2.67343	0.577134	2.67328	0.691704	3.6492	0.939716	4.96172	0.513379	2.71585	0.697413	4.18727	0.945055	4.99411
0.573847	2.67394	0.574581	2.67379	0.692509	3.63435	0.941348	4.94433	0.514612	2.70811	0.695336	4.19992	0.945896	4.97238
0.571293	2.67445	0.572027	2.6743	0.693314	3.61966	0.942984	4.92715	0.515852	2.70048	0.693271	4.21279	0.946743	4.95091
0.568738	2.67496	0.569473	2.67482	0.694119	3.60511	0.944625	4.91017	0.517098	2.69296	0.691218	4.22589	0.947596	4.9297
0.566183	2.67548	0.566918	2.67533	0.694924	3.59071	0.946269	4.89338	0.518352	2.68556	0.689178	4.23924	0.948456	4.90873
0.563627	2.676	0.564362	2.67585	0.695729	3.57647	0.947918	4.87679	0.519612	2.67826	0.687151	4.25283	0.949324	4.88803
0.561071	2.67652	0.561806	2.67637	0.696535	3.56237	0.949569	4.86038	0.520879	2.67108	0.685138	4.26667	0.950199	4.86757
0.558514	2.67704	0.559249	2.67689	0.697341	3.54842	0.951224	4.84415	0.522154	2.66401	0.68314	4.28078	0.951082	4.84736
0.555956	2.67757	0.556692	2.67741	0.698149	3.53461	0.952881	4.8281	0.523436	2.65705	0.681156	4.29515	0.951974	4.8274
0.553399	2.67809	0.554134	2.67794	0.698957	3.52095	0.954541	4.81223	0.524727	2.65021	0.679188	4.30981	0.952876	4.80769
0.550841	2.67863	0.551576	2.67847	0.699768	3.50744	0.956203	4.79652	0.526026	2.64347	0.677236	4.32476	0.953786	4.78822
0.548283	2.67916	0.549018	2.67901	0.70058	3.49406	0.957866	4.78098	0.527333	2.63684	0.6753	4.34	0.954707	4.769
0.545725	2.67971	0.54646	2.67955	0.701394	3.48083	0.959531	4.76559	0.528649	2.63032	0.673382	4.35555	0.955639	4.75002
0.543166	2.68025	0.543902	2.68009	0.70221	3.46774	0.961196	4.75037	0.529973	2.6239	0.671481	4.37142	0.956581	4.73128
0.540608	2.6808	0.541344	2.68064	0.703028	3.45479	0.962863	4.73529	0.531307	2.6176	0.669599	4.38762	0.957534	4.71278
0.53805	2.68136	0.538785	2.6812	0.703849	3.44198	0.964529	4.72037	0.532651	2.61141	0.667735	4.40415	0.9585	4.69452
0.535491	2.68192	0.536227	2.68176	0.704673	3.4293	0.966196	4.70559	0.534004	2.60532	0.66589	4.42103	0.959478	4.67649
0.532933	2.68249	0.533669	2.68233	0.7055	3.41677	0.967862	4.69095	0.535368	2.59934	0.664066	4.43826	0.960468	4.6587
0.530376	2.68307	0.531111	2.6829	0.70633	3.40436	0.969528	4.67645	0.536742	2.59347	0.662262	4.45587	0.961472	4.64115
0.527818	2.68366	0.528553	2.68349	0.707164	3.3921	0.971193	4.66208	0.538127	2.58771	0.660478	4.47385	0.962489	4.62383
0.525261	2.68425	0.525996	2.68408	0.708001	3.37996	0.972857	4.64784	0.539524	2.58206	0.658717	4.49223	0.96352	4.60674
0.522704	2.68485	0.523439	2.68467	0.708842	3.36796	0.974519	4.63373	0.540932	2.57652	0.656977	4.511	0.964565	4.58988
0.520148	2.68546	0.520883	2.68528	0.709686	3.3561	0.976179	4.61975	0.542352	2.57108	0.65526	4.53019	0.965626	4.57325
0.517592	2.68607	0.518327	2.6859	0.710536	3.34436	0.977837	4.60588	0.543786	2.56576	0.653566	4.54981	0.966702	4.55685
0.515037	2.6867	0.515772	2.68652	0.711389	3.33275	0.979493	4.59214	0.545232	2.56055	0.651895	4.56987	0.967793	4.54068
0.512483	2.68734	0.513217	2.68716	0.712247	3.32127	0.981146	4.57851	0.546692	2.55546	0.650249	4.59038	0.968901	4.52473
0.509929	2.68799	0.510663	2.6878	0.71311	3.30992	0.982796	4.56499	0.548167	2.55048	0.648627	4.61135	0.970025	4.50901
0.507377	2.68865	0.50811	2.68846	0.713978	3.2987	0.984443	4.55158	0.549657	2.54561	0.64703	4.63281	0.971167	4.49351
0.504825	2.68932	0.505558	2.68913	0.714851	3.28761	0.986086	4.53828	0.551163	2.54087	0.645459	4.65475	0.972325	4.47823
0.502274	2.69001	0.503007	2.68981	0.715729	3.27663	0.987726	4.52508	0.552685	2.53624	0.643914	4.67721	0.973502	4.46317
0.499724	2.6907	0.500457	2.6905	0.716613	3.26579	0.989361	4.51199	0.554226	2.53174	0.642395	4.70018	0.974696	4.44834
0.497176	2.69142	0.497909	2.69121	0.717502	3.25507	0.990992	4.49899	0.555785	2.52736	0.640904	4.72369	0.975909	4.43372
0.494629	2.69214	0.495361	2.69193	0.718398	3.24447	0.992618	4.48609	0.557365	2.52312	0.639439	4.74775	0.977141	4.41932
0.492083	2.69289	0.492815	2.69267	0.719299	3.23399	0.99424	4.47328	0.558965	2.519	0.638003	4.77238	0.978392	4.40513
0.489539	2.69364	0.49027	2.69342	0.720206	3.22364	0.995856	4.46056	0.560588	2.51503	0.636595	4.79759	0.979662	4.39116
0.486996	2.69442	0.487727	2.69419	0.72112	3.2134	0.997467	4.44793	0.562235	2.5112	0.635215	4.8234	0.980952	4.3774
0.484455	2.69521	0.485185	2.69498	0.722041	3.20329	0.999072	4.43539	0.563908	2.50751	0.633865	4.84983	0.982262	4.36385
0.481915	2.69602	0.482645	2.69579	0.722968	3.19329	1.00067	4.42294	0.565607	2.50398	0.632543	4.87688	0.983593	4.35051
0.479378	2.69686	0.480107	2.69662	0.723903	3.18341			0.567336	2.50061	0.631252	4.90459	0.984944	4.33738
0.476843	2.69771	0.477571	2.69746	0.724844	3.17365			0.569096	2.4974	0.62999	4.93296	0.986317	4.32445
0.474309	2.69858	0.475037	2.69833	0.725793	3.16401			0.570888	2.49436	0.628759	4.96202	0.98771	4.31173
0.471778	2.69948	0.472506	2.69922	0.726749	3.15448			0.572715	2.4915	0.627558	4.99178	0.989125	4.29922
0.46925	2.7004	0.469976	2.70013	0.727713	3.14507			0.574579	2.48882	0.626388	5.02226	0.990562	4.2869
0.466723	2.70135	0.467449	2.70107	0.728685	3.13577			0.57648	2.48633	0.625249	5.05348	0.99202	4.27479
0.4642	2.70232	0.464925	2.70204	0.729664	3.12658			0.578421	2.48403	0.624141	5.08547	0.9935	4.26287
0.461679	2.70332	0.462404	2.70303	0.730652	3.11751			0.580404	2.48193	0.623064	5.11824	0.995002	4.25114
0.459162	2.70435	0.459885	2.70405	0.731649	3.10855			0.582428	2.48002	0.62202	5.15181	0.996526	4.23962
0.456647	2.70541	0.45737	2.70511	0.732654	3.0997			0.584494	2.47831	0.621006	5.1862	0.998073	4.22828
0.454136	2.70651	0.454858	2.70619	0.733667	3.09097			0.586604	2.4768	0.620025	5.22143	0.999642	4.21713
0.451629	2.70764	0.452349	2.70731	0.73469	3.08234			0.588755	2.47547	0.619076	5.25754	1.00123	4.20617
0.449125	2.7088	0.449844	2.70846	0.735722	3.07382			0.590948	2.47433	0.618158	5.29453		
0.446625	2.71	0.447343	2.70965	0.736763	3.06542			0.59318	2.47336	0.617273	5.33244		
0.444129	2.71124	0.444846	2.71088	0.737814	3.05712			0.595452	2.47256	0.61642	5.37128		
0.441638	2.71253	0.442354	2.71216	0.738874	3.04893			0.59776	2.47192	0.615598	5.41109		
0.439151	2.71386	0.439866	2.71347	0.739945	3.04085			0.600103	2.47143	0.614809	5.45189		
0.43667	2.71524	0.437383	2.71484	0.741026	3.03288			0.602478	2.47108	0.614052	5.49369		
0.434193	2.71666	0.434905	2.71625	0.742117	3.02501			0.604883	2.47085	0.613327	5.53654		
0.431722	2.71814	0.432432	2.71771	0.743219	3.01725			0.607316	2.47073	0.612633	5.58046		
0.429257	2.71968	0.429965	2.71923	0.744331	3.0096			0.609775	2.47072	0.611972	5.62547		
0.426798	2.72127	0.427504	2.72081	0.745455	3.00206			0.612256	2.47081	0.611342	5.67161		
0.424346	2.72293	0.42505	2.72244	0.74659	2.99461			0.61476	2.47098	0.610743	5.7189		
0.4219	2.72465	0.422603	2.72415	0.747737	2.98728			0.617282	2.47122	0.610176	5.76738		
0.419462	2.72644	0.420162	2.72592	0.748895	2.98005			0.619822	2.47154	0.60964	5.81708		
0.417032	2.72831	0.41773	2.72776	0.750066	2.97292			0.622378	2.47191	0.609135	5.86803		
0.41461	2.73025	0.415305	2.72968	0.751248	2.9659			0.624949	2.47234	0.608661	5.92027		
0.412196	2.73228	0.412889	2.73169	0.752444	2.95899			0.627533	2.47282	0.608218	5.97383		
0.409792	2.73439	0.410482	2.73378	0.753652	2.95218			0.630128	2.47334	0.607804	6.02875		
0.407397	2.7366	0.408085	2.73596	0.754874	2.94547			0.632735	2.4739	0.607421	6.08506		
0.405013	2.73891	0.405697	2.73824	0.756109	2.93887			0.635351	2.47449	0.607068	6.14282		
0.40264	2.74133	0.403321	2.74062	0.757358	2.93237			0.637976	2.47511	0.606744	6.20205		
0.400278	2.74386	0.400956	2.74312	0.75862	2.92597			0.640609	2.47576	0.60645	6.2628		
0.397929	2.7465	0.398603	2.74573	0.759897	2.91968			0.64325	2.47643	0.606184	6.32512		
0.395593	2.74928	0.396263	2.74847	0.761189	2.9135			0.645897	2.47713	0.605947	6.38905		
0.39327	2.75219	0.393936	2.75134	0.762496	2.90741			0.64855	2.47784	0.605739	6.45464		
0.390962	2.75525	0.391624	2.75435	0.763818	2.90144			0.651209	2.47856	0.605559	6.52194		
0.38867	2.75845	0.389328	2.75752	0.765156	2.89556			0.653873	2.47931	0.605406	6.59099		
0.386395	2.76183	0.387047	2.76084	0.76651	2.8898			0.656542	2.48006	0.605281	6.66187		
0.384137	2.76538	0.384784	2.76434	0.76788	2.88413			0.659214	2.48082	0.605182	6.73462		
0.381897	2.76911	0.382539	2.76802	0.769267	2.87857			0.661891	2.48159	0.605111	6.8093		
0.379677	2.77304	0.380314	2.77189	0.770671	2.87312			0.664571	2.48237	0.605066	6.88597		
0.377478	2.77718	0.378108	2.77597	0.772093	2.86777			0.667255	2.48316	0.605047	6.9647		
0.375301	2.78155	0.375925	2.78027	0.773532	2.86252			0.669942	2.48395	0.605053	7.04555		
0.373147	2.78615	0.373764	2.7848	0.77499	2.85738			0.672631	2.48474	0.605085	7.1286		
0.371018	2.79101	0.371627	2.78958	0.776466	2.85235			0.675323	2.48554	0.605142	7.21392		
0.368914	2.79613	0.369516	2.79463	0.77796	2.84742			0.678017	2.48634	0.605224	7.30159		
0.366838	2.80155	0.367432	2.79996	0.779474	2.8426			0.680713	2.48715	0.605329	7.39169		
0.36479	2.80726	0.365376	2.80559	0.781008	2.83789			0.683412	2.48795	0.605459	7.48429		
0.362773	2.8133	0.363349	2.81153	0.782561	2.83328			0.686112	2.48876	0.605612	7.57951		
0.360786	2.81967	0.361354	2.81781	0.784135	2.82877			0.688814	2.48956	0.605788	7.67741		
0.358833	2.82641	0.359391	2.82444	0.785729	2.82438			0.691517	2.49037	0.605986	7.77812		
0.356914	2.83353	0.357462	2.83144	0.787344	2.82008			0.694222	2.49117	0.606208	7.88172		
0.355031	2.84104	0.355569	2.83884	0.78898	2.8159			0.696928	2.49198	0.606451	7.98833		
0.353185	2.84898	0.353712	2.84665	0.790637	2.81182			0.699635	2.49278	0.60668	8.08377		
0.351378	2.85735	0.351893	2.8549	0.792315	2.80784			0.702344	2.49358	0.606888	8.16707		
0.34961	2.86619	0.350114	2.8636	0.794016	2.80397			0.705053	2.49438	0.607069	8.23732		
0.347883	2.87552	0.348375	2.87279	0.795738	2.8002			0.707763	2.49517	0.607218	8.29379		
0.346199	2.88535	0.346679	2.88247	0.797483	2.79654			0.710475	2.49597	0.607331	8.33582		
0.344558	2.89571	0.345025	2.89268	0.799249	2.79298			0.713186	2.49676	0.607436	8.37489		
0.34296	2.90662	0.343415	2.90342	0.801038	2.78952			0.715899	2.49755	0.607511	8.4023		
0.341408	2.91809	0.34185	2.91474	0.802848	2.78616			0.718612	2.49833	0.60763	8.4455		
0.339901	2.93016	0.34033	2.92663	0.804681	2.7829			0.721326	2.49911	0.607796	8.50499		
0.338441	2.94284	0.338856	2.93913	0.806537	2.77974			0.724041	2.49989	0.608013	8.5815		
0.337027	2.95615	0.337429	2.95226	0.808414	2.77668			0.726756	2.50066	0.608285	8.67594		
0.33566	2.9701	0.336048	2.96602	0.810313	2.77372			0.729471	2.50143	0.608617	8.78949		
0.33434	2.98473	0.334714	2.98045	0.812234	2.77084			0.732186	2.5022	0.609017	8.92362		
0.333067	3.00004	0.333428	2.99556	0.814176	2.76806			0.734902	2.50296	0.609435	9.062		
0.33184	3.01605	0.332188	3.01138	0.81614	2.76538			0.737619	2.50372	0.609871	9.20481		
0.330661	3.03279	0.330996	3.0279	0.818124	2.76278			0.740335	2.50447	0.610325	9.35226		
0.329529	3.05027	0.32985	3.04517	0.82013	2.76026			0.743052	2.50522	0.610797	9.50455		
0.328442	3.0685	0.32875	3.06318	0.822155	2.75784			0.745769	2.50597	0.611286	9.66191		
0.327402	3.08751	0.327696	3.08197	0.824201	2.75549			0.748486	2.50671	0.611791	9.82456		
0.326407	3.10732	0.326688	3.10154	0.826266	2.75323			0.751203	2.50744	0.612313	9.99277		
0.325457	3.12793	0.325725	3.12192	0.828351	2.75104			0.75392	2.50817	0.61285	10.1668		
0.324551	3.14937	0.324807	3.14312	0.830454	2.74893			0.756637	2.5089	0.613403	10.3469		
0.323688	3.17166	0.323932	3.16516	0.832575	2.7469			0.759355	2.50962	0.613971	10.5335		
0.322869	3.19481	0.3231	3.18806	0.834713	2.74494			0.762072	2.51034	0.614553	10.7268		
0.322092	3.21884	0.322311	3.21184	0.83687	2.74304			0.764789	2.51105	0.61515	10.9272		
0.321357	3.24378	0.321564	3.23652	0.839042	2.74121			0.767506	2.51176	0.61576	11.135		
0.320663	3.26965	0.320858	3.26212	0.841231	2.73945			0.770223	2.51246	0.616384	11.3508		
0.320009	3.29646	0.320193	3.28866	0.843436	2.73775			0.77294	2.51316	0.617021	11.5748		
0.319395	3.32425	0.319568	3.31616	0.845656	2.73611			0.775657	2.51385	0.61767	11.8076		
0.31882	3.35303	0.318982	3.34465	0.84789	2.73453			0.778374	2.51454	0.618331	12.0496		
0.318284	3.38282	0.318434	3.37415	0.850139	2.733			0.78109	2.51522	0.619003	12.3015		
0.317786	3.41366	0.317925	3.40469	0.852401	2.73153			0.783806	2.5159	0.619687	12.5638		
0.317325	3.44558	0.317454	3.43629	0.854676	2.7301			0.786522	2.51657	0.620381	12.8371		
0.3169	3.47859	0.317019	3.46898	0.856964	2.72873			0.789238	2.51724	0.621085	13.1221		
0.316512	3.51273	0.31662	3.5028	0.859265	2.7274			0.791954	2.5179	0.621798	13.4196		
0.31616	3.54804	0.316258	3.53777	0.861576	2.72612			0.794669	2.51856	0.62252	13.7303		
0.315842	3.58454	0.31593	3.57393	0.863899	2.72489			0.797384	2.51921	0.623251	14.0552		
0.315559	3.62228	0.315637	3.6113	0.866233	2.72369			0.800098	2.51985	0.623989	14.3952		
0.31531	3.66128	0.315378	3.64994	0.868578	2.72254			0.802813	2.5205	0.624735	14.7513		
0.315095	3.70159	0.315153	3.68987	0.870932	2.72142			0.805526	2.52113	0.625487	15.1248		
0.314912	3.74325	0.314961	3.73113	0.873295	2.72034			0.80824	2.52176	0.626245	15.5169		
0.314763	3.78629	0.314802	3.77377	0.875668	2.71929			0.810953	2.52239	0.627009	15.9289		
0.314645	3.83078	0.314676	3.81784	0.87805	2.71828			0.813665	2.52301	0.627777	16.3624		
0.314559	3.87674	0.314581	3.86337	0.88044	2.7173			0.816378	2.52363	0.628549	16.8192		
0.314505	3.92424	0.314517	3.91043	0.882837	2.71635			0.819089	2.52424	0.629324	17.301		
0.314481	3.97333	0.314485	3.95905	0.885243	2.71543			0.8218	2.52484	0.630102	17.8101		
0.314487	4.02405	0.314483	4.0093	0.887656	2.71454			0.824511	2.52544	0.630881	18.3487		
0.314524	4.07647	0.314511	4.06123	0.890076	2.71367			0.827221	2.52604	0.631661	18.9194		
0.314591	4.13066	0.314569	4.1149	0.892503	2.71283			0.829931	2.52663	0.632441	19.5253		
0.314686	4.18667	0.314656	4.17038	0.894936	2.71202			0.83264	2.52721	0.63322	20.1695		
0.314811	4.24457	0.314772	4.22773	0.897375	2.71123			0.835348	2.52779	0.633996	20.856		
0.314964	4.30444	0.314917	4.28703	0.89982	2.71046			0.838056	2.52836	0.63477	21.5888		
0.315121	4.35828	0.31509	4.34834	0.902271	2.70971			0.840763	2.52893	0.635539	22.3728		
0.31527	4.40543	0.315291	4.41176	0.904727	2.70898			0.84347	2.52949	0.636304	23.2137		
0.315406	4.44533	0.31552	4.47736	0.907189	2.70828			0.846176	2.53005	0.637061	24.1177		
0.31552	4.47748	0.315776	4.54523	0.909655	2.70759			0.848881	2.5306	0.637811	25.0922		
0.315609	4.50145	0.316058	4.61546	0.912126	2.70692			0.851585	2.53115	0.638553	26.1459		
0.315693	4.52377	0.316367	4.68816	0.914602	2.70627			0.854289	2.53169	0.639284	27.2887		
0.315753	4.53944	0.316701	4.76343	0.917082	2.70563			0.856992	2.53223	0.640003	28.5325		
0.31585	4.56418	0.317062	4.84137	0.919566	2.70501			0.859694	2.53276	0.640709	29.8913		
0.315988	4.59831	0.317447	4.92212	0.922054	2.70441			0.862395	2.53328	0.6414	31.3818		
0.31617	4.6423	0.317858	5.00579	0.924545	2.70382			0.865096	2.5338	0.642076	33.0242		
0.316404	4.69676	0.318293	5.09252	0.927041	2.70324			0.867795	2.53431	0.642733	34.843		
0.316697	4.76247	0.318752	5.18245	0.92954	2.70268			0.870494	2.53482	0.64337	36.8683		
0.317057	4.84038	0.319234	5.27574	0.932042	2.70212			0.873192	2.53532	0.643987	39.1375		
0.317442	4.92109	0.31974	5.37254	0.934547	2.70159			0.875889	2.53582	0.64458	41.6976		
0.317852	5.00473	0.320269	5.47302	0.937055	2.70106			0.878584	2.53631	0.645148	44.6085		
0.318287	5.09142	0.320821	5.57737	0.939566	2.70055			0.881279	2.5368	0.64569	47.9482		
0.318746	5.18131	0.321394	5.6858	0.94208	2.70004			0.883973	2.53728	0.646202	51.819		
0.319228	5.27455	0.321989	5.7985	0.944597	2.69955			0.886665	2.53775	0.646685	56.3591		
0.319734	5.3713	0.322606	5.91571	0.947116	2.69906			0.889357	2.53822	0.647135	61.7593		
0.320263	5.47174	0.323243	6.03766	0.949637	2.69859			0.892047	2.53868	0.647551	68.2904		
0.320814	5.57604	0.3239	6.16463	0.95216	2.69812			0.894736	2.53913	0.647931	76.3503		
0.321387	5.68441	0.324578	6.29689	0.954686	2.69767			0.897424	2.53958	0.648274	86.5488		
0.321982	5.79706	0.325274	6.43475	0.957214	2.69722			0.90011	2.54002	0.648577	99.8695		
0.322598	5.91421	0.32599	6.57853	0.959744	2.69678			0.902795	2.54046	0.648841	118.009		
0.323235	6.03611	0.326724	6.72858	0.962275	2.69634			0.905479	2.54089	0.649062	144.166		
0.323892	6.16301	0.327476	6.8853	0.964809	2.69592			0.908161	2.54132	0.649241	185.171		
0.324569	6.2952	0.328245	7.0491	0.967344	2.6955			0.910842	2.54173	0.649376	258.7		
0.325266	6.43299	0.329031	7.22042	0.96988	2.69509			0.913521	2.54214	0.649467	428.938		
0.325981	6.57669	0.329729	7.37623	0.972419	2.69468			0.916198	2.54255	0.649513	1253.64		
0.326715	6.72667	0.330334	7.51413	0.974958	2.69428			0.918874	2.54294				
0.327466	6.8833	0.33084	7.63187	0.977499	2.69389			0.921548	2.54333				
0.328235	7.047	0.331245	7.72744	0.980041	2.6935			0.92422	2.54371				
0.329021	7.21822	0.331544	7.79915	0.982584	2.69312			0.92689	2.54409				
0.329823	7.39746	0.331821	7.86622	0.985129	2.69274			0.929559	2.54446				
0.330641	7.58525	0.332015	7.91353	0.987674	2.69237			0.932225	2.54482				
0.331474	7.78218	0.332319	7.9885	0.990221	2.692			0.934889	2.54517				
0.332321	7.98888	0.332736	8.09263	0.992768	2.69164			0.937551	2.54551				
0.333182	8.20606	0.333267	8.22799	0.995316	2.69128			0.94021	2.54585				
0.334056	8.4345	0.333916	8.39741	0.997865	2.69093			0.942868	2.54618				
0.334942	8.67503	0.334686	8.60459	1.00042	2.69058			0.945522	2.5465				
0.335839	8.92861	0.33558	8.85432					0.948174	2.54681				
0.336748	9.19629	0.336486	9.11783					0.950823	2.54711				
0.337666	9.47921	0.337401	9.39623					0.95347	2.5474				
0.338593	9.77866	0.338326	9.6908					0.956113	2.54768				
0.339529	10.0961	0.339259	10.0029					0.958753	2.54796				
0.340471	10.4331	0.3402	10.3341					0.96139	2.54822				
0.34142	10.7916	0.341147	10.6862					0.964023	2.54847				
0.342374	11.1735	0.342099	11.0611					0.966653	2.54871				
0.343331	11.5812	0.343055	11.4612					0.969279	2.54894				
0.344291	12.0173	0.344015	11.8888					0.9719	2.54916				
0.345252	12.4849	0.344976	12.347					0.974518	2.54936				
0.346213	12.9874	0.345937	12.8391					0.977131	2.54956				
0.347172	13.5289	0.346896	13.369					0.97974	2.54974				
0.348128	14.114	0.347853	13.941					0.982344	2.5499				
0.349079	14.748	0.348806	14.5604					0.984942	2.55006				
0.350022	15.4375	0.349752	15.2332					0.987535	2.55019				
0.350957	16.19	0.35069	15.9667					0.990123	2.55032				
0.351881	17.0144	0.351617	16.7694					0.992704	2.55042				
0.352792	17.9215	0.352532	17.6515					0.995279	2.55051				
0.353687	18.9245	0.353432	18.6255					0.997848	2.55058				
0.354564	20.0394	0.354314	19.7064					1.00041	2.55064				
0.35542	21.2861	0.355177	20.9128										
0.356253	22.6894	0.356016	22.2682										
0.357058	24.281	0.35683	23.802										
0.357834	26.1017	0.357614	25.5519										
0.358577	28.205	0.358367	27.5676										
0.359283	30.6628	0.359084	29.9148										
0.359948	33.5736	0.359761	32.6832										
0.360571	37.0761	0.360396	35.9983										
0.361145	41.3725	0.360985	40.0406										
0.36167	46.769	0.361524	45.0809										
0.362139	53.7532	0.36201	51.5432										
0.362552	63.1507	0.362439	60.1319										
0.362904	76.4808	0.362809	72.1093										
0.363193	96.877	0.363116	89.9838										
0.363416	132.008	0.363359	119.552										
0.363572	206.933	0.363534	177.915										
0.36366	477.911	0.363642	347.224										
		0.36368	7094.92										
