Sym0		Asym0		Sym1		Sym2		Sym3		Sym4		Asym1		Asym2		Asym3		Asym4	
420  Points		526  Points		420  Points		402  Points		349  Points		249  Points		451  Points		398  Points		340  Points		199  Points	
Freq (MHz)	Vph (m/ms)	Freq (MHz)	Vph (m/ms)	Freq (MHz)	Vph (m/ms)	Freq (MHz)	Vph (m/ms)	Freq (MHz)	Vph (m/ms)	Freq (MHz)	Vph (m/ms)	Freq (MHz)	Vph (m/ms)	Freq (MHz)	Vph (m/ms)	Freq (MHz)	Vph (m/ms)	Freq (MHz)	Vph (m/ms)
0.279514	310.672	0.000236786	0.0950678	0.279511	490.111	0.455763	533.096	0.559018	1703.93	0.838526	2317.69	0.139783	161.349	0.419264	1142.28	0.698772	2193.82	0.911518	6501.52
0.279531	152.632	0.000446367	0.130425	0.279523	186.101	0.455778	255.104	0.559028	443.754	0.838531	648.271	0.139879	77.7957	0.419274	322.832	0.698777	558.926	0.911521	850.382
0.279559	101.176	0.000721058	0.165604	0.279548	114.866	0.455802	167.678	0.559049	255.103	0.838542	376.842	0.140043	51.3027	0.419297	187.989	0.698788	320.265	0.911529	454.948
0.279599	75.6737	0.00106005	0.200547	0.279583	83.0762	0.455837	124.886	0.559082	179.012	0.83856	265.629	0.140272	38.3108	0.419331	132.611	0.698806	224.437	0.911542	310.546
0.27965	60.4454	0.0014624	0.235208	0.27963	65.0745	0.455882	99.5003	0.559127	137.891	0.838583	205.104	0.140567	30.6039	0.419378	102.442	0.69883	172.751	0.911559	235.729
0.279712	50.3244	0.00192706	0.26955	0.279689	53.4903	0.455938	82.6961	0.559183	112.138	0.838612	167.045	0.140928	25.5082	0.419436	83.4613	0.698861	140.418	0.911582	189.965
0.279786	43.1112	0.00245288	0.303541	0.279759	45.4119	0.456003	70.7519	0.559251	94.4961	0.838647	140.903	0.141352	21.893	0.419506	70.4199	0.698897	118.283	0.911609	159.084
0.279872	37.7106	0.00303836	0.337125	0.27984	39.4577	0.456079	61.8261	0.55933	81.6548	0.838688	121.838	0.14184	19.1981	0.419588	60.9078	0.69894	102.178	0.911641	136.841
0.279969	33.5161	0.00368217	0.370281	0.279933	34.8876	0.456165	54.9034	0.559421	71.89	0.838735	107.319	0.142389	17.1142	0.419682	53.6637	0.698989	89.9359	0.911679	120.056
0.280077	30.1646	0.00438272	0.402973	0.280038	31.2697	0.456261	49.3779	0.559524	64.2147	0.838788	95.8939	0.142998	15.4566	0.419788	47.9632	0.699044	80.3151	0.91172	106.941
0.280197	27.4255	0.00513845	0.43518	0.280153	28.3348	0.456368	44.8656	0.559638	58.0235	0.838847	86.669	0.143666	14.1081	0.419906	43.3609	0.699106	72.5555	0.911767	96.4104
0.280328	25.1453	0.00594753	0.466863	0.28028	25.9065	0.456484	41.1114	0.559764	52.9241	0.838912	79.0648	0.144392	12.9907	0.420036	39.5675	0.699174	66.1648	0.911819	87.769
0.280471	23.2177	0.00680844	0.498019	0.280419	23.8641	0.456611	37.9394	0.559901	48.6514	0.838983	72.6887	0.145173	12.0509	0.420177	36.3872	0.699248	60.8102	0.911875	80.5505
0.280625	21.567	0.00771934	0.528623	0.280569	22.1228	0.456748	35.224	0.560049	45.0197	0.83906	67.2656	0.146008	11.2501	0.420331	33.6828	0.699328	56.2588	0.911937	74.4302
0.28079	20.1378	0.00867839	0.558655	0.28073	20.6207	0.456895	32.8733	0.56021	41.8948	0.839142	62.5968	0.146778	10.6436	0.420496	31.3551	0.699415	52.3426	0.912003	69.1753
0.280967	18.8883	0.00968392	0.588111	0.280903	19.3117	0.457053	30.8187	0.560381	39.1779	0.839231	58.5351	0.147465	10.1824	0.420673	29.3306	0.699508	48.9374	0.912074	64.6145
0.281155	17.7869	0.0107341	0.616979	0.281087	18.1611	0.45722	29.0076	0.560565	36.7941	0.839326	54.9696	0.148054	9.83441	0.420862	27.5538	0.699607	45.9493	0.91215	60.6188
0.281354	16.8088	0.0118271	0.645251	0.281282	17.1418	0.457398	27.3993	0.560759	34.6857	0.839426	51.8145	0.148533	9.57827	0.421062	25.9821	0.699712	43.3062	0.912231	57.0893
0.281565	15.9344	0.0129614	0.67293	0.281489	16.2327	0.457585	25.9616	0.560965	32.8077	0.839533	49.0029	0.148892	9.39972	0.421275	24.582	0.699824	40.9516	0.912316	53.949
0.281786	15.1482	0.0141352	0.700006	0.281707	15.417	0.457783	24.6689	0.561183	31.1245	0.839645	46.4817	0.149125	9.28953	0.421499	23.3269	0.699942	38.8409	0.912407	51.137
0.28202	14.4377	0.0153467	0.726486	0.281936	14.6809	0.457991	23.5002	0.561412	29.6072	0.839764	44.2081	0.149464	9.13642	0.421735	22.1955	0.700066	36.9381	0.912502	48.6043
0.282264	13.7923	0.0165945	0.752368	0.282176	14.0136	0.45821	22.4387	0.561652	28.2327	0.839888	42.1474	0.149838	8.9767	0.421983	21.1704	0.700196	35.2138	0.912602	46.3114
0.28252	13.2037	0.0178768	0.777658	0.282428	13.4058	0.458438	21.4703	0.561904	26.9817	0.840018	40.2711	0.150356	8.76996	0.422242	20.2375	0.700333	33.6443	0.912707	44.2257
0.282786	12.6647	0.0191922	0.80236	0.282691	12.85	0.458676	20.5833	0.562167	25.8384	0.840155	38.5555	0.151026	8.52447	0.422513	19.3849	0.700475	32.2095	0.912817	42.3204
0.283065	12.1694	0.0205392	0.826482	0.282965	12.3399	0.458925	19.7679	0.562441	24.7894	0.840297	36.9809	0.151858	8.24917	0.422796	18.6026	0.700624	30.8928	0.912932	40.5732
0.283354	11.7127	0.0219164	0.850031	0.28325	11.87	0.459183	19.0159	0.562727	23.8237	0.840445	35.5305	0.152863	7.95303	0.42309	17.8825	0.70078	29.6803	0.913051	38.965
0.283654	11.2903	0.0233224	0.873014	0.283547	11.4359	0.459452	18.3202	0.563024	22.9317	0.840599	34.1903	0.154055	7.64447	0.423396	17.2174	0.700941	28.5602	0.913176	37.4801
0.283965	10.8985	0.0247559	0.895444	0.283854	11.0337	0.459731	17.6747	0.563332	22.1055	0.840759	32.9483	0.155285	7.36502	0.423713	16.6014	0.701109	27.5222	0.913305	36.1048
0.284288	10.5342	0.0262156	0.917329	0.284173	10.66	0.460019	17.0742	0.563651	21.3379	0.840925	31.7939	0.156553	7.11091	0.424043	16.0291	0.701282	26.5577	0.913439	34.8273
0.284622	10.1946	0.0277003	0.938678	0.284459	10.3554	0.460318	16.5142	0.563982	20.623	0.841097	30.7183	0.157856	6.87899	0.424383	15.4962	0.701463	25.6592	0.913578	33.6377
0.284966	9.87732	0.0292088	0.959503	0.28471	10.1098	0.460627	15.9908	0.564323	19.9556	0.841274	29.7137	0.159193	6.66659	0.424735	14.9988	0.701649	24.8201	0.913722	32.5272
0.285322	9.58027	0.03074	0.979817	0.284923	9.91583	0.460945	15.5005	0.564676	19.3312	0.841458	28.7734	0.160563	6.47145	0.425099	14.5335	0.701841	24.0348	0.913871	31.4881
0.285689	9.30159	0.0322931	0.999632	0.285093	9.76794	0.461274	15.0403	0.56504	18.7458	0.841647	27.8912	0.161963	6.29165	0.425474	14.0973	0.70204	23.2982	0.914024	30.5138
0.286066	9.03967	0.0338667	1.01896	0.28522	9.66214	0.461613	14.6076	0.565416	18.1958	0.841843	27.0622	0.163394	6.12553	0.425861	13.6876	0.702245	22.6061	0.914183	29.5985
0.286455	8.79306	0.0354601	1.03781	0.285303	9.5957	0.461962	14.2	0.565802	17.6782	0.842044	26.2815	0.164853	5.97164	0.426259	13.302	0.702456	21.9544	0.914346	28.7369
0.286854	8.5605	0.0370723	1.05619	0.285422	9.50187	0.46232	13.8153	0.566199	17.1901	0.842251	25.5451	0.166339	5.82876	0.426668	12.9386	0.702673	21.3398	0.914514	27.9245
0.287264	8.34083	0.0387024	1.07412	0.285552	9.40207	0.462689	13.4518	0.566607	16.7293	0.842464	24.8494	0.167852	5.6958	0.427089	12.5955	0.702896	20.7592	0.914687	27.1572
0.287686	8.13305	0.0403497	1.09161	0.285733	9.26988	0.463067	13.1078	0.567026	16.2935	0.842683	24.191	0.169388	5.57179	0.427521	12.2711	0.703126	20.2099	0.914865	26.4313
0.288117	7.93622	0.0420132	1.10867	0.285964	9.10827	0.463455	12.7817	0.567456	15.8807	0.842908	23.5672	0.170949	5.45592	0.427964	11.9639	0.703362	19.6894	0.915047	25.7436
0.28856	7.74953	0.0436924	1.12531	0.286249	8.9207	0.463853	12.4722	0.567897	15.4892	0.843139	22.9751	0.172532	5.34744	0.428419	11.6725	0.703604	19.1955	0.915235	25.0912
0.289014	7.57224	0.0453864	1.14155	0.286592	8.71097	0.464261	12.1781	0.568349	15.1173	0.843375	22.4126	0.174137	5.2457	0.428885	11.396	0.703852	18.7263	0.915427	24.4714
0.289478	7.40367	0.0470946	1.15739	0.286995	8.48299	0.464679	11.8982	0.568811	14.7637	0.843618	21.8773	0.175763	5.15012	0.429362	11.133	0.704106	18.2799	0.915625	23.8819
0.289953	7.24322	0.0488163	1.17285	0.287409	8.26755	0.465107	11.6317	0.569285	14.4272	0.843866	21.3675	0.177408	5.06019	0.42985	10.8828	0.704366	17.8548	0.915827	23.3205
0.290438	7.09032	0.0505511	1.18794	0.287834	8.06366	0.465544	11.3775	0.569769	14.1063	0.84412	20.8813	0.179072	4.97543	0.430349	10.6443	0.704633	17.4494	0.916034	22.7852
0.290934	6.94448	0.052298	1.20266	0.28827	7.87043	0.465992	11.1349	0.570264	13.8003	0.84438	20.4172	0.180754	4.89544	0.430793	10.4455	0.704905	17.0625	0.916245	22.2742
0.291441	6.80523	0.0540569	1.21703	0.288716	7.68708	0.466449	10.9031	0.570769	13.5079	0.844646	19.9736	0.182453	4.81984	0.431179	10.2823	0.705184	16.6928	0.916462	21.786
0.291958	6.67216	0.0558271	1.23106	0.289173	7.51289	0.466915	10.6814	0.571285	13.2285	0.844918	19.5493	0.184169	4.74829	0.431502	10.1515	0.705469	16.3392	0.916684	21.3191
0.292486	6.54486	0.057608	1.24476	0.289641	7.3472	0.46733	10.4959	0.571812	12.961	0.845195	19.1431	0.1859	4.6805	0.43176	10.0506	0.70576	16.0007	0.91691	20.8721
0.293024	6.423	0.0593993	1.25814	0.29012	7.18942	0.467689	10.3432	0.572349	12.7049	0.845479	18.7538	0.187647	4.61619	0.431952	9.97774	0.706057	15.6763	0.917141	20.4438
0.293573	6.30624	0.0612004	1.2712	0.290609	7.03902	0.46799	10.2205	0.572897	12.4594	0.845768	18.3803	0.189408	4.55511	0.432075	9.93173	0.706361	15.3652	0.917377	20.033
0.294132	6.19427	0.063011	1.28396	0.291109	6.89552	0.468231	10.1257	0.573455	12.2238	0.846063	18.0218	0.191183	4.49703	0.432254	9.86641	0.70667	15.0665	0.917618	19.6387
0.294701	6.08684	0.0648305	1.29643	0.291619	6.75845	0.468409	10.0572	0.574023	11.9977	0.846364	17.6774	0.19297	4.44174	0.432449	9.79646	0.706985	14.7797	0.917864	19.2599
0.295281	5.98366	0.0666588	1.3086	0.29214	6.62742	0.468524	10.0139	0.574602	11.7804	0.84667	17.3463	0.194771	4.38906	0.432717	9.70305	0.707307	14.5039	0.918115	18.8958
0.295871	5.88452	0.0684952	1.3205	0.292671	6.50205	0.46869	9.9523	0.575192	11.5714	0.846983	17.0276	0.196584	4.33882	0.433059	9.58769	0.707634	14.2386	0.91837	18.5454
0.296471	5.78919	0.0703397	1.33213	0.293213	6.38199	0.468872	9.8863	0.575791	11.3704	0.847301	16.7209	0.198408	4.29085	0.433479	9.45214	0.707968	13.9832	0.918631	18.2081
0.297082	5.69746	0.0721917	1.3435	0.293765	6.26692	0.46912	9.79806	0.576401	11.1768	0.847625	16.4252	0.200244	4.24501	0.433978	9.29842	0.708308	13.7371	0.918896	17.8831
0.297703	5.60914	0.074051	1.35462	0.294328	6.15655	0.469438	9.68888	0.577021	10.9903	0.847955	16.1402	0.20209	4.20117	0.434562	9.12869	0.708654	13.4999	0.919166	17.5698
0.298334	5.52405	0.0759173	1.36548	0.294901	6.05062	0.469828	9.56035	0.577651	10.8104	0.848291	15.8653	0.203947	4.15921	0.435156	8.9657	0.709006	13.271	0.919441	17.2675
0.298975	5.44204	0.0777902	1.37611	0.295484	5.94887	0.470291	9.41425	0.578209	10.6589	0.848632	15.5998	0.205813	4.119	0.435762	8.80907	0.709364	13.0501	0.919721	16.9757
0.299626	5.36294	0.0796696	1.38651	0.296078	5.85107	0.470832	9.25251	0.57869	10.5334	0.848979	15.3434	0.207689	4.08046	0.436378	8.65844	0.709728	12.8368	0.920005	16.6939
0.300287	5.28662	0.0815551	1.39667	0.296682	5.75701	0.471382	9.09677	0.579092	10.432	0.849332	15.0956	0.209574	4.04348	0.437004	8.51349	0.710098	12.6306	0.920295	16.4215
0.300959	5.21293	0.0834465	1.40662	0.297296	5.66648	0.471942	8.94671	0.579412	10.3534	0.849691	14.856	0.211467	4.00797	0.437641	8.37391	0.710474	12.4313	0.920589	16.1582
0.30164	5.14175	0.0853436	1.41635	0.29792	5.5793	0.472512	8.80204	0.57965	10.2964	0.850055	14.6241	0.213369	3.97384	0.438289	8.23942	0.710856	12.2385	0.920888	15.9034
0.302331	5.07297	0.0872461	1.42588	0.298555	5.4953	0.47309	8.66248	0.579802	10.2603	0.850425	14.3997	0.215279	3.94103	0.438947	8.10975	0.711244	12.0519	0.921192	15.6567
0.303032	5.00646	0.0891538	1.43521	0.299199	5.41431	0.473678	8.52777	0.580022	10.2089	0.850801	14.1823	0.217197	3.90946	0.439616	7.98467	0.711638	11.8711	0.921501	15.4178
0.303743	4.94214	0.0910666	1.44433	0.299854	5.33619	0.474276	8.39767	0.580263	10.1537	0.851183	13.9717	0.219123	3.87906	0.440295	7.86393	0.712038	11.696	0.921815	15.1863
0.304464	4.87989	0.0929841	1.45327	0.300519	5.2608	0.474883	8.27195	0.580592	10.0796	0.85157	13.7675	0.221055	3.84978	0.440985	7.74732	0.712444	11.5263	0.922134	14.9619
0.3051	4.82727	0.0949063	1.46203	0.301193	5.18799	0.475499	8.15041	0.581012	9.98765	0.851963	13.5695	0.222995	3.82155	0.441685	7.63466	0.712856	11.3617	0.922457	14.7443
0.305649	4.78356	0.096833	1.4706	0.301878	5.11766	0.476125	8.03285	0.581524	9.87892	0.852362	13.3773	0.224941	3.79431	0.442395	7.52573	0.713274	11.202	0.922786	14.5331
0.306106	4.74819	0.0987638	1.47899	0.302573	5.04967	0.47676	7.91908	0.582132	9.7547	0.852766	13.1908	0.226893	3.76803	0.443116	7.42038	0.713698	11.047	0.923119	14.3281
0.30647	4.7207	0.100699	1.48722	0.303277	4.98394	0.477404	7.80893	0.582839	9.61641	0.853176	13.0096	0.228852	3.74265	0.443847	7.31844	0.714072	10.9156	0.923457	14.129
0.30674	4.70076	0.102638	1.49528	0.303992	4.92034	0.478057	7.70224	0.583555	9.48247	0.853592	12.8336	0.230816	3.71813	0.444588	7.21974	0.714395	10.8062	0.9238	13.9356
0.306913	4.68811	0.10458	1.50318	0.304716	4.85879	0.478719	7.59884	0.584281	9.35267	0.854013	12.6626	0.232787	3.69442	0.445339	7.12415	0.714664	10.7175	0.924147	13.7476
0.307162	4.67009	0.106527	1.51092	0.30545	4.7992	0.479391	7.49861	0.585017	9.22684	0.854441	12.4963	0.234763	3.67149	0.4461	7.03153	0.714879	10.6485	0.9245	13.5649
0.307435	4.6507	0.108477	1.51851	0.306194	4.74148	0.480072	7.40139	0.585763	9.10481	0.854873	12.3345	0.236744	3.6493	0.446871	6.94174	0.715037	10.5983	0.924857	13.3871
0.307807	4.62468	0.11043	1.52595	0.306948	4.68555	0.480762	7.30707	0.586518	8.9864	0.855312	12.1772	0.23873	3.62782	0.447652	6.85467	0.715139	10.5665	0.92522	13.2142
0.308282	4.59232	0.112387	1.53325	0.307711	4.63134	0.48146	7.21551	0.587282	8.87148	0.855756	12.024	0.240722	3.60701	0.448444	6.7702	0.715286	10.521	0.925587	13.0458
0.308861	4.55399	0.114346	1.54041	0.308484	4.57877	0.482168	7.12661	0.588056	8.75988	0.856206	11.8749	0.242718	3.58685	0.449245	6.68822	0.715447	10.4722	0.925959	12.8819
0.309546	4.51011	0.116056	1.54653	0.309267	4.52777	0.482885	7.04026	0.588839	8.65147	0.856661	11.7296	0.244719	3.5673	0.450056	6.60862	0.715666	10.4064	0.926335	12.7222
0.310342	4.46114	0.117516	1.55167	0.31006	4.47829	0.483611	6.95635	0.589632	8.54613	0.857122	11.5881	0.246724	3.54834	0.450876	6.53132	0.715946	10.3246	0.926717	12.5667
0.311148	4.41361	0.118724	1.55586	0.310862	4.43026	0.484346	6.87478	0.590434	8.44373	0.857588	11.4502	0.248734	3.52994	0.451707	6.45621	0.716287	10.2274	0.927103	12.415
0.311963	4.36745	0.11968	1.55914	0.311673	4.38362	0.48509	6.79547	0.591245	8.34416	0.858061	11.3157	0.250748	3.51208	0.452547	6.38322	0.716692	10.1159	0.927495	12.2672
0.312787	4.32261	0.120383	1.56154	0.312495	4.33832	0.485842	6.71833	0.592066	8.24729	0.858477	11.2013	0.252765	3.49474	0.453397	6.31225	0.717161	9.99117	0.927891	12.1231
0.313621	4.27904	0.120834	1.56306	0.313325	4.29431	0.486604	6.64327	0.592895	8.15304	0.858835	11.1057	0.254787	3.47789	0.454256	6.24324	0.717637	9.86968	0.928292	11.9825
0.314465	4.2367	0.121481	1.56524	0.314166	4.25153	0.487374	6.57021	0.593734	8.06129	0.859133	11.0279	0.256813	3.46152	0.455125	6.1761	0.718118	9.75135	0.928697	11.8452
0.315318	4.19553	0.122186	1.56759	0.315016	4.20995	0.488153	6.49908	0.594581	7.97195	0.85937	10.9672	0.258842	3.4456	0.456004	6.11076	0.718605	9.63606	0.929108	11.7113
0.316181	4.15549	0.123144	1.57077	0.315875	4.16952	0.48894	6.42981	0.595438	7.88494	0.859546	10.9231	0.260875	3.43012	0.456892	6.04716	0.719098	9.52368	0.929523	11.5805
0.317053	4.11655	0.124357	1.57474	0.316744	4.13019	0.489737	6.36233	0.596304	7.80017	0.859658	10.895	0.262911	3.41506	0.457789	5.98523	0.719597	9.41413	0.929944	11.4528
0.317935	4.07865	0.125825	1.57949	0.317622	4.09193	0.490542	6.29658	0.597178	7.71755	0.859821	10.855	0.26495	3.4004	0.458696	5.92491	0.720102	9.30729	0.930314	11.344
0.318826	4.04178	0.127548	1.58497	0.31851	4.0547	0.491355	6.23248	0.598061	7.63701	0.859998	10.8118	0.266993	3.38612	0.459612	5.86615	0.720613	9.20306	0.930632	11.2529
0.319726	4.00588	0.129528	1.59116	0.319407	4.01846	0.492177	6.17	0.598953	7.55847	0.86024	10.7537	0.269039	3.37222	0.460538	5.80888	0.721129	9.10136	0.930897	11.1787
0.320636	3.97092	0.131511	1.59723	0.320313	3.98317	0.493008	6.10906	0.599854	7.48187	0.860548	10.6811	0.271088	3.35868	0.461472	5.75306	0.721651	9.0021	0.931108	11.1208
0.321555	3.93688	0.133495	1.60319	0.321229	3.94881	0.493847	6.04961	0.600764	7.40714	0.860924	10.5947	0.273139	3.34548	0.462416	5.69864	0.722179	8.90519	0.931264	11.0787
0.322484	3.90372	0.135482	1.60904	0.322154	3.91534	0.494695	5.99161	0.601682	7.33421	0.861368	10.4953	0.275194	3.33261	0.463369	5.64556	0.722713	8.81055	0.931365	11.0519
0.323422	3.87141	0.137471	1.61479	0.323089	3.88274	0.495551	5.93501	0.602608	7.26302	0.861883	10.3837	0.277251	3.32007	0.464331	5.59378	0.723253	8.7181	0.931509	11.0136
0.324369	3.83993	0.139461	1.62044	0.324033	3.85097	0.496416	5.87975	0.603543	7.19351	0.862403	10.2747	0.279311	3.30783	0.465302	5.54326	0.723798	8.62778	0.931666	10.9723
0.325326	3.80924	0.141454	1.62599	0.324987	3.82	0.497288	5.8258	0.604487	7.12563	0.862929	10.1681	0.281373	3.29588	0.466282	5.49396	0.724349	8.53951	0.931881	10.9166
0.326292	3.77932	0.143448	1.63144	0.32595	3.78981	0.498169	5.77311	0.605439	7.05932	0.863461	10.0639	0.283438	3.28423	0.467271	5.44582	0.724906	8.45322	0.932155	10.8471
0.327268	3.75015	0.145444	1.6368	0.326922	3.76038	0.499059	5.72164	0.606399	6.99453	0.863998	9.96194	0.285505	3.27285	0.468268	5.39883	0.725469	8.36886	0.932489	10.7643
0.328253	3.72171	0.147442	1.64207	0.327903	3.73168	0.499957	5.67135	0.607368	6.93122	0.86454	9.86225	0.287575	3.26174	0.469275	5.35293	0.726037	8.28636	0.932883	10.6688
0.329247	3.69396	0.149441	1.64724	0.328895	3.70369	0.500862	5.62221	0.608345	6.86933	0.865089	9.76472	0.289647	3.25088	0.47029	5.3081	0.726611	8.20565	0.933341	10.5615
0.330251	3.66689	0.151442	1.65233	0.329895	3.67639	0.501776	5.57417	0.60933	6.80882	0.865642	9.66928	0.291721	3.24028	0.471314	5.2643	0.727191	8.12669	0.933803	10.4565
0.331264	3.64048	0.153445	1.65733	0.330905	3.64975	0.502699	5.52721	0.610323	6.74965	0.866201	9.57586	0.293797	3.22991	0.472347	5.2215	0.727776	8.04943	0.93427	10.3537
0.332287	3.61471	0.155448	1.66224	0.331924	3.62375	0.503629	5.48128	0.611325	6.69177	0.866765	9.48441	0.295875	3.21978	0.473388	5.17966	0.728367	7.9738	0.934741	10.2531
0.333319	3.58956	0.157454	1.66708	0.332953	3.59838	0.504567	5.43637	0.612334	6.63515	0.867335	9.39487	0.297955	3.20987	0.474438	5.13877	0.728964	7.89975	0.935218	10.1545
0.334361	3.56501	0.15946	1.67183	0.333992	3.57362	0.505513	5.39243	0.613352	6.57975	0.86791	9.30717	0.300037	3.20018	0.475497	5.09878	0.729567	7.82725	0.935699	10.058
0.335412	3.54104	0.161468	1.6765	0.335039	3.54945	0.506467	5.34944	0.614377	6.52553	0.868491	9.22127	0.302121	3.1907	0.476564	5.05967	0.730175	7.75625	0.936185	9.96346
0.336473	3.51764	0.163477	1.6811	0.336097	3.52585	0.507429	5.30738	0.61541	6.47245	0.869077	9.1371	0.304207	3.18142	0.477639	5.02142	0.730789	7.68669	0.936676	9.8708
0.337544	3.49479	0.165488	1.68563	0.337164	3.50281	0.508399	5.2662	0.616451	6.42049	0.869668	9.05463	0.306294	3.17234	0.478723	4.98399	0.731408	7.61855	0.937172	9.78
0.338624	3.47248	0.167499	1.69007	0.338241	3.48031	0.509377	5.2259	0.6175	6.3696	0.870265	8.97379	0.308383	3.16345	0.479815	4.94737	0.732033	7.55177	0.937672	9.691
0.339713	3.45068	0.169512	1.69445	0.339327	3.45833	0.510363	5.18643	0.618557	6.31976	0.870868	8.89455	0.310474	3.15475	0.480916	4.91154	0.732664	7.48632	0.938177	9.60375
0.340813	3.4294	0.171525	1.69876	0.340423	3.43687	0.511356	5.14779	0.619621	6.27094	0.871475	8.81685	0.312566	3.14622	0.482024	4.87646	0.7333	7.42216	0.938687	9.51819
0.341923	3.40861	0.17354	1.703	0.341529	3.4159	0.512357	5.10994	0.620693	6.22311	0.872088	8.74066	0.31466	3.13787	0.483141	4.84212	0.733942	7.35926	0.939202	9.43428
0.343042	3.38829	0.175556	1.70717	0.342645	3.39542	0.513366	5.07286	0.621772	6.17624	0.872706	8.66594	0.316755	3.12968	0.484266	4.80849	0.734589	7.29758	0.939721	9.35197
0.344171	3.36845	0.177572	1.71128	0.343771	3.37541	0.514382	5.03653	0.622859	6.1303	0.87333	8.59264	0.318852	3.12166	0.485399	4.77556	0.735242	7.23708	0.940245	9.27122
0.34531	3.34906	0.17959	1.71532	0.344906	3.35586	0.515406	5.00094	0.623954	6.08527	0.873959	8.52072	0.32095	3.1138	0.48654	4.74331	0.735901	7.17774	0.940774	9.19199
0.34646	3.33012	0.181608	1.7193	0.346052	3.33676	0.516437	4.96605	0.625056	6.04113	0.874593	8.45014	0.323049	3.10609	0.487689	4.71171	0.736565	7.11952	0.941308	9.11424
0.347619	3.31161	0.183628	1.72322	0.347208	3.3181	0.517476	4.93186	0.626165	5.99784	0.875233	8.38088	0.32515	3.09853	0.488846	4.68076	0.737235	7.06239	0.941847	9.03792
0.348789	3.29352	0.185648	1.72707	0.348375	3.29987	0.518523	4.89833	0.627281	5.95539	0.875878	8.31289	0.327251	3.09112	0.490011	4.65043	0.73791	7.00632	0.94239	8.963
0.34997	3.27584	0.187669	1.73087	0.349551	3.28205	0.519577	4.86547	0.628405	5.91375	0.876528	8.24614	0.329354	3.08384	0.491184	4.6207	0.73859	6.95129	0.942938	8.88944
0.35116	3.25857	0.189691	1.73461	0.350738	3.26463	0.520638	4.83324	0.629536	5.8729	0.877183	8.1806	0.331459	3.0767	0.492365	4.59156	0.739276	6.89727	0.943491	8.81721
0.352362	3.24169	0.191713	1.7383	0.351936	3.24762	0.521706	4.80162	0.630675	5.83282	0.877844	8.11624	0.333564	3.0697	0.493553	4.563	0.739968	6.84423	0.944048	8.74626
0.353574	3.2252	0.193736	1.74193	0.353144	3.23099	0.522782	4.77062	0.63182	5.79349	0.87851	8.05303	0.33567	3.06282	0.494749	4.535	0.740665	6.79214	0.94461	8.67657
0.354797	3.20909	0.19576	1.7455	0.354363	3.21474	0.523865	4.7402	0.632972	5.75489	0.879181	7.99094	0.337778	3.05607	0.495953	4.50754	0.741368	6.74099	0.945177	8.60811
0.356031	3.19334	0.197784	1.74902	0.355594	3.19886	0.524956	4.71035	0.634132	5.717	0.879858	7.92993	0.339886	3.04944	0.497164	4.4806	0.742076	6.69075	0.945749	8.54085
0.357276	3.17795	0.199809	1.75249	0.356835	3.18335	0.526053	4.68107	0.635298	5.67981	0.880539	7.86999	0.341995	3.04293	0.498384	4.45419	0.742789	6.64139	0.946325	8.47475
0.358533	3.16291	0.201835	1.75591	0.358087	3.16819	0.527158	4.65233	0.636471	5.64329	0.881226	7.81108	0.344105	3.03653	0.49961	4.42828	0.743508	6.5929	0.946906	8.40978
0.359801	3.14822	0.203861	1.75928	0.359351	3.15338	0.528269	4.62412	0.637652	5.60744	0.881918	7.75319	0.346217	3.03025	0.500844	4.40286	0.744232	6.54525	0.947492	8.34592
0.361081	3.13387	0.205888	1.7626	0.360627	3.13891	0.529388	4.59642	0.638839	5.57222	0.882615	7.69628	0.348329	3.02407	0.502086	4.37791	0.744962	6.49842	0.948082	8.28315
0.362373	3.11986	0.207916	1.76587	0.361914	3.12477	0.530514	4.56923	0.640033	5.53763	0.883318	7.64033	0.350441	3.018	0.503335	4.35344	0.745697	6.45239	0.948677	8.22142
0.363676	3.10616	0.209943	1.76909	0.363214	3.11097	0.531646	4.54254	0.641233	5.50365	0.884025	7.58533	0.352555	3.01203	0.504591	4.32942	0.746438	6.40714	0.949277	8.16073
0.364992	3.09279	0.211972	1.77227	0.364525	3.09748	0.532786	4.51632	0.64244	5.47027	0.884738	7.53123	0.354669	3.00617	0.505854	4.30584	0.747183	6.36266	0.949881	8.10104
0.366321	3.07974	0.214001	1.7754	0.36585	3.08432	0.533932	4.49057	0.643654	5.43747	0.885456	7.47804	0.356784	3.0004	0.507125	4.28269	0.747935	6.31892	0.950491	8.04233
0.367662	3.06699	0.21603	1.77849	0.367186	3.07146	0.535085	4.46528	0.644875	5.40524	0.886179	7.42571	0.3589	2.99473	0.508403	4.25996	0.748691	6.27591	0.951104	7.98458
0.369016	3.05454	0.218059	1.78153	0.368536	3.05891	0.536245	4.44044	0.646102	5.37356	0.886907	7.37424	0.361016	2.98915	0.509689	4.23765	0.749453	6.23361	0.951723	7.92776
0.370383	3.0424	0.22009	1.78454	0.369898	3.04666	0.537412	4.41603	0.647335	5.34242	0.88764	7.32361	0.363133	2.98366	0.510981	4.21574	0.75022	6.19201	0.952346	7.87186
0.371764	3.03055	0.22212	1.7875	0.371275	3.03471	0.538586	4.39205	0.648575	5.31181	0.888379	7.27378	0.36525	2.97826	0.51228	4.19422	0.750992	6.15108	0.952974	7.81685
0.373159	3.01899	0.224151	1.79041	0.372664	3.02304	0.539766	4.36848	0.649821	5.28171	0.889122	7.22476	0.367368	2.97294	0.513587	4.17309	0.75177	6.11082	0.953606	7.76272
0.374568	3.00771	0.226182	1.79329	0.374068	3.01167	0.540952	4.34532	0.651074	5.25212	0.88987	7.17651	0.369487	2.96771	0.514901	4.15232	0.752553	6.07121	0.954244	7.70943
0.375991	2.99672	0.228213	1.79613	0.375486	3.00058	0.542146	4.32255	0.652333	5.22302	0.890624	7.12902	0.371606	2.96256	0.516221	4.13193	0.753341	6.03223	0.954885	7.65698
0.377428	2.986	0.230245	1.79893	0.376918	2.98976	0.543346	4.30018	0.653598	5.1944	0.891383	7.08227	0.373725	2.95749	0.517549	4.11189	0.754135	5.99386	0.955532	7.60534
0.378881	2.97556	0.232277	1.80169	0.378365	2.97922	0.544552	4.27818	0.654869	5.16625	0.892146	7.03625	0.375845	2.9525	0.518883	4.0922	0.754934	5.95611	0.956183	7.5545
0.380348	2.96539	0.23431	1.80442	0.379828	2.96896	0.545765	4.25655	0.656147	5.13856	0.892915	6.99094	0.377966	2.94758	0.520224	4.07285	0.755738	5.91894	0.956838	7.50444
0.381831	2.95549	0.236343	1.80711	0.381305	2.95896	0.546984	4.23528	0.65743	5.11132	0.893689	6.94633	0.380087	2.94274	0.521572	4.05383	0.756547	5.88236	0.957499	7.45515
0.383331	2.94585	0.238376	1.80976	0.382799	2.94922	0.548209	4.21437	0.65872	5.08452	0.894467	6.9024	0.382208	2.93797	0.522927	4.03514	0.757361	5.84634	0.958163	7.40659
0.384846	2.93647	0.240409	1.81237	0.384308	2.93975	0.549441	4.1938	0.660016	5.05814	0.895251	6.85913	0.384329	2.93327	0.524288	4.01677	0.758181	5.81087	0.958833	7.35877
0.386378	2.92734	0.242442	1.81496	0.385834	2.93054	0.550679	4.17357	0.661318	5.03219	0.89604	6.81651	0.386451	2.92864	0.525657	3.99871	0.759006	5.77595	0.959507	7.31166
0.387926	2.91847	0.244476	1.8175	0.387377	2.92158	0.551924	4.15367	0.662625	5.00664	0.896833	6.77454	0.388573	2.92407	0.527032	3.98095	0.759836	5.74156	0.960186	7.26525
0.389492	2.90986	0.24651	1.82002	0.388936	2.91287	0.553174	4.1341	0.663939	4.9815	0.897632	6.73318	0.390695	2.91957	0.528413	3.9635	0.760671	5.70768	0.960869	7.21952
0.391075	2.90149	0.248544	1.8225	0.390513	2.90442	0.554431	4.11484	0.665258	4.95675	0.898435	6.69244	0.392817	2.91514	0.529801	3.94633	0.761511	5.67432	0.961557	7.17447
0.392676	2.89336	0.250578	1.82495	0.392108	2.89621	0.555694	4.09589	0.666584	4.93238	0.899244	6.65229	0.39494	2.91076	0.531196	3.92945	0.762357	5.64145	0.962249	7.13007
0.394294	2.88548	0.252612	1.82736	0.39372	2.88824	0.556963	4.07724	0.667915	4.90839	0.900057	6.61273	0.397063	2.90645	0.532597	3.91284	0.763207	5.60907	0.962946	7.08631
0.395931	2.87784	0.254647	1.82975	0.395351	2.88051	0.558238	4.05889	0.669251	4.88477	0.900875	6.57374	0.399186	2.9022	0.534004	3.89651	0.764063	5.57717	0.963647	7.04318
0.397587	2.87043	0.256681	1.8321	0.396999	2.87303	0.559519	4.04083	0.670594	4.86151	0.901699	6.53532	0.401309	2.89801	0.535418	3.88045	0.764923	5.54574	0.964353	7.00067
0.399261	2.86326	0.258716	1.83443	0.398667	2.86577	0.560806	4.02305	0.671942	4.8386	0.902527	6.49745	0.403432	2.89387	0.536838	3.86465	0.765789	5.51477	0.965064	6.95876
0.400954	2.85632	0.260751	1.83672	0.400353	2.85875	0.562098	4.00556	0.673295	4.81604	0.90336	6.46011	0.405556	2.88979	0.538265	3.8491	0.76666	5.48424	0.965779	6.91745
0.402666	2.8496	0.262786	1.83899	0.402059	2.85195	0.563397	3.98833	0.674655	4.79381	0.904197	6.42331	0.407679	2.88576	0.539698	3.8338	0.767536	5.45416	0.966499	6.87671
0.404398	2.84311	0.264821	1.84123	0.403783	2.84538	0.564702	3.97137	0.676019	4.77192	0.90504	6.38702	0.409802	2.88178	0.541137	3.81875	0.768417	5.4245	0.967223	6.83654
0.406149	2.83684	0.266857	1.84344	0.405527	2.83903	0.566012	3.95467	0.677389	4.75035	0.905887	6.35124	0.411926	2.87786	0.542583	3.80394	0.769303	5.39527	0.967952	6.79693
0.407919	2.83078	0.268892	1.84562	0.407291	2.8329	0.567328	3.93823	0.678765	4.72909	0.90674	6.31596	0.414049	2.87399	0.544034	3.78937	0.770194	5.36645	0.968685	6.75787
0.409708	2.82493	0.270928	1.84777	0.409073	2.82698	0.56865	3.92204	0.680146	4.70815	0.907597	6.28116	0.416173	2.87017	0.545492	3.77503	0.77109	5.33804	0.969422	6.71934
0.411517	2.8193	0.272963	1.8499	0.410876	2.82127	0.569977	3.9061	0.681532	4.68752	0.908459	6.24685	0.418296	2.86639	0.546956	3.76091	0.77199	5.31003	0.970165	6.68134
0.413346	2.81386	0.274999	1.852	0.412697	2.81576	0.57131	3.89039	0.682924	4.66718	0.909326	6.21301	0.420419	2.86266	0.548426	3.74701	0.772896	5.28241	0.970911	6.64385
0.415194	2.80863	0.277034	1.85408	0.414538	2.81045	0.572649	3.87492	0.684321	4.64714	0.910197	6.17962	0.422542	2.85898	0.549902	3.73333	0.773807	5.25517	0.971662	6.60687
0.417061	2.80359	0.27907	1.85613	0.416398	2.80535	0.573993	3.85969	0.685723	4.62738	0.911073	6.14669	0.424666	2.85535	0.551385	3.71986	0.774723	5.22831	0.972418	6.57038
0.418946	2.79873	0.281105	1.85815	0.418277	2.80043	0.575343	3.84468	0.68713	4.60791	0.911954	6.1142	0.426788	2.85176	0.552873	3.70661	0.775644	5.20182	0.973178	6.53438
0.420851	2.79407	0.283141	1.86015	0.420176	2.7957	0.576698	3.82989	0.688542	4.58871	0.91284	6.08215	0.428911	2.84821	0.554367	3.69355	0.776569	5.17568	0.973942	6.49886
0.422774	2.78958	0.285177	1.86213	0.422092	2.79115	0.578059	3.81532	0.68996	4.56978	0.913731	6.05052	0.431034	2.84471	0.555867	3.6807	0.7775	5.14991	0.974711	6.46381
0.424716	2.78527	0.287213	1.86408	0.424027	2.78677	0.579425	3.80096	0.691382	4.55112	0.914626	6.01931	0.433156	2.84124	0.557373	3.66804	0.778436	5.12448	0.975485	6.42921
0.426676	2.78113	0.289248	1.86601	0.425981	2.78257	0.580796	3.78681	0.69281	4.53272	0.915526	5.98851	0.435278	2.83782	0.558884	3.65557	0.779376	5.09939	0.976262	6.39507
0.428653	2.77715	0.291284	1.86791	0.427952	2.77854	0.582173	3.77287	0.694242	4.51457	0.91643	5.95812	0.4374	2.83444	0.560402	3.6433	0.780321	5.07464	0.977045	6.36137
0.430647	2.77333	0.29332	1.8698	0.42994	2.77466	0.583555	3.75913	0.69568	4.49667	0.91734	5.92812	0.439522	2.83109	0.561925	3.63121	0.781271	5.05022	0.977831	6.3281
0.432658	2.76967	0.295355	1.87166	0.431945	2.77094	0.584942	3.74558	0.697122	4.47902	0.918253	5.89852	0.441643	2.82779	0.563454	3.6193	0.782226	5.02612	0.978622	6.29526
0.434686	2.76615	0.297391	1.8735	0.433967	2.76737	0.586334	3.73223	0.69857	4.46161	0.919172	5.86929	0.443765	2.82452	0.564989	3.60757	0.783186	5.00234	0.979418	6.26284
0.43673	2.76277	0.299427	1.87531	0.436005	2.76395	0.587732	3.71907	0.700022	4.44444	0.920095	5.84044	0.445885	2.82129	0.56653	3.59601	0.78415	4.97888	0.980218	6.23084
0.438789	2.75954	0.301462	1.87711	0.438059	2.76066	0.589135	3.7061	0.701479	4.4275	0.921023	5.81196	0.448006	2.81809	0.568076	3.58462	0.78512	4.95571	0.981022	6.19924
0.440864	2.75643	0.303498	1.87888	0.440129	2.75751	0.590543	3.69331	0.70294	4.41079	0.921956	5.78384	0.450126	2.81493	0.569628	3.57341	0.786094	4.93285	0.98183	6.16803
0.442953	2.75345	0.305533	1.88064	0.442212	2.75449	0.591956	3.6807	0.704407	4.3943	0.922893	5.75607	0.452246	2.8118	0.571185	3.56236	0.787073	4.91029	0.982643	6.13722
0.445056	2.7506	0.307569	1.88237	0.444311	2.75159	0.593374	3.66826	0.705878	4.37803	0.923834	5.72865	0.454365	2.80871	0.572748	3.55147	0.788057	4.88801	0.983461	6.10678
0.447173	2.74786	0.309604	1.88408	0.446423	2.74881	0.594797	3.656	0.707353	4.36198	0.924781	5.70158	0.456484	2.80565	0.574316	3.54074	0.789045	4.86602	0.984282	6.07673
0.449303	2.74523	0.311639	1.88578	0.448548	2.74614	0.596224	3.64391	0.708834	4.34613	0.925732	5.67485	0.458603	2.80262	0.57589	3.53016	0.790038	4.84432	0.985108	6.04705
0.451446	2.74271	0.313675	1.88745	0.450687	2.74359	0.597657	3.63199	0.710318	4.3305	0.926687	5.64844	0.460721	2.79963	0.57747	3.51974	0.791036	4.82288	0.985938	6.01773
0.453601	2.74029	0.31571	1.88911	0.452837	2.74113	0.599095	3.62023	0.711808	4.31507	0.927647	5.62236	0.462839	2.79666	0.579055	3.50947	0.792039	4.80172	0.986773	5.98876
0.455767	2.73797	0.317745	1.89074	0.455	2.73878	0.600537	3.60863	0.713302	4.29984	0.928611	5.59661	0.464956	2.79373	0.580645	3.49935	0.793046	4.78082	0.987612	5.96015
0.457945	2.73574	0.31978	1.89236	0.457174	2.73652	0.601985	3.59719	0.7148	4.28481	0.92958	5.57116	0.467073	2.79082	0.582241	3.48938	0.794058	4.76019	0.988455	5.93189
0.460134	2.7336	0.321815	1.89396	0.459359	2.73435	0.603437	3.5859	0.716303	4.26997	0.930554	5.54603	0.469189	2.78795	0.583842	3.47954	0.795075	4.73981	0.989303	5.90397
0.462334	2.73155	0.32385	1.89554	0.461555	2.73226	0.604894	3.57476	0.71781	4.25532	0.931532	5.5212	0.471304	2.7851	0.585448	3.46985	0.796096	4.71968	0.990154	5.87637
0.464543	2.72958	0.325885	1.89711	0.463761	2.73026	0.606355	3.56378	0.719322	4.24086	0.932514	5.49667	0.47342	2.78228	0.58706	3.4603	0.797122	4.69981	0.99101	5.84911
0.466762	2.72768	0.327919	1.89865	0.465976	2.72834	0.607822	3.55294	0.720838	4.22658	0.933501	5.47243	0.475534	2.77949	0.588677	3.45088	0.798153	4.68017	0.991871	5.82217
0.46899	2.72586	0.329954	1.90018	0.468201	2.7265	0.609293	3.54225	0.722358	4.21248	0.934493	5.44849	0.477648	2.77672	0.590299	3.44159	0.799188	4.66078	0.992735	5.79555
0.471227	2.72411	0.331988	1.9017	0.470435	2.72472	0.610768	3.5317	0.723883	4.19856	0.935489	5.42483	0.479762	2.77398	0.591927	3.43243	0.800228	4.64163	0.993604	5.76925
0.473472	2.72242	0.334023	1.90319	0.472677	2.72301	0.612248	3.52129	0.725411	4.18481	0.936489	5.40144	0.481875	2.77127	0.593559	3.4234	0.801273	4.6227	0.994477	5.74325
0.475725	2.7208	0.336057	1.90467	0.474927	2.72137	0.613733	3.51101	0.726944	4.17124	0.937494	5.37834	0.483987	2.76859	0.595197	3.4145	0.802322	4.60401	0.995354	5.71755
0.477986	2.71924	0.338091	1.90613	0.477186	2.71979	0.615222	3.50087	0.728481	4.15783	0.938503	5.3555	0.486098	2.76592	0.59684	3.40572	0.803376	4.58554	0.996236	5.69215
0.480254	2.71774	0.340125	1.90758	0.479451	2.71827	0.616716	3.49086	0.730022	4.14458	0.939516	5.33293	0.488209	2.76329	0.598488	3.39707	0.804434	4.56729	0.997122	5.66704
0.482529	2.7163	0.342159	1.90901	0.481724	2.7168	0.618214	3.48098	0.731568	4.1315	0.940534	5.31062	0.49032	2.76067	0.600141	3.38853	0.805496	4.54926	0.998011	5.64222
0.484811	2.7149	0.344192	1.91043	0.484004	2.71539	0.619716	3.47123	0.733117	4.11858	0.941556	5.28857	0.492429	2.75808	0.601799	3.38011	0.806564	4.53144	0.998906	5.61769
0.487099	2.71356	0.346226	1.91183	0.48629	2.71403	0.621223	3.46161	0.734671	4.10582	0.942583	5.26678	0.494538	2.75551	0.603462	3.37181	0.807636	4.51384	0.999804	5.59343
0.489394	2.71226	0.348259	1.91321	0.488582	2.71272	0.622734	3.45211	0.736228	4.09321	0.943614	5.24523	0.496646	2.75297	0.605131	3.36362	0.808712	4.49644	1.00071	5.56945
0.491694	2.71101	0.350292	1.91458	0.49088	2.71145	0.62425	3.44273	0.737789	4.08075	0.94465	5.22393	0.498754	2.75045	0.606804	3.35554	0.809793	4.47924		
0.494	2.70981	0.352326	1.91594	0.493184	2.71023	0.62577	3.43347	0.739355	4.06844	0.945689	5.20287	0.500861	2.74795	0.608482	3.34757	0.810878	4.46225		
0.496311	2.70864	0.354358	1.91728	0.495493	2.70905	0.627294	3.42432	0.740924	4.05628	0.946733	5.18206	0.502967	2.74547	0.610165	3.33971	0.811968	4.44546		
0.498627	2.70751	0.356391	1.91861	0.497807	2.70791	0.628822	3.4153	0.742497	4.04427	0.947781	5.16147	0.505072	2.74301	0.611853	3.33196	0.813062	4.42886		
0.500948	2.70643	0.358424	1.91992	0.500127	2.70681	0.630355	3.40638	0.744074	4.03239	0.948834	5.14112	0.507177	2.74057	0.613545	3.32431	0.814161	4.41245		
0.503274	2.70537	0.360456	1.92122	0.502451	2.70574	0.631891	3.39758	0.745655	4.02066	0.949891	5.12099	0.50928	2.73815	0.615243	3.31677	0.815264	4.39623		
0.505604	2.70435	0.362489	1.92251	0.504779	2.70471	0.633432	3.38889	0.747239	4.00906	0.950952	5.10109	0.511383	2.73576	0.616945	3.30932	0.816372	4.38019		
0.507938	2.70337	0.364521	1.92378	0.507112	2.70371	0.634977	3.38031	0.748828	3.9976	0.952017	5.08141	0.513485	2.73338	0.618652	3.30198	0.817484	4.36434		
0.510276	2.70241	0.366553	1.92504	0.509449	2.70275	0.636526	3.37183	0.75042	3.98627	0.953087	5.06195	0.515587	2.73102	0.620364	3.29473	0.8186	4.34867		
0.512619	2.70149	0.368585	1.92628	0.51179	2.70181	0.638079	3.36345	0.752015	3.97508	0.954161	5.0427	0.517687	2.72868	0.622081	3.28758	0.819721	4.33318		
0.514965	2.70059	0.370616	1.92751	0.514135	2.7009	0.639636	3.35518	0.753615	3.96401	0.955239	5.02366	0.519787	2.72636	0.623802	3.28052	0.820846	4.31786		
0.517314	2.69972	0.372648	1.92873	0.516483	2.70003	0.641197	3.34702	0.755218	3.95307	0.956321	5.00483	0.521886	2.72405	0.625528	3.27356	0.821975	4.30271		
0.519667	2.69888	0.374679	1.92994	0.518835	2.69917	0.642762	3.33895	0.756825	3.94225	0.957407	4.9862	0.523983	2.72177	0.627259	3.26669	0.823109	4.28774		
0.522023	2.69806	0.37671	1.93113	0.52119	2.69835	0.644331	3.33097	0.758435	3.93156	0.958498	4.96777	0.52608	2.7195	0.628994	3.25991	0.824247	4.27293		
0.524382	2.69726	0.378741	1.93232	0.523548	2.69754	0.645904	3.3231	0.760049	3.92099	0.959593	4.94955	0.528177	2.71725	0.630734	3.25322	0.82539	4.25828		
0.526745	2.69649	0.380772	1.93349	0.525909	2.69676	0.647481	3.31532	0.761666	3.91053	0.960692	4.93152	0.530272	2.71501	0.632479	3.24662	0.826537	4.2438		
0.529109	2.69574	0.382803	1.93465	0.528273	2.696	0.649062	3.30763	0.763287	3.9002	0.961795	4.91368	0.532366	2.71279	0.634228	3.2401	0.827688	4.22948		
0.531477	2.69501	0.384833	1.93579	0.53064	2.69527	0.650646	3.30004	0.764911	3.88998	0.962902	4.89603	0.534459	2.71059	0.635982	3.23366	0.828843	4.21531		
0.533847	2.6943	0.386863	1.93693	0.533009	2.69455	0.652234	3.29254	0.766539	3.87987	0.964014	4.87857	0.536552	2.70841	0.63774	3.22732	0.830003	4.20131		
0.53622	2.69361	0.388893	1.93805	0.535381	2.69385	0.653826	3.28512	0.76817	3.86988	0.965129	4.8613	0.538643	2.70624	0.639502	3.22105	0.831167	4.18745		
0.538595	2.69294	0.390923	1.93916	0.537755	2.69317	0.655422	3.2778	0.769804	3.86	0.966249	4.8442	0.540734	2.70408	0.641269	3.21486	0.832335	4.17374		
0.540973	2.69228	0.392953	1.94026	0.540132	2.69251	0.657021	3.27056	0.771442	3.85022	0.967372	4.82729	0.542824	2.70194	0.643041	3.20876	0.833508	4.16019		
0.543352	2.69164	0.394982	1.94135	0.54251	2.69187	0.658625	3.2634	0.773083	3.84056	0.9685	4.81055	0.544912	2.69982	0.644817	3.20273	0.834684	4.14678		
0.545734	2.69102	0.397012	1.94243	0.544891	2.69124	0.660231	3.25633	0.774728	3.83099	0.969632	4.79398	0.547	2.69771	0.646597	3.19678	0.835865	4.13351		
0.548117	2.69041	0.399041	1.9435	0.547274	2.69063	0.661842	3.24934	0.776376	3.82153	0.970768	4.77759	0.549086	2.69561	0.648382	3.1909	0.83705	4.12039		
0.550502	2.68982	0.40107	1.94456	0.549659	2.69003	0.663456	3.24243	0.778027	3.81218	0.971907	4.76137	0.551172	2.69353	0.650171	3.1851	0.838239	4.1074		
0.55289	2.68924	0.403098	1.9456	0.552046	2.68945	0.665074	3.23561	0.779681	3.80292	0.973051	4.74531	0.553257	2.69146	0.651964	3.17937	0.839433	4.09456		
0.555279	2.68868	0.405127	1.94664	0.554434	2.68888	0.666695	3.22886	0.781338	3.79377	0.974199	4.72942	0.55534	2.68941	0.653761	3.17372	0.84063	4.08185		
0.557669	2.68813	0.407155	1.94767	0.556824	2.68832	0.66832	3.22219	0.782999	3.78471	0.975351	4.7137	0.557423	2.68737	0.655563	3.16814	0.841832	4.06927		
0.560062	2.68759	0.409183	1.94868	0.559216	2.68778	0.669948	3.2156	0.784663	3.77575	0.976507	4.69813	0.559505	2.68534	0.657369	3.16263	0.843038	4.05683		
0.562455	2.68706	0.411211	1.94969	0.561609	2.68725	0.67158	3.20908	0.78633	3.76688	0.977667	4.68272	0.561585	2.68333	0.65918	3.15718	0.844248	4.04452		
0.56485	2.68655	0.413238	1.95069	0.564003	2.68673	0.673215	3.20263	0.788	3.75811	0.978831	4.66746	0.563665	2.68133	0.660994	3.15181	0.845462	4.03234		
0.567247	2.68604	0.415266	1.95167	0.566399	2.68622	0.674854	3.19626	0.789673	3.74943	0.979999	4.65236	0.565743	2.67934	0.662813	3.1465	0.846681	4.02029		
0.569645	2.68555	0.417293	1.95265	0.568797	2.68572	0.676496	3.18996	0.791349	3.74084	0.98117	4.63741	0.567821	2.67737	0.664635	3.14126	0.847903	4.00836		
0.572044	2.68506	0.41932	1.95362	0.571195	2.68523	0.678142	3.18374	0.793028	3.73234	0.982346	4.62261	0.569897	2.67541	0.666462	3.13609	0.84913	3.99655		
0.574444	2.68459	0.421347	1.95458	0.573595	2.68476	0.679791	3.17758	0.79471	3.72392	0.983526	4.60796	0.571972	2.67345	0.668293	3.13098	0.85036	3.98487		
0.576846	2.68413	0.423373	1.95553	0.575996	2.68429	0.681443	3.17149	0.796395	3.7156	0.984709	4.59346	0.574046	2.67152	0.670128	3.12593	0.851595	3.97331		
0.579248	2.68367	0.4254	1.95647	0.578399	2.68383	0.683099	3.16547	0.798083	3.70736	0.985897	4.57909	0.57612	2.66959	0.671967	3.12094	0.852833	3.96187		
0.581652	2.68322	0.427426	1.9574	0.580802	2.68338	0.684758	3.15952	0.799774	3.6992	0.987088	4.56487	0.578192	2.66767	0.67381	3.11602	0.854076	3.95054		
0.584056	2.68279	0.429452	1.95832	0.583206	2.68294	0.686421	3.15363	0.801468	3.69113	0.988283	4.55079	0.580263	2.66577	0.675657	3.11116	0.855323	3.93933		
0.586462	2.68236	0.431477	1.95923	0.585611	2.68251	0.688086	3.14781	0.803165	3.68314	0.989482	4.53685	0.582332	2.66388	0.677508	3.10635	0.856573	3.92823		
0.588868	2.68193	0.433503	1.96014	0.588017	2.68208	0.689755	3.14205	0.804865	3.67523	0.990685	4.52304	0.584401	2.66199	0.679363	3.10161	0.857828	3.91725		
0.591275	2.68152	0.435528	1.96103	0.590424	2.68166	0.691428	3.13636	0.806567	3.6674	0.991892	4.50937	0.586469	2.66012	0.681222	3.09692	0.859087	3.90638		
0.593683	2.68111	0.437553	1.96192	0.592832	2.68125	0.693103	3.13073	0.808272	3.65965	0.993103	4.49583	0.588536	2.65826	0.683085	3.09229	0.86035	3.89562		
0.596092	2.68071	0.439578	1.9628	0.595241	2.68085	0.694782	3.12516	0.80998	3.65198	0.994317	4.48242	0.590601	2.65641	0.684951	3.08772	0.861616	3.88496		
0.598502	2.68032	0.441602	1.96367	0.59765	2.68045	0.696463	3.11965	0.811691	3.64439	0.995535	4.46915	0.592665	2.65457	0.686822	3.0832	0.862887	3.87442		
0.600912	2.67993	0.443627	1.96453	0.60006	2.68006	0.698148	3.1142	0.813405	3.63687	0.996757	4.45599	0.594729	2.65275	0.688696	3.07874	0.864162	3.86397		
0.603323	2.67955	0.445651	1.96539	0.602471	2.67968	0.699837	3.10881	0.815121	3.62942	0.997983	4.44297	0.596791	2.65093	0.690574	3.07433	0.86544	3.85364		
0.605734	2.67917	0.447675	1.96623	0.604882	2.6793	0.701528	3.10348	0.81684	3.62205	0.999213	4.43007	0.598852	2.64912	0.692456	3.06997	0.866723	3.8434		
0.608147	2.6788	0.449698	1.96707	0.607294	2.67893	0.703222	3.09821	0.818562	3.61475	1.00045	4.41729	0.600912	2.64732	0.694341	3.06567	0.868009	3.83327		
0.610559	2.67843	0.451722	1.9679	0.609706	2.67856	0.70492	3.09299	0.820286	3.60752			0.602971	2.64553	0.696231	3.06142	0.8693	3.82324		
0.612972	2.67807	0.453745	1.96873	0.612119	2.6782	0.706621	3.08783	0.822013	3.60036			0.605028	2.64375	0.698123	3.05721	0.870594	3.8133		
0.615386	2.67772	0.455768	1.96954	0.614532	2.67784	0.708324	3.08272	0.823742	3.59328			0.607085	2.64198	0.70002	3.05306	0.871892	3.80347		
0.6178	2.67737	0.457791	1.97035	0.616946	2.67749	0.710031	3.07767	0.825475	3.58626			0.60914	2.64022	0.70192	3.04896	0.873194	3.79373		
0.620214	2.67702	0.459813	1.97115	0.619361	2.67715	0.711741	3.07267	0.827209	3.5793			0.611195	2.63847	0.703824	3.04491	0.8745	3.78409		
0.622629	2.67668	0.461836	1.97194	0.621775	2.6768	0.713454	3.06773	0.828946	3.57242			0.613248	2.63673	0.705731	3.0409	0.875809	3.77454		
0.625044	2.67635	0.463858	1.97273	0.62419	2.67646	0.71517	3.06284	0.830686	3.5656			0.6153	2.635	0.707642	3.03694	0.877123	3.76508		
0.62746	2.67601	0.465879	1.97351	0.626606	2.67613	0.716889	3.058	0.832429	3.55885			0.617351	2.63327	0.709557	3.03303	0.87844	3.75571		
0.629875	2.67568	0.467901	1.97428	0.629021	2.6758	0.71861	3.05321	0.834173	3.55216			0.619401	2.63156	0.711475	3.02917	0.879762	3.74644		
0.632292	2.67536	0.469922	1.97504	0.631437	2.67547	0.720335	3.04847	0.83592	3.54553			0.62145	2.62985	0.713396	3.02535	0.881087	3.73725		
0.634708	2.67504	0.471943	1.9758	0.633853	2.67515	0.722063	3.04378	0.83767	3.53897			0.623497	2.62816	0.715321	3.02157	0.882416	3.72816		
0.637124	2.67472	0.473964	1.97655	0.63627	2.67483	0.723794	3.03914	0.839422	3.53246			0.625544	2.62647	0.717249	3.01784	0.883748	3.71915		
0.639541	2.6744	0.475985	1.9773	0.638686	2.67451	0.725527	3.03455	0.841177	3.52602			0.627589	2.62479	0.719181	3.01415	0.885085	3.71022		
0.641958	2.67409	0.478005	1.97803	0.641103	2.6742	0.727264	3.03	0.842933	3.51964			0.629633	2.62312	0.721116	3.01051	0.886425	3.70138		
0.644375	2.67378	0.480026	1.97876	0.64352	2.67389	0.729004	3.0255	0.844693	3.51332			0.631676	2.62145	0.723054	3.0069	0.887769	3.69263		
0.646792	2.67347	0.482045	1.97949	0.645937	2.67358	0.730746	3.02105	0.846454	3.50705			0.633718	2.6198	0.724996	3.00334	0.889116	3.68396		
0.649209	2.67317	0.484065	1.98021	0.648354	2.67328	0.732491	3.01665	0.848218	3.50085			0.635759	2.61815	0.726941	2.99982	0.890468	3.67537		
0.651626	2.67287	0.486085	1.98092	0.650771	2.67298	0.734239	3.01229	0.849984	3.4947			0.637799	2.61651	0.728889	2.99634	0.891823	3.66686		
0.654043	2.67257	0.488104	1.98162	0.653188	2.67268	0.73599	3.00798	0.851753	3.48861			0.639838	2.61488	0.730841	2.9929	0.893182	3.65844		
0.65646	2.67227	0.490123	1.98232	0.655605	2.67238	0.737744	3.00371	0.853523	3.48257			0.641875	2.61326	0.732795	2.9895	0.894545	3.65009		
0.658877	2.67198	0.492141	1.98301	0.658022	2.67208	0.739501	2.99948	0.855296	3.47659			0.643912	2.61164	0.734753	2.98613	0.895911	3.64182		
0.661294	2.67169	0.49416	1.9837	0.660439	2.67179	0.741261	2.9953	0.857071	3.47066			0.645947	2.61004	0.736714	2.98281	0.897281	3.63363		
0.663711	2.67139	0.496178	1.98438	0.662856	2.6715	0.743023	2.99116	0.858849	3.46478			0.647982	2.60844	0.738678	2.97952	0.898655	3.62551		
0.666128	2.67111	0.498196	1.98505	0.665273	2.67121	0.744788	2.98706	0.860628	3.45896			0.650015	2.60684	0.740646	2.97627	0.900032	3.61747		
0.668544	2.67082	0.500214	1.98572	0.66769	2.67092	0.746556	2.98301	0.86241	3.45319			0.652047	2.60526	0.742616	2.97306	0.901413	3.6095		
0.670961	2.67053	0.502232	1.98638	0.670107	2.67063	0.748327	2.97899	0.864194	3.44747			0.654078	2.60368	0.744589	2.96988	0.902798	3.60161		
0.673377	2.67025	0.504249	1.98704	0.672523	2.67035	0.750101	2.97502	0.86598	3.44181			0.656108	2.60211	0.746566	2.96674	0.904186	3.59379		
0.675794	2.66996	0.506266	1.98769	0.674939	2.67006	0.751877	2.97109	0.867768	3.43619			0.658137	2.60055	0.748545	2.96363	0.905578	3.58605		
0.678209	2.66968	0.508283	1.98834	0.677355	2.66978	0.753657	2.96719	0.869558	3.43062			0.660165	2.59899	0.750527	2.96056	0.906974	3.57837		
0.680625	2.6694	0.510299	1.98897	0.679771	2.6695	0.755439	2.96334	0.871351	3.4251			0.662192	2.59745	0.752513	2.95752	0.908373	3.57077		
0.683041	2.66912	0.512315	1.98961	0.682187	2.66922	0.757224	2.95953	0.873145	3.41963			0.664217	2.59591	0.754501	2.95452	0.909776	3.56323		
0.685456	2.66884	0.514332	1.99024	0.684602	2.66894	0.759011	2.95575	0.874941	3.41421			0.666242	2.59437	0.756492	2.95155	0.911183	3.55576		
0.687871	2.66856	0.516347	1.99086	0.687017	2.66866	0.760802	2.95201	0.87674	3.40883			0.668266	2.59284	0.758486	2.94861	0.912593	3.54836		
0.690285	2.66829	0.518363	1.99148	0.689431	2.66838	0.762595	2.94831	0.87854	3.40351			0.670289	2.59132	0.760482	2.9457	0.914006	3.54103		
0.692699	2.66801	0.520378	1.99209	0.691846	2.66811	0.764391	2.94465	0.880343	3.39822			0.67231	2.58981	0.762482	2.94282	0.915424	3.53377		
0.695113	2.66773	0.522393	1.9927	0.694259	2.66783	0.76619	2.94102	0.882147	3.39298			0.674331	2.58831	0.764484	2.93998	0.916844	3.52657		
0.697526	2.66746	0.524408	1.9933	0.696673	2.66755	0.767991	2.93743	0.883953	3.38779			0.67635	2.58681	0.766489	2.93717	0.918269	3.51944		
0.699939	2.66718	0.526423	1.99389	0.699086	2.66728	0.769796	2.93388	0.885762	3.38264			0.678369	2.58532	0.768497	2.93438	0.919697	3.51237		
0.702351	2.6669	0.528437	1.99449	0.701498	2.667	0.771603	2.93036	0.887572	3.37754			0.680387	2.58383	0.770507	2.93163	0.921128	3.50536		
0.704763	2.66663	0.530451	1.99507	0.70391	2.66673	0.773412	2.92687	0.889384	3.37248			0.682403	2.58235	0.77252	2.92891	0.922563	3.49842		
0.707174	2.66635	0.532465	1.99565	0.706322	2.66645	0.775225	2.92343	0.891198	3.36746			0.684419	2.58088	0.774536	2.92621	0.924002	3.49154		
0.709585	2.66608	0.534479	1.99623	0.708733	2.66617	0.77704	2.92001	0.893014	3.36248			0.686433	2.57941	0.776554	2.92355	0.925444	3.48472		
0.711995	2.6658	0.536492	1.9968	0.711143	2.6659	0.778859	2.91663	0.894831	3.35755			0.688447	2.57795	0.778575	2.92091	0.926889	3.47796		
0.714405	2.66552	0.538506	1.99737	0.713553	2.66562	0.78068	2.91329	0.896651	3.35266			0.69046	2.5765	0.780598	2.9183	0.928338	3.47126		
0.716814	2.66525	0.540518	1.99793	0.715962	2.66534	0.782503	2.90998	0.898472	3.3478			0.692471	2.57506	0.782624	2.91572	0.929791	3.46462		
0.719222	2.66497	0.542531	1.99849	0.718371	2.66507	0.78433	2.9067	0.900296	3.34299			0.694482	2.57362	0.784653	2.91316	0.931247	3.45804		
0.72163	2.66469	0.544543	1.99904	0.720778	2.66479	0.786159	2.90345	0.902121	3.33822			0.696492	2.57218	0.786683	2.91063	0.932707	3.45152		
0.724036	2.66441	0.546556	1.99959	0.723185	2.66451	0.787991	2.90024	0.903947	3.33349			0.698501	2.57076	0.788717	2.90813	0.93417	3.44506		
0.726442	2.66413	0.548568	2.00013	0.725592	2.66423	0.789826	2.89706	0.905776	3.32879			0.700509	2.56934	0.790752	2.90566	0.935636	3.43865		
0.728848	2.66385	0.550579	2.00067	0.727997	2.66395	0.791664	2.89391	0.907606	3.32414			0.702516	2.56792	0.79279	2.9032	0.937106	3.4323		
0.731252	2.66357	0.552591	2.0012	0.730402	2.66367	0.793504	2.89079	0.909438	3.31952			0.704522	2.56652	0.794831	2.90078	0.938579	3.42601		
0.733656	2.66329	0.554602	2.00173	0.732806	2.66339	0.795348	2.88771	0.911272	3.31494			0.706527	2.56511	0.796873	2.89838	0.940056	3.41977		
0.736059	2.663	0.556613	2.00226	0.735209	2.6631	0.797194	2.88465	0.913107	3.31039			0.708531	2.56372	0.798918	2.896	0.941536	3.41358		
0.738461	2.66272	0.558624	2.00278	0.737612	2.66282	0.799043	2.88163	0.914944	3.30589			0.710535	2.56233	0.800965	2.89365	0.94302	3.40745		
0.740862	2.66243	0.560634	2.00329	0.740013	2.66253	0.800895	2.87863	0.916783	3.30142			0.712537	2.56095	0.803015	2.89132	0.944507	3.40137		
0.743262	2.66214	0.562644	2.0038	0.742413	2.66224	0.80275	2.87567	0.918623	3.29698			0.714539	2.55957	0.805066	2.88902	0.945998	3.39535		
0.745661	2.66185	0.564654	2.00431	0.744813	2.66195	0.804608	2.87274	0.920465	3.29258			0.71654	2.5582	0.80712	2.88674	0.947491	3.38938		
0.748059	2.66156	0.566664	2.00482	0.747211	2.66166	0.806469	2.86984	0.922309	3.28822			0.71854	2.55684	0.809176	2.88448	0.948989	3.38346		
0.750456	2.66127	0.568673	2.00532	0.749608	2.66137	0.808332	2.86696	0.924154	3.28389			0.720539	2.55548	0.811234	2.88224	0.950489	3.37759		
0.752852	2.66097	0.570683	2.00581	0.752005	2.66107	0.810199	2.86412	0.926001	3.27959			0.722537	2.55412	0.813294	2.88003	0.951994	3.37177		
0.755246	2.66067	0.572692	2.0063	0.7544	2.66078	0.812068	2.8613	0.927849	3.27533			0.724535	2.55278	0.815356	2.87784	0.953501	3.366		
0.75764	2.66037	0.574701	2.00679	0.756794	2.66048	0.813941	2.85852	0.929699	3.27111			0.726532	2.55144	0.817421	2.87566	0.955012	3.36028		
0.760032	2.66007	0.576709	2.00727	0.759186	2.66018	0.815816	2.85576	0.93155	3.26691			0.728527	2.5501	0.819487	2.87351	0.956526	3.35461		
0.762423	2.65977	0.578717	2.00775	0.761578	2.65987	0.817695	2.85303	0.933404	3.26275			0.730523	2.54877	0.821555	2.87139	0.958044	3.34899		
0.764813	2.65946	0.580725	2.00823	0.763968	2.65957	0.819576	2.85033	0.935258	3.25862			0.732517	2.54745	0.823625	2.86928	0.959564	3.34342		
0.767201	2.65915	0.582733	2.0087	0.766357	2.65926	0.821461	2.84765	0.937114	3.25452			0.73451	2.54613	0.825697	2.86719	0.961089	3.33789		
0.769589	2.65884	0.584741	2.00916	0.768745	2.65895	0.823348	2.84501	0.938972	3.25045			0.736503	2.54482	0.827771	2.86512	0.962616	3.33241		
0.771974	2.65852	0.586748	2.00963	0.771131	2.65863	0.825239	2.84239	0.940831	3.24642			0.738495	2.54352	0.829847	2.86307	0.964147	3.32698		
0.774358	2.6582	0.588755	2.01009	0.773516	2.65832	0.827133	2.8398	0.942691	3.24241			0.740486	2.54222	0.831925	2.86105	0.965681	3.3216		
0.776741	2.65788	0.590762	2.01054	0.775899	2.658	0.82903	2.83724	0.944553	3.23844			0.742477	2.54092	0.834004	2.85904	0.967219	3.31626		
0.779122	2.65756	0.592768	2.011	0.778281	2.65767	0.83093	2.8347	0.946416	3.2345			0.744466	2.53964	0.836085	2.85705	0.96876	3.31097		
0.781502	2.65723	0.594775	2.01145	0.780661	2.65735	0.832834	2.8322	0.948281	3.23058			0.746455	2.53835	0.838168	2.85507	0.970304	3.30572		
0.78388	2.6569	0.596781	2.01189	0.783039	2.65702	0.83474	2.82971	0.950147	3.2267			0.748444	2.53708	0.840253	2.85312	0.971851	3.30051		
0.786256	2.65656	0.598787	2.01233	0.785416	2.65668	0.83665	2.82726	0.952015	3.22284			0.750431	2.53581	0.842339	2.85118	0.973402	3.29535		
0.788631	2.65622	0.600792	2.01277	0.787792	2.65634	0.838563	2.82483	0.953884	3.21902			0.752418	2.53454	0.844427	2.84927	0.974956	3.29024		
0.791004	2.65588	0.602798	2.0132	0.790165	2.656	0.84048	2.82243	0.955754	3.21522			0.754405	2.53328	0.846517	2.84737	0.976513	3.28516		
0.793375	2.65554	0.604803	2.01364	0.792537	2.65566	0.8424	2.82005	0.957626	3.21145			0.75639	2.53203	0.848608	2.84548	0.978074	3.28013		
0.795744	2.65519	0.606808	2.01406	0.794907	2.65531	0.844323	2.8177	0.959499	3.20771			0.758375	2.53078	0.850701	2.84362	0.979638	3.27514		
0.798111	2.65483	0.608812	2.01449	0.797274	2.65496	0.84625	2.81538	0.961373	3.204			0.760359	2.52953	0.852796	2.84177	0.981205	3.2702		
0.800476	2.65447	0.610817	2.01491	0.79964	2.6546	0.84818	2.81308	0.963249	3.20031			0.762343	2.5283	0.854891	2.83993	0.982776	3.26529		
0.80284	2.65411	0.612821	2.01533	0.802004	2.65424	0.850114	2.81081	0.965126	3.19665			0.764326	2.52706	0.856989	2.83812	0.984349	3.26043		
0.805201	2.65374	0.614825	2.01574	0.804366	2.65387	0.852051	2.80856	0.967004	3.19302			0.766308	2.52584	0.859088	2.83632	0.985926	3.2556		
0.80756	2.65337	0.616828	2.01615	0.806726	2.6535	0.853992	2.80634	0.968884	3.18941			0.76829	2.52462	0.861188	2.83453	0.987506	3.25082		
0.809916	2.65299	0.618832	2.01656	0.809083	2.65312	0.855936	2.80415	0.970765	3.18583			0.770271	2.5234	0.86329	2.83276	0.98909	3.24608		
0.812271	2.65261	0.620835	2.01696	0.811439	2.65274	0.857885	2.80198	0.972647	3.18228			0.772251	2.52219	0.865393	2.83101	0.990676	3.24137		
0.814623	2.65222	0.622838	2.01736	0.813792	2.65236	0.859836	2.79983	0.97453	3.17875			0.774231	2.52098	0.867498	2.82927	0.992266	3.23671		
0.816973	2.65183	0.624841	2.01776	0.816143	2.65196	0.861792	2.79771	0.976415	3.17525			0.77621	2.51978	0.869604	2.82755	0.993859	3.23208		
0.819321	2.65143	0.626843	2.01815	0.818491	2.65157	0.863751	2.79562	0.9783	3.17177			0.778189	2.51859	0.871711	2.82584	0.995456	3.22749		
0.821666	2.65102	0.628846	2.01855	0.820837	2.65117	0.865715	2.79355	0.980187	3.16832			0.780167	2.5174	0.87382	2.82415	0.997055	3.22294		
0.824008	2.65061	0.630848	2.01893	0.82318	2.65076	0.867682	2.7915	0.982075	3.16489			0.782144	2.51622	0.875929	2.82246	0.998658	3.21843		
0.826348	2.6502	0.632849	2.01932	0.825521	2.65034	0.869653	2.78948	0.983965	3.16149			0.784121	2.51504	0.87804	2.8208	1.00026	3.21396		
0.828685	2.64977	0.634851	2.0197	0.827859	2.64992	0.871628	2.78749	0.985855	3.15811			0.786098	2.51387	0.880152	2.81915				
0.831019	2.64935	0.636852	2.02008	0.830194	2.6495	0.873607	2.78552	0.987747	3.15475			0.788074	2.5127	0.882266	2.81751				
0.833351	2.64891	0.638853	2.02046	0.832527	2.64906	0.875591	2.78357	0.98964	3.15142			0.790049	2.51154	0.88438	2.81588				
0.83568	2.64847	0.640854	2.02083	0.834857	2.64863	0.877578	2.78165	0.991534	3.14811			0.792024	2.51038	0.886496	2.81427				
0.838006	2.64802	0.642855	2.0212	0.837184	2.64818	0.87957	2.77975	0.993429	3.14483			0.793998	2.50923	0.888613	2.81267				
0.840329	2.64757	0.644855	2.02157	0.839508	2.64773	0.881566	2.77788	0.995325	3.14156			0.795972	2.50808	0.890731	2.81108				
0.842648	2.64711	0.646855	2.02193	0.841828	2.64727	0.883566	2.77603	0.997222	3.13832			0.797946	2.50694	0.89285	2.80951				
0.844965	2.64664	0.648855	2.02229	0.844146	2.6468	0.88557	2.77421	0.999121	3.1351			0.799919	2.5058	0.89497	2.80795				
0.847279	2.64616	0.650855	2.02265	0.846461	2.64633	0.887579	2.77241	1.00102	3.13191			0.801891	2.50467	0.897091	2.8064				
0.849589	2.64568	0.652854	2.02301	0.848772	2.64585	0.889592	2.77064					0.803863	2.50354	0.899213	2.80486				
0.851896	2.64519	0.654853	2.02336	0.851081	2.64536	0.89161	2.76889					0.805834	2.50242	0.901335	2.80334				
0.854199	2.64469	0.656852	2.02371	0.853385	2.64487	0.893633	2.76716					0.807805	2.50131	0.903459	2.80182				
0.8565	2.64418	0.658851	2.02406	0.855687	2.64436	0.89566	2.76546					0.809776	2.5002	0.905584	2.80032				
0.858796	2.64367	0.660849	2.02441	0.857985	2.64385	0.897691	2.76378					0.811746	2.49909	0.907709	2.79883				
0.861089	2.64315	0.662847	2.02475	0.860279	2.64333	0.899728	2.76213					0.813716	2.49799	0.909836	2.79735				
0.863379	2.64262	0.664845	2.02509	0.86257	2.64281	0.901769	2.7605					0.815685	2.49689	0.911963	2.79588				
0.865665	2.64208	0.666843	2.02542	0.864857	2.64227	0.903815	2.75889					0.817654	2.4958	0.914091	2.79442				
0.867947	2.64153	0.668841	2.02576	0.86714	2.64173	0.905865	2.75731					0.819623	2.49472	0.91622	2.79298				
0.870225	2.64098	0.670838	2.02609	0.86942	2.64118	0.907921	2.75575					0.821591	2.49364	0.91835	2.79154				
0.872499	2.64042	0.672835	2.02642	0.871696	2.64062	0.909982	2.75422					0.823559	2.49256	0.92048	2.79011				
0.87477	2.63984	0.674832	2.02675	0.873968	2.64005	0.912047	2.75271					0.825526	2.49149	0.922611	2.7887				
0.877037	2.63926	0.676828	2.02707	0.876236	2.63947	0.914118	2.75122					0.827493	2.49042	0.924742	2.78729				
0.879299	2.63867	0.678825	2.02739	0.8785	2.63888	0.916194	2.74976					0.82946	2.48936	0.926875	2.7859				
0.881558	2.63808	0.680821	2.02771	0.88076	2.63829	0.918274	2.74832					0.831426	2.4883	0.929008	2.78451				
0.883812	2.63747	0.682817	2.02803	0.883016	2.63768	0.92036	2.7469					0.833392	2.48725	0.931141	2.78313				
0.886062	2.63685	0.684812	2.02834	0.885267	2.63707	0.922451	2.74551					0.835358	2.48621	0.933275	2.78176				
0.888308	2.63623	0.686808	2.02866	0.887515	2.63645	0.924548	2.74414					0.837323	2.48516	0.93541	2.7804				
0.89055	2.63559	0.688803	2.02897	0.889758	2.63582	0.926649	2.74279					0.839288	2.48413	0.937545	2.77906				
0.892788	2.63495	0.690798	2.02927	0.891997	2.63518	0.928756	2.74147					0.841252	2.48309	0.939681	2.77771				
0.895021	2.6343	0.692793	2.02958	0.894232	2.63453	0.930868	2.74016					0.843217	2.48207	0.941817	2.77638				
0.89725	2.63364	0.694787	2.02988	0.896463	2.63387	0.932985	2.73889					0.845181	2.48104	0.943954	2.77506				
0.899475	2.63297	0.696781	2.03018	0.898689	2.6332	0.935108	2.73763					0.847144	2.48002	0.946091	2.77374				
0.901695	2.63229	0.698775	2.03048	0.900911	2.63253	0.937235	2.73639					0.849108	2.47901	0.948228	2.77244				
0.903911	2.6316	0.700769	2.03077	0.903128	2.63184	0.939369	2.73518					0.851071	2.478	0.950366	2.77114				
0.906123	2.6309	0.702763	2.03107	0.905341	2.63115	0.941507	2.73399					0.853034	2.477	0.952504	2.76985				
0.90833	2.63019	0.704756	2.03136	0.90755	2.63044	0.943651	2.73282					0.854996	2.476	0.954643	2.76857				
0.910533	2.62948	0.706749	2.03165	0.909754	2.62973	0.9458	2.73168					0.856959	2.475	0.956782	2.76729				
0.912731	2.62875	0.708742	2.03193	0.911954	2.62901	0.947955	2.73055					0.858921	2.47401	0.958921	2.76603				
0.914925	2.62802	0.710735	2.03222	0.91415	2.62828	0.950114	2.72945					0.860883	2.47303	0.961061	2.76477				
0.917115	2.62728	0.712727	2.0325	0.916341	2.62754	0.95228	2.72837					0.862844	2.47204	0.9632	2.76352				
0.9193	2.62653	0.71472	2.03278	0.918528	2.62679	0.95445	2.7273					0.864805	2.47107	0.96534	2.76227				
0.92148	2.62577	0.716712	2.03306	0.92071	2.62604	0.956625	2.72626					0.866767	2.4701	0.967481	2.76104				
0.923657	2.625	0.718704	2.03334	0.922888	2.62527	0.958806	2.72524					0.868727	2.46913	0.969621	2.75981				
0.925829	2.62422	0.720695	2.03361	0.925061	2.6245	0.960992	2.72424					0.870688	2.46816	0.971762	2.75858				
0.927997	2.62344	0.722686	2.03388	0.927231	2.62372	0.963183	2.72326					0.872649	2.46721	0.973902	2.75737				
0.93016	2.62265	0.724677	2.03415	0.929396	2.62293	0.96538	2.7223					0.874609	2.46625	0.976043	2.75616				
0.932319	2.62185	0.726668	2.03442	0.931556	2.62213	0.967581	2.72135					0.876569	2.4653	0.978184	2.75496				
0.934474	2.62104	0.728659	2.03469	0.933713	2.62133	0.969787	2.72043					0.878529	2.46436	0.980325	2.75376				
0.936625	2.62023	0.730649	2.03495	0.935865	2.62052	0.971999	2.71953					0.880488	2.46341	0.982466	2.75257				
0.938771	2.6194	0.73264	2.03521	0.938013	2.6197	0.974215	2.71864					0.882448	2.46248	0.984607	2.75139				
0.940914	2.61858	0.73463	2.03547	0.940157	2.61887	0.976436	2.71777					0.884407	2.46154	0.986748	2.75021				
0.943052	2.61774	0.736619	2.03573	0.942297	2.61804	0.978662	2.71692					0.886366	2.46062	0.988889	2.74904				
0.945186	2.6169	0.738609	2.03599	0.944432	2.61719	0.980893	2.71609					0.888325	2.45969	0.99103	2.74787				
0.947317	2.61605	0.740598	2.03624	0.946564	2.61635	0.983128	2.71528					0.890284	2.45877	0.993171	2.74671				
0.949443	2.61519	0.742587	2.03649	0.948692	2.61549	0.985368	2.71448					0.892242	2.45786	0.995312	2.74556				
0.951566	2.61433	0.744576	2.03674	0.950816	2.61463	0.987613	2.7137					0.894201	2.45695	0.997453	2.74441				
0.953685	2.61346	0.746565	2.03699	0.952936	2.61377	0.989862	2.71293					0.896159	2.45604	0.999593	2.74327				
0.9558	2.61258	0.748553	2.03724	0.955053	2.61289	0.992116	2.71218					0.898117	2.45514	1.00173	2.74213				
0.957912	2.6117	0.750542	2.03748	0.957165	2.61202	0.994374	2.71145					0.900075	2.45424						
0.960019	2.61082	0.75253	2.03772	0.959275	2.61113	0.996636	2.71073					0.902033	2.45335						
0.962124	2.60993	0.754517	2.03797	0.96138	2.61024	0.998903	2.71003					0.903991	2.45246						
0.964224	2.60903	0.756505	2.0382	0.963482	2.60935	1.00117	2.70934					0.905949	2.45157						
0.966322	2.60813	0.758492	2.03844	0.965581	2.60845							0.907906	2.45069						
0.968416	2.60723	0.76048	2.03868	0.967676	2.60755							0.909864	2.44981						
0.970507	2.60632	0.762466	2.03891	0.969768	2.60664							0.911821	2.44894						
0.972594	2.60541	0.764453	2.03914	0.971857	2.60573							0.913778	2.44807						
0.974679	2.60449	0.76644	2.03937	0.973942	2.60482							0.915735	2.4472						
0.97676	2.60357	0.768426	2.0396	0.976025	2.6039							0.917693	2.44634						
0.978838	2.60265	0.770412	2.03983	0.978104	2.60297							0.919649	2.44549						
0.980914	2.60172	0.772398	2.04006	0.98018	2.60205							0.921606	2.44463						
0.982986	2.60079	0.774383	2.04028	0.982254	2.60112							0.923563	2.44378						
0.985056	2.59986	0.776369	2.0405	0.984325	2.60019							0.92552	2.44294						
0.987123	2.59892	0.778354	2.04072	0.986393	2.59925							0.927476	2.4421						
0.989188	2.59799	0.780339	2.04094	0.988458	2.59832							0.929433	2.44126						
0.991249	2.59705	0.782324	2.04116	0.990521	2.59738							0.93139	2.44043						
0.993309	2.5961	0.784308	2.04137	0.992581	2.59644							0.933346	2.4396						
0.995366	2.59516	0.786293	2.04159	0.994639	2.59549							0.935302	2.43877						
0.99742	2.59421	0.788277	2.0418	0.996694	2.59455							0.937259	2.43795						
0.999472	2.59327	0.790261	2.04201	0.998747	2.5936							0.939215	2.43713						
1.00152	2.59232	0.792245	2.04222	1.0008	2.59266							0.941171	2.43632						
		0.794228	2.04243									0.943128	2.43551						
		0.796211	2.04263									0.945084	2.4347						
		0.798194	2.04284									0.94704	2.4339						
		0.800177	2.04304									0.948996	2.4331						
		0.80216	2.04324									0.950952	2.43231						
		0.804142	2.04344									0.952908	2.43152						
		0.806125	2.04364									0.954864	2.43073						
		0.808107	2.04384									0.95682	2.42995						
		0.810089	2.04404									0.958777	2.42917						
		0.81207	2.04423									0.960733	2.42839						
		0.814052	2.04442									0.962689	2.42762						
		0.816033	2.04461									0.964645	2.42685						
		0.818014	2.04481									0.966601	2.42608						
		0.819995	2.04499									0.968557	2.42532						
		0.821975	2.04518									0.970513	2.42456						
		0.823956	2.04537									0.972469	2.42381						
		0.825936	2.04555									0.974425	2.42305						
		0.827916	2.04574									0.976381	2.42231						
		0.829896	2.04592									0.978337	2.42156						
		0.831875	2.0461									0.980294	2.42082						
		0.833855	2.04628									0.98225	2.42008						
		0.835834	2.04645									0.984206	2.41935						
		0.837813	2.04663									0.986162	2.41862						
		0.839792	2.04681									0.988119	2.41789						
		0.84177	2.04698									0.990075	2.41717						
		0.843749	2.04715									0.992031	2.41645						
		0.845727	2.04733									0.993988	2.41573						
		0.847705	2.0475									0.995944	2.41502						
		0.849683	2.04766									0.997901	2.41431						
		0.85166	2.04783									0.999858	2.4136						
		0.853638	2.048									1.00181	2.4129						
		0.855615	2.04816																
		0.857592	2.04833																
		0.859569	2.04849																
		0.861545	2.04865																
		0.863522	2.04881																
		0.865498	2.04897																
		0.867474	2.04913																
		0.86945	2.04929																
		0.871426	2.04945																
		0.873401	2.0496																
		0.875376	2.04975																
		0.877352	2.04991																
		0.879326	2.05006																
		0.881301	2.05021																
		0.883276	2.05036																
		0.88525	2.05051																
		0.887224	2.05065																
		0.889198	2.0508																
		0.891172	2.05094																
		0.893145	2.05109																
		0.895119	2.05123																
		0.897092	2.05137																
		0.899065	2.05151																
		0.901038	2.05165																
		0.90301	2.05179																
		0.904983	2.05193																
		0.906955	2.05207																
		0.908927	2.0522																
		0.910899	2.05234																
		0.912871	2.05247																
		0.914842	2.05261																
		0.916814	2.05274																
		0.918785	2.05287																
		0.920756	2.053																
		0.922727	2.05313																
		0.924697	2.05326																
		0.926668	2.05338																
		0.928638	2.05351																
		0.930608	2.05364																
		0.932578	2.05376																
		0.934548	2.05388																
		0.936518	2.05401																
		0.938487	2.05413																
		0.940456	2.05425																
		0.942425	2.05437																
		0.944394	2.05449																
		0.946363	2.05461																
		0.948331	2.05473																
		0.9503	2.05484																
		0.952268	2.05496																
		0.954236	2.05507																
		0.956204	2.05519																
		0.958171	2.0553																
		0.960139	2.05541																
		0.962106	2.05552																
		0.964073	2.05564																
		0.96604	2.05575																
		0.968007	2.05586																
		0.969974	2.05596																
		0.97194	2.05607																
		0.973907	2.05618																
		0.975873	2.05628																
		0.977839	2.05639																
		0.979805	2.05649																
		0.98177	2.0566																
		0.983736	2.0567																
		0.985701	2.0568																
		0.987666	2.05691																
		0.989631	2.05701																
		0.991596	2.05711																
		0.993561	2.05721																
		0.995525	2.05731																
		0.997489	2.0574																
		0.999454	2.0575																
		1.00142	2.0576																
