Sym0		Asym0		Sym1		Sym2		Sym3		Sym4		Asym1		Asym2		Asym3		Asym4	
261  Points		500  Points		261  Points		229  Points		213  Points		147  Points		352  Points		238  Points		199  Points		133  Points	
Freq (MHz)	Vph (m/ms)	Freq (MHz)	Vph (m/ms)	Freq (MHz)	Vph (m/ms)	Freq (MHz)	Vph (m/ms)	Freq (MHz)	Vph (m/ms)	Freq (MHz)	Vph (m/ms)	Freq (MHz)	Vph (m/ms)	Freq (MHz)	Vph (m/ms)	Freq (MHz)	Vph (m/ms)	Freq (MHz)	Vph (m/ms)
0.279511	848.774	7.29967e-005	0.0692265	0.279511	878.937	0.458808	3989.55	0.559018	2259.21	0.838528	1613.7	0.139762	455.443	0.419277	507.941	0.698772	3014.13	0.917617	1611.09
0.279551	221.689	0.000258602	0.130202	0.27955	223.693	0.458819	438.349	0.559042	474.112	0.838547	577.78	0.139886	112.942	0.419327	238.642	0.698787	600.577	0.917626	611.238
0.279637	127.531	0.000556598	0.190756	0.279635	128.191	0.458846	231.929	0.559096	264.87	0.838585	351.9	0.140159	64.5817	0.419414	155.984	0.698823	333.532	0.917643	377.173
0.279768	89.5432	0.000965142	0.250716	0.279766	89.8676	0.458891	157.69	0.559181	183.788	0.83864	253.005	0.140579	45.3196	0.419537	115.877	0.69888	230.888	0.917668	272.738
0.279946	69.0187	0.00148178	0.309915	0.279944	69.211	0.458953	119.464	0.559297	140.731	0.838714	197.511	0.141145	34.9919	0.419696	92.1957	0.698958	176.566	0.917702	213.601
0.28017	56.1712	0.00210337	0.368176	0.280167	56.2982	0.459032	96.163	0.559443	114.034	0.838806	161.991	0.141853	28.5687	0.419891	76.5676	0.699055	142.947	0.917743	175.542
0.28044	47.3757	0.0028265	0.425381	0.280436	47.4657	0.459128	80.4758	0.55962	95.8646	0.838915	137.307	0.142701	24.1988	0.420122	65.4843	0.699174	120.092	0.917792	148.999
0.280755	40.9791	0.00364709	0.481379	0.280751	41.0462	0.459241	69.1955	0.559828	82.7009	0.839043	119.157	0.143684	21.0411	0.420389	57.2167	0.699313	103.545	0.91785	129.431
0.281115	36.1197	0.00456103	0.536086	0.281111	36.1717	0.459372	60.6948	0.560066	72.7264	0.83919	105.251	0.144799	18.6586	0.420692	50.8143	0.699473	91.0133	0.917915	114.409
0.281521	32.3046	0.00556372	0.589395	0.281516	32.346	0.459521	54.0596	0.560334	64.9084	0.839354	94.2577	0.146041	16.8015	0.421031	45.7111	0.699653	81.1937	0.917989	102.513
0.281971	29.2312	0.00665052	0.641236	0.281966	29.2648	0.459686	48.7371	0.560633	58.6167	0.839536	85.3483	0.147404	15.3166	0.421406	41.549	0.699854	73.2925	0.918071	92.8609
0.282466	26.7033	0.00781672	0.691555	0.28246	26.7313	0.45987	44.3734	0.560962	53.4449	0.839736	77.9824	0.148885	14.1049	0.421816	38.0904	0.700076	66.7981	0.918161	84.8718
0.283005	24.5885	0.00905762	0.740316	0.282999	24.6121	0.460071	40.731	0.561322	49.119	0.839955	71.7912	0.150477	13.0995	0.422262	35.1716	0.700317	61.3658	0.91826	78.1504
0.283588	22.794	0.0103684	0.787483	0.283581	22.8141	0.46029	37.6453	0.561711	45.4478	0.840191	66.5147	0.152177	12.2536	0.422743	32.6759	0.70058	56.7553	0.918366	72.4172
0.284214	21.2528	0.0117446	0.833059	0.284206	21.2702	0.460528	34.9979	0.56213	42.2935	0.840445	61.9644	0.153978	11.5334	0.42326	30.518	0.700862	52.7934	0.918481	67.4694
0.284884	19.9153	0.0131816	0.877029	0.284875	19.9305	0.460783	32.7019	0.56258	39.5546	0.840718	58.0003	0.155876	10.9139	0.423812	28.6342	0.701166	49.3526	0.918605	63.1561
0.285595	18.7442	0.0146753	0.919412	0.285586	18.7576	0.461057	30.6919	0.563059	37.1544	0.841008	54.5162	0.157606	10.4415	0.424398	26.9758	0.701489	46.3367	0.918736	59.3626
0.286349	17.7107	0.0162214	0.960228	0.286339	17.7225	0.46135	28.9178	0.563568	35.0341	0.841316	51.4301	0.159133	10.0804	0.425019	25.5048	0.701833	43.6717	0.918876	56.0004
0.287144	16.7922	0.017816	0.999496	0.287134	16.8027	0.461661	27.3407	0.564106	33.1477	0.841643	48.6776	0.160431	9.80711	0.425675	24.1917	0.702197	41.3	0.919025	53.0001
0.28798	15.9709	0.0194554	1.03725	0.28797	15.9804	0.461991	25.9295	0.564673	31.4587	0.841987	46.2076	0.161479	9.60548	0.426366	23.0124	0.702582	39.1759	0.919182	50.3061
0.288857	15.2325	0.0211362	1.07354	0.288846	15.241	0.462341	24.6596	0.56527	29.938	0.842349	43.9788	0.162262	9.46471	0.42709	21.9478	0.702986	37.2626	0.919348	47.8741
0.289773	14.5652	0.0228549	1.10838	0.289762	14.5729	0.46271	23.511	0.565896	28.5618	0.842729	41.9576	0.162769	9.37775	0.427848	20.9822	0.703411	35.5304	0.919522	45.6675
0.290729	13.9595	0.0246087	1.14184	0.290718	13.9665	0.463099	22.4671	0.56655	27.3106	0.843126	40.1166	0.163503	9.25682	0.428641	20.1025	0.703856	33.9549	0.919705	43.6565
0.291724	13.4075	0.0263946	1.17396	0.291712	13.4139	0.463508	21.5145	0.567233	26.1682	0.843542	38.4326	0.164311	9.13056	0.429467	19.298	0.704321	32.5159	0.919897	41.8162
0.292757	12.9025	0.0282098	1.20477	0.292744	12.9083	0.463937	20.6417	0.567945	25.1213	0.843975	36.8865	0.165426	8.96698	0.430326	18.5596	0.704806	31.1964	0.920097	40.1259
0.293827	12.4389	0.0300521	1.23433	0.293814	12.4443	0.464386	19.8393	0.568686	24.1585	0.844426	35.4622	0.166859	8.77253	0.431218	17.8796	0.705311	29.9823	0.920306	38.568
0.294934	12.012	0.0319191	1.26269	0.294921	12.0169	0.464856	19.0992	0.569454	23.2701	0.844895	34.1459	0.168628	8.55425	0.432143	17.2516	0.705836	28.8616	0.920525	37.1275
0.296078	11.6177	0.0338086	1.2899	0.296064	11.6223	0.465347	18.4144	0.57025	22.448	0.845381	32.9257	0.17075	8.31926	0.433101	16.6698	0.706381	27.8238	0.920752	35.7916
0.297257	11.2526	0.0357188	1.316	0.297243	11.2569	0.465859	17.7792	0.571075	21.6851	0.845885	31.7917	0.173245	8.0743	0.434091	16.1295	0.706945	26.8603	0.920988	34.5495
0.298471	10.9136	0.0376478	1.34104	0.298456	10.9176	0.466393	17.1884	0.571926	20.9754	0.846407	30.7351	0.175801	7.85244	0.435114	15.6265	0.707529	25.9634	0.921233	33.3917
0.29972	10.5982	0.0395939	1.36506	0.299704	10.6019	0.466949	16.6376	0.572806	20.3135	0.846946	29.7482	0.178414	7.65079	0.436168	15.1572	0.708133	25.1265	0.921487	32.3097
0.301002	10.3041	0.0415558	1.38811	0.300819	10.3443	0.467527	16.123	0.573712	19.6949	0.847503	28.8245	0.181082	7.46687	0.437253	14.7184	0.708757	24.3439	0.921751	31.2966
0.302317	10.0292	0.0435319	1.41023	0.30179	10.1364	0.468127	15.6411	0.574646	19.1156	0.848077	27.9581	0.183802	7.29862	0.43837	14.3073	0.7094	23.6104	0.922024	30.3459
0.303665	9.77191	0.0455209	1.43146	0.302606	9.97212	0.46875	15.1891	0.575606	18.5719	0.848669	27.1439	0.186571	7.14425	0.439518	13.9214	0.710063	22.9217	0.922306	29.4521
0.305044	9.53055	0.0475218	1.45184	0.30326	9.84682	0.469397	14.7643	0.576593	18.0608	0.849278	26.3773	0.189386	7.00223	0.440697	13.5586	0.710745	22.2738	0.922597	28.6102
0.306454	9.30379	0.0495334	1.47141	0.303746	9.75717	0.470067	14.3644	0.577607	17.5795	0.849904	25.6544	0.192245	6.87125	0.441906	13.217	0.711446	21.6632	0.922898	27.8158
0.307895	9.0904	0.0515547	1.49021	0.304058	9.70086	0.47076	13.9874	0.578647	17.1256	0.850548	24.9716	0.195147	6.75016	0.443146	12.8947	0.712166	21.0869	0.923209	27.0652
0.309365	8.88929	0.0535849	1.50828	0.304511	9.62133	0.471478	13.6314	0.579712	16.6967	0.851208	24.3256	0.198088	6.63797	0.444415	12.5903	0.712906	20.5422	0.923529	26.3547
0.310865	8.69949	0.0553605	1.52344	0.305007	9.53674	0.47222	13.2947	0.580804	16.291	0.851887	23.7136	0.201067	6.5338	0.445714	12.3024	0.713665	20.0264	0.923859	25.6813
0.312393	8.52011	0.0568786	1.53596	0.305688	9.42467	0.472986	12.9759	0.581921	15.9066	0.852582	23.1329	0.204082	6.43689	0.447042	12.0297	0.714443	19.5374	0.924198	25.0422
0.31395	8.35037	0.0581368	1.54605	0.306559	9.28765	0.473778	12.6737	0.583063	15.542	0.853294	22.5814	0.207131	6.34656	0.448399	11.7711	0.71524	19.0732	0.924548	24.4348
0.315533	8.18954	0.0591333	1.55385	0.307628	9.12862	0.474596	12.3868	0.584231	15.1958	0.854024	22.0569	0.210212	6.26222	0.449785	11.5256	0.716055	18.6321	0.924907	23.8568
0.317144	8.03699	0.059867	1.55949	0.308903	8.95081	0.475439	12.1143	0.585424	14.8665	0.85477	21.5574	0.213325	6.18333	0.451199	11.2922	0.71689	18.2123	0.925276	23.3063
0.318781	7.89213	0.060337	1.56306	0.310394	8.75758	0.476308	11.855	0.586641	14.5531	0.855534	21.0813	0.216468	6.10943	0.452641	11.0702	0.717743	17.8123	0.925656	22.7812
0.320443	7.75443	0.061013	1.56814	0.311913	8.57503	0.477204	11.6081	0.587883	14.2545	0.856314	20.627	0.219638	6.04008	0.454111	10.8587	0.718615	17.4309	0.926045	22.2799
0.322131	7.6234	0.0617486	1.57359	0.313461	8.40236	0.478127	11.3728	0.589149	13.9696	0.857111	20.193	0.222836	5.97493	0.455608	10.6571	0.719505	17.0668	0.926445	21.8008
0.323844	7.4986	0.06275	1.58088	0.315036	8.23882	0.479077	11.1483	0.590439	13.6976	0.857925	19.7781	0.226059	5.91362	0.456935	10.4889	0.720414	16.7189	0.926854	21.3426
0.325582	7.37963	0.0640182	1.5899	0.316638	8.08376	0.480054	10.934	0.591753	13.4376	0.858756	19.3809	0.229307	5.85585	0.458082	10.3508	0.721341	16.3861	0.927275	20.9038
0.327343	7.26611	0.0655542	1.60054	0.318267	7.93656	0.481059	10.7292	0.593091	13.1889	0.859603	19.0005	0.232578	5.80135	0.459042	10.24	0.722286	16.0675	0.927705	20.4833
0.329128	7.15771	0.067359	1.61264	0.319922	7.79667	0.481958	10.5581	0.594452	12.9509	0.860467	18.6358	0.235871	5.74987	0.459807	10.1546	0.723249	15.7623	0.928146	20.0799
0.330937	7.05411	0.069434	1.62604	0.321602	7.66361	0.482742	10.4173	0.595836	12.7228	0.861348	18.2859	0.239185	5.70118	0.460374	10.093	0.724231	15.4695	0.928598	19.6928
0.332769	6.95504	0.0715125	1.63896	0.323307	7.53691	0.483401	10.3043	0.597244	12.5041	0.862245	17.9499	0.24252	5.65509	0.460739	10.054	0.72523	15.1886	0.929061	19.3208
0.334624	6.86022	0.0735942	1.6514	0.325037	7.41616	0.483931	10.217	0.598674	12.2942	0.863158	17.6271	0.245875	5.61139	0.461266	9.99873	0.726247	14.9188	0.929534	18.9632
0.336502	6.76942	0.0756787	1.6634	0.326791	7.30097	0.484324	10.154	0.600126	12.0927	0.864088	17.3166	0.249248	5.56994	0.461841	9.93951	0.727282	14.6595	0.930018	18.6192
0.338403	6.6824	0.0777657	1.67497	0.328568	7.19101	0.484578	10.1141	0.601602	11.899	0.865034	17.0178	0.252638	5.53056	0.462629	9.86044	0.728335	14.4101	0.930513	18.288
0.340326	6.59898	0.079855	1.68614	0.33037	7.08595	0.484946	10.0576	0.603099	11.7128	0.865997	16.7301	0.256046	5.49312	0.463635	9.76277	0.729405	14.1701	0.931018	17.9689
0.342272	6.51894	0.0819463	1.69691	0.332195	6.98549	0.485349	9.99693	0.604618	11.5336	0.866976	16.4529	0.25947	5.45748	0.464863	9.64804	0.730493	13.9389	0.931535	17.6613
0.344241	6.44213	0.0840392	1.70731	0.334043	6.88937	0.485903	9.91592	0.606159	11.3611	0.86797	16.1856	0.262909	5.42354	0.466322	9.51793	0.731598	13.7162	0.932063	17.3646
0.346234	6.36838	0.0861338	1.71736	0.335913	6.79734	0.486615	9.81579	0.607721	11.1949	0.868981	15.9277	0.266363	5.39118	0.46802	9.37431	0.732721	13.5014	0.932602	17.0782
0.348249	6.29753	0.0882296	1.72706	0.337807	6.70917	0.48749	9.69804	0.609305	11.0346	0.870008	15.6788	0.269831	5.36029	0.469742	9.23644	0.73386	13.2941	0.933153	16.8016
0.350288	6.22944	0.0903266	1.73644	0.339723	6.62464	0.488537	9.5644	0.61091	10.8801	0.871051	15.4383	0.273313	5.33079	0.471488	9.104	0.735017	13.0941	0.933715	16.5343
0.352351	6.164	0.0924246	1.74551	0.341662	6.54357	0.489768	9.41672	0.612325	10.7499	0.87211	15.206	0.276807	5.30259	0.473259	8.9767	0.73619	12.9009	0.934288	16.276
0.354438	6.10108	0.0945233	1.75428	0.343624	6.46577	0.491029	9.27482	0.613545	10.642	0.873184	14.9814	0.280314	5.27561	0.475053	8.85425	0.737381	12.7141	0.934872	16.026
0.356551	6.04056	0.0966228	1.76276	0.345609	6.39108	0.49232	9.1384	0.614561	10.5548	0.874275	14.7641	0.283833	5.24978	0.476871	8.73642	0.738588	12.5336	0.935469	15.7841
0.358689	5.98235	0.0987229	1.77097	0.347617	6.31934	0.493643	9.00718	0.615371	10.4872	0.875381	14.5537	0.287362	5.22502	0.478712	8.62296	0.739811	12.359	0.936077	15.55
0.360853	5.92636	0.100823	1.77892	0.349649	6.25041	0.494997	8.88092	0.615969	10.4382	0.876502	14.3501	0.290903	5.20128	0.480575	8.51364	0.741052	12.19	0.936697	15.3231
0.363044	5.87249	0.102924	1.78662	0.351704	6.18415	0.496383	8.75936	0.616353	10.4072	0.877639	14.1528	0.294453	5.1785	0.482461	8.40827	0.742308	12.0263	0.937328	15.1032
0.365263	5.82066	0.105026	1.79408	0.353784	6.12045	0.4978	8.64228	0.616907	10.363	0.878792	13.9617	0.298013	5.15662	0.484369	8.30665	0.743581	11.8678	0.937972	14.8901
0.367511	5.77081	0.107127	1.80131	0.355889	6.0592	0.49925	8.52948	0.617512	10.3155	0.87996	13.7763	0.301583	5.13558	0.486299	8.20859	0.74487	11.7142	0.938627	14.6833
0.369789	5.72285	0.109228	1.80831	0.358019	6.00028	0.500731	8.42075	0.618339	10.2518	0.881143	13.5965	0.305161	5.11536	0.488251	8.11392	0.746176	11.5652	0.939295	14.4827
0.372098	5.67673	0.11133	1.81511	0.360175	5.9436	0.502245	8.31591	0.619391	10.1727	0.882341	13.422	0.308747	5.09589	0.490223	8.02249	0.747497	11.4208	0.939974	14.2879
0.374439	5.63238	0.113431	1.8217	0.362357	5.88908	0.503791	8.21478	0.620673	10.0792	0.883555	13.2527	0.312341	5.07713	0.492217	7.93415	0.748834	11.2806	0.940666	14.0987
0.376813	5.58975	0.115533	1.8281	0.364568	5.83662	0.505369	8.1172	0.622192	9.97238	0.884783	13.0882	0.315943	5.05906	0.494231	7.84874	0.750187	11.1446	0.941371	13.915
0.379221	5.54879	0.117634	1.8343	0.366807	5.78616	0.506981	8.02302	0.623953	9.85346	0.886027	12.9284	0.319552	5.04163	0.496266	7.76615	0.751378	11.0293	0.942087	13.7364
0.381665	5.50944	0.119736	1.84033	0.369075	5.73762	0.508625	7.93209	0.625733	9.73829	0.887286	12.7731	0.323167	5.0248	0.498321	7.68624	0.752403	10.9333	0.942816	13.5628
0.384146	5.47166	0.121837	1.84619	0.371374	5.69093	0.510302	7.84426	0.627532	9.6267	0.888559	12.6222	0.326788	5.00856	0.500396	7.60889	0.753257	10.8554	0.943558	13.3939
0.386665	5.43541	0.123938	1.85188	0.373705	5.64604	0.512011	7.75941	0.62935	9.51855	0.889848	12.4754	0.330416	4.99285	0.50249	7.534	0.753937	10.7948	0.944312	13.2297
0.389223	5.40063	0.126038	1.85741	0.376068	5.60288	0.513754	7.67742	0.631187	9.41369	0.891151	12.3325	0.334048	4.97767	0.504604	7.46146	0.754439	10.7507	0.945079	13.0698
0.391821	5.3673	0.128139	1.86278	0.378466	5.5614	0.51553	7.59816	0.633043	9.31197	0.892468	12.1936	0.337686	4.96298	0.506736	7.39117	0.754761	10.7228	0.945858	12.9142
0.39446	5.33536	0.130239	1.86801	0.380898	5.52155	0.517338	7.52153	0.634917	9.21327	0.893801	12.0583	0.341329	4.94875	0.508887	7.32303	0.755226	10.6829	0.946651	12.7627
0.397143	5.30479	0.132338	1.8731	0.383368	5.48329	0.519179	7.44742	0.63681	9.11747	0.895147	11.9265	0.344976	4.93497	0.511057	7.25695	0.755733	10.64	0.947456	12.6151
0.399868	5.27554	0.134438	1.87805	0.385874	5.44656	0.521053	7.37573	0.63872	9.02444	0.896509	11.7982	0.348628	4.9216	0.513245	7.19286	0.756425	10.5824	0.948275	12.4713
0.402637	5.24757	0.136537	1.88287	0.38842	5.41133	0.52296	7.30636	0.640649	8.93408	0.897884	11.6732	0.352283	4.90864	0.515451	7.13067	0.757306	10.5105	0.949106	12.3311
0.405451	5.22085	0.138636	1.88755	0.391005	5.37755	0.524899	7.23922	0.642595	8.84628	0.899274	11.5513	0.355941	4.89605	0.517674	7.0703	0.758379	10.4253	0.949951	12.1945
0.40831	5.19534	0.140734	1.89212	0.393632	5.34518	0.526871	7.17423	0.644559	8.76095	0.900678	11.4325	0.359602	4.88383	0.519915	7.01169	0.759648	10.3274	0.950809	12.0612
0.411215	5.17099	0.142832	1.89657	0.396301	5.31419	0.528875	7.1113	0.64654	8.67798	0.901913	11.3314	0.363267	4.87195	0.522174	6.95475	0.761118	10.218	0.95168	11.9313
0.414165	5.14778	0.14493	1.90091	0.399013	5.28453	0.530912	7.05036	0.648539	8.59729	0.902974	11.247	0.366934	4.86039	0.524449	6.89944	0.762603	10.1115	0.952565	11.8045
0.417161	5.12566	0.147027	1.90514	0.401768	5.25617	0.53298	6.99132	0.650554	8.5188	0.903857	11.1783	0.370603	4.84915	0.526741	6.84569	0.764103	10.0077	0.953463	11.6807
0.420201	5.10458	0.149124	1.90926	0.404568	5.22906	0.53508	6.93413	0.652587	8.44241	0.904559	11.1247	0.374274	4.8382	0.529049	6.79343	0.765617	9.90667	0.954375	11.5599
0.423287	5.08452	0.15122	1.91327	0.407413	5.20317	0.537212	6.8787	0.654636	8.36806	0.905078	11.0857	0.377946	4.82753	0.531374	6.74262	0.767146	9.80821	0.95518	11.457
0.426417	5.06542	0.153316	1.91719	0.410303	5.17847	0.539375	6.82498	0.656702	8.29567	0.905411	11.0609	0.38162	4.81713	0.533715	6.69319	0.768689	9.71225	0.955875	11.371
0.42959	5.04726	0.155412	1.92102	0.413239	5.15491	0.541569	6.7729	0.658784	8.22516	0.90589	11.0256	0.385295	4.80698	0.536072	6.6451	0.770247	9.61869	0.956455	11.3009
0.432806	5.02998	0.157507	1.92475	0.416221	5.13245	0.543794	6.7224	0.660882	8.15648	0.906413	10.9874	0.38897	4.79708	0.538444	6.59831	0.771818	9.52747	0.956918	11.2463
0.436063	5.01355	0.159602	1.9284	0.419247	5.11105	0.54605	6.67342	0.662996	8.08955	0.907127	10.9361	0.392646	4.7874	0.540832	6.55276	0.773403	9.43848	0.95726	11.2065
0.439361	4.99793	0.161697	1.93196	0.422319	5.09067	0.548336	6.62591	0.665127	8.02433	0.908035	10.872	0.396322	4.77795	0.543236	6.5084	0.775003	9.35167	0.95748	11.1812
0.442698	4.98308	0.163791	1.93543	0.425435	5.07128	0.550652	6.57981	0.667273	7.96074	0.909139	10.7958	0.399998	4.7687	0.545654	6.46521	0.776616	9.26695	0.957797	11.145
0.446073	4.96896	0.165884	1.93883	0.428595	5.05283	0.552997	6.53508	0.669435	7.89873	0.910444	10.708	0.403673	4.75965	0.548087	6.42313	0.778242	9.18426	0.958144	11.1061
0.449485	4.95552	0.167978	1.94214	0.431798	5.03528	0.555372	6.49167	0.671612	7.83825	0.911955	10.6095	0.407348	4.75079	0.550535	6.38214	0.779883	9.10352	0.958619	11.0536
0.452931	4.94275	0.170071	1.94539	0.435042	5.01859	0.557775	6.44953	0.673805	7.77926	0.913479	10.5133	0.411022	4.7421	0.552997	6.34218	0.781537	9.02468	0.959223	10.988
0.456411	4.93059	0.172163	1.94856	0.438328	5.00272	0.560207	6.40861	0.676012	7.72169	0.915017	10.4193	0.414694	4.73359	0.555474	6.30324	0.783204	8.94766	0.959962	10.91
0.459923	4.91902	0.174256	1.95166	0.441653	4.98763	0.562668	6.36887	0.678235	7.6655	0.916567	10.3274	0.418365	4.72524	0.557965	6.26527	0.784884	8.87242	0.960838	10.8201
0.463465	4.908	0.176348	1.95469	0.445016	4.97329	0.565156	6.33027	0.680473	7.61065	0.918132	10.2375	0.422034	4.71704	0.560471	6.22824	0.786578	8.7989	0.961856	10.7191
0.467037	4.8975	0.178439	1.95765	0.448416	4.95964	0.567671	6.29278	0.682726	7.55709	0.919709	10.1497	0.425701	4.70899	0.56299	6.19212	0.788284	8.72703	0.962889	10.6204
0.470635	4.88749	0.18053	1.96056	0.451852	4.94667	0.570214	6.25635	0.684993	7.50479	0.921299	10.0638	0.429365	4.70107	0.565523	6.15689	0.790004	8.65678	0.963936	10.5238
0.47426	4.87794	0.182621	1.9634	0.455321	4.93432	0.572783	6.22094	0.687274	7.45371	0.922903	9.97971	0.433027	4.69328	0.568069	6.12251	0.791736	8.58808	0.964997	10.4293
0.47791	4.86882	0.184711	1.96618	0.458823	4.92257	0.575378	6.18653	0.68957	7.4038	0.924519	9.89747	0.436685	4.68562	0.570629	6.08896	0.793481	8.5209	0.966073	10.3368
0.481583	4.86011	0.186802	1.9689	0.462356	4.91138	0.577999	6.15307	0.691881	7.35502	0.926148	9.817	0.440341	4.67808	0.573203	6.05621	0.795239	8.45518	0.967163	10.2463
0.485278	4.85177	0.188891	1.97156	0.465919	4.90073	0.580645	6.12053	0.694205	7.30736	0.92779	9.73823	0.443993	4.67064	0.575789	6.02423	0.797009	8.39088	0.968267	10.1578
0.488993	4.8438	0.190981	1.97417	0.469509	4.89056	0.583317	6.0889	0.696544	7.26077	0.929445	9.66112	0.447641	4.66331	0.578389	5.99302	0.798792	8.32796	0.969387	10.0711
0.492727	4.83616	0.19307	1.97673	0.473126	4.88087	0.586013	6.05812	0.698896	7.21521	0.931112	9.58562	0.451284	4.65608	0.581002	5.96253	0.800587	8.26638	0.970521	9.98619
0.49648	4.82883	0.195159	1.97924	0.476768	4.87162	0.588733	6.02818	0.701262	7.17067	0.932792	9.51168	0.454924	4.64894	0.583628	5.93275	0.802395	8.2061	0.97167	9.90307
0.500249	4.8218	0.197247	1.98169	0.480434	4.86278	0.591476	5.99904	0.703641	7.1271	0.934485	9.43926	0.458559	4.64189	0.586266	5.90366	0.804214	8.14708	0.972833	9.82167
0.504034	4.81504	0.199335	1.9841	0.484122	4.85433	0.594243	5.97068	0.706035	7.08448	0.93619	9.36831	0.462188	4.63492	0.588918	5.87524	0.806046	8.08928	0.974012	9.74193
0.507834	4.80854	0.201423	1.98646	0.487831	4.84625	0.597033	5.94308	0.708441	7.04279	0.937907	9.2988	0.465813	4.62803	0.591582	5.84746	0.80789	8.03268	0.975205	9.66381
0.511648	4.80229	0.203511	1.98878	0.49156	4.83851	0.599846	5.91621	0.710861	7.00199	0.939636	9.23068	0.469432	4.6212	0.594259	5.82032	0.809745	7.97723	0.976414	9.58727
0.515474	4.79626	0.205598	1.99105	0.495307	4.83108	0.60268	5.89004	0.713294	6.96206	0.941377	9.16391	0.473044	4.61445	0.596948	5.79379	0.811612	7.9229	0.977638	9.51227
0.519312	4.79044	0.207685	1.99327	0.499071	4.82396	0.605536	5.86455	0.71574	6.92298	0.943131	9.09846	0.476651	4.60775	0.59965	5.76786	0.813492	7.86967	0.978876	9.43875
0.523161	4.78482	0.209772	1.99546	0.502851	4.81712	0.608414	5.83973	0.718199	6.88472	0.944897	9.03429	0.480251	4.60111	0.602364	5.7425	0.815382	7.8175	0.98013	9.3667
0.52702	4.77939	0.211858	1.9976	0.506647	4.81054	0.611312	5.81554	0.720671	6.84726	0.946674	8.97137	0.483845	4.59453	0.605091	5.71771	0.817284	7.76636	0.9814	9.29606
0.530889	4.77414	0.213945	1.9997	0.510456	4.80422	0.614231	5.79197	0.723155	6.81058	0.948463	8.90966	0.487431	4.58799	0.607829	5.69346	0.819198	7.71623	0.982684	9.2268
0.534765	4.76904	0.216031	2.00177	0.514279	4.79812	0.617169	5.76899	0.725652	6.77465	0.950264	8.84913	0.49101	4.5815	0.610581	5.66975	0.821123	7.66708	0.983984	9.15888
0.53865	4.7641	0.218116	2.0038	0.518113	4.79224	0.620128	5.7466	0.728162	6.73946	0.952077	8.78975	0.494581	4.57505	0.613344	5.64656	0.82306	7.61888	0.9853	9.09228
0.542541	4.7593	0.220202	2.00579	0.521959	4.78656	0.623105	5.72477	0.730684	6.70499	0.953902	8.73149	0.498144	4.56864	0.61612	5.62388	0.825007	7.57161	0.986631	9.02695
0.546439	4.75463	0.222287	2.00774	0.525815	4.78107	0.626102	5.70348	0.733219	6.67121	0.955737	8.67432	0.501699	4.56226	0.618908	5.60169	0.826966	7.52524	0.987977	8.96286
0.550343	4.75009	0.224372	2.00966	0.52968	4.77576	0.629117	5.68271	0.735765	6.63811	0.957585	8.61821	0.505245	4.5559	0.621708	5.57998	0.828936	7.47975	0.989339	8.9
0.554252	4.74566	0.226457	2.01155	0.533555	4.77061	0.632151	5.66246	0.738324	6.60567	0.959444	8.56313	0.508783	4.54958	0.62452	5.55873	0.830917	7.43512	0.990717	8.83831
0.558165	4.74135	0.228541	2.0134	0.537437	4.76563	0.635202	5.6427	0.740895	6.57387	0.961314	8.50907	0.51231	4.54327	0.627344	5.53795	0.832909	7.39132	0.992111	8.77779
0.562082	4.73713	0.230625	2.01522	0.541326	4.76078	0.63827	5.62341	0.743478	6.54271	0.963195	8.45598	0.515829	4.53699	0.630181	5.51761	0.834912	7.34834	0.99352	8.71839
0.566003	4.73301	0.232709	2.01701	0.545222	4.75607	0.641356	5.6046	0.746073	6.51215	0.965087	8.40386	0.519337	4.53072	0.63303	5.4977	0.836925	7.30615	0.994945	8.66009
0.569927	4.72898	0.234793	2.01877	0.549124	4.75149	0.644459	5.58623	0.74868	6.48219	0.966991	8.35267	0.522835	4.52446	0.635891	5.47822	0.838949	7.26473	0.996386	8.60287
0.573853	4.72503	0.236877	2.0205	0.553031	4.74703	0.647578	5.56829	0.751299	6.4528	0.968905	8.30239	0.526323	4.51821	0.638764	5.45916	0.840985	7.22407	0.997843	8.5467
0.577276	4.72165	0.23896	2.0222	0.556943	4.74268	0.650713	5.55078	0.753929	6.42399	0.970831	8.253	0.5298	4.51197	0.641649	5.44049	0.84303	7.18415	0.999316	8.49155
0.580195	4.71881	0.241043	2.02387	0.560859	4.73844	0.653864	5.53368	0.756571	6.39573	0.972767	8.20448	0.533265	4.50573	0.644547	5.42223	0.845086	7.14494	1.0008	8.4374
0.582609	4.71649	0.243126	2.02551	0.564779	4.73429	0.657031	5.51698	0.759224	6.368	0.974714	8.1568	0.536719	4.49949	0.647456	5.40435	0.847153	7.10644		
0.584519	4.71468	0.245209	2.02713	0.568702	4.73023	0.660212	5.50066	0.761889	6.3408	0.976672	8.10995	0.540161	4.49326	0.650378	5.38684	0.84923	7.06861		
0.585923	4.71335	0.247291	2.02872	0.572627	4.72625	0.663409	5.48472	0.764565	6.31411	0.97864	8.06391	0.543591	4.48701	0.653313	5.36971	0.851318	7.03146		
0.586821	4.71251	0.249374	2.03028	0.576555	4.72236	0.66662	5.46914	0.767253	6.28793	0.980619	8.01866	0.547009	4.48076	0.656259	5.35293	0.853416	6.99496		
0.588113	4.7113	0.251456	2.03182	0.580484	4.71853	0.669846	5.45392	0.769951	6.26223	0.982608	7.97417	0.550414	4.4745	0.659218	5.33651	0.855524	6.9591		
0.589517	4.70999	0.253538	2.03334	0.584415	4.71477	0.673086	5.43904	0.772661	6.23701	0.984608	7.93044	0.553806	4.46824	0.662189	5.32044	0.857642	6.92386		
0.591427	4.70822	0.25562	2.03483	0.588346	4.71108	0.67634	5.42449	0.775383	6.21225	0.986618	7.88744	0.557184	4.46195	0.665172	5.3047	0.859771	6.88922		
0.593842	4.70601	0.257701	2.0363	0.592278	4.70744	0.679607	5.41027	0.778115	6.18795	0.988639	7.84516	0.560549	4.45565	0.668168	5.28929	0.86191	6.85518		
0.596763	4.70336	0.259783	2.03774	0.596209	4.70386	0.682887	5.39636	0.780858	6.16409	0.990669	7.80358	0.5639	4.44934	0.671176	5.2742	0.864059	6.82172		
0.600188	4.70028	0.261864	2.03917	0.600141	4.70032	0.686181	5.38275	0.783612	6.14067	0.99271	7.76268	0.567236	4.443	0.674197	5.25943	0.866218	6.78883		
0.604119	4.69679	0.263945	2.04057	0.604071	4.69683	0.689487	5.36945	0.786377	6.11768	0.99476	7.72245	0.570558	4.43665	0.67723	5.24497	0.868387	6.7565		
0.608048	4.69334	0.266026	2.04195	0.608	4.69339	0.692806	5.35643	0.789153	6.09509	0.996821	7.68288	0.573866	4.43027	0.680275	5.23081	0.870566	6.7247		
0.611976	4.68993	0.268107	2.04331	0.611928	4.68998	0.696138	5.34369	0.79194	6.07292	0.998892	7.64395	0.577158	4.42386	0.683333	5.21695	0.872755	6.69344		
0.615902	4.68656	0.270188	2.04465	0.615854	4.6866	0.699482	5.33123	0.794738	6.05114	1.00097	7.60564	0.580435	4.41743	0.686404	5.20338	0.874954	6.6627		
0.619826	4.68321	0.272268	2.04597	0.619778	4.68325	0.702837	5.31904	0.797546	6.02975			0.583696	4.41098	0.689486	5.19009	0.877163	6.63246		
0.623747	4.6799	0.274349	2.04727	0.623699	4.67994	0.706204	5.3071	0.800365	6.00873			0.586941	4.40449	0.692582	5.17708	0.879382	6.60273		
0.627665	4.6766	0.276429	2.04855	0.627618	4.67664	0.709583	5.29541	0.803195	5.98809			0.590171	4.39798	0.695689	5.16435	0.881611	6.57348		
0.63158	4.67333	0.278509	2.04981	0.631533	4.67337	0.712973	5.28397	0.806035	5.96781			0.593384	4.39143	0.698809	5.15188	0.883849	6.5447		
0.635492	4.67008	0.280589	2.05105	0.635445	4.67012	0.716375	5.27277	0.808886	5.94789			0.59658	4.38485	0.701942	5.13967	0.886098	6.51639		
0.6394	4.66685	0.282669	2.05228	0.639353	4.66689	0.719787	5.26181	0.811747	5.92832			0.59976	4.37824	0.705087	5.12771	0.888356	6.48854		
0.643304	4.66363	0.284748	2.05348	0.643257	4.66367	0.72321	5.25107	0.81462	5.90909			0.602923	4.3716	0.708244	5.11601	0.890624	6.46114		
0.647204	4.66042	0.286828	2.05468	0.647157	4.66046	0.726644	5.24055	0.817502	5.89019			0.606069	4.36492	0.711413	5.10455	0.892901	6.43417		
0.651099	4.65723	0.288907	2.05585	0.651052	4.65726	0.730088	5.23024	0.820395	5.87162			0.609197	4.35821	0.714595	5.09333	0.895188	6.40763		
0.654989	4.65403	0.290986	2.05701	0.654942	4.65407	0.733543	5.22015	0.823298	5.85336			0.612308	4.35146	0.717789	5.08234	0.897485	6.38152		
0.658874	4.65085	0.293065	2.05815	0.658827	4.65089	0.737008	5.21026	0.826212	5.83543			0.615402	4.34468	0.720995	5.07158	0.899792	6.35581		
0.662753	4.64767	0.295144	2.05928	0.662706	4.64771	0.740482	5.20057	0.829136	5.8178			0.618477	4.33786	0.724213	5.06105	0.902108	6.33051		
0.666627	4.64449	0.297223	2.06039	0.66658	4.64453	0.743967	5.19108	0.832071	5.80047			0.621535	4.331	0.727443	5.05074	0.904434	6.30561		
0.670495	4.64131	0.299302	2.06148	0.670448	4.64135	0.747461	5.18177	0.835016	5.78343			0.624575	4.32411	0.730685	5.04064	0.90677	6.28109		
0.674356	4.63812	0.301381	2.06256	0.67431	4.63816	0.750965	5.17265	0.837971	5.76669			0.627596	4.31718	0.733938	5.03075	0.909115	6.25695		
0.678211	4.63494	0.303459	2.06363	0.678165	4.63498	0.754479	5.16371	0.840937	5.75023			0.6306	4.31022	0.737204	5.02107	0.91147	6.23319		
0.68206	4.63175	0.305537	2.06468	0.682013	4.63178	0.758001	5.15495	0.843913	5.73405			0.633585	4.30322	0.74048	5.01158	0.913834	6.2098		
0.685901	4.62855	0.307616	2.06572	0.685854	4.62858	0.761533	5.14636	0.846899	5.71814			0.636552	4.29618	0.743769	5.0023	0.916208	6.18676		
0.689735	4.62534	0.309694	2.06675	0.689689	4.62538	0.765074	5.13794	0.849895	5.7025			0.6395	4.28911	0.747068	4.9932	0.918592	6.16407		
0.693562	4.62212	0.311772	2.06776	0.693515	4.62216	0.768623	5.12968	0.852902	5.68712			0.64243	4.282	0.750379	4.98429	0.920985	6.14173		
0.697381	4.61889	0.31385	2.06875	0.697334	4.61893	0.772182	5.12158	0.855919	5.672			0.645341	4.27486	0.753701	4.97556	0.923388	6.11973		
0.701191	4.61565	0.315928	2.06974	0.701145	4.61569	0.775749	5.11364	0.858947	5.65714			0.648234	4.26768	0.757033	4.96701	0.9258	6.09807		
0.704994	4.61239	0.318005	2.07071	0.704948	4.61243	0.779325	5.10586	0.861984	5.64252			0.651109	4.26047	0.760376	4.95863	0.928222	6.07673		
0.708789	4.60912	0.320083	2.07167	0.708743	4.60916	0.782909	5.09822	0.865032	5.62814			0.653964	4.25323	0.76373	4.95043	0.930653	6.05571		
0.712574	4.60584	0.322161	2.07262	0.712529	4.60588	0.786501	5.09073	0.86809	5.61401			0.656802	4.24596	0.767094	4.94238	0.933094	6.035		
0.716352	4.60253	0.324238	2.07356	0.716306	4.60257	0.790102	5.08338	0.871159	5.60011			0.659621	4.23865	0.770468	4.9345	0.935545	6.01461		
0.720119	4.59921	0.326315	2.07448	0.720074	4.59925	0.79371	5.07616	0.874237	5.58644			0.662421	4.23131	0.773852	4.92678	0.938004	5.99452		
0.723878	4.59587	0.328393	2.0754	0.723833	4.59591	0.797327	5.06909	0.877326	5.573			0.665203	4.22395	0.777246	4.9192	0.940474	5.97472		
0.727627	4.59251	0.33047	2.0763	0.727582	4.59255	0.800952	5.06215	0.880426	5.55978			0.667967	4.21655	0.780649	4.91178	0.942953	5.95522		
0.731367	4.58912	0.332547	2.07719	0.731322	4.58917	0.804584	5.05534	0.883535	5.54678			0.670713	4.20913	0.784062	4.9045	0.945442	5.93601		
0.735097	4.58572	0.334624	2.07807	0.735052	4.58576	0.808224	5.04865	0.886655	5.534			0.67344	4.20168	0.787483	4.89736	0.947939	5.91708		
0.738817	4.58229	0.336701	2.07894	0.738772	4.58233	0.811871	5.04209	0.889785	5.52143			0.676149	4.1942	0.790914	4.89036	0.950447	5.89843		
0.742526	4.57884	0.338778	2.07979	0.742481	4.57888	0.815526	5.03565	0.892925	5.50907			0.678841	4.1867	0.794353	4.88349	0.952964	5.88005		
0.746226	4.57536	0.340854	2.08064	0.746181	4.57541	0.819188	5.02933	0.896076	5.49691			0.681514	4.17917	0.7978	4.87675	0.955491	5.86194		
0.749914	4.57186	0.342931	2.08148	0.74987	4.57191	0.822857	5.02312	0.899236	5.48495			0.68417	4.17162	0.801256	4.87014	0.958027	5.8441		
0.753592	4.56834	0.345007	2.08231	0.753548	4.56838	0.826533	5.01703	0.902408	5.47319			0.686808	4.16405	0.804719	4.86365	0.960572	5.82651		
0.757259	4.56479	0.347084	2.08313	0.757215	4.56483	0.830216	5.01105	0.905589	5.46162			0.689428	4.15646	0.808191	4.85728	0.963127	5.80918		
0.760915	4.56121	0.34916	2.08394	0.760871	4.56125	0.833906	5.00517	0.908781	5.45024			0.692031	4.14885	0.811669	4.85102	0.965692	5.7921		
0.76456	4.5576	0.351237	2.08474	0.764516	4.55765	0.837603	4.9994	0.911983	5.43906			0.694617	4.14122	0.815155	4.84487	0.968266	5.77526		
0.768194	4.55397	0.353313	2.08553	0.76815	4.55402	0.841306	4.99373	0.915195	5.42805			0.697185	4.13357	0.818648	4.83884	0.970849	5.75867		
0.771816	4.55031	0.355389	2.08631	0.771772	4.55036	0.845015	4.98817	0.918418	5.41723			0.699737	4.12591	0.822147	4.83291	0.973442	5.74231		
0.775426	4.54662	0.357465	2.08708	0.775383	4.54667	0.848731	4.9827	0.921651	5.40659			0.702272	4.11823	0.825653	4.82708	0.976044	5.72619		
0.779025	4.54291	0.359541	2.08784	0.778982	4.54295	0.852453	4.97732	0.924895	5.39613			0.70479	4.11054	0.829165	4.82135	0.978656	5.7103		
0.782612	4.53916	0.361617	2.0886	0.782569	4.53921	0.856181	4.97204	0.928149	5.38583			0.707291	4.10283	0.832683	4.81571	0.981277	5.69464		
0.786187	4.53539	0.363693	2.08934	0.786144	4.53543	0.859915	4.96685	0.931413	5.37571			0.709777	4.09512	0.836206	4.81017	0.983908	5.6792		
0.78975	4.53158	0.365768	2.09008	0.789707	4.53163	0.863654	4.96175	0.934688	5.36576			0.712246	4.08739	0.839735	4.80472	0.986548	5.66398		
0.7933	4.52775	0.367844	2.09081	0.793257	4.5278	0.867399	4.95673	0.937972	5.35597			0.714699	4.07966	0.84327	4.79936	0.989197	5.64897		
0.796839	4.52389	0.36992	2.09153	0.796796	4.52394	0.87115	4.9518	0.941268	5.34634			0.717136	4.07191	0.846809	4.79408	0.991856	5.63418		
0.800365	4.52	0.371995	2.09225	0.800322	4.52005	0.874906	4.94695	0.944574	5.33688			0.719557	4.06416	0.850352	4.78888	0.994524	5.6196		
0.803878	4.51608	0.374071	2.09295	0.803836	4.51613	0.878667	4.94218	0.94789	5.32757			0.721963	4.0564	0.8539	4.78376	0.997202	5.60522		
0.807379	4.51213	0.376146	2.09365	0.807337	4.51218	0.882433	4.93749	0.951216	5.31842			0.724354	4.04864	0.857452	4.77872	0.999889	5.59104		
0.810868	4.50815	0.378221	2.09434	0.810826	4.5082	0.886204	4.93287	0.954554	5.30941			0.726729	4.04088	0.861009	4.77375	1.00259	5.57706		
0.814343	4.50415	0.380297	2.09502	0.814301	4.5042	0.889979	4.92833	0.957901	5.30057			0.72909	4.03311	0.864568	4.76885				
0.817807	4.50011	0.382372	2.0957	0.817765	4.50016	0.893759	4.92386	0.961259	5.29186			0.731435	4.02534	0.868131	4.76403				
0.821257	4.49604	0.384447	2.09637	0.821215	4.49609	0.897544	4.91946	0.964627	5.28331			0.733767	4.01757	0.871698	4.75926				
0.824694	4.49195	0.386522	2.09703	0.824652	4.492	0.901333	4.91512	0.968006	5.2749			0.736083	4.0098	0.875267	4.75456				
0.828118	4.48783	0.388597	2.09768	0.828077	4.48788	0.905125	4.91086	0.971395	5.26663			0.738386	4.00203	0.878839	4.74993				
0.83153	4.48368	0.390672	2.09833	0.831488	4.48373	0.908922	4.90665	0.974795	5.25849			0.740674	3.99426	0.882413	4.74535				
0.834928	4.4795	0.392747	2.09897	0.834887	4.47955	0.912722	4.90251	0.978205	5.2505			0.742949	3.9865	0.885989	4.74083				
0.838314	4.47529	0.394822	2.09961	0.838273	4.47534	0.916526	4.89843	0.981625	5.24264			0.74521	3.97874	0.889568	4.73636				
0.841686	4.47106	0.396897	2.10023	0.841645	4.47111	0.920333	4.8944	0.985056	5.23492			0.747457	3.97098	0.893148	4.73195				
0.845046	4.46679	0.398971	2.10086	0.845005	4.46685	0.924143	4.89043	0.988497	5.22732			0.749691	3.96324	0.896729	4.72759				
0.848392	4.46251	0.401046	2.10147	0.848351	4.46256	0.927956	4.88652	0.991949	5.21986			0.751912	3.95549	0.900312	4.72328				
0.851725	4.45819	0.403121	2.10208	0.851685	4.45824	0.931773	4.88266	0.995411	5.21252			0.754121	3.94776	0.903896	4.71901				
0.855045	4.45385	0.405195	2.10268	0.855005	4.4539	0.935591	4.87885	0.998884	5.20531			0.756316	3.94004	0.90748	4.71479				
0.858352	4.44948	0.40727	2.10328	0.858312	4.44953	0.939413	4.87509	1.00237	5.19822			0.758499	3.93232	0.911065	4.71062				
0.861646	4.44509	0.409344	2.10387	0.861606	4.44514	0.943236	4.87138					0.760669	3.92462	0.914651	4.70648				
0.864927	4.44067	0.411419	2.10445	0.864888	4.44072	0.947062	4.86772					0.762827	3.91692	0.918236	4.70239				
0.868195	4.43623	0.413493	2.10503	0.868156	4.43628	0.950889	4.8641					0.764973	3.90924	0.921822	4.69833				
0.87145	4.43176	0.415567	2.1056	0.87141	4.43181	0.954718	4.86052					0.767108	3.90157	0.925407	4.69431				
0.874692	4.42727	0.417641	2.10617	0.874652	4.42732	0.958549	4.85698					0.769231	3.89392	0.928991	4.69033				
0.87792	4.42275	0.419716	2.10673	0.877881	4.42281	0.962381	4.85349					0.771342	3.88628	0.932575	4.68638				
0.881136	4.41822	0.42179	2.10729	0.881097	4.41827	0.966215	4.85003					0.773442	3.87865	0.936158	4.68246				
0.884339	4.41366	0.423864	2.10784	0.8843	4.41371	0.970049	4.84661					0.775531	3.87104	0.93974	4.67857				
0.887529	4.40907	0.425938	2.10838	0.88749	4.40913	0.973884	4.84323					0.777609	3.86344	0.94332	4.67471				
0.890706	4.40447	0.428012	2.10892	0.890667	4.40453	0.97772	4.83988					0.779676	3.85586	0.946899	4.67088				
0.89387	4.39985	0.430086	2.10946	0.893831	4.3999	0.981556	4.83656					0.781732	3.8483	0.950476	4.66708				
0.897021	4.3952	0.43216	2.10999	0.896983	4.39526	0.985393	4.83328					0.783778	3.84076	0.954051	4.6633				
0.900159	4.39053	0.434233	2.11051	0.900121	4.39059	0.989229	4.83002					0.785814	3.83324	0.957624	4.65954				
0.903285	4.38585	0.436307	2.11103	0.903247	4.38591	0.993066	4.8268					0.78784	3.82573	0.961195	4.65581				
0.906398	4.38114	0.438381	2.11155	0.90636	4.3812	0.996902	4.8236					0.789856	3.81824	0.964763	4.6521				
0.909498	4.37642	0.440455	2.11206	0.909461	4.37648	1.00074	4.82043					0.791862	3.81078	0.968328	4.64841				
0.912586	4.37168	0.442528	2.11256	0.912549	4.37174							0.793859	3.80333	0.97189	4.64473				
0.915661	4.36692	0.444602	2.11306	0.915624	4.36698							0.795846	3.79591	0.975449	4.64108				
0.918724	4.36214	0.446675	2.11356	0.918687	4.3622							0.797823	3.78851	0.979005	4.63744				
0.921774	4.35735	0.448749	2.11405	0.921737	4.35741							0.799792	3.78113	0.982558	4.63382				
0.924811	4.35254	0.450822	2.11454	0.924775	4.3526							0.801752	3.77377	0.986107	4.63021				
0.927837	4.34771	0.452896	2.11502	0.9278	4.34777							0.803703	3.76644	0.989652	4.62662				
0.93085	4.34287	0.454969	2.1155	0.930813	4.34293							0.805645	3.75913	0.993193	4.62303				
0.933851	4.33802	0.457043	2.11597	0.933814	4.33808							0.807579	3.75184	0.99673	4.61946				
0.936839	4.33315	0.459116	2.11644	0.936803	4.33321							0.809505	3.74458	1.00026	4.6159				
0.939816	4.32826	0.461189	2.11691	0.93978	4.32832							0.811422	3.73734						
0.94278	4.32336	0.463262	2.11737	0.942745	4.32342							0.813331	3.73012						
0.945733	4.31845	0.465335	2.11782	0.945697	4.31851							0.815233	3.72294						
0.948673	4.31353	0.467409	2.11828	0.948638	4.31359							0.817126	3.71578						
0.951602	4.30859	0.469482	2.11873	0.951566	4.30865							0.819013	3.70864						
0.954519	4.30364	0.471555	2.11917	0.954483	4.3037							0.820891	3.70153						
0.957424	4.29868	0.473628	2.11961	0.957389	4.29874							0.822763	3.69445						
0.960317	4.29371	0.475701	2.12005	0.960282	4.29377							0.824627	3.68739						
0.963199	4.28873	0.477774	2.12048	0.963164	4.28879							0.826484	3.68036						
0.966069	4.28374	0.479846	2.12091	0.966034	4.2838							0.828334	3.67336						
0.968927	4.27874	0.481919	2.12134	0.968893	4.2788							0.830177	3.66639						
0.971775	4.27373	0.483992	2.12176	0.97174	4.27379							0.832014	3.65944						
0.97461	4.26871	0.486065	2.12218	0.974576	4.26877							0.833844	3.65252						
0.977435	4.26368	0.488138	2.1226	0.977401	4.26374							0.835668	3.64564						
0.980248	4.25864	0.49021	2.12301	0.980214	4.2587							0.837486	3.63877						
0.98305	4.2536	0.492283	2.12342	0.983016	4.25366							0.839297	3.63194						
0.985841	4.24855	0.494356	2.12382	0.985807	4.24861							0.841103	3.62514						
0.98862	4.24349	0.496428	2.12422	0.988587	4.24355							0.842903	3.61837						
0.991389	4.23842	0.498501	2.12462	0.991356	4.23848							0.844696	3.61162						
0.994147	4.23335	0.500573	2.12502	0.994113	4.23341							0.846485	3.60491						
0.996894	4.22827	0.502646	2.12541	0.99686	4.22833							0.848267	3.59822						
0.99963	4.22319	0.504718	2.1258	0.999597	4.22325							0.850044	3.59157						
1.00235	4.2181	0.50679	2.12618	1.00232	4.21816							0.851816	3.58494						
		0.508863	2.12656									0.853583	3.57835						
		0.510935	2.12694									0.855345	3.57178						
		0.513008	2.12732									0.857101	3.56524						
		0.51508	2.12769									0.858853	3.55874						
		0.517152	2.12806									0.8606	3.55226						
		0.519224	2.12843									0.862343	3.54582						
		0.521296	2.12879									0.864081	3.53941						
		0.523369	2.12915									0.865814	3.53302						
		0.525441	2.12951									0.867543	3.52667						
		0.527513	2.12987									0.869268	3.52035						
		0.529585	2.13022									0.870988	3.51406						
		0.531657	2.13057									0.872705	3.5078						
		0.533729	2.13092									0.874417	3.50157						
		0.535801	2.13126									0.876126	3.49537						
		0.537873	2.1316									0.877831	3.4892						
		0.539944	2.13194									0.879532	3.48307						
		0.542016	2.13228									0.88123	3.47696						
		0.544088	2.13261									0.882924	3.47088						
		0.54616	2.13294									0.884614	3.46484						
		0.548232	2.13327									0.886302	3.45883						
		0.550303	2.1336									0.887986	3.45284						
		0.552375	2.13392									0.889666	3.44689						
		0.554447	2.13424									0.891344	3.44097						
		0.556519	2.13456									0.893018	3.43508						
		0.55859	2.13488									0.89469	3.42922						
		0.560662	2.13519									0.896359	3.42339						
		0.562733	2.13551									0.898025	3.41759						
		0.564805	2.13582									0.899688	3.41182						
		0.566876	2.13612									0.901348	3.40609						
		0.568948	2.13643									0.903006	3.40038						
		0.571019	2.13673									0.904662	3.3947						
		0.573091	2.13703									0.906314	3.38906						
		0.575162	2.13733									0.907965	3.38344						
		0.577233	2.13763									0.909613	3.37785						
		0.579305	2.13792									0.911259	3.3723						
		0.581376	2.13821									0.912903	3.36677						
		0.583447	2.1385									0.914544	3.36128						
		0.585519	2.13879									0.916184	3.35581						
		0.58759	2.13908									0.917821	3.35038						
		0.589661	2.13936									0.919457	3.34497						
		0.591732	2.13964									0.92109	3.33959						
		0.593803	2.13992									0.922722	3.33425						
		0.595875	2.1402									0.924352	3.32893						
		0.597946	2.14048									0.92598	3.32364						
		0.600017	2.14075									0.927607	3.31838						
		0.602088	2.14102									0.929232	3.31315						
		0.604159	2.14129									0.930855	3.30795						
		0.60623	2.14156									0.932477	3.30278						
		0.608301	2.14183									0.934097	3.29764						
		0.610372	2.14209									0.935716	3.29252						
		0.612443	2.14235									0.937333	3.28744						
		0.614514	2.14262									0.93895	3.28238						
		0.616584	2.14287									0.940564	3.27735						
		0.618655	2.14313									0.942178	3.27235						
		0.620726	2.14339									0.943791	3.26738						
		0.622797	2.14364									0.945402	3.26243						
		0.624868	2.14389									0.947012	3.25751						
		0.626938	2.14415									0.948621	3.25263						
		0.629009	2.14439									0.95023	3.24776						
		0.63108	2.14464									0.951837	3.24293						
		0.633151	2.14489									0.953443	3.23812						
		0.635221	2.14513									0.955048	3.23335						
		0.637292	2.14537									0.956653	3.22859						
		0.639362	2.14561									0.958257	3.22387						
		0.641433	2.14585									0.959859	3.21917						
		0.643504	2.14609									0.961462	3.2145						
		0.645574	2.14633									0.963063	3.20986						
		0.647645	2.14656									0.964664	3.20524						
		0.649715	2.1468									0.966264	3.20065						
		0.651786	2.14703									0.967864	3.19608						
		0.653856	2.14726									0.969462	3.19154						
		0.655926	2.14749									0.971061	3.18703						
		0.657997	2.14771									0.972659	3.18254						
		0.660067	2.14794									0.974256	3.17808						
		0.662138	2.14816									0.975853	3.17364						
		0.664208	2.14839									0.97745	3.16923						
		0.666278	2.14861									0.979046	3.16485						
		0.668349	2.14883									0.980642	3.16049						
		0.670419	2.14905									0.982237	3.15615						
		0.672489	2.14926									0.983832	3.15184						
		0.674559	2.14948									0.985427	3.14756						
		0.676629	2.14969									0.987022	3.1433						
		0.6787	2.14991									0.988616	3.13906						
		0.68077	2.15012									0.99021	3.13485						
		0.68284	2.15033									0.991805	3.13066						
		0.68491	2.15054									0.993398	3.1265						
		0.68698	2.15075									0.994992	3.12236						
		0.68905	2.15095									0.996586	3.11824						
		0.69112	2.15116									0.99818	3.11415						
		0.69319	2.15136									0.999773	3.11008						
		0.69526	2.15157									1.00137	3.10604						
		0.69733	2.15177																
		0.6994	2.15197																
		0.70147	2.15217																
		0.70354	2.15237																
		0.70561	2.15256																
		0.70768	2.15276																
		0.70975	2.15295																
		0.71182	2.15315																
		0.71389	2.15334																
		0.715959	2.15353																
		0.718029	2.15372																
		0.720099	2.15391																
		0.722169	2.1541																
		0.724238	2.15428																
		0.726308	2.15447																
		0.728378	2.15465																
		0.730447	2.15484																
		0.732517	2.15502																
		0.734587	2.1552																
		0.736656	2.15538																
		0.738726	2.15556																
		0.740795	2.15574																
		0.742865	2.15592																
		0.744935	2.15609																
		0.747004	2.15627																
		0.749074	2.15644																
		0.751143	2.15662																
		0.753213	2.15679																
		0.755282	2.15696																
		0.757351	2.15713																
		0.759421	2.1573																
		0.76149	2.15747																
		0.763559	2.15763																
		0.765629	2.1578																
		0.767698	2.15797																
		0.769767	2.15813																
		0.771837	2.15829																
		0.773906	2.15846																
		0.775975	2.15862																
		0.778044	2.15878																
		0.780114	2.15894																
		0.782183	2.1591																
		0.784252	2.15926																
		0.786321	2.15942																
		0.78839	2.15957																
		0.790459	2.15973																
		0.792528	2.15988																
		0.794598	2.16004																
		0.796667	2.16019																
		0.798736	2.16034																
		0.800805	2.1605																
		0.802874	2.16065																
		0.804943	2.1608																
		0.807012	2.16095																
		0.809081	2.16109																
		0.81115	2.16124																
		0.813218	2.16139																
		0.815287	2.16154																
		0.817356	2.16168																
		0.819425	2.16183																
		0.821494	2.16197																
		0.823563	2.16211																
		0.825631	2.16225																
		0.8277	2.1624																
		0.829769	2.16254																
		0.831838	2.16268																
		0.833907	2.16282																
		0.835975	2.16296																
		0.838044	2.16309																
		0.840113	2.16323																
		0.842181	2.16337																
		0.84425	2.1635																
		0.846319	2.16364																
		0.848387	2.16377																
		0.850456	2.16391																
		0.852524	2.16404																
		0.854593	2.16417																
		0.856661	2.16431																
		0.85873	2.16444																
		0.860799	2.16457																
		0.862867	2.1647																
		0.864935	2.16483																
		0.867004	2.16495																
		0.869072	2.16508																
		0.871141	2.16521																
		0.873209	2.16534																
		0.875278	2.16546																
		0.877346	2.16559																
		0.879414	2.16571																
		0.881483	2.16584																
		0.883551	2.16596																
		0.885619	2.16608																
		0.887688	2.16621																
		0.889756	2.16633																
		0.891824	2.16645																
		0.893892	2.16657																
		0.895961	2.16669																
		0.898029	2.16681																
		0.900097	2.16693																
		0.902165	2.16705																
		0.904233	2.16716																
		0.906301	2.16728																
		0.908369	2.1674																
		0.910438	2.16751																
		0.912506	2.16763																
		0.914574	2.16774																
		0.916642	2.16786																
		0.91871	2.16797																
		0.920778	2.16809																
		0.922846	2.1682																
		0.924914	2.16831																
		0.926982	2.16842																
		0.92905	2.16853																
		0.931118	2.16864																
		0.933186	2.16875																
		0.935253	2.16886																
		0.937321	2.16897																
		0.939389	2.16908																
		0.941457	2.16919																
		0.943525	2.1693																
		0.945593	2.16941																
		0.947661	2.16951																
		0.949728	2.16962																
		0.951796	2.16972																
		0.953864	2.16983																
		0.955932	2.16993																
		0.957999	2.17004																
		0.960067	2.17014																
		0.962135	2.17024																
		0.964202	2.17035																
		0.96627	2.17045																
		0.968338	2.17055																
		0.970405	2.17065																
		0.972473	2.17075																
		0.97454	2.17085																
		0.976608	2.17095																
		0.978676	2.17105																
		0.980743	2.17115																
		0.982811	2.17125																
		0.984878	2.17135																
		0.986946	2.17145																
		0.989013	2.17155																
		0.991081	2.17164																
		0.993148	2.17174																
		0.995215	2.17183																
		0.997283	2.17193																
		0.99935	2.17203																
		1.00142	2.17212																
