Sym0		Asym0		Sym1		Sym2		Sym3		Sym4		Asym1		Asym2		Asym3		Asym4	
254  Points		501  Points		254  Points		229  Points		212  Points		145  Points		331  Points		237  Points		195  Points		108  Points	
Freq (MHz)	Vph (m/ms)	Freq (MHz)	Vph (m/ms)	Freq (MHz)	Vph (m/ms)	Freq (MHz)	Vph (m/ms)	Freq (MHz)	Vph (m/ms)	Freq (MHz)	Vph (m/ms)	Freq (MHz)	Vph (m/ms)	Freq (MHz)	Vph (m/ms)	Freq (MHz)	Vph (m/ms)	Freq (MHz)	Vph (m/ms)
0.279522	398.325	1.73759e-006	0.0106805	0.279525	367.592	0.480687	1187.64	0.559018	2285.02	0.838527	2007.73	0.139761	517.556	0.419268	845.707	0.698778	959.668	0.961372	7504.32
0.279583	171.162	7.86432e-005	0.0718608	0.279589	165.23	0.4807	359.688	0.559043	475.239	0.838545	621.446	0.139879	116.398	0.419306	293.744	0.698805	421.007	0.961374	907.124
0.279693	109.036	0.000269064	0.132801	0.279702	106.601	0.480726	211.948	0.559099	265.223	0.838581	367.631	0.140146	65.6906	0.419382	177.768	0.698854	269.668	0.961376	482.74
0.279851	80.03	0.000571874	0.193346	0.279863	78.7125	0.480765	150.247	0.559188	183.96	0.838636	261.035	0.140562	45.8584	0.419494	127.473	0.698924	198.376	0.961381	328.88
0.280058	63.2395	0.000985092	0.253272	0.280073	62.4159	0.480818	116.378	0.559309	140.833	0.838709	202.37	0.141123	35.3088	0.419644	99.3819	0.699015	156.908	0.961387	249.394
0.280313	52.295	0.00150626	0.312426	0.280331	51.732	0.480885	94.9761	0.559462	114.103	0.838801	165.244	0.141827	28.7769	0.419831	81.4535	0.699128	129.79	0.961395	200.852
0.280616	44.5995	0.00213223	0.370638	0.280637	44.1906	0.480965	80.2288	0.559647	95.9152	0.838912	139.637	0.142671	24.3458	0.420054	69.0205	0.699262	110.672	0.961406	168.129
0.280967	38.8957	0.00285958	0.427789	0.280991	38.5855	0.481059	69.4508	0.559865	82.7405	0.839041	120.908	0.143652	21.1504	0.420315	59.8941	0.699417	96.4712	0.961419	144.575
0.281366	34.501	0.00368419	0.483727	0.281392	34.2577	0.481166	61.2303	0.560113	72.759	0.839188	106.615	0.144764	18.743	0.420612	52.9117	0.699593	85.507	0.961434	126.81
0.281812	31.0126	0.00460191	0.538365	0.281842	30.8169	0.481288	54.754	0.560394	64.9363	0.839354	95.3497	0.146003	16.8686	0.420946	47.3984	0.699791	76.7871	0.961452	112.934
0.282305	28.1778	0.00560816	0.5916	0.282338	28.017	0.481423	49.5205	0.560707	58.6415	0.839539	86.2428	0.147365	15.3713	0.421317	42.9358	0.70001	69.6868	0.961473	101.796
0.282845	25.8297	0.00669835	0.643371	0.282881	25.6953	0.481573	45.2037	0.561051	53.4676	0.839742	78.7285	0.148844	14.1505	0.421724	39.2505	0.70025	63.7937	0.961498	92.6588
0.283432	23.8537	0.0078676	0.693607	0.28347	23.7397	0.481737	41.5825	0.561426	49.1402	0.839963	72.4232	0.150436	13.1381	0.422167	36.1565	0.700512	58.8246	0.961526	85.0272
0.284064	22.1686	0.0091113	0.742281	0.284105	22.0708	0.481915	38.5015	0.561833	45.4679	0.840203	67.057	0.152135	12.2867	0.422647	33.5227	0.700794	54.5782	0.961558	78.5578
0.284742	20.7153	0.0104247	0.789369	0.284786	20.6305	0.482108	35.8486	0.56227	42.313	0.840462	62.435	0.153937	11.5622	0.423163	31.254	0.701098	50.9079	0.961595	73.0038
0.285465	19.4496	0.0118033	0.834856	0.285512	19.3754	0.482316	33.5404	0.562739	39.5736	0.840739	58.4127	0.155587	11.0145	0.423715	29.2799	0.701422	47.7042	0.961636	68.184
0.286233	18.3378	0.0132424	0.87874	0.286283	18.2724	0.482539	31.5141	0.563239	37.1732	0.841034	54.8807	0.157049	10.5987	0.424303	27.547	0.701768	44.8837	0.961681	63.9619
0.287045	17.354	0.014738	0.921038	0.287098	17.2958	0.482778	29.7212	0.563769	35.0527	0.841348	51.7547	0.158295	10.2855	0.424926	26.0139	0.702135	42.3816	0.961732	60.2328
0.287901	16.4776	0.0162857	0.961762	0.287956	16.4256	0.483032	28.1237	0.56433	33.1663	0.84168	48.9686	0.159304	10.0554	0.425585	24.6483	0.702523	40.1472	0.961789	56.9152
0.288799	15.6923	0.0178818	1.00095	0.288857	15.6455	0.483301	26.6915	0.564921	31.4775	0.84203	46.47	0.160059	9.89519	0.426279	23.4245	0.702931	38.1399	0.961851	53.9447
0.289741	14.9848	0.0195224	1.03862	0.289801	14.9426	0.483586	25.4003	0.565543	29.9569	0.842399	44.2168	0.160547	9.79641	0.427008	22.3218	0.703361	36.3268	0.961919	51.2695
0.290724	14.3445	0.0212042	1.07481	0.290787	14.3062	0.483888	24.2303	0.566194	28.5809	0.842786	42.1746	0.161257	9.65928	0.427772	21.3232	0.703811	34.6812	0.961993	48.8478
0.291749	13.7624	0.0229239	1.10958	0.291815	13.7275	0.484206	23.1655	0.566875	27.3299	0.843191	40.3153	0.162038	9.5164	0.42857	20.4149	0.704282	33.181	0.962074	46.6451
0.292814	13.2311	0.0246783	1.14295	0.292883	13.1992	0.48454	22.1923	0.567585	26.1878	0.843614	38.6153	0.163117	9.33173	0.429404	19.5853	0.704774	31.808	0.962162	44.6332
0.29392	12.7445	0.0264647	1.17499	0.293991	12.7153	0.484892	21.2995	0.568325	25.1412	0.844056	37.0552	0.164507	9.11288	0.430271	18.8249	0.705287	30.5467	0.962257	42.7883
0.295065	12.2974	0.0282803	1.20572	0.295138	12.2704	0.485261	20.4776	0.569094	24.1787	0.844516	35.6185	0.166225	8.86808	0.431172	18.1255	0.70582	29.384	0.962359	41.0905
0.296249	11.8852	0.0301228	1.23521	0.296325	11.8603	0.485647	19.7187	0.569892	23.2906	0.844994	34.2912	0.168291	8.60555	0.432107	17.4802	0.706374	28.309	0.962469	39.5229
0.297471	11.5042	0.0319898	1.2635	0.297549	11.4812	0.486051	19.0157	0.570718	22.4689	0.84549	33.0613	0.170726	8.33303	0.433076	16.883	0.706948	27.3122	0.962587	38.0712
0.298731	11.1512	0.0338793	1.29063	0.298811	11.1298	0.486474	18.3629	0.571573	21.7063	0.846004	31.9185	0.173225	8.08724	0.434077	16.329	0.707542	26.3855	0.962712	36.7229
0.300027	10.8231	0.0357893	1.31666	0.299941	10.8439	0.486914	17.7551	0.572456	20.9969	0.846536	30.854	0.175785	7.86467	0.435112	15.8137	0.708158	25.5217	0.962846	35.4675
0.30136	10.5177	0.037718	1.34163	0.300926	10.6139	0.487374	17.1879	0.573367	20.3354	0.847086	29.8601	0.178403	7.66241	0.436179	15.3333	0.708793	24.7147	0.962988	34.2957
0.302728	10.2327	0.0396639	1.36559	0.301755	10.4326	0.487852	16.6575	0.574306	19.7172	0.847654	28.93	0.181076	7.47798	0.437279	14.8844	0.709449	23.9592	0.963139	33.1995
0.30413	9.96627	0.0416253	1.38858	0.30242	10.2945	0.48835	16.1604	0.575272	19.1382	0.84824	28.0578	0.183802	7.30929	0.438411	14.4642	0.710125	23.2505	0.963298	32.1718
0.305567	9.71669	0.0436008	1.41064	0.302914	10.1959	0.488867	15.6936	0.576265	18.5948	0.848844	27.2383	0.186576	7.15454	0.439574	14.0701	0.710821	22.5843	0.963466	31.2064
0.307037	9.4825	0.0455893	1.43181	0.303233	10.1339	0.489405	15.2546	0.577285	18.0841	0.849465	26.467	0.189398	7.01221	0.440769	13.6998	0.711537	21.9571	0.963644	30.2978
0.30854	9.26239	0.0475895	1.45214	0.303694	10.0466	0.489963	14.841	0.578333	17.6031	0.850104	25.7397	0.192264	6.88096	0.441996	13.3513	0.712273	21.3655	0.96383	29.4412
0.310075	9.0552	0.0496004	1.47166	0.3042	9.95373	0.490541	14.4507	0.579406	17.1495	0.850761	25.0528	0.195172	6.75965	0.443253	13.0228	0.713029	20.8067	0.964026	28.6323
0.311641	8.85987	0.0516209	1.49041	0.304894	9.83089	0.491141	14.0819	0.580506	16.7209	0.851436	24.4032	0.19812	6.64727	0.444541	12.7126	0.713804	20.278	0.964231	27.8673
0.313238	8.67546	0.0536502	1.50842	0.305784	9.68092	0.491762	13.7328	0.581632	16.3155	0.852128	23.7878	0.201107	6.54294	0.44586	12.4194	0.7146	19.7772	0.964445	27.1426
0.314864	8.50115	0.0554251	1.52355	0.306876	9.50719	0.492404	13.4021	0.582784	15.9314	0.852838	23.2041	0.20413	6.44591	0.447208	12.1419	0.715415	19.302	0.964669	26.4552
0.31652	8.33615	0.0569425	1.53603	0.308181	9.31336	0.493069	13.0883	0.583961	15.5671	0.853566	22.6497	0.207188	6.35548	0.448586	11.8788	0.71625	18.8507	0.964903	25.8024
0.318204	8.1798	0.0582002	1.54609	0.309708	9.1032	0.493756	12.7902	0.585164	15.2211	0.85431	22.1226	0.210278	6.27106	0.449994	11.6292	0.717104	18.4215	0.965147	25.1815
0.319917	8.03146	0.0591962	1.55387	0.311267	8.90514	0.494466	12.5067	0.586391	14.8922	0.855073	21.6207	0.2134	6.19211	0.451431	11.392	0.717978	18.0128	0.965401	24.5904
0.321656	7.89057	0.0599296	1.5595	0.312857	8.71823	0.495199	12.2369	0.587644	14.579	0.855852	21.1423	0.216552	6.11817	0.452896	11.1665	0.71887	17.6232	0.965665	24.0269
0.323423	7.75662	0.0603994	1.56306	0.314476	8.54159	0.495955	11.9798	0.588921	14.2806	0.856649	20.6859	0.219733	6.04881	0.454196	10.9787	0.719783	17.2516	0.965939	23.4892
0.325215	7.62913	0.0610751	1.56813	0.316125	8.37445	0.496736	11.7346	0.590223	13.996	0.857463	20.25	0.222941	5.98364	0.455322	10.8248	0.720714	16.8966	0.966223	22.9756
0.327033	7.50769	0.0618103	1.57356	0.317803	8.21611	0.49754	11.5004	0.591548	13.7242	0.858295	19.8332	0.226174	5.92234	0.456264	10.7016	0.721664	16.5572	0.966517	22.4844
0.328876	7.39189	0.0628112	1.58083	0.319508	8.06593	0.498369	11.2768	0.592898	13.4644	0.859143	19.4344	0.229433	5.8646	0.457016	10.6067	0.722634	16.2325	0.966822	22.0144
0.330743	7.28138	0.0640789	1.58983	0.321241	7.92332	0.499112	11.0898	0.594271	13.216	0.860009	19.0525	0.232716	5.81013	0.457574	10.5382	0.723622	15.9214	0.967138	21.5641
0.332634	7.17583	0.0656141	1.60044	0.323001	7.78777	0.499761	10.9361	0.595667	12.9782	0.860891	18.6863	0.236021	5.7587	0.457932	10.495	0.724629	15.6233	0.967464	21.1323
0.334549	7.07494	0.0674182	1.61251	0.324788	7.65879	0.500307	10.8126	0.597087	12.7503	0.861791	18.335	0.239348	5.71007	0.45845	10.4337	0.725654	15.3373	0.9678	20.7181
0.336487	6.97842	0.0694921	1.62588	0.3266	7.53595	0.500747	10.7173	0.59853	12.5318	0.862707	17.9978	0.242695	5.66404	0.459017	10.3681	0.726699	15.0628	0.968147	20.3202
0.338447	6.88602	0.0715695	1.63876	0.328437	7.41885	0.501074	10.6484	0.599996	12.3221	0.863641	17.6737	0.246063	5.62042	0.459792	10.2805	0.727761	14.799	0.968505	19.9378
0.34043	6.79751	0.0736502	1.65118	0.330298	7.30711	0.501284	10.6049	0.601484	12.1207	0.864591	17.3621	0.24945	5.57904	0.460783	10.1725	0.728842	14.5454	0.968873	19.5701
0.342435	6.71266	0.0757337	1.66315	0.332184	7.20042	0.50159	10.5431	0.602994	11.9272	0.865557	17.0623	0.252854	5.53976	0.461994	10.0457	0.729942	14.3015	0.969253	19.2161
0.344461	6.63126	0.0778197	1.6747	0.334093	7.09845	0.501925	10.4769	0.604527	11.7411	0.866541	16.7736	0.256276	5.50241	0.463433	9.9022	0.731059	14.0666	0.969643	18.8752
0.346508	6.55314	0.079908	1.68584	0.336025	7.00092	0.502387	10.3884	0.606081	11.5621	0.867541	16.4955	0.259715	5.46689	0.465109	9.74403	0.732195	13.8403	0.970045	18.5466
0.348577	6.47812	0.0819983	1.69659	0.337981	6.90756	0.50298	10.279	0.607657	11.3897	0.868557	16.2274	0.26317	5.43306	0.466811	9.59246	0.733348	13.6222	0.970457	18.2298
0.350667	6.40604	0.0840902	1.70696	0.339958	6.81815	0.50371	10.1504	0.609048	11.2447	0.86959	15.9687	0.26664	5.40081	0.468539	9.4471	0.734519	13.4118	0.97088	17.924
0.352778	6.33675	0.0861838	1.71699	0.341957	6.73245	0.504585	10.0043	0.610246	11.1247	0.87064	15.719	0.270125	5.37005	0.470292	9.30759	0.735709	13.2089	0.971315	17.6288
0.35491	6.27011	0.0882786	1.72667	0.343979	6.65025	0.505616	9.84292	0.611246	11.0278	0.871705	15.4779	0.273623	5.34068	0.47207	9.17363	0.736915	13.0128	0.97176	17.3436
0.357062	6.20599	0.0903747	1.73604	0.346021	6.57137	0.506674	9.6878	0.612042	10.9528	0.872787	15.2449	0.277135	5.31262	0.473873	9.0449	0.73814	12.8235	0.972217	17.068
0.359236	6.14427	0.0924717	1.74509	0.348085	6.49563	0.50776	9.53864	0.612631	10.8984	0.873885	15.0197	0.28066	5.28579	0.4757	8.92112	0.739381	12.6405	0.972685	16.8014
0.361431	6.08485	0.0945695	1.75384	0.35017	6.42287	0.508874	9.39514	0.613009	10.864	0.874999	14.8018	0.284197	5.2601	0.477551	8.80204	0.74064	12.4635	0.973165	16.5434
0.363647	6.02761	0.0966681	1.76231	0.352276	6.35293	0.510017	9.257	0.613554	10.815	0.876129	14.5909	0.287746	5.2355	0.479426	8.68741	0.741917	12.2922	0.973655	16.2937
0.365885	5.97247	0.0987673	1.7705	0.354403	6.28567	0.511189	9.12398	0.614149	10.7623	0.877276	14.3868	0.291306	5.21193	0.481324	8.577	0.74321	12.1265	0.974158	16.0518
0.368145	5.91934	0.100867	1.77844	0.35655	6.22097	0.51239	8.99582	0.614963	10.6918	0.878438	14.1891	0.294877	5.18931	0.483245	8.4706	0.74452	11.9659	0.974671	15.8175
0.370427	5.86813	0.102967	1.78613	0.358719	6.15869	0.513621	8.8723	0.615999	10.6043	0.879615	13.9974	0.298458	5.1676	0.485189	8.36801	0.745847	11.8104	0.975196	15.5903
0.372733	5.81877	0.105067	1.79357	0.360909	6.09873	0.514881	8.7532	0.617263	10.5009	0.880809	13.8116	0.302049	5.14675	0.487155	8.26905	0.747191	11.6597	0.975733	15.3699
0.375061	5.77118	0.107168	1.80079	0.36312	6.04099	0.516172	8.63832	0.618759	10.383	0.882018	13.6315	0.305649	5.12671	0.489143	8.17354	0.748376	11.532	0.976281	15.1561
0.377414	5.7253	0.109269	1.80779	0.365353	5.98536	0.517493	8.52747	0.620495	10.2518	0.883243	13.4566	0.309258	5.10743	0.491153	8.08131	0.749396	11.4259	0.976841	14.9486
0.379792	5.68108	0.111369	1.81457	0.367607	5.93176	0.518845	8.42047	0.62225	10.125	0.884483	13.2869	0.312876	5.08887	0.493185	7.99222	0.750246	11.3399	0.977413	14.7471
0.382195	5.63844	0.11347	1.82116	0.369884	5.8801	0.520228	8.31715	0.624025	10.0022	0.885739	13.1221	0.316502	5.071	0.495238	7.90612	0.750923	11.273	0.977996	14.5513
0.384625	5.59735	0.115571	1.82754	0.372184	5.8303	0.521642	8.21736	0.62582	9.88339	0.88701	12.962	0.320135	5.05377	0.497312	7.82287	0.751422	11.2245	0.978591	14.3611
0.387082	5.55775	0.117672	1.83375	0.374507	5.7823	0.523087	8.12094	0.627634	9.76831	0.888297	12.8065	0.323776	5.03716	0.499406	7.74234	0.751744	11.1937	0.979198	14.1762
0.389567	5.5196	0.119772	1.83977	0.376854	5.73602	0.524565	8.02775	0.629467	9.65681	0.889598	12.6553	0.327424	5.02113	0.501521	7.66442	0.752207	11.1497	0.979817	13.9963
0.392081	5.48285	0.121873	1.84562	0.379226	5.69141	0.526074	7.93767	0.631319	9.54873	0.890915	12.5082	0.331078	5.00565	0.503655	7.58899	0.752712	11.1025	0.980448	13.8214
0.394626	5.44746	0.123973	1.85131	0.381623	5.64841	0.527614	7.85056	0.63319	9.44395	0.892247	12.3652	0.334739	4.9907	0.50581	7.51594	0.753402	11.039	0.981091	13.6512
0.397202	5.4134	0.126073	1.85683	0.384046	5.60695	0.529187	7.7663	0.635079	9.3423	0.893594	12.226	0.338406	4.97624	0.507983	7.44516	0.754281	10.9599	0.981746	13.4855
0.399811	5.38063	0.128173	1.8622	0.386497	5.567	0.530793	7.68478	0.636987	9.24367	0.894956	12.0905	0.342078	4.96226	0.510176	7.37658	0.755352	10.8662	0.982412	13.3241
0.402453	5.34912	0.130273	1.86743	0.388975	5.52851	0.532431	7.60589	0.638912	9.14793	0.896332	11.9586	0.345756	4.94872	0.512388	7.31008	0.756619	10.7588	0.983091	13.1669
0.40513	5.31883	0.132372	1.87251	0.391483	5.49143	0.534101	7.52954	0.640856	9.05497	0.897544	11.8464	0.349438	4.93561	0.514619	7.24559	0.758088	10.6387	0.983782	13.0138
0.407842	5.28973	0.134471	1.87746	0.39402	5.45573	0.535804	7.45562	0.642817	8.96467	0.898586	11.7528	0.353125	4.92291	0.516867	7.18303	0.759573	10.522	0.984486	12.8645
0.410591	5.2618	0.136569	1.88228	0.396589	5.42135	0.537539	7.38404	0.644796	8.87693	0.899453	11.6767	0.356817	4.91059	0.519134	7.12231	0.761073	10.4084	0.985201	12.719
0.413377	5.235	0.138668	1.88697	0.39919	5.38828	0.539307	7.31471	0.646793	8.79165	0.900143	11.6174	0.360512	4.89864	0.521419	7.06337	0.762589	10.298	0.985929	12.5772
0.416202	5.20931	0.140766	1.89153	0.401824	5.35647	0.541108	7.24755	0.648807	8.70873	0.900652	11.5743	0.364212	4.88704	0.523721	7.00613	0.764121	10.1904	0.98667	12.4388
0.419065	5.18469	0.142863	1.89599	0.404492	5.3259	0.542942	7.18248	0.650838	8.62809	0.900979	11.5469	0.367915	4.87577	0.52604	6.95052	0.765668	10.0857	0.987422	12.3037
0.421969	5.16111	0.144961	1.90032	0.407196	5.29652	0.544809	7.11943	0.652886	8.54964	0.90145	11.5078	0.371621	4.86482	0.528377	6.8965	0.767229	9.98377	0.988187	12.172
0.424912	5.13856	0.147058	1.90455	0.409936	5.26832	0.546708	7.05831	0.65495	8.4733	0.901965	11.4656	0.37533	4.85417	0.53073	6.84398	0.768806	9.88446	0.988864	12.0597
0.427896	5.11699	0.149154	1.90867	0.412713	5.24125	0.548639	6.99906	0.657032	8.39898	0.902667	11.4089	0.379042	4.8438	0.5331	6.79293	0.770398	9.78768	0.989449	11.9658
0.43092	5.09638	0.15125	1.91269	0.415529	5.2153	0.550604	6.94161	0.659129	8.32663	0.90356	11.3382	0.382756	4.83372	0.535486	6.74328	0.772005	9.69335	0.989938	11.8894
0.433986	5.07669	0.153346	1.91661	0.418383	5.19043	0.5526	6.8859	0.661243	8.25616	0.904647	11.2541	0.386472	4.82389	0.537888	6.69498	0.773626	9.60139	0.990327	11.8298
0.437092	5.0579	0.155442	1.92044	0.421277	5.16661	0.554629	6.83187	0.663374	8.18751	0.905932	11.1574	0.390191	4.81431	0.540306	6.64798	0.775262	9.5117	0.990616	11.7864
0.440238	5.03997	0.157537	1.92418	0.424211	5.14381	0.556691	6.77945	0.66552	8.12062	0.90742	11.0489	0.39391	4.80497	0.54274	6.60224	0.776912	9.42422	0.990801	11.7588
0.443424	5.02287	0.159632	1.92782	0.427185	5.12201	0.558784	6.7286	0.667682	8.05542	0.908922	10.9431	0.397632	4.79586	0.545189	6.55771	0.778577	9.33887	0.991069	11.7194
0.44665	5.00657	0.161726	1.93139	0.4302	5.10118	0.560909	6.67925	0.669859	7.99186	0.910438	10.8398	0.401354	4.78696	0.547653	6.51434	0.780256	9.25558	0.991362	11.6769
0.449915	4.99104	0.16382	1.93486	0.433255	5.08127	0.563065	6.63136	0.672052	7.92988	0.911969	10.7388	0.405077	4.77827	0.550132	6.47211	0.781949	9.17427	0.991762	11.6197
0.453217	4.97625	0.165914	1.93826	0.436352	5.06227	0.565253	6.58487	0.674261	7.86942	0.913513	10.6403	0.408801	4.76978	0.552626	6.43096	0.783656	9.09488	0.992273	11.5483
0.456557	4.96215	0.168007	1.94159	0.439489	5.04414	0.567472	6.53974	0.676485	7.81045	0.915071	10.544	0.412525	4.76147	0.555135	6.39086	0.785377	9.01735	0.992898	11.4632
0.459933	4.94873	0.1701	1.94483	0.442666	5.02685	0.569722	6.49593	0.678723	7.7529	0.916642	10.4499	0.41625	4.75334	0.557658	6.35177	0.787112	8.94161	0.993639	11.3652
0.463344	4.93595	0.172193	1.94801	0.445882	5.01037	0.572003	6.45337	0.680977	7.69673	0.918228	10.358	0.419974	4.74539	0.560195	6.31367	0.78886	8.86762	0.994502	11.2552
0.466788	4.92377	0.174285	1.95111	0.449138	4.99466	0.574314	6.41205	0.683246	7.6419	0.919827	10.2681	0.423698	4.73759	0.562746	6.27651	0.790622	8.79531	0.995378	11.1475
0.469816	4.91364	0.176377	1.95415	0.452431	4.97969	0.576655	6.3719	0.685529	7.58836	0.921439	10.1802	0.427422	4.72995	0.565311	6.24028	0.792398	8.72463	0.996266	11.0423
0.472417	4.90532	0.178468	1.95712	0.455762	4.96543	0.579025	6.3329	0.687826	7.53607	0.923065	10.0943	0.431144	4.72245	0.567889	6.20492	0.794186	8.65554	0.997168	10.9393
0.47458	4.89867	0.18056	1.96003	0.45913	4.95185	0.581425	6.295	0.690138	7.48499	0.924704	10.0102	0.434866	4.7151	0.570481	6.17043	0.795988	8.58797	0.998083	10.8386
0.476298	4.89355	0.18265	1.96287	0.462532	4.93892	0.583854	6.25817	0.692465	7.43509	0.926356	9.92798	0.438586	4.70788	0.573087	6.13677	0.797803	8.52189	0.999011	10.74
0.477566	4.88986	0.184741	1.96566	0.465969	4.92661	0.586312	6.22237	0.694805	7.38633	0.928022	9.8475	0.442305	4.70078	0.575705	6.10391	0.799631	8.45725	0.999952	10.6435
0.478379	4.88753	0.186831	1.96838	0.469438	4.91487	0.588798	6.18757	0.697159	7.33867	0.9297	9.76873	0.446022	4.69381	0.578336	6.07183	0.801472	8.394	1.00091	10.549
0.479551	4.88423	0.188921	1.97106	0.472939	4.9037	0.591312	6.15374	0.699528	7.29208	0.931392	9.69163	0.449737	4.68695	0.580981	6.0405	0.803326	8.33211		
0.480828	4.88069	0.191011	1.97367	0.476471	4.89304	0.593853	6.12084	0.701909	7.24653	0.933096	9.61614	0.453449	4.6802	0.583638	6.00991	0.805192	8.27154		
0.482571	4.87598	0.1931	1.97624	0.480031	4.88289	0.596422	6.08884	0.704305	7.20199	0.934813	9.54221	0.45716	4.67355	0.586307	5.98003	0.807071	8.21224		
0.484784	4.87018	0.195189	1.97875	0.48362	4.87321	0.599017	6.05772	0.706714	7.15842	0.936544	9.46981	0.460867	4.667	0.588989	5.95083	0.808962	8.15418		
0.487472	4.86337	0.197278	1.98121	0.487234	4.86396	0.601638	6.02744	0.709136	7.1158	0.938286	9.39889	0.464572	4.66054	0.591683	5.92231	0.810866	8.09732		
0.490644	4.85569	0.199366	1.98362	0.490874	4.85514	0.604286	5.99798	0.711572	7.07411	0.940042	9.3294	0.468273	4.65417	0.59439	5.89443	0.812782	8.04163		
0.494307	4.84724	0.201455	1.98599	0.494538	4.84672	0.606959	5.9693	0.71402	7.0333	0.941809	9.26131	0.471971	4.64788	0.597108	5.86718	0.81471	7.98708		
0.497991	4.83916	0.203543	1.98831	0.498224	4.83866	0.609657	5.9414	0.716482	6.99337	0.94359	9.19458	0.475665	4.64167	0.599839	5.84054	0.81665	7.93364		
0.501698	4.83143	0.20563	1.99059	0.501932	4.83096	0.612379	5.91423	0.718956	6.95428	0.945382	9.12916	0.479355	4.63554	0.602581	5.81449	0.818601	7.88126		
0.505424	4.82404	0.207718	1.99282	0.50566	4.82358	0.615126	5.88778	0.721443	6.91601	0.947187	9.06503	0.483041	4.62947	0.605335	5.78902	0.820565	7.82993		
0.50917	4.81695	0.209805	1.99501	0.509407	4.81652	0.617897	5.86203	0.723943	6.87854	0.949004	9.00215	0.486722	4.62347	0.608101	5.76411	0.822541	7.77962		
0.512934	4.81016	0.211892	1.99716	0.513171	4.80974	0.620691	5.83694	0.726455	6.84184	0.950833	8.94049	0.490399	4.61753	0.610878	5.73974	0.824528	7.73029		
0.516714	4.80364	0.213978	1.99927	0.516953	4.80324	0.623508	5.81251	0.72898	6.8059	0.952675	8.88001	0.494071	4.61165	0.613667	5.71591	0.826526	7.68193		
0.520511	4.79739	0.216064	2.00134	0.520751	4.797	0.626348	5.7887	0.731517	6.77069	0.954528	8.82068	0.497738	4.60582	0.616467	5.69259	0.828536	7.6345		
0.524322	4.79137	0.218151	2.00338	0.524563	4.791	0.62921	5.7655	0.734066	6.7362	0.956393	8.76247	0.501399	4.60004	0.619278	5.66977	0.830558	7.58798		
0.528148	4.78558	0.220236	2.00537	0.528389	4.78523	0.632093	5.7429	0.736628	6.7024	0.958269	8.70536	0.505054	4.5943	0.622101	5.64744	0.83259	7.54235		
0.531986	4.78001	0.222322	2.00733	0.532228	4.77966	0.634998	5.72086	0.739201	6.66927	0.960158	8.6493	0.508704	4.58861	0.624934	5.62558	0.834634	7.49759		
0.535837	4.77464	0.224408	2.00926	0.536079	4.7743	0.637924	5.69938	0.741787	6.63681	0.962058	8.59429	0.512347	4.58296	0.627779	5.60419	0.836689	7.45366		
0.539698	4.76945	0.226493	2.01115	0.539942	4.76913	0.640871	5.67844	0.744384	6.60499	0.96397	8.54028	0.515983	4.57734	0.630635	5.58325	0.838754	7.41056		
0.543571	4.76444	0.228578	2.01301	0.543815	4.76413	0.643837	5.65801	0.746992	6.57379	0.965893	8.48727	0.519613	4.57175	0.633503	5.56275	0.840831	7.36825		
0.547453	4.7596	0.230662	2.01484	0.547698	4.7593	0.646823	5.63809	0.749613	6.5432	0.967827	8.43521	0.523236	4.5662	0.636381	5.54267	0.842918	7.32672		
0.551344	4.75492	0.232747	2.01664	0.551589	4.75463	0.649828	5.61866	0.752245	6.5132	0.969773	8.38408	0.526851	4.56066	0.63927	5.52302	0.845017	7.28596		
0.555244	4.75038	0.234831	2.0184	0.55549	4.7501	0.652853	5.5997	0.754888	6.48379	0.97173	8.33388	0.530459	4.55516	0.642169	5.50377	0.847125	7.24593		
0.559151	4.74598	0.236915	2.02014	0.559397	4.7457	0.655896	5.5812	0.757543	6.45493	0.973698	8.28456	0.534059	4.54967	0.64508	5.48492	0.849245	7.20662		
0.563065	4.7417	0.238999	2.02185	0.563312	4.74144	0.658957	5.56314	0.760209	6.42663	0.975677	8.23611	0.537651	4.5442	0.648002	5.46646	0.851374	7.16802		
0.566986	4.73755	0.241083	2.02352	0.567233	4.73729	0.662036	5.54552	0.762886	6.39886	0.977668	8.18851	0.541234	4.53874	0.650935	5.44837	0.853514	7.13011		
0.570913	4.73351	0.243167	2.02518	0.571161	4.73326	0.665132	5.52831	0.765574	6.37162	0.979669	8.14174	0.544808	4.5333	0.653878	5.43066	0.855665	7.09287		
0.574845	4.72958	0.24525	2.0268	0.575093	4.72933	0.668246	5.51151	0.768273	6.34488	0.981681	8.09577	0.548374	4.52787	0.656832	5.41331	0.857825	7.05628		
0.578782	4.72575	0.247333	2.0284	0.57903	4.72551	0.671376	5.4951	0.770983	6.31865	0.983704	8.0506	0.55193	4.52244	0.659797	5.39631	0.859996	7.02034		
0.582724	4.722	0.249416	2.02997	0.582972	4.72177	0.674523	5.47907	0.773704	6.29289	0.985737	8.00619	0.555477	4.51702	0.662773	5.37965	0.862177	6.98501		
0.586669	4.71835	0.251499	2.03152	0.586917	4.71812	0.677686	5.46342	0.776436	6.26762	0.987781	7.96254	0.559014	4.5116	0.66576	5.36333	0.864368	6.9503		
0.590617	4.71478	0.253582	2.03304	0.590866	4.71456	0.680865	5.44812	0.779178	6.2428	0.989836	7.91962	0.562541	4.50618	0.668757	5.34735	0.866568	6.91618		
0.594569	4.71128	0.255664	2.03454	0.594818	4.71107	0.684059	5.43317	0.781931	6.21844	0.991901	7.87742	0.566057	4.50076	0.671765	5.33168	0.868779	6.88265		
0.598523	4.70786	0.257747	2.03601	0.598772	4.70765	0.687268	5.41857	0.784695	6.19452	0.993977	7.83593	0.569563	4.49533	0.674785	5.31633	0.870999	6.84968		
0.60248	4.7045	0.259829	2.03747	0.602729	4.70429	0.690492	5.40429	0.787469	6.17103	0.996063	7.79512	0.573057	4.48989	0.677814	5.30129	0.87323	6.81727		
0.606438	4.70121	0.261911	2.0389	0.606687	4.701	0.693731	5.39033	0.790254	6.14797	0.998159	7.75497	0.576541	4.48445	0.680855	5.28655	0.875469	6.7854		
0.610397	4.69797	0.263993	2.0403	0.610646	4.69777	0.696984	5.37668	0.793048	6.12531	1.00026	7.71549	0.580013	4.479	0.683907	5.2721	0.877719	6.75406		
0.614358	4.69479	0.266074	2.04169	0.614607	4.69459	0.700251	5.36333	0.795854	6.10306			0.583473	4.47353	0.68697	5.25795	0.879978	6.72324		
0.618319	4.69165	0.268156	2.04306	0.618568	4.69146	0.703531	5.35028	0.798669	6.0812			0.586921	4.46805	0.690043	5.24408	0.882246	6.69293		
0.62228	4.68856	0.270237	2.0444	0.622529	4.68837	0.706825	5.33751	0.801494	6.05972			0.590357	4.46255	0.693127	5.23048	0.884524	6.66311		
0.626241	4.68552	0.272318	2.04573	0.626491	4.68533	0.710133	5.32502	0.80433	6.03863			0.59378	4.45704	0.696223	5.21716	0.886811	6.63379		
0.630202	4.68251	0.2744	2.04704	0.630452	4.68233	0.713453	5.3128	0.807176	6.0179			0.59719	4.4515	0.699329	5.2041	0.889108	6.60493		
0.634163	4.67955	0.276481	2.04832	0.634412	4.67936	0.716786	5.30084	0.810031	5.99753			0.600587	4.44595	0.702446	5.19131	0.891414	6.57654		
0.638122	4.67661	0.278561	2.04959	0.638372	4.67643	0.720131	5.28914	0.812897	5.97751			0.60397	4.44037	0.705574	5.17876	0.893729	6.54861		
0.642081	4.67371	0.280642	2.05084	0.64233	4.67353	0.723488	5.27769	0.815772	5.95784			0.60734	4.43477	0.708713	5.16647	0.896053	6.52112		
0.646037	4.67083	0.282723	2.05208	0.646286	4.67065	0.726858	5.26647	0.818658	5.9385			0.610696	4.42914	0.711863	5.15443	0.898386	6.49407		
0.649992	4.66798	0.284803	2.05329	0.650241	4.6678	0.730239	5.25549	0.821553	5.91949			0.614038	4.42349	0.715024	5.14262	0.900729	6.46744		
0.653945	4.66515	0.286884	2.05449	0.654194	4.66498	0.733632	5.24475	0.824458	5.90081			0.617365	4.41781	0.718196	5.13106	0.90308	6.44124		
0.657895	4.66235	0.288964	2.05567	0.658144	4.66217	0.737036	5.23422	0.827372	5.88245			0.620678	4.4121	0.721379	5.11972	0.905441	6.41544		
0.661843	4.65956	0.291044	2.05683	0.662091	4.65938	0.740452	5.22391	0.830297	5.86439			0.623976	4.40636	0.724573	5.10861	0.90781	6.39005		
0.665788	4.65678	0.293124	2.05798	0.666036	4.65661	0.743878	5.21381	0.83323	5.84664			0.627259	4.40058	0.727778	5.09772	0.910189	6.36505		
0.66973	4.65403	0.295204	2.05912	0.669978	4.65385	0.747315	5.20392	0.836174	5.82918			0.630526	4.39478	0.730994	5.08704	0.912576	6.34043		
0.673668	4.65128	0.297283	2.06023	0.673916	4.65111	0.750763	5.19423	0.839127	5.81202			0.633778	4.38895	0.734221	5.07658	0.914972	6.31619		
0.677603	4.64854	0.299363	2.06134	0.67785	4.64837	0.754221	5.18473	0.842089	5.79514			0.637015	4.38308	0.737459	5.06633	0.917377	6.29232		
0.681534	4.64582	0.301443	2.06242	0.681781	4.64564	0.75769	5.17543	0.845061	5.77854			0.640235	4.37718	0.740708	5.05629	0.919791	6.26882		
0.68546	4.6431	0.303522	2.0635	0.685707	4.64292	0.761168	5.16631	0.848043	5.76222			0.643439	4.37124	0.743967	5.04644	0.922213	6.24567		
0.689383	4.64038	0.305601	2.06456	0.68963	4.64021	0.764656	5.15737	0.851034	5.74616			0.646627	4.36527	0.747237	5.03679	0.924645	6.22287		
0.693301	4.63767	0.30768	2.0656	0.693547	4.6375	0.768155	5.14861	0.854034	5.73037			0.649799	4.35926	0.750519	5.02734	0.927085	6.20041		
0.697214	4.63496	0.30976	2.06663	0.69746	4.63478	0.771662	5.14002	0.857043	5.71484			0.652954	4.35322	0.75381	5.01807	0.929533	6.17829		
0.701122	4.63224	0.311839	2.06765	0.701368	4.63207	0.775179	5.13161	0.860062	5.69956			0.656093	4.34714	0.757113	5.00899	0.931991	6.1565		
0.705025	4.62953	0.313917	2.06866	0.70527	4.62936	0.778706	5.12335	0.86309	5.68453			0.659214	4.34103	0.760426	5.00009	0.934457	6.13503		
0.708922	4.62682	0.315996	2.06965	0.709167	4.62665	0.782242	5.11526	0.866128	5.66974			0.662319	4.33488	0.763749	4.99136	0.936931	6.11388		
0.712814	4.6241	0.318075	2.07063	0.713059	4.62393	0.785786	5.10732	0.869174	5.6552			0.665407	4.32869	0.767083	4.98281	0.939415	6.09304		
0.716699	4.62137	0.320154	2.07159	0.716944	4.6212	0.78934	5.09954	0.87223	5.64088			0.668477	4.32246	0.770427	4.97443	0.941906	6.07251		
0.720579	4.61864	0.322232	2.07255	0.720823	4.61847	0.792902	5.0919	0.875295	5.6268			0.67153	4.3162	0.773782	4.96621	0.944407	6.05227		
0.724453	4.61591	0.32431	2.07349	0.724696	4.61573	0.796473	5.08441	0.87837	5.61295			0.674566	4.30991	0.777146	4.95816	0.946916	6.03233		
0.72832	4.61316	0.326389	2.07442	0.728563	4.61299	0.800053	5.07707	0.881453	5.59932			0.677585	4.30357	0.780521	4.95026	0.949433	6.01268		
0.73218	4.6104	0.328467	2.07534	0.732423	4.61023	0.803641	5.06986	0.884546	5.5859			0.680586	4.29721	0.783906	4.94252	0.951959	5.99332		
0.736033	4.60763	0.330545	2.07625	0.736276	4.60746	0.807237	5.06279	0.887648	5.5727			0.68357	4.2908	0.7873	4.93493	0.954494	5.97423		
0.739879	4.60485	0.332623	2.07715	0.740121	4.60468	0.810841	5.05585	0.890759	5.55971			0.686536	4.28437	0.790704	4.92749	0.957037	5.95542		
0.743718	4.60206	0.334701	2.07803	0.74396	4.60189	0.814453	5.04904	0.893879	5.54693			0.689484	4.27789	0.794117	4.9202	0.959588	5.93688		
0.74755	4.59926	0.336779	2.07891	0.747791	4.59908	0.818074	5.04236	0.897008	5.53435			0.692415	4.27138	0.79754	4.91304	0.962149	5.9186		
0.751374	4.59643	0.338857	2.07977	0.751614	4.59626	0.821702	5.03581	0.900146	5.52197			0.695328	4.26484	0.800972	4.90603	0.964717	5.90058		
0.75519	4.5936	0.340935	2.08063	0.75543	4.59342	0.825338	5.02937	0.903294	5.50979			0.698224	4.25827	0.804413	4.89915	0.967294	5.88282		
0.758998	4.59074	0.343012	2.08147	0.759237	4.59056	0.828981	5.02306	0.90645	5.4978			0.701102	4.25166	0.807863	4.8924	0.969879	5.86531		
0.762797	4.58787	0.34509	2.08231	0.763036	4.58769	0.832632	5.01686	0.909616	5.486			0.703962	4.24503	0.811322	4.88578	0.972473	5.84804		
0.766589	4.58498	0.347168	2.08313	0.766827	4.5848	0.836291	5.01077	0.91279	5.47438			0.706805	4.23836	0.814789	4.87928	0.975076	5.83102		
0.770372	4.58207	0.349245	2.08395	0.77061	4.58189	0.839956	5.00479	0.915974	5.46295			0.70963	4.23166	0.818265	4.87291	0.977686	5.81424		
0.774146	4.57915	0.351322	2.08475	0.774383	4.57896	0.843629	4.99893	0.919167	5.4517			0.712438	4.22493	0.821749	4.86665	0.980306	5.79769		
0.777911	4.5762	0.3534	2.08555	0.778148	4.57601	0.847309	4.99317	0.922369	5.44062			0.715229	4.21817	0.825241	4.86051	0.982933	5.78138		
0.781668	4.57323	0.355477	2.08634	0.781904	4.57304	0.850996	4.98751	0.92558	5.42972			0.718002	4.21138	0.828741	4.85449	0.985569	5.76529		
0.785415	4.57024	0.357554	2.08711	0.78565	4.57005	0.85469	4.98196	0.9288	5.41899			0.720757	4.20457	0.832248	4.84857	0.988214	5.74942		
0.789152	4.56723	0.359631	2.08788	0.789387	4.56704	0.85839	4.9765	0.932029	5.40843			0.723496	4.19773	0.835763	4.84276	0.990867	5.73378		
0.792881	4.5642	0.361708	2.08864	0.793115	4.564	0.862098	4.97114	0.935267	5.39804			0.726217	4.19087	0.839285	4.83706	0.993528	5.71835		
0.796599	4.56114	0.363785	2.0894	0.796833	4.56095	0.865811	4.96588	0.938514	5.38781			0.728922	4.18398	0.842814	4.83145	0.996198	5.70313		
0.800308	4.55806	0.365862	2.09014	0.800541	4.55786	0.869532	4.9607	0.94177	5.37774			0.731609	4.17706	0.84635	4.82595	0.998876	5.68812		
0.804007	4.55496	0.367939	2.09088	0.80424	4.55476	0.873258	4.95562	0.945035	5.36783			0.73428	4.17013	0.849893	4.82054	1.00156	5.67332		
0.807696	4.55183	0.370015	2.0916	0.807928	4.55163	0.876991	4.95063	0.94831	5.35807			0.736933	4.16317	0.853442	4.81522				
0.811375	4.54868	0.372092	2.09232	0.811606	4.54848	0.88073	4.94573	0.951593	5.34847			0.73957	4.15619	0.856997	4.81				
0.815043	4.5455	0.374169	2.09303	0.815274	4.5453	0.884475	4.94091	0.954885	5.33901			0.742191	4.14919	0.860558	4.80486				
0.818701	4.5423	0.376245	2.09374	0.818931	4.5421	0.888226	4.93617	0.958187	5.32971			0.744795	4.14217	0.864125	4.79981				
0.822349	4.53907	0.378322	2.09443	0.822578	4.53887	0.891982	4.93151	0.961497	5.32055			0.747382	4.13514	0.867698	4.79484				
0.825986	4.53582	0.380398	2.09512	0.826214	4.53562	0.895744	4.92693	0.964817	5.31153			0.749954	4.12809	0.871276	4.78995				
0.829612	4.53255	0.382475	2.0958	0.82984	4.53234	0.899512	4.92243	0.968146	5.30266			0.752509	4.12102	0.874859	4.78514				
0.833227	4.52924	0.384551	2.09648	0.833455	4.52903	0.903285	4.918	0.971484	5.29393			0.755049	4.11394	0.878447	4.7804				
0.836832	4.52591	0.386627	2.09715	0.837058	4.5257	0.907064	4.91365	0.974831	5.28533			0.757573	4.10684	0.88204	4.77574				
0.840425	4.52256	0.388703	2.09781	0.840651	4.52235	0.910848	4.90937	0.978187	5.27687			0.760081	4.09973	0.885637	4.77115				
0.844008	4.51918	0.39078	2.09846	0.844233	4.51897	0.914636	4.90516	0.981552	5.26854			0.762573	4.09261	0.889239	4.76662				
0.847579	4.51577	0.392856	2.09911	0.847803	4.51556	0.91843	4.90101	0.984926	5.26035			0.76505	4.08547	0.892844	4.76217				
0.851139	4.51234	0.394932	2.09974	0.851363	4.51212	0.922228	4.89694	0.988309	5.25228			0.767512	4.07833	0.896454	4.75778				
0.854687	4.50888	0.397008	2.10038	0.85491	4.50866	0.926031	4.89292	0.991701	5.24434			0.769959	4.07117	0.900067	4.75345				
0.858225	4.5054	0.399084	2.101	0.858447	4.50518	0.929839	4.88897	0.995102	5.23653			0.772391	4.06401	0.903683	4.74918				
0.86175	4.50189	0.40116	2.10162	0.861972	4.50167	0.933651	4.88509	0.998513	5.22884			0.774808	4.05684	0.907303	4.74497				
0.865265	4.49835	0.403235	2.10224	0.865486	4.49813	0.937467	4.88126	1.00193	5.22127			0.777211	4.04967	0.910926	4.74082				
0.868767	4.49479	0.405311	2.10285	0.868987	4.49457	0.941287	4.87749					0.779599	4.04248	0.914552	4.73672				
0.872258	4.4912	0.407387	2.10345	0.872478	4.49098	0.945111	4.87377					0.781972	4.0353	0.91818	4.73267				
0.875738	4.48759	0.409462	2.10404	0.875957	4.48736	0.948939	4.87011					0.784332	4.02811	0.92181	4.72868				
0.879206	4.48395	0.411538	2.10463	0.879424	4.48372	0.952771	4.86651					0.786677	4.02091	0.925443	4.72473				
0.882662	4.48029	0.413614	2.10522	0.882879	4.48006	0.956606	4.86296					0.789009	4.01372	0.929078	4.72083				
0.886106	4.4766	0.415689	2.10579	0.886322	4.47637	0.960445	4.85945					0.791327	4.00652	0.932715	4.71698				
0.889538	4.47289	0.417765	2.10637	0.889754	4.47266	0.964287	4.856					0.793631	3.99932	0.936353	4.71317				
0.892959	4.46915	0.41984	2.10693	0.893174	4.46892	0.968132	4.8526					0.795922	3.99212	0.939992	4.7094				
0.896368	4.46539	0.421916	2.1075	0.896582	4.46515	0.971979	4.84924					0.7982	3.98493	0.943633	4.70568				
0.899765	4.46161	0.423991	2.10805	0.899978	4.46137	0.97583	4.84592					0.800465	3.97773	0.947275	4.70199				
0.90315	4.4578	0.426066	2.1086	0.903362	4.45756	0.979683	4.84265					0.802717	3.97054	0.950917	4.69835				
0.906523	4.45396	0.428141	2.10915	0.906735	4.45372	0.983539	4.83942					0.804956	3.96335	0.95456	4.69473				
0.909884	4.45011	0.430217	2.10969	0.910095	4.44986	0.987397	4.83623					0.807183	3.95616	0.958204	4.69116				
0.913234	4.44623	0.432292	2.11022	0.913444	4.44598	0.991257	4.83309					0.809397	3.94898	0.961848	4.68762				
0.916571	4.44233	0.434367	2.11075	0.916781	4.44208	0.995119	4.82997					0.811599	3.94181	0.965492	4.68411				
0.919897	4.4384	0.436442	2.11128	0.920106	4.43815	0.998983	4.8269					0.813789	3.93464	0.969135	4.68063				
0.923211	4.43446	0.438517	2.1118	0.923419	4.43421	1.00285	4.82386					0.815967	3.92748	0.972779	4.67718				
0.926512	4.43049	0.440592	2.11231	0.92672	4.43024							0.818133	3.92032	0.976422	4.67375				
0.929802	4.4265	0.442667	2.11282	0.930009	4.42625							0.820288	3.91318	0.980064	4.67036				
0.933081	4.42249	0.444742	2.11333	0.933287	4.42224							0.822431	3.90604	0.983705	4.66699				
0.936347	4.41846	0.446817	2.11383	0.936552	4.41821							0.824563	3.89891	0.987346	4.66365				
0.939601	4.41441	0.448891	2.11432	0.939806	4.41415							0.826684	3.8918	0.990985	4.66033				
0.942844	4.41034	0.450966	2.11482	0.943048	4.41008							0.828794	3.88469	0.994623	4.65703				
0.946075	4.40625	0.453041	2.1153	0.946278	4.40599							0.830893	3.8776	0.998259	4.65376				
0.949294	4.40214	0.455116	2.11579	0.949496	4.40188							0.832981	3.87051	1.00189	4.6505				
0.952502	4.39801	0.45719	2.11627	0.952703	4.39775							0.835059	3.86344						
0.955697	4.39387	0.459265	2.11674	0.955898	4.3936							0.837126	3.85638						
0.958881	4.3897	0.46134	2.11721	0.959081	4.38944							0.839184	3.84934						
0.962054	4.38552	0.463414	2.11768	0.962253	4.38525							0.841231	3.84231						
0.965214	4.38132	0.465489	2.11814	0.965413	4.38105							0.843269	3.8353						
0.968363	4.3771	0.467563	2.1186	0.968561	4.37684							0.845296	3.8283						
0.971501	4.37287	0.469638	2.11905	0.971698	4.3726							0.847314	3.82131						
0.974627	4.36862	0.471712	2.1195	0.974823	4.36835							0.849323	3.81434						
0.977741	4.36435	0.473786	2.11994	0.977937	4.36408							0.851323	3.80739						
0.980845	4.36007	0.475861	2.12039	0.98104	4.3598							0.853313	3.80046						
0.983936	4.35577	0.477935	2.12082	0.984131	4.3555							0.855294	3.79354						
0.987016	4.35146	0.480009	2.12126	0.98721	4.35119							0.857267	3.78664						
0.990085	4.34714	0.482083	2.12169	0.990278	4.34686							0.85923	3.77976						
0.993143	4.34279	0.484158	2.12212	0.993335	4.34252							0.861186	3.7729						
0.996189	4.33844	0.486232	2.12254	0.996381	4.33817							0.863132	3.76605						
0.999224	4.33407	0.488306	2.12296	0.999415	4.3338							0.865071	3.75923						
1.00225	4.32969	0.49038	2.12338	1.00244	4.32942							0.867001	3.75243						
		0.492454	2.12379									0.868923	3.74564						
		0.494528	2.1242									0.870838	3.73888						
		0.496602	2.1246									0.872745	3.73213						
		0.498676	2.12501									0.874644	3.72541						
		0.50075	2.12541									0.876536	3.71871						
		0.502824	2.1258									0.87842	3.71204						
		0.504898	2.1262									0.880297	3.70538						
		0.506972	2.12658									0.882167	3.69875						
		0.509045	2.12697									0.88403	3.69213						
		0.511119	2.12735									0.885887	3.68555						
		0.513193	2.12773									0.887736	3.67898						
		0.515267	2.12811									0.88958	3.67244						
		0.51734	2.12849									0.891416	3.66592						
		0.519414	2.12886									0.893246	3.65943						
		0.521488	2.12923									0.895071	3.65296						
		0.523561	2.12959									0.896889	3.64651						
		0.525635	2.12995									0.8987	3.64009						
		0.527708	2.13031									0.900507	3.63369						
		0.529782	2.13067									0.902307	3.62732						
		0.531855	2.13102									0.904102	3.62097						
		0.533929	2.13137									0.905891	3.61465						
		0.536002	2.13172									0.907675	3.60835						
		0.538076	2.13207									0.909453	3.60208						
		0.540149	2.13241									0.911226	3.59584						
		0.542222	2.13275									0.912995	3.58962						
		0.544296	2.13309									0.914758	3.58342						
		0.546369	2.13343									0.916516	3.57725						
		0.548442	2.13376									0.918269	3.57111						
		0.550516	2.13409									0.920018	3.56499						
		0.552589	2.13442									0.921762	3.5589						
		0.554662	2.13474									0.923502	3.55284						
		0.556735	2.13507									0.925237	3.5468						
		0.558808	2.13539									0.926968	3.54079						
		0.560881	2.13571									0.928695	3.53481						
		0.562954	2.13602									0.930417	3.52885						
		0.565028	2.13633									0.932136	3.52292						
		0.567101	2.13665									0.93385	3.51701						
		0.569174	2.13695									0.935561	3.51114						
		0.571247	2.13726									0.937268	3.50529						
		0.57332	2.13757									0.938971	3.49946						
		0.575392	2.13787									0.940671	3.49367						
		0.577465	2.13817									0.942367	3.48789						
		0.579538	2.13847									0.944059	3.48215						
		0.581611	2.13876									0.945748	3.47644						
		0.583684	2.13906									0.947434	3.47075						
		0.585757	2.13935									0.949117	3.46508						
		0.58783	2.13964									0.950797	3.45945						
		0.589902	2.13993									0.952473	3.45384						
		0.591975	2.14021									0.954146	3.44826						
		0.594048	2.1405									0.955817	3.4427						
		0.596121	2.14078									0.957485	3.43717						
		0.598193	2.14106									0.95915	3.43167						
		0.600266	2.14133									0.960812	3.4262						
		0.602339	2.14161									0.962471	3.42075						
		0.604411	2.14188									0.964128	3.41533						
		0.606484	2.14216									0.965783	3.40994						
		0.608556	2.14243									0.967435	3.40457						
		0.610629	2.14269									0.969084	3.39923						
		0.612702	2.14296									0.970731	3.39392						
		0.614774	2.14323									0.972376	3.38863						
		0.616847	2.14349									0.974019	3.38337						
		0.618919	2.14375									0.97566	3.37814						
		0.620991	2.14401									0.977298	3.37293						
		0.623064	2.14427									0.978935	3.36775						
		0.625136	2.14452									0.980569	3.36259						
		0.627209	2.14478									0.982202	3.35746						
		0.629281	2.14503									0.983833	3.35236						
		0.631353	2.14528									0.985462	3.34729						
		0.633426	2.14553									0.987089	3.34224						
		0.635498	2.14578									0.988714	3.33721						
		0.63757	2.14602									0.990338	3.33221						
		0.639643	2.14627									0.99196	3.32724						
		0.641715	2.14651									0.993581	3.3223						
		0.643787	2.14675									0.9952	3.31737						
		0.645859	2.14699									0.996818	3.31248						
		0.647931	2.14723									0.998434	3.30761						
		0.650004	2.14747									1.00005	3.30277						
		0.652076	2.1477																
		0.654148	2.14793																
		0.65622	2.14817																
		0.658292	2.1484																
		0.660364	2.14863																
		0.662436	2.14885																
		0.664508	2.14908																
		0.66658	2.1493																
		0.668652	2.14953																
		0.670724	2.14975																
		0.672796	2.14997																
		0.674868	2.15019																
		0.67694	2.15041																
		0.679012	2.15062																
		0.681084	2.15084																
		0.683156	2.15105																
		0.685227	2.15127																
		0.687299	2.15148																
		0.689371	2.15169																
		0.691443	2.1519																
		0.693515	2.1521																
		0.695586	2.15231																
		0.697658	2.15251																
		0.69973	2.15272																
		0.701801	2.15292																
		0.703873	2.15312																
		0.705945	2.15332																
		0.708016	2.15352																
		0.710088	2.15372																
		0.71216	2.15392																
		0.714231	2.15411																
		0.716303	2.15431																
		0.718374	2.1545																
		0.720446	2.15469																
		0.722517	2.15488																
		0.724589	2.15507																
		0.72666	2.15526																
		0.728732	2.15545																
		0.730803	2.15563																
		0.732875	2.15582																
		0.734946	2.156																
		0.737018	2.15619																
		0.739089	2.15637																
		0.74116	2.15655																
		0.743232	2.15673																
		0.745303	2.15691																
		0.747374	2.15709																
		0.749446	2.15727																
		0.751517	2.15744																
		0.753588	2.15762																
		0.75566	2.15779																
		0.757731	2.15796																
		0.759802	2.15814																
		0.761873	2.15831																
		0.763944	2.15848																
		0.766016	2.15865																
		0.768087	2.15882																
		0.770158	2.15898																
		0.772229	2.15915																
		0.7743	2.15932																
		0.776371	2.15948																
		0.778442	2.15965																
		0.780513	2.15981																
		0.782584	2.15997																
		0.784655	2.16013																
		0.786727	2.16029																
		0.788798	2.16045																
		0.790868	2.16061																
		0.792939	2.16077																
		0.79501	2.16093																
		0.797081	2.16108																
		0.799152	2.16124																
		0.801223	2.16139																
		0.803294	2.16155																
		0.805365	2.1617																
		0.807436	2.16185																
		0.809507	2.162																
		0.811578	2.16215																
		0.813648	2.1623																
		0.815719	2.16245																
		0.81779	2.1626																
		0.819861	2.16275																
		0.821931	2.16289																
		0.824002	2.16304																
		0.826073	2.16318																
		0.828144	2.16333																
		0.830214	2.16347																
		0.832285	2.16362																
		0.834356	2.16376																
		0.836426	2.1639																
		0.838497	2.16404																
		0.840568	2.16418																
		0.842638	2.16432																
		0.844709	2.16446																
		0.84678	2.1646																
		0.84885	2.16473																
		0.850921	2.16487																
		0.852991	2.16501																
		0.855062	2.16514																
		0.857132	2.16528																
		0.859203	2.16541																
		0.861273	2.16554																
		0.863344	2.16568																
		0.865414	2.16581																
		0.867485	2.16594																
		0.869555	2.16607																
		0.871625	2.1662																
		0.873696	2.16633																
		0.875766	2.16646																
		0.877837	2.16659																
		0.879907	2.16671																
		0.881977	2.16684																
		0.884048	2.16697																
		0.886118	2.16709																
		0.888188	2.16722																
		0.890259	2.16734																
		0.892329	2.16747																
		0.894399	2.16759																
		0.896469	2.16771																
		0.89854	2.16783																
		0.90061	2.16795																
		0.90268	2.16808																
		0.90475	2.1682																
		0.90682	2.16832																
		0.908891	2.16843																
		0.910961	2.16855																
		0.913031	2.16867																
		0.915101	2.16879																
		0.917171	2.16891																
		0.919241	2.16902																
		0.921311	2.16914																
		0.923381	2.16925																
		0.925451	2.16937																
		0.927521	2.16948																
		0.929591	2.1696																
		0.931661	2.16971																
		0.933731	2.16982																
		0.935801	2.16993																
		0.937871	2.17005																
		0.939941	2.17016																
		0.942011	2.17027																
		0.944081	2.17038																
		0.946151	2.17049																
		0.948221	2.1706																
		0.950291	2.17071																
		0.952361	2.17081																
		0.954431	2.17092																
		0.956501	2.17103																
		0.95857	2.17113																
		0.96064	2.17124																
		0.96271	2.17135																
		0.96478	2.17145																
		0.96685	2.17156																
		0.968919	2.17166																
		0.970989	2.17176																
		0.973059	2.17187																
		0.975129	2.17197																
		0.977198	2.17207																
		0.979268	2.17218																
		0.981338	2.17228																
		0.983407	2.17238																
		0.985477	2.17248																
		0.987547	2.17258																
		0.989616	2.17268																
		0.991686	2.17278																
		0.993756	2.17288																
		0.995825	2.17298																
		0.997895	2.17307																
		0.999964	2.17317																
		1.00203	2.17327																
