Sym0		Asym0		Sym1		Sym2		Sym3		Sym4		Asym1		Asym2		Asym3		Asym4	
262  Points		500  Points		262  Points		229  Points		213  Points		147  Points		357  Points		239  Points		199  Points		137  Points	
Freq (MHz)	Vph (m/ms)	Freq (MHz)	Vph (m/ms)	Freq (MHz)	Vph (m/ms)	Freq (MHz)	Vph (m/ms)	Freq (MHz)	Vph (m/ms)	Freq (MHz)	Vph (m/ms)	Freq (MHz)	Vph (m/ms)	Freq (MHz)	Vph (m/ms)	Freq (MHz)	Vph (m/ms)	Freq (MHz)	Vph (m/ms)
0.27952	415.59	7.143e-005	0.0684794	0.279521	400.927	0.453187	1347.33	0.559017	12567.7	0.838529	1442.21	0.139781	250.838	0.419267	911.657	0.698772	3745.28	0.906376	1012.77
0.279576	174.269	0.00025569	0.129477	0.279578	171.638	0.453202	357.4	0.559034	572.677	0.838549	554.187	0.139945	93.9889	0.419303	301.312	0.698786	624.882	0.906388	496.204
0.279677	110.284	0.00055233	0.190034	0.27968	109.225	0.453236	206.04	0.559081	293.039	0.838588	343.007	0.140257	57.9421	0.419375	180.509	0.698821	340.894	0.90641	328.607
0.279823	80.6949	0.000959498	0.249988	0.279828	80.1277	0.453288	144.754	0.559158	196.917	0.838644	248.376	0.140717	41.9756	0.419483	128.874	0.698876	234.392	0.90644	245.645
0.280015	63.649	0.00147486	0.309203	0.280021	63.2963	0.453357	111.578	0.559266	148.297	0.838718	194.679	0.14132	32.9877	0.419626	100.229	0.698951	178.607	0.906479	196.134
0.280252	52.5696	0.00209522	0.367482	0.280259	52.3294	0.453445	90.7829	0.559404	118.947	0.83881	160.082	0.142066	27.238	0.419806	82.0194	0.699047	144.281	0.906527	163.237
0.280534	44.794	0.00281711	0.424695	0.280542	44.62	0.453551	76.529	0.559573	99.3092	0.838921	135.933	0.14295	23.2537	0.420022	69.4243	0.699164	121.031	0.906584	139.794
0.28086	39.0385	0.00363654	0.480709	0.28087	38.9067	0.453676	66.1506	0.559772	85.2486	0.839049	118.121	0.143968	20.3371	0.420273	60.1958	0.6993	104.242	0.906649	122.242
0.281231	34.6082	0.00454938	0.535433	0.281242	34.505	0.453818	58.2571	0.560001	74.6863	0.839195	104.443	0.145117	18.1151	0.42056	53.1449	0.699458	91.5504	0.906723	108.609
0.281647	31.0943	0.00555105	0.588763	0.281658	31.0113	0.45398	52.0523	0.56026	66.4623	0.839359	93.6088	0.146391	16.3702	0.420883	47.5834	0.699635	81.6203	0.906807	97.7141
0.282106	28.2402	0.00663689	0.640624	0.282119	28.1721	0.454159	47.047	0.560549	59.8786	0.839541	84.8161	0.147785	14.9668	0.421241	43.0856	0.699833	73.6393	0.906899	88.808
0.282609	25.877	0.00780222	0.690967	0.282623	25.8201	0.454358	42.9247	0.560868	54.4896	0.839742	77.538	0.149296	13.8161	0.421634	39.3737	0.700051	67.0854	0.906999	81.392
0.283155	23.8891	0.00904232	0.739753	0.28317	23.8409	0.454575	39.471	0.561217	49.9979	0.83996	71.4144	0.150916	12.8575	0.422063	36.259	0.700289	61.6077	0.907109	75.1211
0.283745	22.1942	0.0103524	0.786947	0.283761	22.1528	0.454811	36.5357	0.561596	46.1971	0.840196	66.1912	0.152642	12.0482	0.422528	33.6088	0.700548	56.9616	0.907228	69.7493
0.284376	20.7327	0.0117279	0.832543	0.284393	20.6968	0.455067	34.0107	0.562005	42.9398	0.840449	61.6837	0.154469	11.3572	0.423027	31.3269	0.700827	52.9713	0.907355	65.0962
0.28505	19.46	0.0131644	0.876543	0.285068	19.4286	0.455341	31.8158	0.562443	40.1175	0.840721	57.7543	0.156391	10.7614	0.423561	29.342	0.701126	49.5075	0.907492	61.0268
0.285765	18.3421	0.0146574	0.918949	0.285785	18.3145	0.455635	29.8905	0.562911	37.6489	0.841011	54.2989	0.15814	10.3059	0.42413	27.6	0.701445	46.4727	0.907638	57.4379
0.286522	17.353	0.0162031	0.95979	0.286542	17.3284	0.455949	28.1882	0.563408	35.4717	0.841318	51.2367	0.159684	9.95738	0.424733	26.0593	0.701784	43.792	0.907793	54.2492
0.287319	16.4718	0.0177973	0.999082	0.28734	16.4498	0.456282	26.6725	0.563935	33.5376	0.841643	48.5043	0.160994	9.69319	0.425371	24.6872	0.702144	41.4071	0.907956	51.3973
0.288156	15.6821	0.0194363	1.03686	0.288179	15.6624	0.456636	25.3144	0.56449	31.8082	0.841986	46.0514	0.162053	9.4981	0.426044	23.4578	0.702523	39.2717	0.908129	48.8316
0.289033	14.9708	0.0211168	1.07317	0.289057	14.9529	0.45701	24.0909	0.565075	30.2529	0.842347	43.8372	0.162842	9.36182	0.42675	22.3502	0.702923	37.3488	0.908312	46.5113
0.289949	14.3268	0.0228353	1.10804	0.289973	14.3106	0.457404	22.9829	0.565688	28.8468	0.842725	41.8288	0.163353	9.27759	0.42749	21.3473	0.703342	35.6083	0.908503	44.4027
0.290903	13.7414	0.0245889	1.14152	0.290929	13.7266	0.457819	21.975	0.56633	27.5697	0.843121	39.9987	0.164094	9.16041	0.428263	20.4352	0.703781	34.0256	0.908704	42.4782
0.291895	13.207	0.0263746	1.17366	0.291922	13.1935	0.458255	21.0544	0.567001	26.4047	0.843535	38.3244	0.164909	9.038	0.429071	19.6022	0.70424	32.5803	0.908914	40.7148
0.292925	12.7175	0.0281898	1.2045	0.292952	12.7051	0.458712	20.2102	0.5677	25.3379	0.843967	36.7868	0.166032	8.87931	0.429911	18.8387	0.704719	31.2552	0.909133	39.093
0.293991	12.2675	0.030032	1.23408	0.294019	12.2561	0.459191	19.4336	0.568427	24.3575	0.844416	35.37	0.167476	8.69054	0.430784	18.1365	0.705218	30.0362	0.909362	37.5966
0.295093	11.8527	0.0318989	1.26247	0.295122	11.8422	0.459691	18.7168	0.569182	23.4535	0.844882	34.0603	0.169257	8.47846	0.43169	17.4887	0.705737	28.911	0.9096	36.2116
0.29623	11.4692	0.0337884	1.28969	0.296261	11.4595	0.460214	18.0532	0.569965	22.6174	0.845366	32.8461	0.171392	8.24992	0.432629	16.8892	0.706275	27.8694	0.909847	34.926
0.297403	11.1137	0.0356986	1.31581	0.297434	11.1046	0.460759	17.4372	0.570776	21.8421	0.845868	31.7174	0.173902	8.01144	0.433599	16.3331	0.706832	26.9023	0.910105	33.7296
0.298609	10.7833	0.0376278	1.34087	0.298641	10.7749	0.461326	16.8641	0.571614	21.1211	0.846387	30.6656	0.176472	7.79524	0.434602	15.8158	0.70741	26.0022	0.910372	32.6133
0.299849	10.4756	0.039574	1.36491	0.299882	10.4678	0.461916	16.3295	0.57248	20.4491	0.846924	29.683	0.179098	7.59853	0.435637	15.3335	0.708006	25.1624	0.910648	31.5695
0.301122	10.1885	0.041536	1.38797	0.30099	10.2169	0.46253	15.8298	0.573372	19.8213	0.847478	28.7632	0.181778	7.41897	0.436703	14.883	0.708622	24.3772	0.910934	30.5914
0.302427	9.91992	0.0435122	1.41011	0.301954	10.0144	0.463166	15.3618	0.574292	19.2336	0.848049	27.9003	0.184509	7.25457	0.4378	14.4612	0.709258	23.6413	0.91123	29.6729
0.303763	9.66829	0.0455015	1.43136	0.302765	9.85421	0.463827	14.9226	0.575238	18.6824	0.848638	27.0893	0.187288	7.10362	0.438928	14.0656	0.709912	22.9504	0.911536	28.8088
0.305131	9.43211	0.0475025	1.45176	0.303414	9.732	0.464512	14.5097	0.576211	18.1643	0.849244	26.3257	0.190113	6.96465	0.440087	13.6939	0.710586	22.3005	0.911852	27.9945
0.306529	9.21007	0.0495143	1.47135	0.303896	9.64452	0.465221	14.1209	0.57721	17.6767	0.849867	25.6055	0.192982	6.83639	0.441276	13.344	0.711279	21.6881	0.912178	27.2257
0.307956	9.00099	0.0515359	1.49016	0.304206	9.58957	0.465955	13.7542	0.578236	17.2168	0.850507	24.9252	0.195891	6.71774	0.442495	13.0142	0.711991	21.1101	0.912513	26.4988
0.309413	8.80382	0.0535662	1.50824	0.304656	9.51194	0.466715	13.4078	0.579287	16.7826	0.851164	24.2814	0.19884	6.60774	0.443744	12.7029	0.712722	20.5637	0.912859	25.8106
0.310898	8.61763	0.0553421	1.52341	0.305148	9.42934	0.467499	13.0803	0.580364	16.3719	0.851839	23.6715	0.201826	6.50555	0.445023	12.4085	0.713472	20.0464	0.913215	25.1579
0.312411	8.44156	0.0568604	1.53594	0.305823	9.31988	0.46831	12.7701	0.581467	15.9829	0.852531	23.0928	0.204848	6.41043	0.44633	12.1299	0.714241	19.5561	0.913581	24.5382
0.313952	8.27487	0.0581187	1.54603	0.306687	9.186	0.469146	12.4759	0.582595	15.614	0.853239	22.5431	0.207903	6.32172	0.447667	11.8657	0.715028	19.0907	0.913958	23.949
0.315519	8.11686	0.0591154	1.55384	0.307747	9.03055	0.470009	12.1967	0.583748	15.2638	0.853965	22.0202	0.21099	6.23885	0.449032	11.6151	0.715834	18.6483	0.914345	23.3881
0.317113	7.9669	0.0598492	1.55949	0.309012	8.85664	0.470899	11.9313	0.584926	14.9308	0.854707	21.5223	0.214108	6.1613	0.450425	11.3769	0.716659	18.2274	0.914742	22.8536
0.318733	7.82445	0.0603192	1.56306	0.310489	8.66753	0.471816	11.6788	0.586129	14.614	0.855466	21.0476	0.217255	6.08861	0.451847	11.1504	0.717502	17.8264	0.91515	22.3437
0.320378	7.68897	0.0609953	1.56814	0.311994	8.48877	0.47276	11.4384	0.587356	14.3121	0.856242	20.5946	0.220429	6.02039	0.453296	10.9348	0.718364	17.444	0.915568	21.8567
0.322048	7.56001	0.061731	1.5736	0.313528	8.31959	0.473733	11.2093	0.588607	14.0242	0.857035	20.1619	0.223631	5.95625	0.454772	10.7293	0.719244	17.079	0.915997	21.3912
0.323742	7.43713	0.0627325	1.58089	0.315088	8.15926	0.474733	10.9906	0.589883	13.7494	0.857845	19.7481	0.226857	5.89587	0.456276	10.5332	0.720142	16.7302	0.916437	20.9457
0.325461	7.31995	0.0640009	1.58992	0.316674	8.00716	0.475762	10.7819	0.591182	13.4868	0.858671	19.352	0.230107	5.83896	0.457608	10.3696	0.721058	16.3965	0.916887	20.5191
0.327205	7.20811	0.0655371	1.60056	0.318287	7.86271	0.476819	10.5824	0.592505	13.2357	0.859513	18.9726	0.233381	5.78525	0.458759	10.2351	0.721992	16.0772	0.917348	20.1101
0.328971	7.10128	0.0673423	1.61267	0.319925	7.72537	0.477764	10.4157	0.593852	12.9953	0.860372	18.6089	0.236676	5.73449	0.459722	10.1273	0.722945	15.7712	0.91782	19.7177
0.330762	6.99916	0.0694175	1.62609	0.321588	7.59467	0.478588	10.2786	0.595221	12.765	0.861248	18.2599	0.239992	5.68647	0.46049	10.0441	0.723915	15.4778	0.918304	19.341
0.332575	6.90147	0.0714963	1.63901	0.323276	7.47017	0.479281	10.1685	0.596614	12.5442	0.86214	17.9247	0.243328	5.64099	0.461059	9.98406	0.724903	15.1962	0.918798	18.979
0.334412	6.80797	0.0735782	1.65147	0.324989	7.35147	0.479837	10.0834	0.598029	12.3324	0.863048	17.6026	0.246683	5.59787	0.461425	9.94611	0.725908	14.9257	0.919303	18.6308
0.336272	6.71841	0.075663	1.66347	0.326725	7.2382	0.48025	10.0221	0.599468	12.129	0.863973	17.2929	0.250057	5.55693	0.461953	9.89222	0.726931	14.6658	0.91982	18.2958
0.338156	6.63257	0.0777503	1.67505	0.328486	7.13003	0.480517	9.98325	0.600928	11.9336	0.864914	16.9948	0.253448	5.51803	0.46253	9.83451	0.727972	14.4158	0.920347	17.9733
0.340063	6.55027	0.0798399	1.68622	0.330269	7.02665	0.480903	9.92813	0.602411	11.7457	0.865871	16.7077	0.256855	5.48104	0.46332	9.75742	0.72903	14.1752	0.920887	17.6624
0.341993	6.47132	0.0819315	1.69701	0.332077	6.92777	0.481326	9.86907	0.603915	11.565	0.866844	16.4311	0.260279	5.44582	0.464328	9.66219	0.730105	13.9436	0.921437	17.3627
0.343947	6.39554	0.0840248	1.70741	0.333907	6.83315	0.481908	9.79015	0.605442	11.391	0.867833	16.1644	0.263717	5.41226	0.46556	9.55028	0.731198	13.7203	0.921999	17.0736
0.345925	6.32278	0.0861196	1.71747	0.335761	6.74253	0.482654	9.69261	0.60699	11.2233	0.868838	15.907	0.26717	5.38024	0.467022	9.42333	0.732307	13.505	0.922573	16.7944
0.347928	6.2529	0.0882157	1.72718	0.337638	6.6557	0.483571	9.57792	0.608559	11.0618	0.869859	15.6586	0.270637	5.34968	0.468723	9.28313	0.733433	13.2973	0.923158	16.5248
0.349955	6.18576	0.0903129	1.73656	0.339539	6.57245	0.484669	9.44773	0.610149	10.906	0.870895	15.4187	0.274116	5.32048	0.470448	9.14849	0.734577	13.0968	0.923755	16.2643
0.352007	6.12123	0.0924112	1.74563	0.341463	6.4926	0.485958	9.30389	0.611761	10.7557	0.871948	15.1868	0.277609	5.29256	0.472198	9.0191	0.735737	12.9031	0.924364	16.0123
0.354086	6.05921	0.0945102	1.75441	0.34341	6.41597	0.487279	9.16567	0.613182	10.629	0.873016	14.9626	0.281113	5.26584	0.473971	8.89468	0.736914	12.716	0.924985	15.7686
0.356191	5.99958	0.09661	1.7629	0.345381	6.3424	0.48863	9.03279	0.614406	10.5239	0.8741	14.7457	0.284629	5.24024	0.475767	8.77496	0.738107	12.5351	0.925618	15.5327
0.358324	5.94226	0.0987103	1.77111	0.347377	6.27174	0.490014	8.905	0.615426	10.4391	0.875199	14.5358	0.288156	5.2157	0.477586	8.65971	0.739316	12.36	0.926262	15.3042
0.360486	5.88713	0.100811	1.77906	0.349398	6.20386	0.491429	8.78202	0.616238	10.3732	0.876314	14.3325	0.291693	5.19216	0.479428	8.54869	0.740542	12.1907	0.926919	15.0829
0.362676	5.83414	0.102912	1.78676	0.351443	6.13863	0.492877	8.66364	0.616839	10.3255	0.877444	14.1356	0.29524	5.16956	0.481293	8.4417	0.741785	12.0266	0.927589	14.8683
0.364897	5.78319	0.105014	1.79422	0.353515	6.07594	0.494356	8.54963	0.617224	10.2952	0.87859	13.9448	0.298796	5.14785	0.48318	8.33853	0.743043	11.8678	0.92827	14.6603
0.367149	5.73421	0.107115	1.80146	0.355613	6.01566	0.495868	8.43979	0.617781	10.2522	0.879751	13.7597	0.302361	5.12698	0.485088	8.23899	0.744317	11.7138	0.928964	14.4585
0.369433	5.68713	0.109217	1.80847	0.357738	5.95772	0.497413	8.33392	0.618387	10.2059	0.880927	13.5802	0.305935	5.10689	0.487019	8.14291	0.745608	11.5646	0.92967	14.2627
0.371752	5.6419	0.111319	1.81526	0.359891	5.902	0.49899	8.23185	0.619217	10.1438	0.882118	13.406	0.309516	5.08755	0.48897	8.05014	0.746914	11.4198	0.930389	14.0726
0.374105	5.59845	0.11342	1.82186	0.362074	5.84843	0.5006	8.13339	0.620273	10.0667	0.883324	13.2369	0.313105	5.06891	0.490942	7.9605	0.748236	11.2793	0.93112	13.8879
0.376494	5.55673	0.115522	1.82825	0.364286	5.79693	0.502243	8.0384	0.621559	9.97554	0.884545	13.0727	0.316701	5.05095	0.492935	7.87387	0.749573	11.143	0.931864	13.7085
0.378921	5.51669	0.117624	1.83446	0.36653	5.74742	0.503919	7.94672	0.623082	9.87136	0.885782	12.9132	0.320304	5.03361	0.494949	7.79009	0.750926	11.0106	0.932621	13.5342
0.381387	5.47828	0.119725	1.84049	0.368805	5.69983	0.505627	7.85821	0.624849	9.75534	0.887033	12.7581	0.323913	5.01687	0.496982	7.70905	0.752117	10.8983	0.93339	13.3646
0.383892	5.44144	0.121826	1.84635	0.371114	5.6541	0.507369	7.77273	0.626634	9.64295	0.888298	12.6074	0.327528	5.0007	0.499035	7.63062	0.753142	10.8048	0.934173	13.1997
0.386439	5.40614	0.123927	1.85204	0.373458	5.61017	0.509143	7.69015	0.628438	9.53402	0.889579	12.4608	0.331148	4.98506	0.501108	7.55469	0.753995	10.729	0.934968	13.0393
0.389027	5.37233	0.126028	1.85757	0.375837	5.56798	0.510951	7.61035	0.630261	9.42842	0.890874	12.3182	0.334774	4.96994	0.5032	7.48115	0.754674	10.6699	0.935777	12.8832
0.391659	5.33998	0.128129	1.86295	0.378253	5.52748	0.512791	7.53322	0.632103	9.32599	0.892184	12.1794	0.338404	4.95529	0.505312	7.4099	0.755176	10.627	0.936598	12.7312
0.394336	5.30902	0.130229	1.86818	0.380708	5.48863	0.514664	7.45865	0.633964	9.22661	0.893508	12.0443	0.342039	4.9411	0.507442	7.34084	0.755498	10.5998	0.937433	12.5832
0.397057	5.27944	0.132329	1.87327	0.383203	5.45136	0.51657	7.38654	0.635843	9.13015	0.894846	11.9127	0.345678	4.92735	0.50959	7.27388	0.755962	10.5609	0.938281	12.439
0.399824	5.25118	0.134428	1.87822	0.385738	5.41565	0.518508	7.31678	0.63774	9.03649	0.896199	11.7845	0.34932	4.91402	0.511757	7.20894	0.756469	10.5191	0.939143	12.2985
0.402638	5.2242	0.136528	1.88303	0.388315	5.38144	0.520479	7.24928	0.639654	8.94553	0.897566	11.6597	0.352967	4.90107	0.513941	7.14592	0.757161	10.4629	0.940018	12.1616
0.405498	5.19847	0.138626	1.88772	0.390935	5.34869	0.522483	7.18396	0.641587	8.85715	0.898948	11.538	0.356616	4.8885	0.516144	7.08477	0.758041	10.3929	0.940907	12.0281
0.408405	5.17394	0.140725	1.89229	0.393599	5.31735	0.524518	7.12072	0.643537	8.77126	0.900343	11.4193	0.360267	4.87628	0.518364	7.02539	0.759112	10.3097	0.941809	11.8979
0.411358	5.15056	0.142823	1.89674	0.396308	5.2874	0.526585	7.0595	0.645505	8.68776	0.901752	11.3036	0.363922	4.86439	0.520601	6.96773	0.76038	10.2143	0.942725	11.771
0.414359	5.12831	0.144921	1.90108	0.399063	5.25878	0.528685	7.00021	0.64749	8.60655	0.902992	11.2051	0.367578	4.85283	0.522855	6.91171	0.761848	10.1075	0.943654	11.6471
0.417405	5.10712	0.147018	1.9053	0.401863	5.23146	0.530815	6.94277	0.649492	8.52756	0.904057	11.1228	0.371236	4.84157	0.525126	6.85728	0.763331	10.0035	0.944598	11.5262
0.420498	5.08697	0.149115	1.90942	0.404711	5.20539	0.532977	6.88712	0.651512	8.45069	0.904943	11.0559	0.374896	4.8306	0.527413	6.80436	0.764828	9.90225	0.945555	11.4082
0.423635	5.06781	0.151212	1.91344	0.407605	5.18053	0.53517	6.83319	0.653547	8.37588	0.905647	11.0036	0.378556	4.81991	0.529717	6.75292	0.766339	9.80356	0.946401	11.3076
0.426817	5.04958	0.153308	1.91736	0.410546	5.15685	0.537394	6.78092	0.6556	8.30304	0.906168	10.9656	0.382218	4.80948	0.532037	6.70288	0.767865	9.70738	0.947131	11.2235
0.430041	5.03226	0.155403	1.92118	0.413533	5.13429	0.539648	6.73024	0.657669	8.2321	0.906501	10.9415	0.38588	4.79929	0.534374	6.6542	0.769404	9.61361	0.94774	11.1551
0.433308	5.0158	0.157499	1.92492	0.416567	5.11282	0.541933	6.6811	0.659754	8.16301	0.906982	10.907	0.389542	4.78934	0.536725	6.60684	0.770958	9.52217	0.948225	11.1016
0.436615	5.00016	0.159594	1.92856	0.419647	5.09238	0.544247	6.63344	0.661856	8.09568	0.907507	10.8698	0.393205	4.77962	0.539093	6.56074	0.772526	9.43298	0.948584	11.0628
0.439962	4.98529	0.161688	1.93212	0.422772	5.07295	0.546591	6.5872	0.663973	8.03007	0.908223	10.8197	0.396867	4.77011	0.541475	6.51585	0.774107	9.34596	0.948815	11.038
0.443346	4.97116	0.163782	1.93559	0.425942	5.05448	0.548964	6.54234	0.666106	7.96611	0.909134	10.7572	0.400528	4.76081	0.543873	6.47214	0.775702	9.26105	0.949148	11.0027
0.446767	4.95772	0.165876	1.93899	0.429155	5.03692	0.551365	6.4988	0.668255	7.90374	0.910241	10.6828	0.404188	4.75169	0.546286	6.42957	0.77731	9.17816	0.949512	10.9646
0.450223	4.94495	0.16797	1.9423	0.43241	5.02022	0.553796	6.45654	0.67042	7.84292	0.91155	10.5972	0.407848	4.74276	0.548714	6.3881	0.778932	9.09723	0.950009	10.9134
0.453711	4.93279	0.170063	1.94555	0.435706	5.00436	0.556254	6.41551	0.6726	7.78358	0.913065	10.5011	0.411505	4.734	0.551156	6.34768	0.780567	9.0182	0.950643	10.8493
0.457232	4.92122	0.172155	1.94871	0.439042	4.98929	0.55874	6.37567	0.674795	7.72569	0.914593	10.4071	0.415161	4.72541	0.553613	6.30829	0.782216	8.941	0.951417	10.773
0.460783	4.91019	0.174247	1.95181	0.442416	4.97496	0.561253	6.33698	0.677005	7.66919	0.916134	10.3153	0.418815	4.71698	0.556085	6.26988	0.783877	8.86558	0.952335	10.6852
0.464362	4.89969	0.176339	1.95484	0.445827	4.96133	0.563793	6.29939	0.679231	7.61404	0.917688	10.2256	0.422466	4.70869	0.55857	6.23243	0.785552	8.79187	0.953403	10.5865
0.467969	4.88968	0.178431	1.95781	0.449274	4.94838	0.56636	6.26287	0.681471	7.56019	0.919256	10.1378	0.426115	4.70054	0.56107	6.19591	0.78724	8.71984	0.954484	10.49
0.471601	4.88012	0.180522	1.96071	0.452754	4.93605	0.568952	6.22738	0.683726	7.5076	0.920836	10.0519	0.42976	4.69253	0.563583	6.16029	0.78894	8.64941	0.955581	10.3956
0.475257	4.87099	0.182613	1.96355	0.456266	4.92433	0.571571	6.19289	0.685995	7.45624	0.92243	9.96793	0.433402	4.68464	0.56611	6.12553	0.790653	8.58055	0.956692	10.3033
0.478936	4.86227	0.184703	1.96633	0.459809	4.91316	0.574214	6.15935	0.688279	7.40607	0.924036	9.88576	0.437041	4.67687	0.568651	6.09161	0.792379	8.5132	0.957818	10.2129
0.482637	4.85393	0.186793	1.96905	0.46338	4.90252	0.576883	6.12675	0.690577	7.35704	0.925655	9.80535	0.440676	4.66922	0.571206	6.05851	0.794118	8.44732	0.958959	10.1245
0.486357	4.84593	0.188883	1.97171	0.46698	4.89237	0.579576	6.09504	0.69289	7.30913	0.927287	9.72664	0.444306	4.66167	0.573774	6.02619	0.795869	8.38286	0.960114	10.038
0.490096	4.83828	0.190972	1.97432	0.470605	4.88269	0.582292	6.06419	0.695216	7.26229	0.928931	9.64958	0.447932	4.65421	0.576355	5.99465	0.797632	8.31979	0.961285	9.95325
0.493853	4.83093	0.193061	1.97687	0.474255	4.87345	0.585033	6.03418	0.697556	7.21651	0.930588	9.57413	0.451554	4.64686	0.57895	5.96384	0.799408	8.25806	0.962471	9.87031
0.497626	4.82387	0.19515	1.97938	0.477928	4.86462	0.587797	6.00498	0.699911	7.17173	0.932258	9.50024	0.45517	4.63958	0.581557	5.93375	0.801195	8.19763	0.963672	9.78909
0.501414	4.81709	0.197238	1.98183	0.481622	4.85617	0.590583	5.97656	0.702279	7.12795	0.933939	9.42787	0.458781	4.6324	0.584178	5.90436	0.802995	8.13846	0.964888	9.70955
0.505217	4.81056	0.199327	1.98424	0.485337	4.84809	0.593392	5.9489	0.70466	7.08512	0.935633	9.35696	0.462386	4.62528	0.586812	5.87565	0.804807	8.08052	0.966119	9.63164
0.509032	4.80427	0.201414	1.9866	0.489071	4.84034	0.596223	5.92196	0.707055	7.04322	0.93734	9.28749	0.465985	4.61824	0.589459	5.8476	0.806631	8.02377	0.967366	9.55532
0.51286	4.7982	0.203502	1.98891	0.492823	4.83291	0.599075	5.89574	0.709463	7.00222	0.939058	9.21941	0.469577	4.61127	0.592118	5.82019	0.808467	7.96819	0.968628	9.48053
0.516699	4.79235	0.205589	1.99118	0.496592	4.82577	0.601949	5.87019	0.711885	6.9621	0.940789	9.15268	0.473163	4.60436	0.594791	5.79341	0.810314	7.91373	0.969906	9.40725
0.520548	4.78669	0.207676	1.9934	0.500376	4.81892	0.604843	5.8453	0.71432	6.92284	0.942531	9.08726	0.476742	4.5975	0.597476	5.76722	0.812173	7.86036	0.971199	9.33543
0.524407	4.78121	0.209763	1.99558	0.504175	4.81232	0.607757	5.82106	0.716768	6.8844	0.944286	9.02312	0.480314	4.5907	0.600174	5.74163	0.814044	7.80806	0.972507	9.26504
0.528275	4.7759	0.211849	1.99773	0.507987	4.80597	0.610692	5.79743	0.719228	6.84676	0.946052	8.96023	0.483878	4.58395	0.602884	5.7166	0.815926	7.7568	0.973831	9.19603
0.53215	4.77075	0.213935	1.99983	0.511811	4.79984	0.613646	5.7744	0.721702	6.80991	0.94783	8.89855	0.487435	4.57724	0.605607	5.69214	0.81782	7.70654	0.975171	9.12837
0.536033	4.76576	0.216021	2.00189	0.515647	4.79393	0.61662	5.75195	0.724188	6.77382	0.94962	8.83804	0.490983	4.57057	0.608343	5.66822	0.819725	7.65727	0.976527	9.06202
0.539923	4.7609	0.218107	2.00392	0.519494	4.78822	0.619612	5.73007	0.726687	6.73847	0.951421	8.77869	0.494522	4.56393	0.611091	5.64482	0.821642	7.60895	0.977898	8.99696
0.543818	4.75617	0.220192	2.0059	0.523351	4.78269	0.622623	5.70872	0.729199	6.70384	0.953234	8.72045	0.498053	4.55733	0.613852	5.62194	0.82357	7.56156	0.979285	8.93315
0.547718	4.75157	0.222277	2.00786	0.527216	4.77734	0.625652	5.6879	0.731723	6.66991	0.955058	8.6633	0.501574	4.55075	0.616626	5.59956	0.825509	7.51507	0.980688	8.87056
0.551623	4.74708	0.224362	2.00977	0.531089	4.77215	0.628698	5.6676	0.734259	6.63667	0.956894	8.60721	0.505086	4.5442	0.619412	5.57767	0.827459	7.46947	0.982107	8.80915
0.555532	4.74269	0.226446	2.01166	0.53497	4.76711	0.631762	5.64778	0.736808	6.60409	0.958741	8.55215	0.508588	4.53767	0.62221	5.55625	0.82942	7.42473	0.983542	8.74891
0.559445	4.7384	0.228531	2.01351	0.538858	4.76221	0.634843	5.62845	0.739369	6.57216	0.9606	8.4981	0.512079	4.53116	0.625021	5.5353	0.831392	7.38082	0.984993	8.6898
0.563361	4.73421	0.230615	2.01533	0.542752	4.75745	0.637941	5.60957	0.741942	6.54086	0.962469	8.44503	0.51556	4.52466	0.627845	5.51481	0.833375	7.33774	0.98646	8.63179
0.567279	4.7301	0.232699	2.01711	0.546651	4.75282	0.641055	5.59115	0.744527	6.51018	0.96435	8.39292	0.519031	4.51817	0.630681	5.49475	0.835369	7.29545	0.987943	8.57486
0.571199	4.72607	0.234782	2.01887	0.550554	4.74829	0.644186	5.57317	0.747124	6.4801	0.966241	8.34174	0.52249	4.51169	0.63353	5.47513	0.837374	7.25393	0.989442	8.51898
0.57512	4.72211	0.236866	2.0206	0.554462	4.74388	0.647332	5.5556	0.749733	6.4506	0.968143	8.29147	0.525938	4.50522	0.636391	5.45593	0.839389	7.21317	0.990957	8.46413
0.579042	4.71822	0.238949	2.0223	0.558374	4.73957	0.650494	5.53845	0.752353	6.42167	0.970057	8.24209	0.529373	4.49875	0.639265	5.43713	0.841415	7.17315	0.992489	8.41028
0.582965	4.7144	0.241032	2.02397	0.562289	4.73535	0.65367	5.5217	0.754986	6.3933	0.971981	8.19358	0.532797	4.49227	0.642152	5.41875	0.843452	7.13385	0.994037	8.35741
0.586889	4.71063	0.243114	2.02561	0.566206	4.73121	0.656862	5.50533	0.75763	6.36547	0.973916	8.14591	0.536208	4.48579	0.645051	5.40075	0.8455	7.09526	0.9956	8.3055
0.590811	4.70692	0.245197	2.02722	0.570126	4.72716	0.660069	5.48934	0.760286	6.33816	0.975861	8.09906	0.539607	4.47931	0.647963	5.38314	0.847558	7.05735	0.997181	8.25453
0.594734	4.70326	0.247279	2.02881	0.574047	4.72319	0.663289	5.47371	0.762953	6.31138	0.977817	8.05303	0.542992	4.47282	0.650888	5.3659	0.849626	7.02011	0.998777	8.20447
0.598655	4.69964	0.249362	2.03037	0.577969	4.71928	0.666524	5.45844	0.765632	6.2851	0.979783	8.00778	0.546364	4.46632	0.653825	5.34903	0.851705	6.98353	1.00039	8.1553
0.602575	4.69607	0.251444	2.03191	0.581892	4.71544	0.669773	5.44351	0.768322	6.25931	0.98176	7.9633	0.549722	4.4598	0.656775	5.33252	0.853795	6.94759		
0.606493	4.69253	0.253525	2.03343	0.585815	4.71166	0.673035	5.42891	0.771024	6.234	0.983747	7.91957	0.553066	4.45327	0.659738	5.31636	0.855894	6.91227		
0.610408	4.68902	0.255607	2.03491	0.589738	4.70793	0.67631	5.41464	0.773737	6.20916	0.985745	7.87657	0.556396	4.44672	0.662714	5.30054	0.858005	6.87756		
0.614322	4.68555	0.257689	2.03638	0.593661	4.70426	0.679599	5.40069	0.776461	6.18478	0.987752	7.83429	0.559711	4.44015	0.665702	5.28506	0.860125	6.84345		
0.618232	4.6821	0.25977	2.03782	0.597582	4.70063	0.6829	5.38704	0.779196	6.16085	0.98977	7.7927	0.563011	4.43357	0.668703	5.26991	0.862256	6.80992		
0.62214	4.67868	0.261851	2.03925	0.601502	4.69704	0.686214	5.37368	0.781943	6.13735	0.991798	7.75181	0.566296	4.42695	0.671717	5.25508	0.864397	6.77696		
0.625542	4.67572	0.263932	2.04064	0.605421	4.69349	0.689541	5.36062	0.7847	6.11428	0.993836	7.71158	0.569565	4.42032	0.674744	5.24056	0.866548	6.74456		
0.62844	4.6732	0.266013	2.04202	0.609337	4.68998	0.692879	5.34784	0.787469	6.09164	0.995884	7.672	0.572819	4.41366	0.677784	5.22635	0.86871	6.71271		
0.630834	4.67113	0.268093	2.04338	0.613251	4.6865	0.69623	5.33533	0.790249	6.06939	0.997941	7.63307	0.576057	4.40697	0.680837	5.21244	0.870881	6.68139		
0.632727	4.66949	0.270174	2.04472	0.617163	4.68304	0.699592	5.32309	0.79304	6.04755	1.00001	7.59476	0.579279	4.40025	0.683902	5.19883	0.873063	6.65059		
0.634117	4.66829	0.272254	2.04603	0.621071	4.67962	0.702966	5.31111	0.795841	6.0261			0.582484	4.3935	0.686981	5.1855	0.875255	6.6203		
0.635007	4.66753	0.274334	2.04733	0.624976	4.67621	0.706351	5.29939	0.798654	6.00504			0.585672	4.38672	0.690072	5.17246	0.877456	6.59051		
0.636286	4.66643	0.276414	2.04861	0.628877	4.67282	0.709748	5.28791	0.801478	5.98434			0.588844	4.37991	0.693176	5.15969	0.879668	6.56121		
0.637675	4.66523	0.278494	2.04987	0.632774	4.66945	0.713155	5.27667	0.804312	5.96402			0.591998	4.37307	0.696293	5.14719	0.88189	6.53238		
0.639564	4.66361	0.280573	2.05111	0.636666	4.6661	0.716573	5.26566	0.807157	5.94405			0.595135	4.36619	0.699422	5.13496	0.884122	6.50403		
0.64195	4.66156	0.282653	2.05233	0.640555	4.66275	0.720002	5.25488	0.810013	5.92443			0.598254	4.35928	0.702565	5.12299	0.886364	6.47614		
0.644834	4.65908	0.284732	2.05354	0.644438	4.65942	0.723442	5.24432	0.81288	5.90516			0.601356	4.35234	0.705719	5.11127	0.888616	6.44869		
0.648213	4.65618	0.286812	2.05473	0.648315	4.65609	0.726892	5.23398	0.815757	5.88623			0.60444	4.34535	0.708887	5.0998	0.890878	6.42169		
0.652086	4.65286	0.288891	2.0559	0.652188	4.65277	0.730352	5.22385	0.818646	5.86762			0.607506	4.33834	0.712067	5.08857	0.89315	6.39512		
0.655952	4.64954	0.29097	2.05706	0.656054	4.64945	0.733822	5.21392	0.821545	5.84934			0.610554	4.33129	0.71526	5.07758	0.895432	6.36897		
0.659813	4.64622	0.293049	2.0582	0.659915	4.64613	0.737302	5.2042	0.824454	5.83137			0.613584	4.3242	0.718465	5.06682	0.897724	6.34323		
0.663667	4.6429	0.295127	2.05932	0.663769	4.64281	0.740791	5.19467	0.827375	5.81371			0.616595	4.31707	0.721682	5.05628	0.900026	6.3179		
0.667515	4.63958	0.297206	2.06043	0.667616	4.63949	0.744291	5.18533	0.830306	5.79636			0.619588	4.30991	0.724911	5.04597	0.902337	6.29297		
0.671356	4.63625	0.299284	2.06152	0.671457	4.63616	0.747799	5.17617	0.833247	5.77931			0.622562	4.30272	0.728152	5.03587	0.904659	6.26843		
0.675189	4.63291	0.301363	2.0626	0.675291	4.63283	0.751318	5.1672	0.836199	5.76254			0.625518	4.29548	0.731406	5.02599	0.90699	6.24428		
0.679016	4.62957	0.303441	2.06367	0.679117	4.62948	0.754845	5.15841	0.839162	5.74607			0.628455	4.28822	0.734671	5.01631	0.909332	6.22049		
0.682834	4.62622	0.305519	2.06472	0.682935	4.62613	0.758381	5.14979	0.842136	5.72988			0.631373	4.28091	0.737948	5.00683	0.911683	6.19708		
0.686645	4.62286	0.307597	2.06575	0.686746	4.62277	0.761927	5.14133	0.84512	5.71396			0.634272	4.27358	0.741236	4.99755	0.914044	6.17403		
0.690448	4.61948	0.309675	2.06678	0.690548	4.61939	0.765481	5.13304	0.848114	5.69831			0.637153	4.26621	0.744536	4.98846	0.916415	6.15133		
0.694242	4.61609	0.311753	2.06779	0.694342	4.616	0.769044	5.12492	0.85112	5.68293			0.640015	4.2588	0.747847	4.97956	0.918796	6.12898		
0.698028	4.61269	0.31383	2.06878	0.698127	4.6126	0.772615	5.11695	0.854136	5.6678			0.642859	4.25136	0.751168	4.97084	0.921186	6.10698		
0.701805	4.60927	0.315908	2.06977	0.701904	4.60918	0.776195	5.10913	0.857162	5.65294			0.645683	4.24389	0.754501	4.9623	0.923587	6.0853		
0.705572	4.60583	0.317985	2.07074	0.705672	4.60574	0.779784	5.10147	0.860199	5.63832			0.648489	4.23639	0.757845	4.95393	0.925997	6.06396		
0.709331	4.60238	0.320063	2.07169	0.70943	4.60228	0.78338	5.09395	0.863247	5.62395			0.651276	4.22886	0.761198	4.94574	0.928417	6.04294		
0.71308	4.5989	0.32214	2.07264	0.713179	4.59881	0.786985	5.08657	0.866305	5.60983			0.654045	4.2213	0.764562	4.9377	0.930847	6.02223		
0.716819	4.5954	0.324217	2.07358	0.716918	4.59531	0.790597	5.07933	0.869374	5.59594			0.656795	4.21371	0.767936	4.92983	0.933287	6.00184		
0.720549	4.59189	0.326294	2.0745	0.720647	4.59179	0.794218	5.07223	0.872454	5.58228			0.659526	4.2061	0.77132	4.92211	0.935737	5.98175		
0.724268	4.58834	0.328371	2.07541	0.724366	4.58825	0.797846	5.06526	0.875544	5.56886			0.66224	4.19845	0.774714	4.91455	0.938196	5.96197		
0.727977	4.58478	0.330448	2.07631	0.728075	4.58469	0.801482	5.05843	0.878644	5.55566			0.664935	4.19078	0.778117	4.90713	0.940665	5.94248		
0.731676	4.58119	0.332525	2.0772	0.731773	4.5811	0.805126	5.05172	0.881756	5.54268			0.667611	4.18309	0.781528	4.89986	0.943144	5.92327		
0.735364	4.57758	0.334602	2.07808	0.735461	4.57748	0.808777	5.04513	0.884878	5.52992			0.67027	4.17537	0.784949	4.89272	0.945633	5.90436		
0.739041	4.57394	0.336678	2.07894	0.739138	4.57384	0.812435	5.03867	0.888011	5.51737			0.672911	4.16764	0.788379	4.88573	0.948132	5.88572		
0.742707	4.57028	0.338755	2.0798	0.742803	4.57018	0.8161	5.03232	0.891154	5.50503			0.675533	4.15988	0.791816	4.87886	0.95064	5.86735		
0.746361	4.56659	0.340831	2.08065	0.746458	4.56649	0.819773	5.02609	0.894308	5.4929			0.678138	4.1521	0.795262	4.87212	0.953159	5.84926		
0.750005	4.56287	0.342907	2.08148	0.750101	4.56277	0.823452	5.01997	0.897473	5.48097			0.680726	4.1443	0.798716	4.86551	0.955687	5.83143		
0.753637	4.55912	0.344984	2.08231	0.753732	4.55902	0.827138	5.01396	0.900648	5.46925			0.683296	4.13648	0.802178	4.85902	0.958224	5.81387		
0.757257	4.55535	0.34706	2.08313	0.757352	4.55525	0.830831	5.00806	0.903834	5.45772			0.685849	4.12865	0.805646	4.85265	0.960772	5.79656		
0.760866	4.55154	0.349136	2.08393	0.760961	4.55144	0.83453	5.00227	0.907031	5.44638			0.688385	4.1208	0.809122	4.84638	0.963329	5.7795		
0.764462	4.54771	0.351212	2.08473	0.764557	4.54761	0.838236	4.99658	0.910238	5.43523			0.690903	4.11294	0.812605	4.84023	0.965896	5.76269		
0.768046	4.54385	0.353288	2.08552	0.768141	4.54375	0.841948	4.99099	0.913457	5.42427			0.693405	4.10507	0.816094	4.83419	0.968473	5.74612		
0.771619	4.53996	0.355363	2.0863	0.771713	4.53986	0.845666	4.98549	0.916686	5.41349			0.695891	4.09718	0.81959	4.82825	0.97106	5.72979		
0.775179	4.53604	0.357439	2.08707	0.775272	4.53594	0.84939	4.98009	0.919925	5.4029			0.698359	4.08928	0.823091	4.82241	0.973656	5.7137		
0.778726	4.53209	0.359515	2.08783	0.77882	4.53198	0.853119	4.97478	0.923176	5.39248			0.700812	4.08138	0.826599	4.81667	0.976262	5.69784		
0.782261	4.52811	0.36159	2.08858	0.782354	4.528	0.856855	4.96957	0.926437	5.38224			0.703248	4.07347	0.830112	4.81102	0.978878	5.68221		
0.785783	4.5241	0.363666	2.08933	0.785876	4.52399	0.860596	4.96444	0.929709	5.37217			0.705669	4.06555	0.83363	4.80546	0.981503	5.6668		
0.789293	4.52006	0.365741	2.09006	0.789385	4.51995	0.864342	4.9594	0.932992	5.36227			0.708074	4.05762	0.837153	4.79999	0.984138	5.65161		
0.792789	4.51599	0.367817	2.09079	0.792882	4.51588	0.868094	4.95444	0.936285	5.35254			0.710463	4.04969	0.840681	4.7946	0.986783	5.63664		
0.796273	4.51189	0.369892	2.09151	0.796365	4.51178	0.871851	4.94956	0.93959	5.34297			0.712837	4.04176	0.844213	4.7893	0.989437	5.62189		
0.799744	4.50776	0.371967	2.09222	0.799836	4.50765	0.875612	4.94476	0.942905	5.33357			0.715196	4.03382	0.84775	4.78407	0.992101	5.60734		
0.803202	4.5036	0.374042	2.09293	0.803293	4.50349	0.879378	4.94003	0.946231	5.32432			0.717539	4.02588	0.85129	4.77893	0.994775	5.593		
0.806647	4.4994	0.376117	2.09362	0.806737	4.49929	0.883149	4.93539	0.949568	5.31523			0.719868	4.01795	0.854834	4.77385	0.997458	5.57886		
0.810078	4.49518	0.378192	2.09431	0.810169	4.49507	0.886925	4.93081	0.952916	5.3063			0.722182	4.01001	0.858382	4.76885	1.00015	5.56492		
0.813496	4.49093	0.380267	2.09499	0.813586	4.49082	0.890704	4.92631	0.956274	5.29751			0.724482	4.00208	0.861932	4.76392				
0.816901	4.48665	0.382342	2.09567	0.816991	4.48654	0.894488	4.92187	0.959644	5.28888			0.726768	3.99415	0.865486	4.75905				
0.820293	4.48235	0.384417	2.09633	0.820382	4.48223	0.898275	4.9175	0.963024	5.2804			0.72904	3.98622	0.869042	4.75425				
0.823671	4.47801	0.386492	2.09699	0.823761	4.47789	0.902066	4.91319	0.966415	5.27206			0.731297	3.9783	0.8726	4.74951				
0.827037	4.47364	0.388567	2.09765	0.827125	4.47353	0.905861	4.90895	0.969817	5.26386			0.733542	3.97038	0.876161	4.74483				
0.830388	4.46925	0.390641	2.09829	0.830477	4.46913	0.909659	4.90477	0.973229	5.2558			0.735772	3.96247	0.879724	4.7402				
0.833726	4.46483	0.392716	2.09893	0.833814	4.46471	0.91346	4.90065	0.976653	5.24789			0.73799	3.95457	0.883288	4.73564				
0.837051	4.46038	0.39479	2.09957	0.837139	4.46026	0.917264	4.89658	0.980087	5.24011			0.740194	3.94668	0.886853	4.73112				
0.840363	4.4559	0.396865	2.10019	0.84045	4.45578	0.921071	4.89257	0.983532	5.23246			0.742386	3.9388	0.89042	4.72665				
0.843661	4.4514	0.398939	2.10081	0.843748	4.45128	0.92488	4.88861	0.986988	5.22495			0.744564	3.93093	0.893988	4.72224				
0.846945	4.44687	0.401013	2.10142	0.847032	4.44675	0.928692	4.8847	0.990455	5.21757			0.746731	3.92307	0.897556	4.71787				
0.850216	4.44231	0.403088	2.10203	0.850303	4.44219	0.932506	4.88084	0.993932	5.21031			0.748885	3.91522	0.901125	4.71354				
0.853474	4.43773	0.405162	2.10263	0.85356	4.43761	0.936323	4.87704	0.997421	5.20319			0.751027	3.90739	0.904694	4.70926				
0.856718	4.43312	0.407236	2.10323	0.856804	4.433	0.940141	4.87327	1.00092	5.19619			0.753157	3.89957	0.908263	4.70502				
0.859949	4.42849	0.40931	2.10381	0.860035	4.42837	0.94396	4.86955					0.755275	3.89176	0.911832	4.70082				
0.863167	4.42384	0.411384	2.1044	0.863252	4.42371	0.947781	4.86588					0.757382	3.88397	0.9154	4.69666				
0.866371	4.41916	0.413458	2.10497	0.866456	4.41903	0.951604	4.86225					0.759477	3.87619	0.918968	4.69253				
0.869562	4.41445	0.415532	2.10555	0.869647	4.41433	0.955427	4.85865					0.761561	3.86844	0.922535	4.68844				
0.87274	4.40973	0.417606	2.10611	0.872824	4.4096	0.959251	4.8551					0.763634	3.8607	0.9261	4.68438				
0.875905	4.40498	0.41968	2.10667	0.875988	4.40486	0.963076	4.85158					0.765697	3.85297	0.929664	4.68035				
0.879056	4.40021	0.421753	2.10723	0.879139	4.40009	0.966902	4.8481					0.767749	3.84527	0.933227	4.67635				
0.882194	4.39542	0.423827	2.10777	0.882277	4.3953	0.970728	4.84465					0.76979	3.83759	0.936788	4.67238				
0.885319	4.39061	0.425901	2.10832	0.885402	4.39048	0.974554	4.84123					0.771821	3.82992	0.940347	4.66844				
0.888431	4.38578	0.427974	2.10886	0.888513	4.38565	0.97838	4.83785					0.773841	3.82228	0.943904	4.66452				
0.891531	4.38093	0.430048	2.10939	0.891612	4.3808	0.982206	4.83449					0.775852	3.81466	0.947459	4.66063				
0.894617	4.37606	0.432121	2.10992	0.894698	4.37593	0.986031	4.83116					0.777853	3.80705	0.951011	4.65676				
0.89769	4.37117	0.434195	2.11044	0.897771	4.37104	0.989856	4.82787					0.779845	3.79947	0.95456	4.65291				
0.90075	4.36626	0.436268	2.11096	0.900831	4.36613	0.99368	4.82459					0.781827	3.79192	0.958106	4.64908				
0.903798	4.36134	0.438341	2.11147	0.903878	4.36121	0.997504	4.82135					0.783799	3.78439	0.961649	4.64527				
0.906832	4.3564	0.440415	2.11198	0.906912	4.35627	1.00133	4.81812					0.785763	3.77688	0.965189	4.64148				
0.909854	4.35144	0.442488	2.11249	0.909934	4.35131							0.787718	3.76939	0.968725	4.63771				
0.912864	4.34646	0.444561	2.11298	0.912943	4.34633							0.789663	3.76193	0.972258	4.63395				
0.915861	4.34147	0.446634	2.11348	0.91594	4.34134							0.791601	3.75449	0.975786	4.63021				
0.918845	4.33647	0.448708	2.11397	0.918924	4.33634							0.793529	3.74708	0.979311	4.62648				
0.921817	4.33145	0.450781	2.11445	0.921895	4.33132							0.79545	3.7397	0.982831	4.62276				
0.924777	4.32642	0.452854	2.11494	0.924855	4.32628							0.797362	3.73234	0.986347	4.61906				
0.927724	4.32137	0.454927	2.11541	0.927802	4.32123							0.799266	3.72501	0.989859	4.61537				
0.930659	4.31631	0.457	2.11588	0.930736	4.31617							0.801163	3.7177	0.993365	4.61168				
0.933582	4.31123	0.459072	2.11635	0.933659	4.3111							0.803051	3.71043	0.996867	4.60801				
0.936493	4.30615	0.461145	2.11682	0.936569	4.30601							0.804932	3.70318	1.00036	4.60434				
0.939391	4.30105	0.463218	2.11728	0.939468	4.30092							0.806806	3.69595						
0.942278	4.29594	0.465291	2.11773	0.942354	4.29581							0.808672	3.68876						
0.945153	4.29082	0.467364	2.11818	0.945229	4.29069							0.810531	3.68159						
0.948016	4.28569	0.469436	2.11863	0.948091	4.28556							0.812383	3.67446						
0.950867	4.28055	0.471509	2.11907	0.950942	4.28042							0.814229	3.66735						
0.953707	4.2754	0.473582	2.11951	0.953781	4.27527							0.816067	3.66027						
0.956534	4.27025	0.475654	2.11995	0.956609	4.27011							0.817899	3.65322						
0.959351	4.26508	0.477727	2.12038	0.959425	4.26494							0.819725	3.6462						
0.962156	4.2599	0.479799	2.12081	0.96223	4.25977							0.821544	3.63921						
0.964949	4.25472	0.481871	2.12124	0.965023	4.25458							0.823357	3.63225						
0.967731	4.24953	0.483944	2.12166	0.967804	4.24939							0.825163	3.62532						
0.970502	4.24433	0.486016	2.12207	0.970575	4.24419							0.826964	3.61842						
0.973261	4.23913	0.488089	2.12249	0.973334	4.23899							0.828759	3.61155						
0.97601	4.23392	0.490161	2.1229	0.976082	4.23378							0.830549	3.60471						
0.978747	4.2287	0.492233	2.12331	0.978819	4.22856							0.832332	3.5979						
0.981473	4.22348	0.494305	2.12371	0.981545	4.22334							0.83411	3.59113						
0.984189	4.21825	0.496377	2.12411	0.98426	4.21811							0.835883	3.58438						
0.986893	4.21302	0.49845	2.12451	0.986964	4.21288							0.837651	3.57767						
0.989587	4.20778	0.500522	2.1249	0.989658	4.20764							0.839413	3.57099						
0.992269	4.20254	0.502594	2.12529	0.99234	4.2024							0.841171	3.56433						
0.994942	4.19729	0.504666	2.12568	0.995012	4.19716							0.842923	3.55771						
0.997603	4.19205	0.506738	2.12606	0.997673	4.19191							0.844671	3.55113						
1.00025	4.18679	0.50881	2.12644	1.00032	4.18666							0.846414	3.54457						
		0.510882	2.12682									0.848152	3.53805						
		0.512954	2.12719									0.849886	3.53155						
		0.515025	2.12757									0.851616	3.52509						
		0.517097	2.12793									0.853341	3.51866						
		0.519169	2.1283									0.855062	3.51227						
		0.521241	2.12866									0.856779	3.5059						
		0.523312	2.12902									0.858492	3.49957						
		0.525384	2.12938									0.860201	3.49327						
		0.527456	2.12973									0.861906	3.487						
		0.529527	2.13009									0.863607	3.48076						
		0.531599	2.13043									0.865305	3.47456						
		0.53367	2.13078									0.866999	3.46838						
		0.535742	2.13112									0.86869	3.46224						
		0.537813	2.13146									0.870377	3.45614						
		0.539885	2.1318									0.872061	3.45006						
		0.541956	2.13214									0.873742	3.44401						
		0.544028	2.13247									0.87542	3.438						
		0.546099	2.1328									0.877094	3.43202						
		0.54817	2.13313									0.878766	3.42607						
		0.550242	2.13345									0.880435	3.42015						
		0.552313	2.13378									0.882101	3.41427						
		0.554384	2.1341									0.883764	3.40841						
		0.556455	2.13441									0.885425	3.40259						
		0.558527	2.13473									0.887082	3.3968						
		0.560598	2.13504									0.888738	3.39104						
		0.562669	2.13535									0.890391	3.38531						
		0.56474	2.13566									0.892041	3.37962						
		0.566811	2.13597									0.893689	3.37395						
		0.568882	2.13627									0.895335	3.36832						
		0.570953	2.13657									0.896979	3.36272						
		0.573024	2.13687									0.898621	3.35714						
		0.575095	2.13717									0.90026	3.3516						
		0.577166	2.13747									0.901898	3.34609						
		0.579237	2.13776									0.903533	3.34061						
		0.581308	2.13805									0.905167	3.33516						
		0.583378	2.13834									0.906798	3.32975						
		0.585449	2.13863									0.908428	3.32436						
		0.58752	2.13891									0.910057	3.319						
		0.589591	2.13919									0.911683	3.31367						
		0.591661	2.13947									0.913308	3.30838						
		0.593732	2.13975									0.914932	3.30311						
		0.595803	2.14003									0.916554	3.29787						
		0.597873	2.1403									0.918174	3.29266						
		0.599944	2.14058									0.919793	3.28748						
		0.602015	2.14085									0.921411	3.28234						
		0.604085	2.14112									0.923027	3.27722						
		0.606156	2.14138									0.924642	3.27213						
		0.608226	2.14165									0.926256	3.26707						
		0.610297	2.14191									0.927869	3.26203						
		0.612367	2.14218									0.92948	3.25703						
		0.614437	2.14244									0.931091	3.25206						
		0.616508	2.14269									0.9327	3.24711						
		0.618578	2.14295									0.934308	3.2422						
		0.620649	2.1432									0.935916	3.23731						
		0.622719	2.14346									0.937522	3.23245						
		0.624789	2.14371									0.939128	3.22761						
		0.62686	2.14396									0.940733	3.22281						
		0.62893	2.14421									0.942337	3.21803						
		0.631	2.14445									0.94394	3.21329						
		0.63307	2.1447									0.945543	3.20856						
		0.63514	2.14494									0.947144	3.20387						
		0.63721	2.14518									0.948746	3.1992						
		0.639281	2.14542									0.950346	3.19456						
		0.641351	2.14566									0.951946	3.18995						
		0.643421	2.1459									0.953545	3.18537						
		0.645491	2.14613									0.955144	3.18081						
		0.647561	2.14637									0.956743	3.17628						
		0.649631	2.1466									0.958341	3.17177						
		0.651701	2.14683									0.959938	3.16729						
		0.653771	2.14706									0.961535	3.16284						
		0.655841	2.14729									0.963132	3.15841						
		0.657911	2.14751									0.964728	3.15401						
		0.65998	2.14774									0.966324	3.14963						
		0.66205	2.14796									0.96792	3.14528						
		0.66412	2.14818									0.969516	3.14096						
		0.66619	2.1484									0.971111	3.13666						
		0.66826	2.14862									0.972706	3.13239						
		0.67033	2.14884									0.974301	3.12814						
		0.672399	2.14905									0.975896	3.12391						
		0.674469	2.14927									0.977491	3.11971						
		0.676539	2.14948									0.979086	3.11554						
		0.678608	2.1497									0.98068	3.11139						
		0.680678	2.14991									0.982275	3.10726						
		0.682748	2.15012									0.983869	3.10316						
		0.684817	2.15032									0.985464	3.09908						
		0.686887	2.15053									0.987058	3.09503						
		0.688956	2.15074									0.988653	3.091						
		0.691026	2.15094									0.990247	3.08699						
		0.693096	2.15115									0.991842	3.08301						
		0.695165	2.15135									0.993437	3.07905						
		0.697235	2.15155									0.995031	3.07511						
		0.699304	2.15175									0.996626	3.0712						
		0.701373	2.15195									0.998222	3.06731						
		0.703443	2.15214									0.999817	3.06344						
		0.705512	2.15234									1.00141	3.05959						
		0.707582	2.15253																
		0.709651	2.15273																
		0.71172	2.15292																
		0.71379	2.15311																
		0.715859	2.1533																
		0.717928	2.15349																
		0.719997	2.15368																
		0.722067	2.15387																
		0.724136	2.15405																
		0.726205	2.15424																
		0.728274	2.15442																
		0.730343	2.1546																
		0.732412	2.15478																
		0.734481	2.15496																
		0.73655	2.15514																
		0.73862	2.15532																
		0.740689	2.1555																
		0.742758	2.15568																
		0.744827	2.15585																
		0.746896	2.15603																
		0.748965	2.1562																
		0.751033	2.15637																
		0.753102	2.15654																
		0.755171	2.15671																
		0.75724	2.15688																
		0.759309	2.15705																
		0.761378	2.15722																
		0.763447	2.15738																
		0.765515	2.15755																
		0.767584	2.15772																
		0.769653	2.15788																
		0.771722	2.15804																
		0.77379	2.1582																
		0.775859	2.15836																
		0.777928	2.15853																
		0.779996	2.15868																
		0.782065	2.15884																
		0.784134	2.159																
		0.786202	2.15916																
		0.788271	2.15931																
		0.790339	2.15947																
		0.792408	2.15962																
		0.794476	2.15978																
		0.796545	2.15993																
		0.798613	2.16008																
		0.800682	2.16023																
		0.80275	2.16038																
		0.804819	2.16053																
		0.806887	2.16068																
		0.808956	2.16083																
		0.811024	2.16097																
		0.813092	2.16112																
		0.815161	2.16126																
		0.817229	2.16141																
		0.819297	2.16155																
		0.821365	2.1617																
		0.823434	2.16184																
		0.825502	2.16198																
		0.82757	2.16212																
		0.829638	2.16226																
		0.831706	2.1624																
		0.833775	2.16254																
		0.835843	2.16268																
		0.837911	2.16281																
		0.839979	2.16295																
		0.842047	2.16309																
		0.844115	2.16322																
		0.846183	2.16336																
		0.848251	2.16349																
		0.850319	2.16362																
		0.852387	2.16376																
		0.854455	2.16389																
		0.856523	2.16402																
		0.858591	2.16415																
		0.860659	2.16428																
		0.862727	2.16441																
		0.864795	2.16454																
		0.866863	2.16466																
		0.868931	2.16479																
		0.870998	2.16492																
		0.873066	2.16504																
		0.875134	2.16517																
		0.877202	2.16529																
		0.879269	2.16542																
		0.881337	2.16554																
		0.883405	2.16566																
		0.885473	2.16579																
		0.88754	2.16591																
		0.889608	2.16603																
		0.891676	2.16615																
		0.893743	2.16627																
		0.895811	2.16639																
		0.897878	2.16651																
		0.899946	2.16662																
		0.902014	2.16674																
		0.904081	2.16686																
		0.906149	2.16698																
		0.908216	2.16709																
		0.910284	2.16721																
		0.912351	2.16732																
		0.914419	2.16744																
		0.916486	2.16755																
		0.918553	2.16766																
		0.920621	2.16777																
		0.922688	2.16789																
		0.924756	2.168																
		0.926823	2.16811																
		0.92889	2.16822																
		0.930958	2.16833																
		0.933025	2.16844																
		0.935092	2.16855																
		0.937159	2.16866																
		0.939227	2.16876																
		0.941294	2.16887																
		0.943361	2.16898																
		0.945428	2.16908																
		0.947495	2.16919																
		0.949563	2.1693																
		0.95163	2.1694																
		0.953697	2.16951																
		0.955764	2.16961																
		0.957831	2.16971																
		0.959898	2.16982																
		0.961965	2.16992																
		0.964032	2.17002																
		0.966099	2.17012																
		0.968166	2.17022																
		0.970233	2.17032																
		0.9723	2.17042																
		0.974367	2.17052																
		0.976434	2.17062																
		0.978501	2.17072																
		0.980568	2.17082																
		0.982635	2.17092																
		0.984702	2.17102																
		0.986769	2.17111																
		0.988835	2.17121																
		0.990902	2.17131																
		0.992969	2.1714																
		0.995036	2.1715																
		0.997103	2.17159																
		0.999169	2.17169																
		1.00124	2.17178																
