Sym0		Asym0		Sym1		Sym2		Sym3		Sym4		Asym1		Asym2		Asym3		Asym4	
486  Points		501  Points		293  Points		231  Points		213  Points		154  Points		399  Points		248  Points		207  Points		161  Points	
Freq (MHz)	Vph (m/ms)	Freq (MHz)	Vph (m/ms)	Freq (MHz)	Vph (m/ms)	Freq (MHz)	Vph (m/ms)	Freq (MHz)	Vph (m/ms)	Freq (MHz)	Vph (m/ms)	Freq (MHz)	Vph (m/ms)	Freq (MHz)	Vph (m/ms)	Freq (MHz)	Vph (m/ms)	Freq (MHz)	Vph (m/ms)
0.00180976	4.52916	5.58568e-005	0.0605639	0.279511	866.088	0.405733	512.3	0.55903	627.239	0.838526	7995.13	0.139769	339.586	0.419269	751.284	0.698777	953.273	0.811445	3947.33
0.00602938	4.52902	0.000225437	0.121597	0.279541	222.845	0.405772	235.411	0.55907	306.684	0.838536	808.949	0.139908	104.154	0.419305	281.457	0.698799	419.769	0.811456	713.516
0.0102488	4.5289	0.00050755	0.1822	0.279608	127.902	0.405841	152.838	0.559138	202.98	0.838562	426.04	0.140196	61.6251	0.419375	173.191	0.698839	269.155	0.811481	392.217
0.0144677	4.5287	0.000900632	0.242277	0.279712	89.7141	0.405939	113.167	0.559234	151.704	0.838606	289.178	0.140629	43.8551	0.419478	125.099	0.698897	198.094	0.811521	270.448
0.0186859	4.52843	0.0014021	0.301588	0.279851	69.1075	0.406066	89.8621	0.559357	121.124	0.838666	218.878	0.141206	34.1213	0.419613	97.9295	0.698972	156.727	0.811575	206.384
0.0229034	4.5281	0.00200912	0.360009	0.280027	56.2167	0.406222	74.5299	0.559508	100.817	0.838742	176.082	0.141925	27.9927	0.419782	80.4713	0.699064	129.66	0.811644	166.866
0.0271197	4.52768	0.00271818	0.417383	0.280238	47.3944	0.406407	63.6787	0.559687	86.3524	0.838835	147.292	0.142781	23.7899	0.419984	68.3097	0.699174	110.573	0.811727	140.056
0.0313348	4.5272	0.00352544	0.473585	0.280485	40.9791	0.406622	55.5962	0.559893	75.5273	0.838945	126.6	0.143772	20.736	0.420219	59.3535	0.699302	96.3903	0.811825	120.674
0.0355484	4.52665	0.0044267	0.528508	0.280768	36.1057	0.406867	49.3439	0.560126	67.1227	0.839071	111.011	0.144892	18.4221	0.420487	52.4846	0.699447	85.4381	0.811938	106.009
0.0397604	4.52603	0.00541746	0.582051	0.281087	32.2792	0.407141	44.3642	0.560388	60.4093	0.839214	98.8458	0.146138	16.6125	0.420787	47.0504	0.699609	76.7259	0.812066	94.5271
0.0439704	4.52532	0.00649316	0.634146	0.28144	29.196	0.407445	40.3054	0.560676	54.9241	0.839373	89.0881	0.147504	15.162	0.421121	42.645	0.699789	69.6309	0.812208	85.2934
0.0481785	4.52455	0.0076491	0.684733	0.281828	26.6596	0.407778	36.9343	0.560992	50.3588	0.839549	81.0882	0.148985	13.9758	0.421487	39.0023	0.699986	63.7413	0.812365	77.7069
0.0523842	4.52371	0.00888047	0.733764	0.282251	24.537	0.408142	34.0904	0.561335	46.5005	0.839741	74.4107	0.150577	12.9898	0.421885	35.9406	0.7002	58.7743	0.812536	71.3633
0.0565873	4.52278	0.0101826	0.781214	0.282708	22.7353	0.408535	31.6595	0.561706	43.1972	0.83995	68.753	0.152274	12.159	0.422316	33.3317	0.700432	54.5293	0.812722	65.9805
0.0607878	4.52178	0.0115509	0.827072	0.283199	21.1873	0.408959	29.5582	0.562103	40.3376	0.840175	63.8984	0.154072	11.4506	0.422779	31.0826	0.700681	50.8596	0.812923	61.3559
0.0649851	4.5207	0.0129808	0.871331	0.283724	19.8434	0.409413	27.7241	0.562528	37.8382	0.840417	59.6874	0.155965	10.8407	0.423274	29.124	0.700947	47.6561	0.813139	57.34
0.0691793	4.51954	0.0144682	0.914006	0.284283	18.6661	0.409898	26.1096	0.56298	35.6353	0.840675	56.0002	0.157949	10.3108	0.423801	27.4036	0.701231	44.8353	0.813369	53.8203
0.0733699	4.5183	0.0160087	0.955111	0.284874	17.6266	0.410413	24.6779	0.563459	33.6794	0.840949	52.7449	0.160018	9.84702	0.42436	25.8806	0.701532	42.3328	0.813614	50.7102
0.0775568	4.51697	0.0175985	0.99467	0.285498	16.7024	0.410959	23.3998	0.563964	31.9313	0.84124	49.8501	0.162169	9.43825	0.424951	24.5231	0.70185	40.0976	0.813874	47.9424
0.0817397	4.51556	0.0192338	1.03272	0.286154	15.8754	0.411536	22.2522	0.564496	30.3599	0.841548	47.2591	0.164106	9.12006	0.425574	23.306	0.702185	38.0893	0.814149	45.4634
0.0859182	4.51406	0.020911	1.06928	0.286841	15.1315	0.412144	21.2162	0.565055	28.9398	0.841871	44.9267	0.165802	8.873	0.426227	22.2086	0.702537	36.2751	0.814438	43.2304
0.0900921	4.51246	0.0226269	1.10441	0.287561	14.4588	0.412784	20.2767	0.56564	27.6504	0.842211	42.816	0.167234	8.68365	0.426912	21.2144	0.702907	34.6283	0.814743	41.2086
0.094261	4.51077	0.0243784	1.13814	0.288311	13.8478	0.413455	19.4208	0.566252	26.4746	0.842568	40.897	0.168384	8.54264	0.427628	20.3097	0.703293	33.1268	0.815062	39.3695
0.0984247	4.50899	0.0261625	1.17052	0.289092	13.2905	0.414157	18.6381	0.56689	25.398	0.84294	39.1449	0.16924	8.44352	0.428375	19.483	0.703697	31.7524	0.815397	37.6896
0.102583	4.50711	0.0279766	1.20159	0.289903	12.7804	0.414892	17.9198	0.567554	24.4089	0.843329	37.5388	0.169792	8.38201	0.429152	18.7249	0.704117	30.4895	0.815746	36.1489
0.106735	4.50512	0.0298181	1.23141	0.290744	12.3118	0.415659	17.2584	0.568245	23.4971	0.843734	36.0613	0.170591	8.2961	0.42996	18.0273	0.704554	29.3254	0.81611	34.7311
0.110881	4.50303	0.0316848	1.26002	0.291615	11.88	0.416458	16.6476	0.568961	22.6539	0.844156	34.6976	0.171468	8.20594	0.430797	17.3834	0.705008	28.2488	0.81649	33.4221
0.11502	4.50083	0.0335744	1.28746	0.292515	11.4808	0.417289	16.0819	0.569703	21.8721	0.844593	33.4351	0.172673	8.08844	0.431665	16.7873	0.705479	27.2504	0.816884	32.2098
0.119152	4.49851	0.0354851	1.31379	0.293443	11.111	0.418153	15.5566	0.570471	21.1452	0.845047	32.2631	0.174217	7.9477	0.432563	16.234	0.705966	26.3219	0.817294	31.084
0.123277	4.49608	0.0374149	1.33905	0.2944	10.7674	0.41905	15.0677	0.571264	20.4678	0.845517	31.1722	0.176113	7.78831	0.43349	15.7191	0.706471	25.4564	0.817718	30.0359
0.127394	4.49353	0.0393623	1.36328	0.295384	10.4474	0.41998	14.6116	0.572083	19.835	0.846003	30.1544	0.178377	7.61501	0.434446	15.239	0.706992	24.6477	0.818158	29.0576
0.131502	4.49085	0.0413256	1.38654	0.296397	10.1488	0.420943	14.1853	0.572927	19.2426	0.846505	29.2025	0.181025	7.43242	0.435432	14.7902	0.707529	23.8904	0.818613	28.1425
0.135601	4.48805	0.0433035	1.40886	0.297437	9.86951	0.42194	13.7861	0.573796	18.6871	0.847022	28.3104	0.183723	7.26528	0.436446	14.3699	0.708083	23.1799	0.819084	27.2848
0.139691	4.4851	0.0452945	1.43028	0.298504	9.60789	0.422969	13.4115	0.57469	18.165	0.847556	27.4727	0.186469	7.11184	0.437488	13.9755	0.708654	22.512	0.819569	26.4791
0.143771	4.48202	0.0472976	1.45085	0.299598	9.36235	0.424033	13.0594	0.575608	17.6736	0.848106	26.6847	0.18926	6.97059	0.438559	13.6048	0.709241	21.8829	0.82007	25.7211
0.14784	4.47878	0.0493115	1.4706	0.300574	9.16041	0.42513	12.728	0.576552	17.2102	0.848672	25.942	0.192094	6.84023	0.439658	13.2557	0.709844	21.2896	0.820586	25.0065
0.151898	4.4754	0.0513355	1.48957	0.301421	8.99647	0.426262	12.4155	0.57752	16.7726	0.849253	25.2409	0.194968	6.71965	0.440785	12.9266	0.710463	20.7289	0.821118	24.3319
0.155944	4.47185	0.0533683	1.50779	0.302133	8.86627	0.427427	12.1205	0.578512	16.3588	0.849851	24.5781	0.197881	6.60785	0.44194	12.6157	0.711099	20.1984	0.821665	23.6939
0.159977	4.46814	0.0551465	1.52309	0.302703	8.76657	0.428627	11.8417	0.579529	15.9669	0.850464	23.9505	0.20083	6.50398	0.443121	12.3218	0.711751	19.6957	0.822228	23.0898
0.163998	4.46426	0.0566668	1.53573	0.303126	8.69504	0.429861	11.5778	0.58057	15.5952	0.851093	23.3554	0.203814	6.40728	0.44433	12.0434	0.712419	19.2187	0.822806	22.5169
0.168004	4.46019	0.0579268	1.5459	0.303399	8.65002	0.431129	11.3277	0.581634	15.2424	0.851737	22.7904	0.206831	6.31709	0.445565	11.7794	0.713103	18.7655	0.8234	21.9729
0.171995	4.45593	0.0589248	1.55377	0.303793	8.58631	0.432432	11.0904	0.582723	14.9069	0.852397	22.2533	0.209878	6.23282	0.446827	11.5288	0.713803	18.3344	0.82401	21.4558
0.17597	4.45147	0.0596597	1.55946	0.304225	8.5184	0.433769	10.8651	0.583834	14.5877	0.853073	21.7421	0.212956	6.15394	0.448114	11.2906	0.714519	17.9238	0.824635	20.9635
0.179929	4.44681	0.0601303	1.56306	0.304817	8.4282	0.435141	10.6509	0.58497	14.2835	0.853764	21.255	0.216061	6.07999	0.449428	11.064	0.715251	17.5324	0.825276	20.4944
0.18387	4.44193	0.0608075	1.56818	0.305576	8.31755	0.436547	10.4471	0.586128	13.9935	0.854471	20.7903	0.219194	6.01055	0.450768	10.8481	0.715999	17.1589	0.825933	20.0468
0.187792	4.43682	0.0615441	1.57368	0.306506	8.18862	0.437988	10.2529	0.58731	13.7166	0.855193	20.3467	0.222351	5.94524	0.452132	10.6423	0.716762	16.802	0.826605	19.6195
0.191694	4.43147	0.0625471	1.58103	0.307617	8.04381	0.439463	10.0679	0.588514	13.452	0.855931	19.9226	0.225533	5.88375	0.453522	10.446	0.717541	16.4608	0.827294	19.211
0.195576	4.42587	0.0638173	1.59013	0.308916	7.88567	0.440974	9.89137	0.589741	13.1989	0.856684	19.5169	0.228738	5.82575	0.454937	10.2584	0.718335	16.1341	0.827998	18.8202
0.199435	4.42	0.0653558	1.60086	0.310243	7.73555	0.442518	9.72282	0.590991	12.9567	0.857452	19.1284	0.231964	5.77098	0.456376	10.0791	0.719146	15.8213	0.828718	18.4459
0.20327	4.41387	0.0671636	1.61306	0.311596	7.59291	0.444097	9.56178	0.592263	12.7247	0.858236	18.756	0.235211	5.7192	0.457839	9.90755	0.719971	15.5213	0.829454	18.0872
0.207081	4.40744	0.0692419	1.62658	0.312978	7.45727	0.445711	9.4078	0.593557	12.5023	0.859035	18.3988	0.238478	5.67018	0.459327	9.7433	0.720812	15.2334	0.830207	17.7431
0.210865	4.40072	0.0713238	1.6396	0.314388	7.32818	0.447145	9.27905	0.594873	12.2888	0.859849	18.056	0.241764	5.62371	0.460838	9.5859	0.721668	14.957	0.830975	17.4128
0.214621	4.39368	0.0734089	1.65215	0.315826	7.20523	0.448388	9.1731	0.596211	12.0839	0.860678	17.7266	0.245067	5.57962	0.462372	9.43497	0.722539	14.6914	0.83176	17.0955
0.218348	4.38632	0.0754968	1.66424	0.317293	7.08805	0.44943	9.08801	0.597571	11.887	0.861522	17.4099	0.248387	5.53774	0.463728	9.30842	0.723426	14.4359	0.832561	16.7904
0.222044	4.37861	0.0775873	1.6759	0.318791	6.9763	0.450263	9.02229	0.598952	11.6977	0.862381	17.1052	0.251722	5.4979	0.464898	9.20403	0.724328	14.1901	0.833378	16.4969
0.225707	4.37054	0.07968	1.68715	0.320319	6.86969	0.450881	8.97483	0.600355	11.5155	0.863255	16.8118	0.255073	5.45998	0.465875	9.12003	0.725244	13.9534	0.834211	16.2144
0.229335	4.3621	0.0817746	1.69801	0.32188	6.76791	0.451278	8.94483	0.601779	11.3402	0.864144	16.5292	0.258438	5.42384	0.466653	9.05505	0.726176	13.7253	0.835061	15.9422
0.232927	4.35327	0.083871	1.70848	0.323472	6.67072	0.451853	8.9022	0.603224	11.1713	0.865047	16.2568	0.261817	5.38937	0.467229	9.00806	0.727123	13.5053	0.835927	15.6798
0.23648	4.34404	0.0859688	1.7186	0.325099	6.57788	0.452482	8.85652	0.604689	11.0085	0.865966	15.994	0.265208	5.35645	0.467598	8.97833	0.728084	13.2932	0.836809	15.4268
0.239993	4.33439	0.0880679	1.72837	0.32676	6.48916	0.453344	8.79549	0.606176	10.8515	0.866899	15.7404	0.268612	5.32499	0.468132	8.93605	0.729061	13.0883	0.837708	15.1826
0.243464	4.32431	0.0901681	1.73781	0.328458	6.40438	0.454445	8.72003	0.607683	10.7	0.867847	15.4954	0.272026	5.29488	0.468715	8.89071	0.730051	12.8905	0.838624	14.9468
0.246453	4.31516	0.0922693	1.74694	0.330193	6.32334	0.455794	8.63129	0.60921	10.5537	0.868809	15.2588	0.275452	5.26606	0.469513	8.83004	0.731057	12.6994	0.839556	14.719
0.248973	4.30709	0.0943712	1.75576	0.331967	6.24587	0.4574	8.53055	0.610757	10.4125	0.869786	15.03	0.278887	5.23843	0.470528	8.75491	0.732077	12.5145	0.840504	14.4988
0.251037	4.30022	0.0964737	1.7643	0.333781	6.17182	0.459274	8.4192	0.612324	10.276	0.870777	14.8087	0.282332	5.21192	0.471768	8.66636	0.733112	12.3358	0.84147	14.2858
0.252656	4.29467	0.0985767	1.77256	0.335638	6.10104	0.461181	8.3122	0.613911	10.144	0.871783	14.5946	0.285786	5.18647	0.473237	8.5656	0.734161	12.1627	0.842452	14.0798
0.253839	4.29051	0.10068	1.78055	0.337538	6.03339	0.463121	8.2093	0.615518	10.0163	0.872803	14.3872	0.289247	5.16202	0.474943	8.45391	0.735225	11.9952	0.84345	13.8804
0.254593	4.28782	0.102784	1.78829	0.339483	5.96876	0.465093	8.11032	0.617144	9.89281	0.873837	14.1864	0.292717	5.1385	0.47667	8.34624	0.736303	11.8329	0.844466	13.6872
0.255672	4.28391	0.104888	1.79578	0.341475	5.90703	0.467098	8.01506	0.61879	9.77322	0.874886	13.9918	0.296193	5.11585	0.478418	8.24238	0.737395	11.6757	0.845498	13.5001
0.256839	4.27959	0.106992	1.80305	0.343516	5.84808	0.469134	7.92333	0.620455	9.65741	0.875949	13.8031	0.299676	5.09404	0.480187	8.14216	0.738501	11.5232	0.846547	13.3187
0.258415	4.27363	0.109096	1.81008	0.345607	5.79181	0.471203	7.83497	0.621921	9.55942	0.877025	13.6201	0.303165	5.073	0.481976	8.04539	0.739622	11.3753	0.847613	13.1428
0.26039	4.26592	0.1112	1.81691	0.34775	5.73813	0.473302	7.74982	0.623182	9.47798	0.878116	13.4426	0.30666	5.0527	0.483785	7.95192	0.740756	11.2318	0.848696	12.9722
0.262752	4.25634	0.113304	1.82353	0.349947	5.68694	0.475433	7.66773	0.624233	9.41203	0.879221	13.2702	0.310159	5.0331	0.485614	7.86159	0.741905	11.0925	0.849796	12.8066
0.265483	4.24477	0.115408	1.82995	0.352198	5.63816	0.477594	7.58856	0.625069	9.36076	0.88034	13.1028	0.313663	5.01415	0.487463	7.77427	0.743068	10.9573	0.850912	12.6459
0.268565	4.23102	0.117512	1.83618	0.354505	5.5917	0.479785	7.51217	0.625686	9.32355	0.881472	12.9403	0.317171	4.99582	0.489332	7.6898	0.744245	10.8259	0.852046	12.4898
0.27159	4.21677	0.119615	1.84222	0.35687	5.54748	0.482007	7.43844	0.626082	9.29994	0.882618	12.7822	0.320682	4.97807	0.491219	7.60808	0.745435	10.6982	0.853197	12.3382
0.274555	4.20203	0.121718	1.8481	0.359293	5.50541	0.484258	7.36726	0.626654	9.26629	0.883778	12.6286	0.324197	4.96087	0.493126	7.52897	0.74664	10.5741	0.854365	12.1908
0.277461	4.18681	0.123821	1.8538	0.361776	5.46542	0.486538	7.2985	0.627277	9.23009	0.884952	12.4793	0.327713	4.9442	0.495052	7.45236	0.747858	10.4534	0.85555	12.0476
0.280307	4.17111	0.125924	1.85934	0.364318	5.42743	0.488848	7.23206	0.628129	9.18149	0.886139	12.334	0.331232	4.92802	0.496997	7.37815	0.74909	10.3361	0.856752	11.9082
0.283092	4.15495	0.128026	1.86473	0.36692	5.39137	0.491185	7.16785	0.629212	9.12101	0.88734	12.1926	0.334753	4.9123	0.49896	7.30624	0.750336	10.2218	0.857971	11.7727
0.285817	4.13834	0.130128	1.86997	0.369582	5.35714	0.493551	7.10576	0.630531	9.04934	0.888554	12.0549	0.338274	4.89702	0.500941	7.23652	0.751596	10.1107	0.859207	11.6409
0.28848	4.12131	0.132229	1.87506	0.372304	5.32469	0.495945	7.04571	0.632091	8.96724	0.889781	11.9209	0.341797	4.88217	0.502941	7.16892	0.752869	10.0024	0.860461	11.5125
0.291083	4.10387	0.13433	1.88001	0.375086	5.29393	0.498365	6.98761	0.633898	8.87557	0.891022	11.7903	0.345319	4.8677	0.504958	7.10334	0.754156	9.89701	0.861731	11.3876
0.293626	4.08605	0.13643	1.88483	0.377926	5.26479	0.500813	6.93138	0.635723	8.7865	0.892276	11.6631	0.348841	4.85361	0.506994	7.03971	0.755288	9.80738	0.863019	11.2659
0.29611	4.06788	0.138531	1.88953	0.380825	5.23719	0.503287	6.87695	0.637565	8.69993	0.893543	11.5392	0.352363	4.83986	0.509047	6.97795	0.756262	9.73255	0.864324	11.1474
0.298537	4.04939	0.14063	1.89409	0.383779	5.21106	0.505788	6.82423	0.639426	8.61578	0.894823	11.4183	0.355883	4.82646	0.511117	6.91798	0.757072	9.67175	0.865646	11.0318
0.300907	4.0306	0.142729	1.89854	0.38679	5.18632	0.508314	6.77317	0.641303	8.53394	0.896116	11.3005	0.359402	4.81336	0.513205	6.85973	0.757717	9.62434	0.866986	10.9193
0.303222	4.01155	0.144828	1.90288	0.389854	5.16291	0.510865	6.72369	0.643198	8.45434	0.897422	11.1855	0.362919	4.80056	0.51531	6.80315	0.758193	9.58986	0.868343	10.8095
0.305484	3.99226	0.146926	1.9071	0.39297	5.14074	0.513441	6.67574	0.64511	8.37688	0.898741	11.0734	0.366434	4.78804	0.517433	6.74817	0.758498	9.56795	0.869717	10.7025
0.307694	3.97278	0.149024	1.91122	0.396136	5.11976	0.516041	6.62924	0.647039	8.3015	0.900073	10.9639	0.369946	4.77579	0.519572	6.69472	0.758939	9.53668	0.871108	10.5981
0.309855	3.95312	0.151121	1.91523	0.39935	5.09989	0.518666	6.58415	0.648985	8.22811	0.901418	10.8571	0.373455	4.76379	0.521729	6.64276	0.759419	9.50298	0.872517	10.4963
0.311969	3.93333	0.153218	1.91914	0.40261	5.08107	0.521314	6.54042	0.650947	8.15664	0.902775	10.7528	0.376959	4.75202	0.523902	6.59223	0.760075	9.45763	0.873942	10.3969
0.314037	3.91343	0.155314	1.92296	0.405915	5.06324	0.523985	6.49798	0.652926	8.08703	0.904145	10.6509	0.38046	4.74047	0.526092	6.54308	0.760909	9.40106	0.875385	10.2999
0.316061	3.89346	0.15741	1.92668	0.409261	5.04633	0.52668	6.45679	0.654922	8.0192	0.905527	10.5514	0.383957	4.72914	0.528298	6.49526	0.761925	9.3338	0.876846	10.2052
0.318045	3.87343	0.159506	1.93032	0.412647	5.03029	0.529396	6.4168	0.656934	7.95311	0.906922	10.4541	0.387448	4.718	0.530521	6.44872	0.763126	9.25644	0.878323	10.1127
0.319989	3.85339	0.161601	1.93386	0.41607	5.01506	0.532135	6.37797	0.658962	7.88868	0.90833	10.3591	0.390934	4.70704	0.532761	6.40342	0.764516	9.16968	0.879625	10.0339
0.321896	3.83335	0.163695	1.93733	0.419529	5.0006	0.534895	6.34025	0.661007	7.82587	0.909749	10.2662	0.394414	4.69626	0.535017	6.35933	0.76592	9.085	0.880745	9.968
0.323768	3.81333	0.165789	1.94071	0.423021	4.98684	0.537677	6.30361	0.663067	7.76462	0.911181	10.1754	0.397887	4.68564	0.53729	6.31639	0.767337	9.00232	0.881678	9.91434
0.325607	3.79337	0.167883	1.94401	0.426544	4.97375	0.54048	6.268	0.665144	7.70487	0.912439	10.0979	0.401355	4.67518	0.539578	6.27457	0.768768	8.92158	0.88242	9.87245
0.327415	3.77347	0.169976	1.94724	0.430097	4.96127	0.543303	6.23339	0.667236	7.64658	0.913519	10.033	0.404814	4.66485	0.541884	6.23384	0.770212	8.84273	0.882969	9.84195
0.329194	3.75366	0.172068	1.9504	0.433677	4.94938	0.546146	6.19973	0.669344	7.5897	0.914416	9.9801	0.408267	4.65466	0.544205	6.19415	0.771669	8.76569	0.883321	9.82256
0.330945	3.73397	0.17416	1.95348	0.437283	4.93802	0.549009	6.16701	0.671467	7.53418	0.915129	9.93879	0.411711	4.64459	0.546543	6.15548	0.773139	8.69042	0.883829	9.79486
0.332671	3.71439	0.176252	1.9565	0.440912	4.92717	0.551891	6.13518	0.673606	7.47999	0.915655	9.9087	0.415147	4.63464	0.548897	6.1178	0.774623	8.61685	0.884383	9.76499
0.334373	3.69495	0.178343	1.95945	0.444564	4.91678	0.554793	6.10421	0.675761	7.42707	0.915993	9.88956	0.418574	4.62479	0.551267	6.08107	0.776119	8.54494	0.88514	9.72476
0.336052	3.67566	0.180434	1.96233	0.448235	4.90683	0.557713	6.07408	0.67793	7.37539	0.916479	9.86221	0.421992	4.61505	0.553654	6.04527	0.777629	8.47463	0.886103	9.67451
0.33771	3.65653	0.182524	1.96515	0.451926	4.89728	0.560652	6.04474	0.680115	7.32492	0.917009	9.83271	0.425399	4.60539	0.556057	6.01036	0.779152	8.40588	0.887277	9.61467
0.339348	3.63758	0.184614	1.96791	0.455634	4.88811	0.563608	6.01619	0.682315	7.27561	0.917732	9.79295	0.428797	4.59582	0.558476	5.97632	0.780689	8.33864	0.888666	9.54574
0.340968	3.6188	0.186704	1.97062	0.459357	4.87928	0.566583	5.98838	0.684531	7.22742	0.918651	9.74324	0.432184	4.58632	0.560911	5.94313	0.782238	8.27286	0.890276	9.46827
0.342571	3.60021	0.188793	1.97326	0.463096	4.87079	0.569575	5.9613	0.686761	7.18034	0.919768	9.684	0.43556	4.57689	0.563363	5.91076	0.783801	8.20851	0.891902	9.39251
0.344158	3.58182	0.190882	1.97585	0.466847	4.8626	0.572584	5.93492	0.689006	7.13431	0.921086	9.61569	0.438924	4.56753	0.565831	5.87919	0.785377	8.14553	0.893546	9.31839
0.345731	3.56363	0.19297	1.97839	0.470611	4.85468	0.575609	5.90922	0.691266	7.08932	0.92261	9.53882	0.442277	4.55822	0.568316	5.84839	0.786966	8.0839	0.895207	9.24587
0.347289	3.54565	0.195058	1.98088	0.474385	4.84703	0.578652	5.88417	0.693541	7.04533	0.924146	9.46354	0.445617	4.54896	0.570817	5.81834	0.788568	8.02356	0.896885	9.17492
0.348836	3.52788	0.197146	1.98331	0.478169	4.83963	0.58171	5.85975	0.69583	7.00231	0.925694	9.3898	0.448944	4.53975	0.573335	5.78903	0.790183	7.9645	0.89858	9.10547
0.35037	3.51032	0.199233	1.9857	0.481962	4.83244	0.584784	5.83595	0.698134	6.96024	0.927252	9.31755	0.452258	4.53058	0.575869	5.76042	0.791812	7.90666	0.900292	9.03749
0.351894	3.49298	0.20132	1.98803	0.485762	4.82547	0.587874	5.81274	0.700453	6.91909	0.928823	9.24676	0.455558	4.52144	0.57842	5.73252	0.793453	7.85002	0.90202	8.97094
0.353407	3.47586	0.203407	1.99033	0.489569	4.81869	0.59098	5.7901	0.702786	6.87883	0.930404	9.17739	0.458844	4.51233	0.580988	5.70528	0.795108	7.79454	0.903766	8.90578
0.354912	3.45896	0.205493	1.99257	0.493382	4.81209	0.5941	5.76802	0.705133	6.83943	0.931998	9.10938	0.462116	4.50324	0.583572	5.6787	0.796776	7.7402	0.905528	8.84197
0.356408	3.44228	0.207578	1.99478	0.4972	4.80566	0.597236	5.74648	0.707495	6.80088	0.933602	9.04272	0.465373	4.49417	0.586173	5.65277	0.798457	7.68695	0.907307	8.77947
0.357896	3.42583	0.209664	1.99694	0.501022	4.79938	0.600386	5.72547	0.709872	6.76316	0.935218	8.97735	0.468614	4.48512	0.588791	5.62745	0.800151	7.63478	0.909103	8.71825
0.359377	3.4096	0.211749	1.99906	0.504847	4.79324	0.60355	5.70495	0.712262	6.72623	0.936844	8.91325	0.47184	4.47608	0.591426	5.60275	0.801858	7.58365	0.910915	8.65827
0.360852	3.39359	0.213834	2.00114	0.508675	4.78724	0.606728	5.68493	0.714667	6.69008	0.938482	8.85038	0.475049	4.46705	0.594078	5.57863	0.803578	7.53354	0.912744	8.5995
0.362321	3.37781	0.215918	2.00318	0.512504	4.78135	0.609921	5.66538	0.717087	6.65468	0.940131	8.78871	0.478242	4.45801	0.596747	5.55509	0.805312	7.48442	0.91459	8.5419
0.363784	3.36225	0.218003	2.00519	0.516335	4.77558	0.613127	5.6463	0.71952	6.62003	0.94179	8.7282	0.481419	4.44898	0.599433	5.53212	0.807059	7.43626	0.916452	8.48546
0.365243	3.34691	0.220086	2.00715	0.520166	4.76991	0.616346	5.62766	0.721968	6.58609	0.943461	8.66883	0.484577	4.43995	0.602137	5.50969	0.808818	7.38904	0.918331	8.43013
0.366697	3.33179	0.22217	2.00908	0.523996	4.76433	0.619578	5.60946	0.72443	6.55286	0.945143	8.61057	0.487719	4.4309	0.604857	5.4878	0.810591	7.34274	0.920226	8.37588
0.368147	3.31688	0.224253	2.01098	0.527826	4.75884	0.622824	5.59168	0.726906	6.5203	0.946835	8.55338	0.490842	4.42185	0.607594	5.46642	0.812377	7.29733	0.922137	8.3227
0.369594	3.3022	0.226336	2.01284	0.531655	4.75343	0.626083	5.5743	0.729396	6.48841	0.948538	8.49725	0.493947	4.41279	0.610349	5.44556	0.814177	7.2528	0.924064	8.27055
0.371037	3.28773	0.228419	2.01467	0.535481	4.74808	0.629354	5.55733	0.7319	6.45717	0.950251	8.44214	0.497034	4.40371	0.613121	5.42519	0.815989	7.20911	0.926008	8.21941
0.372478	3.27347	0.230501	2.01647	0.539304	4.7428	0.632637	5.54074	0.734418	6.42656	0.951975	8.38802	0.500102	4.39461	0.61591	5.40531	0.817814	7.16625	0.927968	8.16925
0.373916	3.25942	0.232583	2.01823	0.543124	4.73758	0.635933	5.52452	0.736951	6.39657	0.95371	8.33488	0.503151	4.3855	0.618717	5.3859	0.819653	7.12419	0.929944	8.12004
0.375353	3.24559	0.234665	2.01996	0.546941	4.73241	0.639241	5.50867	0.739497	6.36718	0.955455	8.28269	0.50618	4.37636	0.62154	5.36695	0.821505	7.08293	0.931936	8.07177
0.376787	3.23195	0.236747	2.02167	0.550753	4.72729	0.64256	5.49317	0.742057	6.33838	0.95721	8.23143	0.509189	4.3672	0.624381	5.34845	0.823369	7.04244	0.933944	8.02441
0.378221	3.21853	0.238828	2.02334	0.554561	4.72221	0.645892	5.47802	0.744632	6.31016	0.958976	8.18106	0.512179	4.35802	0.627239	5.33039	0.825247	7.00269	0.935968	7.97793
0.379653	3.2053	0.240909	2.02499	0.558363	4.71716	0.649235	5.4632	0.747221	6.28249	0.960752	8.13158	0.515149	4.34881	0.630113	5.31276	0.827138	6.96369	0.938008	7.93232
0.381084	3.19227	0.24299	2.02661	0.56216	4.71214	0.652589	5.44871	0.749823	6.25537	0.962538	8.08296	0.518098	4.33958	0.633005	5.29554	0.829042	6.92539	0.940063	7.88756
0.382514	3.17944	0.245071	2.0282	0.56595	4.70715	0.655954	5.43453	0.75244	6.22879	0.964334	8.03518	0.521027	4.33032	0.635914	5.27873	0.83096	6.8878	0.942134	7.84362
0.383945	3.1668	0.247151	2.02977	0.569733	4.70218	0.659331	5.42067	0.755071	6.20273	0.966141	7.98822	0.523936	4.32103	0.63884	5.26232	0.83289	6.8509	0.944221	7.80049
0.385374	3.15436	0.249231	2.03131	0.57351	4.69723	0.662719	5.4071	0.757716	6.17718	0.967957	7.94205	0.526824	4.31172	0.641782	5.24629	0.834833	6.81466	0.946323	7.75814
0.386804	3.1421	0.251311	2.03282	0.577279	4.6923	0.666117	5.39382	0.760375	6.15213	0.969783	7.89667	0.52969	4.30238	0.644741	5.23064	0.83679	6.77907	0.948441	7.71656
0.388234	3.13003	0.253391	2.03431	0.58104	4.68737	0.669526	5.38083	0.763048	6.12756	0.97162	7.85206	0.532536	4.293	0.647716	5.21536	0.838759	6.74412	0.950574	7.67573
0.389665	3.11814	0.25547	2.03578	0.584792	4.68245	0.672945	5.36812	0.765736	6.10348	0.973466	7.80819	0.535361	4.2836	0.650707	5.20043	0.840742	6.7098	0.952722	7.63563
0.391096	3.10643	0.257549	2.03722	0.588536	4.67753	0.676375	5.35567	0.768437	6.07986	0.975322	7.76504	0.538165	4.27418	0.653715	5.18585	0.842737	6.67608	0.954886	7.59625
0.392528	3.0949	0.259628	2.03864	0.592271	4.67261	0.679815	5.34349	0.771153	6.0567	0.977188	7.72261	0.540948	4.26472	0.656739	5.17161	0.844746	6.64296	0.957064	7.55756
0.39396	3.08354	0.261707	2.04004	0.595996	4.66769	0.683265	5.33156	0.773883	6.03399	0.979063	7.68088	0.54371	4.25524	0.659778	5.15771	0.846768	6.61043	0.959258	7.51956
0.395394	3.07236	0.263785	2.04142	0.599711	4.66276	0.686724	5.31988	0.776627	6.01171	0.980948	7.63983	0.546451	4.24573	0.662833	5.14412	0.848803	6.57847	0.961466	7.48223
0.396829	3.06135	0.265864	2.04277	0.603416	4.65782	0.690194	5.30845	0.779386	5.98987	0.982843	7.59944	0.54917	4.23619	0.665903	5.13085	0.85085	6.54706	0.96369	7.44555
0.398265	3.0505	0.267942	2.04411	0.60711	4.65288	0.693673	5.29725	0.782159	5.96844	0.984747	7.5597	0.551869	4.22663	0.668988	5.11788	0.852911	6.5162	0.965928	7.40951
0.399703	3.03982	0.27002	2.04542	0.610793	4.64791	0.697162	5.28628	0.784946	5.94743	0.986661	7.52061	0.554546	4.21705	0.672087	5.1052	0.854984	6.48587	0.968181	7.37409
0.401142	3.0293	0.272098	2.04672	0.614464	4.64294	0.70066	5.27553	0.787748	5.92682	0.988584	7.48213	0.557203	4.20744	0.675202	5.09282	0.857071	6.45607	0.970449	7.33928
0.402582	3.01894	0.274175	2.04799	0.618124	4.63794	0.704167	5.265	0.790564	5.9066	0.990517	7.44426	0.559839	4.19781	0.67833	5.08071	0.85917	6.42678	0.972731	7.30506
0.404025	3.00873	0.276253	2.04925	0.621772	4.63293	0.707683	5.25469	0.793394	5.88677	0.992459	7.40699	0.562454	4.18816	0.681472	5.06887	0.861283	6.39799	0.975027	7.27143
0.405469	2.99868	0.27833	2.05049	0.625408	4.62789	0.711208	5.24458	0.796239	5.86732	0.99441	7.37031	0.565049	4.1785	0.684628	5.0573	0.863408	6.36969	0.977338	7.23837
0.406915	2.98878	0.280407	2.0517	0.629031	4.62283	0.714742	5.23467	0.799099	5.84824	0.996371	7.33419	0.567624	4.16881	0.687798	5.04598	0.865546	6.34188	0.979664	7.20587
0.408363	2.97903	0.282484	2.05291	0.632641	4.61774	0.718284	5.22496	0.801973	5.82952	0.99834	7.29863	0.570178	4.15911	0.69098	5.03491	0.867696	6.31453	0.982003	7.17392
0.409814	2.96943	0.28456	2.05409	0.636238	4.61262	0.721835	5.21545	0.804862	5.81117	1.00032	7.26363	0.572712	4.1494	0.694174	5.02408	0.86986	6.28764	0.984356	7.14249
0.411266	2.95997	0.286637	2.05526	0.639821	4.60748	0.725394	5.20612	0.807765	5.79316			0.575226	4.13967	0.697381	5.01349	0.872036	6.26121	0.986724	7.11159
0.412721	2.95065	0.288713	2.05641	0.643391	4.60231	0.728962	5.19697	0.810684	5.7755			0.577721	4.12993	0.7006	5.00312	0.874225	6.23521	0.989105	7.08121
0.414177	2.94148	0.29079	2.05754	0.646947	4.59711	0.732537	5.188	0.813617	5.75817			0.580196	4.12018	0.703831	4.99296	0.876427	6.20965	0.9915	7.05132
0.415637	2.93243	0.292865	2.05866	0.650488	4.59187	0.73612	5.1792	0.816565	5.74118			0.582652	4.11043	0.707072	4.98303	0.878642	6.18452	0.993909	7.02192
0.417098	2.92353	0.294941	2.05976	0.654015	4.5866	0.73971	5.17057	0.819527	5.72451			0.585089	4.10066	0.710325	4.97329	0.880869	6.1598	0.996332	6.99301
0.418562	2.91476	0.297017	2.06085	0.657527	4.5813	0.743308	5.1621	0.822505	5.70816			0.587507	4.0909	0.713588	4.96376	0.883108	6.13549	0.998768	6.96456
0.420029	2.90611	0.299093	2.06192	0.661025	4.57596	0.746914	5.15379	0.825498	5.69213			0.589906	4.08113	0.71686	4.95441	0.885361	6.11157	1.00122	6.93658
0.421498	2.8976	0.301168	2.06298	0.664507	4.57059	0.750526	5.14563	0.828505	5.6764			0.592287	4.07136	0.720143	4.94526	0.887625	6.08805		
0.422969	2.88921	0.303243	2.06402	0.667974	4.56518	0.754145	5.13763	0.831528	5.66097			0.59465	4.06159	0.723435	4.93628	0.889903	6.06491		
0.424444	2.88095	0.305318	2.06505	0.671426	4.55973	0.757771	5.12977	0.834566	5.64584			0.596996	4.05183	0.726735	4.92747	0.892192	6.04215		
0.425921	2.8728	0.307393	2.06606	0.674861	4.55425	0.761403	5.12205	0.837618	5.631			0.599324	4.04207	0.730044	4.91884	0.894494	6.01976		
0.4274	2.86478	0.309468	2.06706	0.678282	4.54873	0.765042	5.11447	0.840686	5.61645			0.601634	4.03231	0.733361	4.91036	0.896809	5.99773		
0.428883	2.85688	0.311543	2.06805	0.681686	4.54317	0.768687	5.10703	0.84377	5.60217			0.603928	4.02256	0.736686	4.90204	0.899136	5.97606		
0.430368	2.84909	0.313617	2.06903	0.685074	4.53758	0.772337	5.09972	0.846868	5.58818			0.606204	4.01283	0.740018	4.89388	0.901475	5.95473		
0.431856	2.84141	0.315692	2.06999	0.688446	4.53195	0.775993	5.09253	0.849982	5.57445			0.608465	4.0031	0.743357	4.88585	0.903827	5.93374		
0.433346	2.83385	0.317766	2.07094	0.691801	4.52628	0.779654	5.08546	0.853111	5.56099			0.610709	3.99339	0.746703	4.87797	0.906191	5.91309		
0.43484	2.82639	0.31984	2.07187	0.695141	4.52057	0.783321	5.07851	0.856255	5.5478			0.612937	3.98369	0.750054	4.87022	0.908567	5.89277		
0.436336	2.81905	0.321914	2.0728	0.698463	4.51482	0.786993	5.07168	0.859415	5.53486			0.61515	3.974	0.753412	4.86261	0.910955	5.87277		
0.437835	2.81181	0.323988	2.07371	0.70177	4.50904	0.790669	5.06496	0.86259	5.52217			0.617347	3.96434	0.756774	4.85511	0.913355	5.85309		
0.439338	2.80467	0.326062	2.07461	0.705059	4.50321	0.794349	5.05835	0.86578	5.50973			0.619529	3.95469	0.760142	4.84774	0.915768	5.83372		
0.440843	2.79764	0.328136	2.07551	0.708332	4.49736	0.798034	5.05184	0.868986	5.49754			0.621697	3.94506	0.763514	4.84049	0.918192	5.81466		
0.442351	2.79071	0.330209	2.07638	0.711588	4.49146	0.801723	5.04543	0.872207	5.48558			0.62385	3.93546	0.76689	4.83334	0.920629	5.79589		
0.443861	2.78388	0.332283	2.07725	0.714828	4.48553	0.805415	5.03913	0.875444	5.47386			0.625988	3.92588	0.77027	4.8263	0.923077	5.77742		
0.445375	2.77714	0.334356	2.07811	0.71805	4.47956	0.809111	5.03291	0.878696	5.46238			0.628113	3.91632	0.773654	4.81937	0.925538	5.75923		
0.446892	2.77051	0.336429	2.07896	0.721256	4.47356	0.81281	5.02679	0.881964	5.45112			0.630224	3.90679	0.77704	4.81253	0.92801	5.74133		
0.448411	2.76396	0.338502	2.07979	0.724445	4.46752	0.816512	5.02075	0.885247	5.44008			0.632322	3.89728	0.78043	4.80579	0.930494	5.72371		
0.449934	2.75751	0.340575	2.08062	0.727618	4.46145	0.820216	5.0148	0.888545	5.42927			0.634406	3.8878	0.783821	4.79914	0.93299	5.70636		
0.45146	2.75115	0.342648	2.08144	0.730773	4.45535	0.823923	5.00893	0.891859	5.41867			0.636478	3.87835	0.787215	4.79258	0.935498	5.68927		
0.452988	2.74488	0.344721	2.08224	0.733912	4.44921	0.827632	5.00314	0.895189	5.40828			0.638537	3.86893	0.79061	4.7861	0.938017	5.67246		
0.454519	2.7387	0.346794	2.08304	0.737034	4.44304	0.831343	4.99743	0.898534	5.39811			0.640583	3.85955	0.794006	4.77971	0.940549	5.6559		
0.456054	2.7326	0.348866	2.08383	0.740139	4.43684	0.835055	4.99178	0.901894	5.38814			0.642618	3.85019	0.797403	4.77338	0.943092	5.63959		
0.457591	2.72659	0.350938	2.0846	0.743228	4.43061	0.838769	4.98621	0.90527	5.37837			0.64464	3.84087	0.800801	4.76713	0.945646	5.62354		
0.459132	2.72067	0.353011	2.08537	0.7463	4.42435	0.842483	4.98071	0.908661	5.36879			0.646651	3.83158	0.804199	4.76096	0.948213	5.60773		
0.460675	2.71483	0.355083	2.08613	0.749356	4.41806	0.846199	4.97527	0.912067	5.35942			0.648651	3.82233	0.807596	4.75485	0.95079	5.59216		
0.462221	2.70906	0.357155	2.08688	0.752395	4.41175	0.849914	4.96989	0.915489	5.35023			0.650639	3.81311	0.810994	4.7488	0.95338	5.57683		
0.46377	2.70338	0.359227	2.08762	0.755417	4.4054	0.853631	4.96457	0.918925	5.34123			0.652617	3.80393	0.81439	4.74281	0.95598	5.56173		
0.465322	2.69778	0.361299	2.08836	0.758424	4.39903	0.857347	4.95931	0.922377	5.33242			0.654584	3.79478	0.817786	4.73688	0.958593	5.54686		
0.466877	2.69225	0.363371	2.08908	0.761414	4.39264	0.861062	4.95411	0.925845	5.32379			0.65654	3.78568	0.82118	4.73101	0.961216	5.53222		
0.468436	2.6868	0.365443	2.0898	0.764388	4.38622	0.864777	4.94895	0.929327	5.31534			0.658486	3.77661	0.824572	4.72519	0.963852	5.5178		
0.469996	2.68142	0.367514	2.09051	0.767345	4.37978	0.868492	4.94385	0.932824	5.30706			0.660422	3.76758	0.827962	4.71942	0.966498	5.50359		
0.47156	2.67612	0.369586	2.09121	0.770287	4.37331	0.872205	4.9388	0.936336	5.29895			0.662349	3.7586	0.83135	4.7137	0.969156	5.4896		
0.473127	2.67089	0.371657	2.0919	0.773213	4.36683	0.875917	4.93379	0.939863	5.29101			0.664266	3.74965	0.834735	4.70802	0.971825	5.47582		
0.474697	2.66573	0.373729	2.09259	0.776124	4.36032	0.879628	4.92882	0.943404	5.28324			0.666173	3.74074	0.838117	4.70239	0.974505	5.46225		
0.476269	2.66064	0.3758	2.09326	0.779018	4.35379	0.883336	4.92389	0.946961	5.27563			0.668072	3.73188	0.841496	4.69679	0.977197	5.44888		
0.477845	2.65562	0.377871	2.09393	0.781897	4.34725	0.887043	4.91901	0.950531	5.26818			0.669961	3.72306	0.844871	4.69124	0.979899	5.43571		
0.479423	2.65067	0.379942	2.0946	0.784761	4.34068	0.890747	4.91416	0.954117	5.26088			0.671842	3.71428	0.848243	4.68572	0.982613	5.42274		
0.481005	2.64578	0.382013	2.09525	0.78761	4.3341	0.894449	4.90935	0.957716	5.25374			0.673715	3.70554	0.85161	4.68023	0.985338	5.40996		
0.482589	2.64096	0.384084	2.0959	0.790443	4.32751	0.898149	4.90457	0.96133	5.24675			0.675579	3.69685	0.854973	4.67478	0.988074	5.39737		
0.484176	2.6362	0.386155	2.09654	0.793261	4.3209	0.901845	4.89983	0.964958	5.2399			0.677435	3.6882	0.858332	4.66935	0.990821	5.38497		
0.485765	2.63151	0.388226	2.09718	0.796065	4.31427	0.905538	4.89512	0.9686	5.2332			0.679283	3.6796	0.861685	4.66396	0.993579	5.37276		
0.487358	2.62688	0.390297	2.0978	0.798853	4.30763	0.909228	4.89043	0.972255	5.22664			0.681123	3.67104	0.865034	4.65859	0.996348	5.36072		
0.488953	2.62231	0.392367	2.09842	0.801627	4.30098	0.912915	4.88578	0.975924	5.22022			0.682956	3.66253	0.868377	4.65324	0.999128	5.34886		
0.490552	2.6178	0.394438	2.09904	0.804386	4.29432	0.916598	4.88115	0.979607	5.21394			0.684781	3.65406	0.871714	4.64792	1.00192	5.33718		
0.492153	2.61335	0.396508	2.09965	0.807131	4.28765	0.920277	4.87655	0.983303	5.20778			0.686599	3.64564	0.875046	4.64262				
0.493756	2.60896	0.398578	2.10025	0.809862	4.28097	0.923952	4.87197	0.987012	5.20176			0.68841	3.63726	0.878371	4.63734				
0.495363	2.60463	0.400649	2.10084	0.812579	4.27428	0.927622	4.86741	0.990735	5.19586			0.690214	3.62893	0.88169	4.63208				
0.496972	2.60035	0.402719	2.10143	0.815281	4.26758	0.931289	4.86287	0.99447	5.19009			0.692012	3.62064	0.885002	4.62683				
0.498584	2.59613	0.404789	2.10202	0.81797	4.26087	0.934951	4.85836	0.998217	5.18444			0.693803	3.6124	0.888308	4.6216				
0.500199	2.59196	0.406859	2.10259	0.820645	4.25416	0.938608	4.85386	1.00198	5.17891			0.695587	3.60421	0.891606	4.61639				
0.501817	2.58785	0.408929	2.10316	0.823307	4.24745	0.94226	4.84939					0.697365	3.59606	0.894898	4.61118				
0.503437	2.58379	0.410999	2.10373	0.825955	4.24072	0.945908	4.84493					0.699138	3.58797	0.898182	4.60599				
0.50506	2.57978	0.413069	2.10429	0.82859	4.234	0.94955	4.84048					0.700904	3.57991	0.901458	4.60081				
0.506685	2.57583	0.415139	2.10484	0.831211	4.22727	0.953187	4.83605					0.702665	3.57191	0.904726	4.59564				
0.508313	2.57192	0.417208	2.10539	0.83382	4.22054	0.956819	4.83164					0.70442	3.56395	0.907987	4.59048				
0.509944	2.56807	0.419278	2.10593	0.836416	4.2138	0.960445	4.82724					0.706169	3.55604	0.911239	4.58532				
0.511578	2.56426	0.421348	2.10647	0.838999	4.20707	0.964066	4.82286					0.707913	3.54817	0.914483	4.58017				
0.513214	2.56051	0.423417	2.107	0.841569	4.20034	0.967681	4.81848					0.709652	3.54036	0.917718	4.57503				
0.514852	2.5568	0.425486	2.10753	0.844127	4.1936	0.97129	4.81412					0.711386	3.53259	0.920945	4.56989				
0.516493	2.55313	0.427556	2.10805	0.846673	4.18687	0.974893	4.80977					0.713115	3.52487	0.924163	4.56475				
0.518137	2.54952	0.429625	2.10857	0.849206	4.18014	0.978491	4.80543					0.714839	3.51719	0.927372	4.55962				
0.519784	2.54595	0.431694	2.10908	0.851727	4.17341	0.982082	4.8011					0.716559	3.50956	0.930571	4.55448				
0.521432	2.54242	0.433764	2.10958	0.854237	4.16668	0.985668	4.79678					0.718274	3.50198	0.933762	4.54935				
0.523084	2.53894	0.435833	2.11009	0.856734	4.15996	0.989247	4.79246					0.719984	3.49445	0.936943	4.54423				
0.524738	2.5355	0.437902	2.11058	0.85922	4.15324	0.992819	4.78816					0.72169	3.48696	0.940114	4.5391				
0.526394	2.5321	0.439971	2.11107	0.861694	4.14652	0.996385	4.78386					0.723392	3.47952	0.943276	4.53397				
0.528053	2.52875	0.442039	2.11156	0.864157	4.13982	0.999945	4.77958					0.72509	3.47213	0.946428	4.52883				
0.529714	2.52544	0.444108	2.11204	0.866609	4.13311	1.0035	4.77529					0.726784	3.46478	0.94957	4.5237				
0.531378	2.52217	0.446177	2.11252	0.869049	4.12642							0.728474	3.45748	0.952702	4.51857				
0.533044	2.51894	0.448246	2.113	0.871478	4.11972							0.730161	3.45023	0.955824	4.51343				
0.534713	2.51574	0.450314	2.11347	0.873897	4.11304							0.731844	3.44302	0.958936	4.50829				
0.536383	2.51259	0.452383	2.11393	0.876304	4.10637							0.733523	3.43586	0.962038	4.50315				
0.538057	2.50948	0.454452	2.11439	0.878701	4.0997							0.735199	3.42875	0.96513	4.498				
0.539732	2.5064	0.45652	2.11485	0.881087	4.09304							0.736871	3.42168	0.968211	4.49286				
0.541411	2.50336	0.458588	2.1153	0.883463	4.08639							0.73854	3.41466	0.971281	4.4877				
0.543091	2.50036	0.460657	2.11575	0.885829	4.07975							0.740206	3.40768	0.974342	4.48254				
0.544774	2.4974	0.462725	2.11619	0.888184	4.07312							0.741869	3.40075	0.977391	4.47738				
0.546458	2.49447	0.464793	2.11663	0.890529	4.0665							0.743529	3.39387	0.98043	4.47222				
0.548146	2.49157	0.466862	2.11707	0.892865	4.05989							0.745187	3.38703	0.983459	4.46705				
0.549835	2.48871	0.46893	2.1175	0.89519	4.05329							0.746841	3.38023	0.986477	4.46187				
0.551527	2.48588	0.470998	2.11793	0.897506	4.04671							0.748493	3.37348	0.989484	4.45669				
0.553221	2.48309	0.473066	2.11835	0.899811	4.04013							0.750142	3.36678	0.99248	4.45151				
0.554917	2.48033	0.475134	2.11877	0.902108	4.03357							0.751789	3.36012	0.995466	4.44632				
0.556616	2.47761	0.477202	2.11919	0.904395	4.02702							0.753433	3.3535	0.998441	4.44113				
0.558316	2.47491	0.479269	2.1196	0.906672	4.02048							0.755075	3.34693	1.00141	4.43593				
0.560019	2.47225	0.481337	2.12001	0.908941	4.01396							0.756715	3.3404						
0.561724	2.46962	0.483405	2.12042	0.9112	4.00745							0.758352	3.33392						
0.563431	2.46702	0.485473	2.12082	0.91345	4.00095							0.759987	3.32748						
0.56514	2.46445	0.48754	2.12122	0.915692	3.99446							0.76162	3.32108						
0.566852	2.46191	0.489608	2.12161	0.917924	3.98799							0.763252	3.31473						
0.568565	2.4594	0.491675	2.12201	0.920148	3.98154							0.764881	3.30842						
0.570281	2.45692	0.493743	2.12239	0.922363	3.9751							0.766509	3.30215						
0.571998	2.45447	0.49581	2.12278	0.92457	3.96867							0.768134	3.29592						
0.573718	2.45204	0.497878	2.12316	0.926768	3.96226							0.769758	3.28974						
0.575439	2.44965	0.499945	2.12354	0.928958	3.95587							0.771381	3.2836						
0.577163	2.44728	0.502012	2.12392	0.93114	3.94949							0.773002	3.2775						
0.578889	2.44494	0.504079	2.12429	0.933313	3.94313							0.774621	3.27144						
0.580617	2.44262	0.506147	2.12466	0.935479	3.93678							0.776239	3.26543						
0.582346	2.44033	0.508214	2.12502	0.937637	3.93045							0.777855	3.25945						
0.584078	2.43807	0.510281	2.12539	0.939786	3.92413							0.779471	3.25352						
0.585811	2.43583	0.512348	2.12575	0.941928	3.91784							0.781084	3.24763						
0.587547	2.43362	0.514415	2.1261	0.944063	3.91156							0.782697	3.24177						
0.589285	2.43144	0.516482	2.12646	0.946189	3.90529							0.784309	3.23596						
0.591024	2.42927	0.518548	2.12681	0.948308	3.89904							0.785919	3.23019						
0.592765	2.42714	0.520615	2.12716	0.95042	3.89281							0.787528	3.22445						
0.594508	2.42502	0.522682	2.1275	0.952525	3.8866							0.789137	3.21876						
0.596253	2.42293	0.524749	2.12785	0.954622	3.88041							0.790744	3.21311						
0.598	2.42086	0.526816	2.12819	0.956712	3.87423							0.792351	3.20749						
0.599749	2.41882	0.528882	2.12852	0.958795	3.86807							0.793956	3.20192						
0.6015	2.4168	0.530949	2.12886	0.960871	3.86193							0.795561	3.19638						
0.603252	2.4148	0.533015	2.12919	0.96294	3.85581							0.797165	3.19088						
0.605006	2.41282	0.535082	2.12952	0.965003	3.84971							0.798769	3.18542						
0.606762	2.41087	0.537148	2.12985	0.967058	3.84362							0.800371	3.17999						
0.60852	2.40894	0.539215	2.13017	0.969107	3.83755							0.801973	3.17461						
0.610279	2.40702	0.541281	2.13049	0.971149	3.8315							0.803575	3.16926						
0.61204	2.40513	0.543347	2.13081	0.973185	3.82547							0.805176	3.16394						
0.613803	2.40326	0.545414	2.13113	0.975214	3.81946							0.806776	3.15867						
0.615568	2.40141	0.54748	2.13144	0.977237	3.81347							0.808376	3.15343						
0.617335	2.39958	0.549546	2.13175	0.979254	3.8075							0.809976	3.14823						
0.619103	2.39777	0.551612	2.13206	0.981265	3.80154							0.811575	3.14306						
0.620872	2.39598	0.553678	2.13237	0.983269	3.79561							0.813174	3.13793						
0.622644	2.3942	0.555744	2.13267	0.985268	3.78969							0.814772	3.13284						
0.624417	2.39245	0.55781	2.13298	0.98726	3.7838							0.81637	3.12778						
0.626192	2.39072	0.559876	2.13328	0.989247	3.77792							0.817968	3.12275						
0.627968	2.389	0.561942	2.13357	0.991227	3.77206							0.819566	3.11776						
0.629746	2.3873	0.564008	2.13387	0.993202	3.76623							0.821164	3.11281						
0.631526	2.38562	0.566074	2.13416	0.995171	3.76041							0.822761	3.10788						
0.633307	2.38396	0.56814	2.13445	0.997135	3.75461							0.824358	3.103						
0.63509	2.38232	0.570206	2.13474	0.999093	3.74883							0.825955	3.09814						
0.636875	2.38069	0.572271	2.13503	1.00105	3.74307							0.827553	3.09332						
0.63866	2.37908	0.574337	2.13531									0.82915	3.08854						
0.640448	2.37749	0.576402	2.13559									0.830747	3.08379						
0.642237	2.37591	0.578468	2.13587									0.832344	3.07907						
0.644028	2.37435	0.580534	2.13615									0.833941	3.07438						
0.64582	2.37281	0.582599	2.13643									0.835539	3.06972						
0.647613	2.37128	0.584665	2.1367									0.837136	3.0651						
0.649409	2.36977	0.58673	2.13697									0.838734	3.06051						
0.651205	2.36828	0.588795	2.13724									0.840332	3.05595						
0.653003	2.3668	0.590861	2.13751									0.84193	3.05142						
0.654803	2.36533	0.592926	2.13778									0.843528	3.04693						
0.656604	2.36388	0.594991	2.13804									0.845126	3.04246						
0.658406	2.36245	0.597057	2.1383									0.846725	3.03803						
0.66021	2.36103	0.599122	2.13857									0.848324	3.03362						
0.662016	2.35962	0.601187	2.13882									0.849924	3.02925						
0.663822	2.35823	0.603252	2.13908									0.851523	3.02491						
0.66563	2.35685	0.605317	2.13934									0.853123	3.02059						
0.66744	2.35549	0.607382	2.13959									0.854724	3.01631						
0.669251	2.35414	0.609447	2.13984									0.856324	3.01205						
0.671063	2.3528	0.611512	2.14009									0.857926	3.00783						
0.672877	2.35148	0.613577	2.14034									0.859527	3.00363						
0.674692	2.35017	0.615642	2.14058									0.861129	2.99947						
0.676508	2.34887	0.617707	2.14083									0.862732	2.99533						
0.678326	2.34759	0.619771	2.14107									0.864335	2.99122						
0.680144	2.34632	0.621836	2.14131									0.865938	2.98714						
0.681965	2.34506	0.623901	2.14155									0.867542	2.98308						
0.683786	2.34382	0.625966	2.14179									0.869147	2.97905						
0.685609	2.34258	0.62803	2.14202									0.870752	2.97506						
0.687433	2.34136	0.630095	2.14226									0.872358	2.97108						
0.689259	2.34015	0.63216	2.14249									0.873964	2.96714						
0.691085	2.33896	0.634224	2.14272									0.875571	2.96322						
0.692913	2.33777	0.636289	2.14295									0.877179	2.95933						
0.694742	2.3366	0.638353	2.14318									0.878787	2.95547						
0.696573	2.33544	0.640417	2.1434									0.880395	2.95163						
0.698404	2.33428	0.642482	2.14363									0.882005	2.94782						
0.700237	2.33315	0.644546	2.14385									0.883615	2.94403						
0.702071	2.33202	0.646611	2.14407									0.885226	2.94027						
0.703907	2.3309	0.648675	2.14429									0.886837	2.93653						
0.705743	2.32979	0.650739	2.14451									0.888449	2.93283						
0.707581	2.3287	0.652803	2.14473									0.890062	2.92914						
0.709419	2.32761	0.654867	2.14495									0.891676	2.92548						
0.711259	2.32654	0.656932	2.14516									0.89329	2.92185						
0.713101	2.32547	0.658996	2.14537									0.894905	2.91824						
0.714943	2.32442	0.66106	2.14559									0.896521	2.91465						
0.716786	2.32337	0.663124	2.1458									0.898138	2.91109						
0.718631	2.32234	0.665188	2.14601									0.899755	2.90755						
0.720476	2.32131	0.667252	2.14621									0.901374	2.90404						
0.722323	2.3203	0.669316	2.14642									0.902993	2.90055						
0.724171	2.31929	0.67138	2.14662									0.904612	2.89708						
0.72602	2.3183	0.673443	2.14683									0.906233	2.89363						
0.72787	2.31731	0.675507	2.14703									0.907854	2.89021						
0.729721	2.31633	0.677571	2.14723									0.909477	2.88682						
0.731574	2.31536	0.679635	2.14743									0.9111	2.88344						
0.733427	2.31441	0.681698	2.14763									0.912724	2.88009						
0.735281	2.31346	0.683762	2.14783									0.914349	2.87676						
0.737137	2.31251	0.685826	2.14802									0.915975	2.87345						
0.738993	2.31158	0.687889	2.14822									0.917601	2.87016						
0.740851	2.31066	0.689953	2.14841									0.919229	2.8669						
0.742709	2.30974	0.692016	2.1486									0.920857	2.86366						
0.744569	2.30884	0.69408	2.14879									0.922486	2.86044						
0.746429	2.30794	0.696144	2.14898									0.924116	2.85724						
0.748291	2.30705	0.698207	2.14917									0.925748	2.85406						
0.750154	2.30617	0.70027	2.14936									0.92738	2.8509						
0.752017	2.30529	0.702334	2.14954									0.929013	2.84776						
0.753882	2.30443	0.704397	2.14973									0.930646	2.84465						
0.755747	2.30357	0.70646	2.14991									0.932281	2.84155						
0.757614	2.30272	0.708524	2.1501									0.933917	2.83848						
0.759481	2.30188	0.710587	2.15028									0.935554	2.83542						
0.76135	2.30104	0.71265	2.15046									0.937191	2.83239						
0.763219	2.30021	0.714713	2.15064									0.93883	2.82937						
0.76509	2.29939	0.716776	2.15082									0.940469	2.82638						
0.766961	2.29858	0.71884	2.15099									0.94211	2.8234						
0.768833	2.29778	0.720903	2.15117									0.943751	2.82045						
0.770706	2.29698	0.722966	2.15134									0.945394	2.81751						
0.77258	2.29619	0.725029	2.15152									0.947037	2.81459						
0.774455	2.29541	0.727092	2.15169									0.948681	2.81169						
0.776331	2.29463	0.729155	2.15186									0.950327	2.80881						
0.778208	2.29386	0.731217	2.15203									0.951973	2.80595						
0.780086	2.2931	0.73328	2.1522									0.95362	2.80311						
0.781964	2.29234	0.735343	2.15237									0.955269	2.80029						
0.783844	2.29159	0.737406	2.15254									0.956918	2.79748						
0.785724	2.29085	0.739469	2.15271									0.958568	2.79469						
0.787605	2.29011	0.741531	2.15287									0.960219	2.79192						
0.789488	2.28938	0.743594	2.15304									0.961872	2.78917						
0.79137	2.28866	0.745657	2.1532									0.963525	2.78644						
0.793254	2.28794	0.747719	2.15336									0.965179	2.78372						
0.795139	2.28723	0.749782	2.15353									0.966835	2.78102						
0.797024	2.28653	0.751845	2.15369									0.968491	2.77834						
0.798911	2.28583	0.753907	2.15385									0.970148	2.77568						
0.800798	2.28514	0.75597	2.154									0.971807	2.77303						
0.802686	2.28445	0.758032	2.15416									0.973466	2.7704						
0.804575	2.28377	0.760095	2.15432									0.975126	2.76779						
0.806464	2.2831	0.762157	2.15448									0.976788	2.76519						
0.808355	2.28243	0.76422	2.15463									0.97845	2.76261						
0.810246	2.28177	0.766282	2.15479									0.980114	2.76004						
0.812138	2.28111	0.768344	2.15494									0.981778	2.7575						
0.814031	2.28046	0.770407	2.15509									0.983444	2.75497						
0.815924	2.27981	0.772469	2.15524									0.98511	2.75245						
0.817819	2.27917	0.774531	2.15539									0.986778	2.74995						
0.819714	2.27854	0.776593	2.15554									0.988446	2.74747						
0.82161	2.27791	0.778655	2.15569									0.990116	2.745						
0.823507	2.27729	0.780717	2.15584									0.991787	2.74255						
0.825404	2.27667	0.78278	2.15599									0.993458	2.74011						
0.827302	2.27605	0.784842	2.15614									0.995131	2.73769						
0.829201	2.27545	0.786904	2.15628									0.996805	2.73528						
0.831101	2.27484	0.788966	2.15643									0.99848	2.73289						
0.833001	2.27424	0.791028	2.15657									1.00016	2.73052						
0.834903	2.27365	0.79309	2.15671																
0.836805	2.27306	0.795152	2.15686																
0.838707	2.27248	0.797213	2.157																
0.840611	2.2719	0.799275	2.15714																
0.842515	2.27133	0.801337	2.15728																
0.844419	2.27076	0.803399	2.15742																
0.846325	2.2702	0.805461	2.15756																
0.848231	2.26964	0.807522	2.15769																
0.850138	2.26908	0.809584	2.15783																
0.852046	2.26853	0.811646	2.15797																
0.853954	2.26799	0.813707	2.1581																
0.855863	2.26745	0.815769	2.15824																
0.857772	2.26691	0.817831	2.15837																
0.859683	2.26638	0.819892	2.1585																
0.861594	2.26585	0.821954	2.15864																
0.863505	2.26533	0.824015	2.15877																
0.865418	2.26481	0.826077	2.1589																
0.867331	2.26429	0.828138	2.15903																
0.869244	2.26378	0.830199	2.15916																
0.871158	2.26328	0.832261	2.15929																
0.873073	2.26278	0.834322	2.15942																
0.874989	2.26228	0.836383	2.15954																
0.876905	2.26178	0.838445	2.15967																
0.878822	2.26129	0.840506	2.1598																
0.880739	2.26081	0.842567	2.15992																
0.882658	2.26032	0.844628	2.16005																
0.884576	2.25985	0.846689	2.16017																
0.886495	2.25937	0.848751	2.1603																
0.888415	2.2589	0.850812	2.16042																
0.890336	2.25843	0.852873	2.16054																
0.892257	2.25797	0.854934	2.16066																
0.894179	2.25751	0.856995	2.16078																
0.896101	2.25706	0.859056	2.1609																
0.898024	2.2566	0.861117	2.16102																
0.899948	2.25615	0.863177	2.16114																
0.901872	2.25571	0.865238	2.16126																
0.903796	2.25527	0.867299	2.16138																
0.905721	2.25483	0.86936	2.16149																
0.907647	2.2544	0.871421	2.16161																
0.909574	2.25396	0.873482	2.16173																
0.911501	2.25354	0.875542	2.16184																
0.913428	2.25311	0.877603	2.16196																
0.915356	2.25269	0.879664	2.16207																
0.917285	2.25227	0.881724	2.16218																
0.919214	2.25186	0.883785	2.1623																
0.921144	2.25145	0.885845	2.16241																
0.923074	2.25104	0.887906	2.16252																
0.925005	2.25063	0.889967	2.16263																
0.926936	2.25023	0.892027	2.16274																
0.928868	2.24983	0.894088	2.16285																
0.930801	2.24944	0.896148	2.16296																
0.932734	2.24904	0.898208	2.16307																
0.934667	2.24866	0.900269	2.16318																
0.936601	2.24827	0.902329	2.16329																
0.938536	2.24788	0.904389	2.16339																
0.940471	2.2475	0.90645	2.1635																
0.942406	2.24713	0.90851	2.16361																
0.944342	2.24675	0.91057	2.16371																
0.946279	2.24638	0.91263	2.16382																
0.948216	2.24601	0.91469	2.16392																
0.950154	2.24564	0.916751	2.16402																
0.952092	2.24528	0.918811	2.16413																
0.95403	2.24492	0.920871	2.16423																
0.955969	2.24456	0.922931	2.16433																
0.957909	2.24421	0.924991	2.16443																
0.959849	2.24385	0.927051	2.16454																
0.961789	2.2435	0.929111	2.16464																
0.96373	2.24316	0.931171	2.16474																
0.965672	2.24281	0.933231	2.16484																
0.967614	2.24247	0.93529	2.16494																
0.969556	2.24213	0.93735	2.16504																
0.971499	2.24179	0.93941	2.16513																
0.973442	2.24146	0.94147	2.16523																
0.975386	2.24113	0.94353	2.16533																
0.977331	2.2408	0.945589	2.16543																
0.979275	2.24047	0.947649	2.16552																
0.98122	2.24014	0.949709	2.16562																
0.983166	2.23982	0.951768	2.16571																
0.985112	2.2395	0.953828	2.16581																
0.987059	2.23918	0.955888	2.1659																
0.989006	2.23887	0.957947	2.166																
0.990953	2.23856	0.960007	2.16609																
0.992901	2.23824	0.962066	2.16618																
0.994849	2.23794	0.964126	2.16628																
0.996798	2.23763	0.966185	2.16637																
0.998747	2.23733	0.968244	2.16646																
1.0007	2.23703	0.970304	2.16655																
		0.972363	2.16664																
		0.974422	2.16673																
		0.976482	2.16682																
		0.978541	2.16691																
		0.9806	2.167																
		0.982659	2.16709																
		0.984719	2.16718																
		0.986778	2.16727																
		0.988837	2.16735																
		0.990896	2.16744																
		0.992955	2.16753																
		0.995014	2.16761																
		0.997073	2.1677																
		0.999132	2.16778																
		1.00119	2.16787																
