Sym0		Asym0		Sym1		Sym2		Sym3		Sym4		Asym1		Asym2		Asym3		Asym4	
270  Points		499  Points		271  Points		230  Points		213  Points		150  Points		373  Points		242  Points		202  Points		149  Points	
Freq (MHz)	Vph (m/ms)	Freq (MHz)	Vph (m/ms)	Freq (MHz)	Vph (m/ms)	Freq (MHz)	Vph (m/ms)	Freq (MHz)	Vph (m/ms)	Freq (MHz)	Vph (m/ms)	Freq (MHz)	Vph (m/ms)	Freq (MHz)	Vph (m/ms)	Freq (MHz)	Vph (m/ms)	Freq (MHz)	Vph (m/ms)
0.27953	300.69	0.000245898	0.126984	0.279509	9833.46	0.435924	8461.68	0.559026	784.366	0.838526	4264.04	0.139777	273.203	0.419269	755.804	0.698771	4495.72	0.871848	3387.12
0.279594	150.213	0.000537896	0.187542	0.279531	291.142	0.435936	443.379	0.559063	339.979	0.838538	743.157	0.139933	96.9524	0.419308	282.091	0.698785	642.782	0.871857	733.209
0.279701	100.143	0.000940599	0.247537	0.279597	147.793	0.435969	227.671	0.55913	217.045	0.838568	407.064	0.140238	59.0471	0.419381	173.433	0.698817	346.151	0.871876	411.109
0.279851	75.1335	0.00145157	0.306786	0.279705	99.063	0.436024	153.173	0.559226	159.424	0.838616	280.311	0.140689	42.5465	0.41949	125.228	0.69887	236.864	0.871905	285.638
0.280043	60.1415	0.00206771	0.365111	0.279856	74.5249	0.4361	115.422	0.559351	125.994	0.838681	213.762	0.141284	33.3343	0.419634	98.0106	0.698942	180.037	0.871946	218.852
0.280278	50.1562	0.00278555	0.422377	0.28005	59.7517	0.436198	92.6111	0.559506	104.168	0.838764	172.758	0.142021	27.4698	0.419813	80.5287	0.699033	145.211	0.871997	177.384
0.280555	43.0312	0.00360115	0.478455	0.280286	49.8855	0.436317	77.338	0.55969	88.7991	0.838865	144.961	0.142897	23.4188	0.420027	68.3537	0.699145	121.683	0.872058	149.132
0.280874	37.6937	0.00451033	0.533243	0.280565	42.8324	0.436458	66.3977	0.559904	77.3928	0.838982	124.876	0.143906	20.4602	0.420275	59.3895	0.699276	104.724	0.872131	128.647
0.281235	33.5475	0.00550855	0.58664	0.280885	37.5415	0.43662	58.1766	0.560146	68.5927	0.839118	109.686	0.145046	18.21	0.420559	52.5155	0.699426	91.921	0.872214	113.113
0.281638	30.2352	0.00659121	0.638578	0.281248	33.4274	0.436804	51.7739	0.560418	61.5982	0.839271	97.7954	0.146311	16.4452	0.420878	47.0781	0.699596	81.9133	0.872307	100.93
0.282082	27.5294	0.00775349	0.688991	0.281652	30.1381	0.43701	46.6469	0.560719	55.9061	0.839441	88.2359	0.147697	15.0273	0.421231	42.6706	0.699785	73.8764	0.872412	91.1197
0.282566	25.2782	0.00899082	0.737854	0.282097	27.4492	0.437238	42.4497	0.561049	51.1843	0.839629	80.3835	0.149198	13.8656	0.421618	39.0265	0.699995	67.2808	0.872527	83.05
0.283092	23.3768	0.0102984	0.785131	0.282583	25.2109	0.437489	38.9507	0.561408	47.2047	0.839835	73.8187	0.15081	12.8986	0.422041	35.964	0.700223	61.7711	0.872653	76.2959
0.283658	21.7501	0.0116717	0.830814	0.28311	23.3195	0.437761	35.9896	0.561796	43.8056	0.840058	68.2492	0.152527	12.0826	0.422497	33.3548	0.700471	57.0999	0.87279	70.5602
0.284263	20.3432	0.0131061	0.874894	0.283677	21.7009	0.438056	33.4515	0.562213	40.8691	0.840298	63.4648	0.154344	11.3862	0.422988	31.1056	0.700739	53.0896	0.872938	65.6288
0.284908	19.1149	0.0145973	0.917386	0.284284	20.3004	0.438374	31.2523	0.562658	38.307	0.840556	59.3107	0.156257	10.786	0.423513	29.1471	0.701026	49.6096	0.873096	61.3438
0.285592	18.0335	0.0161413	0.958308	0.28493	19.0773	0.438714	29.3285	0.563132	36.0524	0.840832	55.6703	0.158261	10.2642	0.424071	27.4269	0.701332	46.5613	0.873266	57.5861
0.286315	17.0746	0.0177341	0.997686	0.285615	18.0003	0.439077	27.6317	0.563635	34.0533	0.841124	52.454	0.160078	9.86268	0.424664	25.9043	0.701658	43.8694	0.873446	54.264
0.287076	16.2188	0.019372	1.03555	0.286339	17.0451	0.439463	26.1243	0.564165	32.269	0.841435	49.5919	0.161676	9.55373	0.42529	24.5474	0.702003	41.475	0.873637	51.3062
0.287874	15.4506	0.0210515	1.07194	0.287101	16.1924	0.439873	24.7764	0.564725	30.6667	0.841762	47.0288	0.16303	9.3186	0.425949	23.3308	0.702367	39.3315	0.873839	48.6558
0.288709	14.7575	0.0227692	1.10689	0.2879	15.4268	0.440306	23.5642	0.565312	29.2202	0.842107	44.7202	0.164121	9.14443	0.426642	22.2341	0.70275	37.4016	0.874052	46.2674
0.289581	14.1292	0.0245221	1.14045	0.288737	14.736	0.440763	22.4683	0.565927	27.908	0.842469	42.6302	0.164934	9.02249	0.427367	21.2406	0.703153	35.655	0.874276	44.1041
0.290488	13.5572	0.0263073	1.17266	0.28961	14.1096	0.441244	21.473	0.56657	26.7124	0.842848	40.7292	0.16546	8.947	0.428126	20.3366	0.703575	34.0669	0.874511	42.1356
0.291431	13.0344	0.0281221	1.20358	0.290519	13.5393	0.441749	20.5651	0.567241	25.6187	0.843245	38.9928	0.166222	8.84185	0.428917	19.5107	0.704016	32.6168	0.874757	40.3367
0.292409	12.555	0.0299641	1.23324	0.291463	13.0181	0.442279	19.7338	0.567939	24.6145	0.843659	37.4007	0.167059	8.73182	0.42974	18.7533	0.704476	31.2876	0.875014	38.6865
0.293421	12.1138	0.031831	1.26169	0.292442	12.54	0.442833	18.97	0.568665	23.6894	0.84409	35.9355	0.168211	8.5889	0.430596	18.0565	0.704954	30.0648	0.875283	37.1673
0.294467	11.7067	0.0337205	1.28899	0.293455	12.1	0.443412	18.2658	0.569418	22.8345	0.844538	34.5829	0.169692	8.41847	0.431484	17.4134	0.705452	28.9363	0.875562	35.7643
0.295546	11.3299	0.0356309	1.31517	0.294502	11.6939	0.444016	17.6146	0.570198	22.0422	0.845004	33.3303	0.171515	8.22643	0.432403	16.8181	0.705969	27.8916	0.875853	34.4645
0.296657	10.9804	0.0375603	1.34029	0.295582	11.3181	0.444646	17.0109	0.571005	21.306	0.845486	32.1672	0.173697	8.01883	0.433354	16.2657	0.706504	26.9217	0.876155	33.2571
0.297801	10.6552	0.0395069	1.36439	0.296694	10.9694	0.445302	16.4496	0.571839	20.6203	0.845986	31.0844	0.176257	7.80146	0.434336	15.7517	0.707059	26.0191	0.876468	32.1326
0.298976	10.3522	0.0414692	1.38752	0.297839	10.645	0.445984	15.9266	0.5727	19.9801	0.846503	30.0738	0.178873	7.60371	0.435349	15.2724	0.707632	25.177	0.876793	31.0828
0.300181	10.0691	0.043446	1.40971	0.299015	10.3426	0.446692	15.4383	0.573587	19.381	0.847036	29.1286	0.181543	7.42321	0.436392	14.8245	0.708223	24.3896	0.877129	30.1006
0.301417	9.80413	0.0454358	1.43102	0.300221	10.0601	0.447427	14.9813	0.5745	18.8194	0.847587	28.2426	0.184264	7.25796	0.437466	14.405	0.708834	23.6517	0.877476	29.1795
0.302683	9.55571	0.0474375	1.45147	0.301297	9.82879	0.448188	14.5528	0.57544	18.2919	0.848154	27.4106	0.187033	7.10623	0.438571	14.0115	0.709462	22.9589	0.877835	28.3142
0.303977	9.32238	0.04945	1.47111	0.302233	9.64161	0.448977	14.1503	0.576405	17.7956	0.848739	26.6277	0.189848	6.96656	0.439705	13.6417	0.710109	22.3073	0.878205	27.4997
0.3053	9.10286	0.0514723	1.48997	0.303018	9.49334	0.449794	13.7717	0.577396	17.3278	0.84934	25.8898	0.192705	6.83766	0.440868	13.2936	0.710775	21.6933	0.878587	26.7318
0.306652	8.89603	0.0535034	1.5081	0.303647	9.38006	0.450638	13.4148	0.578413	16.8861	0.849958	25.1931	0.195604	6.71841	0.442062	12.9653	0.711459	21.1138	0.878981	26.0066
0.308031	8.70086	0.05528	1.52331	0.304114	9.29889	0.451511	13.0781	0.579455	16.4686	0.850592	24.5344	0.198542	6.60786	0.443284	12.6553	0.712161	20.566	0.879386	25.3206
0.309437	8.51646	0.056799	1.53588	0.304414	9.24786	0.452412	12.7598	0.580523	16.0733	0.851244	23.9106	0.201517	6.50515	0.444535	12.3622	0.712881	20.0474	0.879803	24.6707
0.31087	8.34199	0.0580578	1.54599	0.304849	9.17574	0.453341	12.4587	0.581615	15.6986	0.851912	23.3191	0.204527	6.40954	0.445814	12.0847	0.713619	19.5557	0.880232	24.0543
0.31233	8.17672	0.0590549	1.55382	0.305325	9.09894	0.4543	12.1733	0.582732	15.3429	0.852597	22.7575	0.20757	6.32038	0.447122	11.8216	0.714375	19.0891	0.880673	23.4688
0.313815	8.01998	0.059789	1.55948	0.305978	8.99707	0.455288	11.9026	0.583874	15.0049	0.853298	22.2235	0.210646	6.23708	0.448458	11.5718	0.71515	18.6456	0.881125	22.912
0.315326	7.87118	0.0602593	1.56306	0.306814	8.87232	0.456305	11.6456	0.58504	14.6833	0.854016	21.7153	0.213751	6.15912	0.449821	11.3345	0.715941	18.2235	0.88159	22.3819
0.316862	7.72976	0.0609357	1.56816	0.307838	8.72727	0.457353	11.4012	0.586231	14.377	0.85475	21.231	0.216886	6.08605	0.451211	11.1088	0.716751	17.8215	0.882066	21.8765
0.318424	7.59522	0.0616717	1.57362	0.309059	8.56474	0.458431	11.1687	0.587446	14.085	0.8555	20.769	0.220047	6.01745	0.452629	10.8938	0.717579	17.4381	0.882555	21.3942
0.32001	7.46712	0.0626737	1.58093	0.310485	8.38769	0.459539	10.9472	0.588684	13.8062	0.856267	20.3278	0.223235	5.95296	0.454073	10.6888	0.718423	17.0721	0.883056	20.9336
0.321621	7.34503	0.0639426	1.58999	0.311937	8.22003	0.460678	10.736	0.589946	13.54	0.857051	19.9061	0.226448	5.89224	0.455543	10.4933	0.719286	16.7224	0.883569	20.4931
0.323257	7.22858	0.0654795	1.60066	0.313415	8.06107	0.461847	10.5346	0.591232	13.2854	0.85785	19.5027	0.229685	5.835	0.45704	10.3066	0.720166	16.3879	0.884094	20.0716
0.324918	7.11743	0.0672856	1.6128	0.31492	7.91021	0.463049	10.3422	0.592541	13.0418	0.858666	19.1163	0.232944	5.78097	0.458562	10.1281	0.721063	16.0676	0.884631	19.6678
0.326603	7.01125	0.0693617	1.62624	0.316449	7.76686	0.464281	10.1583	0.593872	12.8084	0.859498	18.746	0.236225	5.72991	0.45991	9.97895	0.721977	15.7608	0.885181	19.2806
0.328313	6.90975	0.0714415	1.6392	0.318004	7.63053	0.465381	10.0046	0.595227	12.5848	0.860346	18.3908	0.239526	5.68158	0.461074	9.85619	0.722909	15.4665	0.885744	18.9091
0.330047	6.81268	0.0735245	1.65168	0.319584	7.50075	0.466338	9.87824	0.596605	12.3702	0.86121	18.0498	0.242847	5.63581	0.462046	9.75761	0.723857	15.1842	0.886319	18.5524
0.331808	6.71978	0.0756103	1.66372	0.321188	7.37709	0.467142	9.77675	0.598005	12.1642	0.86209	17.7221	0.246187	5.59239	0.462822	9.68146	0.724823	14.913	0.886906	18.2096
0.333593	6.63082	0.0776986	1.67532	0.322817	7.25917	0.467787	9.69839	0.599427	11.9664	0.862986	17.4072	0.249544	5.55117	0.463396	9.62647	0.725805	14.6523	0.887506	17.8798
0.335404	6.54561	0.0797891	1.68652	0.324471	7.14663	0.468266	9.6418	0.600871	11.7762	0.863897	17.1041	0.252919	5.51199	0.463766	9.5917	0.726804	14.4016	0.888119	17.5625
0.337242	6.46394	0.0818816	1.69732	0.32615	7.03915	0.468574	9.60603	0.602337	11.5932	0.864825	16.8123	0.256309	5.47472	0.464298	9.54231	0.72782	14.1603	0.888745	17.257
0.339107	6.38565	0.0839759	1.70775	0.327853	6.93644	0.469021	9.55522	0.603825	11.4171	0.865768	16.5313	0.259715	5.43923	0.46488	9.48938	0.728852	13.9279	0.889383	16.9625
0.340999	6.31057	0.0860716	1.71782	0.329581	6.8382	0.46951	9.50079	0.605334	11.2475	0.866727	16.2603	0.263136	5.40539	0.465677	9.41864	0.729901	13.704	0.890035	16.6786
0.34292	6.23854	0.0881687	1.72755	0.331335	6.74421	0.470182	9.42805	0.606865	11.0841	0.867701	15.9989	0.266571	5.37311	0.466693	9.33116	0.730967	13.488	0.890699	16.4046
0.34487	6.16944	0.0902669	1.73696	0.333113	6.65422	0.471044	9.33816	0.608417	10.9265	0.868692	15.7467	0.270019	5.34229	0.467933	9.22826	0.732048	13.2797	0.891377	16.1401
0.346849	6.10313	0.0923661	1.74604	0.334918	6.56803	0.472102	9.23245	0.60999	10.7745	0.869697	15.5031	0.273479	5.31282	0.469405	9.1114	0.733146	13.0785	0.892067	15.8846
0.34886	6.0395	0.094466	1.75483	0.336748	6.48543	0.473366	9.11249	0.611583	10.6277	0.870718	15.2677	0.276952	5.28463	0.471116	8.98216	0.734259	12.8843	0.892771	15.6377
0.350903	5.97844	0.0965666	1.76334	0.338606	6.40625	0.474847	8.97994	0.613197	10.486	0.871754	15.0402	0.280436	5.25764	0.47285	8.85787	0.735389	12.6965	0.893488	15.399
0.352979	5.91984	0.0986678	1.77157	0.340491	6.33033	0.476361	8.8526	0.614831	10.349	0.872806	14.8201	0.283931	5.23178	0.474606	8.73827	0.736535	12.515	0.894219	15.168
0.355089	5.86361	0.100769	1.77953	0.342404	6.2575	0.477908	8.73019	0.616272	10.2334	0.873873	14.6071	0.287436	5.20697	0.476386	8.62311	0.737696	12.3394	0.894962	14.9445
0.357235	5.80967	0.102871	1.78724	0.344345	6.18763	0.479489	8.61248	0.617512	10.1375	0.874955	14.4009	0.290951	5.18317	0.478187	8.51217	0.738873	12.1694	0.89572	14.728
0.359419	5.75793	0.104974	1.79472	0.346317	6.12059	0.481102	8.49923	0.618545	10.06	0.876052	14.2012	0.294475	5.1603	0.480011	8.40523	0.740066	12.0048	0.896491	14.5182
0.36164	5.70832	0.107076	1.80196	0.348319	6.05625	0.482749	8.39022	0.619368	9.99974	0.877164	14.0077	0.298008	5.13831	0.481856	8.30209	0.741274	11.8454	0.897275	14.315
0.363902	5.66077	0.109178	1.80898	0.350354	5.99451	0.484429	8.28525	0.619976	9.95607	0.878291	13.8201	0.301549	5.11716	0.483723	8.20258	0.742498	11.6909	0.898074	14.1178
0.366205	5.61521	0.111281	1.81578	0.352421	5.93526	0.486142	8.18414	0.620366	9.92838	0.879433	13.6381	0.305098	5.0968	0.485611	8.10652	0.743736	11.5411	0.898886	13.9266
0.36855	5.57157	0.113383	1.82238	0.354522	5.87841	0.487888	8.0867	0.620929	9.88894	0.88059	13.4615	0.308654	5.07718	0.487519	8.01374	0.74499	11.3958	0.899712	13.7411
0.370939	5.52981	0.115486	1.82879	0.356658	5.82387	0.489668	7.99276	0.621543	9.84654	0.881761	13.2901	0.312216	5.05827	0.489448	7.9241	0.746259	11.2548	0.900552	13.5609
0.373374	5.48985	0.117588	1.835	0.358831	5.77155	0.49148	7.90217	0.622382	9.78965	0.882947	13.1237	0.315785	5.04001	0.491398	7.83744	0.747543	11.118	0.901406	13.386
0.375855	5.45165	0.11969	1.84104	0.361043	5.72138	0.493325	7.81478	0.62345	9.71896	0.884148	12.9621	0.319361	5.02239	0.493367	7.75363	0.748842	10.9851	0.902274	13.216
0.378384	5.41515	0.121792	1.8469	0.363293	5.67328	0.495204	7.73044	0.624751	9.63528	0.885363	12.805	0.322941	5.00536	0.495357	7.67255	0.750156	10.856	0.903156	13.0509
0.380961	5.3803	0.123894	1.8526	0.365585	5.62719	0.497115	7.64902	0.626291	9.53958	0.886593	12.6523	0.326527	4.98889	0.497365	7.59407	0.751484	10.7305	0.904053	12.8903
0.383588	5.34704	0.125995	1.85813	0.367919	5.58305	0.499058	7.5704	0.628075	9.43289	0.887837	12.5038	0.330117	4.97296	0.499393	7.51809	0.752827	10.6085	0.904963	12.7341
0.386266	5.31533	0.128096	1.86351	0.370296	5.54079	0.501035	7.49445	0.629879	9.32943	0.889096	12.3593	0.333712	4.95753	0.50144	7.44449	0.754009	10.505	0.905888	12.5821
0.388994	5.28511	0.130197	1.86874	0.372719	5.50036	0.503043	7.42107	0.631701	9.22906	0.890368	12.2188	0.33731	4.94257	0.503506	7.37317	0.755026	10.4187	0.906828	12.4343
0.391773	5.25633	0.132297	1.87383	0.375187	5.46169	0.505083	7.35014	0.633541	9.13164	0.891655	12.082	0.340912	4.92807	0.50559	7.30404	0.755872	10.3487	0.907782	12.2904
0.394603	5.22894	0.134397	1.87878	0.377703	5.42474	0.507155	7.28157	0.635399	9.03707	0.892956	11.9487	0.344517	4.91401	0.507693	7.237	0.756545	10.2941	0.908751	12.1502
0.397485	5.20289	0.136497	1.8836	0.380268	5.38946	0.509259	7.21526	0.637276	8.94523	0.894271	11.819	0.348125	4.90034	0.509813	7.17198	0.757042	10.2544	0.909734	12.0137
0.400417	5.17813	0.138596	1.88829	0.382881	5.35578	0.511394	7.15111	0.63917	8.856	0.8956	11.6926	0.351735	4.88707	0.511951	7.10888	0.757361	10.2292	0.910733	11.8807
0.4034	5.1546	0.140695	1.89286	0.385545	5.32366	0.51356	7.08904	0.641082	8.76929	0.896943	11.5694	0.355348	4.87416	0.514107	7.04764	0.757821	10.1933	0.911746	11.7511
0.406433	5.13225	0.142793	1.89731	0.38826	5.29304	0.515757	7.02896	0.643012	8.685	0.898299	11.4493	0.358962	4.8616	0.51628	6.98818	0.758323	10.1546	0.912774	11.6248
0.409514	5.11102	0.144891	1.90164	0.391025	5.26389	0.517984	6.9708	0.644959	8.60303	0.899669	11.3322	0.362577	4.84938	0.518471	6.93043	0.759008	10.1026	0.913816	11.5016
0.412643	5.09088	0.146989	1.90587	0.393842	5.23613	0.520241	6.91448	0.646923	8.52331	0.901053	11.218	0.366193	4.83746	0.520678	6.87432	0.759879	10.0377	0.914874	11.3814
0.415819	5.07176	0.149086	1.90999	0.39671	5.20973	0.522528	6.85994	0.648904	8.44574	0.902451	11.1065	0.36981	4.82584	0.522902	6.81979	0.76094	9.96063	0.915947	11.2642
0.41904	5.05362	0.151183	1.91401	0.399629	5.18462	0.524845	6.80709	0.650903	8.37024	0.903862	10.9978	0.373427	4.81451	0.525143	6.76679	0.762194	9.87213	0.917035	11.1498
0.422304	5.0364	0.153279	1.91792	0.402598	5.16077	0.52719	6.75587	0.652917	8.29675	0.905286	10.8916	0.377044	4.80344	0.5274	6.71525	0.763646	9.773	0.918139	11.0382
0.425611	5.02005	0.155375	1.92174	0.405617	5.13811	0.529565	6.70623	0.654949	8.22518	0.906539	10.8012	0.38066	4.79263	0.529673	6.66512	0.765111	9.67638	0.919257	10.9292
0.428958	5.00453	0.157471	1.92547	0.408686	5.11659	0.531967	6.6581	0.656997	8.15548	0.907614	10.7256	0.384276	4.78206	0.531962	6.61636	0.766591	9.58218	0.920245	10.8364
0.432344	4.9898	0.159566	1.92912	0.411802	5.09616	0.534398	6.61143	0.659061	8.08756	0.908509	10.664	0.387891	4.77172	0.534267	6.5689	0.768083	9.49032	0.921096	10.7587
0.435767	4.9758	0.16166	1.93267	0.414966	5.07677	0.536857	6.56616	0.661141	8.02138	0.90922	10.616	0.391504	4.76159	0.536587	6.52272	0.76959	9.40071	0.921806	10.6955
0.439225	4.9625	0.163755	1.93614	0.418174	5.05837	0.539342	6.52223	0.663238	7.95687	0.909745	10.581	0.395115	4.75167	0.538923	6.47775	0.771109	9.31328	0.922371	10.6462
0.442717	4.94984	0.165848	1.93953	0.421427	5.04091	0.541855	6.47961	0.66535	7.89398	0.910081	10.5588	0.398725	4.74194	0.541275	6.43396	0.772642	9.22795	0.92279	10.6102
0.446241	4.9378	0.167942	1.94284	0.424723	5.02434	0.544393	6.43824	0.667478	7.83264	0.910567	10.527	0.402332	4.7324	0.543641	6.39131	0.774189	9.14466	0.923058	10.5874
0.449795	4.92634	0.170035	1.94608	0.42806	5.0086	0.546958	6.39808	0.669621	7.77281	0.911096	10.4927	0.405936	4.72304	0.546023	6.34976	0.775748	9.06334	0.923446	10.5548
0.453377	4.91542	0.172127	1.94925	0.431435	4.99366	0.549549	6.35907	0.67178	7.71444	0.911818	10.4466	0.409537	4.71383	0.54842	6.30927	0.77732	8.98391	0.923869	10.5196
0.456986	4.905	0.17422	1.95234	0.434849	4.97947	0.552164	6.32119	0.673954	7.65748	0.912736	10.389	0.413134	4.70479	0.550831	6.26981	0.778905	8.90633	0.924448	10.4723
0.46062	4.89505	0.176311	1.95537	0.438298	4.96599	0.554805	6.28439	0.676143	7.60188	0.913852	10.3204	0.416728	4.69589	0.553257	6.23134	0.780504	8.83053	0.925186	10.4131
0.464278	4.88555	0.178403	1.95833	0.441781	4.95316	0.55747	6.24863	0.678347	7.5476	0.915171	10.2414	0.420318	4.68713	0.555698	6.19383	0.782115	8.75645	0.926085	10.3427
0.467957	4.87646	0.180494	1.96122	0.445296	4.94096	0.560159	6.21388	0.680567	7.4946	0.916696	10.1526	0.423903	4.6785	0.558153	6.15726	0.783738	8.68405	0.927152	10.2615
0.471658	4.86776	0.182584	1.96405	0.448842	4.92935	0.562871	6.18009	0.682801	7.44284	0.918234	10.0658	0.427483	4.66999	0.560623	6.12158	0.785374	8.61326	0.92839	10.1704
0.475377	4.85942	0.184675	1.96683	0.452417	4.91828	0.565606	6.14724	0.685049	7.39227	0.919785	9.98085	0.431058	4.6616	0.563106	6.08678	0.787023	8.54404	0.929645	10.0812
0.479115	4.85142	0.186765	1.96954	0.456019	4.90773	0.568365	6.1153	0.687313	7.34287	0.921348	9.89774	0.434628	4.65332	0.565605	6.05283	0.788685	8.47634	0.930915	9.994
0.482869	4.84374	0.188854	1.9722	0.459646	4.89766	0.571145	6.08422	0.68959	7.2946	0.922924	9.81642	0.438191	4.64514	0.568117	6.01969	0.790358	8.41011	0.932201	9.9087
0.486639	4.83635	0.190944	1.9748	0.463298	4.88805	0.573948	6.05399	0.691882	7.24741	0.924512	9.73683	0.441749	4.63705	0.570643	5.98735	0.792044	8.34532	0.933503	9.82524
0.490422	4.82924	0.193032	1.97735	0.466972	4.87885	0.576772	6.02457	0.694188	7.20129	0.926113	9.65891	0.4453	4.62905	0.573184	5.95578	0.793743	8.28191	0.934822	9.74356
0.49422	4.82239	0.195121	1.97985	0.470667	4.87005	0.579617	5.99594	0.696508	7.15619	0.927726	9.58261	0.448844	4.62114	0.575738	5.92497	0.795453	8.21985	0.936156	9.66363
0.498029	4.81578	0.197209	1.9823	0.474381	4.86162	0.582483	5.96807	0.698843	7.11209	0.929351	9.5079	0.452381	4.6133	0.578306	5.89488	0.797176	8.1591	0.937506	9.58538
0.501849	4.80939	0.199297	1.9847	0.478114	4.85353	0.585369	5.94093	0.701191	7.06896	0.930988	9.43472	0.45591	4.60553	0.580888	5.86549	0.79891	8.09962	0.938873	9.50877
0.50568	4.80321	0.201384	1.98705	0.481864	4.84576	0.588276	5.9145	0.703552	7.02677	0.932638	9.36303	0.459431	4.59783	0.583484	5.83679	0.800657	8.04137	0.940256	9.43376
0.509519	4.79723	0.203472	1.98936	0.48563	4.8383	0.591202	5.88875	0.705928	6.98549	0.934299	9.29279	0.462944	4.59018	0.586094	5.80876	0.802416	7.98432	0.941655	9.36029
0.513367	4.79143	0.205559	1.99162	0.48941	4.83112	0.594147	5.86367	0.708317	6.9451	0.935972	9.22396	0.466448	4.58259	0.588718	5.78138	0.804186	7.92843	0.94307	9.28834
0.517223	4.7858	0.207645	1.99384	0.493203	4.8242	0.597111	5.83923	0.71072	6.90558	0.937658	9.15649	0.469943	4.57505	0.591355	5.75463	0.805969	7.87368	0.944501	9.21786
0.521086	4.78033	0.209731	1.99601	0.49701	4.81752	0.600093	5.81541	0.713135	6.86689	0.939355	9.09036	0.473429	4.56756	0.594007	5.72849	0.807763	7.82003	0.945949	9.1488
0.524954	4.77501	0.211817	1.99815	0.500827	4.81108	0.603094	5.7922	0.715565	6.82901	0.941063	9.02552	0.476905	4.5601	0.596672	5.70295	0.809569	7.76746	0.947414	9.08113
0.528828	4.76982	0.213903	2.00024	0.504655	4.80484	0.606113	5.76956	0.718007	6.79193	0.942784	8.96193	0.48037	4.55268	0.599351	5.67799	0.811387	7.71592	0.948895	9.01482
0.532707	4.76476	0.215988	2.0023	0.508492	4.79881	0.609149	5.74749	0.720463	6.75562	0.944515	8.89958	0.483826	4.5453	0.602043	5.6536	0.813216	7.6654	0.950392	8.94982
0.536589	4.75982	0.218074	2.00432	0.512338	4.79296	0.612202	5.72596	0.722931	6.72006	0.946259	8.83841	0.48727	4.53793	0.60475	5.62976	0.815057	7.61587	0.951906	8.88611
0.540475	4.75499	0.220158	2.0063	0.516192	4.78729	0.615272	5.70496	0.725413	6.68523	0.948014	8.77841	0.490703	4.5306	0.60747	5.60646	0.816909	7.5673	0.953436	8.82366
0.544364	4.75027	0.222243	2.00825	0.520053	4.78178	0.618358	5.68447	0.727907	6.65111	0.94978	8.71954	0.494125	4.52328	0.610204	5.58368	0.818773	7.51967	0.954983	8.76242
0.548255	4.74564	0.224327	2.01016	0.52392	4.77641	0.621461	5.66448	0.730414	6.61768	0.951557	8.66177	0.497535	4.51598	0.612952	5.56141	0.820648	7.47294	0.956546	8.70237
0.552147	4.74109	0.226411	2.01203	0.527792	4.77119	0.62458	5.64496	0.732934	6.58492	0.953345	8.60507	0.500932	4.50868	0.615714	5.53964	0.822535	7.42711	0.958126	8.64348
0.556041	4.73663	0.228495	2.01388	0.53167	4.7661	0.627714	5.62592	0.735467	6.55283	0.955145	8.54941	0.504317	4.5014	0.61849	5.51836	0.824433	7.38215	0.959722	8.58571
0.559935	4.73225	0.230579	2.01569	0.535551	4.76113	0.630863	5.60732	0.738012	6.52137	0.956956	8.49478	0.507688	4.49412	0.621279	5.49755	0.826343	7.33803	0.961335	8.52905
0.563829	4.72793	0.232662	2.01747	0.539436	4.75627	0.634028	5.58916	0.74057	6.49053	0.958777	8.44114	0.511047	4.48685	0.624083	5.4772	0.828263	7.29473	0.962965	8.47347
0.567723	4.72368	0.234745	2.01922	0.543324	4.75152	0.637207	5.57143	0.74314	6.46031	0.96061	8.38846	0.514391	4.47957	0.626901	5.45731	0.830196	7.25224	0.964611	8.41893
0.571616	4.71948	0.236828	2.02094	0.547214	4.74687	0.640401	5.55411	0.745723	6.43067	0.962453	8.33673	0.517722	4.47229	0.629733	5.43785	0.832139	7.21053	0.966274	8.36542
0.575507	4.71534	0.238911	2.02263	0.551107	4.7423	0.643609	5.53719	0.748318	6.40162	0.964307	8.28592	0.521038	4.465	0.632579	5.41883	0.834093	7.16958	0.967953	8.31291
0.579397	4.71125	0.240993	2.02429	0.555	4.73782	0.646831	5.52066	0.750925	6.37313	0.966172	8.23601	0.52434	4.4577	0.635439	5.40023	0.836059	7.12938	0.969649	8.26137
0.583285	4.7072	0.243075	2.02593	0.558894	4.73341	0.650067	5.5045	0.753544	6.34518	0.968047	8.18697	0.527626	4.45039	0.638313	5.38204	0.838036	7.08991	0.971362	8.21078
0.58717	4.70319	0.245157	2.02754	0.562788	4.72908	0.653316	5.48871	0.756176	6.31778	0.969933	8.13879	0.530897	4.44306	0.641201	5.36426	0.840024	7.05115	0.973091	8.16113
0.591052	4.69921	0.247239	2.02912	0.566682	4.72481	0.656578	5.47328	0.75882	6.2909	0.97183	8.09145	0.534153	4.43572	0.644104	5.34686	0.842023	7.01309	0.974837	8.11238
0.594931	4.69527	0.249321	2.03067	0.570575	4.7206	0.659853	5.45819	0.761476	6.26453	0.973736	8.04492	0.537392	4.42836	0.647021	5.32985	0.844034	6.9757	0.976599	8.06452
0.598806	4.69136	0.251402	2.0322	0.574467	4.71644	0.663142	5.44344	0.764144	6.23866	0.975653	7.99918	0.540615	4.42098	0.649952	5.31322	0.846055	6.93897	0.978378	8.01752
0.602676	4.68747	0.253483	2.03371	0.578358	4.71234	0.666442	5.42901	0.766824	6.21328	0.977581	7.95422	0.543822	4.41357	0.652897	5.29695	0.848087	6.9029	0.980173	7.97137
0.606543	4.6836	0.255564	2.03519	0.582246	4.70828	0.669755	5.4149	0.769516	6.18838	0.979518	7.91002	0.547012	4.40614	0.655856	5.28105	0.850131	6.86745	0.981985	7.92605
0.610404	4.67975	0.257645	2.03665	0.586132	4.70426	0.673081	5.4011	0.77222	6.16394	0.981466	7.86656	0.550185	4.39869	0.65883	5.26549	0.852185	6.83262	0.983814	7.88154
0.61426	4.67591	0.259725	2.03809	0.590015	4.70027	0.676418	5.3876	0.774936	6.13996	0.983424	7.82383	0.55334	4.39121	0.661818	5.25027	0.854251	6.7984	0.985658	7.83782
0.618111	4.67209	0.261806	2.0395	0.593894	4.69632	0.679767	5.37439	0.777664	6.11642	0.985391	7.7818	0.556478	4.38369	0.664821	5.2354	0.856327	6.76476	0.98752	7.79487
0.621956	4.66828	0.263886	2.04089	0.59777	4.6924	0.683128	5.36147	0.780404	6.09332	0.987369	7.74047	0.559598	4.37615	0.667837	5.22084	0.858415	6.73171	0.989397	7.75268
0.625795	4.66447	0.265966	2.04226	0.601642	4.68851	0.6865	5.34882	0.783156	6.07064	0.989357	7.69981	0.562699	4.36858	0.670868	5.20661	0.860513	6.69922	0.991292	7.71122
0.629627	4.66067	0.268046	2.04361	0.60551	4.68463	0.689883	5.33645	0.785919	6.04838	0.991354	7.65981	0.565783	4.36098	0.673912	5.1927	0.862623	6.66728	0.993202	7.67049
0.633452	4.65686	0.270125	2.04494	0.609373	4.68078	0.693277	5.32433	0.788694	6.02652	0.993361	7.62046	0.568848	4.35334	0.676971	5.17909	0.864743	6.63588	0.995129	7.63047
0.63727	4.65306	0.272205	2.04625	0.61323	4.67694	0.696683	5.31247	0.791481	6.00507	0.995378	7.58174	0.571895	4.34567	0.680044	5.16577	0.866875	6.60502	0.997072	7.59114
0.64108	4.64926	0.274284	2.04755	0.617083	4.67311	0.700098	5.30086	0.79428	5.984	0.997404	7.54364	0.574923	4.33796	0.683131	5.15275	0.869017	6.57467	0.999031	7.55248
0.644883	4.64544	0.276363	2.04882	0.620929	4.66929	0.703525	5.28949	0.797091	5.96332	0.99944	7.50615	0.577931	4.33023	0.686232	5.14002	0.87117	6.54482	1.00101	7.51449
0.648678	4.64163	0.278442	2.05007	0.624769	4.66549	0.706962	5.27835	0.799913	5.94301	1.00148	7.46924	0.580921	4.32245	0.689346	5.12757	0.873334	6.51548		
0.652464	4.6378	0.280521	2.0513	0.628603	4.66168	0.710409	5.26745	0.802747	5.92307			0.583892	4.31465	0.692475	5.11539	0.87551	6.48662		
0.656241	4.63396	0.2826	2.05252	0.63243	4.65788	0.713867	5.25677	0.805593	5.90348			0.586843	4.3068	0.695617	5.10347	0.877696	6.45823		
0.66001	4.63011	0.284679	2.05372	0.63625	4.65408	0.717334	5.24631	0.808451	5.88425			0.589775	4.29893	0.698772	5.09181	0.879893	6.43031		
0.66377	4.62625	0.286757	2.0549	0.640063	4.65027	0.720811	5.23606	0.81132	5.86536			0.592688	4.29102	0.70194	5.08041	0.8821	6.40285		
0.66752	4.62237	0.288835	2.05607	0.643867	4.64646	0.724298	5.22602	0.814201	5.8468			0.595581	4.28307	0.705122	5.06926	0.884319	6.37584		
0.67126	4.61847	0.290913	2.05722	0.647664	4.64265	0.727795	5.21619	0.817094	5.82858			0.598455	4.27509	0.708317	5.05834	0.886549	6.34926		
0.67499	4.61456	0.292991	2.05835	0.651453	4.63882	0.731301	5.20655	0.819998	5.81068			0.601309	4.26708	0.711525	5.04766	0.888789	6.32312		
0.67871	4.61062	0.295069	2.05947	0.655233	4.63499	0.734816	5.1971	0.822915	5.7931			0.604143	4.25904	0.714745	5.03722	0.891041	6.29739		
0.68242	4.60667	0.297147	2.06057	0.659004	4.63114	0.738341	5.18784	0.825843	5.77583			0.606958	4.25096	0.717978	5.02699	0.893303	6.27208		
0.686119	4.60269	0.299225	2.06166	0.662766	4.62728	0.741874	5.17877	0.828782	5.75886			0.609754	4.24285	0.721223	5.01699	0.895576	6.24718		
0.689807	4.59869	0.301302	2.06273	0.666518	4.62341	0.745417	5.16987	0.831734	5.7422			0.61253	4.23472	0.72448	5.00719	0.89786	6.22267		
0.693484	4.59466	0.303379	2.06379	0.670261	4.61952	0.748968	5.16115	0.834697	5.72582			0.615286	4.22655	0.727749	4.9976	0.900155	6.19855		
0.697149	4.59061	0.305457	2.06483	0.673994	4.61561	0.752528	5.1526	0.837672	5.70974			0.618023	4.21835	0.73103	4.98822	0.902461	6.17481		
0.700803	4.58653	0.307534	2.06586	0.677717	4.61168	0.756096	5.14422	0.840659	5.69394			0.620741	4.21013	0.734322	4.97903	0.904778	6.15145		
0.704445	4.58242	0.309611	2.06688	0.68143	4.60773	0.759673	5.136	0.843658	5.67842			0.62344	4.20188	0.737626	4.97003	0.907105	6.12845		
0.708075	4.57829	0.311687	2.06788	0.685131	4.60376	0.763259	5.12794	0.846668	5.66317			0.626119	4.1936	0.74094	4.96122	0.909443	6.10581		
0.711692	4.57412	0.313764	2.06887	0.688822	4.59976	0.766852	5.12003	0.849691	5.64818			0.628779	4.18531	0.744265	4.95258	0.911793	6.08353		
0.715298	4.56993	0.315841	2.06984	0.692502	4.59574	0.770454	5.11228	0.852725	5.63346			0.631421	4.17698	0.7476	4.94412	0.914152	6.0616		
0.718891	4.56571	0.317917	2.07081	0.69617	4.59169	0.774063	5.10467	0.855771	5.619			0.634043	4.16864	0.750945	4.93583	0.916523	6.04		
0.722471	4.56145	0.319994	2.07176	0.699827	4.58762	0.777681	5.09721	0.858829	5.60479			0.636648	4.16028	0.754301	4.92771	0.918905	6.01874		
0.726038	4.55717	0.32207	2.0727	0.703472	4.58352	0.781305	5.08988	0.861899	5.59083			0.639233	4.15189	0.757665	4.91975	0.921297	5.99781		
0.729592	4.55285	0.324146	2.07363	0.707106	4.57939	0.784938	5.0827	0.86498	5.57712			0.6418	4.14349	0.76104	4.91194	0.9237	5.9772		
0.733133	4.5485	0.326222	2.07454	0.710727	4.57524	0.788578	5.07564	0.868074	5.56364			0.644349	4.13508	0.764423	4.90429	0.926114	5.95691		
0.736661	4.54412	0.328298	2.07545	0.714335	4.57105	0.792225	5.06872	0.87118	5.5504			0.64688	4.12665	0.767814	4.89678	0.928539	5.93692		
0.739724	4.54028	0.330374	2.07634	0.717932	4.56684	0.795879	5.06193	0.874297	5.53739			0.649393	4.1182	0.771215	4.88941	0.930974	5.91725		
0.742327	4.53698	0.33245	2.07723	0.721515	4.56259	0.79954	5.05526	0.877427	5.52462			0.651889	4.10974	0.774623	4.88218	0.933421	5.89787		
0.744473	4.53424	0.334525	2.0781	0.725086	4.55832	0.803208	5.04871	0.880569	5.51206			0.654367	4.10128	0.778039	4.87508	0.935878	5.87878		
0.746167	4.53207	0.336601	2.07896	0.728643	4.55401	0.806883	5.04228	0.883722	5.49973			0.656827	4.0928	0.781463	4.86811	0.938345	5.85999		
0.747411	4.53046	0.338676	2.07981	0.732188	4.54967	0.810564	5.03596	0.886888	5.48761			0.659271	4.08431	0.784894	4.86127	0.940823	5.84148		
0.748206	4.52943	0.340752	2.08065	0.735719	4.5453	0.814251	5.02975	0.890066	5.47571			0.661697	4.07582	0.788331	4.85455	0.943312	5.82325		
0.749347	4.52795	0.342827	2.08148	0.739237	4.54089	0.817945	5.02366	0.893256	5.46401			0.664107	4.06732	0.791776	4.84795	0.945812	5.80529		
0.750586	4.52634	0.344902	2.0823	0.742741	4.53645	0.821645	5.01767	0.896458	5.45253			0.666501	4.05882	0.795226	4.84146	0.948322	5.7876		
0.752268	4.52413	0.346977	2.08311	0.746232	4.53198	0.82535	5.01178	0.899672	5.44124			0.668878	4.05032	0.798683	4.83507	0.950843	5.77017		
0.75439	4.52134	0.349052	2.08391	0.749708	4.52748	0.829062	5.006	0.902898	5.43015			0.671239	4.04181	0.802145	4.8288	0.953375	5.75301		
0.75695	4.51794	0.351127	2.0847	0.753171	4.52294	0.832779	5.00031	0.906137	5.41927			0.673585	4.03331	0.805613	4.82262	0.955917	5.7361		
0.759943	4.51392	0.353202	2.08548	0.75662	4.51838	0.836501	4.99472	0.909388	5.40857			0.675914	4.0248	0.809085	4.81655	0.95847	5.71944		
0.763364	4.50929	0.355277	2.08626	0.760055	4.51377	0.840228	4.98922	0.91265	5.39806			0.678229	4.0163	0.812563	4.81057	0.961033	5.70303		
0.766771	4.50462	0.357351	2.08702	0.763476	4.50914	0.84396	4.98381	0.915925	5.38774			0.680528	4.0078	0.816045	4.80468	0.963607	5.68686		
0.770164	4.49993	0.359426	2.08778	0.766882	4.50447	0.847698	4.97848	0.919213	5.37761			0.682812	3.99931	0.819531	4.79888	0.966191	5.67093		
0.773542	4.49519	0.3615	2.08852	0.770274	4.49977	0.851439	4.97325	0.922512	5.36765			0.685081	3.99083	0.823021	4.79317	0.968786	5.65523		
0.776906	4.49043	0.363575	2.08926	0.773652	4.49504	0.855185	4.96809	0.925824	5.35787			0.687336	3.98235	0.826514	4.78753	0.971391	5.63977		
0.780256	4.48564	0.365649	2.08999	0.777016	4.49027	0.858936	4.96302	0.929147	5.34827			0.689576	3.97388	0.830011	4.78198	0.974007	5.62453		
0.783591	4.48081	0.367723	2.09072	0.780365	4.48548	0.86269	4.95802	0.932483	5.33884			0.691803	3.96542	0.83351	4.7765	0.976633	5.60952		
0.786911	4.47595	0.369797	2.09143	0.7837	4.48065	0.866448	4.95309	0.935832	5.32959			0.694015	3.95697	0.837013	4.7711	0.979269	5.59472		
0.790217	4.47106	0.371871	2.09214	0.78702	4.47579	0.87021	4.94824	0.939192	5.32049			0.696214	3.94853	0.840518	4.76577	0.981916	5.58014		
0.793509	4.46614	0.373945	2.09283	0.790325	4.4709	0.873975	4.94346	0.942565	5.31156			0.6984	3.9401	0.844025	4.76051	0.984574	5.56577		
0.796786	4.46119	0.376019	2.09352	0.793617	4.46598	0.877743	4.93875	0.94595	5.3028			0.700572	3.93169	0.847533	4.75531	0.987241	5.55161		
0.800049	4.45621	0.378093	2.09421	0.796893	4.46103	0.881514	4.9341	0.949347	5.29419			0.702731	3.92329	0.851044	4.75017	0.989919	5.53766		
0.803297	4.4512	0.380167	2.09488	0.800155	4.45605	0.885288	4.92952	0.952756	5.28574			0.704877	3.91491	0.854555	4.74509	0.992607	5.5239		
0.80653	4.44617	0.382241	2.09555	0.803403	4.45104	0.889065	4.925	0.956178	5.27744			0.707011	3.90655	0.858068	4.74008	0.995306	5.51035		
0.809749	4.4411	0.384314	2.09621	0.806636	4.446	0.892844	4.92054	0.959612	5.2693			0.709133	3.8982	0.861581	4.73511	0.998014	5.49699		
0.812954	4.43601	0.386388	2.09687	0.809854	4.44094	0.896625	4.91613	0.963058	5.2613			0.711242	3.88988	0.865095	4.7302	1.00073	5.48382		
0.816144	4.43089	0.388461	2.09751	0.813058	4.43584	0.900408	4.91178	0.966516	5.25346			0.713339	3.88157	0.868609	4.72535				
0.819319	4.42574	0.390535	2.09815	0.816248	4.43072	0.904193	4.90749	0.969986	5.24575			0.715425	3.87328	0.872123	4.72054				
0.82248	4.42057	0.392608	2.09879	0.819423	4.42558	0.907979	4.90324	0.973468	5.23819			0.717499	3.86501	0.875636	4.71577				
0.825627	4.41538	0.394681	2.09941	0.822584	4.4204	0.911766	4.89905	0.976962	5.23077			0.719561	3.85677	0.879149	4.71105				
0.82876	4.41015	0.396755	2.10003	0.82573	4.41521	0.915555	4.8949	0.980469	5.22349			0.721613	3.84854	0.882662	4.70638				
0.831878	4.40491	0.398828	2.10065	0.828862	4.40998	0.919344	4.8908	0.983987	5.21634			0.723653	3.84034	0.886173	4.70174				
0.834982	4.39964	0.400901	2.10126	0.83198	4.40474	0.923134	4.88674	0.987517	5.20932			0.725683	3.83217	0.889682	4.69714				
0.838072	4.39435	0.402974	2.10186	0.835083	4.39947	0.926925	4.88272	0.99106	5.20244			0.727702	3.82402	0.893191	4.69258				
0.841148	4.38903	0.405047	2.10245	0.838173	4.39417	0.930715	4.87874	0.994614	5.19569			0.729711	3.81589	0.896697	4.68806				
0.844209	4.3837	0.40712	2.10304	0.841248	4.38886	0.934506	4.87481	0.99818	5.18906			0.73171	3.80779	0.900201	4.68356				
0.847257	4.37834	0.409193	2.10363	0.844309	4.38352	0.938297	4.87091	1.00176	5.18256			0.733699	3.79972	0.903704	4.6791				
0.850291	4.37296	0.411265	2.1042	0.847357	4.37817	0.942087	4.86704					0.735678	3.79167	0.907203	4.67467				
0.853311	4.36757	0.413338	2.10477	0.85039	4.37279	0.945876	4.86321					0.737647	3.78365	0.9107	4.67027				
0.856317	4.36215	0.415411	2.10534	0.853409	4.36739	0.949665	4.85941					0.739607	3.77566	0.914194	4.66589				
0.859309	4.35672	0.417483	2.1059	0.856415	4.36198	0.953452	4.85564					0.741558	3.7677	0.917684	4.66154				
0.862288	4.35127	0.419556	2.10645	0.859407	4.35654	0.957239	4.85191					0.743499	3.75977	0.921172	4.65721				
0.865254	4.3458	0.421628	2.107	0.862386	4.35109	0.961024	4.8482					0.745432	3.75186	0.924655	4.65291				
0.868205	4.34031	0.423701	2.10755	0.86535	4.34562	0.964808	4.84451					0.747356	3.74399	0.928135	4.64862				
0.871144	4.33481	0.425773	2.10809	0.868302	4.34013	0.968589	4.84085					0.749271	3.73615	0.931611	4.64436				
0.874069	4.3293	0.427845	2.10862	0.87124	4.33463	0.972369	4.83722					0.751178	3.72833	0.935082	4.64011				
0.876981	4.32377	0.429918	2.10915	0.874164	4.32912	0.976147	4.83361					0.753077	3.72055	0.938549	4.63589				
0.879879	4.31822	0.43199	2.10967	0.877076	4.32359	0.979923	4.83002					0.754967	3.7128	0.942011	4.63167				
0.882765	4.31267	0.434062	2.11019	0.879974	4.31804	0.983696	4.82646					0.75685	3.70509	0.945469	4.62747				
0.885638	4.30709	0.436134	2.1107	0.882859	4.31248	0.987466	4.82291					0.758725	3.6974	0.948921	4.62329				
0.888498	4.30151	0.438206	2.11121	0.885732	4.30691	0.991234	4.81938					0.760593	3.68975	0.952368	4.61912				
0.891345	4.29592	0.440278	2.11171	0.888591	4.30133	0.994999	4.81587					0.762453	3.68213	0.95581	4.61495				
0.894179	4.29031	0.44235	2.11221	0.891437	4.29573	0.998761	4.81238					0.764305	3.67454	0.959246	4.6108				
0.897001	4.2847	0.444422	2.11271	0.894271	4.29013	1.00252	4.8089					0.766151	3.66699	0.962677	4.60666				
0.89981	4.27907	0.446494	2.1132	0.897093	4.28451							0.767989	3.65947	0.966101	4.60253				
0.902606	4.27344	0.448565	2.11368	0.899901	4.27889							0.769821	3.65199	0.969519	4.5984				
0.905391	4.26779	0.450637	2.11416	0.902698	4.27325							0.771646	3.64454	0.972931	4.59428				
0.908163	4.26214	0.452709	2.11464	0.905481	4.26761							0.773465	3.63712	0.976337	4.59017				
0.910922	4.25648	0.454781	2.11511	0.908253	4.26196							0.775277	3.62974	0.979736	4.58606				
0.91367	4.25082	0.456852	2.11558	0.911013	4.2563							0.777083	3.62239	0.983128	4.58196				
0.916406	4.24514	0.458924	2.11604	0.91376	4.25063							0.778882	3.61508	0.986513	4.57786				
0.91913	4.23946	0.460995	2.1165	0.916495	4.24496							0.780676	3.6078	0.989891	4.57376				
0.921842	4.23378	0.463067	2.11695	0.919219	4.23928							0.782464	3.60056	0.993262	4.56966				
0.924542	4.22809	0.465138	2.11741	0.92193	4.23359							0.784246	3.59336	0.996626	4.56556				
0.927231	4.22239	0.467209	2.11785	0.92463	4.2279							0.786022	3.58619	0.999982	4.56147				
0.929908	4.21669	0.469281	2.11829	0.927319	4.22221							0.787793	3.57905	1.00333	4.55738				
0.932574	4.21099	0.471352	2.11873	0.929995	4.21651							0.789559	3.57196						
0.935228	4.20528	0.473423	2.11917	0.932661	4.2108							0.791319	3.56489						
0.937871	4.19957	0.475494	2.1196	0.935315	4.2051							0.793074	3.55787						
0.940503	4.19386	0.477565	2.12003	0.937957	4.19939							0.794825	3.55088						
0.943123	4.18815	0.479636	2.12045	0.940589	4.19368							0.79657	3.54392						
0.945733	4.18243	0.481708	2.12087	0.943209	4.18796							0.79831	3.53701						
0.948332	4.17672	0.483778	2.12129	0.945818	4.18225							0.800046	3.53012						
0.95092	4.171	0.485849	2.1217	0.948417	4.17653							0.801777	3.52328						
0.953497	4.16528	0.48792	2.12211	0.951004	4.17081							0.803504	3.51647						
0.956063	4.15956	0.489991	2.12252	0.953581	4.16509							0.805227	3.5097						
0.958619	4.15384	0.492062	2.12292	0.956147	4.15937							0.806945	3.50296						
0.961164	4.14813	0.494133	2.12332	0.958702	4.15366							0.808659	3.49626						
0.963699	4.14241	0.496203	2.12371	0.961247	4.14794							0.810369	3.4896						
0.966223	4.13669	0.498274	2.12411	0.963782	4.14222							0.812075	3.48297						
0.968738	4.13098	0.500345	2.12449	0.966306	4.13651							0.813777	3.47638						
0.971242	4.12527	0.502415	2.12488	0.96882	4.13079							0.815476	3.46982						
0.973736	4.11956	0.504486	2.12526	0.971323	4.12508							0.81717	3.46331						
0.976219	4.11385	0.506557	2.12564	0.973817	4.11937							0.818862	3.45682						
0.978693	4.10815	0.508627	2.12602	0.976301	4.11366							0.82055	3.45038						
0.981157	4.10245	0.510697	2.12639	0.978774	4.10796							0.822234	3.44397						
0.983612	4.09675	0.512768	2.12676	0.981238	4.10226							0.823915	3.4376						
0.986056	4.09105	0.514838	2.12713	0.983692	4.09656							0.825593	3.43126						
0.988491	4.08537	0.516909	2.12749	0.986136	4.09087							0.827268	3.42496						
0.990917	4.07968	0.518979	2.12786	0.988571	4.08518							0.828939	3.41869						
0.993333	4.074	0.521049	2.12821	0.990996	4.07949							0.830608	3.41246						
0.995739	4.06832	0.523119	2.12857	0.993412	4.07381							0.832274	3.40627						
0.998136	4.06265	0.52519	2.12892	0.995818	4.06814							0.833937	3.40011						
1.00052	4.05699	0.52726	2.12927	0.998215	4.06247							0.835598	3.39398						
		0.52933	2.12962	1.0006	4.0568							0.837255	3.3879						
		0.5314	2.12996									0.83891	3.38184						
		0.53347	2.13031									0.840563	3.37583						
		0.53554	2.13064									0.842213	3.36985						
		0.53761	2.13098									0.843861	3.3639						
		0.53968	2.13131									0.845507	3.35799						
		0.54175	2.13165									0.84715	3.35211						
		0.54382	2.13197									0.848792	3.34627						
		0.545889	2.1323									0.850431	3.34046						
		0.547959	2.13262									0.852068	3.33469						
		0.550029	2.13294									0.853703	3.32895						
		0.552099	2.13326									0.855336	3.32324						
		0.554168	2.13358									0.856968	3.31757						
		0.556238	2.13389									0.858597	3.31194						
		0.558308	2.1342									0.860225	3.30633						
		0.560377	2.13451									0.861852	3.30076						
		0.562447	2.13482									0.863477	3.29523						
		0.564516	2.13513									0.8651	3.28973						
		0.566586	2.13543									0.866721	3.28426						
		0.568655	2.13573									0.868342	3.27882						
		0.570725	2.13603									0.869961	3.27342						
		0.572794	2.13632									0.871578	3.26805						
		0.574863	2.13661									0.873194	3.26271						
		0.576933	2.13691									0.874809	3.2574						
		0.579002	2.13719									0.876423	3.25213						
		0.581071	2.13748									0.878036	3.24689						
		0.58314	2.13777									0.879648	3.24168						
		0.58521	2.13805									0.881258	3.2365						
		0.587279	2.13833									0.882868	3.23136						
		0.589348	2.13861									0.884476	3.22624						
		0.591417	2.13889									0.886084	3.22116						
		0.593486	2.13916									0.887691	3.21611						
		0.595555	2.13943									0.889297	3.21109						
		0.597624	2.13971									0.890902	3.2061						
		0.599693	2.13997									0.892507	3.20114						
		0.601762	2.14024									0.89411	3.19621						
		0.603831	2.14051									0.895714	3.19131						
		0.6059	2.14077									0.897316	3.18645						
		0.607969	2.14103									0.898918	3.18161						
		0.610038	2.14129									0.900519	3.1768						
		0.612106	2.14155									0.90212	3.17202						
		0.614175	2.14181									0.90372	3.16727						
		0.616244	2.14206									0.90532	3.16255						
		0.618313	2.14231									0.90692	3.15786						
		0.620381	2.14257									0.908519	3.1532						
		0.62245	2.14281									0.910117	3.14857						
		0.624519	2.14306									0.911716	3.14396						
		0.626587	2.14331									0.913314	3.13939						
		0.628656	2.14355									0.914912	3.13484						
		0.630724	2.1438									0.916509	3.13032						
		0.632793	2.14404									0.918107	3.12583						
		0.634861	2.14428									0.919704	3.12137						
		0.63693	2.14451									0.921301	3.11693						
		0.638998	2.14475									0.922898	3.11252						
		0.641066	2.14498									0.924495	3.10814						
		0.643135	2.14522									0.926091	3.10379						
		0.645203	2.14545									0.927688	3.09946						
		0.647272	2.14568									0.929285	3.09516						
		0.64934	2.14591									0.930881	3.09089						
		0.651408	2.14614									0.932478	3.08664						
		0.653476	2.14636									0.934075	3.08242						
		0.655544	2.14658									0.935672	3.07822						
		0.657613	2.14681									0.937268	3.07406						
		0.659681	2.14703									0.938865	3.06991						
		0.661749	2.14725									0.940463	3.0658						
		0.663817	2.14747									0.94206	3.0617						
		0.665885	2.14768									0.943657	3.05764						
		0.667953	2.1479									0.945255	3.0536						
		0.670021	2.14811									0.946853	3.04958						
		0.672089	2.14833									0.948451	3.04559						
		0.674157	2.14854									0.95005	3.04162						
		0.676225	2.14875									0.951648	3.03768						
		0.678293	2.14896									0.953247	3.03376						
		0.680361	2.14917									0.954847	3.02986						
		0.682429	2.14937									0.956446	3.02599						
		0.684497	2.14958									0.958046	3.02215						
		0.686564	2.14978									0.959647	3.01833						
		0.688632	2.14998									0.961247	3.01453						
		0.6907	2.15018									0.962849	3.01075						
		0.692768	2.15038									0.96445	3.007						
		0.694835	2.15058									0.966052	3.00327						
		0.696903	2.15078									0.967654	2.99956						
		0.698971	2.15098									0.969257	2.99588						
		0.701038	2.15117									0.970861	2.99222						
		0.703106	2.15137									0.972464	2.98858						
		0.705174	2.15156									0.974069	2.98496						
		0.707241	2.15175									0.975674	2.98137						
		0.709309	2.15194									0.977279	2.9778						
		0.711376	2.15213									0.978885	2.97424						
		0.713444	2.15232									0.980491	2.97072						
		0.715511	2.1525									0.982098	2.96721						
		0.717579	2.15269									0.983706	2.96372						
		0.719646	2.15287									0.985314	2.96026						
		0.721713	2.15306									0.986922	2.95681						
		0.723781	2.15324									0.988532	2.95339						
		0.725848	2.15342									0.990142	2.94999						
		0.727915	2.1536									0.991752	2.94661						
		0.729983	2.15378									0.993363	2.94325						
		0.73205	2.15396									0.994975	2.93991						
		0.734117	2.15414									0.996588	2.93659						
		0.736184	2.15431									0.998201	2.93329						
		0.738252	2.15449									0.999815	2.93001						
		0.740319	2.15466									1.00143	2.92675						
		0.742386	2.15484																
		0.744453	2.15501																
		0.74652	2.15518																
		0.748587	2.15535																
		0.750654	2.15552																
		0.752721	2.15569																
		0.754788	2.15585																
		0.756855	2.15602																
		0.758922	2.15619																
		0.760989	2.15635																
		0.763056	2.15651																
		0.765123	2.15668																
		0.76719	2.15684																
		0.769257	2.157																
		0.771323	2.15716																
		0.77339	2.15732																
		0.775457	2.15748																
		0.777524	2.15763																
		0.77959	2.15779																
		0.781657	2.15794																
		0.783724	2.1581																
		0.78579	2.15825																
		0.787857	2.15841																
		0.789924	2.15856																
		0.79199	2.15871																
		0.794057	2.15886																
		0.796123	2.15901																
		0.79819	2.15916																
		0.800256	2.15931																
		0.802323	2.15945																
		0.804389	2.1596																
		0.806456	2.15974																
		0.808522	2.15989																
		0.810588	2.16003																
		0.812655	2.16018																
		0.814721	2.16032																
		0.816787	2.16046																
		0.818854	2.1606																
		0.82092	2.16074																
		0.822986	2.16088																
		0.825052	2.16102																
		0.827119	2.16116																
		0.829185	2.16129																
		0.831251	2.16143																
		0.833317	2.16157																
		0.835383	2.1617																
		0.837449	2.16184																
		0.839515	2.16197																
		0.841581	2.1621																
		0.843648	2.16224																
		0.845714	2.16237																
		0.847779	2.1625																
		0.849845	2.16263																
		0.851911	2.16276																
		0.853977	2.16289																
		0.856043	2.16301																
		0.858109	2.16314																
		0.860175	2.16327																
		0.862241	2.1634																
		0.864307	2.16352																
		0.866372	2.16365																
		0.868438	2.16377																
		0.870504	2.16389																
		0.87257	2.16402																
		0.874635	2.16414																
		0.876701	2.16426																
		0.878767	2.16438																
		0.880832	2.1645																
		0.882898	2.16462																
		0.884964	2.16474																
		0.887029	2.16486																
		0.889095	2.16498																
		0.89116	2.1651																
		0.893226	2.16521																
		0.895291	2.16533																
		0.897357	2.16545																
		0.899422	2.16556																
		0.901488	2.16568																
		0.903553	2.16579																
		0.905618	2.16591																
		0.907684	2.16602																
		0.909749	2.16613																
		0.911814	2.16624																
		0.91388	2.16635																
		0.915945	2.16647																
		0.91801	2.16658																
		0.920076	2.16669																
		0.922141	2.1668																
		0.924206	2.1669																
		0.926271	2.16701																
		0.928336	2.16712																
		0.930401	2.16723																
		0.932467	2.16733																
		0.934532	2.16744																
		0.936597	2.16755																
		0.938662	2.16765																
		0.940727	2.16776																
		0.942792	2.16786																
		0.944857	2.16796																
		0.946922	2.16807																
		0.948987	2.16817																
		0.951052	2.16827																
		0.953117	2.16837																
		0.955181	2.16848																
		0.957246	2.16858																
		0.959311	2.16868																
		0.961376	2.16878																
		0.963441	2.16888																
		0.965506	2.16897																
		0.96757	2.16907																
		0.969635	2.16917																
		0.9717	2.16927																
		0.973765	2.16937																
		0.975829	2.16946																
		0.977894	2.16956																
		0.979958	2.16965																
		0.982023	2.16975																
		0.984088	2.16985																
		0.986152	2.16994																
		0.988217	2.17003																
		0.990281	2.17013																
		0.992346	2.17022																
		0.99441	2.17031																
		0.996475	2.17041																
		0.998539	2.1705																
		1.0006	2.17059																
