Sym0		Asym0		Sym1		Sym2		Sym3		Sym4		Asym1		Asym2		Asym3		Asym4	
496  Points		501  Points		359  Points		241  Points		210  Points		169  Points		440  Points		281  Points		218  Points		170  Points	
Freq (MHz)	Vph (m/ms)	Freq (MHz)	Vph (m/ms)	Freq (MHz)	Vph (m/ms)	Freq (MHz)	Vph (m/ms)	Freq (MHz)	Vph (m/ms)	Freq (MHz)	Vph (m/ms)	Freq (MHz)	Vph (m/ms)	Freq (MHz)	Vph (m/ms)	Freq (MHz)	Vph (m/ms)	Freq (MHz)	Vph (m/ms)
0.0028146	4.52906	0.000431083	0.167984	0.279509	901.371	0.35329	462.116	0.559025	747.835	0.838526	6120.07	0.139814	165.967	0.419268	743.948	0.698771	12485.4	0.706565	911.464
0.0070341	4.52893	0.000798205	0.228195	0.279518	225.093	0.353366	208.328	0.559055	332.926	0.838534	784.625	0.140019	78.9233	0.419297	280.417	0.698753	707.481	0.706658	414.002
0.0112529	4.52861	0.00127446	0.287715	0.279537	128.613	0.3535	134.518	0.559109	214.143	0.838556	419.194	0.140369	51.8769	0.419354	172.79	0.698702	364.029	0.706817	267.877
0.0154706	4.52816	0.00185707	0.346385	0.279568	90.0327	0.353692	99.3632	0.559186	157.846	0.838592	286.004	0.140862	38.725	0.419438	124.883	0.698622	245.04	0.70704	198.035
0.019687	4.5276	0.00254267	0.404048	0.279609	69.2637	0.353942	78.8063	0.559287	125	0.838641	217.051	0.141496	30.9674	0.419549	97.7889	0.698517	184.659	0.707321	157.113
0.0239015	4.52687	0.0033275	0.460574	0.279661	56.2861	0.354248	65.3235	0.559411	103.48	0.838703	174.894	0.142268	25.8626	0.419686	80.3682	0.698392	148.139	0.707654	130.235
0.0281139	4.52601	0.00420751	0.515854	0.279725	47.4089	0.354612	55.8033	0.559559	88.2906	0.838779	146.456	0.143173	22.2575	0.419851	68.2269	0.698252	123.669	0.708036	111.232
0.0323235	4.52499	0.00517821	0.569781	0.2798	40.9546	0.355032	48.7255	0.55973	76.9982	0.838868	125.977	0.144209	19.5823	0.420042	59.2825	0.698102	106.13	0.70846	97.0884
0.0365301	4.52385	0.00623519	0.622289	0.279888	36.051	0.355508	43.2593	0.559924	68.2744	0.838971	110.528	0.145371	17.5231	0.42026	52.4203	0.697947	92.9416	0.708925	86.1521
0.0407332	4.52254	0.0073737	0.673307	0.279988	32.1997	0.35604	38.9125	0.560142	61.3331	0.839087	98.4581	0.146654	15.8928	0.420505	46.99	0.69779	82.6646	0.709425	77.4443
0.0449324	4.52109	0.00858901	0.722788	0.280101	29.0952	0.356627	35.3746	0.560383	55.6793	0.839216	88.7687	0.148053	14.573	0.420777	42.5865	0.697635	74.4309	0.709958	70.3476
0.0491272	4.51948	0.00987643	0.770702	0.280227	26.5398	0.357269	32.4402	0.560647	50.9856	0.839359	80.819	0.149563	13.485	0.421075	38.9443	0.697484	67.6866	0.710523	64.4533
0.0533171	4.51772	0.0112314	0.817033	0.280368	24.4001	0.357965	29.9682	0.560934	47.0272	0.839515	74.1794	0.151179	12.5744	0.421399	35.8824	0.697339	62.0612	0.711116	59.48
0.0575018	4.5158	0.0126494	0.861775	0.280523	22.5825	0.358715	27.858	0.561244	43.6441	0.839684	68.551	0.152897	11.8027	0.42175	33.2726	0.697203	57.2981	0.711736	55.228
0.0616807	4.51371	0.0141259	0.90493	0.280693	21.0197	0.359517	26.0364	0.561578	40.7199	0.839867	63.7192	0.154711	11.1414	0.422128	31.0222	0.697077	53.2132	0.712382	51.5512
0.0658532	4.51146	0.015657	0.946521	0.28088	19.6618	0.360372	24.4487	0.561935	38.1673	0.840063	59.5264	0.156616	10.5694	0.422531	29.0619	0.696963	49.6717	0.713052	48.3405
0.0700189	4.50904	0.0172385	0.986562	0.281083	18.4714	0.361278	23.053	0.562314	35.92	0.840272	55.8538	0.158607	10.0706	0.422961	27.3395	0.69686	46.572	0.713747	45.5128
0.0741772	4.50644	0.0188666	1.02508	0.281303	17.4193	0.362235	21.817	0.562717	33.9265	0.840495	52.6104	0.160681	9.63242	0.423417	25.8144	0.696772	43.8365	0.714464	43.0037
0.0783274	4.50365	0.0205379	1.06212	0.281542	16.4831	0.363242	20.7153	0.563143	32.1465	0.840731	49.7253	0.162831	9.24499	0.423899	24.4547	0.696697	41.4048	0.715203	40.7623
0.0824691	4.50069	0.0222488	1.09771	0.281799	15.6448	0.364299	19.7274	0.563591	30.5474	0.840981	47.1422	0.165055	8.90045	0.424407	23.2351	0.696637	39.2291	0.715964	38.7481
0.0866015	4.49753	0.0239963	1.1319	0.282076	14.89	0.365405	18.8369	0.564062	29.1033	0.841243	44.8163	0.167349	8.59242	0.424941	22.1352	0.696592	37.2711	0.716747	36.9284
0.0907241	4.49417	0.0257774	1.16472	0.282374	14.207	0.366559	18.0303	0.564556	27.7927	0.841519	42.7111	0.169707	8.31571	0.4255	21.1385	0.696563	35.4999	0.71755	35.2764
0.094836	4.49061	0.0275893	1.19623	0.282693	13.5862	0.367759	17.2967	0.565073	26.5982	0.841808	40.7965	0.172127	8.06605	0.426085	20.2311	0.696551	33.89	0.718373	33.77
0.0989366	4.48683	0.0294295	1.22648	0.283034	13.0196	0.369007	16.6268	0.565613	25.505	0.842111	39.0481	0.174284	7.86777	0.426695	19.4018	0.696554	32.4206	0.719216	32.391
0.103025	4.48284	0.0312955	1.25549	0.283399	12.5006	0.3703	16.0129	0.566174	24.501	0.842426	37.445	0.176155	7.71132	0.42733	18.641	0.696575	31.074	0.72008	31.1239
0.107101	4.47861	0.0331853	1.28334	0.283788	12.0237	0.371638	15.4483	0.566759	23.5758	0.842755	35.97	0.177725	7.58987	0.42799	17.9406	0.696613	29.8356	0.720962	29.9558
0.111163	4.47415	0.0350968	1.31006	0.284202	11.5839	0.373021	14.9277	0.567365	22.7204	0.843097	34.6083	0.17898	7.49855	0.428676	17.2939	0.696667	28.693	0.721865	28.8754
0.11521	4.46944	0.037028	1.33569	0.284643	11.1774	0.374447	14.4461	0.567995	21.9275	0.843452	33.3475	0.17991	7.43388	0.429386	16.6951	0.69674	27.6355	0.722786	27.8735
0.119241	4.46447	0.0389773	1.36029	0.285111	10.8007	0.375916	13.9996	0.568646	21.1905	0.84382	32.1768	0.180509	7.39356	0.430121	16.139	0.69683	26.6541	0.723726	26.9417
0.123256	4.45924	0.040943	1.3839	0.285608	10.4506	0.377428	13.5845	0.569319	20.5037	0.844201	31.0869	0.181373	7.33698	0.43088	15.6214	0.696938	25.7409	0.724685	26.0731
0.127253	4.45372	0.0429238	1.40655	0.286134	10.1247	0.37898	13.1978	0.570015	19.8623	0.844596	30.0698	0.182319	7.27728	0.431664	15.1384	0.697064	24.8891	0.725663	25.2615
0.131231	4.44792	0.0449181	1.4283	0.286691	9.82067	0.380574	12.8368	0.570732	19.2619	0.845003	29.1184	0.183615	7.19897	0.432472	14.6869	0.697208	24.0927	0.726659	24.5015
0.135189	4.44181	0.0469249	1.44917	0.287281	9.5365	0.382207	12.4991	0.571472	18.6989	0.845424	28.2267	0.185269	7.10439	0.433304	14.2638	0.69737	23.3467	0.727673	23.7884
0.139126	4.43538	0.0489429	1.46922	0.287903	9.27045	0.38388	12.1826	0.572233	18.1699	0.845857	27.3891	0.18729	6.99623	0.43416	13.8667	0.697551	22.6463	0.728706	23.118
0.14304	4.42862	0.0509711	1.48848	0.288561	9.021	0.385591	11.8855	0.573016	17.672	0.846304	26.6011	0.189691	6.87732	0.43504	13.4933	0.697749	21.9877	0.729757	22.4867
0.14693	4.42151	0.0530086	1.50697	0.289255	8.78677	0.387341	11.6061	0.573821	17.2025	0.846763	25.8583	0.192482	6.7505	0.435944	13.1416	0.697967	21.3672	0.730826	21.8912
0.150794	4.41404	0.0547909	1.5225	0.289987	8.56655	0.389128	11.343	0.574647	16.7592	0.847236	25.1569	0.195311	6.63296	0.436871	12.8097	0.698203	20.7817	0.731914	21.3285
0.154632	4.40619	0.0563149	1.53532	0.290759	8.35926	0.390951	11.0948	0.575495	16.3399	0.847721	24.4937	0.198174	6.52379	0.437821	12.4962	0.698458	20.2283	0.733019	20.7961
0.15844	4.39794	0.0575782	1.54564	0.291571	8.16394	0.39281	10.8604	0.576364	15.9428	0.848219	23.8657	0.201071	6.42216	0.438794	12.1996	0.698731	19.7046	0.734142	20.2916
0.162217	4.38928	0.0585788	1.55363	0.292314	8.0028	0.394705	10.6388	0.577255	15.5663	0.84873	23.27	0.203998	6.32738	0.439791	11.9186	0.699023	19.2081	0.735283	19.8129
0.165962	4.38019	0.0593155	1.55941	0.292973	7.87171	0.396635	10.4289	0.578166	15.2088	0.849254	22.7044	0.206955	6.2388	0.44081	11.652	0.699334	18.737	0.736441	19.3581
0.169673	4.37065	0.0597873	1.56306	0.293538	7.76743	0.398598	10.2299	0.579099	14.8689	0.849791	22.1666	0.209939	6.15587	0.441853	11.3988	0.699663	18.2892	0.737617	18.9255
0.173347	4.36063	0.0604662	1.56826	0.293997	7.68752	0.400596	10.0411	0.580053	14.5454	0.850341	21.6547	0.21295	6.07809	0.442917	11.1581	0.700012	17.8633	0.738811	18.5136
0.176982	4.35013	0.0612048	1.57383	0.294341	7.63014	0.402626	9.86166	0.581027	14.2372	0.850903	21.1668	0.215985	6.00503	0.444005	10.929	0.70038	17.4576	0.740023	18.1209
0.180577	4.33912	0.0622105	1.58129	0.294565	7.59402	0.404689	9.69104	0.582023	13.9433	0.851478	20.7013	0.219043	5.93627	0.445114	10.7106	0.700766	17.0708	0.741251	17.7461
0.184128	4.32757	0.0634841	1.59053	0.294891	7.5429	0.406783	9.5286	0.583039	13.6627	0.852066	20.2568	0.222122	5.87147	0.446246	10.5024	0.701171	16.7016	0.742498	17.3881
0.187635	4.31548	0.0650267	1.60141	0.295252	7.48839	0.408909	9.37382	0.584076	13.3946	0.852666	19.8318	0.225222	5.81031	0.4474	10.3036	0.701596	16.3489	0.743761	17.0458
0.191093	4.30282	0.0668395	1.61378	0.295753	7.41597	0.411066	9.2262	0.585134	13.1381	0.853279	19.4251	0.22834	5.75249	0.448576	10.1137	0.702039	16.0116	0.745042	16.7182
0.194502	4.28958	0.0689235	1.62749	0.296403	7.32714	0.413252	9.08529	0.586211	12.8926	0.853905	19.0356	0.231476	5.69777	0.449773	9.93207	0.702502	15.6888	0.746341	16.4043
0.197858	4.27574	0.0710112	1.64069	0.297217	7.22365	0.415469	8.95068	0.58731	12.6574	0.854543	18.6622	0.234629	5.6459	0.450993	9.75823	0.702984	15.3795	0.747656	16.1035
0.201159	4.26129	0.0731021	1.65341	0.298209	7.10753	0.417714	8.82198	0.588428	12.4319	0.855194	18.304	0.237798	5.59666	0.452233	9.59172	0.703484	15.0831	0.748989	15.8148
0.204403	4.24621	0.0751959	1.66566	0.299401	6.98091	0.419988	8.69884	0.589567	12.2155	0.855857	17.96	0.24098	5.54987	0.453496	9.43211	0.704004	14.7986	0.750339	15.5376
0.207588	4.23049	0.0772922	1.67748	0.300651	6.861	0.42229	8.58093	0.590726	12.0077	0.856533	17.6295	0.244176	5.50534	0.45478	9.279	0.704543	14.5254	0.751706	15.2713
0.210712	4.21413	0.0793907	1.68887	0.301961	6.74745	0.42462	8.46796	0.591905	11.808	0.857222	17.3117	0.247384	5.46292	0.456085	9.13203	0.705101	14.263	0.753089	15.0152
0.213772	4.19712	0.0814911	1.69986	0.303335	6.6399	0.426977	8.35964	0.593103	11.616	0.857922	17.0059	0.250604	5.42245	0.457411	8.99087	0.705678	14.0106	0.75449	14.7688
0.216767	4.17947	0.0835932	1.71047	0.304773	6.53805	0.429361	8.25571	0.594322	11.4313	0.858635	16.7114	0.253834	5.3838	0.458759	8.85518	0.706275	13.7678	0.755908	14.5316
0.219695	4.16118	0.0856967	1.72071	0.306279	6.4416	0.43177	8.15593	0.59556	11.2535	0.859361	16.4276	0.257073	5.34684	0.460127	8.7247	0.70689	13.5339	0.757343	14.303
0.222555	4.14225	0.0878014	1.73059	0.307854	6.3503	0.433891	8.0722	0.596818	11.0821	0.860098	16.154	0.26032	5.31146	0.461517	8.59913	0.707524	13.3087	0.758795	14.0826
0.225347	4.12271	0.0899071	1.74014	0.309501	6.26388	0.435715	8.00307	0.598096	10.917	0.860848	15.89	0.263576	5.27756	0.462928	8.47824	0.708178	13.0916	0.760264	13.87
0.228068	4.10258	0.0920137	1.74937	0.31122	6.18211	0.437233	7.94741	0.599393	10.7577	0.861611	15.6352	0.266838	5.24503	0.464359	8.36177	0.708851	12.8821	0.761749	13.6648
0.23072	4.08186	0.094121	1.75829	0.313015	6.10478	0.43844	7.90433	0.60071	10.604	0.862385	15.3891	0.270106	5.21378	0.465811	8.24952	0.709543	12.68	0.763251	13.4667
0.233302	4.06061	0.0962288	1.76691	0.314887	6.03167	0.439331	7.87316	0.602046	10.4556	0.863172	15.1512	0.273379	5.18374	0.467094	8.15498	0.710254	12.4848	0.76477	13.2753
0.235814	4.03884	0.0983369	1.77525	0.316835	5.96259	0.439903	7.85344	0.603401	10.3123	0.863971	14.9212	0.276657	5.15482	0.4682	8.07669	0.710983	12.2963	0.766306	13.0902
0.238257	4.01659	0.100445	1.78332	0.318863	5.89735	0.440727	7.82539	0.604775	10.1738	0.864782	14.6987	0.279938	5.12695	0.469123	8.0135	0.711733	12.114	0.767858	12.9113
0.240632	3.9939	0.102554	1.79113	0.32097	5.83576	0.441626	7.7953	0.606169	10.0399	0.865605	14.4834	0.283222	5.10007	0.469859	7.9645	0.712501	11.9378	0.769427	12.7381
0.242941	3.97082	0.104663	1.79869	0.323157	5.77765	0.442854	7.75503	0.607581	9.91036	0.86644	14.2748	0.286508	5.07411	0.470403	7.929	0.713288	11.7673	0.771013	12.5704
0.245186	3.9474	0.106771	1.80601	0.325423	5.72284	0.444415	7.70513	0.609013	9.78501	0.867287	14.0727	0.289795	5.04901	0.470752	7.90651	0.714094	11.6023	0.772615	12.4081
0.247091	3.92673	0.10888	1.8131	0.327769	5.67117	0.446314	7.64631	0.610464	9.66366	0.868146	13.8769	0.293082	5.02473	0.471257	7.87449	0.714919	11.4424	0.774234	12.2508
0.248678	3.90896	0.110989	1.81998	0.330193	5.62247	0.448558	7.57933	0.611933	9.54613	0.869017	13.687	0.29637	5.0012	0.471807	7.8401	0.715763	11.2876	0.775869	12.0983
0.249966	3.89417	0.113097	1.82664	0.332694	5.57659	0.451155	7.50505	0.613422	9.43225	0.8699	13.5027	0.299656	4.97839	0.472561	7.79401	0.716625	11.1376	0.77752	11.9504
0.250968	3.88242	0.115205	1.8331	0.335272	5.53338	0.453774	7.43341	0.614929	9.32188	0.870795	13.3239	0.302941	4.95625	0.473521	7.73681	0.717507	10.9921	0.779188	11.807
0.251697	3.87376	0.117312	1.83937	0.337923	5.49268	0.456415	7.36429	0.616455	9.21487	0.871701	13.1503	0.306224	4.93473	0.474692	7.66922	0.718408	10.851	0.780873	11.6678
0.25216	3.8682	0.119419	1.84545	0.340647	5.45435	0.459078	7.29755	0.618	9.11107	0.87262	12.9817	0.309503	4.9138	0.47608	7.59206	0.719327	10.7142	0.782573	11.5326
0.25282	3.8602	0.121526	1.85135	0.34344	5.41824	0.461763	7.2331	0.619563	9.01035	0.87355	12.8179	0.312779	4.89343	0.477693	7.50626	0.720265	10.5813	0.78429	11.4014
0.253531	3.85149	0.123632	1.85708	0.3463	5.38422	0.464468	7.17082	0.621145	8.9126	0.874492	12.6587	0.31605	4.87357	0.479327	7.42326	0.721222	10.4523	0.786023	11.2739
0.254488	3.83962	0.125738	1.86264	0.349225	5.35216	0.467194	7.11063	0.622746	8.81769	0.875446	12.5038	0.319316	4.85419	0.480983	7.34294	0.722197	10.327	0.787773	11.15
0.25568	3.82458	0.127844	1.86805	0.352211	5.32194	0.46994	7.05242	0.624365	8.72551	0.876411	12.3532	0.322577	4.83527	0.482659	7.26519	0.723191	10.2052	0.789539	11.0295
0.257096	3.80636	0.129948	1.8733	0.355255	5.29342	0.472706	6.99611	0.626003	8.63595	0.877388	12.2067	0.32583	4.81677	0.484356	7.18991	0.724204	10.0869	0.79132	10.9124
0.258724	3.78497	0.132053	1.8784	0.358355	5.26649	0.475492	6.94162	0.62766	8.54893	0.878377	12.0641	0.329077	4.79867	0.486075	7.11699	0.725235	9.97186	0.793118	10.7985
0.26055	3.76042	0.134156	1.88337	0.361507	5.24106	0.478297	6.88887	0.629335	8.46433	0.879377	11.9252	0.332316	4.78095	0.487815	7.04634	0.726285	9.85998	0.794932	10.6876
0.262333	3.73592	0.136259	1.88819	0.364708	5.217	0.481121	6.83779	0.63081	8.39252	0.880388	11.79	0.335546	4.76357	0.489576	6.97788	0.727353	9.75114	0.796762	10.5797
0.264076	3.7115	0.138362	1.89289	0.367956	5.19422	0.483964	6.7883	0.632078	8.33267	0.881412	11.6582	0.338767	4.74652	0.491359	6.91151	0.728439	9.64523	0.798609	10.4746
0.265782	3.6872	0.140463	1.89746	0.371246	5.17264	0.486825	6.74035	0.633135	8.28409	0.882446	11.5298	0.341978	4.72977	0.493164	6.84716	0.729544	9.54214	0.800471	10.3723
0.267454	3.66304	0.142565	1.9019	0.374576	5.15216	0.489704	6.69386	0.633975	8.24626	0.883492	11.4047	0.345179	4.7133	0.494991	6.78476	0.730667	9.44177	0.802349	10.2726
0.269093	3.63906	0.144665	1.90623	0.377944	5.1327	0.492601	6.64878	0.634596	8.21876	0.88455	11.2826	0.348369	4.69709	0.496839	6.72422	0.731808	9.34402	0.804242	10.1754
0.270703	3.61527	0.146765	1.91045	0.381346	5.11419	0.495515	6.60505	0.634994	8.2013	0.885619	11.1636	0.351546	4.68113	0.49871	6.66549	0.732967	9.24879	0.806152	10.0808
0.272285	3.59172	0.148864	1.91456	0.384779	5.09655	0.498447	6.56263	0.635569	8.1764	0.886699	11.0474	0.354711	4.6654	0.500603	6.6085	0.734144	9.156	0.808078	9.98848
0.273842	3.5684	0.150963	1.91856	0.388241	5.07973	0.501395	6.52145	0.636196	8.14958	0.88779	10.9341	0.357864	4.64988	0.502518	6.55318	0.73534	9.06557	0.810019	9.89848
0.275376	3.54535	0.153061	1.92246	0.39173	5.06365	0.50436	6.48147	0.637052	8.11351	0.888893	10.8235	0.361002	4.63455	0.504456	6.49949	0.736553	8.97741	0.811976	9.8107
0.276889	3.52257	0.155158	1.92626	0.395243	5.04826	0.507342	6.44265	0.638141	8.06857	0.890007	10.7155	0.364126	4.61941	0.506417	6.44735	0.737784	8.89144	0.813949	9.72506
0.278383	3.50008	0.157255	1.92997	0.398778	5.03351	0.510339	6.40493	0.639468	8.0152	0.891132	10.61	0.367235	4.60442	0.5084	6.39673	0.739032	8.8076	0.815937	9.64149
0.279859	3.4779	0.159351	1.93358	0.402332	5.01935	0.513353	6.36829	0.641037	7.95393	0.892269	10.507	0.370329	4.5896	0.510407	6.34756	0.740299	8.7258	0.817941	9.55992
0.281319	3.45603	0.161447	1.93711	0.405905	5.00573	0.516382	6.33267	0.642855	7.88533	0.893416	10.4064	0.373406	4.57491	0.512436	6.29981	0.741583	8.64599	0.819961	9.48029
0.282765	3.43448	0.163542	1.94055	0.409492	4.99261	0.519426	6.29805	0.644692	7.81851	0.894575	10.308	0.376466	4.56035	0.51449	6.25343	0.742716	8.578	0.821996	9.40253
0.284197	3.41326	0.165636	1.94391	0.413094	4.97995	0.522486	6.26438	0.646548	7.7534	0.895745	10.2118	0.37951	4.54591	0.516566	6.20836	0.743692	8.52116	0.824047	9.32659
0.285619	3.39237	0.167729	1.94719	0.416707	4.96771	0.525561	6.23164	0.648422	7.68996	0.896926	10.1178	0.382535	4.53157	0.518666	6.16458	0.744507	8.47492	0.826113	9.25241
0.287029	3.37181	0.169822	1.95039	0.420331	4.95587	0.52865	6.19978	0.650315	7.62813	0.898117	10.0259	0.385542	4.51733	0.520791	6.12203	0.745156	8.43884	0.828194	9.17993
0.288431	3.35159	0.171915	1.95352	0.423963	4.94438	0.531754	6.16878	0.652227	7.56785	0.89932	9.93599	0.388529	4.50318	0.522939	6.08068	0.745636	8.41257	0.830291	9.1091
0.289824	3.33171	0.174007	1.95658	0.427603	4.93322	0.534873	6.1386	0.654158	7.50908	0.900534	9.84802	0.391498	4.48911	0.525111	6.0405	0.745944	8.39587	0.832403	9.03987
0.29121	3.31217	0.176098	1.95956	0.431248	4.92237	0.538005	6.10923	0.656108	7.45176	0.901759	9.76196	0.394446	4.47511	0.527307	6.00144	0.746388	8.37203	0.83453	8.97219
0.29259	3.29297	0.178189	1.96248	0.434898	4.91179	0.541151	6.08062	0.658077	7.39586	0.902995	9.67772	0.397374	4.46117	0.529528	5.96348	0.746874	8.34632	0.836673	8.90601
0.293964	3.2741	0.180279	1.96533	0.438551	4.90147	0.544311	6.05277	0.660065	7.34134	0.904241	9.59527	0.400281	4.44729	0.531773	5.92658	0.747537	8.3117	0.83883	8.8413
0.295334	3.25557	0.182368	1.96812	0.442205	4.89138	0.547485	6.02563	0.662072	7.28814	0.905499	9.51455	0.403167	4.43346	0.534042	5.8907	0.748382	8.26848	0.841003	8.778
0.2967	3.23738	0.184457	1.97085	0.44586	4.8815	0.550672	5.99918	0.664099	7.23624	0.906767	9.4355	0.40603	4.41967	0.536336	5.85583	0.749413	8.21703	0.842909	8.72396
0.298062	3.21952	0.186546	1.97352	0.449514	4.87181	0.553872	5.97342	0.666145	7.18558	0.908046	9.35809	0.408872	4.40592	0.538655	5.82192	0.750634	8.1578	0.844542	8.6787
0.299422	3.20199	0.188634	1.97613	0.453167	4.8623	0.557085	5.9483	0.668211	7.13615	0.909336	9.28226	0.411692	4.3922	0.540998	5.78895	0.75205	8.09127	0.845899	8.64182
0.30078	3.18478	0.190721	1.97868	0.456816	4.85295	0.56031	5.92381	0.670296	7.08789	0.910637	9.20796	0.414488	4.37852	0.543365	5.75689	0.753484	8.02624	0.846976	8.613
0.302137	3.16789	0.192808	1.98118	0.460462	4.84374	0.563548	5.89993	0.672401	7.04078	0.911948	9.13516	0.417262	4.36485	0.545757	5.72571	0.754935	7.96266	0.84777	8.592
0.303493	3.15132	0.194894	1.98363	0.464104	4.83465	0.566799	5.87664	0.674526	6.99479	0.913271	9.06381	0.420012	4.35122	0.548174	5.69539	0.756402	7.9005	0.84828	8.57865
0.304848	3.13506	0.19698	1.98603	0.467739	4.82569	0.570062	5.85392	0.676671	6.94989	0.914604	8.99388	0.422739	4.3376	0.550615	5.66591	0.757886	7.8397	0.849013	8.55957
0.306203	3.11911	0.199065	1.98837	0.471368	4.81683	0.573336	5.83175	0.678836	6.90604	0.915947	8.92532	0.425442	4.32399	0.55308	5.63723	0.759386	7.78024	0.849812	8.53897
0.307558	3.10346	0.20115	1.99067	0.474989	4.80806	0.576623	5.81012	0.681021	6.86322	0.917127	8.86666	0.428121	4.31041	0.55557	5.60934	0.760903	7.72207	0.850902	8.51122
0.308914	3.08811	0.203235	1.99292	0.478602	4.79937	0.579921	5.789	0.683226	6.82139	0.918139	8.81745	0.430775	4.29683	0.558083	5.5822	0.762436	7.66515	0.852285	8.47653
0.310271	3.07306	0.205318	1.99513	0.482206	4.79075	0.583231	5.76839	0.685453	6.78055	0.91898	8.77728	0.433406	4.28327	0.56062	5.5558	0.763985	7.60945	0.853965	8.43518
0.31163	3.05829	0.207402	1.99729	0.4858	4.78219	0.586551	5.74826	0.687699	6.74065	0.919648	8.74586	0.436013	4.26971	0.563181	5.53012	0.765551	7.55494	0.855946	8.38748
0.31299	3.04381	0.209485	1.99941	0.489383	4.77368	0.589883	5.72861	0.689967	6.70167	0.920141	8.72294	0.438595	4.25617	0.565765	5.50513	0.767133	7.50157	0.858233	8.33381
0.314352	3.0296	0.211567	2.00149	0.492956	4.76522	0.593226	5.70941	0.692255	6.6636	0.920457	8.70836	0.441154	4.24263	0.568372	5.48081	0.76873	7.44933	0.860535	8.28124
0.315716	3.01567	0.213649	2.00353	0.496516	4.75679	0.596579	5.69065	0.694565	6.6264	0.920912	8.68751	0.443688	4.22911	0.571002	5.45714	0.770344	7.39817	0.862851	8.22974
0.317083	3.00201	0.215731	2.00553	0.500063	4.74839	0.599942	5.67233	0.696896	6.59006	0.921408	8.66499	0.446197	4.2156	0.573654	5.4341	0.771973	7.34807	0.865182	8.17929
0.318452	2.98861	0.217812	2.00749	0.503597	4.74001	0.603316	5.65441	0.699248	6.55456	0.922085	8.63461	0.448683	4.20209	0.576329	5.41167	0.773618	7.29899	0.867527	8.12985
0.319823	2.97547	0.219893	2.00941	0.507117	4.73165	0.6067	5.63691	0.701623	6.51987	0.922945	8.59659	0.451145	4.1886	0.579025	5.38984	0.775279	7.25092	0.869887	8.0814
0.321198	2.96257	0.221974	2.0113	0.510622	4.72329	0.610093	5.61979	0.704018	6.48598	0.92399	8.5512	0.453583	4.17512	0.581742	5.36857	0.776955	7.20383	0.872261	8.03392
0.322576	2.94993	0.224054	2.01315	0.514112	4.71495	0.613496	5.60305	0.706436	6.45287	0.925224	8.49875	0.455998	4.16166	0.584481	5.34786	0.778647	7.15768	0.874649	7.98737
0.323957	2.93753	0.226133	2.01497	0.517587	4.70659	0.616908	5.58667	0.708876	6.42051	0.926649	8.43962	0.458389	4.14821	0.587239	5.32769	0.780354	7.11246	0.877051	7.94174
0.325341	2.92537	0.228212	2.01675	0.521045	4.69824	0.620329	5.57065	0.711339	6.3889	0.928085	8.38157	0.460757	4.13478	0.590018	5.30803	0.782076	7.06813	0.879468	7.897
0.326729	2.91344	0.230291	2.0185	0.524487	4.68987	0.623759	5.55497	0.713824	6.35802	0.929531	8.32459	0.463102	4.12136	0.592816	5.28887	0.783814	7.02469	0.881898	7.85312
0.328121	2.90175	0.23237	2.02022	0.527912	4.68149	0.627197	5.53963	0.716331	6.32784	0.930988	8.26864	0.465425	4.10797	0.595633	5.27019	0.785566	6.9821	0.884342	7.81009
0.329516	2.89027	0.234448	2.02191	0.531319	4.6731	0.630644	5.52461	0.718862	6.29836	0.932455	8.21371	0.467725	4.0946	0.598468	5.25199	0.787334	6.94034	0.886801	7.76788
0.330915	2.87901	0.236525	2.02357	0.534707	4.66468	0.634098	5.5099	0.721415	6.26955	0.933933	8.15976	0.470004	4.08126	0.601322	5.23423	0.789117	6.89939	0.889273	7.72648
0.332318	2.86797	0.238603	2.0252	0.538078	4.65623	0.63756	5.49549	0.723992	6.24141	0.935422	8.10677	0.47226	4.06795	0.604192	5.21691	0.790915	6.85923	0.891758	7.68586
0.333724	2.85714	0.24068	2.0268	0.541429	4.64776	0.64103	5.48137	0.726592	6.21391	0.93692	8.05472	0.474496	4.05466	0.607079	5.2	0.792727	6.81984	0.894257	7.646
0.335135	2.84651	0.242757	2.02838	0.544762	4.63926	0.644506	5.46754	0.729216	6.18706	0.93843	8.00359	0.47671	4.04141	0.609982	5.1835	0.794554	6.78121	0.89677	7.60689
0.33655	2.83608	0.244833	2.02992	0.548074	4.63073	0.647989	5.45398	0.731864	6.16082	0.939949	7.95335	0.478904	4.02819	0.612901	5.16739	0.796396	6.74331	0.899296	7.5685
0.337969	2.82585	0.246909	2.03144	0.551367	4.62217	0.651478	5.44068	0.734535	6.13519	0.94148	7.90399	0.481078	4.01501	0.615835	5.15166	0.798252	6.70612	0.901836	7.53082
0.339392	2.81582	0.248985	2.03294	0.55464	4.61357	0.654973	5.42764	0.737231	6.11015	0.94302	7.85548	0.483233	4.00187	0.618783	5.13629	0.800123	6.66963	0.904389	7.49384
0.340819	2.80597	0.25106	2.03441	0.557892	4.60494	0.658474	5.41485	0.739951	6.0857	0.944571	7.8078	0.485367	3.98878	0.621744	5.12126	0.802009	6.63383	0.906955	7.45753
0.342251	2.79631	0.253135	2.03585	0.561124	4.59626	0.66198	5.40229	0.742695	6.06183	0.946133	7.76094	0.487483	3.97572	0.624719	5.10658	0.803909	6.59869	0.909534	7.42188
0.343687	2.78682	0.25521	2.03727	0.564335	4.58755	0.665491	5.38996	0.745464	6.03851	0.947705	7.71487	0.489581	3.96272	0.627705	5.09221	0.805823	6.5642	0.912126	7.38687
0.345127	2.77752	0.257284	2.03867	0.567524	4.5788	0.669007	5.37785	0.748258	6.01574	0.949287	7.66959	0.49166	3.94976	0.630704	5.07815	0.807751	6.53035	0.914732	7.35249
0.346572	2.76839	0.259358	2.04004	0.570692	4.57001	0.672527	5.36596	0.751077	5.9935	0.95088	7.62506	0.493722	3.93686	0.633714	5.06439	0.809694	6.49712	0.917349	7.31872
0.34802	2.75942	0.261432	2.04139	0.573839	4.56118	0.67605	5.35427	0.75392	5.97179	0.952483	7.58127	0.495766	3.92401	0.636734	5.05092	0.811651	6.46449	0.91998	7.28556
0.349474	2.75062	0.263506	2.04272	0.576964	4.55231	0.679577	5.34277	0.756789	5.9506	0.954097	7.53821	0.497794	3.91121	0.639763	5.03772	0.813622	6.43246	0.922623	7.25297
0.350931	2.74199	0.265579	2.04403	0.580068	4.54339	0.683107	5.33147	0.759683	5.92992	0.955721	7.49587	0.499805	3.89848	0.642802	5.02479	0.815607	6.401	0.925279	7.22096
0.352393	2.73351	0.267652	2.04532	0.583149	4.53444	0.686639	5.32035	0.762602	5.90973	0.957355	7.45422	0.5018	3.8858	0.64585	5.01211	0.817606	6.37011	0.927947	7.18951
0.353859	2.72519	0.269725	2.04659	0.586209	4.52545	0.690173	5.30941	0.765547	5.89002	0.959	7.41325	0.50378	3.87319	0.648905	4.99967	0.81962	6.33978	0.930628	7.1586
0.35533	2.71702	0.271797	2.04784	0.589247	4.51641	0.693709	5.29863	0.768518	5.87079	0.960656	7.37294	0.505744	3.86064	0.651968	4.98746	0.821647	6.30998	0.93332	7.12823
0.356805	2.709	0.27387	2.04907	0.592263	4.50734	0.697247	5.28802	0.771514	5.85203	0.962322	7.33329	0.507694	3.84815	0.655037	4.97548	0.823688	6.28072	0.936025	7.09838
0.358284	2.70113	0.275942	2.05028	0.595257	4.49823	0.700785	5.27756	0.774535	5.83372	0.963998	7.29428	0.50963	3.83574	0.658112	4.96371	0.825742	6.25197	0.938742	7.06903
0.359768	2.69339	0.278013	2.05147	0.598229	4.48909	0.704324	5.26726	0.777583	5.81586	0.965685	7.25589	0.511552	3.82339	0.661193	4.95215	0.827811	6.22373	0.941471	7.04019
0.361256	2.6858	0.280085	2.05264	0.601179	4.4799	0.707862	5.25709	0.780656	5.79844	0.967383	7.21811	0.51346	3.81112	0.664279	4.94078	0.829894	6.19599	0.944211	7.01183
0.362749	2.67834	0.282156	2.0538	0.604107	4.47068	0.711401	5.24706	0.783755	5.78145	0.969091	7.18093	0.515355	3.79891	0.667368	4.9296	0.83199	6.16873	0.946963	6.98394
0.364246	2.67102	0.284227	2.05494	0.607013	4.46143	0.714938	5.23716	0.78688	5.76488	0.970809	7.14434	0.517238	3.78678	0.670461	4.9186	0.8341	6.14194	0.949727	6.95652
0.365747	2.66383	0.286298	2.05606	0.609898	4.45214	0.718474	5.22739	0.79003	5.74872	0.972538	7.10833	0.519108	3.77473	0.673557	4.90776	0.836223	6.11562	0.952501	6.92956
0.367252	2.65677	0.288368	2.05716	0.612761	4.44282	0.722009	5.21774	0.793206	5.73296	0.974278	7.07288	0.520967	3.76275	0.676656	4.8971	0.838361	6.08976	0.955288	6.90304
0.368762	2.64983	0.290438	2.05825	0.615602	4.43348	0.725542	5.2082	0.796408	5.7176	0.976028	7.03798	0.522813	3.75085	0.679756	4.88659	0.840512	6.06434	0.958085	6.87695
0.370276	2.64301	0.292508	2.05932	0.618422	4.4241	0.729072	5.19877	0.799635	5.70263	0.977788	7.00363	0.524649	3.73902	0.682858	4.87622	0.842676	6.03936	0.960893	6.85129
0.371794	2.63632	0.294578	2.06038	0.62122	4.41469	0.732599	5.18945	0.802888	5.68803	0.97956	6.9698	0.526473	3.72728	0.685961	4.866	0.844855	6.01481	0.963712	6.82605
0.373317	2.62974	0.296648	2.06142	0.623998	4.40526	0.736124	5.18023	0.806166	5.67381	0.981342	6.9365	0.528288	3.71561	0.689063	4.85592	0.847046	5.99068	0.966542	6.80121
0.374844	2.62328	0.298717	2.06245	0.626754	4.39581	0.739645	5.1711	0.80947	5.65994	0.983135	6.9037	0.530092	3.70403	0.692165	4.84596	0.849252	5.96696	0.969383	6.77677
0.376374	2.61693	0.300786	2.06346	0.62949	4.38633	0.743162	5.16206	0.812799	5.64643	0.984938	6.87141	0.531886	3.69252	0.695267	4.83613	0.851471	5.94364	0.972234	6.75272
0.37791	2.61069	0.302855	2.06446	0.632205	4.37684	0.746674	5.15311	0.816152	5.63327	0.986752	6.83961	0.53367	3.6811	0.698367	4.82642	0.853703	5.92072	0.975095	6.72904
0.379449	2.60456	0.304924	2.06544	0.6349	4.36732	0.750183	5.14425	0.81953	5.62044	0.988577	6.80829	0.535446	3.66977	0.701465	4.81681	0.855949	5.89818	0.977967	6.70575
0.380992	2.59853	0.306992	2.06641	0.637574	4.35779	0.753686	5.13546	0.822933	5.60795	0.990413	6.77745	0.537212	3.65851	0.704561	4.80731	0.858209	5.87603	0.980848	6.68281
0.38254	2.59261	0.309061	2.06737	0.640228	4.34824	0.757184	5.12675	0.82636	5.59577	0.99226	6.74707	0.53897	3.64734	0.707653	4.79791	0.860482	5.85424	0.98374	6.66023
0.384091	2.58679	0.311129	2.06831	0.642863	4.33868	0.760677	5.11811	0.829812	5.58391	0.994117	6.71714	0.54072	3.63626	0.710743	4.78861	0.862768	5.83283	0.986641	6.638
0.385647	2.58107	0.313197	2.06925	0.645478	4.32911	0.764164	5.10955	0.833287	5.57236	0.995986	6.68767	0.542462	3.62525	0.713828	4.7794	0.865068	5.81177	0.989551	6.61611
0.387206	2.57545	0.315264	2.07016	0.648074	4.31953	0.767646	5.10105	0.836785	5.56111	0.997865	6.65863	0.544196	3.61434	0.71691	4.77027	0.867381	5.79106	0.992472	6.59456
0.38877	2.56993	0.317332	2.07107	0.65065	4.30994	0.771121	5.09261	0.840307	5.55015	0.999755	6.63003	0.545922	3.6035	0.719986	4.76123	0.869708	5.7707	0.995401	6.57333
0.390337	2.56449	0.319399	2.07196	0.653208	4.30034	0.77459	5.08423	0.843851	5.53947	1.00166	6.60185	0.547641	3.59276	0.723058	4.75226	0.872048	5.75068	0.998339	6.55242
0.391908	2.55915	0.321466	2.07284	0.655747	4.29074	0.778052	5.07592	0.847419	5.52907			0.549353	3.5821	0.726124	4.74336	0.874402	5.73099	1.00129	6.53182
0.393484	2.5539	0.323533	2.07371	0.658268	4.28113	0.781507	5.06766	0.851008	5.51894			0.551059	3.57152	0.729183	4.73453	0.876769	5.71162		
0.395063	2.54874	0.3256	2.07457	0.660771	4.27153	0.784955	5.05945	0.854619	5.50907			0.552758	3.56103	0.732237	4.72577	0.879149	5.69258		
0.396646	2.54366	0.327667	2.07542	0.663256	4.26192	0.788396	5.05129	0.858251	5.49946			0.554451	3.55062	0.735283	4.71707	0.881543	5.67385		
0.398233	2.53867	0.329733	2.07626	0.665724	4.25232	0.79183	5.04319	0.861905	5.49009			0.556138	3.5403	0.738323	4.70843	0.883949	5.65542		
0.399823	2.53376	0.3318	2.07708	0.668174	4.24272	0.795256	5.03513	0.865579	5.48097			0.557819	3.53006	0.741355	4.69984	0.88637	5.6373		
0.401417	2.52893	0.333866	2.0779	0.670607	4.23313	0.798675	5.02712	0.869273	5.47208			0.559494	3.51991	0.744379	4.6913	0.888803	5.61948		
0.403015	2.52418	0.335932	2.0787	0.673024	4.22355	0.802086	5.01916	0.872987	5.46341			0.561164	3.50985	0.747394	4.68281	0.891249	5.60195		
0.404617	2.51951	0.337997	2.07949	0.675424	4.21397	0.805489	5.01124	0.876721	5.45497			0.562829	3.49987	0.750401	4.67436	0.893709	5.5847		
0.406223	2.51492	0.340063	2.08028	0.677808	4.2044	0.808884	5.00336	0.880473	5.44674			0.564489	3.48997	0.7534	4.66596	0.896182	5.56774		
0.407832	2.5104	0.342128	2.08105	0.680176	4.19485	0.812271	4.99552	0.884243	5.43872			0.566144	3.48016	0.756388	4.65759	0.898668	5.55105		
0.409444	2.50595	0.344194	2.08182	0.682528	4.18531	0.81565	4.98772	0.888031	5.4309			0.567795	3.47043	0.759368	4.64927	0.901166	5.53464		
0.41106	2.50158	0.346259	2.08257	0.684865	4.17578	0.81902	4.97996	0.891837	5.42327			0.569441	3.46078	0.762337	4.64097	0.903678	5.51848		
0.41268	2.49728	0.348324	2.08332	0.687187	4.16627	0.822383	4.97223	0.895659	5.41583			0.571083	3.45122	0.765297	4.63271	0.906203	5.50259		
0.414303	2.49304	0.350389	2.08405	0.689494	4.15678	0.825737	4.96455	0.899498	5.40857			0.572721	3.44174	0.768246	4.62448	0.90874	5.48696		
0.41593	2.48888	0.352453	2.08478	0.691787	4.1473	0.829082	4.95689	0.903353	5.40149			0.574355	3.43234	0.771184	4.61628	0.91129	5.47158		
0.41756	2.48478	0.354518	2.0855	0.694065	4.13785	0.832419	4.94927	0.907223	5.39458			0.575986	3.42303	0.774112	4.60811	0.913853	5.45644		
0.419193	2.48074	0.356582	2.08621	0.696329	4.12842	0.835747	4.94169	0.911108	5.38783			0.577613	3.41379	0.777028	4.59996	0.916428	5.44155		
0.42083	2.47678	0.358646	2.08691	0.69858	4.11901	0.839067	4.93414	0.915008	5.38124			0.579236	3.40464	0.779934	4.59183	0.919016	5.42689		
0.42247	2.47287	0.36071	2.0876	0.700817	4.10962	0.842378	4.92661	0.918921	5.37481			0.580856	3.39557	0.782827	4.58372	0.921616	5.41247		
0.424114	2.46902	0.362774	2.08829	0.70304	4.10026	0.84568	4.91912	0.922848	5.36852			0.582473	3.38658	0.785709	4.57563	0.924229	5.39827		
0.42576	2.46524	0.364838	2.08896	0.705251	4.09092	0.848973	4.91166	0.926787	5.36237			0.584087	3.37766	0.788579	4.56756	0.926854	5.3843		
0.427411	2.46151	0.366902	2.08963	0.707449	4.08161	0.852258	4.90423	0.930739	5.35636			0.585699	3.36883	0.791437	4.55951	0.92949	5.37055		
0.429064	2.45785	0.368965	2.09029	0.709634	4.07233	0.855533	4.89682	0.934702	5.35048			0.587307	3.36008	0.794283	4.55148	0.932139	5.35701		
0.43072	2.45424	0.371028	2.09094	0.711807	4.06308	0.8588	4.88945	0.938677	5.34473			0.588913	3.3514	0.797116	4.54346	0.934799	5.34369		
0.43238	2.45068	0.373092	2.09159	0.713968	4.05385	0.862058	4.88209	0.942662	5.3391			0.590517	3.3428	0.799937	4.53545	0.937471	5.33057		
0.434043	2.44719	0.375155	2.09223	0.716117	4.04466	0.865306	4.87477	0.946658	5.33358			0.592118	3.33428	0.802746	4.52746	0.940154	5.31766		
0.435708	2.44374	0.377218	2.09286	0.718255	4.03549	0.868546	4.86747	0.950663	5.32818			0.593717	3.32583	0.805541	4.51947	0.942849	5.30495		
0.437377	2.44035	0.37928	2.09348	0.720381	4.02636	0.871776	4.8602	0.954677	5.32288			0.595313	3.31746	0.808324	4.5115	0.945555	5.29243		
0.439049	2.43701	0.381343	2.0941	0.722496	4.01727	0.874997	4.85295	0.9587	5.31769			0.596908	3.30917	0.811094	4.50355	0.948272	5.2801		
0.440724	2.43372	0.383406	2.09471	0.7246	4.0082	0.878208	4.84572	0.962731	5.31259			0.598501	3.30095	0.813851	4.4956	0.950999	5.26796		
0.442402	2.43048	0.385468	2.09531	0.726694	3.99917	0.881411	4.83852	0.96677	5.30759			0.600092	3.29281	0.816595	4.48766	0.953738	5.256		
0.444083	2.42729	0.38753	2.0959	0.728776	3.99017	0.884604	4.83133	0.970815	5.30268			0.601682	3.28473	0.819326	4.47973	0.956486	5.24422		
0.445767	2.42415	0.389593	2.09649	0.730849	3.98121	0.887787	4.82417	0.974867	5.29785			0.60327	3.27674	0.822043	4.47181	0.959245	5.23262		
0.447454	2.42106	0.391655	2.09707	0.732912	3.97229	0.890961	4.81703	0.978924	5.2931			0.604856	3.26881	0.824748	4.4639	0.962014	5.22118		
0.449144	2.41801	0.393716	2.09765	0.734964	3.9634	0.894126	4.80991	0.982987	5.28842			0.606441	3.26096	0.827439	4.45599	0.964793	5.20992		
0.450836	2.41501	0.395778	2.09822	0.737007	3.95455	0.897281	4.80281	0.987055	5.28382			0.608025	3.25317	0.830117	4.4481	0.967581	5.19882		
0.452531	2.41205	0.39784	2.09878	0.739041	3.94573	0.900426	4.79573	0.991127	5.27929			0.609607	3.24546	0.832782	4.44021	0.970379	5.18788		
0.45423	2.40914	0.399901	2.09934	0.741065	3.93696	0.903561	4.78867	0.995202	5.27482			0.611188	3.23782	0.835434	4.43233	0.973185	5.1771		
0.45593	2.40627	0.401963	2.09989	0.74308	3.92822	0.906686	4.78162	0.99928	5.27041			0.612768	3.23025	0.838073	4.42446	0.976001	5.16647		
0.457634	2.40344	0.404024	2.10044	0.745086	3.91952	0.909802	4.77459	1.00336	5.26605			0.614348	3.22275	0.840698	4.4166	0.978825	5.15599		
0.45934	2.40066	0.406085	2.10098	0.747084	3.91086	0.912908	4.76758					0.615926	3.21531	0.843311	4.40874	0.981658	5.14566		
0.461049	2.39791	0.408146	2.10151	0.749073	3.90224	0.916003	4.76058					0.617504	3.20794	0.84591	4.4009	0.984499	5.13547		
0.462761	2.39521	0.410207	2.10204	0.751053	3.89366	0.919089	4.7536					0.61908	3.20064	0.848497	4.39306	0.987348	5.12542		
0.464475	2.39254	0.412268	2.10256	0.753025	3.88512	0.922164	4.74663					0.620656	3.19341	0.85107	4.38523	0.990204	5.11551		
0.466192	2.38992	0.414329	2.10308	0.754989	3.87661	0.925229	4.73968					0.622232	3.18624	0.853631	4.37741	0.993068	5.10573		
0.467912	2.38733	0.41639	2.10359	0.756946	3.86815	0.928284	4.73274					0.623807	3.17914	0.856179	4.3696	0.995938	5.09608		
0.469634	2.38478	0.41845	2.10409	0.758894	3.85973	0.931328	4.72581					0.625381	3.1721	0.858714	4.36179	0.998816	5.08655		
0.471358	2.38227	0.420511	2.10459	0.760835	3.85136	0.934362	4.7189					0.626955	3.16513	0.861236	4.354	1.0017	5.07715		
0.473085	2.37979	0.422571	2.10509	0.762769	3.84302	0.937386	4.712					0.628529	3.15822	0.863746	4.34622				
0.474815	2.37735	0.424631	2.10558	0.764695	3.83472	0.940399	4.70511					0.630102	3.15137	0.866244	4.33845				
0.476547	2.37494	0.426691	2.10606	0.766614	3.82647	0.943401	4.69823					0.631676	3.14458	0.868729	4.33069				
0.478282	2.37257	0.428751	2.10654	0.768526	3.81826	0.946393	4.69136					0.633249	3.13786	0.871202	4.32294				
0.480019	2.37023	0.430811	2.10702	0.770431	3.81009	0.949374	4.6845					0.634821	3.1312	0.873663	4.3152				
0.481758	2.36792	0.432871	2.10749	0.77233	3.80196	0.952344	4.67765					0.636394	3.1246	0.876112	4.30747				
0.483499	2.36565	0.43493	2.10796	0.774222	3.79387	0.955304	4.67081					0.637967	3.11806	0.878549	4.29975				
0.485243	2.36341	0.43699	2.10842	0.776107	3.78583	0.958252	4.66398					0.63954	3.11157	0.880974	4.29205				
0.48699	2.3612	0.439049	2.10887	0.777987	3.77782	0.96119	4.65716					0.641113	3.10515	0.883387	4.28436				
0.488738	2.35902	0.441108	2.10933	0.77986	3.76986	0.964116	4.65035					0.642686	3.09879	0.885789	4.27669				
0.490489	2.35687	0.443168	2.10977	0.781727	3.76194	0.967032	4.64354					0.644259	3.09248	0.88818	4.26903				
0.492242	2.35476	0.445227	2.11022	0.783588	3.75407	0.969937	4.63675					0.645832	3.08623	0.890559	4.26138				
0.493997	2.35267	0.447286	2.11065	0.785443	3.74624	0.97283	4.62996					0.647406	3.08003	0.892927	4.25375				
0.495755	2.35061	0.449345	2.11109	0.787293	3.73844	0.975713	4.62318					0.64898	3.0739	0.895284	4.24613				
0.497515	2.34858	0.451404	2.11152	0.789137	3.7307	0.978584	4.6164					0.650554	3.06782	0.89763	4.23853				
0.499277	2.34657	0.453462	2.11194	0.790975	3.72299	0.981444	4.60963					0.652129	3.06179	0.899966	4.23094				
0.501041	2.3446	0.455521	2.11237	0.792808	3.71532	0.984293	4.60287					0.653704	3.05582	0.902291	4.22337				
0.502807	2.34265	0.45758	2.11278	0.794636	3.7077	0.98713	4.59612					0.655279	3.0499	0.904605	4.21582				
0.504575	2.34073	0.459638	2.1132	0.796459	3.70012	0.989957	4.58937					0.656855	3.04403	0.906909	4.20829				
0.506345	2.33883	0.461696	2.11361	0.798277	3.69258	0.992772	4.58263					0.658432	3.03822	0.909203	4.20077				
0.508118	2.33696	0.463754	2.11401	0.80009	3.68509	0.995576	4.57589					0.660009	3.03246	0.911487	4.19327				
0.509892	2.33511	0.465813	2.11441	0.801898	3.67764	0.998368	4.56916					0.661586	3.02675	0.913761	4.18579				
0.511668	2.33329	0.467871	2.11481	0.803702	3.67022	1.00115	4.56243					0.663165	3.0211	0.916025	4.17833				
0.513447	2.3315	0.469929	2.11521	0.8055	3.66285							0.664744	3.01549	0.91828	4.17089				
0.515227	2.32972	0.471986	2.1156	0.807295	3.65553							0.666323	3.00993	0.920525	4.16347				
0.517009	2.32798	0.474044	2.11598	0.809084	3.64824							0.667903	3.00443	0.922761	4.15607				
0.518794	2.32625	0.476102	2.11637	0.81087	3.64099							0.669485	2.99897	0.924987	4.14868				
0.52058	2.32455	0.478159	2.11675	0.812651	3.63379							0.671066	2.99356	0.927205	4.14132				
0.522368	2.32287	0.480217	2.11712	0.814428	3.62663							0.672649	2.9882	0.929413	4.13398				
0.524158	2.32121	0.482274	2.1175	0.816201	3.61951							0.674232	2.98289	0.931613	4.12667				
0.52595	2.31958	0.484332	2.11787	0.81797	3.61242							0.675817	2.97763	0.933803	4.11937				
0.527744	2.31796	0.486389	2.11823	0.819735	3.60539							0.677402	2.97241	0.935986	4.1121				
0.529539	2.31637	0.488446	2.11859	0.821497	3.59839							0.678988	2.96724	0.938159	4.10484				
0.531336	2.3148	0.490503	2.11895	0.823254	3.59143							0.680575	2.96211	0.940325	4.09761				
0.533136	2.31325	0.49256	2.11931	0.825008	3.58451							0.682163	2.95703	0.942482	4.09041				
0.534937	2.31172	0.494617	2.11966	0.826759	3.57763							0.683751	2.952	0.944631	4.08323				
0.536739	2.31021	0.496674	2.12001	0.828506	3.5708							0.685341	2.94701	0.946773	4.07607				
0.538544	2.30871	0.49873	2.12036	0.830249	3.564							0.686932	2.94206	0.948906	4.06893				
0.54035	2.30724	0.500787	2.1207	0.831989	3.55724							0.688524	2.93716	0.951032	4.06182				
0.542158	2.30579	0.502843	2.12104	0.833726	3.55052							0.690117	2.9323	0.95315	4.05473				
0.543967	2.30435	0.5049	2.12138	0.83546	3.54385							0.69171	2.92748	0.955261	4.04766				
0.545778	2.30294	0.506956	2.12171	0.83719	3.53721							0.693305	2.92271	0.957364	4.04063				
0.547591	2.30154	0.509012	2.12204	0.838917	3.53061							0.694901	2.91797	0.95946	4.03361				
0.549406	2.30016	0.511069	2.12237	0.840642	3.52405							0.696498	2.91328	0.961549	4.02662				
0.551222	2.29879	0.513125	2.1227	0.842363	3.51752							0.698097	2.90863	0.963631	4.01965				
0.55304	2.29745	0.515181	2.12302	0.844082	3.51104							0.699696	2.90402	0.965705	4.01271				
0.554859	2.29612	0.517237	2.12334	0.845798	3.5046							0.701296	2.89945	0.967774	4.0058				
0.55668	2.29481	0.519292	2.12366	0.847511	3.49819							0.702898	2.89492	0.969835	3.99891				
0.558502	2.29351	0.521348	2.12397	0.849221	3.49182							0.704501	2.89043	0.97189	3.99205				
0.560327	2.29223	0.523404	2.12428	0.850929	3.48549							0.706105	2.88598	0.973938	3.98521				
0.562152	2.29097	0.525459	2.12459	0.852634	3.4792							0.70771	2.88157	0.97598	3.9784				
0.563979	2.28972	0.527515	2.1249	0.854337	3.47294							0.709316	2.8772	0.978015	3.97161				
0.565808	2.28849	0.52957	2.1252	0.856038	3.46672							0.710924	2.87286	0.980045	3.96485				
0.567638	2.28727	0.531626	2.1255	0.857735	3.46054							0.712533	2.86856	0.982068	3.95812				
0.56947	2.28607	0.533681	2.1258	0.859431	3.4544							0.714143	2.8643	0.984085	3.95141				
0.571303	2.28488	0.535736	2.1261	0.861124	3.44829							0.715754	2.86007	0.986096	3.94473				
0.573137	2.28371	0.537791	2.12639	0.862816	3.44222							0.717367	2.85589	0.988101	3.93807				
0.574973	2.28255	0.539846	2.12668	0.864505	3.43619							0.71898	2.85173	0.990101	3.93144				
0.576811	2.28141	0.541901	2.12697	0.866191	3.43019							0.720596	2.84762	0.992095	3.92484				
0.578649	2.28027	0.543956	2.12726	0.867876	3.42423							0.722212	2.84353	0.994083	3.91826				
0.58049	2.27916	0.546011	2.12754	0.869559	3.4183							0.72383	2.83949	0.996066	3.91171				
0.582331	2.27806	0.548065	2.12782	0.87124	3.41241							0.725449	2.83547	0.998043	3.90519				
0.584174	2.27697	0.55012	2.1281	0.872919	3.40656							0.727069	2.8315	1.00002	3.89869				
0.586018	2.27589	0.552175	2.12838	0.874596	3.40074							0.72869	2.82755						
0.587864	2.27483	0.554229	2.12865	0.876271	3.39495							0.730313	2.82364						
0.589711	2.27378	0.556284	2.12892	0.877945	3.3892							0.731937	2.81976						
0.591559	2.27274	0.558338	2.12919	0.879617	3.38349							0.733563	2.81592						
0.593409	2.27171	0.560392	2.12946	0.881287	3.37781							0.73519	2.81211						
0.59526	2.2707	0.562446	2.12973	0.882955	3.37216							0.736818	2.80833						
0.597112	2.2697	0.5645	2.12999	0.884622	3.36655							0.738448	2.80458						
0.598966	2.26871	0.566554	2.13025	0.886288	3.36097							0.740079	2.80086						
0.60082	2.26773	0.568608	2.13051	0.887952	3.35542							0.741711	2.79718						
0.602676	2.26677	0.570662	2.13077	0.889614	3.34991							0.743345	2.79352						
0.604534	2.26581	0.572716	2.13102	0.891275	3.34443							0.74498	2.7899						
0.606392	2.26487	0.574769	2.13128	0.892935	3.33898							0.746616	2.7863						
0.608252	2.26394	0.576823	2.13153	0.894593	3.33357							0.748254	2.78274						
0.610113	2.26301	0.578877	2.13178	0.89625	3.32819							0.749893	2.77921						
0.611975	2.2621	0.58093	2.13202	0.897906	3.32284							0.751533	2.7757						
0.613838	2.2612	0.582984	2.13227	0.89956	3.31753							0.753175	2.77223						
0.615702	2.26031	0.585037	2.13251	0.901214	3.31224							0.754819	2.76878						
0.617568	2.25943	0.58709	2.13275	0.902866	3.30699							0.756463	2.76536						
0.619435	2.25857	0.589143	2.13299	0.904517	3.30177							0.758109	2.76197						
0.621303	2.25771	0.591196	2.13323	0.906167	3.29658							0.759757	2.75861						
0.623172	2.25686	0.593249	2.13347	0.907816	3.29143							0.761406	2.75528						
0.625042	2.25602	0.595302	2.1337	0.909464	3.2863							0.763056	2.75197						
0.626913	2.25519	0.597355	2.13393	0.911111	3.2812							0.764708	2.74869						
0.628785	2.25437	0.599408	2.13416	0.912757	3.27614							0.766361	2.74544						
0.630659	2.25356	0.601461	2.13439	0.914402	3.27111							0.768015	2.74221						
0.632533	2.25276	0.603513	2.13462	0.916046	3.2661							0.769671	2.73901						
0.634409	2.25196	0.605566	2.13484	0.91769	3.26113							0.771328	2.73584						
0.636286	2.25118	0.607618	2.13506	0.919332	3.25619							0.772987	2.73269						
0.638163	2.2504	0.609671	2.13529	0.920974	3.25127							0.774647	2.72957						
0.640042	2.24964	0.611723	2.1355	0.922615	3.24639							0.776308	2.72647						
0.641922	2.24888	0.613776	2.13572	0.924256	3.24153							0.777971	2.7234						
0.643803	2.24813	0.615828	2.13594	0.925895	3.23671							0.779636	2.72036						
0.645685	2.24739	0.61788	2.13615	0.927534	3.23191							0.781301	2.71733						
0.647567	2.24666	0.619932	2.13637	0.929172	3.22714							0.782968	2.71434						
0.649451	2.24594	0.621984	2.13658	0.93081	3.2224							0.784637	2.71136						
0.651336	2.24522	0.624036	2.13679	0.932447	3.21769							0.786307	2.70841						
0.653222	2.24451	0.626088	2.137	0.934084	3.21301							0.787978	2.70549						
0.655109	2.24381	0.62814	2.1372	0.93572	3.20835							0.789651	2.70259						
0.656996	2.24312	0.630191	2.13741	0.937355	3.20373							0.791325	2.69971						
0.658885	2.24243	0.632243	2.13761	0.93899	3.19913							0.793	2.69685						
0.660775	2.24176	0.634295	2.13781	0.940625	3.19456							0.794677	2.69402						
0.662665	2.24109	0.636346	2.13802	0.942259	3.19001							0.796356	2.69121						
0.664557	2.24042	0.638397	2.13821	0.943893	3.1855							0.798035	2.68842						
0.666449	2.23977	0.640449	2.13841	0.945526	3.18101							0.799716	2.68565						
0.668343	2.23912	0.6425	2.13861	0.947159	3.17654							0.801399	2.68291						
0.670237	2.23848	0.644551	2.1388	0.948792	3.17211							0.803083	2.68019						
0.672132	2.23785	0.646603	2.139	0.950424	3.1677							0.804768	2.67748						
0.674028	2.23722	0.648654	2.13919	0.952056	3.16331							0.806455	2.6748						
0.675925	2.2366	0.650705	2.13938	0.953688	3.15896							0.808143	2.67215						
0.679722	2.23538	0.652756	2.13957	0.95532	3.15462							0.809832	2.66951						
0.681621	2.23478	0.654806	2.13976	0.956951	3.15032							0.811523	2.66689						
0.683522	2.23418	0.656857	2.13994	0.958582	3.14604							0.813215	2.66429						
0.685423	2.2336	0.658908	2.14013	0.960213	3.14179							0.814909	2.66172						
0.687325	2.23301	0.660959	2.14031	0.961844	3.13756							0.816603	2.65916						
0.689228	2.23244	0.663009	2.14049	0.963474	3.13335							0.8183	2.65663						
0.691132	2.23187	0.66506	2.14067	0.965105	3.12917							0.819997	2.65411						
0.693036	2.23131	0.66711	2.14085	0.966735	3.12502							0.821697	2.65161						
0.694941	2.23075	0.669161	2.14103	0.968365	3.12089							0.823397	2.64913						
0.696848	2.2302	0.671211	2.14121	0.969995	3.11678							0.825099	2.64668						
0.698755	2.22965	0.673261	2.14139	0.971626	3.1127							0.826802	2.64424						
0.700662	2.22911	0.675312	2.14156	0.973256	3.10865							0.828506	2.64182						
0.702571	2.22858	0.677362	2.14173	0.974886	3.10461							0.830212	2.63941						
0.70448	2.22805	0.679412	2.14191	0.976516	3.10061							0.831919	2.63703						
0.70639	2.22753	0.681462	2.14208	0.978146	3.09662							0.833628	2.63467						
0.708301	2.22701	0.683512	2.14225	0.979776	3.09266							0.835338	2.63232						
0.710213	2.2265	0.685562	2.14242	0.981406	3.08872							0.837049	2.62999						
0.712125	2.22599	0.687611	2.14258	0.983036	3.08481							0.838761	2.62768						
0.714038	2.22549	0.689661	2.14275	0.984667	3.08092							0.840475	2.62538						
0.715952	2.225	0.691711	2.14291	0.986297	3.07705							0.842191	2.62311						
0.717867	2.22451	0.69376	2.14308	0.987927	3.0732							0.843907	2.62085						
0.719782	2.22402	0.69581	2.14324	0.989558	3.06938							0.845625	2.61861						
0.721698	2.22354	0.697859	2.1434	0.991189	3.06558							0.847344	2.61638						
0.723615	2.22306	0.699909	2.14356	0.99282	3.0618							0.849065	2.61417						
0.725532	2.22259	0.701958	2.14372	0.994451	3.05804							0.850787	2.61198						
0.72745	2.22213	0.704007	2.14388	0.996082	3.05431							0.85251	2.60981						
0.729369	2.22166	0.706056	2.14404	0.997713	3.05059							0.854234	2.60765						
0.731289	2.22121	0.708106	2.14419	0.999345	3.0469							0.85596	2.60551						
0.733209	2.22076	0.710155	2.14435	1.00098	3.04323							0.857687	2.60338						
0.73513	2.22031	0.712204	2.1445									0.859415	2.60127						
0.737052	2.21987	0.714253	2.14466									0.861145	2.59918						
0.738974	2.21943	0.716301	2.14481									0.862876	2.5971						
0.740897	2.21899	0.71835	2.14496									0.864608	2.59503						
0.74282	2.21856	0.720399	2.14511									0.866342	2.59299						
0.744745	2.21814	0.722448	2.14526									0.868077	2.59095						
0.74667	2.21772	0.724496	2.1454									0.869813	2.58894						
0.748595	2.2173	0.726545	2.14555									0.87155	2.58693						
0.750521	2.21689	0.728593	2.1457									0.873289	2.58494						
0.752448	2.21648	0.730642	2.14584									0.875028	2.58297						
0.754376	2.21608	0.73269	2.14598									0.87677	2.58101						
0.756304	2.21567	0.734738	2.14613									0.878512	2.57907						
0.758232	2.21528	0.736787	2.14627									0.880256	2.57714						
0.760162	2.21489	0.738835	2.14641									0.882	2.57522						
0.762092	2.2145	0.740883	2.14655									0.883747	2.57332						
0.764022	2.21411	0.742931	2.14669									0.885494	2.57143						
0.765953	2.21373	0.744979	2.14683									0.887243	2.56956						
0.767885	2.21336	0.747027	2.14696									0.888992	2.5677						
0.769817	2.21298	0.749074	2.1471									0.890743	2.56585						
0.77175	2.21261	0.751122	2.14724									0.892496	2.56402						
0.773683	2.21225	0.75317	2.14737									0.894249	2.5622						
0.775618	2.21188	0.755218	2.1475									0.896004	2.56039						
0.777552	2.21152	0.757265	2.14764									0.89776	2.55859						
0.779487	2.21117	0.759313	2.14777									0.899517	2.55681						
0.781423	2.21082	0.76136	2.1479									0.901275	2.55504						
0.783359	2.21047	0.763407	2.14803									0.903035	2.55329						
0.785296	2.21012	0.765455	2.14816									0.904796	2.55154						
0.787234	2.20978	0.767502	2.14829									0.906558	2.54981						
0.789172	2.20944	0.769549	2.14841									0.908321	2.5481						
0.79111	2.20911	0.771596	2.14854									0.910085	2.54639						
0.793049	2.20878	0.773643	2.14867									0.91185	2.5447						
0.794989	2.20845	0.77569	2.14879									0.913617	2.54301						
0.796929	2.20812	0.777737	2.14891									0.915385	2.54134						
0.798869	2.2078	0.779784	2.14904									0.917154	2.53969						
0.80081	2.20748	0.781831	2.14916									0.918924	2.53804						
0.802752	2.20716	0.783878	2.14928									0.920695	2.5364						
0.804694	2.20685	0.785924	2.1494									0.922468	2.53478						
0.806637	2.20654	0.787971	2.14952									0.924241	2.53317						
0.80858	2.20623	0.790018	2.14964									0.926016	2.53157						
0.810524	2.20593	0.792064	2.14976									0.927792	2.52998						
0.812468	2.20563	0.794111	2.14988									0.929569	2.5284						
0.814413	2.20533	0.796157	2.15									0.931347	2.52684						
0.816358	2.20503	0.798203	2.15011									0.933127	2.52528						
0.818303	2.20474	0.800249	2.15023									0.934907	2.52373						
0.820249	2.20445	0.802296	2.15034									0.936688	2.5222						
0.822196	2.20416	0.804342	2.15046									0.938471	2.52068						
0.824143	2.20388	0.806388	2.15057									0.940255	2.51916						
0.826091	2.20359	0.808434	2.15068									0.94204	2.51766						
0.828039	2.20331	0.81048	2.15079									0.943826	2.51617						
0.829987	2.20304	0.812526	2.15091									0.945613	2.51469						
0.831936	2.20276	0.814571	2.15102									0.947401	2.51322						
0.833886	2.20249	0.816617	2.15113									0.94919	2.51175						
0.835835	2.20222	0.818663	2.15123									0.950981	2.5103						
0.837786	2.20196	0.820708	2.15134									0.952772	2.50886						
0.839736	2.20169	0.822754	2.15145									0.954564	2.50743						
0.841688	2.20143	0.8248	2.15156									0.956358	2.50601						
0.843639	2.20117	0.826845	2.15166									0.958153	2.5046						
0.845591	2.20091	0.82889	2.15177									0.959948	2.50319						
0.847544	2.20066	0.830936	2.15187									0.961745	2.5018						
0.849497	2.20041	0.832981	2.15198									0.963543	2.50042						
0.85145	2.20016	0.835026	2.15208									0.965342	2.49904						
0.853404	2.19991	0.837071	2.15219									0.967142	2.49768						
0.855358	2.19966	0.839116	2.15229									0.968943	2.49632						
0.857313	2.19942	0.841161	2.15239									0.970745	2.49498						
0.859268	2.19918	0.843206	2.15249									0.972548	2.49364						
0.861223	2.19894	0.845251	2.15259									0.974352	2.49231						
0.863179	2.1987	0.847296	2.15269									0.976157	2.49099						
0.865135	2.19847	0.849341	2.15279									0.977963	2.48968						
0.867092	2.19824	0.851386	2.15289									0.97977	2.48838						
0.869049	2.19801	0.85343	2.15299									0.981579	2.48709						
0.871007	2.19778	0.855475	2.15308									0.983388	2.4858						
0.872965	2.19755	0.857519	2.15318									0.985198	2.48453						
0.874923	2.19733	0.859564	2.15328									0.987009	2.48326						
0.876881	2.19711	0.861608	2.15337									0.988821	2.482						
0.878841	2.19689	0.863653	2.15347									0.990635	2.48075						
0.8808	2.19667	0.865697	2.15356									0.992449	2.47951						
0.88276	2.19645	0.867741	2.15365									0.994264	2.47828						
0.88472	2.19624	0.869785	2.15375									0.99608	2.47705						
0.88668	2.19603	0.871829	2.15384									0.997897	2.47583						
0.888641	2.19582	0.873873	2.15393									0.999716	2.47462						
0.890603	2.19561	0.875917	2.15402									1.00153	2.47342						
0.892564	2.1954	0.877961	2.15411																
0.894526	2.1952	0.880005	2.15421																
0.896489	2.19499	0.882049	2.15429																
0.898452	2.19479	0.884093	2.15438																
0.900415	2.19459	0.886136	2.15447																
0.902378	2.1944	0.88818	2.15456																
0.904342	2.1942	0.890224	2.15465																
0.906306	2.19401	0.892267	2.15474																
0.908271	2.19381	0.89431	2.15482																
0.910236	2.19362	0.896354	2.15491																
0.912201	2.19343	0.898397	2.15499																
0.914166	2.19325	0.90044	2.15508																
0.916132	2.19306	0.902484	2.15516																
0.918098	2.19288	0.904527	2.15525																
0.920065	2.19269	0.90657	2.15533																
0.922032	2.19251	0.908613	2.15541																
0.923999	2.19233	0.910656	2.15549																
0.925967	2.19216	0.912699	2.15558																
0.927934	2.19198	0.914742	2.15566																
0.929903	2.19181	0.916784	2.15574																
0.931871	2.19163	0.918827	2.15582																
0.93384	2.19146	0.92087	2.1559																
0.935809	2.19129	0.922913	2.15598																
0.937779	2.19112	0.924955	2.15606																
0.939748	2.19096	0.926998	2.15614																
0.941718	2.19079	0.92904	2.15621																
0.943689	2.19063	0.931082	2.15629																
0.945659	2.19046	0.933125	2.15637																
0.94763	2.1903	0.935167	2.15644																
0.949602	2.19014	0.937209	2.15652																
0.951573	2.18998	0.939251	2.1566																
0.953545	2.18983	0.941294	2.15667																
0.955517	2.18967	0.943336	2.15675																
0.95749	2.18951	0.945378	2.15682																
0.959462	2.18936	0.94742	2.15689																
0.961436	2.18921	0.949461	2.15697																
0.963409	2.18906	0.951503	2.15704																
0.965382	2.18891	0.953545	2.15711																
0.967356	2.18876	0.955587	2.15719																
0.96933	2.18861	0.957628	2.15726																
0.971305	2.18847	0.95967	2.15733																
0.97328	2.18832	0.961711	2.1574																
0.975255	2.18818	0.963753	2.15747																
0.97723	2.18804	0.965794	2.15754																
0.979205	2.1879	0.967836	2.15761																
0.981181	2.18776	0.969877	2.15768																
0.983157	2.18762	0.971918	2.15775																
0.985134	2.18748	0.973959	2.15782																
0.98711	2.18735	0.976001	2.15788																
0.989087	2.18721	0.978042	2.15795																
0.991064	2.18708	0.980083	2.15802																
0.993042	2.18694	0.982124	2.15808																
0.995019	2.18681	0.984164	2.15815																
0.996997	2.18668	0.986205	2.15822																
0.998975	2.18655	0.988246	2.15828																
1.00095	2.18642	0.990287	2.15835																
		0.992328	2.15841																
		0.994368	2.15848																
		0.996409	2.15854																
		0.998449	2.1586																
		1.00049	2.15867																
