Sym0		Asym0		Sym1		Sym2		Sym3		Sym4		Asym1		Asym2		Asym3	
251  Points		499  Points		250  Points		229  Points		211  Points		144  Points		317  Points		236  Points		193  Points	
Freq (MHz)	Vph (m/ms)	Freq (MHz)	Vph (m/ms)	Freq (MHz)	Vph (m/ms)	Freq (MHz)	Vph (m/ms)	Freq (MHz)	Vph (m/ms)	Freq (MHz)	Vph (m/ms)	Freq (MHz)	Vph (m/ms)	Freq (MHz)	Vph (m/ms)	Freq (MHz)	Vph (m/ms)
0.279513	673.338	8.23135e-005	0.0735249	0.279524	386.581	0.4965	13230.2	0.559018	2429.37	0.83853	1248.17	0.139784	237.848	0.419279	482.529	0.698774	1626.95
0.279561	207.572	0.000275833	0.134472	0.279588	168.959	0.496506	512.272	0.559043	481.186	0.838553	522.951	0.139954	92.1112	0.419333	232.883	0.698794	513.369
0.279658	122.738	0.000581594	0.194974	0.279702	108.141	0.496523	261.202	0.559102	267.066	0.838595	330.781	0.140272	57.2284	0.419425	153.505	0.698837	304.784
0.279806	87.1615	0.000997741	0.254876	0.279866	79.5491	0.49655	175.298	0.559194	184.846	0.838656	241.904	0.140738	41.6042	0.419554	114.507	0.698901	216.742
0.280003	67.6027	0.00152179	0.31401	0.28008	62.9414	0.496588	131.92	0.55932	141.353	0.838735	190.683	0.141349	32.7616	0.419721	91.329	0.698988	168.176
0.280251	55.2371	0.00215056	0.372197	0.280343	52.0935	0.496638	105.757	0.559479	114.446	0.838834	157.371	0.142103	27.0869	0.419925	75.9716	0.699095	137.402
0.280547	46.7168	0.00288053	0.429308	0.280656	44.4552	0.496698	88.2595	0.559671	96.1588	0.838951	133.975	0.142995	23.1463	0.420166	65.0504	0.699225	116.157
0.280894	40.4922	0.00370768	0.48521	0.281019	38.7884	0.496769	75.734	0.559897	82.9234	0.839087	116.642	0.144022	20.2575	0.420446	56.8878	0.699376	100.61
0.281289	35.748	0.00462779	0.539804	0.281431	34.4189	0.496851	66.3257	0.560155	72.9021	0.839242	103.287	0.14518	18.0543	0.420762	50.5573	0.699549	88.7408
0.281734	32.0138	0.00563623	0.592989	0.281891	30.9487	0.496945	59.0001	0.560447	65.052	0.839415	92.6807	0.146463	16.3227	0.421115	45.5055	0.699744	79.3832
0.282227	28.9997	0.00672854	0.644713	0.2824	28.1275	0.49705	53.135	0.560772	58.7376	0.839608	84.0553	0.147867	14.9291	0.421506	41.3815	0.69996	71.8169
0.282768	26.5167	0.00789972	0.694898	0.282957	25.7897	0.497167	48.3336	0.561129	53.5492	0.839819	76.9033	0.149388	13.7858	0.421934	37.952	0.700198	65.573
0.283357	24.4369	0.00914527	0.743526	0.283562	23.8219	0.497296	44.3307	0.561519	49.2109	0.840049	70.8773	0.151019	12.833	0.422398	35.0559	0.700457	60.333
0.283994	22.6703	0.0104603	0.790554	0.284215	22.1435	0.497437	40.9428	0.561941	45.5302	0.840297	65.7312	0.152757	12.0283	0.422899	32.5785	0.700738	55.8734
0.284678	21.1517	0.0118403	0.835987	0.284914	20.6957	0.49759	38.0384	0.562395	42.3687	0.840564	61.2856	0.154353	11.4237	0.423437	30.4354	0.70104	52.0321
0.285408	19.833	0.0132808	0.879819	0.28566	19.4346	0.497755	35.5211	0.562881	39.6241	0.84085	57.4068	0.155771	10.9669	0.424011	28.5638	0.701364	48.6892
0.286185	18.6778	0.0147775	0.922059	0.286452	18.3268	0.497934	33.3185	0.563399	37.2195	0.841155	53.9931	0.156983	10.6241	0.424622	26.9156	0.70171	45.7539
0.287007	17.6577	0.0163263	0.96273	0.287289	17.3464	0.498125	31.3753	0.563949	35.0956	0.841478	50.9659	0.157966	10.3729	0.425268	25.4534	0.702077	43.1561
0.287875	16.7509	0.0179232	1.00186	0.288172	16.473	0.498329	29.6483	0.56453	33.2064	0.84182	48.2631	0.158701	10.1984	0.42595	24.1476	0.702465	40.841
0.288787	15.9399	0.0195647	1.03947	0.289099	15.6903	0.498547	28.1034	0.565142	31.5153	0.842181	45.8354	0.159178	10.0909	0.426669	22.9748	0.702874	38.7649
0.289744	15.2104	0.0212471	1.07562	0.29007	14.9853	0.498778	26.7134	0.565784	29.9928	0.84256	43.643	0.159871	9.94192	0.427422	21.9159	0.703305	36.893
0.290744	14.5512	0.0229673	1.11033	0.291084	14.3471	0.499023	25.4563	0.566458	28.6152	0.842957	41.6534	0.160634	9.78687	0.428211	20.9553	0.703757	35.1965
0.291787	13.9528	0.0247221	1.14365	0.292141	13.767	0.499283	24.314	0.567161	27.3629	0.843373	39.8398	0.161689	9.58681	0.429035	20.08	0.704231	33.6521
0.292872	13.4074	0.0265088	1.17563	0.29324	13.2376	0.499557	23.2715	0.567895	26.2197	0.843808	38.18	0.16305	9.35021	0.429893	19.2795	0.704725	32.2403
0.293999	12.9084	0.0283247	1.20632	0.29438	12.7527	0.499846	22.3164	0.568658	25.1721	0.844261	36.6552	0.164734	9.08618	0.430786	18.5447	0.705241	30.9449
0.295167	12.4504	0.0301673	1.23576	0.295562	12.3071	0.500151	21.4382	0.569451	24.2088	0.844732	35.2498	0.166762	8.8038	0.431714	17.868	0.705777	29.7522
0.296375	12.0286	0.0320344	1.264	0.296783	11.8965	0.50047	20.6281	0.570273	23.3201	0.845222	33.9503	0.169156	8.51152	0.432675	17.2429	0.706335	28.6504
0.297623	11.6391	0.0339238	1.29109	0.298044	11.5169	0.500806	19.8785	0.571124	22.4977	0.84573	32.7452	0.171617	8.24864	0.433671	16.6638	0.706914	27.6297
0.29891	11.2785	0.0358337	1.31708	0.299174	11.2089	0.501158	19.1831	0.572004	21.7347	0.846256	31.6248	0.174141	8.01121	0.4347	16.126	0.707513	26.6815
0.300235	10.9438	0.0377623	1.34201	0.300161	10.9616	0.501526	18.5361	0.572912	21.0249	0.846801	30.5804	0.176726	7.79596	0.435762	15.6254	0.708133	25.7985
0.301598	10.6324	0.0397079	1.36592	0.300992	10.767	0.50191	17.9328	0.573849	20.363	0.847364	29.6047	0.179367	7.60012	0.436857	15.1582	0.708774	24.9741
0.302998	10.342	0.041669	1.38887	0.30166	10.6189	0.502312	17.369	0.574813	19.7444	0.847945	28.691	0.182063	7.42137	0.437985	14.7215	0.709436	24.2029
0.304434	10.0708	0.0436442	1.41089	0.302156	10.5133	0.502732	16.8409	0.575805	19.1652	0.848544	27.8339	0.18481	7.2577	0.439146	14.3123	0.710118	23.4798
0.305905	9.81691	0.0456323	1.43203	0.302476	10.447	0.503169	16.3454	0.576824	18.6216	0.849162	27.0281	0.187605	7.10744	0.440338	13.9282	0.710821	22.8007
0.307411	9.57884	0.0476322	1.45233	0.30294	10.3535	0.503624	15.8796	0.57787	18.1107	0.849797	26.2693	0.190447	6.96911	0.441563	13.5671	0.711544	22.1616
0.308952	9.35524	0.0496426	1.47181	0.303448	10.2543	0.504098	15.4409	0.578943	17.6295	0.85045	25.5535	0.193333	6.84146	0.442819	13.2271	0.712288	21.5591
0.310525	9.1449	0.0516626	1.49053	0.304146	10.1231	0.50459	15.0272	0.580043	17.1757	0.851121	24.8773	0.196261	6.72338	0.444106	12.9063	0.713052	20.9903
0.312132	8.94672	0.0536914	1.50851	0.305042	9.9631	0.505102	14.6363	0.581168	16.747	0.851811	24.2374	0.199228	6.61393	0.445424	12.6034	0.713836	20.4525
0.31377	8.75974	0.0554658	1.52361	0.306142	9.77801	0.505633	14.2665	0.58232	16.3415	0.852518	23.631	0.202233	6.51226	0.446773	12.3168	0.71464	19.9431
0.315439	8.58309	0.0569828	1.53608	0.307458	9.57181	0.506184	13.9162	0.583498	15.9573	0.853242	23.0557	0.205273	6.41763	0.448152	12.0455	0.715465	19.4602
0.317139	8.41599	0.0582401	1.54612	0.308999	9.34863	0.506755	13.584	0.5847	15.5929	0.853985	22.5091	0.208348	6.32941	0.449562	11.7882	0.716309	19.0016
0.318869	8.25772	0.059236	1.55389	0.310574	9.13867	0.507346	13.2685	0.585929	15.2468	0.854745	21.9891	0.211456	6.247	0.451	11.5439	0.717173	18.5657
0.320627	8.10765	0.0599691	1.55951	0.312181	8.94085	0.507959	12.9685	0.587181	14.9177	0.855523	21.4939	0.214595	6.1699	0.452278	11.3409	0.718058	18.1508
0.322415	7.96518	0.0604387	1.56306	0.31382	8.7542	0.508592	12.683	0.588459	14.6045	0.856319	21.0218	0.217763	6.09765	0.453385	11.1747	0.718961	17.7555
0.32423	7.8298	0.0611142	1.56812	0.315491	8.57785	0.509248	12.411	0.589761	14.306	0.857132	20.5713	0.22096	6.02985	0.454312	11.0418	0.719885	17.3784
0.326072	7.70102	0.0618492	1.57354	0.317191	8.41103	0.509925	12.1515	0.591088	14.0213	0.857962	20.1409	0.224183	5.96614	0.455053	10.9395	0.720828	17.0184
0.32794	7.57839	0.0628498	1.5808	0.318922	8.25302	0.510624	11.9039	0.592438	13.7495	0.85881	19.7293	0.227433	5.90617	0.455602	10.8658	0.721791	16.6744
0.329835	7.46152	0.0641171	1.58979	0.320682	8.10319	0.511346	11.6673	0.593812	13.4897	0.859675	19.3353	0.230707	5.84967	0.455955	10.8192	0.722773	16.3452
0.331755	7.35003	0.0656519	1.60038	0.32247	7.96095	0.511994	11.4696	0.595209	13.2412	0.860558	18.9579	0.234005	5.79635	0.456465	10.7532	0.723774	16.0301
0.333699	7.24359	0.0674554	1.61243	0.324286	7.82578	0.51256	11.307	0.59663	13.0032	0.861458	18.596	0.237325	5.74599	0.457024	10.6826	0.724794	15.7282
0.335668	7.14188	0.0695287	1.62578	0.326128	7.69719	0.513038	11.1764	0.598074	12.7753	0.862374	18.2488	0.240668	5.69837	0.457789	10.5885	0.725834	15.4386
0.33766	7.04462	0.0716055	1.63865	0.327998	7.57474	0.513423	11.0756	0.59954	12.5567	0.863309	17.9153	0.24403	5.65327	0.458765	10.4725	0.726892	15.1607
0.339675	6.95154	0.0736856	1.65104	0.329893	7.45804	0.513709	11.0028	0.601029	12.347	0.86426	17.5949	0.247413	5.61054	0.459961	10.3365	0.727969	14.8937
0.341713	6.86239	0.0757684	1.663	0.331814	7.34671	0.513894	10.9568	0.60254	12.1456	0.865228	17.2867	0.250814	5.56999	0.461382	10.1826	0.729066	14.6371
0.343772	6.77696	0.0778538	1.67452	0.333759	7.24042	0.514161	10.8914	0.604073	11.952	0.866213	16.9901	0.254234	5.53148	0.463038	10.0133	0.73018	14.3903
0.345854	6.69503	0.0799414	1.68565	0.335728	7.13885	0.514455	10.8214	0.605629	11.7659	0.867215	16.7045	0.257671	5.49487	0.464722	9.85119	0.731314	14.1528
0.347957	6.6164	0.082031	1.69638	0.337721	7.04172	0.51486	10.7278	0.607001	11.6094	0.868233	16.4293	0.261124	5.46004	0.466431	9.69594	0.732466	13.924
0.35008	6.5409	0.0841224	1.70675	0.339737	6.94876	0.515381	10.6121	0.608185	11.4801	0.869269	16.1639	0.264594	5.42686	0.468167	9.54712	0.733636	13.7036
0.352225	6.46837	0.0862153	1.71676	0.341775	6.85973	0.516023	10.476	0.609172	11.3758	0.870321	15.9079	0.268079	5.39524	0.469929	9.40437	0.734825	13.491
0.35439	6.39864	0.0883096	1.72643	0.343836	6.77441	0.516793	10.3215	0.609958	11.2951	0.871389	15.6607	0.271578	5.36507	0.471717	9.26734	0.736031	13.2859
0.356574	6.33158	0.090405	1.73578	0.345918	6.69258	0.517701	10.1508	0.61054	11.2366	0.872474	15.422	0.275092	5.33627	0.473529	9.13573	0.737256	13.0879
0.358779	6.26705	0.0925014	1.74482	0.348021	6.61405	0.518635	9.98663	0.610913	11.1996	0.873576	15.1913	0.278619	5.30874	0.475366	9.00924	0.738499	12.8966
0.361004	6.20492	0.0945987	1.75356	0.350146	6.53865	0.519595	9.82878	0.611452	11.1469	0.874694	14.9682	0.282159	5.28242	0.477228	8.88759	0.739759	12.7118
0.363248	6.14509	0.0966967	1.76202	0.352291	6.4662	0.520581	9.67689	0.61204	11.0903	0.875828	14.7524	0.285712	5.25722	0.479114	8.77053	0.741038	12.5331
0.365512	6.08744	0.0987954	1.77021	0.354456	6.39656	0.521594	9.53065	0.612844	11.0146	0.876979	14.5435	0.289276	5.2331	0.481024	8.65783	0.742333	12.3603
0.367795	6.03187	0.100894	1.77814	0.356641	6.32957	0.522634	9.3898	0.613868	10.9207	0.878145	14.3413	0.292852	5.20997	0.482957	8.54926	0.743647	12.193
0.370098	5.97829	0.102994	1.78581	0.358847	6.26512	0.523701	9.25407	0.615117	10.8098	0.879328	14.1454	0.296438	5.18779	0.484914	8.44462	0.744977	12.031
0.372421	5.92662	0.105094	1.79325	0.361072	6.20306	0.524796	9.12322	0.616596	10.6833	0.880526	13.9555	0.300035	5.1665	0.486894	8.34372	0.746151	11.894
0.374764	5.87677	0.107194	1.80046	0.363317	6.14329	0.525919	8.99702	0.618313	10.5429	0.881741	13.7714	0.303642	5.14605	0.488896	8.24637	0.747162	11.7802
0.377127	5.82868	0.109294	1.80746	0.365581	6.08571	0.52707	8.87526	0.620049	10.4072	0.882972	13.5928	0.307259	5.12639	0.49092	8.15239	0.748005	11.688
0.379511	5.78226	0.111394	1.81424	0.367865	6.0302	0.528251	8.75773	0.621805	10.2759	0.884218	13.4195	0.310885	5.10749	0.492966	8.06165	0.748676	11.6163
0.381916	5.73745	0.113495	1.82081	0.370169	5.97669	0.52946	8.64425	0.623581	10.149	0.88548	13.2513	0.314519	5.0893	0.495034	7.97397	0.749172	11.5643
0.384343	5.6942	0.115595	1.8272	0.372492	5.92507	0.530698	8.53465	0.625377	10.0262	0.886757	13.0879	0.318162	5.07178	0.497124	7.88923	0.749491	11.5313
0.386791	5.65245	0.117695	1.8334	0.374836	5.87528	0.531966	8.42875	0.627192	9.90732	0.88805	12.9292	0.321813	5.0549	0.499234	7.80728	0.74995	11.4843
0.389262	5.61215	0.119796	1.83942	0.3772	5.82723	0.533264	8.32639	0.629025	9.79218	0.889359	12.775	0.325471	5.03863	0.501365	7.72801	0.750452	11.4337
0.391756	5.57325	0.121896	1.84526	0.379584	5.78086	0.534592	8.22744	0.630878	9.68061	0.890683	12.625	0.329137	5.02293	0.503517	7.65129	0.751137	11.3658
0.394274	5.5357	0.123996	1.85095	0.38199	5.73611	0.53595	8.13175	0.63275	9.57248	0.892022	12.4792	0.332809	5.00777	0.505688	7.57702	0.75201	11.2813
0.396817	5.49946	0.126095	1.85647	0.384417	5.69291	0.537339	8.03918	0.63464	9.46762	0.893377	12.3374	0.336488	4.99313	0.50788	7.50508	0.753074	11.1812
0.399385	5.4645	0.128195	1.86184	0.386866	5.6512	0.538759	7.94961	0.636548	9.36591	0.89457	12.2169	0.340174	4.97899	0.510091	7.43538	0.754333	11.0665
0.40198	5.43077	0.130294	1.86707	0.389338	5.61094	0.54021	7.86292	0.638475	9.26722	0.895596	12.1163	0.343865	4.96531	0.512321	7.36783	0.755794	10.9384
0.404602	5.39824	0.132393	1.87215	0.391833	5.57208	0.541692	7.77901	0.640419	9.17142	0.89645	12.0347	0.347562	4.95207	0.51457	7.30234	0.757271	10.814
0.407252	5.36689	0.134492	1.87709	0.394351	5.53457	0.543206	7.69776	0.642382	9.07839	0.89713	11.9711	0.351265	4.93925	0.516838	7.23881	0.758765	10.693
0.409932	5.33668	0.13659	1.88191	0.396895	5.49837	0.544752	7.61906	0.644362	8.98803	0.897632	11.9249	0.354972	4.92684	0.519125	7.17718	0.760274	10.5754
0.412642	5.30758	0.138688	1.8866	0.399464	5.46345	0.546329	7.54284	0.646359	8.90023	0.897954	11.8955	0.358685	4.91481	0.521429	7.11736	0.7618	10.4611
0.415383	5.27956	0.140786	1.89117	0.40206	5.42976	0.547939	7.46898	0.648374	8.81488	0.898419	11.8536	0.362401	4.90314	0.523752	7.05928	0.763341	10.3498
0.418156	5.25261	0.142883	1.89562	0.404683	5.39727	0.549581	7.39742	0.650406	8.73191	0.898926	11.8084	0.366122	4.89182	0.526092	7.00288	0.764899	10.2416
0.420962	5.22669	0.14498	1.89995	0.407334	5.36595	0.551255	7.32805	0.652456	8.6512	0.899618	11.7477	0.369847	4.88083	0.528449	6.94809	0.766472	10.1362
0.423802	5.20178	0.147077	1.90418	0.410014	5.33577	0.552961	7.26081	0.654521	8.57269	0.900499	11.672	0.373576	4.87015	0.530823	6.89485	0.76806	10.0336
0.426677	5.17785	0.149174	1.9083	0.412725	5.30671	0.5547	7.19561	0.656604	8.49629	0.901571	11.582	0.377308	4.85978	0.533215	6.8431	0.769664	9.93363
0.429587	5.15488	0.15127	1.91233	0.415467	5.27872	0.556472	7.13239	0.658703	8.42192	0.90284	11.4785	0.381043	4.84969	0.535623	6.79278	0.771283	9.83625
0.432534	5.13286	0.153365	1.91625	0.418241	5.2518	0.558276	7.07107	0.660819	8.3495	0.904309	11.3626	0.384781	4.83988	0.538047	6.74384	0.772918	9.74134
0.435517	5.11174	0.155461	1.92008	0.421048	5.22591	0.560112	7.01159	0.66295	8.27898	0.905793	11.2496	0.388522	4.83033	0.540487	6.69623	0.774567	9.64883
0.438537	5.09151	0.157556	1.92382	0.423889	5.20103	0.561982	6.95389	0.665098	8.21027	0.907291	11.1393	0.392266	4.82102	0.542944	6.6499	0.776232	9.55863
0.441595	5.07215	0.15965	1.92746	0.426765	5.17713	0.563883	6.89789	0.667262	8.14332	0.908803	11.0316	0.396011	4.81196	0.545416	6.60481	0.777911	9.47065
0.44429	5.05596	0.161745	1.93103	0.429677	5.1542	0.565818	6.84356	0.669441	8.07807	0.91033	10.9266	0.399759	4.80312	0.547903	6.5609	0.779605	9.38482
0.446611	5.04264	0.163839	1.93451	0.432624	5.1322	0.567785	6.79082	0.671636	8.01445	0.911871	10.8241	0.403508	4.79449	0.550405	6.51815	0.781314	9.30107
0.448545	5.03197	0.165932	1.93791	0.435609	5.11111	0.569784	6.73963	0.673846	7.95241	0.913427	10.7239	0.407259	4.78608	0.552923	6.4765	0.783037	9.21933
0.450084	5.02373	0.168026	1.94124	0.43863	5.09091	0.571815	6.68994	0.676072	7.8919	0.914996	10.6261	0.411011	4.77786	0.555455	6.43593	0.784774	9.13953
0.451222	5.01779	0.170118	1.94448	0.441689	5.07157	0.573879	6.64168	0.678313	7.83287	0.916579	10.5306	0.414764	4.76983	0.558002	6.39638	0.786526	9.06161
0.451953	5.01404	0.172211	1.94766	0.444786	5.05307	0.575975	6.59483	0.680569	7.77527	0.918176	10.4372	0.418519	4.76198	0.560563	6.35784	0.788292	8.9855
0.453006	5.00872	0.174303	1.95077	0.44792	5.03538	0.578102	6.54932	0.682839	7.71904	0.919787	10.3459	0.422273	4.7543	0.563138	6.32026	0.790072	8.91115
0.454156	5.00303	0.176395	1.95381	0.451091	5.01847	0.580261	6.50512	0.685125	7.66416	0.921412	10.2567	0.426029	4.74679	0.565727	6.28361	0.791866	8.8385
0.455727	4.99544	0.178487	1.95678	0.454301	5.00232	0.582452	6.46218	0.687425	7.61057	0.92305	10.1695	0.429784	4.73943	0.56833	6.24787	0.793673	8.7675
0.457727	4.98607	0.180578	1.95969	0.457547	4.9869	0.584674	6.42046	0.689739	7.55823	0.924702	10.0842	0.433539	4.73222	0.570946	6.21299	0.795494	8.6981
0.460164	4.97511	0.182669	1.96254	0.460829	4.97219	0.586926	6.37992	0.692068	7.5071	0.926367	10.0007	0.437295	4.72516	0.573576	6.17896	0.797329	8.63024
0.463047	4.96272	0.18476	1.96533	0.464148	4.95815	0.58921	6.34053	0.694411	7.45715	0.928046	9.91907	0.441049	4.71823	0.576219	6.14575	0.799177	8.56388
0.466389	4.94912	0.18685	1.96806	0.467502	4.94476	0.591524	6.30225	0.696767	7.40834	0.929738	9.83918	0.444803	4.71143	0.578875	6.11333	0.801039	8.49898
0.469766	4.93615	0.18894	1.97074	0.470889	4.932	0.593868	6.26503	0.699138	7.36063	0.931443	9.76098	0.448557	4.70476	0.581544	6.08167	0.802913	8.43548
0.473176	4.92378	0.19103	1.97336	0.474311	4.91982	0.596242	6.22885	0.701523	7.31399	0.933162	9.68443	0.452309	4.6982	0.584225	6.05076	0.804801	8.37335
0.47662	4.91199	0.193119	1.97592	0.477765	4.90821	0.598646	6.19368	0.703921	7.26839	0.934893	9.60949	0.45606	4.69175	0.586919	6.02057	0.806702	8.31255
0.480094	4.90074	0.195209	1.97844	0.48125	4.89714	0.601078	6.15947	0.706333	7.2238	0.936638	9.53609	0.459809	4.68542	0.589625	5.99107	0.808615	8.25303
0.4836	4.89002	0.197297	1.9809	0.484765	4.88659	0.60354	6.12621	0.708758	7.18019	0.938395	9.46421	0.463557	4.67918	0.592344	5.96225	0.810541	8.19476
0.487135	4.87979	0.199386	1.98332	0.48831	4.87652	0.60603	6.09385	0.711197	7.13752	0.940165	9.39379	0.467302	4.67304	0.595075	5.93408	0.81248	8.13771
0.490698	4.87004	0.201474	1.98569	0.491882	4.86691	0.608548	6.06238	0.713648	7.09578	0.941948	9.3248	0.471046	4.667	0.597817	5.90656	0.814432	8.08184
0.494289	4.86073	0.203563	1.98802	0.495482	4.85774	0.611094	6.03176	0.716113	7.05493	0.943743	9.25719	0.474787	4.66104	0.600571	5.87964	0.816396	8.02711
0.497906	4.85184	0.20565	1.9903	0.499106	4.84899	0.613667	6.00196	0.71859	7.01495	0.945552	9.19093	0.478526	4.65516	0.603337	5.85333	0.818372	7.9735
0.501547	4.84335	0.207738	1.99253	0.502756	4.84063	0.616267	5.97296	0.721081	6.97581	0.947372	9.12598	0.482261	4.64936	0.606115	5.82761	0.82036	7.92097
0.505212	4.83524	0.209825	1.99473	0.506428	4.83264	0.618894	5.94474	0.723584	6.93749	0.949205	9.0623	0.485994	4.64364	0.608904	5.80244	0.82236	7.86949
0.5089	4.82748	0.211912	1.99688	0.510123	4.825	0.621547	5.91727	0.726099	6.89998	0.95105	8.99987	0.489724	4.63799	0.611704	5.77783	0.824373	7.81903
0.512608	4.82007	0.213999	1.999	0.513839	4.81769	0.624226	5.89052	0.728627	6.86324	0.952908	8.93863	0.49345	4.6324	0.614516	5.75375	0.826397	7.76957
0.516338	4.81297	0.216086	2.00107	0.517574	4.81069	0.62693	5.86448	0.731168	6.82725	0.954777	8.87858	0.497172	4.62688	0.617338	5.73019	0.828433	7.72108
0.520086	4.80616	0.218172	2.00311	0.521329	4.80398	0.629659	5.83911	0.73372	6.792	0.956659	8.81966	0.500891	4.62141	0.620171	5.70713	0.830481	7.67353
0.523852	4.79965	0.220258	2.00511	0.525101	4.79755	0.632412	5.81441	0.736285	6.75746	0.958553	8.76186	0.504605	4.616	0.623016	5.68457	0.83254	7.6269
0.527636	4.79339	0.222344	2.00708	0.52889	4.79138	0.635189	5.79034	0.738862	6.72361	0.960459	8.70514	0.508316	4.61065	0.625871	5.66248	0.83461	7.58116
0.531435	4.78739	0.22443	2.00901	0.532694	4.78545	0.63799	5.7669	0.74145	6.69044	0.962376	8.64948	0.512021	4.60534	0.628737	5.64086	0.836692	7.5363
0.53525	4.78162	0.226515	2.01091	0.536514	4.77976	0.640815	5.74405	0.744051	6.65794	0.964305	8.59485	0.515722	4.60007	0.631613	5.6197	0.838786	7.49227
0.539078	4.77607	0.228601	2.01277	0.540347	4.77428	0.643662	5.72179	0.746663	6.62607	0.966246	8.54122	0.519417	4.59485	0.6345	5.59897	0.84089	7.44908
0.542921	4.77073	0.230686	2.0146	0.544193	4.76901	0.646531	5.70009	0.749287	6.59482	0.968199	8.48857	0.523108	4.58967	0.637398	5.57867	0.843005	7.40669
0.546775	4.76559	0.232771	2.0164	0.548052	4.76393	0.649423	5.67893	0.751922	6.56419	0.970163	8.43687	0.526793	4.58453	0.640306	5.55879	0.845132	7.36508
0.550642	4.76063	0.234855	2.01817	0.551922	4.75903	0.652336	5.6583	0.754569	6.53415	0.972138	8.3861	0.530472	4.57941	0.643224	5.53932	0.847269	7.32424
0.554519	4.75584	0.23694	2.01991	0.555803	4.75429	0.65527	5.63819	0.757227	6.50469	0.974125	8.33624	0.534145	4.57433	0.646153	5.52025	0.849417	7.28414
0.558407	4.75122	0.239024	2.02163	0.559694	4.74972	0.658225	5.61857	0.759896	6.47579	0.976123	8.28727	0.537812	4.56928	0.649091	5.50157	0.851576	7.24477
0.562304	4.74675	0.241108	2.02331	0.563594	4.7453	0.6612	5.59944	0.762576	6.44744	0.978132	8.23915	0.541472	4.56425	0.652041	5.48326	0.853745	7.2061
0.56621	4.74242	0.243192	2.02496	0.567503	4.74102	0.664195	5.58077	0.765267	6.41962	0.980152	8.19188	0.545126	4.55924	0.655	5.46533	0.855925	7.16813
0.570124	4.73823	0.245276	2.02659	0.571419	4.73687	0.667209	5.56255	0.76797	6.39233	0.982184	8.14543	0.548773	4.55425	0.657969	5.44775	0.858115	7.13083
0.574046	4.73416	0.247359	2.02819	0.575343	4.73285	0.670243	5.54477	0.770683	6.36555	0.984226	8.09978	0.552412	4.54928	0.660948	5.43053	0.860315	7.09419
0.577974	4.73022	0.249443	2.02977	0.579274	4.72894	0.673295	5.52742	0.773407	6.33926	0.98628	8.05492	0.556044	4.54432	0.663938	5.41365	0.862526	7.0582
0.58191	4.72639	0.251526	2.03132	0.583212	4.72514	0.676366	5.51048	0.776141	6.31346	0.988344	8.01082	0.559669	4.53938	0.666937	5.3971	0.864747	7.02283
0.585851	4.72266	0.253609	2.03285	0.587155	4.72145	0.679455	5.49394	0.778886	6.28814	0.990418	7.96747	0.563285	4.53444	0.669947	5.38089	0.866978	6.98807
0.589798	4.71903	0.255692	2.03435	0.591103	4.71785	0.682562	5.4778	0.781642	6.26327	0.992504	7.92485	0.566893	4.52952	0.672966	5.36499	0.869218	6.95391
0.593749	4.7155	0.257775	2.03583	0.595056	4.71435	0.685685	5.46202	0.784408	6.23886	0.9946	7.88294	0.570493	4.5246	0.675996	5.34941	0.871469	6.92033
0.597705	4.71205	0.259857	2.03729	0.599014	4.71093	0.688826	5.44662	0.787185	6.21489	0.996706	7.84173	0.574084	4.51968	0.679035	5.33413	0.87373	6.88733
0.601666	4.70869	0.26194	2.03872	0.602975	4.70759	0.691983	5.43157	0.789972	6.19135	0.998823	7.8012	0.577666	4.51476	0.682084	5.31916	0.876	6.85488
0.605629	4.7054	0.264022	2.04014	0.60694	4.70433	0.695156	5.41686	0.792768	6.16823	1.00095	7.76134	0.581238	4.50984	0.685144	5.30448	0.87828	6.82297
0.609596	4.70218	0.266104	2.04153	0.610908	4.70113	0.698346	5.40249	0.795576	6.14552			0.584801	4.50492	0.688213	5.29008	0.880569	6.7916
0.613566	4.69903	0.268186	2.0429	0.614879	4.69801	0.701551	5.38845	0.798393	6.12321			0.588355	4.5	0.691292	5.27596	0.882868	6.76075
0.617539	4.69595	0.270268	2.04425	0.618852	4.69494	0.704771	5.37472	0.80122	6.1013			0.591898	4.49507	0.694381	5.26212	0.885177	6.73041
0.621513	4.69292	0.27235	2.04558	0.622827	4.69193	0.708006	5.3613	0.804057	6.07977			0.595431	4.49013	0.69748	5.24855	0.887494	6.70056
0.625489	4.68995	0.274431	2.04689	0.626804	4.68898	0.711255	5.34817	0.806904	6.05861			0.598953	4.48518	0.700589	5.23524	0.889821	6.67121
0.629467	4.68703	0.276513	2.04818	0.630782	4.68608	0.714519	5.33534	0.809761	6.03782			0.602465	4.48022	0.703709	5.22219	0.892158	6.64232
0.633445	4.68416	0.278594	2.04945	0.63476	4.68322	0.717798	5.32278	0.812627	6.01739			0.605966	4.47524	0.706838	5.20939	0.894503	6.61391
0.637425	4.68133	0.280675	2.05071	0.63874	4.68041	0.721089	5.3105	0.815503	5.99731			0.609455	4.47025	0.709977	5.19684	0.896858	6.58595
0.641404	4.67855	0.282756	2.05195	0.64272	4.67764	0.724395	5.29849	0.818389	5.97758			0.612932	4.46524	0.713126	5.18454	0.899221	6.55843
0.645384	4.6758	0.284837	2.05317	0.6467	4.6749	0.727713	5.28674	0.821284	5.95818			0.616398	4.46022	0.716285	5.17247	0.901594	6.53135
0.649364	4.67309	0.286918	2.05437	0.65068	4.6722	0.731045	5.27523	0.824189	5.93911			0.619852	4.45517	0.719454	5.16063	0.903975	6.5047
0.653344	4.67042	0.288999	2.05555	0.654659	4.66954	0.734389	5.26397	0.827103	5.92036			0.623293	4.45011	0.722633	5.14902	0.906365	6.47847
0.657323	4.66777	0.29108	2.05672	0.658637	4.6669	0.737746	5.25295	0.830026	5.90193			0.626722	4.44502	0.725822	5.13764	0.908764	6.45264
0.6613	4.66515	0.29316	2.05788	0.662615	4.66429	0.741115	5.24217	0.832959	5.8838			0.630138	4.43991	0.729021	5.12648	0.911172	6.42722
0.665277	4.66256	0.295241	2.05901	0.666591	4.66171	0.744496	5.2316	0.835901	5.86598			0.633541	4.43477	0.73223	5.11553	0.913588	6.40219
0.669252	4.65999	0.297321	2.06013	0.670566	4.65915	0.747888	5.22126	0.838853	5.84845			0.63693	4.42961	0.73545	5.10479	0.916014	6.37755
0.673226	4.65744	0.299401	2.06124	0.674539	4.65661	0.751292	5.21113	0.841813	5.83121			0.640306	4.42442	0.738679	5.09426	0.918447	6.35328
0.677197	4.65492	0.301481	2.06233	0.67851	4.65409	0.754708	5.20121	0.844783	5.81426			0.643668	4.4192	0.741919	5.08394	0.920889	6.32938
0.681167	4.65241	0.303561	2.06341	0.682478	4.65158	0.758135	5.19149	0.847762	5.79758			0.647017	4.41396	0.745168	5.07381	0.92334	6.30584
0.685134	4.64991	0.305641	2.06447	0.686445	4.64909	0.761572	5.18197	0.850749	5.78118			0.650351	4.40868	0.748428	5.06388	0.925799	6.28266
0.689098	4.64743	0.307721	2.06552	0.690408	4.64661	0.765021	5.17264	0.853746	5.76504			0.65367	4.40337	0.751697	5.05414	0.928267	6.25983
0.69306	4.64496	0.3098	2.06656	0.694369	4.64415	0.76848	5.1635	0.856752	5.74917			0.656975	4.39803	0.754977	5.04459	0.930743	6.23734
0.697018	4.6425	0.31188	2.06758	0.698326	4.64169	0.771949	5.15454	0.859766	5.73355			0.660266	4.39266	0.758267	5.03523	0.933227	6.21518
0.700974	4.64005	0.313959	2.06859	0.70228	4.63924	0.775428	5.14576	0.86279	5.71819			0.663541	4.38726	0.761566	5.02605	0.935719	6.19335
0.704925	4.63761	0.316039	2.06959	0.706231	4.6368	0.778917	5.13715	0.865822	5.70307			0.666801	4.38182	0.764876	5.01704	0.93822	6.17184
0.708873	4.63517	0.318118	2.07057	0.710177	4.63437	0.782417	5.12872	0.868863	5.68819			0.670046	4.37635	0.768196	5.00821	0.940729	6.15065
0.712817	4.63274	0.320197	2.07154	0.71412	4.63193	0.785926	5.12045	0.871913	5.67355			0.673275	4.37084	0.771525	4.99954	0.943246	6.12976
0.716757	4.63031	0.322276	2.0725	0.718059	4.6295	0.789444	5.11234	0.874972	5.65915			0.676489	4.3653	0.774864	4.99105	0.945771	6.10919
0.720693	4.62788	0.324355	2.07344	0.721993	4.62707	0.792972	5.10438	0.878039	5.64497			0.679687	4.35973	0.778214	4.98272	0.948305	6.08891
0.724624	4.62545	0.326434	2.07438	0.725922	4.62464	0.796509	5.09659	0.881115	5.63101			0.682869	4.35411	0.781572	4.97455	0.950846	6.06892
0.728551	4.62302	0.328513	2.0753	0.729847	4.62221	0.800055	5.08894	0.8842	5.61728			0.686035	4.34847	0.784941	4.96654	0.953396	6.04922
0.732472	4.62058	0.330592	2.07621	0.733767	4.61978	0.80361	5.08144	0.887293	5.60376			0.689184	4.34279	0.788319	4.95868	0.955953	6.0298
0.736389	4.61815	0.332671	2.07712	0.737682	4.61734	0.807173	5.07408	0.890395	5.59046			0.692317	4.33707	0.791707	4.95098	0.958519	6.01066
0.7403	4.61571	0.334749	2.07801	0.741591	4.6149	0.810746	5.06686	0.893505	5.57736			0.695434	4.33131	0.795104	4.94342	0.961092	5.99179
0.744206	4.61326	0.336828	2.07889	0.745495	4.61245	0.814327	5.05977	0.896624	5.56447			0.698535	4.32552	0.798511	4.936	0.963674	5.97319
0.748106	4.61081	0.338906	2.07975	0.749393	4.60999	0.817916	5.05283	0.899752	5.55178			0.701618	4.31969	0.801926	4.92873	0.966263	5.95485
0.752	4.60834	0.340985	2.08061	0.753286	4.60753	0.821513	5.04601	0.902888	5.53928			0.704685	4.31383	0.805351	4.9216	0.968861	5.93677
0.755888	4.60587	0.343063	2.08146	0.757172	4.60506	0.825119	5.03932	0.906032	5.52698			0.707736	4.30793	0.808786	4.91461	0.971466	5.91894
0.75977	4.60339	0.345141	2.0823	0.761052	4.60257	0.828733	5.03275	0.909185	5.51487			0.710769	4.302	0.812229	4.90774	0.974079	5.90136
0.763646	4.6009	0.347219	2.08313	0.764925	4.60008	0.832354	5.0263	0.912347	5.50295			0.713786	4.29603	0.815681	4.90101	0.9767	5.88403
0.767515	4.5984	0.349297	2.08395	0.768792	4.59757	0.835984	5.01998	0.915516	5.49121			0.716785	4.29003	0.819141	4.89441	0.979329	5.86694
0.771377	4.59589	0.351375	2.08476	0.772652	4.59505	0.839621	5.01377	0.918695	5.47965			0.719768	4.28399	0.822611	4.88792	0.981966	5.85008
0.775233	4.59336	0.353453	2.08556	0.776506	4.59252	0.843266	5.00767	0.921881	5.46827			0.722734	4.27792	0.826089	4.88156	0.98461	5.83345
0.779081	4.59082	0.355531	2.08635	0.780352	4.58998	0.846918	5.00169	0.925077	5.45706			0.725682	4.27182	0.829575	4.87532	0.987262	5.81706
0.782922	4.58827	0.357609	2.08713	0.78419	4.58742	0.850578	4.99581	0.92828	5.44603			0.728614	4.26568	0.833069	4.8692	0.989923	5.80089
0.786756	4.5857	0.359687	2.0879	0.788022	4.58484	0.854245	4.99004	0.931492	5.43516			0.731529	4.25951	0.836572	4.86319	0.99259	5.78494
0.790583	4.58311	0.361765	2.08867	0.791846	4.58225	0.857919	4.98438	0.934712	5.42446			0.734426	4.25331	0.840082	4.85729	0.995266	5.76921
0.794401	4.58051	0.363842	2.08942	0.795662	4.57964	0.8616	4.97881	0.937941	5.41393			0.737307	4.24708	0.8436	4.85149	0.99795	5.75369
0.798212	4.57789	0.36592	2.09017	0.79947	4.57702	0.865288	4.97335	0.941178	5.40355			0.740171	4.24081	0.847126	4.84581	1.00064	5.73838
0.802015	4.57525	0.367997	2.09091	0.80327	4.57437	0.868983	4.96798	0.944423	5.39334			0.743018	4.23452	0.85066	4.84022		
0.80581	4.57259	0.370075	2.09164	0.807062	4.57171	0.872685	4.96271	0.947677	5.38327			0.745847	4.22819	0.8542	4.83474		
0.809596	4.56992	0.372152	2.09236	0.810846	4.56903	0.876393	4.95753	0.950938	5.37336			0.74866	4.22184	0.857748	4.82935		
0.813374	4.56723	0.374229	2.09308	0.814621	4.56633	0.880108	4.95245	0.954209	5.36361			0.751457	4.21546	0.861302	4.82406		
0.817144	4.56451	0.376307	2.09379	0.818388	4.56361	0.88383	4.94745	0.957487	5.35399			0.754236	4.20906	0.864864	4.81886		
0.820904	4.56178	0.378384	2.09449	0.822145	4.56087	0.887558	4.94254	0.960774	5.34453			0.756999	4.20262	0.868432	4.81375		
0.824656	4.55902	0.380461	2.09518	0.825894	4.55811	0.891292	4.93772	0.964069	5.33521			0.759745	4.19616	0.872006	4.80873		
0.828399	4.55625	0.382538	2.09586	0.829634	4.55532	0.895032	4.93298	0.967373	5.32603			0.762474	4.18968	0.875586	4.80379		
0.832133	4.55345	0.384615	2.09654	0.833365	4.55252	0.898779	4.92832	0.970685	5.31699			0.765187	4.18317	0.879173	4.79894		
0.835858	4.55063	0.386692	2.09721	0.837087	4.54969	0.902532	4.92374	0.974005	5.30809			0.767884	4.17664	0.882765	4.79416		
0.839573	4.54779	0.388769	2.09787	0.840799	4.54685	0.90629	4.91924	0.977333	5.29932			0.770564	4.17009	0.886363	4.78947		
0.843279	4.54493	0.390846	2.09853	0.844502	4.54397	0.910054	4.91482	0.98067	5.29068			0.773229	4.16351	0.889967	4.78485		
0.846975	4.54204	0.392923	2.09918	0.848195	4.54108	0.913824	4.91047	0.984015	5.28218			0.775877	4.15691	0.893576	4.78031		
0.850662	4.53913	0.394999	2.09982	0.851878	4.53817	0.917599	4.90619	0.987368	5.2738			0.778508	4.1503	0.89719	4.77584		
0.854339	4.5362	0.397076	2.10046	0.855552	4.53523	0.92138	4.90199	0.990729	5.26555			0.781124	4.14366	0.900809	4.77144		
0.858006	4.53324	0.399153	2.10109	0.859216	4.53226	0.925166	4.89786	0.994099	5.25743			0.783725	4.13701	0.904432	4.76711		
0.861663	4.53027	0.401229	2.10171	0.86287	4.52928	0.928958	4.89379	0.997477	5.24943			0.786309	4.13034	0.90806	4.76284		
0.86531	4.52726	0.403306	2.10233	0.866513	4.52627	0.932755	4.88979	1.00086	5.24155			0.788878	4.12365	0.911693	4.75864		
0.868947	4.52424	0.405382	2.10294	0.870147	4.52323	0.936556	4.88586					0.791432	4.11695	0.915329	4.7545		
0.872574	4.52119	0.407459	2.10355	0.87377	4.52018	0.940363	4.88199					0.79397	4.11023	0.91897	4.75042		
0.87619	4.51812	0.409535	2.10415	0.877383	4.5171	0.944174	4.87818					0.796492	4.1035	0.922614	4.7464		
0.879796	4.51502	0.411612	2.10474	0.880986	4.51399	0.94799	4.87443					0.799	4.09676	0.926262	4.74243		
0.883392	4.5119	0.413688	2.10533	0.884578	4.51086	0.951811	4.87074					0.801493	4.09	0.929913	4.73852		
0.886977	4.50876	0.415764	2.10591	0.88816	4.50771	0.955636	4.86711					0.803971	4.08323	0.933567	4.73467		
0.890552	4.50559	0.417841	2.10648	0.891731	4.50454	0.959465	4.86354					0.806434	4.07645	0.937225	4.73086		
0.894116	4.5024	0.419917	2.10705	0.895291	4.50134	0.963299	4.86002					0.808883	4.06966	0.940885	4.7271		
0.897669	4.49918	0.421993	2.10762	0.898841	4.49811	0.967137	4.85655					0.811317	4.06286	0.944548	4.7234		
0.901211	4.49594	0.424069	2.10818	0.90238	4.49486	0.970979	4.85313					0.813736	4.05606	0.948213	4.71974		
0.904743	4.49268	0.426145	2.10873	0.905908	4.49159	0.974824	4.84977					0.816142	4.04924	0.951881	4.71612		
0.908264	4.48939	0.428221	2.10928	0.909425	4.4883	0.978673	4.84646					0.818534	4.04242	0.95555	4.71255		
0.911774	4.48608	0.430297	2.10982	0.912932	4.48498	0.982526	4.84319					0.820911	4.03559	0.959222	4.70902		
0.915273	4.48275	0.432373	2.11036	0.916428	4.48164	0.986382	4.83997					0.823275	4.02876	0.962895	4.70553		
0.918762	4.47939	0.434449	2.11089	0.919912	4.47828	0.990242	4.8368					0.825625	4.02193	0.96657	4.70208		
0.922239	4.47601	0.436525	2.11142	0.923386	4.47489	0.994104	4.83367					0.827962	4.01509	0.970246	4.69867		
0.925705	4.47261	0.438601	2.11194	0.926848	4.47148	0.99797	4.83058					0.830286	4.00824	0.973924	4.69529		
0.92916	4.46919	0.440676	2.11246	0.9303	4.46805	1.00184	4.82753					0.832596	4.0014	0.977602	4.69195		
0.932604	4.46574	0.442752	2.11298	0.93374	4.4646							0.834893	3.99455	0.981281	4.68864		
0.936037	4.46227	0.444828	2.11348	0.93717	4.46112							0.837177	3.98771	0.984961	4.68537		
0.93946	4.45878	0.446904	2.11399	0.940588	4.45762							0.839449	3.98086	0.988642	4.68212		
0.94287	4.45527	0.448979	2.11449	0.943995	4.4541							0.841708	3.97401	0.992323	4.67891		
0.94627	4.45174	0.451055	2.11498	0.947391	4.45056							0.843955	3.96717	0.996004	4.67572		
0.949659	4.44818	0.45313	2.11547	0.950777	4.447							0.846189	3.96033	0.999685	4.67257		
0.953036	4.44461	0.455206	2.11596	0.95415	4.44342							0.848411	3.95349	1.00337	4.66944		
0.956403	4.44101	0.457281	2.11644	0.957513	4.43982							0.850621	3.94665				
0.959758	4.43739	0.459357	2.11692	0.960865	4.43619							0.852819	3.93982				
0.963102	4.43375	0.461432	2.11739	0.964205	4.43255							0.855006	3.93299				
0.966436	4.4301	0.463508	2.11786	0.967535	4.42888							0.85718	3.92617				
0.969758	4.42642	0.465583	2.11832	0.970853	4.4252							0.859344	3.91935				
0.973068	4.42272	0.467658	2.11878	0.97416	4.4215							0.861496	3.91254				
0.976368	4.41901	0.469733	2.11924	0.977456	4.41778							0.863637	3.90574				
0.979657	4.41527	0.471809	2.11969	0.980741	4.41404							0.865767	3.89895				
0.982934	4.41152	0.473884	2.12014	0.984015	4.41028							0.867887	3.89216				
0.986201	4.40775	0.475959	2.12059	0.987278	4.4065							0.869995	3.88538				
0.989456	4.40396	0.478034	2.12103	0.99053	4.40271							0.872093	3.87861				
0.992701	4.40016	0.480109	2.12147	0.993771	4.39889							0.874181	3.87185				
0.995934	4.39633	0.482184	2.1219	0.997001	4.39507							0.876258	3.86511				
0.999157	4.39249	0.484259	2.12233	1.00022	4.39122							0.878326	3.85837				
1.00237	4.38863	0.486334	2.12275									0.880383	3.85164				
		0.488409	2.12318									0.882431	3.84493				
		0.490484	2.1236									0.884469	3.83822				
		0.492559	2.12401									0.886497	3.83154				
		0.494634	2.12442									0.888516	3.82486				
		0.496709	2.12483									0.890526	3.8182				
		0.498784	2.12524									0.892526	3.81155				
		0.500859	2.12564									0.894518	3.80492				
		0.502933	2.12604									0.896501	3.7983				
		0.505008	2.12643									0.898475	3.79169				
		0.507083	2.12683									0.90044	3.78511				
		0.509157	2.12722									0.902397	3.77853				
		0.511232	2.1276									0.904346	3.77198				
		0.513307	2.12798									0.906287	3.76544				
		0.515381	2.12836									0.908219	3.75892				
		0.517456	2.12874									0.910144	3.75242				
		0.51953	2.12911									0.912061	3.74593				
		0.521605	2.12949									0.913971	3.73946				
		0.523679	2.12985									0.915872	3.73301				
		0.525754	2.13022									0.917767	3.72658				
		0.527828	2.13058									0.919654	3.72017				
		0.529903	2.13094									0.921534	3.71378				
		0.531977	2.1313									0.923407	3.70741				
		0.534051	2.13165									0.925273	3.70106				
		0.536126	2.132									0.927133	3.69472				
		0.5382	2.13235									0.928985	3.68841				
		0.540274	2.1327									0.930832	3.68212				
		0.542349	2.13304									0.932671	3.67585				
		0.544423	2.13338									0.934505	3.6696				
		0.546497	2.13372									0.936332	3.66338				
		0.548571	2.13405									0.938153	3.65717				
		0.550645	2.13439									0.939969	3.65099				
		0.55272	2.13472									0.941778	3.64483				
		0.554794	2.13504									0.943582	3.63869				
		0.556868	2.13537									0.94538	3.63257				
		0.558942	2.13569									0.947172	3.62647				
		0.561016	2.13601									0.94896	3.6204				
		0.56309	2.13633									0.950741	3.61435				
		0.565164	2.13665									0.952518	3.60832				
		0.567238	2.13696									0.954289	3.60232				
		0.569312	2.13727									0.956056	3.59634				
		0.571386	2.13758									0.957817	3.59038				
		0.57346	2.13789									0.959574	3.58445				
		0.575533	2.13819									0.961326	3.57854				
		0.577607	2.1385									0.963073	3.57265				
		0.579681	2.1388									0.964816	3.56679				
		0.581755	2.13909									0.966554	3.56095				
		0.583829	2.13939									0.968288	3.55514				
		0.585903	2.13968									0.970018	3.54935				
		0.587976	2.13998									0.971744	3.54358				
		0.59005	2.14027									0.973465	3.53784				
		0.592124	2.14055									0.975183	3.53212				
		0.594197	2.14084									0.976896	3.52643				
		0.596271	2.14112									0.978606	3.52076				
		0.598345	2.14141									0.980312	3.51511				
		0.600418	2.14169									0.982014	3.50949				
		0.602492	2.14196									0.983713	3.5039				
		0.604566	2.14224									0.985408	3.49832				
		0.606639	2.14251									0.9871	3.49278				
		0.608713	2.14279									0.988788	3.48726				
		0.610786	2.14306									0.990474	3.48176				
		0.61286	2.14333									0.992156	3.47628				
		0.614933	2.14359									0.993834	3.47084				
		0.617007	2.14386									0.99551	3.46541				
		0.61908	2.14412									0.997183	3.46001				
		0.621154	2.14438									0.998853	3.45464				
		0.623227	2.14464									1.00052	3.44929				
		0.6253	2.1449														
		0.627374	2.14516														
		0.629447	2.14541														
		0.63152	2.14566														
		0.633594	2.14592														
		0.635667	2.14617														
		0.63774	2.14641														
		0.639814	2.14666														
		0.641887	2.1469														
		0.64396	2.14715														
		0.646033	2.14739														
		0.648106	2.14763														
		0.65018	2.14787														
		0.652253	2.14811														
		0.654326	2.14834														
		0.656399	2.14858														
		0.658472	2.14881														
		0.660545	2.14904														
		0.662618	2.14927														
		0.664691	2.1495														
		0.666764	2.14972														
		0.668837	2.14995														
		0.67091	2.15017														
		0.672983	2.1504														
		0.675056	2.15062														
		0.677129	2.15084														
		0.679202	2.15106														
		0.681275	2.15127														
		0.683348	2.15149														
		0.685421	2.1517														
		0.687494	2.15192														
		0.689566	2.15213														
		0.691639	2.15234														
		0.693712	2.15255														
		0.695785	2.15276														
		0.697858	2.15296														
		0.69993	2.15317														
		0.702003	2.15337														
		0.704076	2.15358														
		0.706149	2.15378														
		0.708221	2.15398														
		0.710294	2.15418														
		0.712367	2.15438														
		0.714439	2.15457														
		0.716512	2.15477														
		0.718585	2.15497														
		0.720657	2.15516														
		0.72273	2.15535														
		0.724802	2.15554														
		0.726875	2.15574														
		0.728947	2.15592														
		0.73102	2.15611														
		0.733092	2.1563														
		0.735165	2.15649														
		0.737237	2.15667														
		0.73931	2.15686														
		0.741382	2.15704														
		0.743455	2.15722														
		0.745527	2.1574														
		0.7476	2.15758														
		0.749672	2.15776														
		0.751744	2.15794														
		0.753817	2.15812														
		0.755889	2.15829														
		0.757961	2.15847														
		0.760034	2.15864														
		0.762106	2.15881														
		0.764178	2.15899														
		0.766251	2.15916														
		0.768323	2.15933														
		0.770395	2.1595														
		0.772467	2.15967														
		0.77454	2.15983														
		0.776612	2.16														
		0.778684	2.16017														
		0.780756	2.16033														
		0.782828	2.16049														
		0.784901	2.16066														
		0.786973	2.16082														
		0.789045	2.16098														
		0.791117	2.16114														
		0.793189	2.1613														
		0.795261	2.16146														
		0.797333	2.16162														
		0.799405	2.16177														
		0.801477	2.16193														
		0.803549	2.16209														
		0.805621	2.16224														
		0.807693	2.16239														
		0.809765	2.16255														
		0.811837	2.1627														
		0.813909	2.16285														
		0.815981	2.163														
		0.818053	2.16315														
		0.820125	2.1633														
		0.822197	2.16345														
		0.824269	2.1636														
		0.826341	2.16374														
		0.828413	2.16389														
		0.830485	2.16404														
		0.832556	2.16418														
		0.834628	2.16432														
		0.8367	2.16447														
		0.838772	2.16461														
		0.840844	2.16475														
		0.842915	2.16489														
		0.844987	2.16503														
		0.847059	2.16517														
		0.849131	2.16531														
		0.851202	2.16545														
		0.853274	2.16559														
		0.855346	2.16572														
		0.857418	2.16586														
		0.859489	2.16599														
		0.861561	2.16613														
		0.863633	2.16626														
		0.865704	2.1664														
		0.867776	2.16653														
		0.869847	2.16666														
		0.871919	2.16679														
		0.873991	2.16692														
		0.876062	2.16705														
		0.878134	2.16718														
		0.880205	2.16731														
		0.882277	2.16744														
		0.884348	2.16757														
		0.88642	2.1677														
		0.888491	2.16782														
		0.890563	2.16795														
		0.892634	2.16807														
		0.894706	2.1682														
		0.896777	2.16832														
		0.898849	2.16845														
		0.90092	2.16857														
		0.902992	2.16869														
		0.905063	2.16881														
		0.907134	2.16894														
		0.909206	2.16906														
		0.911277	2.16918														
		0.913349	2.1693														
		0.91542	2.16942														
		0.917491	2.16953														
		0.919562	2.16965														
		0.921634	2.16977														
		0.923705	2.16989														
		0.925776	2.17														
		0.927848	2.17012														
		0.929919	2.17023														
		0.93199	2.17035														
		0.934061	2.17046														
		0.936133	2.17058														
		0.938204	2.17069														
		0.940275	2.1708														
		0.942346	2.17091														
		0.944418	2.17103														
		0.946489	2.17114														
		0.94856	2.17125														
		0.950631	2.17136														
		0.952702	2.17147														
		0.954773	2.17158														
		0.956844	2.17168														
		0.958915	2.17179														
		0.960987	2.1719														
		0.963058	2.17201														
		0.965129	2.17211														
		0.9672	2.17222														
		0.969271	2.17233														
		0.971342	2.17243														
		0.973413	2.17254														
		0.975484	2.17264														
		0.977555	2.17274														
		0.979626	2.17285														
		0.981697	2.17295														
		0.983768	2.17305														
		0.985839	2.17316														
		0.98791	2.17326														
		0.989981	2.17336														
		0.992051	2.17346														
		0.994122	2.17356														
		0.996193	2.17366														
		0.998264	2.17376														
		1.00033	2.17386														
