Sym0		Asym0		Sym1		Sym2		Sym3		Sym4		Asym1		Asym2		Asym3		Asym4	
486  Points		501  Points		299  Points		232  Points		214  Points		155  Points		404  Points		250  Points		208  Points		162  Points	
Freq (MHz)	Vph (m/ms)	Freq (MHz)	Vph (m/ms)	Freq (MHz)	Vph (m/ms)	Freq (MHz)	Vph (m/ms)	Freq (MHz)	Vph (m/ms)	Freq (MHz)	Vph (m/ms)	Freq (MHz)	Vph (m/ms)	Freq (MHz)	Vph (m/ms)	Freq (MHz)	Vph (m/ms)	Freq (MHz)	Vph (m/ms)
0.00225566	4.52906	5.34722e-005	0.0592773	0.27952	362.038	0.399452	1517.8	0.559017	6727.35	0.838529	1315.54	0.139814	167.294	0.419266	1004.55	0.698779	763.955	0.798909	864.167
0.0064753	4.52901	0.000220526	0.120258	0.279566	164.087	0.399476	334.325	0.559033	550.885	0.838549	534.415	0.140021	79.2226	0.419297	310.807	0.698804	378.472	0.798932	430.418
0.0106946	4.52888	0.000500304	0.180912	0.279647	106.109	0.399532	187.876	0.559077	287.223	0.838584	335.327	0.140374	52.0072	0.419361	183.869	0.698846	251.557	0.798971	286.588
0.0149134	4.52865	0.000890891	0.240967	0.279761	78.4269	0.399619	130.669	0.559147	194.271	0.838636	244.323	0.140873	38.7991	0.419457	130.572	0.698905	188.396	0.799026	214.817
0.0191315	4.52834	0.00139009	0.30031	0.27991	62.2181	0.399737	100.186	0.559245	146.788	0.838705	192.179	0.141514	31.0166	0.419586	101.248	0.69898	150.595	0.799097	171.802
0.0233486	4.52797	0.00199487	0.358755	0.280094	51.5774	0.399887	81.2505	0.55937	117.972	0.838789	158.385	0.142295	25.899	0.419747	82.6951	0.699072	125.435	0.799183	143.147
0.0275645	4.52752	0.00270178	0.416155	0.280311	44.0585	0.400068	68.3485	0.559523	98.6245	0.83889	134.706	0.143212	22.2866	0.419941	69.9024	0.699181	107.486	0.799285	122.69
0.031779	4.52699	0.00350702	0.472393	0.280562	38.4651	0.40028	58.9945	0.559702	84.7397	0.839007	117.192	0.14426	19.607	0.420167	60.5495	0.699307	94.0365	0.799402	107.355
0.035992	4.52639	0.0044063	0.527345	0.280847	34.1429	0.400524	51.9033	0.559909	74.2915	0.839141	103.713	0.145437	17.5451	0.420426	53.4151	0.69945	83.5838	0.799536	95.4322
0.0402032	4.5257	0.00539526	0.580927	0.281166	30.7039	0.400799	46.3436	0.560143	66.1455	0.839291	93.0203	0.146736	15.9133	0.420717	47.7945	0.699609	75.2272	0.799685	85.8976
0.0444123	4.52495	0.00646927	0.633061	0.281518	27.9034	0.401107	41.8686	0.560404	59.6172	0.839457	84.3306	0.148153	14.5925	0.42104	43.2532	0.699785	68.3942	0.799849	78.0993
0.0486191	4.52411	0.00762358	0.683685	0.281903	25.5793	0.401446	38.1899	0.560692	54.2689	0.839639	77.1298	0.149684	13.504	0.421396	39.5083	0.699978	62.7033	0.80003	71.603
0.0528234	4.52318	0.00885346	0.732756	0.282321	23.6204	0.401816	35.113	0.561007	49.8078	0.839838	71.0658	0.151322	12.5933	0.421783	36.3678	0.700187	57.8905	0.800226	66.108
0.057025	4.52218	0.0101542	0.780248	0.282771	21.9473	0.402219	32.502	0.561349	46.0306	0.840052	65.8894	0.153063	11.8216	0.422202	33.6969	0.700413	53.7674	0.800438	61.3997
0.0612235	4.52108	0.0115213	0.82615	0.283253	20.5021	0.402654	30.259	0.561718	42.7916	0.840283	61.4191	0.154903	11.1606	0.422654	31.3982	0.700656	50.196	0.800666	57.3206
0.0654187	4.51991	0.0129502	0.870456	0.283768	19.2418	0.403121	28.3118	0.562113	39.9838	0.84053	57.52	0.156835	10.589	0.423136	29.3992	0.700916	47.0725	0.80091	53.7527
0.0696105	4.51865	0.0144366	0.913179	0.284314	18.1332	0.403621	26.606	0.562536	37.5269	0.840794	54.0894	0.158855	10.0906	0.423651	27.6453	0.701192	44.318	0.80117	50.6057
0.0737984	4.51729	0.0159763	0.954328	0.284891	17.1509	0.404153	25.0995	0.562985	35.3591	0.841073	51.0477	0.16096	9.65301	0.424196	26.0945	0.701484	41.8709	0.801445	47.8095
0.0779822	4.51585	0.0175653	0.993929	0.2855	16.2747	0.404717	23.7598	0.56346	33.4326	0.841369	48.3326	0.163143	9.2662	0.424773	24.7135	0.701793	39.6825	0.801737	45.3087
0.0821615	4.51431	0.0191999	1.03202	0.286139	15.4885	0.405315	22.5609	0.563962	31.7094	0.841681	45.8942	0.165107	8.96436	0.425381	23.4764	0.702119	37.7141	0.802044	43.0589
0.0863362	4.51267	0.0208767	1.06863	0.286808	14.7794	0.405945	21.4819	0.56449	30.1592	0.842009	43.6924	0.166824	8.72956	0.42602	22.3618	0.702461	35.9341	0.802367	41.0242
0.0905058	4.51094	0.0225921	1.10379	0.287508	14.1367	0.406608	20.506	0.565045	28.7574	0.842353	41.6944	0.168273	8.54932	0.42669	21.3527	0.702819	34.3169	0.802706	39.1754
0.0946701	4.5091	0.0243432	1.13757	0.288236	13.5517	0.407305	19.6193	0.565625	27.4837	0.842713	39.8734	0.169436	8.41494	0.42739	20.435	0.703194	32.8412	0.803062	37.4881
0.0988286	4.50716	0.026127	1.16999	0.288994	13.0171	0.408035	18.8103	0.566232	26.3216	0.843089	38.2069	0.170301	8.3204	0.428121	19.5969	0.703585	31.4892	0.803433	35.9422
0.102981	4.50511	0.0279409	1.2011	0.289781	12.5269	0.408799	18.0694	0.566865	25.2571	0.843481	36.6761	0.170859	8.2617	0.428882	18.8287	0.703993	30.2463	0.80382	34.5207
0.107127	4.50295	0.0297823	1.23096	0.290597	12.0758	0.409596	17.3885	0.567523	24.2786	0.843889	35.2652	0.171666	8.17967	0.429673	18.1222	0.704416	29.0996	0.804223	33.2092
0.111266	4.50067	0.0316489	1.2596	0.291441	11.6594	0.410427	16.7609	0.568207	23.3761	0.844313	33.9607	0.172552	8.09353	0.430493	17.4703	0.704856	28.0386	0.804643	31.9956
0.115398	4.49827	0.0335386	1.28708	0.292313	11.2741	0.411292	16.1805	0.568917	22.5413	0.844752	32.751	0.173768	7.98117	0.431343	16.867	0.705313	27.0541	0.805079	30.8693
0.119522	4.49575	0.0354494	1.31345	0.293213	10.9165	0.412192	15.6426	0.569652	21.7669	0.845208	31.6263	0.175326	7.84648	0.432222	16.3073	0.705785	26.1381	0.80553	29.8213
0.123638	4.4931	0.0373793	1.33874	0.29414	10.5839	0.413125	15.1426	0.570413	21.0467	0.84568	30.5779	0.177239	7.69376	0.433131	15.7867	0.706273	25.2838	0.805998	28.8437
0.127745	4.49032	0.0393269	1.36301	0.295094	10.2738	0.414093	14.6768	0.571199	20.3753	0.846167	29.5984	0.17952	7.52751	0.434068	15.3012	0.706778	24.4852	0.806482	27.9298
0.131842	4.4874	0.0412904	1.3863	0.296076	9.98414	0.415096	14.2421	0.57201	19.7479	0.84667	28.6813	0.182187	7.35209	0.435034	14.8476	0.707298	23.737	0.806983	27.0736
0.13593	4.48433	0.0432685	1.40865	0.297084	9.71298	0.416133	13.8354	0.572846	19.1604	0.847189	27.8208	0.184903	7.1913	0.436029	14.4229	0.707834	23.0348	0.8075	26.2698
0.140008	4.48112	0.0452599	1.4301	0.29812	9.45871	0.417205	13.4543	0.573707	18.6093	0.847723	27.0119	0.187664	7.04349	0.437051	14.0246	0.708387	22.3744	0.808033	25.5138
0.144075	4.47775	0.0472633	1.4507	0.299182	9.21986	0.418311	13.0965	0.574592	18.0913	0.848274	26.2501	0.19047	6.90726	0.438102	13.6502	0.708955	21.7522	0.808582	24.8015
0.148129	4.47422	0.0492776	1.47047	0.300129	9.02328	0.419453	12.76	0.575502	17.6035	0.84884	25.5315	0.193318	6.78139	0.43918	13.2977	0.709539	21.1651	0.809148	24.1293
0.152172	4.47051	0.0513019	1.48947	0.300952	8.8636	0.42063	12.4431	0.576436	17.1435	0.849421	24.8526	0.196204	6.66483	0.440286	12.9654	0.710138	20.6102	0.809731	23.4939
0.156202	4.46664	0.0533352	1.50772	0.301644	8.73671	0.421842	12.1443	0.577395	16.7091	0.850018	24.2101	0.199128	6.55665	0.441418	12.6517	0.710753	20.0849	0.810329	22.8925
0.160217	4.46258	0.0551138	1.52304	0.302198	8.63952	0.423089	11.862	0.578377	16.2981	0.85063	23.6012	0.202088	6.45604	0.442578	12.355	0.711384	19.5871	0.810945	22.3223
0.164218	4.45832	0.0566344	1.53569	0.30261	8.56977	0.424371	11.5951	0.579384	15.9088	0.851258	23.0235	0.205081	6.36228	0.443764	12.0741	0.712031	19.1145	0.811577	21.7811
0.168204	4.45387	0.0578947	1.54587	0.302875	8.52586	0.425688	11.3423	0.580414	15.5395	0.851902	22.4745	0.208106	6.27476	0.444977	11.8078	0.712693	18.6654	0.812225	21.2667
0.172173	4.4492	0.058893	1.55375	0.303259	8.46373	0.427041	11.1027	0.581468	15.1888	0.852561	21.9523	0.211161	6.1929	0.446216	11.555	0.71337	18.2381	0.81289	20.7773
0.176125	4.44431	0.059628	1.55946	0.303679	8.39748	0.428429	10.8754	0.582546	14.8555	0.853235	21.455	0.214245	6.11622	0.447481	11.3147	0.714063	17.8311	0.813572	20.311
0.180058	4.43919	0.0600988	1.56306	0.304257	8.30946	0.429852	10.6594	0.583647	14.5381	0.853924	20.9808	0.217356	6.04427	0.448771	11.0862	0.714771	17.443	0.814271	19.8664
0.183972	4.43384	0.060776	1.56819	0.304996	8.20145	0.43131	10.454	0.584771	14.2357	0.854629	20.5282	0.220493	5.97666	0.450086	10.8685	0.715495	17.0725	0.814986	19.4419
0.187864	4.42823	0.0615128	1.57369	0.305904	8.07556	0.432803	10.2586	0.585917	13.9473	0.855348	20.0957	0.223654	5.91302	0.451427	10.661	0.716234	16.7184	0.815718	19.0363
0.191735	4.42235	0.0625161	1.58105	0.306988	7.93413	0.434331	10.0724	0.587087	13.6719	0.856083	19.6822	0.226839	5.85305	0.452793	10.4631	0.716987	16.3798	0.816467	18.6483
0.195583	4.4162	0.0637866	1.59017	0.308258	7.77963	0.435895	9.89482	0.58828	13.4088	0.856833	19.2863	0.230046	5.79645	0.454183	10.274	0.717757	16.0556	0.817232	18.2768
0.199406	4.40975	0.0653255	1.60091	0.309556	7.63292	0.437493	9.72541	0.589495	13.1571	0.857598	18.907	0.233274	5.74296	0.455597	10.0933	0.718541	15.745	0.818015	17.9209
0.203204	4.40301	0.0671337	1.61313	0.310884	7.49349	0.439126	9.56363	0.590732	12.9161	0.858378	18.5433	0.236522	5.69235	0.457035	9.92036	0.71934	15.4472	0.818814	17.5796
0.206973	4.39594	0.0692125	1.62666	0.31224	7.36088	0.440793	9.40902	0.591991	12.6852	0.859173	18.1943	0.239788	5.6444	0.458497	9.75481	0.720154	15.1613	0.819631	17.252
0.210714	4.38854	0.0712949	1.6397	0.313627	7.23467	0.442495	9.26117	0.593273	12.4638	0.859983	17.8591	0.243073	5.59893	0.459982	9.5962	0.720983	14.8868	0.820464	16.9374
0.214423	4.3808	0.0733806	1.65226	0.315044	7.11446	0.444006	9.13752	0.594576	12.2514	0.860808	17.5369	0.246374	5.55574	0.461491	9.4441	0.721827	14.6229	0.821315	16.635
0.218101	4.37269	0.075469	1.66437	0.316493	6.9999	0.445315	9.03575	0.595901	12.0474	0.861648	17.227	0.249692	5.51469	0.463022	9.29816	0.722686	14.3691	0.822182	16.3442
0.221744	4.36421	0.0775601	1.67605	0.317975	6.89068	0.446411	8.95401	0.597247	11.8514	0.862502	16.9288	0.253025	5.47563	0.464376	9.17573	0.723559	14.1248	0.823067	16.0642
0.22535	4.35533	0.0796532	1.68731	0.31949	6.78649	0.447287	8.89087	0.598615	11.6629	0.863371	16.6415	0.256372	5.43841	0.465543	9.07469	0.724447	13.8895	0.823969	15.7946
0.228919	4.34604	0.0817484	1.69817	0.32104	6.68708	0.447936	8.84527	0.600004	11.4816	0.864254	16.3646	0.259733	5.40292	0.466517	8.99335	0.72535	13.6628	0.824888	15.5348
0.232448	4.33633	0.0838453	1.70866	0.322626	6.59218	0.448353	8.81644	0.601414	11.307	0.865152	16.0977	0.263106	5.36904	0.467293	8.9304	0.726268	13.4441	0.825824	15.2842
0.235934	4.32618	0.0859436	1.71879	0.324249	6.50158	0.448957	8.77548	0.602845	11.1388	0.866065	15.84	0.266492	5.33666	0.467867	8.88488	0.7272	13.2331	0.826777	15.0425
0.239377	4.31558	0.0880433	1.72857	0.325911	6.41506	0.449617	8.73159	0.604296	10.9766	0.866992	15.5913	0.269889	5.3057	0.468236	8.85607	0.728146	13.0294	0.827748	14.8091
0.242773	4.30451	0.0901439	1.73802	0.327613	6.33243	0.450521	8.67293	0.605768	10.8202	0.867934	15.351	0.273297	5.27605	0.468768	8.81509	0.729107	12.8327	0.828736	14.5837
0.246122	4.29297	0.0922456	1.74716	0.329357	6.25352	0.451676	8.60041	0.607261	10.6693	0.868889	15.1188	0.276714	5.24764	0.46935	8.77114	0.730082	12.6425	0.829741	14.3658
0.24942	4.28093	0.094348	1.75599	0.331145	6.17817	0.45309	8.51511	0.608773	10.5236	0.869859	14.8942	0.280141	5.22039	0.470144	8.71232	0.731072	12.4587	0.830763	14.1552
0.252253	4.27004	0.096451	1.76453	0.332977	6.10621	0.454771	8.41826	0.610306	10.3829	0.870844	14.6769	0.283577	5.19423	0.471157	8.63945	0.732076	12.2808	0.831803	13.9514
0.254635	4.26045	0.0985545	1.7728	0.334856	6.03752	0.456731	8.3112	0.611859	10.2469	0.871842	14.4666	0.287021	5.1691	0.472392	8.55355	0.733094	12.1086	0.83286	13.7542
0.256582	4.25231	0.100658	1.7808	0.336784	5.97195	0.458723	8.20829	0.613431	10.1154	0.872855	14.2629	0.290472	5.14492	0.473856	8.45575	0.734127	11.9419	0.833935	13.5633
0.258107	4.24573	0.102763	1.78855	0.338762	5.9094	0.460748	8.10932	0.615023	9.98819	0.873881	14.0655	0.29393	5.12166	0.475556	8.3473	0.735174	11.7804	0.835027	13.3783
0.259219	4.24082	0.104867	1.79605	0.340792	5.84973	0.462804	8.01409	0.616634	9.86509	0.874922	13.8742	0.297394	5.09924	0.477277	8.2427	0.736235	11.6239	0.836136	13.1991
0.259928	4.23765	0.106971	1.80332	0.342875	5.79286	0.464892	7.92243	0.618264	9.7459	0.875976	13.6887	0.300865	5.07763	0.479018	8.14177	0.73731	11.4721	0.837263	13.0253
0.26094	4.23303	0.109076	1.81036	0.345014	5.73866	0.46701	7.83415	0.619914	9.63047	0.877044	13.5087	0.30434	5.05677	0.480779	8.04432	0.738399	11.3248	0.838408	12.8568
0.262034	4.22796	0.11118	1.81719	0.34721	5.68705	0.46916	7.74909	0.621582	9.51861	0.878126	13.334	0.30782	5.03662	0.482561	7.95019	0.739502	11.182	0.839569	12.6932
0.26351	4.22094	0.113285	1.82381	0.349464	5.63793	0.47134	7.66711	0.623051	9.42394	0.879222	13.1644	0.311305	5.01715	0.484362	7.85923	0.740619	11.0433	0.840749	12.5345
0.265356	4.21191	0.115389	1.83023	0.351777	5.5912	0.47355	7.58806	0.624315	9.34523	0.880332	12.9997	0.314793	4.99831	0.486183	7.7713	0.74175	10.9086	0.841946	12.3804
0.267559	4.20072	0.117493	1.83646	0.35415	5.54679	0.475789	7.5118	0.625368	9.28147	0.881455	12.8396	0.318284	4.98007	0.488024	7.68625	0.742895	10.7778	0.84316	12.2307
0.270101	4.18725	0.119597	1.84252	0.356585	5.50459	0.478058	7.4382	0.626205	9.23189	0.882591	12.684	0.321778	4.9624	0.489884	7.60397	0.744054	10.6506	0.844392	12.0852
0.27296	4.17133	0.1217	1.84839	0.359081	5.46454	0.480356	7.36716	0.626823	9.1959	0.883741	12.5328	0.325274	4.94526	0.491763	7.52432	0.745227	10.527	0.845641	11.9438
0.275758	4.15492	0.123803	1.8541	0.36164	5.42653	0.482682	7.29854	0.62722	9.17306	0.884905	12.3856	0.328771	4.92862	0.493661	7.4472	0.746414	10.4068	0.846908	11.8063
0.278494	4.13806	0.125906	1.85964	0.36426	5.39049	0.485036	7.23225	0.627793	9.14051	0.886082	12.2424	0.33227	4.91246	0.495578	7.37249	0.747615	10.2899	0.848193	11.6726
0.281168	4.12074	0.128009	1.86503	0.366943	5.35634	0.487418	7.16819	0.628417	9.10549	0.887272	12.1031	0.33577	4.89675	0.497513	7.3001	0.748829	10.1761	0.849495	11.5426
0.28378	4.10301	0.130111	1.87027	0.369687	5.32399	0.489828	7.10625	0.62927	9.05845	0.888475	11.9674	0.33927	4.88146	0.499467	7.22993	0.750057	10.0654	0.850814	11.416
0.286332	4.08487	0.132212	1.87536	0.372492	5.29336	0.492264	7.04635	0.630355	8.99992	0.889691	11.8352	0.342769	4.86658	0.501439	7.16188	0.751299	9.95754	0.852151	11.2927
0.288823	4.06637	0.134314	1.88032	0.375357	5.26437	0.494726	6.9884	0.631676	8.93053	0.890921	11.7065	0.346268	4.85207	0.503429	7.09588	0.752555	9.85252	0.853506	11.1727
0.291256	4.04752	0.136414	1.88514	0.37828	5.23693	0.497215	6.93232	0.633238	8.85101	0.892163	11.5811	0.349766	4.83792	0.505437	7.03184	0.753825	9.75021	0.854878	11.0559
0.29363	4.02836	0.138515	1.88983	0.38126	5.21098	0.499729	6.87803	0.635047	8.7622	0.893419	11.4588	0.353262	4.82411	0.507463	6.96969	0.754942	9.66319	0.856268	10.942
0.295948	4.00892	0.140615	1.8944	0.384296	5.18642	0.502269	6.82546	0.636874	8.67587	0.894687	11.3395	0.356756	4.81062	0.509507	6.90934	0.755903	9.59052	0.857675	10.831
0.298212	3.98924	0.142714	1.89885	0.387385	5.16319	0.504833	6.77454	0.638719	8.59195	0.895968	11.2232	0.360248	4.79743	0.511568	6.85074	0.756703	9.53146	0.859099	10.7229
0.300423	3.96934	0.144813	1.90318	0.390526	5.14122	0.507422	6.72519	0.640581	8.51034	0.897262	11.1098	0.363737	4.78453	0.513647	6.79381	0.75734	9.48541	0.860541	10.6174
0.302583	3.94927	0.146911	1.9074	0.393717	5.12041	0.510035	6.67737	0.64246	8.43095	0.898568	10.9991	0.367222	4.77189	0.515743	6.73849	0.757809	9.45191	0.862001	10.5145
0.304694	3.92904	0.149009	1.91152	0.396955	5.10072	0.512672	6.631	0.644356	8.3537	0.899887	10.891	0.370703	4.7595	0.517856	6.68473	0.758111	9.43062	0.863478	10.4142
0.306759	3.90871	0.151106	1.91553	0.400238	5.08207	0.515331	6.58604	0.64627	8.27851	0.901219	10.7855	0.37418	4.74736	0.519987	6.63247	0.758546	9.40023	0.864972	10.3163
0.308779	3.88829	0.153203	1.91944	0.403564	5.06439	0.518014	6.54242	0.6482	8.20531	0.902563	10.6825	0.377652	4.73543	0.522135	6.58165	0.759021	9.36749	0.866484	10.2207
0.310757	3.86782	0.1553	1.92326	0.406931	5.04763	0.520719	6.50009	0.650147	8.13402	0.90392	10.5819	0.381119	4.72372	0.5243	6.53222	0.759669	9.32341	0.868013	10.1275
0.312695	3.84732	0.157396	1.92698	0.410337	5.03172	0.523446	6.45901	0.652111	8.06459	0.905289	10.4835	0.38458	4.7122	0.526481	6.48414	0.760493	9.26843	0.869559	10.0364
0.314595	3.82683	0.159491	1.93061	0.413779	5.01661	0.526194	6.41913	0.654092	7.99694	0.90667	10.3875	0.388035	4.70087	0.52868	6.43735	0.761497	9.20303	0.871123	9.94749
0.316459	3.80637	0.161586	1.93416	0.417255	5.00225	0.528964	6.3804	0.656088	7.93101	0.908063	10.2935	0.391484	4.68971	0.530896	6.39181	0.762684	9.12781	0.8725	9.87169
0.318289	3.78596	0.163681	1.93762	0.420763	4.98859	0.531755	6.34279	0.658102	7.86675	0.909469	10.2017	0.394925	4.67872	0.533128	6.34749	0.764058	9.04343	0.873684	9.80828
0.320088	3.76562	0.165775	1.941	0.424301	4.97558	0.534566	6.30624	0.660131	7.80409	0.910886	10.112	0.398359	4.66788	0.535378	6.30434	0.765447	8.96104	0.87467	9.75666
0.321857	3.74537	0.167868	1.9443	0.427867	4.96317	0.537398	6.27072	0.662177	7.74299	0.912316	10.0241	0.401785	4.65718	0.537644	6.26232	0.766849	8.88059	0.875454	9.71637
0.323597	3.72524	0.169961	1.94753	0.431459	4.95132	0.540249	6.23619	0.664238	7.68339	0.913572	9.94919	0.405202	4.64661	0.539927	6.2214	0.768265	8.80202	0.876034	9.68702
0.325312	3.70524	0.172054	1.95068	0.435075	4.94	0.54312	6.20262	0.666316	7.62524	0.914649	9.8864	0.408611	4.63616	0.542227	6.18154	0.769694	8.72526	0.876406	9.66837
0.327002	3.68538	0.174146	1.95376	0.438714	4.92917	0.54601	6.16997	0.668409	7.5685	0.915545	9.83524	0.41201	4.62583	0.544544	6.14271	0.771137	8.65025	0.876942	9.64172
0.328669	3.66568	0.176238	1.95678	0.442373	4.91879	0.548918	6.13821	0.670518	7.51312	0.916256	9.79527	0.415399	4.6156	0.546878	6.10487	0.772594	8.57695	0.877527	9.61298
0.330315	3.64615	0.178329	1.95972	0.446051	4.90883	0.551845	6.10731	0.672643	7.45906	0.916781	9.76614	0.418778	4.60547	0.549228	6.068	0.774064	8.5053	0.878326	9.57427
0.331941	3.6268	0.18042	1.9626	0.449746	4.89927	0.55479	6.07724	0.674784	7.40628	0.917118	9.74762	0.422146	4.59542	0.551596	6.03206	0.775548	8.43525	0.879342	9.52592
0.333549	3.60764	0.18251	1.96542	0.453458	4.89007	0.557753	6.04797	0.67694	7.35473	0.917603	9.72114	0.425503	4.58546	0.55398	5.99703	0.777046	8.36676	0.88058	9.46834
0.33514	3.58868	0.1846	1.96818	0.457184	4.88121	0.560733	6.01947	0.679111	7.30438	0.918132	9.69258	0.428849	4.57557	0.556381	5.96289	0.778557	8.29977	0.882044	9.402
0.336714	3.56993	0.186689	1.97088	0.460923	4.87266	0.56373	5.99172	0.681298	7.2552	0.918854	9.65407	0.432182	4.56575	0.5588	5.9296	0.780082	8.23424	0.883739	9.32744
0.338274	3.55138	0.188778	1.97352	0.464675	4.86441	0.566744	5.96469	0.6835	7.20714	0.91977	9.60594	0.435503	4.55599	0.561235	5.89714	0.78162	8.17013	0.885452	9.25451
0.339821	3.53306	0.190867	1.97611	0.468437	4.85642	0.569775	5.93836	0.685717	7.16018	0.920884	9.54855	0.438811	4.54628	0.563687	5.86548	0.783172	8.10739	0.887182	9.18317
0.341355	3.51496	0.192955	1.97865	0.472209	4.84869	0.572822	5.9127	0.687949	7.11427	0.922199	9.48236	0.442105	4.53662	0.566157	5.83462	0.784738	8.046	0.888928	9.11336
0.342877	3.49708	0.195043	1.98113	0.475989	4.84119	0.575885	5.88769	0.690197	7.0694	0.923719	9.40786	0.445385	4.527	0.568644	5.80451	0.786317	7.9859	0.890692	9.04504
0.344388	3.47944	0.197131	1.98356	0.479777	4.83391	0.578963	5.86332	0.692459	7.02553	0.925251	9.33488	0.448651	4.51742	0.571148	5.77515	0.78791	7.92707	0.892472	8.97817
0.34589	3.46202	0.199218	1.98594	0.483571	4.82683	0.582057	5.83955	0.694737	6.98264	0.926793	9.26337	0.451903	4.50787	0.57367	5.74651	0.789517	7.86947	0.894269	8.91271
0.347383	3.44484	0.201304	1.98828	0.48737	4.81993	0.585166	5.81638	0.697029	6.94068	0.928347	9.19329	0.455139	4.49834	0.576209	5.71858	0.791137	7.81307	0.896082	8.84862
0.348867	3.42788	0.203391	1.99057	0.491175	4.81321	0.588291	5.79377	0.699337	6.89965	0.929913	9.1246	0.458359	4.48884	0.578766	5.69132	0.792771	7.75782	0.897912	8.78586
0.350344	3.41117	0.205477	1.99281	0.494983	4.80664	0.591429	5.77172	0.701659	6.8595	0.931489	9.05727	0.461564	4.47935	0.58134	5.66474	0.794419	7.70371	0.899759	8.72439
0.351814	3.39468	0.207562	1.99501	0.498794	4.80022	0.594582	5.75021	0.703996	6.82023	0.933077	8.99125	0.464752	4.46987	0.583932	5.6388	0.79608	7.65069	0.901622	8.66418
0.353277	3.37844	0.209647	1.99717	0.502607	4.79393	0.59775	5.72922	0.706348	6.7818	0.934675	8.92652	0.467923	4.4604	0.586541	5.61349	0.797755	7.59875	0.903502	8.6052
0.354735	3.36242	0.211732	1.99928	0.506422	4.78777	0.600931	5.70873	0.708714	6.74419	0.936285	8.86303	0.471077	4.45094	0.589168	5.5888	0.799444	7.54785	0.905397	8.54741
0.356188	3.34664	0.213817	2.00136	0.510237	4.78172	0.604126	5.68873	0.711095	6.70738	0.937906	8.80075	0.474214	4.44147	0.591813	5.56471	0.801146	7.49797	0.90731	8.49078
0.357637	3.33108	0.215901	2.0034	0.514052	4.77577	0.607334	5.66921	0.713491	6.67135	0.939537	8.73965	0.477332	4.43201	0.594476	5.54121	0.802862	7.44907	0.909238	8.43528
0.359081	3.31576	0.217985	2.0054	0.517866	4.76992	0.610556	5.65014	0.715902	6.63608	0.941179	8.6797	0.480432	4.42253	0.597157	5.51827	0.804591	7.40114	0.911183	8.38088
0.360521	3.30067	0.220069	2.00736	0.521679	4.76415	0.613791	5.63152	0.718327	6.60155	0.942832	8.62087	0.483514	4.41305	0.599855	5.49589	0.806335	7.35415	0.913144	8.32755
0.361959	3.2858	0.222152	2.00929	0.52549	4.75847	0.617039	5.61334	0.720767	6.56774	0.944496	8.56314	0.486577	4.40356	0.602572	5.47405	0.808092	7.30807	0.91512	8.27527
0.363393	3.27115	0.224235	2.01118	0.529298	4.75285	0.620299	5.59557	0.723221	6.53462	0.94617	8.50646	0.48962	4.39405	0.605306	5.45274	0.809862	7.26289	0.917113	8.224
0.364825	3.25673	0.226318	2.01304	0.533103	4.7473	0.623572	5.57821	0.72569	6.50219	0.947855	8.45082	0.492644	4.38453	0.608058	5.43194	0.811646	7.21858	0.919122	8.17372
0.366255	3.24252	0.2284	2.01486	0.536904	4.74181	0.626857	5.56125	0.728174	6.47043	0.949551	8.39619	0.495648	4.37499	0.610829	5.41165	0.813444	7.17511	0.921146	8.12441
0.367683	3.22854	0.230482	2.01665	0.540701	4.73637	0.630155	5.54467	0.730672	6.43932	0.951257	8.34255	0.498632	4.36543	0.613617	5.39184	0.815256	7.13247	0.923186	8.07604
0.36911	3.21476	0.232564	2.01842	0.544493	4.73097	0.633464	5.52847	0.733185	6.40885	0.952973	8.28987	0.501596	4.35585	0.616423	5.37252	0.817081	7.09065	0.925242	8.02859
0.370535	3.2012	0.234645	2.02015	0.548279	4.72562	0.636785	5.51263	0.735713	6.37899	0.954699	8.23812	0.50454	4.34624	0.619247	5.35365	0.81892	7.0496	0.927314	7.98203
0.37196	3.18785	0.236727	2.02185	0.55206	4.7203	0.640118	5.49714	0.738255	6.34973	0.956436	8.18728	0.507462	4.33661	0.622088	5.33524	0.820772	7.00933	0.929401	7.93635
0.373384	3.17471	0.238808	2.02352	0.555833	4.715	0.643462	5.482	0.740811	6.32107	0.958184	8.13734	0.510364	4.32696	0.624947	5.31728	0.822638	6.96981	0.931503	7.89152
0.374808	3.16177	0.240888	2.02516	0.5596	4.70974	0.646818	5.46719	0.743383	6.29298	0.959941	8.08826	0.513245	4.31728	0.627824	5.29974	0.824518	6.93103	0.933621	7.84752
0.376231	3.14902	0.242969	2.02678	0.56336	4.70449	0.650185	5.45271	0.745969	6.26546	0.961708	8.04004	0.516105	4.30758	0.630718	5.28263	0.826411	6.89296	0.935754	7.80433
0.377655	3.13648	0.245049	2.02836	0.567112	4.69926	0.653562	5.43854	0.748569	6.23848	0.963486	7.99265	0.518943	4.29785	0.63363	5.26592	0.828318	6.85558	0.937902	7.76193
0.379079	3.12413	0.247129	2.02993	0.570855	4.69404	0.656951	5.42468	0.751185	6.21204	0.965273	7.94606	0.521761	4.2881	0.636558	5.24961	0.830238	6.8189	0.940066	7.72031
0.380503	3.11198	0.249209	2.03146	0.57459	4.68882	0.66035	5.41112	0.753815	6.18613	0.967071	7.90026	0.524557	4.27831	0.639504	5.23369	0.832172	6.78288	0.942244	7.67944
0.381928	3.10001	0.251288	2.03297	0.578315	4.68361	0.66376	5.39785	0.75646	6.16073	0.968878	7.85524	0.527331	4.26851	0.642466	5.21815	0.83412	6.74751	0.944438	7.63931
0.383354	3.08823	0.253368	2.03446	0.582031	4.67841	0.66718	5.38487	0.75912	6.13584	0.970695	7.81097	0.530084	4.25867	0.645446	5.20297	0.836081	6.71278	0.946646	7.59989
0.384781	3.07663	0.255447	2.03592	0.585737	4.6732	0.670611	5.37216	0.761794	6.11143	0.972522	7.76744	0.532816	4.24882	0.648441	5.18815	0.838055	6.67867	0.948869	7.56118
0.386209	3.06522	0.257525	2.03736	0.589433	4.66798	0.674051	5.35971	0.764483	6.0875	0.974359	7.72463	0.535526	4.23893	0.651453	5.17368	0.840043	6.64518	0.951107	7.52316
0.387639	3.05398	0.259604	2.03878	0.593117	4.66276	0.677502	5.34754	0.767188	6.06405	0.976206	7.68252	0.538215	4.22903	0.654481	5.15955	0.842045	6.61227	0.953359	7.48581
0.389069	3.04291	0.261682	2.04017	0.596791	4.65752	0.680962	5.33561	0.769907	6.04105	0.978062	7.6411	0.540882	4.2191	0.657525	5.14575	0.844059	6.57996	0.955626	7.44912
0.390502	3.03202	0.26376	2.04155	0.600453	4.65228	0.684432	5.32393	0.772641	6.01851	0.979927	7.60035	0.543529	4.20915	0.660584	5.13227	0.846088	6.54821	0.957908	7.41306
0.391935	3.0213	0.265838	2.0429	0.604103	4.64701	0.687911	5.3125	0.77539	5.99641	0.981803	7.56027	0.546154	4.19919	0.663658	5.1191	0.848129	6.51701	0.960203	7.37763
0.393371	3.01074	0.267916	2.04423	0.607741	4.64173	0.6914	5.3013	0.778155	5.97473	0.983688	7.52082	0.548758	4.1892	0.666747	5.10623	0.850184	6.48637	0.962513	7.34282
0.394809	3.00035	0.269994	2.04554	0.611366	4.63642	0.694899	5.29033	0.780934	5.95348	0.985582	7.48201	0.551341	4.17919	0.66985	5.09365	0.852253	6.45625	0.964838	7.3086
0.396248	2.99012	0.272071	2.04683	0.614978	4.6311	0.698406	5.27958	0.783729	5.93265	0.987486	7.44381	0.553904	4.16917	0.672968	5.08136	0.854334	6.42666	0.967176	7.27497
0.39769	2.98005	0.274148	2.0481	0.618578	4.62575	0.701922	5.26905	0.786538	5.91222	0.989399	7.40622	0.556446	4.15914	0.6761	5.06935	0.856429	6.39758	0.969528	7.24191
0.399134	2.97013	0.276225	2.04935	0.622163	4.62037	0.705447	5.25873	0.789363	5.89219	0.991321	7.36921	0.558967	4.14909	0.679245	5.0576	0.858537	6.369	0.971894	7.20941
0.40058	2.96036	0.278302	2.05058	0.625735	4.61496	0.70898	5.24862	0.792204	5.87255	0.993253	7.33279	0.561468	4.13903	0.682404	5.04611	0.860658	6.34091	0.974274	7.17747
0.402028	2.95075	0.280378	2.0518	0.629293	4.60953	0.712522	5.2387	0.795059	5.85329	0.995194	7.29692	0.563949	4.12897	0.685575	5.03487	0.862793	6.3133	0.976668	7.14605
0.403479	2.94128	0.282455	2.053	0.632836	4.60406	0.716072	5.22899	0.79793	5.83441	0.997144	7.26162	0.566411	4.11889	0.688759	5.02388	0.86494	6.28616	0.979076	7.11516
0.404932	2.93196	0.284531	2.05418	0.636365	4.59856	0.719631	5.21946	0.800817	5.8159	0.999103	7.22685	0.568853	4.10881	0.691955	5.01312	0.867101	6.25948	0.981497	7.08479
0.406387	2.92278	0.286607	2.05534	0.639879	4.59303	0.723197	5.21012	0.803719	5.79774	1.00107	7.19262	0.571275	4.09872	0.695163	5.00259	0.869274	6.23325	0.983931	7.05491
0.407845	2.91375	0.288683	2.05648	0.643378	4.58747	0.726771	5.20096	0.806637	5.77994			0.573679	4.08864	0.698382	4.99229	0.871461	6.20746	0.986379	7.02553
0.409306	2.90485	0.290758	2.05761	0.646861	4.58187	0.730352	5.19197	0.80957	5.76249			0.576063	4.07855	0.701611	4.98219	0.873661	6.1821	0.98884	6.99663
0.410769	2.89608	0.292834	2.05873	0.650329	4.57623	0.733941	5.18315	0.812519	5.74538			0.578429	4.06846	0.704852	4.97231	0.875873	6.15716	0.991315	6.9682
0.412235	2.88745	0.294909	2.05983	0.653781	4.57056	0.737537	5.1745	0.815483	5.7286			0.580777	4.05838	0.708102	4.96262	0.878099	6.13264	0.993802	6.94023
0.413704	2.87895	0.296985	2.06091	0.657217	4.56485	0.74114	5.16601	0.818464	5.71215			0.583106	4.0483	0.711362	4.95312	0.880337	6.10852	0.996302	6.91272
0.415175	2.87058	0.29906	2.06198	0.660638	4.5591	0.74475	5.15768	0.82146	5.69603			0.585418	4.03823	0.714631	4.94382	0.882588	6.08481	0.998816	6.88564
0.416649	2.86233	0.301134	2.06303	0.664041	4.55331	0.748366	5.14949	0.824472	5.68022			0.587712	4.02817	0.71791	4.93469	0.884852	6.06148	1.00134	6.859
0.418127	2.85421	0.303209	2.06407	0.667429	4.54749	0.751989	5.14146	0.8275	5.66472			0.589989	4.01812	0.721196	4.92573	0.887129	6.03854		
0.419607	2.84621	0.305284	2.0651	0.6708	4.54163	0.755618	5.13357	0.830544	5.64952			0.59225	4.00808	0.724491	4.91695	0.889418	6.01597		
0.421089	2.83833	0.307358	2.06611	0.674154	4.53572	0.759252	5.12582	0.833604	5.63463			0.594493	3.99805	0.727793	4.90832	0.891721	5.99377		
0.422575	2.83057	0.309433	2.0671	0.677491	4.52978	0.762892	5.1182	0.83668	5.62003			0.59672	3.98804	0.731103	4.89985	0.894035	5.97192		
0.424064	2.82293	0.311507	2.06809	0.680812	4.5238	0.766538	5.11071	0.839773	5.60572			0.598931	3.97805	0.734419	4.89154	0.896363	5.95044		
0.425556	2.81539	0.313581	2.06906	0.684115	4.51779	0.770189	5.10335	0.842881	5.59169			0.601127	3.96807	0.737741	4.88336	0.898702	5.9293		
0.42705	2.80797	0.315655	2.07002	0.687402	4.51173	0.773845	5.09611	0.846005	5.57794			0.603307	3.95812	0.74107	4.87533	0.901055	5.9085		
0.428548	2.80066	0.317728	2.07096	0.690671	4.50563	0.777505	5.08899	0.849146	5.56446			0.605471	3.94819	0.744404	4.86742	0.903419	5.88803		
0.430049	2.79346	0.319802	2.0719	0.693923	4.4995	0.78117	5.08199	0.852303	5.55126			0.607621	3.93828	0.747743	4.85965	0.905796	5.86789		
0.431552	2.78637	0.321875	2.07282	0.697158	4.49333	0.784839	5.0751	0.855476	5.53832			0.609756	3.9284	0.751087	4.852	0.908186	5.84807		
0.433059	2.77938	0.323949	2.07373	0.700375	4.48712	0.788512	5.06831	0.858665	5.52563			0.611877	3.91854	0.754435	4.84448	0.910588	5.82857		
0.434569	2.77249	0.326022	2.07463	0.703575	4.48088	0.792188	5.06163	0.861871	5.51321			0.613984	3.90871	0.757787	4.83706	0.913002	5.80938		
0.436082	2.7657	0.328095	2.07551	0.706758	4.4746	0.795868	5.05505	0.865093	5.50103			0.616077	3.89891	0.761142	4.82976	0.915428	5.79049		
0.437597	2.75901	0.330168	2.07639	0.709924	4.46828	0.799551	5.04857	0.868331	5.4891			0.618157	3.88914	0.764501	4.82256	0.917866	5.7719		
0.439116	2.75242	0.332241	2.07725	0.713072	4.46193	0.803237	5.04218	0.871585	5.47742			0.620223	3.8794	0.767862	4.81546	0.920317	5.7536		
0.440638	2.74592	0.334313	2.07811	0.716203	4.45555	0.806925	5.03588	0.874856	5.46597			0.622277	3.86969	0.771226	4.80846	0.92278	5.73559		
0.442163	2.73952	0.336386	2.07895	0.719316	4.44913	0.810615	5.02966	0.878143	5.45475			0.624318	3.86002	0.774592	4.80155	0.925255	5.71786		
0.443692	2.73321	0.338458	2.07978	0.722413	4.44268	0.814308	5.02353	0.881447	5.44377			0.626346	3.85038	0.777959	4.79473	0.927742	5.70041		
0.445223	2.72699	0.340531	2.0806	0.725492	4.4362	0.818002	5.01748	0.884766	5.43301			0.628363	3.84078	0.781327	4.788	0.930241	5.68323		
0.446757	2.72086	0.342603	2.08142	0.728554	4.42968	0.821697	5.01151	0.888102	5.42247			0.630367	3.83122	0.784697	4.78135	0.932751	5.66631		
0.448294	2.71482	0.344675	2.08222	0.731599	4.42314	0.825394	5.00561	0.891455	5.41215			0.63236	3.82169	0.788066	4.77477	0.935274	5.64966		
0.449835	2.70887	0.346747	2.08301	0.734627	4.41657	0.829091	4.99978	0.894823	5.40204			0.634342	3.8122	0.791436	4.76828	0.937809	5.63327		
0.451378	2.70299	0.348819	2.0838	0.737638	4.40997	0.832789	4.99402	0.898207	5.39215			0.636313	3.80275	0.794806	4.76185	0.940355	5.61713		
0.452925	2.69721	0.350891	2.08457	0.740632	4.40334	0.836487	4.98833	0.901608	5.38246			0.638273	3.79334	0.798175	4.75549	0.942914	5.60124		
0.454474	2.6915	0.352963	2.08534	0.743609	4.39669	0.840185	4.9827	0.905025	5.37297			0.640222	3.78397	0.801543	4.74919	0.945484	5.58559		
0.456027	2.68588	0.355034	2.08609	0.74657	4.39001	0.843883	4.97713	0.908458	5.36368			0.642161	3.77465	0.80491	4.74296	0.948065	5.57018		
0.457583	2.68033	0.357106	2.08684	0.749514	4.38331	0.847581	4.97162	0.911906	5.35459			0.644089	3.76536	0.808275	4.73678	0.950659	5.55501		
0.459141	2.67486	0.359177	2.08758	0.752441	4.37658	0.851277	4.96616	0.915371	5.34568			0.646008	3.75612	0.811639	4.73066	0.953264	5.54007		
0.460703	2.66947	0.361248	2.08831	0.755353	4.36983	0.854973	4.96076	0.918851	5.33697			0.647918	3.74693	0.815	4.7246	0.955881	5.52536		
0.462268	2.66416	0.363319	2.08903	0.758247	4.36306	0.858667	4.9554	0.922347	5.32844			0.649817	3.73777	0.818359	4.71858	0.958509	5.51088		
0.463836	2.65891	0.36539	2.08974	0.761126	4.35627	0.86236	4.9501	0.925859	5.3201			0.651708	3.72867	0.821714	4.71261	0.961149	5.49661		
0.465406	2.65375	0.367462	2.09045	0.763989	4.34947	0.86605	4.94484	0.929386	5.31193			0.65359	3.7196	0.825067	4.70669	0.9638	5.48256		
0.46698	2.64865	0.369532	2.09115	0.766836	4.34264	0.869739	4.93962	0.932929	5.30393			0.655463	3.71059	0.828416	4.70081	0.966463	5.46872		
0.468557	2.64362	0.371603	2.09183	0.769667	4.33579	0.873425	4.93445	0.936487	5.29611			0.657327	3.70162	0.831761	4.69497	0.969138	5.4551		
0.470137	2.63866	0.373674	2.09252	0.772482	4.32893	0.877109	4.92931	0.94006	5.28845			0.659183	3.69269	0.835102	4.68917	0.971823	5.44168		
0.471719	2.63377	0.375744	2.09319	0.775282	4.32206	0.88079	4.92421	0.943649	5.28096			0.661031	3.68382	0.838439	4.68341	0.97452	5.42846		
0.473305	2.62895	0.377815	2.09386	0.778067	4.31517	0.884468	4.91915	0.947252	5.27362			0.66287	3.67499	0.841771	4.67767	0.977229	5.41544		
0.474893	2.62419	0.379885	2.09452	0.780836	4.30827	0.888143	4.91413	0.95087	5.26645			0.664703	3.66621	0.845098	4.67197	0.979948	5.40262		
0.476485	2.6195	0.381956	2.09517	0.78359	4.30135	0.891814	4.90913	0.954503	5.25943			0.666527	3.65748	0.84842	4.6663	0.982679	5.38999		
0.478079	2.61487	0.384026	2.09581	0.78633	4.29442	0.895481	4.90417	0.95815	5.25256			0.668344	3.64879	0.851736	4.66066	0.985422	5.37755		
0.479676	2.61031	0.386096	2.09645	0.789054	4.28749	0.899145	4.89924	0.961812	5.24584			0.670154	3.64016	0.855047	4.65504	0.988175	5.36529		
0.481276	2.6058	0.388166	2.09708	0.791764	4.28054	0.902805	4.89433	0.965487	5.23926			0.671957	3.63157	0.858351	4.64945	0.990939	5.35322		
0.482879	2.60136	0.390236	2.09771	0.794459	4.27359	0.906461	4.88945	0.969177	5.23283			0.673753	3.62304	0.86165	4.64388	0.993715	5.34133		
0.484485	2.59697	0.392306	2.09832	0.79714	4.26663	0.910112	4.8846	0.972881	5.22654			0.675542	3.61455	0.864942	4.63833	0.996501	5.32962		
0.486094	2.59265	0.394376	2.09894	0.799807	4.25966	0.913759	4.87977	0.976598	5.22038			0.677325	3.60611	0.868227	4.6328	0.999299	5.31808		
0.487705	2.58838	0.396446	2.09954	0.80246	4.25268	0.917401	4.87497	0.980329	5.21435			0.679101	3.59772	0.871505	4.62729	1.00211	5.30672		
0.489319	2.58417	0.398515	2.10014	0.805099	4.24571	0.921038	4.87018	0.984073	5.20845			0.680871	3.58938	0.874776	4.6218				
0.490936	2.58001	0.400585	2.10073	0.807724	4.23872	0.92467	4.86542	0.98783	5.20268			0.682636	3.5811	0.87804	4.61632				
0.492556	2.57591	0.402654	2.10132	0.810336	4.23174	0.928297	4.86067	0.991599	5.19703			0.684394	3.57286	0.881296	4.61085				
0.494179	2.57187	0.404724	2.1019	0.812934	4.22475	0.931918	4.85595	0.995382	5.19151			0.686147	3.56467	0.884544	4.60539				
0.495804	2.56788	0.406793	2.10247	0.815518	4.21776	0.935534	4.85124	0.999177	5.1861			0.687894	3.55653	0.887785	4.59995				
0.497432	2.56394	0.408862	2.10304	0.81809	4.21077	0.939145	4.84654	1.00298	5.1808			0.689635	3.54844	0.891017	4.59452				
0.499063	2.56005	0.410931	2.1036	0.820649	4.20378	0.94275	4.84187					0.691372	3.5404	0.89424	4.58909				
0.500696	2.55621	0.413001	2.10416	0.823194	4.19679	0.946349	4.83721					0.693103	3.53242	0.897455	4.58367				
0.502332	2.55242	0.41507	2.10471	0.825727	4.1898	0.949942	4.83256					0.694829	3.52448	0.900661	4.57826				
0.503971	2.54868	0.417139	2.10525	0.828248	4.18282	0.95353	4.82792					0.696551	3.51659	0.903858	4.57286				
0.505612	2.54499	0.419207	2.10579	0.830756	4.17583	0.957111	4.8233					0.698267	3.50875	0.907047	4.56746				
0.507256	2.54135	0.421276	2.10633	0.833251	4.16886	0.960686	4.81869					0.699979	3.50096	0.910226	4.56206				
0.508903	2.53775	0.423345	2.10685	0.835735	4.16188	0.964254	4.8141					0.701687	3.49323	0.913395	4.55667				
0.510552	2.5342	0.425414	2.10738	0.838206	4.15491	0.967817	4.80951					0.70339	3.48554	0.916555	4.55128				
0.512204	2.5307	0.427482	2.1079	0.840666	4.14795	0.971372	4.80493					0.705089	3.4779	0.919705	4.54589				
0.513858	2.52724	0.429551	2.10841	0.843114	4.14099	0.974922	4.80037					0.706784	3.47031	0.922846	4.5405				
0.515515	2.52382	0.431619	2.10892	0.845551	4.13404	0.978464	4.79581					0.708475	3.46277	0.925976	4.53512				
0.517175	2.52045	0.433688	2.10942	0.847976	4.1271	0.982	4.79126					0.710162	3.45529	0.929096	4.52973				
0.518837	2.51712	0.435756	2.10992	0.850389	4.12016	0.985529	4.78672					0.711845	3.44785	0.932207	4.52434				
0.520501	2.51383	0.437824	2.11041	0.852792	4.11323	0.989052	4.78219					0.713525	3.44046	0.935307	4.51895				
0.522168	2.51059	0.439892	2.1109	0.855183	4.10631	0.992567	4.77766					0.715201	3.43311	0.938396	4.51356				
0.523838	2.50738	0.44196	2.11139	0.857564	4.09941	0.996076	4.77314					0.716873	3.42582	0.941476	4.50817				
0.525509	2.50422	0.444028	2.11187	0.859934	4.09251	0.999577	4.76863					0.718543	3.41858	0.944544	4.50278				
0.527184	2.50109	0.446096	2.11234	0.862293	4.08562	1.00307	4.76413					0.720209	3.41138	0.947602	4.49738				
0.52886	2.498	0.448164	2.11281	0.864641	4.07874							0.721872	3.40424	0.95065	4.49198				
0.53054	2.49495	0.450232	2.11328	0.866979	4.07187							0.723531	3.39714	0.953686	4.48658				
0.532221	2.49194	0.4523	2.11374	0.869307	4.06502							0.725188	3.39009	0.956712	4.48117				
0.533905	2.48897	0.454368	2.1142	0.871625	4.05818							0.726843	3.38309	0.959727	4.47576				
0.535591	2.48603	0.456435	2.11465	0.873933	4.05135							0.728494	3.37613	0.962732	4.47035				
0.537279	2.48313	0.458503	2.1151	0.876231	4.04453							0.730143	3.36922	0.965725	4.46493				
0.53897	2.48027	0.46057	2.11555	0.878519	4.03773							0.731789	3.36236	0.968707	4.45951				
0.540663	2.47743	0.462638	2.11599	0.880797	4.03094							0.733432	3.35555	0.971679	4.45409				
0.542359	2.47464	0.464705	2.11643	0.883066	4.02416							0.735074	3.34878	0.974639	4.44866				
0.544056	2.47188	0.466773	2.11686	0.885326	4.0174							0.736712	3.34207	0.977589	4.44322				
0.545756	2.46915	0.46884	2.11729	0.887576	4.01066							0.738349	3.33539	0.980527	4.43779				
0.547458	2.46645	0.470907	2.11771	0.889817	4.00393							0.739984	3.32877	0.983454	4.43235				
0.549163	2.46379	0.472974	2.11813	0.892049	3.99721							0.741616	3.32219	0.986371	4.4269				
0.550869	2.46116	0.475041	2.11855	0.894271	3.99051							0.743246	3.31565	0.989276	4.42145				
0.552578	2.45856	0.477109	2.11897	0.896485	3.98383							0.744875	3.30916	0.992171	4.416				
0.554289	2.45599	0.479176	2.11938	0.89869	3.97716							0.746501	3.30272	0.995054	4.41054				
0.556002	2.45345	0.481243	2.11978	0.900887	3.97051							0.748126	3.29632	0.997927	4.40509				
0.557717	2.45094	0.483309	2.12019	0.903075	3.96388							0.749749	3.28996	1.00079	4.39962				
0.559434	2.44846	0.485376	2.12059	0.905255	3.95726							0.75137	3.28365						
0.561154	2.44602	0.487443	2.12098	0.907426	3.95066							0.75299	3.27739						
0.562875	2.4436	0.48951	2.12137	0.909589	3.94408							0.754608	3.27117						
0.564599	2.4412	0.491576	2.12176	0.911743	3.93752							0.756225	3.26499						
0.566325	2.43884	0.493643	2.12215	0.91389	3.93097							0.757841	3.25885						
0.568052	2.4365	0.49571	2.12253	0.916029	3.92444							0.759455	3.25276						
0.569782	2.4342	0.497776	2.12291	0.91816	3.91793							0.761067	3.24671						
0.571514	2.43191	0.499843	2.12329	0.920283	3.91144							0.762679	3.24071						
0.573247	2.42966	0.501909	2.12366	0.922399	3.90497							0.764289	3.23474						
0.574983	2.42743	0.503975	2.12403	0.924506	3.89852							0.765899	3.22882						
0.576721	2.42523	0.506042	2.1244	0.926607	3.89208							0.767507	3.22294						
0.57846	2.42305	0.508108	2.12476	0.9287	3.88567							0.769114	3.21711						
0.580202	2.4209	0.510174	2.12512	0.930786	3.87927							0.77072	3.21131						
0.581945	2.41877	0.51224	2.12548	0.932864	3.8729							0.772326	3.20555						
0.583691	2.41666	0.514306	2.12583	0.934936	3.86654							0.77393	3.19984						
0.585438	2.41458	0.516372	2.12619	0.937	3.86021							0.775534	3.19417						
0.587187	2.41253	0.518438	2.12653	0.939058	3.85389							0.777137	3.18853						
0.588938	2.41049	0.520504	2.12688	0.941109	3.84759							0.778739	3.18294						
0.590691	2.40848	0.52257	2.12722	0.943153	3.84132							0.780341	3.17739						
0.592446	2.4065	0.524636	2.12756	0.94519	3.83506							0.781942	3.17187						
0.594202	2.40453	0.526702	2.1279	0.94722	3.82883							0.783542	3.1664						
0.595961	2.40259	0.528767	2.12824	0.949245	3.82261							0.785142	3.16096						
0.597721	2.40067	0.530833	2.12857	0.951262	3.81642							0.786741	3.15556						
0.599483	2.39877	0.532899	2.1289	0.953274	3.81025							0.78834	3.1502						
0.601246	2.39689	0.534964	2.12922	0.955279	3.80409							0.789939	3.14488						
0.603012	2.39503	0.53703	2.12955	0.957278	3.79796							0.791537	3.1396						
0.604779	2.39319	0.539095	2.12987	0.95927	3.79185							0.793135	3.13436						
0.606548	2.39138	0.541161	2.13019	0.961257	3.78576							0.794732	3.12915						
0.608318	2.38958	0.543226	2.1305	0.963238	3.7797							0.79633	3.12398						
0.610091	2.3878	0.545292	2.13082	0.965213	3.77365							0.797927	3.11884						
0.611865	2.38605	0.547357	2.13113	0.967182	3.76762							0.799523	3.11374						
0.61364	2.38431	0.549422	2.13144	0.969145	3.76162							0.80112	3.10868						
0.615418	2.38259	0.551487	2.13175	0.971103	3.75564							0.802717	3.10366						
0.617197	2.38089	0.553552	2.13205	0.973055	3.74968							0.804313	3.09867						
0.618978	2.37921	0.555618	2.13235	0.975002	3.74374							0.80591	3.09371						
0.62076	2.37754	0.557683	2.13265	0.976943	3.73782							0.807506	3.0888						
0.622544	2.3759	0.559748	2.13295	0.978879	3.73192							0.809103	3.08391						
0.624329	2.37427	0.561813	2.13325	0.98081	3.72605							0.810699	3.07906						
0.626116	2.37266	0.563878	2.13354	0.982735	3.72019							0.812296	3.07425						
0.627905	2.37106	0.565942	2.13383	0.984655	3.71436							0.813892	3.06947						
0.629695	2.36949	0.568007	2.13412	0.98657	3.70855							0.815489	3.06472						
0.631487	2.36793	0.570072	2.1344	0.98848	3.70277							0.817086	3.06001						
0.63328	2.36639	0.572137	2.13469	0.990385	3.697							0.818683	3.05533						
0.635075	2.36486	0.574202	2.13497	0.992286	3.69125							0.820281	3.05068						
0.636872	2.36335	0.576266	2.13525	0.994181	3.68553							0.821878	3.04607						
0.638669	2.36186	0.578331	2.13553	0.996072	3.67983							0.823476	3.04149						
0.640469	2.36038	0.580395	2.1358	0.997958	3.67415							0.825074	3.03694						
0.64227	2.35891	0.58246	2.13608	0.999839	3.6685							0.826673	3.03242						
0.644072	2.35747	0.584524	2.13635	1.00172	3.66286							0.828271	3.02794						
0.645876	2.35603	0.586589	2.13662									0.82987	3.02349						
0.647681	2.35462	0.588653	2.13689									0.83147	3.01907						
0.649488	2.35321	0.590718	2.13715									0.833069	3.01468						
0.651296	2.35183	0.592782	2.13741									0.83467	3.01032						
0.653105	2.35045	0.594846	2.13768									0.83627	3.00599						
0.654916	2.34909	0.59691	2.13794									0.837872	3.00169						
0.656729	2.34775	0.598975	2.13819									0.839473	2.99743						
0.658542	2.34642	0.601039	2.13845									0.841075	2.99319						
0.660358	2.3451	0.603103	2.13871									0.842678	2.98898						
0.662174	2.3438	0.605167	2.13896									0.844281	2.9848						
0.663992	2.3425	0.607231	2.13921									0.845884	2.98065						
0.665811	2.34123	0.609295	2.13946									0.847489	2.97654						
0.667632	2.33996	0.611359	2.1397									0.849093	2.97244						
0.669453	2.33871	0.613423	2.13995									0.850699	2.96838						
0.671277	2.33747	0.615487	2.14019									0.852305	2.96435						
0.673101	2.33625	0.617551	2.14044									0.853911	2.96034						
0.674927	2.33503	0.619614	2.14068									0.855519	2.95637						
0.676754	2.33383	0.621678	2.14091									0.857126	2.95242						
0.678582	2.33264	0.623742	2.14115									0.858735	2.9485						
0.680412	2.33146	0.625805	2.14139									0.860344	2.9446						
0.682242	2.3303	0.627869	2.14162									0.861954	2.94073						
0.684075	2.32914	0.629933	2.14185									0.863565	2.93689						
0.685908	2.328	0.631996	2.14208									0.865176	2.93308						
0.687742	2.32687	0.63406	2.14231									0.866788	2.92929						
0.689578	2.32575	0.636123	2.14254									0.868401	2.92553						
0.691415	2.32464	0.638187	2.14276									0.870015	2.9218						
0.693253	2.32354	0.64025	2.14299									0.871629	2.91809						
0.695093	2.32245	0.642313	2.14321									0.873244	2.91441						
0.696933	2.32138	0.644377	2.14343									0.87486	2.91075						
0.698775	2.32031	0.64644	2.14365									0.876477	2.90711						
0.700618	2.31925	0.648503	2.14387									0.878094	2.90351						
0.702462	2.31821	0.650566	2.14409									0.879713	2.89992						
0.704307	2.31717	0.652629	2.1443									0.881332	2.89637						
0.706154	2.31615	0.654693	2.14452									0.882952	2.89283						
0.708001	2.31513	0.656756	2.14473									0.884573	2.88932						
0.70985	2.31413	0.658819	2.14494									0.886194	2.88584						
0.711699	2.31313	0.660882	2.14515									0.887817	2.88238						
0.71355	2.31215	0.662945	2.14536									0.889441	2.87894						
0.715402	2.31117	0.665008	2.14556									0.891065	2.87553						
0.717255	2.3102	0.66707	2.14577									0.89269	2.87213						
0.719109	2.30924	0.669133	2.14597									0.894316	2.86877						
0.720964	2.30829	0.671196	2.14618									0.895943	2.86542						
0.722821	2.30735	0.673259	2.14638									0.897571	2.8621						
0.724678	2.30642	0.675322	2.14658									0.8992	2.8588						
0.726536	2.3055	0.677384	2.14678									0.90083	2.85553						
0.728396	2.30459	0.679447	2.14697									0.902461	2.85227						
0.730256	2.30368	0.68151	2.14717									0.904092	2.84904						
0.732117	2.30279	0.683572	2.14737									0.905725	2.84583						
0.73398	2.3019	0.685635	2.14756									0.907359	2.84264						
0.735843	2.30102	0.687697	2.14775									0.908993	2.83947						
0.737708	2.30015	0.68976	2.14794									0.910629	2.83633						
0.739573	2.29929	0.691822	2.14813									0.912265	2.8332						
0.74144	2.29843	0.693885	2.14832									0.913903	2.8301						
0.743307	2.29759	0.695947	2.14851									0.915541	2.82701						
0.745176	2.29675	0.698009	2.1487									0.91718	2.82395						
0.747045	2.29592	0.700072	2.14888									0.918821	2.82091						
0.748916	2.29509	0.702134	2.14907									0.920462	2.81789						
0.750787	2.29428	0.704196	2.14925									0.922105	2.81489						
0.752659	2.29347	0.706258	2.14943									0.923748	2.81191						
0.754533	2.29267	0.70832	2.14961									0.925392	2.80895						
0.756407	2.29187	0.710382	2.14979									0.927038	2.80601						
0.758282	2.29109	0.712445	2.14997									0.928684	2.80308						
0.760158	2.29031	0.714507	2.15015									0.930331	2.80018						
0.762035	2.28954	0.716569	2.15032									0.93198	2.7973						
0.763913	2.28877	0.718631	2.1505									0.933629	2.79444						
0.765792	2.28801	0.720693	2.15067									0.93528	2.79159						
0.767671	2.28726	0.722754	2.15085									0.936931	2.78876						
0.769552	2.28652	0.724816	2.15102									0.938584	2.78596						
0.771433	2.28578	0.726878	2.15119									0.940237	2.78317						
0.773316	2.28505	0.72894	2.15136									0.941892	2.7804						
0.775199	2.28433	0.731002	2.15153									0.943548	2.77765						
0.777083	2.28361	0.733063	2.15169									0.945204	2.77491						
0.778968	2.2829	0.735125	2.15186									0.946862	2.7722						
0.780853	2.28219	0.737187	2.15203									0.948521	2.7695						
0.78274	2.28149	0.739248	2.15219									0.950181	2.76682						
0.784628	2.2808	0.74131	2.15236									0.951841	2.76416						
0.786516	2.28012	0.743371	2.15252									0.953503	2.76151						
0.788405	2.27944	0.745433	2.15268									0.955166	2.75888						
0.790295	2.27876	0.747494	2.15284									0.95683	2.75627						
0.792186	2.27809	0.749556	2.153									0.958495	2.75368						
0.794077	2.27743	0.751617	2.15316									0.960161	2.7511						
0.79597	2.27677	0.753679	2.15332									0.961829	2.74854						
0.797863	2.27612	0.75574	2.15347									0.963497	2.74599						
0.799757	2.27548	0.757801	2.15363									0.965166	2.74347						
0.801652	2.27484	0.759863	2.15379									0.966836	2.74096						
0.803547	2.27421	0.761924	2.15394									0.968508	2.73846						
0.805444	2.27358	0.763985	2.15409									0.97018	2.73598						
0.807341	2.27296	0.766046	2.15425									0.971854	2.73352						
0.809239	2.27234	0.768107	2.1544									0.973528	2.73107						
0.811137	2.27173	0.770168	2.15455									0.975204	2.72864						
0.813037	2.27112	0.772229	2.1547									0.976881	2.72623						
0.814937	2.27052	0.774291	2.15485									0.978559	2.72383						
0.816838	2.26992	0.776351	2.15499									0.980237	2.72144						
0.81874	2.26933	0.778412	2.15514									0.981917	2.71907						
0.820642	2.26875	0.780473	2.15529									0.983598	2.71672						
0.822545	2.26816	0.782534	2.15543									0.98528	2.71438						
0.824449	2.26759	0.784595	2.15558									0.986963	2.71205						
0.826354	2.26702	0.786656	2.15572									0.988647	2.70974						
0.828259	2.26645	0.788717	2.15586									0.990333	2.70745						
0.830165	2.26589	0.790778	2.15601									0.992019	2.70517						
0.832072	2.26533	0.792838	2.15615									0.993706	2.7029						
0.833979	2.26478	0.794899	2.15629									0.995395	2.70065						
0.835887	2.26424	0.79696	2.15643									0.997084	2.69841						
0.837796	2.26369	0.79902	2.15657									0.998775	2.69619						
0.839706	2.26316	0.801081	2.15671									1.00047	2.69398						
0.841616	2.26262	0.803141	2.15684																
0.843527	2.26209	0.805202	2.15698																
0.845438	2.26157	0.807262	2.15712																
0.84735	2.26105	0.809323	2.15725																
0.849263	2.26053	0.811383	2.15739																
0.851177	2.26002	0.813444	2.15752																
0.853091	2.25951	0.815504	2.15765																
0.855006	2.25901	0.817564	2.15778																
0.856922	2.25851	0.819625	2.15792																
0.858838	2.25802	0.821685	2.15805																
0.860755	2.25753	0.823745	2.15818																
0.862672	2.25704	0.825805	2.15831																
0.86459	2.25656	0.827865	2.15843																
0.866509	2.25608	0.829926	2.15856																
0.868428	2.25561	0.831986	2.15869																
0.870348	2.25514	0.834046	2.15881																
0.872269	2.25467	0.836106	2.15894																
0.87419	2.25421	0.838166	2.15907																
0.876112	2.25375	0.840226	2.15919																
0.878034	2.25329	0.842286	2.15931																
0.879957	2.25284	0.844346	2.15944																
0.881881	2.25239	0.846405	2.15956																
0.883805	2.25195	0.848465	2.15968																
0.88573	2.25151	0.850525	2.1598																
0.887655	2.25107	0.852585	2.15992																
0.889581	2.25064	0.854645	2.16004																
0.891507	2.25021	0.856704	2.16016																
0.893435	2.24978	0.858764	2.16028																
0.895362	2.24936	0.860824	2.1604																
0.89729	2.24894	0.862883	2.16051																
0.899219	2.24852	0.864943	2.16063																
0.901149	2.24811	0.867002	2.16075																
0.903078	2.2477	0.869062	2.16086																
0.905009	2.24729	0.871121	2.16098																
0.90694	2.24689	0.873181	2.16109																
0.908872	2.24649	0.87524	2.1612																
0.910804	2.24609	0.877299	2.16132																
0.912736	2.2457	0.879359	2.16143																
0.914669	2.24531	0.881418	2.16154																
0.916603	2.24492	0.883477	2.16165																
0.918537	2.24454	0.885537	2.16176																
0.920472	2.24415	0.887596	2.16187																
0.922407	2.24378	0.889655	2.16198																
0.924343	2.2434	0.891714	2.16209																
0.926279	2.24303	0.893773	2.1622																
0.928216	2.24266	0.895832	2.1623																
0.930154	2.24229	0.897891	2.16241																
0.932091	2.24193	0.89995	2.16252																
0.93403	2.24157	0.902009	2.16262																
0.935969	2.24121	0.904068	2.16273																
0.937908	2.24085	0.906127	2.16283																
0.939848	2.2405	0.908186	2.16294																
0.941788	2.24015	0.910245	2.16304																
0.943729	2.2398	0.912304	2.16315																
0.94567	2.23946	0.914363	2.16325																
0.947612	2.23912	0.916421	2.16335																
0.949554	2.23878	0.91848	2.16345																
0.951497	2.23844	0.920539	2.16355																
0.95344	2.23811	0.922598	2.16365																
0.955383	2.23777	0.924656	2.16375																
0.957328	2.23744	0.926715	2.16385																
0.959272	2.23712	0.928773	2.16395																
0.961217	2.23679	0.930832	2.16405																
0.963163	2.23647	0.932891	2.16415																
0.967055	2.23584	0.934949	2.16425																
0.969002	2.23552	0.937007	2.16434																
0.970949	2.23521	0.939066	2.16444																
0.972897	2.2349	0.941124	2.16454																
0.974845	2.23459	0.943183	2.16463																
0.976794	2.23429	0.945241	2.16473																
0.978743	2.23398	0.947299	2.16482																
0.980692	2.23368	0.949357	2.16492																
0.982642	2.23339	0.951416	2.16501																
0.984592	2.23309	0.953474	2.1651																
0.986543	2.2328	0.955532	2.1652																
0.988494	2.2325	0.95759	2.16529																
0.990446	2.23222	0.959648	2.16538																
0.992398	2.23193	0.961706	2.16547																
0.99435	2.23164	0.963764	2.16556																
0.996303	2.23136	0.965822	2.16565																
0.998257	2.23108	0.96788	2.16574																
1.00021	2.2308	0.969938	2.16583																
		0.971996	2.16592																
		0.974054	2.16601																
		0.976112	2.1661																
		0.97817	2.16619																
		0.980228	2.16627																
		0.982285	2.16636																
		0.984343	2.16645																
		0.986401	2.16653																
		0.988459	2.16662																
		0.990516	2.16671																
		0.992574	2.16679																
		0.994631	2.16688																
		0.996689	2.16696																
		0.998746	2.16704																
		1.0008	2.16713																
