Sym0		Asym0		Sym1		Sym2		Sym3		Sym4		Asym1		Asym2		Asym3		Asym4	
482  Points		499  Points		278  Points		230  Points		213  Points		151  Points		384  Points		244  Points		204  Points		155  Points	
Freq (MHz)	Vph (m/ms)	Freq (MHz)	Vph (m/ms)	Freq (MHz)	Vph (m/ms)	Freq (MHz)	Vph (m/ms)	Freq (MHz)	Vph (m/ms)	Freq (MHz)	Vph (m/ms)	Freq (MHz)	Vph (m/ms)	Freq (MHz)	Vph (m/ms)	Freq (MHz)	Vph (m/ms)	Freq (MHz)	Vph (m/ms)
0.00349294	4.52905	0.000238356	0.125011	0.279526	321.443	0.424073	659.33	0.559024	853.146	0.838531	1118.56	0.139759	619.173	0.419263	5597.36	0.698772	2244.34	0.848136	3026.68
0.00771255	4.529	0.00052689	0.185631	0.279584	155.213	0.424102	269.291	0.559059	352.286	0.838554	498.739	0.139869	120.846	0.419283	416.534	0.698788	562.159	0.848146	699.839
0.0119319	4.52888	0.000926094	0.245644	0.279683	102.336	0.424155	169.217	0.559122	221.994	0.838593	320.926	0.140128	67.0754	0.419337	216.344	0.698823	321.336	0.848167	395.672
0.0161508	4.52871	0.00143363	0.304914	0.279823	76.3566	0.424232	123.385	0.559214	162.075	0.83865	236.59	0.140533	46.5219	0.419426	146.142	0.698877	224.977	0.848201	275.81
0.020369	4.52846	0.00204648	0.363272	0.280002	60.9181	0.424333	97.102	0.559335	127.643	0.838724	187.364	0.141084	35.6949	0.419549	110.359	0.698949	173.087	0.848247	211.691
0.0245866	4.52816	0.00276116	0.420578	0.280223	50.6908	0.424458	80.0613	0.559485	105.291	0.838816	155.103	0.141777	29.0277	0.419707	88.6697	0.699041	140.657	0.848305	171.767
0.0288032	4.52781	0.00357374	0.476699	0.280483	43.4199	0.424608	68.1186	0.559663	89.6118	0.838924	132.326	0.142609	24.5205	0.419899	74.1207	0.699152	118.47	0.848375	144.518
0.0330187	4.52739	0.00448003	0.531531	0.280783	37.9874	0.424781	59.2852	0.55987	78.0077	0.83905	115.389	0.143576	21.2781	0.420125	63.6866	0.699281	102.336	0.848456	124.735
0.037233	4.52693	0.00547562	0.584987	0.281123	33.776	0.42498	52.4877	0.560106	69.0737	0.839193	102.301	0.144674	18.8396	0.420386	55.8395	0.699429	90.0757	0.84855	109.72
0.0414458	4.52639	0.00655577	0.636981	0.281502	30.4167	0.425202	47.0959	0.56037	61.9843	0.839353	91.8841	0.145899	16.9434	0.420681	49.7249	0.699597	80.4448	0.848657	97.9354
0.0456572	4.52581	0.00771578	0.687459	0.28192	27.6757	0.42545	42.7153	0.560662	56.2225	0.83953	83.3976	0.147246	15.4302	0.421009	44.8271	0.699783	72.6798	0.848775	88.4401
0.0498667	4.52516	0.0089509	0.736377	0.282377	25.3977	0.425722	39.0864	0.560983	51.448	0.839725	76.3505	0.148709	14.1975	0.421372	40.8166	0.699988	66.2867	0.848905	80.6264
0.0540743	4.52445	0.0102565	0.783719	0.282873	23.4751	0.426019	36.0315	0.561332	47.4275	0.839937	70.4055	0.150285	13.1759	0.421768	37.473	0.700211	60.932	0.849047	74.0843
0.0582798	4.52368	0.011628	0.829463	0.283407	21.8314	0.426341	33.4248	0.56171	43.996	0.840165	65.3231	0.151967	12.3172	0.422198	34.6435	0.700454	56.3819	0.849202	68.5268
0.062483	4.52285	0.0130609	0.873612	0.283979	20.4106	0.426689	31.1749	0.562116	41.0334	0.840411	60.9286	0.153751	11.5869	0.422662	32.2184	0.700715	52.4681	0.849369	63.7475
0.0666836	4.52195	0.0145507	0.916168	0.284588	19.1706	0.427061	29.2135	0.56255	38.45	0.840674	57.0913	0.155632	10.9591	0.423159	30.1174	0.700995	49.066	0.849548	59.5938
0.0708816	4.52099	0.0160934	0.957156	0.285234	18.0794	0.42746	27.4888	0.563012	36.1778	0.840954	53.7118	0.157605	10.4147	0.42369	28.2799	0.701294	46.0818	0.849739	55.9505
0.0750767	4.51996	0.0176852	0.9966	0.285916	17.1121	0.427884	25.9607	0.563501	34.1639	0.841251	50.713	0.159665	9.93895	0.424253	26.6596	0.701611	43.443	0.849942	52.7291
0.0792687	4.51886	0.0193221	1.03453	0.286635	16.2491	0.428333	24.5975	0.564019	32.367	0.841565	48.0341	0.161527	9.57117	0.42485	25.2205	0.701947	41.0932	0.850158	49.8605
0.0834574	4.5177	0.0210007	1.07098	0.287389	15.4745	0.428809	23.3742	0.564564	30.7539	0.841896	45.6266	0.163162	9.28719	0.42548	23.9341	0.702302	38.9874	0.850386	47.2898
0.0876425	4.51646	0.0227178	1.106	0.288179	14.7758	0.429312	22.2706	0.565137	29.2982	0.842244	43.4515	0.164546	9.07047	0.426142	22.7776	0.702675	37.0898	0.850626	44.9731
0.0918238	4.51515	0.0244702	1.13962	0.289003	14.1424	0.42984	21.27	0.565737	27.9779	0.842609	41.4767	0.16566	8.90961	0.426836	21.7325	0.703067	35.371	0.850879	42.8745
0.0960011	4.51377	0.026255	1.17189	0.289861	13.5659	0.430396	20.3589	0.566365	26.7753	0.842991	39.6759	0.16649	8.79681	0.427563	20.7836	0.703477	33.807	0.851144	40.9647
0.100174	4.5123	0.0280696	1.20286	0.290753	13.0391	0.430979	19.5259	0.56702	25.6753	0.84339	38.0271	0.167026	8.72692	0.428322	19.9184	0.703906	32.3779	0.851421	39.2194
0.104342	4.51076	0.0299114	1.23258	0.291678	12.5559	0.431588	18.7616	0.567702	24.6656	0.843806	36.5121	0.167802	8.62946	0.429113	19.1265	0.704352	31.067	0.851711	37.6183
0.108506	4.50914	0.0317782	1.26109	0.292635	12.1114	0.432226	18.0579	0.568411	23.7356	0.844238	35.1151	0.168654	8.52737	0.429936	18.3991	0.704818	29.8604	0.852014	36.1442
0.112665	4.50743	0.0336678	1.28844	0.293625	11.7011	0.432891	17.4081	0.569147	22.8763	0.844688	33.8231	0.169827	8.39458	0.43079	17.7287	0.705301	28.7462	0.852328	34.7828
0.116818	4.50564	0.0355782	1.31467	0.294646	11.3215	0.433584	16.8062	0.569909	22.0801	0.845154	32.6246	0.171332	8.23597	0.431675	17.1091	0.705803	27.7143	0.852656	33.5216
0.120965	4.50375	0.0375078	1.33984	0.295698	10.9692	0.434305	16.2474	0.570698	21.3403	0.845637	31.51	0.173183	8.0569	0.432591	16.5349	0.706323	26.7558	0.852996	32.3501
0.125106	4.50178	0.0394547	1.36399	0.29678	10.6416	0.435054	15.7273	0.571513	20.6513	0.846136	30.4708	0.175397	7.8629	0.433538	16.0012	0.70686	25.8634	0.853349	31.2589
0.129241	4.49971	0.0414174	1.38717	0.297893	10.3362	0.435833	15.2421	0.572355	20.0081	0.846653	29.4996	0.177991	7.65927	0.434515	15.5041	0.707416	25.0305	0.853714	30.2402
0.133369	4.49754	0.0433945	1.40941	0.299035	10.0509	0.43664	14.7885	0.573223	19.4064	0.847186	28.59	0.180639	7.47359	0.435523	15.0401	0.70799	24.2513	0.854092	29.2871
0.13749	4.49526	0.0453848	1.43075	0.300206	9.78384	0.437477	14.3636	0.574116	18.8423	0.847735	27.7365	0.183338	7.30374	0.436561	14.606	0.708582	23.5209	0.854483	28.3934
0.141603	4.49288	0.047387	1.45125	0.301249	9.56477	0.438343	13.9648	0.575035	18.3125	0.848301	26.934	0.186086	7.14791	0.437628	14.1991	0.709192	22.8349	0.854886	27.5537
0.145708	4.4904	0.0494	1.47093	0.302156	9.38727	0.43924	13.59	0.57598	17.8141	0.848884	26.1781	0.18888	7.00456	0.438725	13.817	0.709819	22.1895	0.855303	26.7635
0.149805	4.48779	0.0514229	1.48983	0.302918	9.24651	0.440166	13.2371	0.57695	17.3443	0.849483	25.4649	0.191718	6.87235	0.439851	13.4576	0.710464	21.5811	0.855732	26.0184
0.153893	4.48506	0.0534547	1.50799	0.303527	9.13888	0.441122	12.9043	0.577946	16.9008	0.850098	24.7909	0.194598	6.75013	0.441006	13.119	0.711127	21.0067	0.856174	25.3147
0.157971	4.48222	0.0552318	1.52323	0.303979	9.0617	0.442109	12.59	0.578966	16.4816	0.85073	24.1531	0.197517	6.63688	0.44219	12.7994	0.711807	20.4636	0.85663	24.6491
0.162039	4.47924	0.0567512	1.53582	0.30427	9.01317	0.443127	12.2928	0.580012	16.0848	0.851378	23.5486	0.200473	6.53173	0.443402	12.4975	0.712505	19.9493	0.857098	24.0187
0.166097	4.47612	0.0580105	1.54596	0.304692	8.94453	0.444176	12.0115	0.581082	15.7086	0.852043	22.9749	0.203464	6.43389	0.444642	12.2117	0.71322	19.4616	0.857579	23.4207
0.170144	4.47287	0.059008	1.5538	0.305153	8.87141	0.445257	11.7448	0.582176	15.3515	0.852724	22.4298	0.20649	6.34269	0.44591	11.941	0.713952	18.9986	0.858074	22.8527
0.174178	4.46947	0.0597423	1.55947	0.305785	8.77436	0.446369	11.4917	0.583295	15.0122	0.853421	21.9112	0.209547	6.25752	0.447205	11.6842	0.714702	18.5585	0.858582	22.3126
0.178201	4.46591	0.0602127	1.56306	0.306594	8.65544	0.447513	11.2513	0.584438	14.6894	0.854134	21.4171	0.212635	6.17785	0.448528	11.4403	0.715469	18.1395	0.859103	21.7983
0.18221	4.46219	0.0608894	1.56817	0.307586	8.51702	0.448688	11.0226	0.585605	14.3819	0.854863	20.9461	0.215752	6.10319	0.449877	11.2083	0.716253	17.7403	0.859637	21.3082
0.186205	4.45831	0.0616256	1.57364	0.308768	8.36177	0.449896	10.805	0.586796	14.0888	0.855608	20.4964	0.218896	6.03313	0.451254	10.9876	0.717054	17.3596	0.860185	20.8404
0.190185	4.45425	0.062628	1.58097	0.310149	8.19245	0.451137	10.5977	0.588011	13.8091	0.85637	20.0668	0.222066	5.96728	0.452656	10.7772	0.717872	16.996	0.860746	20.3937
0.19415	4.45	0.0638974	1.59004	0.311556	8.03194	0.45241	10.3999	0.589249	13.5418	0.857147	19.6559	0.225262	5.9053	0.454085	10.5766	0.718707	16.6486	0.861321	19.9666
0.197592	4.44615	0.0654348	1.60073	0.312988	7.87961	0.453715	10.2113	0.59051	13.2863	0.85794	19.2625	0.228481	5.84689	0.45554	10.3851	0.719558	16.3161	0.861909	19.5578
0.200515	4.44274	0.0672415	1.61289	0.314447	7.7349	0.455054	10.031	0.591794	13.0418	0.858749	18.8856	0.231723	5.79176	0.45702	10.2022	0.720426	15.9978	0.862511	19.1662
0.202925	4.43984	0.0693185	1.62636	0.31593	7.59728	0.456426	9.8588	0.593101	12.8077	0.859574	18.5242	0.234987	5.73967	0.458525	10.0272	0.721311	15.6928	0.863127	18.7909
0.204826	4.43749	0.071399	1.63934	0.317439	7.46629	0.457648	9.71483	0.594431	12.5832	0.860414	18.1774	0.238271	5.69039	0.460055	9.8598	0.722213	15.4003	0.863756	18.4307
0.206221	4.43573	0.0734827	1.65185	0.318974	7.34151	0.45871	9.59639	0.595783	12.3679	0.861271	17.8442	0.241574	5.6437	0.461408	9.71968	0.723131	15.1195	0.864399	18.0849
0.207112	4.43458	0.0755692	1.6639	0.320535	7.22254	0.459602	9.50128	0.597158	12.1612	0.862143	17.524	0.244896	5.59943	0.462577	9.60426	0.724065	14.8497	0.865056	17.7526
0.208391	4.43292	0.0776583	1.67553	0.322121	7.10904	0.460316	9.42785	0.598554	11.9627	0.86303	17.216	0.248236	5.55741	0.463553	9.5115	0.725015	14.5904	0.865727	17.4331
0.209779	4.43109	0.0797497	1.68674	0.323734	7.00068	0.460846	9.37482	0.599973	11.7718	0.863933	16.9196	0.251593	5.51747	0.464331	9.43982	0.725982	14.341	0.866412	17.1256
0.211663	4.42854	0.081843	1.69757	0.325373	6.89716	0.461188	9.3413	0.601413	11.5883	0.864851	16.634	0.254965	5.47947	0.464907	9.38802	0.726964	14.1009	0.867111	16.8294
0.214038	4.42524	0.083938	1.70801	0.327038	6.79821	0.461682	9.29368	0.602875	11.4116	0.865785	16.3588	0.258353	5.44329	0.465277	9.35526	0.727963	13.8696	0.867824	16.5441
0.216899	4.42113	0.0860344	1.7181	0.328732	6.70358	0.462223	9.24266	0.604358	11.2414	0.866734	16.0935	0.261755	5.4088	0.465811	9.3087	0.728978	13.6467	0.868551	16.269
0.220239	4.41613	0.0881322	1.72785	0.330453	6.61303	0.462966	9.1745	0.605862	11.0774	0.867699	15.8374	0.265171	5.37589	0.466395	9.2588	0.730008	13.4317	0.869292	16.0036
0.22405	4.41015	0.0902312	1.73726	0.332202	6.52636	0.463916	9.09024	0.607388	10.9193	0.868678	15.5902	0.268601	5.34446	0.467193	9.19207	0.731054	13.2242	0.870048	15.7474
0.227835	4.40389	0.092331	1.74637	0.333981	6.44338	0.465083	8.99116	0.608934	10.7667	0.869673	15.3513	0.272042	5.31442	0.468211	9.10951	0.732116	13.0239	0.870818	15.5
0.231594	4.39735	0.0944317	1.75517	0.335791	6.36389	0.466475	8.87871	0.610501	10.6195	0.870683	15.1205	0.275495	5.28568	0.469453	9.01232	0.733193	12.8305	0.871602	15.2609
0.235324	4.3905	0.096533	1.76368	0.337631	6.28775	0.468104	8.75447	0.612088	10.4773	0.871708	14.8972	0.27896	5.25815	0.470926	8.90186	0.734285	12.6434	0.872401	15.0297
0.239024	4.38334	0.0986349	1.77192	0.339504	6.21479	0.469767	8.6351	0.613695	10.3399	0.872747	14.6812	0.282435	5.23177	0.472638	8.77959	0.735393	12.4626	0.873215	14.806
0.242693	4.37586	0.100737	1.7799	0.34141	6.14488	0.471462	8.52035	0.615323	10.2071	0.873802	14.4722	0.28592	5.20647	0.474372	8.6619	0.736517	12.2876	0.874043	14.5896
0.246329	4.36804	0.10284	1.78762	0.34335	6.07788	0.473192	8.41	0.61697	10.0787	0.874872	14.2697	0.289414	5.18218	0.476128	8.54853	0.737655	12.1182	0.874886	14.38
0.249929	4.35986	0.104943	1.7951	0.345327	6.01368	0.474955	8.30383	0.618422	9.97015	0.875956	14.0735	0.292917	5.15884	0.477907	8.43929	0.738808	11.9542	0.875744	14.177
0.253494	4.35131	0.107046	1.80235	0.34734	5.95217	0.476751	8.20163	0.619671	9.88005	0.877055	13.8833	0.296428	5.1364	0.479706	8.33395	0.739977	11.7953	0.876616	13.9803
0.257019	4.34239	0.109149	1.80937	0.349392	5.89324	0.47858	8.10322	0.620712	9.80716	0.878169	13.6989	0.299947	5.1148	0.481527	8.23233	0.74116	11.6413	0.877504	13.7895
0.260505	4.33307	0.111252	1.81619	0.351484	5.8368	0.480442	8.00841	0.621541	9.75053	0.879297	13.52	0.303474	5.094	0.483369	8.13425	0.742358	11.4919	0.878406	13.6045
0.263948	4.32334	0.113355	1.82279	0.353617	5.78275	0.482337	7.91705	0.622153	9.70944	0.880439	13.3464	0.307007	5.07396	0.485231	8.03955	0.743571	11.347	0.879324	13.425
0.267347	4.3132	0.115458	1.8292	0.355793	5.73102	0.484265	7.82896	0.622546	9.68339	0.881596	13.1778	0.310546	5.05462	0.487114	7.94805	0.744799	11.2064	0.880256	13.2508
0.270701	4.30262	0.11756	1.83542	0.358014	5.68153	0.486225	7.74401	0.623112	9.64627	0.882768	13.0141	0.314091	5.03596	0.489018	7.85962	0.746041	11.0699	0.881204	13.0816
0.274007	4.29162	0.119663	1.84147	0.360281	5.63419	0.488218	7.66205	0.62373	9.60636	0.883953	12.855	0.317642	5.01793	0.490941	7.77412	0.747297	10.9374	0.882167	12.9172
0.277263	4.28016	0.121765	1.84733	0.362595	5.58895	0.490242	7.58295	0.624575	9.55279	0.885153	12.7004	0.321198	5.0005	0.492883	7.69141	0.748568	10.8086	0.883145	12.7575
0.280469	4.26826	0.123867	1.85303	0.364957	5.54573	0.492299	7.50658	0.62565	9.48619	0.886368	12.55	0.324758	4.98363	0.494846	7.61136	0.749853	10.6834	0.884139	12.6022
0.283622	4.2559	0.125969	1.85857	0.36737	5.50446	0.494387	7.43282	0.626959	9.40732	0.887596	12.4038	0.328322	4.96731	0.496827	7.53388	0.751152	10.5617	0.885148	12.4513
0.286721	4.24309	0.12807	1.86395	0.369834	5.46509	0.496506	7.36157	0.628508	9.31705	0.888838	12.2615	0.33189	4.95149	0.498827	7.45883	0.752466	10.4434	0.886172	12.3044
0.289765	4.22982	0.130172	1.86918	0.37235	5.42754	0.498656	7.29271	0.630302	9.21636	0.890094	12.123	0.335461	4.93615	0.500846	7.38612	0.753793	10.3283	0.887212	12.1615
0.292753	4.21609	0.132272	1.87427	0.37492	5.39177	0.500838	7.22614	0.632115	9.11864	0.891364	11.9882	0.339035	4.92127	0.502884	7.31565	0.754961	10.2305	0.888268	12.0224
0.295684	4.20192	0.134373	1.87922	0.377543	5.35771	0.503049	7.16178	0.633946	9.02378	0.892647	11.8569	0.342611	4.90682	0.50494	7.24733	0.755965	10.1489	0.889339	11.887
0.298558	4.18732	0.136473	1.88404	0.38022	5.32529	0.505291	7.09952	0.635796	8.93165	0.893945	11.729	0.346189	4.89278	0.507014	7.18107	0.756802	10.0826	0.890426	11.7552
0.301373	4.17228	0.138572	1.88874	0.382952	5.29446	0.507562	7.03928	0.637663	8.84215	0.895256	11.6043	0.349769	4.87913	0.509105	7.11678	0.757466	10.031	0.891529	11.6267
0.30413	4.15684	0.140671	1.8933	0.385738	5.26516	0.509863	6.98099	0.639548	8.75517	0.896581	11.4828	0.35335	4.86585	0.511215	7.05439	0.757957	9.99348	0.892648	11.5016
0.30683	4.14099	0.14277	1.89775	0.388579	5.23733	0.512192	6.92455	0.64145	8.67063	0.897919	11.3643	0.356932	4.85291	0.513342	6.99382	0.758272	9.96964	0.893782	11.3796
0.309471	4.12478	0.144868	1.90209	0.391473	5.21091	0.514551	6.8699	0.64337	8.58841	0.89927	11.2488	0.360514	4.8403	0.515486	6.935	0.758726	9.93562	0.894933	11.2607
0.312055	4.1082	0.146966	1.90631	0.394421	5.18583	0.516937	6.81697	0.645307	8.50845	0.900635	11.1361	0.364097	4.82801	0.517647	6.87787	0.759222	9.89897	0.896099	11.1447
0.314583	4.09129	0.149063	1.91043	0.397421	5.16205	0.519352	6.76568	0.647261	8.43065	0.902013	11.0261	0.367679	4.81601	0.519825	6.82235	0.759898	9.84967	0.897282	11.0316
0.317055	4.07408	0.15116	1.91444	0.400473	5.13949	0.521794	6.71598	0.649232	8.35493	0.903405	10.9188	0.371261	4.80429	0.52202	6.76839	0.760758	9.78821	0.89848	10.9212
0.319473	4.05658	0.153257	1.91836	0.403575	5.1181	0.524263	6.6678	0.65122	8.28122	0.904809	10.814	0.374841	4.79284	0.524231	6.71593	0.761805	9.71516	0.899695	10.8135
0.321837	4.03883	0.155353	1.92218	0.406725	5.09782	0.526759	6.62109	0.653224	8.20945	0.906227	10.7116	0.37842	4.78164	0.526459	6.66492	0.763042	9.63122	0.900926	10.7084
0.324151	4.02085	0.157449	1.92591	0.409923	5.07859	0.529281	6.57578	0.655245	8.13954	0.907658	10.6117	0.381997	4.77067	0.528702	6.6153	0.764475	9.53715	0.902173	10.6058
0.326415	4.00267	0.159544	1.92955	0.413166	5.06036	0.531829	6.53183	0.657283	8.07143	0.908915	10.5265	0.385572	4.75994	0.530962	6.56702	0.765921	9.4454	0.903274	10.5183
0.32863	3.98432	0.161639	1.9331	0.416453	5.04307	0.534403	6.48919	0.659336	8.00506	0.909994	10.4551	0.389145	4.74941	0.533238	6.52004	0.76738	9.3559	0.904221	10.4452
0.3308	3.96582	0.163733	1.93657	0.419782	5.02667	0.537002	6.4478	0.661406	7.94037	0.910892	10.3971	0.392715	4.73909	0.53553	6.4743	0.768853	9.26857	0.905012	10.3856
0.332925	3.94721	0.165827	1.93995	0.423151	5.0111	0.539625	6.40761	0.663491	7.8773	0.911606	10.3518	0.396281	4.72896	0.537837	6.42978	0.770338	9.18333	0.905641	10.3392
0.335007	3.92851	0.16792	1.94326	0.426558	4.99633	0.542273	6.3686	0.665593	7.81579	0.912132	10.3188	0.399844	4.71901	0.54016	6.38641	0.771837	9.10013	0.906106	10.3053
0.337049	3.90973	0.170013	1.9465	0.430002	4.98229	0.544944	6.3307	0.66771	7.7558	0.91247	10.2978	0.403402	4.70923	0.542499	6.34418	0.773349	9.01888	0.906405	10.2838
0.339052	3.89092	0.172106	1.94966	0.43348	4.96895	0.547639	6.29389	0.669843	7.69727	0.912957	10.2678	0.406957	4.6996	0.544853	6.30303	0.774873	8.93952	0.906836	10.2531
0.341019	3.87209	0.174198	1.95275	0.43699	4.95626	0.550357	6.25811	0.671991	7.64016	0.913487	10.2355	0.410506	4.69013	0.547222	6.26293	0.776411	8.86201	0.907307	10.22
0.34295	3.85325	0.17629	1.95577	0.440532	4.94418	0.553098	6.22335	0.674154	7.58441	0.914211	10.1919	0.414051	4.6808	0.549606	6.22385	0.777961	8.78626	0.90795	10.1753
0.344849	3.83445	0.178381	1.95873	0.444102	4.93267	0.555861	6.18955	0.676333	7.53	0.915132	10.1375	0.41759	4.6716	0.552005	6.18576	0.779524	8.71224	0.908769	10.1196
0.346716	3.81568	0.180472	1.96162	0.447699	4.92169	0.558646	6.15669	0.678526	7.47686	0.916251	10.0726	0.421123	4.66253	0.55442	6.14862	0.781099	8.63988	0.909769	10.0533
0.348554	3.79697	0.182563	1.96445	0.451322	4.91122	0.561452	6.12473	0.680735	7.42497	0.917572	9.99793	0.424649	4.65357	0.556849	6.1124	0.782688	8.56914	0.910952	9.97682
0.350363	3.77834	0.184653	1.96722	0.454969	4.90121	0.56428	6.09364	0.682958	7.37428	0.9191	9.91393	0.428169	4.64472	0.559293	6.07708	0.784289	8.49996	0.912326	9.89094
0.352147	3.75979	0.186743	1.96993	0.458638	4.89163	0.567128	6.06339	0.685196	7.32476	0.920641	9.83174	0.431682	4.63598	0.561753	6.04263	0.785902	8.4323	0.913716	9.80695
0.353905	3.74135	0.188832	1.97258	0.462327	4.88247	0.569996	6.03395	0.687449	7.27637	0.922193	9.7513	0.435188	4.62733	0.564227	6.00902	0.787528	8.36612	0.915123	9.72481
0.355641	3.72303	0.190921	1.97518	0.466036	4.87368	0.572884	6.00529	0.689717	7.22908	0.923758	9.67256	0.438686	4.61876	0.566715	5.97623	0.789166	8.30136	0.916546	9.64445
0.357354	3.70483	0.19301	1.97773	0.469762	4.86525	0.575792	5.9774	0.691998	7.18285	0.925335	9.59546	0.442175	4.61028	0.569219	5.94422	0.790817	8.23798	0.917987	9.56582
0.359047	3.68677	0.195098	1.98022	0.473505	4.85714	0.578719	5.95023	0.694294	7.13766	0.926925	9.51996	0.445657	4.60187	0.571737	5.91299	0.79248	8.17596	0.919444	9.48888
0.360721	3.66885	0.197186	1.98266	0.477263	4.84935	0.581665	5.92378	0.696605	7.09347	0.928526	9.44602	0.449129	4.59353	0.57427	5.88251	0.794155	8.11524	0.920917	9.41357
0.362376	3.65109	0.199274	1.98506	0.481036	4.84184	0.58463	5.898	0.698929	7.05025	0.930139	9.37358	0.452591	4.58525	0.576818	5.85274	0.795843	8.05578	0.922407	9.33985
0.364015	3.63349	0.201361	1.98741	0.484821	4.8346	0.587613	5.87289	0.701267	7.00797	0.931763	9.30261	0.456044	4.57703	0.57938	5.82369	0.797543	7.99757	0.923914	9.26768
0.365637	3.61606	0.203448	1.98971	0.488618	4.82761	0.590613	5.84842	0.70362	6.96662	0.9334	9.23306	0.459487	4.56886	0.581957	5.79532	0.799255	7.94055	0.925438	9.19701
0.367245	3.5988	0.205535	1.99196	0.492425	4.82085	0.593631	5.82457	0.705986	6.92615	0.935048	9.1649	0.46292	4.56074	0.584549	5.76762	0.800979	7.88469	0.926979	9.12781
0.368839	3.58172	0.207621	1.99418	0.496243	4.81431	0.596666	5.80131	0.708366	6.88655	0.936708	9.09809	0.466341	4.55266	0.587156	5.74057	0.802715	7.82997	0.928536	9.06002
0.370421	3.56483	0.209707	1.99635	0.500069	4.80797	0.599718	5.77864	0.71076	6.8478	0.93838	9.03258	0.469752	4.54462	0.589777	5.71414	0.804464	7.77635	0.93011	8.99362
0.37199	3.54811	0.211793	1.99848	0.503903	4.80182	0.602786	5.75653	0.713167	6.80987	0.940062	8.96835	0.47315	4.53661	0.592413	5.68834	0.806224	7.72381	0.931701	8.92856
0.373548	3.53159	0.213878	2.00057	0.507744	4.79584	0.605871	5.73496	0.715588	6.77273	0.941757	8.90536	0.476536	4.52862	0.595064	5.66313	0.807997	7.67231	0.933308	8.86482
0.375095	3.51525	0.215963	2.00262	0.511591	4.79003	0.608971	5.71391	0.718022	6.73637	0.943462	8.84357	0.479911	4.52066	0.59773	5.6385	0.809781	7.62182	0.934933	8.80235
0.376633	3.49911	0.218048	2.00463	0.515444	4.78436	0.612088	5.69338	0.72047	6.70076	0.945179	8.78296	0.483272	4.51271	0.600411	5.61445	0.811578	7.57233	0.936574	8.74113
0.378161	3.48316	0.220132	2.00661	0.519301	4.77884	0.615219	5.67334	0.722931	6.66589	0.946907	8.72349	0.48662	4.50479	0.603106	5.59094	0.813386	7.5238	0.938232	8.68111
0.379681	3.46741	0.222217	2.00855	0.523162	4.77345	0.618366	5.65379	0.725405	6.63173	0.948646	8.66514	0.489954	4.49687	0.605817	5.56798	0.815206	7.4762	0.939906	8.62228
0.381194	3.45185	0.224301	2.01045	0.527027	4.76817	0.621527	5.63469	0.727893	6.59827	0.950396	8.60787	0.493274	4.48896	0.608543	5.54554	0.817038	7.42952	0.941598	8.56459
0.382699	3.43649	0.226384	2.01232	0.530894	4.76301	0.624703	5.61605	0.730394	6.56549	0.952158	8.55166	0.496581	4.48105	0.611283	5.52362	0.818883	7.38374	0.943306	8.50803
0.384198	3.42132	0.228468	2.01416	0.534763	4.75795	0.627893	5.59784	0.732908	6.53337	0.95393	8.49648	0.499872	4.47314	0.614039	5.5022	0.820739	7.33882	0.94503	8.45256
0.385691	3.40635	0.230551	2.01597	0.538634	4.75299	0.631098	5.58006	0.735434	6.50189	0.955713	8.4423	0.503148	4.46523	0.61681	5.48127	0.822606	7.29475	0.946772	8.39815
0.387177	3.39158	0.232634	2.01774	0.542505	4.74812	0.634316	5.56269	0.737974	6.47105	0.957506	8.3891	0.506409	4.45732	0.619596	5.46081	0.824486	7.2515	0.94853	8.34478
0.388659	3.377	0.234716	2.01949	0.546377	4.74332	0.637547	5.54572	0.740527	6.44081	0.959311	8.33686	0.509654	4.44939	0.622397	5.44083	0.826378	7.20907	0.950305	8.29242
0.390136	3.36261	0.236799	2.0212	0.550248	4.7386	0.640792	5.52913	0.743093	6.41117	0.961126	8.28554	0.512883	4.44146	0.625214	5.42129	0.828281	7.16741	0.952096	8.24106
0.391609	3.34841	0.238881	2.02289	0.554118	4.73395	0.644051	5.51293	0.745672	6.38212	0.962951	8.23514	0.516096	4.43351	0.628046	5.4022	0.830196	7.12653	0.953904	8.19065
0.393078	3.33441	0.240963	2.02455	0.557987	4.72936	0.647322	5.49708	0.748263	6.35363	0.964787	8.18562	0.519292	4.42554	0.630893	5.38355	0.832123	7.0864	0.955729	8.14119
0.394543	3.3206	0.243045	2.02617	0.561854	4.72483	0.650605	5.4816	0.750867	6.3257	0.966634	8.13696	0.522471	4.41756	0.633755	5.36532	0.834062	7.04699	0.95757	8.09265
0.396005	3.30697	0.245126	2.02778	0.565719	4.72034	0.653901	5.46646	0.753484	6.29832	0.96849	8.08915	0.525633	4.40955	0.636633	5.3475	0.836012	7.0083	0.959428	8.045
0.397465	3.29353	0.247207	2.02935	0.569582	4.71591	0.65721	5.45166	0.756114	6.27146	0.970357	8.04216	0.528777	4.40153	0.639526	5.33009	0.837974	6.97031	0.961302	7.99823
0.398921	3.28028	0.249288	2.0309	0.573441	4.71151	0.66053	5.43718	0.758757	6.24511	0.972235	7.99598	0.531903	4.39348	0.642434	5.31307	0.839948	6.933	0.963192	7.95231
0.400376	3.26721	0.251369	2.03243	0.577296	4.70716	0.663863	5.42302	0.761412	6.21927	0.974122	7.95058	0.535011	4.3854	0.645358	5.29644	0.841934	6.89636	0.965099	7.90723
0.401828	3.25432	0.25345	2.03393	0.581147	4.70283	0.667207	5.40917	0.76408	6.19393	0.97602	7.90595	0.538101	4.3773	0.648297	5.28019	0.843931	6.86036	0.967023	7.86297
0.403279	3.24161	0.25553	2.03541	0.584994	4.69854	0.670563	5.39562	0.76676	6.16907	0.977928	7.86207	0.541172	4.36916	0.651251	5.2643	0.845941	6.825	0.968962	7.8195
0.404729	3.22907	0.25761	2.03686	0.588836	4.69426	0.67393	5.38236	0.769454	6.14467	0.979845	7.81891	0.544224	4.361	0.65422	5.24877	0.847962	6.79027	0.970918	7.77681
0.406177	3.21672	0.25969	2.03829	0.592672	4.69001	0.677308	5.36939	0.772159	6.12074	0.981773	7.77648	0.547257	4.35281	0.657205	5.2336	0.849994	6.75614	0.97289	7.73488
0.407624	3.20453	0.26177	2.0397	0.596503	4.68578	0.680697	5.35669	0.774878	6.09726	0.98371	7.73474	0.550271	4.34459	0.660205	5.21877	0.852039	6.7226	0.974878	7.6937
0.40907	3.19252	0.26385	2.04109	0.600328	4.68156	0.684097	5.34426	0.777609	6.07422	0.985657	7.69369	0.553266	4.33633	0.66322	5.20427	0.854095	6.68965	0.976882	7.65324
0.410516	3.18068	0.265929	2.04245	0.604146	4.67735	0.687508	5.3321	0.780352	6.05161	0.987614	7.65331	0.556241	4.32805	0.66625	5.1901	0.856163	6.65727	0.978902	7.61349
0.411962	3.169	0.268008	2.04379	0.607957	4.67315	0.69093	5.32019	0.783109	6.02942	0.98958	7.61358	0.559196	4.31973	0.669294	5.17625	0.858242	6.62544	0.980938	7.57444
0.413407	3.15749	0.270088	2.04512	0.611762	4.66896	0.694362	5.30853	0.785878	6.00764	0.991556	7.57448	0.562132	4.31137	0.672354	5.16271	0.860334	6.59415	0.98299	7.53607
0.414852	3.14614	0.272166	2.04642	0.615558	4.66477	0.697804	5.29712	0.788659	5.98626	0.993542	7.53602	0.565048	4.30299	0.675428	5.14948	0.862436	6.5634	0.985058	7.49836
0.416298	3.13495	0.274245	2.04771	0.619347	4.66057	0.701256	5.28594	0.791453	5.96529	0.995537	7.49816	0.567944	4.29457	0.678517	5.13654	0.864551	6.53317	0.987142	7.46131
0.417744	3.12392	0.276324	2.04897	0.623128	4.65638	0.704718	5.27499	0.79426	5.94469	0.997542	7.4609	0.570819	4.28612	0.68162	5.12389	0.866677	6.50345	0.989241	7.42489
0.41919	3.11305	0.278402	2.05022	0.6269	4.65218	0.708191	5.26427	0.797079	5.92448	0.999556	7.42423	0.573675	4.27764	0.684738	5.11153	0.868816	6.47423	0.991356	7.38909
0.420637	3.10233	0.28048	2.05145	0.630664	4.64797	0.711672	5.25377	0.799911	5.90464	1.00158	7.38813	0.576511	4.26912	0.687869	5.09944	0.870965	6.4455	0.993486	7.3539
0.422084	3.09176	0.282558	2.05266	0.634418	4.64375	0.715164	5.24348	0.802755	5.88516			0.579326	4.26058	0.691015	5.08762	0.873127	6.41725	0.995632	7.31931
0.423533	3.08134	0.284636	2.05386	0.638162	4.63952	0.718665	5.2334	0.805612	5.86604			0.582121	4.252	0.694174	5.07606	0.8753	6.38947	0.997793	7.2853
0.424982	3.07107	0.286714	2.05503	0.641897	4.63528	0.722175	5.22352	0.808482	5.84727			0.584897	4.24339	0.697346	5.06475	0.877484	6.36215	0.99997	7.25186
0.426432	3.06094	0.288792	2.05619	0.645622	4.63102	0.725695	5.21384	0.811364	5.82884			0.587652	4.23476	0.700532	5.05369	0.879681	6.33528	1.00216	7.21898
0.427884	3.05096	0.290869	2.05734	0.649337	4.62674	0.729223	5.20435	0.814259	5.81074			0.590387	4.22609	0.703731	5.04287	0.881889	6.30885		
0.429337	3.04111	0.292946	2.05846	0.653041	4.62244	0.732761	5.19506	0.817167	5.79298			0.593102	4.2174	0.706943	5.03229	0.884108	6.28285		
0.430791	3.03141	0.295024	2.05958	0.656734	4.61813	0.736307	5.18594	0.820088	5.77554			0.595797	4.20868	0.710167	5.02194	0.88634	6.25727		
0.432247	3.02184	0.297101	2.06067	0.660415	4.61379	0.739862	5.17701	0.823021	5.75841			0.598472	4.19994	0.713404	5.01181	0.888583	6.23212		
0.433704	3.01241	0.299177	2.06175	0.664086	4.60943	0.743425	5.16825	0.825967	5.74159			0.601128	4.19117	0.716653	5.00189	0.890837	6.20737		
0.435163	3.00311	0.301254	2.06282	0.667744	4.60504	0.746997	5.15966	0.828926	5.72508			0.603764	4.18238	0.719914	4.99218	0.893103	6.18302		
0.436624	2.99394	0.303331	2.06387	0.671391	4.60063	0.750577	5.15124	0.831898	5.70887			0.606381	4.17357	0.723186	4.98268	0.895381	6.15906		
0.438087	2.98489	0.305407	2.06491	0.675026	4.59619	0.754166	5.14298	0.834882	5.69295			0.608978	4.16474	0.726469	4.97338	0.89767	6.13548		
0.439551	2.97598	0.307484	2.06594	0.678648	4.59173	0.757762	5.13488	0.83788	5.67732			0.611556	4.15589	0.729763	4.96427	0.899971	6.11229		
0.441017	2.96719	0.30956	2.06695	0.682257	4.58723	0.761366	5.12693	0.84089	5.66198			0.614115	4.14703	0.733068	4.95534	0.902283	6.08946		
0.442485	2.95852	0.311636	2.06794	0.685854	4.58271	0.764978	5.11914	0.843913	5.64691			0.616656	4.13814	0.736383	4.9466	0.904607	6.06699		
0.443955	2.94998	0.313712	2.06893	0.689437	4.57815	0.768597	5.11149	0.846949	5.63211			0.619177	4.12925	0.739708	4.93803	0.906942	6.04488		
0.445428	2.94155	0.315788	2.0699	0.693008	4.57356	0.772224	5.10398	0.849998	5.61758			0.62168	4.12034	0.743043	4.92963	0.909289	6.02312		
0.446902	2.93324	0.317863	2.07086	0.696565	4.56894	0.775858	5.09662	0.853061	5.60332			0.624165	4.11142	0.746387	4.9214	0.911647	6.0017		
0.448379	2.92504	0.319939	2.07181	0.700108	4.56429	0.779499	5.08939	0.856136	5.58931			0.626632	4.10249	0.74974	4.91332	0.914017	5.98062		
0.449858	2.91696	0.322014	2.07274	0.703638	4.55961	0.783147	5.08229	0.859224	5.57556			0.629081	4.09355	0.753102	4.9054	0.916398	5.95987		
0.451339	2.90899	0.32409	2.07366	0.707153	4.55489	0.786802	5.07532	0.862325	5.56206			0.631512	4.08461	0.756472	4.89763	0.918791	5.93944		
0.452822	2.90113	0.326165	2.07457	0.710655	4.55014	0.790463	5.06848	0.86544	5.5488			0.633926	4.07566	0.759851	4.89001	0.921195	5.91933		
0.454308	2.89338	0.32824	2.07547	0.714142	4.54535	0.794131	5.06176	0.868567	5.53578			0.636322	4.06671	0.763237	4.88252	0.92361	5.89953		
0.455796	2.88573	0.330315	2.07636	0.717615	4.54053	0.797805	5.05515	0.871708	5.523			0.638702	4.05776	0.76663	4.87517	0.926037	5.88004		
0.457286	2.87819	0.33239	2.07724	0.721073	4.53567	0.801485	5.04867	0.874862	5.51046			0.641064	4.0488	0.77003	4.86795	0.928475	5.86084		
0.458779	2.87075	0.334465	2.07811	0.724517	4.53078	0.805171	5.04229	0.878029	5.49814			0.643411	4.03985	0.773437	4.86086	0.930924	5.84195		
0.460275	2.86341	0.33654	2.07896	0.727946	4.52585	0.808863	5.03603	0.881209	5.48605			0.64574	4.0309	0.77685	4.85389	0.933385	5.82334		
0.461773	2.85618	0.338614	2.07981	0.73136	4.52089	0.81256	5.02987	0.884403	5.47418			0.648054	4.02195	0.78027	4.84704	0.935857	5.80502		
0.463273	2.84904	0.340689	2.08064	0.734759	4.5159	0.816262	5.02381	0.88761	5.46253			0.650352	4.013	0.783695	4.8403	0.93834	5.78698		
0.464776	2.842	0.342763	2.08147	0.738143	4.51087	0.81997	5.01786	0.89083	5.45109			0.652635	4.00407	0.787125	4.83367	0.940834	5.76921		
0.466281	2.83505	0.344838	2.08228	0.741512	4.5058	0.823682	5.012	0.894063	5.43986			0.654902	3.99514	0.79056	4.82715	0.943339	5.75171		
0.467789	2.8282	0.346912	2.08309	0.744866	4.5007	0.827399	5.00624	0.89731	5.42884			0.657153	3.98622	0.794	4.82073	0.945856	5.73448		
0.4693	2.82144	0.348986	2.08389	0.748205	4.49557	0.831121	5.00056	0.90057	5.41802			0.65939	3.97731	0.797445	4.81441	0.948384	5.71751		
0.470813	2.81477	0.35106	2.08467	0.751529	4.4904	0.834846	4.99498	0.903843	5.40741			0.661613	3.96842	0.800893	4.80818	0.950922	5.70079		
0.472329	2.80819	0.353134	2.08545	0.754837	4.4852	0.838576	4.98948	0.90713	5.39699			0.663821	3.95953	0.804345	4.80204	0.953472	5.68433		
0.473848	2.8017	0.355208	2.08622	0.75813	4.47996	0.84231	4.98407	0.91043	5.38676			0.666015	3.95066	0.8078	4.796	0.956033	5.66811		
0.475369	2.7953	0.357282	2.08698	0.761407	4.47469	0.846047	4.97873	0.913744	5.37673			0.668195	3.94181	0.811258	4.79003	0.958605	5.65214		
0.476892	2.78898	0.359355	2.08773	0.76467	4.46939	0.849788	4.97348	0.91707	5.36688			0.670361	3.93297	0.81472	4.78415	0.961188	5.63641		
0.478419	2.78274	0.361429	2.08847	0.767916	4.46406	0.853531	4.9683	0.920411	5.35722			0.672514	3.92415	0.818183	4.77835	0.963782	5.62091		
0.479948	2.77659	0.363502	2.0892	0.771148	4.4587	0.857278	4.96319	0.923764	5.34773			0.674653	3.91535	0.821649	4.77262	0.966386	5.60564		
0.48148	2.77052	0.365576	2.08993	0.774364	4.4533	0.861027	4.95815	0.927131	5.33843			0.67678	3.90657	0.825116	4.76696	0.969002	5.5906		
0.483014	2.76452	0.367649	2.09065	0.777565	4.44788	0.864779	4.95318	0.930511	5.32931			0.678894	3.89781	0.828585	4.76137	0.971628	5.57578		
0.484551	2.75861	0.369722	2.09136	0.78075	4.44242	0.868533	4.94828	0.933905	5.32035			0.680995	3.88907	0.832055	4.75585	0.974265	5.56118		
0.486091	2.75278	0.371795	2.09206	0.78392	4.43694	0.872289	4.94344	0.937311	5.31157			0.683084	3.88035	0.835526	4.75039	0.976913	5.54679		
0.487634	2.74702	0.373868	2.09275	0.787075	4.43143	0.876047	4.93866	0.940731	5.30295			0.685161	3.87166	0.838997	4.74499	0.979572	5.53262		
0.489179	2.74133	0.375941	2.09344	0.790215	4.42589	0.879806	4.93393	0.944165	5.2945			0.687226	3.86299	0.842469	4.73965	0.982242	5.51866		
0.490727	2.73572	0.378014	2.09412	0.793339	4.42032	0.883567	4.92927	0.947611	5.28621			0.68928	3.85435	0.845941	4.73437	0.984922	5.5049		
0.492277	2.73019	0.380087	2.09479	0.796449	4.41473	0.887329	4.92466	0.951071	5.27807			0.691322	3.84573	0.849412	4.72914	0.987613	5.49134		
0.49383	2.72472	0.38216	2.09545	0.799543	4.40911	0.891091	4.9201	0.954544	5.2701			0.693353	3.83714	0.852883	4.72396	0.990314	5.47799		
0.495386	2.71933	0.384233	2.09611	0.802622	4.40346	0.894854	4.91559	0.95803	5.26228			0.695373	3.82858	0.856353	4.71882	0.993026	5.46483		
0.496945	2.714	0.386305	2.09676	0.805686	4.39779	0.898617	4.91112	0.961529	5.2546			0.697382	3.82005	0.859822	4.71374	0.995749	5.45186		
0.498506	2.70875	0.388378	2.0974	0.808735	4.3921	0.902381	4.90671	0.965042	5.24708			0.69938	3.81154	0.863289	4.7087	0.998482	5.43907		
0.50007	2.70356	0.39045	2.09804	0.81177	4.38639	0.906144	4.90234	0.968567	5.23971			0.701369	3.80307	0.866755	4.7037	1.00123	5.42648		
0.501637	2.69844	0.392523	2.09866	0.814789	4.38065	0.909907	4.89801	0.972105	5.23247			0.703347	3.79462	0.870219	4.69874				
0.503206	2.69338	0.394595	2.09929	0.817794	4.37489	0.91367	4.89372	0.975656	5.22538			0.705315	3.78621	0.87368	4.69382				
0.504778	2.68839	0.396667	2.0999	0.820784	4.36911	0.917432	4.88946	0.97922	5.21843			0.707273	3.77783	0.87714	4.68893				
0.506353	2.68346	0.398739	2.10051	0.82376	4.36331	0.921192	4.88525	0.982796	5.21161			0.709222	3.76948	0.880596	4.68408				
0.50793	2.67859	0.400811	2.10112	0.826721	4.35749	0.924952	4.88107	0.986386	5.20493			0.711162	3.76116	0.88405	4.67926				
0.50951	2.67379	0.402884	2.10171	0.829668	4.35165	0.92871	4.87692	0.989988	5.19838			0.713092	3.75288	0.8875	4.67447				
0.511093	2.66904	0.404955	2.1023	0.832601	4.3458	0.932467	4.87281	0.993602	5.19196			0.715013	3.74463	0.890947	4.66971				
0.512678	2.66436	0.407027	2.10289	0.83552	4.33993	0.936222	4.86873	0.997229	5.18567			0.716926	3.73641	0.89439	4.66497				
0.514266	2.65973	0.409099	2.10347	0.838424	4.33404	0.939974	4.86467	1.00087	5.1795			0.71883	3.72823	0.897829	4.66026				
0.515856	2.65516	0.411171	2.10404	0.841314	4.32814	0.943725	4.86065					0.720725	3.72009	0.901264	4.65558				
0.517449	2.65065	0.413243	2.10461	0.844191	4.32222	0.947473	4.85665					0.722612	3.71198	0.904695	4.65092				
0.519045	2.6462	0.415314	2.10517	0.847054	4.31628	0.951219	4.85267					0.724491	3.7039	0.908121	4.64628				
0.520643	2.6418	0.417386	2.10573	0.849903	4.31034	0.954962	4.84872					0.726363	3.69587	0.911542	4.64166				
0.522244	2.63745	0.419457	2.10628	0.852738	4.30438	0.958702	4.84479					0.728226	3.68786	0.914959	4.63705				
0.523848	2.63316	0.421529	2.10682	0.85556	4.29841	0.962439	4.84088					0.730082	3.6799	0.918369	4.63246				
0.525454	2.62892	0.4236	2.10736	0.858369	4.29243	0.966172	4.83699					0.73193	3.67197	0.921775	4.62789				
0.527062	2.62473	0.425672	2.10789	0.861164	4.28644	0.969902	4.83313					0.733771	3.66408	0.925175	4.62334				
0.528673	2.6206	0.427743	2.10842	0.863946	4.28043	0.973629	4.82927					0.735605	3.65623	0.928569	4.61879				
0.530287	2.61651	0.429814	2.10895	0.866716	4.27442	0.977352	4.82544					0.737433	3.64842	0.931957	4.61426				
0.531903	2.61248	0.431885	2.10947	0.869472	4.2684	0.981071	4.82162					0.739253	3.64064	0.935338	4.60974				
0.533522	2.60849	0.433956	2.10998	0.872215	4.26237	0.984786	4.81782					0.741066	3.6329	0.938713	4.60523				
0.535143	2.60455	0.436027	2.11049	0.874946	4.25634	0.988497	4.81403					0.742873	3.6252	0.942082	4.60072				
0.536767	2.60066	0.438098	2.11099	0.877664	4.2503	0.992204	4.81026					0.744674	3.61754	0.945444	4.59623				
0.538393	2.59682	0.440169	2.11149	0.880369	4.24425	0.995906	4.8065					0.746469	3.60992	0.948798	4.59174				
0.540022	2.59302	0.44224	2.11199	0.883062	4.23819	0.999604	4.80275					0.748257	3.60234	0.952146	4.58725				
0.541653	2.58927	0.444311	2.11248	0.885743	4.23213	1.0033	4.79901					0.75004	3.5948	0.955486	4.58278				
0.543286	2.58556	0.446382	2.11296	0.888411	4.22607							0.751817	3.58729	0.958819	4.5783				
0.544922	2.5819	0.448452	2.11345	0.891067	4.22							0.753588	3.57983	0.962144	4.57383				
0.54656	2.57828	0.450523	2.11392	0.893712	4.21393							0.755353	3.57241	0.965462	4.56936				
0.548201	2.5747	0.452594	2.11439	0.896344	4.20786							0.757113	3.56502	0.968771	4.5649				
0.549844	2.57117	0.454664	2.11486	0.898965	4.20179							0.758868	3.55768	0.972073	4.56043				
0.55149	2.56768	0.456735	2.11533	0.901574	4.19571							0.760618	3.55037	0.975366	4.55597				
0.553138	2.56423	0.458805	2.11578	0.904171	4.18963							0.762363	3.54311	0.978651	4.55151				
0.554788	2.56082	0.460876	2.11624	0.906757	4.18355							0.764102	3.53588	0.981927	4.54704				
0.556441	2.55745	0.462946	2.11669	0.909331	4.17747							0.765837	3.5287	0.985195	4.54257				
0.558095	2.55412	0.465016	2.11714	0.911895	4.17139							0.767568	3.52155	0.988454	4.53811				
0.559753	2.55082	0.467086	2.11758	0.914447	4.16532							0.769294	3.51445	0.991704	4.53364				
0.561412	2.54757	0.469157	2.11802	0.916988	4.15924							0.771015	3.50738	0.994946	4.52916				
0.563074	2.54435	0.471227	2.11845	0.919518	4.15316							0.772732	3.50036	0.998178	4.52469				
0.564738	2.54117	0.473297	2.11889	0.922037	4.14709							0.774445	3.49337	1.0014	4.52021				
0.566404	2.53803	0.475367	2.11931	0.924545	4.14102							0.776153	3.48643						
0.568073	2.53493	0.477437	2.11974	0.927043	4.13495							0.777858	3.47952						
0.569744	2.53186	0.479507	2.12016	0.92953	4.12888							0.779559	3.47266						
0.571417	2.52882	0.481577	2.12057	0.932006	4.12282							0.781256	3.46583						
0.573092	2.52582	0.483646	2.12099	0.934473	4.11677							0.782949	3.45905						
0.57477	2.52285	0.485716	2.1214	0.936929	4.11071							0.784639	3.4523						
0.576449	2.51992	0.487786	2.1218	0.939374	4.10466							0.786325	3.4456						
0.578131	2.51702	0.489856	2.1222	0.94181	4.09862							0.788007	3.43893						
0.579815	2.51415	0.491925	2.1226	0.944235	4.09258							0.789687	3.4323						
0.581501	2.51132	0.493995	2.123	0.946651	4.08655							0.791363	3.42572						
0.58319	2.50852	0.496065	2.12339	0.949057	4.08052							0.793036	3.41917						
0.58488	2.50575	0.498134	2.12378	0.951453	4.0745							0.794706	3.41266						
0.586572	2.50301	0.500204	2.12416	0.953839	4.06849							0.796373	3.40619						
0.588267	2.5003	0.502273	2.12455	0.956216	4.06248							0.798037	3.39976						
0.589964	2.49762	0.504343	2.12493	0.958584	4.05649							0.799698	3.39337						
0.591662	2.49497	0.506412	2.1253	0.960942	4.05049							0.801357	3.38701						
0.593363	2.49235	0.508481	2.12567	0.96329	4.04451							0.803012	3.3807						
0.595066	2.48976	0.51055	2.12604	0.96563	4.03853							0.804666	3.37442						
0.596771	2.48719	0.51262	2.12641	0.96796	4.03257							0.806317	3.36819						
0.598477	2.48466	0.514689	2.12677	0.970282	4.02661							0.807965	3.36199						
0.600186	2.48215	0.516758	2.12713	0.972594	4.02066							0.809611	3.35583						
0.601897	2.47967	0.518827	2.12749	0.974897	4.01472							0.811255	3.34971						
0.60361	2.47722	0.520896	2.12785	0.977192	4.00879							0.812896	3.34362						
0.605325	2.4748	0.522965	2.1282	0.979478	4.00287							0.814536	3.33757						
0.607041	2.4724	0.525034	2.12855	0.981756	3.99696							0.816173	3.33156						
0.60876	2.47002	0.527103	2.1289	0.984024	3.99105							0.817809	3.32559						
0.61048	2.46768	0.529172	2.12924	0.986285	3.98516							0.819442	3.31966						
0.612203	2.46535	0.531241	2.12958	0.988537	3.97928							0.821074	3.31376						
0.613927	2.46306	0.53331	2.12992	0.99078	3.97341							0.822703	3.3079						
0.615654	2.46078	0.535378	2.13025	0.993016	3.96755							0.824331	3.30207						
0.617382	2.45854	0.537447	2.13059	0.995243	3.9617							0.825958	3.29629						
0.619112	2.45631	0.539516	2.13092	0.997463	3.95587							0.827583	3.29054						
0.620843	2.45411	0.541584	2.13124	0.999674	3.95004							0.829206	3.28482						
0.622577	2.45193	0.543653	2.13157	1.00188	3.94423							0.830827	3.27914						
0.624313	2.44978	0.545722	2.13189									0.832448	3.2735						
0.62605	2.44765	0.54779	2.13221									0.834066	3.26789						
0.627789	2.44554	0.549859	2.13253									0.835684	3.26232						
0.62953	2.44345	0.551927	2.13285									0.8373	3.25679						
0.631273	2.44139	0.553996	2.13316									0.838915	3.25128						
0.633017	2.43934	0.556064	2.13347									0.840529	3.24582						
0.634763	2.43732	0.558132	2.13378									0.842142	3.24039						
0.636511	2.43532	0.560201	2.13408									0.843753	3.23499						
0.638261	2.43334	0.562269	2.13439									0.845364	3.22963						
0.640012	2.43138	0.564337	2.13469									0.846973	3.2243						
0.641765	2.42944	0.566406	2.13499									0.848582	3.21901						
0.64352	2.42752	0.568474	2.13528									0.85019	3.21375						
0.645276	2.42562	0.570542	2.13558									0.851796	3.20852						
0.647034	2.42374	0.57261	2.13587									0.853403	3.20333						
0.648794	2.42188	0.574678	2.13616									0.855008	3.19817						
0.650555	2.42004	0.576746	2.13645									0.856612	3.19305						
0.652318	2.41822	0.578814	2.13674									0.858216	3.18795						
0.654083	2.41641	0.580882	2.13702									0.859819	3.18289						
0.655849	2.41463	0.58295	2.1373									0.861422	3.17786						
0.657617	2.41286	0.585018	2.13758									0.863024	3.17287						
0.659387	2.41111	0.587086	2.13786									0.864626	3.16791						
0.661158	2.40938	0.589153	2.13813									0.866227	3.16297						
0.66293	2.40766	0.591221	2.13841									0.867827	3.15808						
0.664704	2.40597	0.593289	2.13868									0.869427	3.15321						
0.66648	2.40428	0.595357	2.13895									0.871027	3.14837						
0.668257	2.40262	0.597424	2.13922									0.872626	3.14357						
0.670036	2.40097	0.599492	2.13948									0.874225	3.13879						
0.671816	2.39934	0.60156	2.13975									0.875824	3.13405						
0.673598	2.39773	0.603627	2.14001									0.877423	3.12933						
0.675381	2.39613	0.605695	2.14027									0.879021	3.12465						
0.677166	2.39454	0.607762	2.14053									0.880619	3.12						
0.678952	2.39298	0.60983	2.14079									0.882217	3.11538						
0.68074	2.39143	0.611897	2.14104									0.883815	3.11078						
0.682529	2.38989	0.613965	2.1413									0.885412	3.10622						
0.68432	2.38837	0.616032	2.14155									0.88701	3.10169						
0.686112	2.38686	0.6181	2.1418									0.888608	3.09718						
0.687905	2.38537	0.620167	2.14205									0.890205	3.09271						
0.6897	2.38389	0.622234	2.14229									0.891802	3.08826						
0.691496	2.38243	0.624301	2.14254									0.8934	3.08384						
0.693294	2.38098	0.626369	2.14278									0.894998	3.07946						
0.695093	2.37954	0.628436	2.14302									0.896595	3.07509						
0.696894	2.37812	0.630503	2.14326									0.898193	3.07076						
0.698695	2.37671	0.63257	2.1435									0.899791	3.06646						
0.700499	2.37532	0.634637	2.14374									0.901389	3.06218						
0.702303	2.37394	0.636704	2.14397									0.902987	3.05793						
0.704109	2.37257	0.638771	2.1442									0.904585	3.05371						
0.705916	2.37121	0.640838	2.14444									0.906184	3.04951						
0.707725	2.36987	0.642905	2.14467									0.907783	3.04534						
0.709534	2.36854	0.644972	2.14489									0.909382	3.0412						
0.711345	2.36723	0.647039	2.14512									0.910981	3.03709						
0.713158	2.36592	0.649106	2.14535									0.91258	3.033						
0.714971	2.36463	0.651173	2.14557									0.91418	3.02894						
0.716787	2.36335	0.65324	2.14579									0.915781	3.0249						
0.718603	2.36208	0.655307	2.14602									0.917381	3.02089						
0.72042	2.36083	0.657373	2.14624									0.918982	3.01691						
0.722239	2.35958	0.65944	2.14645									0.920583	3.01295						
0.724059	2.35835	0.661507	2.14667									0.922185	3.00902						
0.72588	2.35713	0.663574	2.14689									0.923787	3.00511						
0.727703	2.35592	0.66564	2.1471									0.92539	3.00123						
0.729526	2.35472	0.667707	2.14731									0.926993	2.99737						
0.731351	2.35353	0.669773	2.14752									0.928596	2.99353						
0.733177	2.35236	0.67184	2.14773									0.9302	2.98973						
0.735004	2.35119	0.673907	2.14794									0.931805	2.98594						
0.736833	2.35003	0.675973	2.14815									0.93341	2.98218						
0.738662	2.34889	0.67804	2.14836									0.935015	2.97844						
0.740493	2.34776	0.680106	2.14856									0.936621	2.97473						
0.742325	2.34663	0.682172	2.14877									0.938228	2.97104						
0.744158	2.34552	0.684239	2.14897									0.939835	2.96738						
0.745992	2.34442	0.686305	2.14917									0.941443	2.96373						
0.747828	2.34332	0.688372	2.14937									0.943051	2.96012						
0.749664	2.34224	0.690438	2.14957									0.94466	2.95652						
0.751502	2.34117	0.692504	2.14976									0.946269	2.95295						
0.753341	2.3401	0.69457	2.14996									0.947879	2.94939						
0.75518	2.33905	0.696637	2.15016									0.94949	2.94587						
0.757021	2.338	0.698703	2.15035									0.951102	2.94236						
0.758863	2.33697	0.700769	2.15054									0.952714	2.93888						
0.760706	2.33594	0.702835	2.15073									0.954326	2.93542						
0.762551	2.33492	0.704901	2.15092									0.95594	2.93198						
0.764396	2.33391	0.706967	2.15111									0.957554	2.92856						
0.766242	2.33291	0.709033	2.1513									0.959169	2.92516						
0.768089	2.33192	0.711099	2.15149									0.960784	2.92179						
0.769938	2.33094	0.713165	2.15167									0.9624	2.91843						
0.771787	2.32997	0.715231	2.15186									0.964017	2.9151						
0.773638	2.32901	0.717297	2.15204									0.965635	2.91179						
0.775489	2.32805	0.719363	2.15222									0.967254	2.9085						
0.777342	2.3271	0.721429	2.1524									0.968873	2.90523						
0.779195	2.32616	0.723495	2.15258									0.970493	2.90198						
0.78105	2.32523	0.725561	2.15276									0.972113	2.89875						
0.782905	2.32431	0.727627	2.15294									0.973735	2.89554						
0.784762	2.32339	0.729692	2.15312									0.975357	2.89235						
0.786619	2.32249	0.731758	2.15329									0.97698	2.88918						
0.788478	2.32159	0.733824	2.15347									0.978604	2.88603						
0.790337	2.3207	0.735889	2.15364									0.980229	2.8829						
0.792198	2.31981	0.737955	2.15381									0.981854	2.87979						
0.794059	2.31894	0.740021	2.15398									0.98348	2.8767						
0.795922	2.31807	0.742086	2.15415									0.985108	2.87363						
0.797785	2.31721	0.744152	2.15432									0.986735	2.87057						
0.799649	2.31635	0.746218	2.15449									0.988364	2.86754						
0.801514	2.31551	0.748283	2.15466									0.989994	2.86452						
0.80338	2.31467	0.750349	2.15483									0.991624	2.86153						
0.805247	2.31384	0.752414	2.15499									0.993256	2.85855						
0.807115	2.31301	0.75448	2.15516									0.994888	2.85559						
0.808984	2.31219	0.756545	2.15532									0.996521	2.85265						
0.810854	2.31138	0.75861	2.15548									0.998155	2.84973						
0.812725	2.31058	0.760676	2.15565									0.99979	2.84682						
0.814596	2.30978	0.762741	2.15581									1.00143	2.84393						
0.816469	2.30899	0.764806	2.15597																
0.818342	2.30821	0.766872	2.15613																
0.820216	2.30743	0.768937	2.15628																
0.822091	2.30666	0.771002	2.15644																
0.823967	2.30589	0.773067	2.1566																
0.825844	2.30514	0.775133	2.15675																
0.827722	2.30438	0.777198	2.15691																
0.8296	2.30364	0.779263	2.15706																
0.831479	2.3029	0.781328	2.15721																
0.83336	2.30217	0.783393	2.15737																
0.835241	2.30144	0.785458	2.15752																
0.837122	2.30072	0.787523	2.15767																
0.839005	2.3	0.789588	2.15782																
0.840889	2.29929	0.791653	2.15797																
0.842773	2.29859	0.793718	2.15811																
0.844658	2.29789	0.795783	2.15826																
0.846544	2.2972	0.797848	2.15841																
0.84843	2.29651	0.799913	2.15855																
0.850318	2.29583	0.801978	2.1587																
0.852206	2.29516	0.804043	2.15884																
0.854095	2.29449	0.806108	2.15898																
0.855985	2.29382	0.808172	2.15913																
0.857876	2.29316	0.810237	2.15927																
0.859767	2.29251	0.812302	2.15941																
0.861659	2.29186	0.814366	2.15955																
0.863552	2.29122	0.816431	2.15969																
0.865446	2.29058	0.818496	2.15983																
0.86734	2.28995	0.820561	2.15996																
0.869235	2.28932	0.822625	2.1601																
0.871131	2.2887	0.82469	2.16024																
0.873027	2.28808	0.826754	2.16037																
0.874925	2.28746	0.828819	2.16051																
0.876823	2.28686	0.830883	2.16064																
0.878721	2.28625	0.832948	2.16078																
0.880621	2.28565	0.835012	2.16091																
0.882521	2.28506	0.837077	2.16104																
0.884422	2.28447	0.839141	2.16117																
0.886323	2.28389	0.841205	2.1613																
0.888226	2.28331	0.84327	2.16143																
0.890128	2.28273	0.845334	2.16156																
0.892032	2.28216	0.847398	2.16169																
0.893936	2.28159	0.849463	2.16182																
0.895841	2.28103	0.851527	2.16195																
0.897747	2.28047	0.853591	2.16207																
0.899653	2.27992	0.855656	2.1622																
0.90156	2.27937	0.85772	2.16232																
0.903468	2.27883	0.859784	2.16245																
0.905376	2.27829	0.861848	2.16257																
0.907285	2.27775	0.863912	2.16269																
0.909195	2.27722	0.865976	2.16282																
0.911105	2.27669	0.86804	2.16294																
0.913016	2.27616	0.870104	2.16306																
0.914928	2.27564	0.872168	2.16318																
0.91684	2.27513	0.874232	2.1633																
0.918753	2.27462	0.876296	2.16342																
0.920666	2.27411	0.87836	2.16354																
0.92258	2.2736	0.880424	2.16366																
0.924495	2.2731	0.882488	2.16378																
0.92641	2.2726	0.884552	2.16389																
0.928326	2.27211	0.886616	2.16401																
0.930243	2.27162	0.88868	2.16413																
0.93216	2.27114	0.890743	2.16424																
0.934077	2.27065	0.892807	2.16436																
0.935996	2.27018	0.894871	2.16447																
0.937915	2.2697	0.896935	2.16458																
0.939834	2.26923	0.898998	2.1647																
0.941754	2.26876	0.901062	2.16481																
0.943675	2.2683	0.903126	2.16492																
0.945596	2.26784	0.905189	2.16503																
0.947518	2.26738	0.907253	2.16514																
0.94944	2.26693	0.909317	2.16525																
0.951363	2.26648	0.91138	2.16536																
0.953287	2.26603	0.913444	2.16547																
0.955211	2.26558	0.915507	2.16558																
0.957136	2.26514	0.917571	2.16569																
0.959061	2.26471	0.919634	2.1658																
0.960987	2.26427	0.921698	2.16591																
0.962913	2.26384	0.923761	2.16601																
0.96484	2.26341	0.925824	2.16612																
0.966767	2.26299	0.927888	2.16622																
0.968695	2.26257	0.929951	2.16633																
0.970624	2.26215	0.932014	2.16643																
0.972553	2.26173	0.934078	2.16654																
0.974482	2.26132	0.936141	2.16664																
0.976412	2.26091	0.938204	2.16674																
0.978343	2.26051	0.940267	2.16685																
0.980274	2.2601	0.942331	2.16695																
0.982205	2.2597	0.944394	2.16705																
0.984138	2.2593	0.946457	2.16715																
0.98607	2.25891	0.94852	2.16725																
0.988003	2.25852	0.950583	2.16735																
0.989937	2.25813	0.952646	2.16745																
0.991871	2.25774	0.954709	2.16755																
0.993806	2.25736	0.956772	2.16765																
0.995741	2.25698	0.958836	2.16775																
0.997677	2.2566	0.960899	2.16784																
0.999613	2.25622	0.962961	2.16794																
1.00155	2.25585	0.965024	2.16804																
		0.967087	2.16814																
		0.96915	2.16823																
		0.971213	2.16833																
		0.973276	2.16842																
		0.975339	2.16852																
		0.977402	2.16861																
		0.979464	2.1687																
		0.981527	2.1688																
		0.98359	2.16889																
		0.985653	2.16898																
		0.987715	2.16907																
		0.989778	2.16917																
		0.991841	2.16926																
		0.993903	2.16935																
		0.995966	2.16944																
		0.998028	2.16953																
		1.00009	2.16962																
