Sym0		Asym0		Sym1		Asym1		Asym2		Asym3	
342  Points		342  Points		210  Points		292  Points		292  Points		144  Points	
Freq (MHz)	Vph (m/ms)	Freq (MHz)	Vph (m/ms)	Freq (MHz)	Vph (m/ms)	Freq (MHz)	Vph (m/ms)	Freq (MHz)	Vph (m/ms)	Freq (MHz)	Vph (m/ms)
0.00483857	9.01422	5.08762e-005	0.0815746	0.459114	2025.1	0.322759	1188.14	0.322751	2588.83	0.91823	12419.1
0.0106335	9.01372	0.000209665	0.165533	0.459089	527.905	0.322868	353.023	0.322833	420.573	0.918134	1280.76
0.0164273	9.01294	0.000476166	0.249362	0.459035	303.48	0.323095	207.443	0.323033	229.015	0.917885	675.015
0.0222192	9.01181	0.000849592	0.332851	0.458953	212.922	0.323439	146.988	0.32335	157.466	0.917488	458.119
0.0280085	9.01033	0.00132932	0.416011	0.458843	163.964	0.323899	113.914	0.323784	120.08	0.916951	346.587
0.0337948	9.00851	0.00191411	0.498684	0.458706	133.292	0.324476	93.0716	0.324334	97.1256	0.916287	278.626
0.0395771	9.00636	0.00260271	0.580798	0.458542	112.27	0.325166	78.7473	0.324998	81.6116	0.915507	232.863
0.045355	9.00385	0.00339369	0.662289	0.458354	96.9604	0.32597	68.3065	0.325776	70.4353	0.914623	199.942
0.0511275	9.00098	0.00428532	0.743061	0.458141	85.3124	0.326884	60.3654	0.326666	62.0081	0.91365	175.116
0.0568941	8.99776	0.00527574	0.823041	0.457906	76.1515	0.327909	54.128	0.327665	55.4326	0.912598	155.725
0.062654	8.99416	0.00636301	0.902172	0.45765	68.7573	0.32904	49.1035	0.328772	50.1638	0.91148	140.158
0.0684064	8.99019	0.0075449	0.980378	0.457374	62.663	0.330277	44.973	0.329985	45.8509	0.910306	127.384
0.0741506	8.98584	0.00881915	1.0576	0.457082	57.5533	0.331617	41.5205	0.331301	42.2587	0.909086	116.713
0.0798857	8.9811	0.0101834	1.13378	0.456774	53.2072	0.333057	38.594	0.332719	39.2229	0.907828	107.664
0.0856108	8.97595	0.0116352	1.20889	0.456452	49.4652	0.334594	36.0839	0.334234	36.6256	0.906539	99.8945
0.0913253	8.9704	0.013172	1.28287	0.45612	46.2096	0.336228	33.9089	0.335846	34.3801	0.905227	93.1505
0.097028	8.96443	0.0147912	1.35568	0.455778	43.3513	0.337953	32.0076	0.337551	32.4208	0.903896	87.2417
0.102718	8.95803	0.0164903	1.4273	0.455431	40.8219	0.339768	30.3325	0.339346	30.6975	0.902553	82.0222
0.108395	8.95119	0.0182664	1.49769	0.455079	38.5677	0.341671	28.8466	0.341228	29.1712	0.901201	77.3783
0.114056	8.94388	0.0201171	1.56683	0.454725	36.5465	0.343657	27.5204	0.343195	27.8108	0.899845	73.2199
0.119703	8.9361	0.0220395	1.6347	0.454373	34.7239	0.345724	26.3303	0.345244	26.5915	0.898488	69.4749
0.125332	8.92784	0.0240312	1.7013	0.454025	33.0723	0.34787	25.257	0.347372	25.4929	0.897133	66.0848
0.130943	8.91907	0.0260895	1.76661	0.453683	31.5689	0.350091	24.2847	0.349576	24.4988	0.895783	63.0016
0.136535	8.90978	0.0282117	1.83061	0.45335	30.1949	0.352384	23.4001	0.351854	23.5952	0.89444	60.1857
0.142106	8.89995	0.0303955	1.89332	0.453029	28.9345	0.354747	22.5925	0.354201	22.7709	0.893107	57.6039
0.147656	8.88955	0.0326382	1.95474	0.452724	27.7745	0.357178	21.8525	0.356616	22.0162	0.891786	55.2285
0.153182	8.87857	0.0349374	2.01486	0.452436	26.7036	0.359672	21.1723	0.359096	21.3229	0.890478	53.0358
0.158683	8.86698	0.0372908	2.07369	0.452169	25.7121	0.362228	20.5452	0.361638	20.6842	0.889185	51.0057
0.164157	8.85476	0.039696	2.13124	0.451926	24.7919	0.364843	19.9654	0.36424	20.0941	0.887909	49.1209
0.169603	8.84188	0.0421508	2.18753	0.45171	23.9358	0.367514	19.4281	0.366898	19.5474	0.886651	47.3665
0.175019	8.82832	0.044653	2.24256	0.451524	23.1377	0.370238	18.9288	0.369611	19.0398	0.885412	45.7297
0.180402	8.81404	0.0472005	2.29636	0.451372	22.3922	0.373014	18.4638	0.372375	18.5672	0.884194	44.1991
0.185752	8.79901	0.0497912	2.34892	0.451257	21.6945	0.375839	18.0298	0.375189	18.1264	0.882997	42.7649
0.191065	8.78321	0.0524233	2.40029	0.451181	21.0406	0.37871	17.6239	0.378049	17.7144	0.881823	41.4183
0.19634	8.76659	0.0550947	2.45047	0.45115	20.4266	0.381625	17.2437	0.380955	17.3285	0.880673	40.1518
0.201574	8.74913	0.0578036	2.49948	0.451165	19.8495	0.384582	16.8867	0.383902	16.9664	0.879547	38.9585
0.206765	8.73079	0.0605483	2.54735	0.451231	19.3063	0.387578	16.551	0.38689	16.626	0.878447	37.8324
0.21191	8.71152	0.0633271	2.59408	0.451352	18.7945	0.390612	16.2348	0.389915	16.3055	0.877373	36.7681
0.217005	8.69129	0.0661383	2.63972	0.451531	18.3117	0.393681	15.9366	0.392976	16.0032	0.876327	35.7607
0.22205	8.67007	0.0689805	2.68428	0.451772	17.8559	0.396783	15.6547	0.396071	15.7178	0.875309	34.806
0.227039	8.64779	0.0718521	2.72778	0.452079	17.4252	0.399917	15.388	0.399198	15.4477	0.874319	33.8999
0.231971	8.62443	0.0747516	2.77024	0.452457	17.0181	0.40308	15.1353	0.402355	15.1919	0.873359	33.0391
0.236841	8.59995	0.0776777	2.81168	0.452909	16.6328	0.406271	14.8955	0.405539	14.9492	0.87243	32.2203
0.241647	8.57429	0.0806292	2.85214	0.453439	16.2682	0.409487	14.6677	0.40875	14.7187	0.871531	31.4406
0.246385	8.54742	0.0836047	2.89163	0.454052	15.9229	0.412727	14.4509	0.411985	14.4996	0.870664	30.6973
0.251052	8.51929	0.0866029	2.93017	0.454753	15.5958	0.41599	14.2445	0.415242	14.2908	0.86983	29.9881
0.255643	8.48987	0.0896229	2.9678	0.455545	15.286	0.419273	14.0476	0.41852	14.0918	0.869029	29.3108
0.260156	8.45912	0.0926635	3.00452	0.456433	14.9923	0.422574	13.8597	0.421818	13.9019	0.868262	28.6634
0.264586	8.427	0.0957236	3.04036	0.457421	14.714	0.425893	13.6801	0.425133	13.7204	0.86753	28.044
0.26893	8.39348	0.0988023	3.07534	0.458514	14.4503	0.429227	13.5082	0.428463	13.5468	0.866832	27.4509
0.273185	8.35854	0.101899	3.10949	0.459716	14.2005	0.432575	13.3436	0.431808	13.3806	0.866171	26.8826
0.277346	8.32215	0.105011	3.14282	0.461031	13.9638	0.435936	13.1857	0.435166	13.2213	0.865546	26.3377
0.281411	8.28431	0.10814	3.17536	0.462463	13.7396	0.439307	13.0343	0.438535	13.0683	0.864959	25.8148
0.285377	8.245	0.111284	3.20712	0.464015	13.5273	0.442688	12.8887	0.441914	12.9215	0.86441	25.3127
0.28924	8.20423	0.114442	3.23813	0.465691	13.3264	0.446077	12.7487	0.445302	12.7803	0.863899	24.8303
0.292999	8.16201	0.117613	3.26841	0.467495	13.1363	0.449473	12.614	0.448696	12.6444	0.863428	24.3664
0.296652	8.11835	0.120797	3.29796	0.469428	12.9566	0.452873	12.4842	0.452096	12.5134	0.862996	23.9203
0.300196	8.0733	0.123993	3.32683	0.471493	12.7867	0.456278	12.359	0.4555	12.3872	0.862605	23.4908
0.303631	8.02689	0.127201	3.35501	0.473691	12.6262	0.459685	12.2382	0.458906	12.2654	0.862256	23.0772
0.306956	7.97917	0.130419	3.38253	0.476025	12.4746	0.463094	12.1214	0.462315	12.1478	0.861949	22.6788
0.310171	7.9302	0.133647	3.4094	0.478494	12.3315	0.466502	12.0086	0.465723	12.034	0.861684	22.2947
0.313276	7.88006	0.136885	3.43565	0.481099	12.1966	0.469909	11.8993	0.46913	11.924	0.861463	21.9242
0.316273	7.82883	0.140132	3.46129	0.483839	12.0693	0.473313	11.7935	0.472536	11.8174	0.861285	21.5668
0.319163	7.77661	0.143387	3.48633	0.486713	11.9494	0.476714	11.691	0.475937	11.7141	0.861153	21.2219
0.321948	7.72348	0.14665	3.51079	0.48972	11.8363	0.480109	11.5915	0.479333	11.6139	0.861066	20.8887
0.324631	7.66955	0.149921	3.53469	0.492856	11.7299	0.483498	11.4949	0.482724	11.5167	0.861024	20.567
0.327215	7.61492	0.152777	3.55507	0.49612	11.6296	0.48688	11.401	0.486107	11.4222	0.86103	20.256
0.329703	7.55972	0.155216	3.57212	0.499508	11.5352	0.490252	11.3097	0.489482	11.3303	0.861083	19.9554
0.3321	7.50405	0.157235	3.586	0.503016	11.4462	0.493615	11.2208	0.492847	11.2409	0.861184	19.6648
0.334408	7.44802	0.158833	3.59683	0.506641	11.3625	0.496967	11.1343	0.496202	11.1539	0.861334	19.3836
0.336634	7.39175	0.16001	3.60472	0.510379	11.2836	0.500307	11.05	0.499545	11.0691	0.861532	19.1116
0.338781	7.33534	0.160763	3.60974	0.514224	11.2093	0.503634	10.9677	0.502874	10.9863	0.861781	18.8483
0.340855	7.2789	0.161846	3.6169	0.518172	11.1392	0.506946	10.8874	0.50619	10.9056	0.862081	18.5934
0.342858	7.22253	0.163024	3.62463	0.522219	11.0732	0.510243	10.809	0.509491	10.8267	0.862432	18.3465
0.344798	7.16633	0.164627	3.63503	0.526359	11.0109	0.513524	10.7323	0.512775	10.7497	0.862835	18.1075
0.346678	7.11038	0.166656	3.64803	0.530588	10.952	0.516787	10.6573	0.516042	10.6743	0.86329	17.8758
0.348502	7.05478	0.169113	3.6635	0.5349	10.8964	0.520032	10.5839	0.519292	10.6005	0.863798	17.6513
0.350277	6.99959	0.171998	3.68132	0.539292	10.8439	0.523258	10.512	0.522522	10.5283	0.86436	17.4338
0.352005	6.9449	0.175313	3.70134	0.543758	10.7941	0.526463	10.4415	0.525732	10.4575	0.864976	17.2229
0.353691	6.89076	0.178632	3.72091	0.548293	10.747	0.529239	10.3812	0.528512	10.3969	0.865646	17.0183
0.355339	6.83723	0.181956	3.74005	0.552894	10.7023	0.531592	10.3306	0.530869	10.3461	0.866372	16.82
0.356954	6.78437	0.185282	3.75876	0.557556	10.6599	0.533529	10.2892	0.532809	10.3046	0.867153	16.6276
0.358539	6.73223	0.188613	3.77705	0.562274	10.6196	0.535054	10.2569	0.534337	10.2721	0.86799	16.441
0.360097	6.68083	0.191946	3.79494	0.567045	10.5812	0.536172	10.2333	0.535457	10.2484	0.868884	16.2599
0.361632	6.63022	0.195282	3.81244	0.571865	10.5446	0.536886	10.2182	0.536172	10.2333	0.869835	16.0842
0.363147	6.58044	0.198621	3.82955	0.57673	10.5097	0.53791	10.1967	0.537197	10.2117	0.870843	15.9136
0.364645	6.53149	0.201962	3.84629	0.581637	10.4764	0.53902	10.1735	0.538309	10.1883	0.871908	15.7481
0.366129	6.48341	0.205305	3.86267	0.585945	10.4486	0.540524	10.1421	0.539817	10.1568	0.873032	15.5874
0.367602	6.43621	0.20865	3.87869	0.589638	10.4256	0.542419	10.1028	0.541715	10.1174	0.874213	15.4313
0.369065	6.3899	0.211997	3.89436	0.592706	10.4072	0.544697	10.0558	0.543997	10.0702	0.875453	15.2798
0.370522	6.34449	0.215346	3.90969	0.59514	10.3929	0.547351	10.0013	0.546657	10.0155	0.876751	15.1327
0.371974	6.3	0.218695	3.9247	0.596934	10.3826	0.550373	9.93976	0.549684	9.95375	0.878108	14.9897
0.373423	6.25642	0.222046	3.93938	0.598085	10.3761	0.553367	9.87913	0.552685	9.89291	0.879523	14.8509
0.374871	6.21375	0.225398	3.95376	0.599741	10.3669	0.556333	9.81938	0.555658	9.83296	0.880997	14.716
0.376134	6.17731	0.228751	3.96782	0.601544	10.3569	0.559272	9.76048	0.558602	9.77387	0.88253	14.585
0.377212	6.1468	0.232105	3.98159	0.604002	10.3436	0.562181	9.70239	0.561519	9.7156	0.884121	14.4577
0.378105	6.12195	0.235459	3.99506	0.60712	10.3272	0.565062	9.64508	0.564406	9.65812	0.88577	14.3339
0.378812	6.10254	0.238814	4.00826	0.610901	10.3078	0.567912	9.58851	0.567263	9.60138	0.887478	14.2137
0.379332	6.0884	0.242169	4.02117	0.615352	10.2856	0.570733	9.53266	0.570091	9.54537	0.889244	14.0968
0.379665	6.07941	0.245524	4.03382	0.620477	10.261	0.573523	9.47749	0.572888	9.49005	0.891067	13.9832
0.380145	6.06658	0.248879	4.0462	0.62562	10.2372	0.576283	9.42299	0.575655	9.43539	0.892947	13.8728
0.380668	6.05273	0.252234	4.05833	0.630777	10.2141	0.579012	9.36911	0.578391	9.38137	0.894885	13.7654
0.381379	6.03409	0.255589	4.0702	0.635946	10.1917	0.58171	9.31586	0.581096	9.32798	0.896879	13.6609
0.382282	6.01081	0.258943	4.08183	0.641125	10.17	0.584377	9.26319	0.58377	9.27518	0.898929	13.5594
0.383377	5.9831	0.262297	4.09322	0.646312	10.1487	0.587013	9.2111	0.586413	9.22296	0.901034	13.4606
0.384668	5.95121	0.265651	4.10438	0.651506	10.128	0.589618	9.15957	0.589025	9.1713	0.903194	13.3645
0.386159	5.91543	0.269004	4.1153	0.656703	10.1078	0.592192	9.10857	0.591606	9.12018	0.905408	13.271
0.387659	5.8805	0.272357	4.12601	0.661903	10.088	0.594734	9.05811	0.594156	9.0696	0.907675	13.18
0.389171	5.84641	0.275708	4.13649	0.667102	10.0686	0.597246	9.00815	0.596675	9.01953	0.909995	13.0915
0.390694	5.81315	0.279059	4.14677	0.672301	10.0495	0.599727	8.9587	0.599163	8.96996	0.912366	13.0053
0.39223	5.7807	0.282409	4.15683	0.677495	10.0308	0.602178	8.90974	0.601621	8.92089	0.914789	12.9214
0.393779	5.74905	0.285758	4.16669	0.682685	10.0123	0.604599	8.86127	0.604048	8.87231	0.917262	12.8397
0.395341	5.71819	0.289106	4.17636	0.687867	9.99409	0.60699	8.81326	0.606446	8.82419	0.919783	12.7602
0.396918	5.6881	0.292453	4.18583	0.693041	9.97606	0.609352	8.76572	0.608814	8.77655	0.922353	12.6827
0.39851	5.65878	0.295798	4.19511	0.698204	9.95822	0.611684	8.71864	0.611154	8.72936	0.924969	12.6073
0.400116	5.63019	0.299142	4.2042	0.703354	9.94053	0.613989	8.67201	0.613464	8.68263	0.927632	12.5337
0.401738	5.60233	0.302485	4.21312	0.708491	9.92296	0.616265	8.62584	0.615747	8.63635	0.93034	12.462
0.403376	5.57518	0.305827	4.22185	0.713612	9.90549	0.618514	8.5801	0.618002	8.59052	0.933091	12.3922
0.40503	5.54873	0.309167	4.23041	0.718715	9.88808	0.620736	8.5348	0.62023	8.54512	0.935885	12.324
0.4067	5.52296	0.312506	4.23881	0.723799	9.87071	0.622932	8.48995	0.622432	8.50016	0.93872	12.2576
0.408386	5.49786	0.315843	4.24703	0.728862	9.85337	0.625102	8.44552	0.624608	8.45564	0.941596	12.1928
0.41009	5.47342	0.319178	4.2551	0.733902	9.83601	0.627247	8.40153	0.626759	8.41155	0.944511	12.1296
0.41181	5.44961	0.322512	4.26301	0.738917	9.81862	0.629369	8.35797	0.628886	8.36789	0.947464	12.0678
0.413546	5.42643	0.325844	4.27076	0.743906	9.80118	0.631467	8.31483	0.630989	8.32466	0.950453	12.0076
0.4153	5.40385	0.329175	4.27836	0.748867	9.78366	0.633542	8.27213	0.633069	8.28185	0.953477	11.9487
0.417072	5.38188	0.332503	4.28581	0.753797	9.76605	0.635595	8.22985	0.635127	8.23947	0.956536	11.8913
0.41886	5.36048	0.33583	4.29311	0.758696	9.74832	0.637627	8.18799	0.637164	8.19752	0.959627	11.8351
0.420665	5.33965	0.339155	4.30027	0.763561	9.73044	0.639638	8.14656	0.63918	8.156	0.962749	11.7802
0.422488	5.31937	0.342479	4.3073	0.768391	9.71241	0.64163	8.10556	0.641176	8.1149	0.965902	11.7265
0.424328	5.29964	0.3458	4.31418	0.773183	9.6942	0.643603	8.06498	0.643153	8.07422	0.969083	11.674
0.426185	5.28043	0.349119	4.32094	0.777936	9.6758	0.645558	8.02483	0.645113	8.03397	0.972292	11.6227
0.428059	5.26173	0.352437	4.32756	0.782648	9.65718	0.647496	7.9851	0.647054	7.99414	0.975528	11.5724
0.42995	5.24354	0.355752	4.33405	0.787317	9.63833	0.649417	7.94579	0.648979	7.95474	0.978788	11.5232
0.431858	5.22584	0.359065	4.34042	0.791941	9.61923	0.651323	7.90691	0.650888	7.91576	0.982071	11.475
0.433783	5.20861	0.362376	4.34667	0.796519	9.59987	0.653214	7.86845	0.652783	7.8772	0.985377	11.4278
0.435725	5.19185	0.365686	4.35279	0.801049	9.58023	0.65509	7.83041	0.654663	7.83907	0.988275	11.3874
0.437684	5.17554	0.368993	4.3588	0.805529	9.5603	0.656954	7.7928	0.656529	7.80136	0.990758	11.3535
0.439659	5.15967	0.372298	4.36469	0.809958	9.54007	0.658805	7.75561	0.658383	7.76408	0.992818	11.3259
0.441651	5.14423	0.3756	4.37047	0.814334	9.51952	0.660645	7.71885	0.660226	7.72722	0.994452	11.3042
0.44366	5.12922	0.378901	4.37613	0.818655	9.49864	0.662474	7.68251	0.662057	7.69078	0.995656	11.2884
0.445685	5.11461	0.382199	4.38169	0.822921	9.47744	0.664293	7.64659	0.663878	7.65476	0.996428	11.2784
0.447725	5.1004	0.385495	4.38714	0.827129	9.45588	0.666102	7.61109	0.665689	7.61916	0.997539	11.264
0.449782	5.08657	0.388789	4.39249	0.831279	9.43398	0.667903	7.576	0.667492	7.58399	0.998749	11.2485
0.451855	5.07313	0.392081	4.39773	0.835369	9.41173	0.669695	7.54134	0.669286	7.54923	1.0004	11.2276
0.453943	5.06005	0.39537	4.40288	0.839398	9.38911	0.671481	7.5071	0.671073	7.51489		
0.456047	5.04733	0.398657	4.40792	0.843366	9.36614	0.67326	7.47327	0.672854	7.48097		
0.458166	5.03495	0.401942	4.41287	0.847272	9.34281	0.675034	7.43986	0.674629	7.44746		
0.460301	5.02292	0.405224	4.41772	0.851114	9.31911	0.676802	7.40686	0.676398	7.41437		
0.46245	5.01122	0.408505	4.42249	0.854894	9.29506	0.678565	7.37428	0.678163	7.38169		
0.464615	4.99984	0.411782	4.42716	0.858609	9.27065	0.680325	7.34211	0.679923	7.34942		
0.466794	4.98877	0.415057	4.43174	0.862261	9.24589	0.682082	7.31034	0.681681	7.31757		
0.468987	4.97801	0.41833	4.43623	0.865848	9.22079	0.683836	7.27898	0.683435	7.28611		
0.471195	4.96755	0.421601	4.44063	0.869372	9.19536	0.685588	7.24803	0.685187	7.25507		
0.473417	4.95737	0.424869	4.44496	0.872832	9.1696	0.687338	7.21747	0.686938	7.22442		
0.475653	4.94748	0.428135	4.44919	0.876228	9.14352	0.689087	7.18732	0.688688	7.19418		
0.477903	4.93786	0.431398	4.45335	0.879562	9.11714	0.690836	7.15756	0.690437	7.16433		
0.480167	4.92851	0.434659	4.45743	0.882833	9.09047	0.692586	7.1282	0.692186	7.13488		
0.482443	4.91941	0.437917	4.46143	0.886043	9.06351	0.694335	7.09924	0.693935	7.10582		
0.484734	4.91057	0.441173	4.46535	0.889192	9.0363	0.696086	7.07066	0.695686	7.07716		
0.487037	4.90197	0.444426	4.4692	0.892282	9.00884	0.697839	7.04247	0.697438	7.04888		
0.489353	4.89362	0.447677	4.47297	0.895313	8.98114	0.699593	7.01466	0.699192	7.02098		
0.491682	4.8855	0.450926	4.47667	0.898286	8.95323	0.70135	6.98723	0.700948	6.99347		
0.494023	4.8776	0.454172	4.4803	0.901204	8.92511	0.703109	6.96018	0.702707	6.96633		
0.496376	4.86992	0.457415	4.48385	0.904066	8.89681	0.704872	6.9335	0.704469	6.93957		
0.498742	4.86246	0.460656	4.48734	0.906875	8.86834	0.706639	6.9072	0.706235	6.91318		
0.50112	4.85521	0.463894	4.49076	0.909632	8.83973	0.70841	6.88126	0.708004	6.88716		
0.503509	4.84816	0.46713	4.49412	0.912338	8.81098	0.710185	6.85569	0.709778	6.8615		
0.50591	4.84131	0.470364	4.49741	0.914995	8.78211	0.711964	6.83047	0.711557	6.83621		
0.508322	4.83465	0.473595	4.50063	0.917605	8.75314	0.713749	6.80562	0.713341	6.81127		
0.510746	4.82817	0.476823	4.50379	0.920168	8.72408	0.71554	6.78112	0.71513	6.78669		
0.513181	4.82188	0.480049	4.50689	0.922686	8.69496	0.717336	6.75697	0.716924	6.76246		
0.515626	4.81577	0.483272	4.50993	0.925162	8.66578	0.719137	6.73317	0.718725	6.73858		
0.518083	4.80983	0.486492	4.51291	0.927596	8.63657	0.720946	6.70971	0.720532	6.71504		
0.52055	4.80406	0.489711	4.51583	0.92999	8.60733	0.72276	6.68658	0.722345	6.69184		
0.523027	4.79845	0.492926	4.51869	0.932345	8.57809	0.724582	6.6638	0.724165	6.66898		
0.525514	4.793	0.496139	4.5215	0.934663	8.54885	0.726411	6.64135	0.725992	6.64645		
0.528012	4.7877	0.49935	4.52424	0.936946	8.51963	0.728246	6.61922	0.727826	6.62425		
0.530519	4.78255	0.502558	4.52694	0.939195	8.49044	0.73009	6.59743	0.729668	6.60238		
0.533036	4.77755	0.505763	4.52958	0.94141	8.46129	0.731941	6.57595	0.731517	6.58083		
0.535562	4.7727	0.508966	4.53217	0.943595	8.4322	0.7338	6.55479	0.733374	6.5596		
0.538098	4.76798	0.512166	4.5347	0.94575	8.40318	0.735667	6.53394	0.73524	6.53868		
0.540644	4.76339	0.515364	4.53719	0.947876	8.37423	0.737542	6.5134	0.737113	6.51807		
0.543198	4.75894	0.518559	4.53962	0.949975	8.34537	0.739426	6.49317	0.738995	6.49777		
0.545761	4.75461	0.521751	4.542	0.952047	8.3166	0.741319	6.47325	0.740885	6.47778		
0.548333	4.75041	0.524941	4.54434	0.954095	8.28794	0.74322	6.45362	0.742785	6.45808		
0.550913	4.74633	0.528129	4.54663	0.956119	8.2594	0.74513	6.43428	0.744693	6.43868		
0.553502	4.74237	0.531314	4.54887	0.958121	8.23098	0.74705	6.41524	0.74661	6.41957		
0.556099	4.73852	0.534496	4.55106	0.960101	8.20268	0.748978	6.39649	0.748537	6.40075		
0.558705	4.73478	0.537676	4.55321	0.962061	8.17453	0.750916	6.37801	0.750472	6.38221		
0.561318	4.73115	0.540853	4.55532	0.964002	8.14651	0.752863	6.35982	0.752417	6.36396		
0.563939	4.72762	0.544028	4.55738	0.965924	8.11865	0.75482	6.34191	0.754372	6.34598		
0.566568	4.7242	0.5472	4.55939	0.96783	8.09094	0.756786	6.32427	0.756336	6.32828		
0.569205	4.72088	0.550369	4.56137	0.969719	8.06339	0.758763	6.3069	0.75831	6.31085		
0.571849	4.71765	0.553537	4.5633	0.971592	8.03601	0.760749	6.28979	0.760294	6.29368		
0.574501	4.71452	0.556701	4.56519	0.973452	8.0088	0.762744	6.27295	0.762287	6.27678		
0.577159	4.71148	0.559863	4.56705	0.975297	7.98176	0.76475	6.25636	0.764291	6.26013		
0.579825	4.70852	0.563023	4.56886	0.97713	7.95491	0.766766	6.24003	0.766304	6.24375		
0.582497	4.70566	0.56618	4.57063	0.97895	7.92823	0.768792	6.22396	0.768328	6.22761		
0.585177	4.70288	0.569334	4.57236	0.98076	7.90174	0.770828	6.20813	0.770362	6.21172		
0.587863	4.70018	0.572486	4.57406	0.982559	7.87544	0.772875	6.19254	0.772406	6.19608		
0.590555	4.69756	0.575636	4.57572	0.984348	7.84933	0.774931	6.1772	0.77446	6.18069		
0.593254	4.69502	0.578783	4.57734	0.986128	7.82342	0.776998	6.1621	0.776525	6.16553		
0.59596	4.69255	0.581928	4.57893	0.987899	7.7977	0.779075	6.14723	0.7786	6.1506		
0.598671	4.69016	0.58507	4.58048	0.989663	7.77217	0.781163	6.13259	0.780685	6.13591		
0.601389	4.68784	0.588209	4.582	0.991419	7.74685	0.783261	6.11818	0.782781	6.12145		
0.604113	4.68559	0.591347	4.58348	0.993169	7.72173	0.78537	6.10399	0.784887	6.10722		
0.606842	4.6834	0.594481	4.58493	0.994913	7.69682	0.787488	6.09003	0.787003	6.0932		
0.609577	4.68128	0.597614	4.58635	0.996651	7.67211	0.789618	6.07628	0.78913	6.07941		
0.612318	4.67923	0.600744	4.58773	0.998385	7.6476	0.791757	6.06275	0.791267	6.06583		
0.615065	4.67724	0.603871	4.58908	1.00011	7.6233	0.793907	6.04944	0.793415	6.05246		
0.617816	4.6753	0.606996	4.5904			0.796068	6.03633	0.795573	6.03931		
0.620574	4.67343	0.610119	4.59169			0.798239	6.02343	0.797742	6.02636		
0.623336	4.67161	0.613239	4.59295			0.800421	6.01073	0.799921	6.01361		
0.626104	4.66985	0.616357	4.59418			0.802613	5.99823	0.802111	6.00107		
0.628876	4.66815	0.619473	4.59538			0.804815	5.98592	0.804311	5.98872		
0.631653	4.66649	0.622586	4.59656			0.807028	5.97382	0.806521	5.97657		
0.634436	4.66489	0.625697	4.5977			0.809251	5.9619	0.808742	5.96461		
0.637223	4.66334	0.628806	4.59882			0.811485	5.95017	0.810973	5.95284		
0.640014	4.66183	0.631912	4.5999			0.813729	5.93863	0.813215	5.94125		
0.642811	4.66038	0.635016	4.60097			0.815983	5.92727	0.815467	5.92985		
0.645611	4.65896	0.638118	4.602			0.818248	5.91609	0.817729	5.91863		
0.648416	4.6576	0.641217	4.60301			0.820523	5.90509	0.820002	5.90759		
0.651226	4.65627	0.644314	4.604			0.822808	5.89426	0.822284	5.89672		
0.654039	4.65499	0.647409	4.60496			0.825103	5.88361	0.824578	5.88603		
0.656857	4.65375	0.650502	4.60589			0.827409	5.87312	0.826881	5.8755		
0.659678	4.65255	0.653593	4.6068			0.829724	5.8628	0.829194	5.86515		
0.662504	4.65139	0.656681	4.60769			0.83205	5.85265	0.831517	5.85495		
0.665334	4.65026	0.659767	4.60855			0.834386	5.84265	0.833851	5.84492		
0.668167	4.64917	0.662851	4.6094			0.836731	5.83282	0.836194	5.83505		
0.671004	4.64812	0.665933	4.61022			0.839087	5.82314	0.838548	5.82534		
0.673844	4.6471	0.669013	4.61101			0.841453	5.81362	0.840911	5.81578		
0.676689	4.64611	0.672091	4.61179			0.843828	5.80425	0.843284	5.80638		
0.679536	4.64516	0.675166	4.61255			0.846213	5.79503	0.845667	5.79712		
0.682388	4.64424	0.67824	4.61328			0.848608	5.78595	0.84806	5.78802		
0.685242	4.64335	0.681311	4.61399			0.851013	5.77703	0.850462	5.77905		
0.6881	4.64249	0.684381	4.61469			0.853427	5.76824	0.852875	5.77024		
0.690961	4.64166	0.687448	4.61536			0.855851	5.75959	0.855296	5.76156		
0.693825	4.64085	0.690513	4.61602			0.858285	5.75109	0.857727	5.75302		
0.696692	4.64008	0.693577	4.61665			0.860727	5.74272	0.860168	5.74462		
0.699563	4.63933	0.696638	4.61727			0.86318	5.73448	0.862618	5.73635		
0.702436	4.6386	0.699698	4.61787			0.865641	5.72637	0.865078	5.72821		
0.705312	4.63791	0.702756	4.61846			0.868112	5.7184	0.867546	5.72021		
0.708191	4.63723	0.705811	4.61902			0.870592	5.71055	0.870024	5.71233		
0.711073	4.63658	0.708865	4.61957			0.873081	5.70283	0.872512	5.70458		
0.713957	4.63596	0.711917	4.6201			0.87558	5.69523	0.875008	5.69695		
0.716844	4.63535	0.714967	4.62062			0.878087	5.68775	0.877513	5.68945		
0.719734	4.63477	0.718016	4.62112			0.880603	5.68039	0.880027	5.68206		
0.722626	4.63421	0.721062	4.6216			0.883128	5.67315	0.88255	5.6748		
0.725521	4.63366	0.724107	4.62207			0.885662	5.66603	0.885082	5.66765		
0.728418	4.63314	0.72715	4.62252			0.888205	5.65902	0.887623	5.66061		
0.731318	4.63264	0.730192	4.62296			0.890756	5.65212	0.890172	5.65369		
0.734219	4.63216	0.733231	4.62339			0.893316	5.64533	0.89273	5.64688		
0.737123	4.63169	0.736269	4.6238			0.895885	5.63866	0.895297	5.64017		
0.74003	4.63125	0.739305	4.6242			0.898461	5.63208	0.897872	5.63358		
0.742938	4.63081	0.74234	4.62458			0.901047	5.62562	0.900455	5.62709		
0.745849	4.6304	0.745373	4.62495			0.90364	5.61925	0.903047	5.6207		
0.748762	4.63	0.748404	4.62531			0.906242	5.61299	0.905647	5.61442		
0.751677	4.62962	0.751434	4.62565			0.908852	5.60683	0.908255	5.60823		
0.754593	4.62926	0.754463	4.62599			0.91147	5.60077	0.910871	5.60215		
0.757512	4.6289	0.757489	4.62631			0.914096	5.5948	0.913495	5.59616		
0.760433	4.62857	0.760515	4.62662			0.91673	5.58893	0.916128	5.59026		
0.763355	4.62824	0.763538	4.62692			0.919372	5.58315	0.918768	5.58447		
0.766279	4.62793	0.766561	4.6272			0.922022	5.57747	0.921416	5.57876		
0.769205	4.62763	0.769582	4.62748			0.924679	5.57187	0.924071	5.57314		
0.772133	4.62735	0.772601	4.62774			0.927345	5.56637	0.926735	5.56762		
0.775063	4.62708	0.775619	4.628			0.930017	5.56095	0.929406	5.56218		
0.777994	4.62682	0.778636	4.62824			0.932697	5.55562	0.932084	5.55683		
0.780926	4.62657	0.781651	4.62848			0.935385	5.55037	0.93477	5.55156		
0.783861	4.62633	0.784665	4.6287			0.93808	5.54521	0.937463	5.54638		
0.786796	4.6261	0.787678	4.62892			0.940782	5.54013	0.940164	5.54128		
0.789734	4.62589	0.790689	4.62913			0.943492	5.53512	0.942872	5.53626		
0.792672	4.62568	0.793699	4.62932			0.946208	5.5302	0.945587	5.53132		
0.795613	4.62548	0.796708	4.62951			0.948932	5.52536	0.948309	5.52646		
0.798554	4.6253	0.799716	4.6297			0.951663	5.52059	0.951038	5.52167		
0.801497	4.62512	0.802723	4.62987			0.9544	5.5159	0.953774	5.51697		
0.804441	4.62495	0.805728	4.63003			0.957145	5.51128	0.956517	5.51233		
0.807387	4.62479	0.808732	4.63019			0.959896	5.50674	0.959266	5.50777		
0.810334	4.62464	0.811735	4.63034			0.962654	5.50226	0.962023	5.50328		
0.813282	4.62449	0.814737	4.63048			0.965418	5.49786	0.964786	5.49886		
0.816231	4.62436	0.817738	4.63062			0.968189	5.49353	0.967555	5.49451		
0.819181	4.62423	0.820738	4.63074			0.970967	5.48926	0.970331	5.49023		
0.822133	4.62411	0.823737	4.63087			0.973751	5.48507	0.973114	5.48602		
0.825085	4.62399	0.826735	4.63098			0.976541	5.48093	0.975903	5.48187		
0.828039	4.62389	0.829731	4.63109			0.979338	5.47687	0.978698	5.47779		
0.830994	4.62379	0.832727	4.63119			0.98214	5.47286	0.981499	5.47377		
0.83395	4.62369	0.835722	4.63129			0.984949	5.46892	0.984307	5.46982		
0.836906	4.6236	0.838716	4.63138			0.987764	5.46504	0.98712	5.46592		
0.839864	4.62352	0.841709	4.63146			0.990585	5.46122	0.98994	5.46209		
0.842823	4.62344	0.844701	4.63154			0.993412	5.45746	0.992765	5.45832		
0.845782	4.62337	0.847692	4.63161			0.996245	5.45376	0.995597	5.4546		
0.848743	4.62331	0.850683	4.63168			0.999083	5.45012	0.998434	5.45095		
0.851704	4.62325	0.853672	4.63175			1.00193	5.44653	1.00128	5.44735		
0.854666	4.62319	0.856661	4.6318								
0.857629	4.62314	0.859649	4.63186								
0.860593	4.62309	0.862636	4.63191								
0.863557	4.62305	0.865623	4.63195								
0.866523	4.62302	0.868608	4.63199								
0.869489	4.62298	0.871593	4.63203								
0.872455	4.62295	0.874578	4.63206								
0.875423	4.62293	0.877561	4.63209								
0.878391	4.62291	0.880544	4.63212								
0.88136	4.62289	0.883526	4.63214								
0.884329	4.62287	0.886508	4.63216								
0.887299	4.62286	0.889489	4.63217								
0.89027	4.62285	0.892469	4.63219								
0.893241	4.62285	0.895449	4.63219								
0.896212	4.62284	0.898429	4.6322								
0.899185	4.62284	0.901407	4.6322								
0.902157	4.62285	0.904386	4.6322								
0.905131	4.62285	0.907363	4.6322								
0.908104	4.62286	0.910341	4.6322								
0.911078	4.62287	0.913317	4.63219								
0.914053	4.62288	0.916294	4.63218								
0.917028	4.6229	0.919269	4.63217								
0.920004	4.62291	0.922245	4.63215								
0.922979	4.62293	0.92522	4.63214								
0.925956	4.62295	0.928194	4.63212								
0.928932	4.62297	0.931168	4.6321								
0.931909	4.623	0.934142	4.63208								
0.934887	4.62302	0.937116	4.63205								
0.937865	4.62305	0.940089	4.63203								
0.940843	4.62308	0.943061	4.632								
0.943821	4.62311	0.946034	4.63198								
0.9468	4.62314	0.949006	4.63195								
0.949779	4.62317	0.951978	4.63192								
0.952758	4.6232	0.954949	4.63188								
0.955737	4.62324	0.95792	4.63185								
0.958717	4.62327	0.960891	4.63182								
0.961697	4.62331	0.963862	4.63178								
0.964677	4.62335	0.966832	4.63175								
0.967658	4.62339	0.969802	4.63171								
0.970638	4.62342	0.972772	4.63167								
0.973619	4.62346	0.975742	4.63163								
0.9766	4.6235	0.978711	4.63159								
0.979581	4.62354	0.981681	4.63155								
0.982563	4.62359	0.98465	4.63151								
0.985544	4.62363	0.987619	4.63147								
0.988526	4.62367	0.990587	4.63143								
0.991508	4.62371	0.993556	4.63139								
0.99449	4.62376	0.996524	4.63134								
0.997472	4.6238	0.999493	4.6313								
1.00045	4.62384	1.00246	4.63126								
