Sym0		Asym0		Sym1		Sym2		Asym1		Asym2	
365  Points		363  Points		277  Points		171  Points		317  Points		180  Points	
Freq (MHz)	Vph (m/ms)	Freq (MHz)	Vph (m/ms)	Freq (MHz)	Vph (m/ms)	Freq (MHz)	Vph (m/ms)	Freq (MHz)	Vph (m/ms)	Freq (MHz)	Vph (m/ms)
0.00181742	7.44722	0.000381793	0.202981	0.444282	2495.71	0.612374	4717.57	0.306205	732.299	0.888475	1573.83
0.0067235	7.447	0.000695353	0.273789	0.444257	530.884	0.612427	776.586	0.306311	284.425	0.888146	726.001
0.0116289	7.44651	0.00110141	0.344348	0.444201	296.999	0.612557	423.205	0.306511	176.586	0.887592	471.585
0.016533	7.44574	0.00159912	0.414563	0.444114	206.139	0.612762	290.928	0.306803	128.125	0.886839	349.018
0.0214354	7.44472	0.00218759	0.484391	0.443997	157.823	0.613044	221.712	0.307187	100.606	0.885916	276.869
0.0263355	7.44345	0.00286573	0.553768	0.443849	127.835	0.6134	179.155	0.307664	82.8794	0.884853	229.321
0.0312328	7.44191	0.00363233	0.622637	0.443672	107.404	0.613831	150.351	0.30823	70.5173	0.883676	195.617
0.0361268	7.4401	0.00448603	0.690947	0.443466	92.588	0.614335	129.567	0.308887	61.4113	0.882409	170.475
0.0410169	7.43801	0.00542537	0.758645	0.443234	81.35	0.614912	113.867	0.309631	54.4301	0.881071	150.998
0.0459025	7.43564	0.00644863	0.825667	0.442976	72.5323	0.615561	101.593	0.310463	48.9117	0.879678	135.464
0.0507832	7.43301	0.0075543	0.891993	0.442693	65.4281	0.61628	91.7371	0.31138	44.4433	0.878243	122.786
0.0556582	7.43009	0.00874045	0.957562	0.442387	59.5815	0.617068	83.651	0.31238	40.754	0.876776	112.243
0.0605272	7.42689	0.0100053	1.02234	0.442059	54.6852	0.617924	76.8993	0.313463	37.6585	0.875287	103.337
0.0653893	7.42339	0.0113469	1.0863	0.441713	50.5246	0.618847	71.1784	0.314626	35.026	0.873781	95.7146
0.070244	7.41961	0.0127632	1.1494	0.441348	46.9453	0.619834	66.2704	0.315867	32.7613	0.872266	89.1173
0.0750907	7.41552	0.0142522	1.21161	0.440967	43.8331	0.620886	62.0146	0.317184	30.7938	0.870744	83.3515
0.0799287	7.41112	0.015812	1.27292	0.440573	41.1022	0.621998	58.2901	0.318576	29.0696	0.869221	78.2697
0.0847573	7.40641	0.0174404	1.3333	0.440166	38.6866	0.623172	55.0042	0.320039	27.5472	0.867699	73.7571
0.0895758	7.40138	0.0191353	1.39273	0.43975	36.5345	0.624404	52.0842	0.321573	26.1938	0.866181	69.7235
0.0943836	7.39603	0.0208947	1.45119	0.439326	34.6052	0.625693	49.473	0.323174	24.9835	0.864669	66.0967
0.0991797	7.39033	0.0227164	1.50869	0.438897	32.8659	0.627037	47.1245	0.324841	23.8954	0.863166	62.8182
0.103964	7.3843	0.0245985	1.5652	0.438464	31.2899	0.628435	45.0014	0.326571	22.9123	0.861672	59.8405
0.108734	7.37791	0.0265388	1.62072	0.438031	29.8553	0.629885	43.0732	0.328362	22.0201	0.860191	57.124
0.113491	7.37116	0.0285353	1.67525	0.437599	28.5442	0.631385	41.3146	0.330212	21.2072	0.858722	54.6361
0.118233	7.36404	0.0305861	1.72878	0.437171	27.3413	0.632934	39.7043	0.332119	20.4638	0.857268	52.3493
0.122959	7.35653	0.0326892	1.78132	0.436749	26.234	0.63453	38.2247	0.33408	19.7817	0.855829	50.2403
0.127668	7.34863	0.0348427	1.83287	0.436335	25.2115	0.636172	36.8607	0.336093	19.1537	0.854406	48.2892
0.13236	7.34032	0.0370447	1.88343	0.435933	24.2646	0.637857	35.5995	0.338157	18.574	0.853	46.4791
0.137032	7.3316	0.0392934	1.93301	0.435544	23.3854	0.639586	34.43	0.340269	18.0373	0.851613	44.7954
0.141685	7.32244	0.0415869	1.98162	0.43517	22.567	0.641354	33.3427	0.342427	17.5391	0.850244	43.2255
0.146317	7.31283	0.0439236	2.02926	0.434815	21.8037	0.643163	32.3294	0.344629	17.0757	0.848894	41.7583
0.150927	7.30276	0.0463019	2.07595	0.434481	21.0902	0.645009	31.383	0.346872	16.6436	0.847565	40.3841
0.155513	7.29221	0.0487199	2.12169	0.43417	20.422	0.646892	30.497	0.349156	16.2398	0.846256	39.0946
0.160075	7.28118	0.0511762	2.1665	0.433885	19.7952	0.64881	29.6661	0.351479	15.8618	0.844969	37.8822
0.16461	7.26963	0.0536693	2.21039	0.433628	19.2062	0.650763	28.8852	0.353837	15.5072	0.843704	36.7403
0.169118	7.25755	0.0561976	2.25338	0.433402	18.6519	0.652747	28.1501	0.35623	15.1739	0.842462	35.6631
0.173597	7.24493	0.0587597	2.29548	0.433209	18.1296	0.654764	27.457	0.358655	14.8602	0.841242	34.6452
0.178045	7.23174	0.0613542	2.33669	0.433053	17.6368	0.65681	26.8023	0.361112	14.5645	0.840046	33.6821
0.182461	7.21797	0.0639799	2.37705	0.432936	17.1713	0.658885	26.1831	0.363598	14.2852	0.838875	32.7695
0.186843	7.20359	0.0666353	2.41656	0.43286	16.7311	0.660988	25.5966	0.366111	14.021	0.837728	31.9037
0.19119	7.18859	0.0693194	2.45524	0.432828	16.3145	0.663118	25.0402	0.368651	13.7708	0.836606	31.0811
0.1955	7.17294	0.0720308	2.4931	0.432843	15.9197	0.665274	24.5118	0.371215	13.5335	0.83551	30.2988
0.19977	7.15663	0.0747685	2.53016	0.432909	15.5454	0.667454	24.0094	0.373801	13.3082	0.83444	29.554
0.203999	7.13962	0.0775313	2.56644	0.433027	15.1903	0.669658	23.531	0.37641	13.0939	0.833397	28.844
0.208185	7.12191	0.0803182	2.60195	0.4332	14.8531	0.671884	23.0751	0.379038	12.89	0.832381	28.1666
0.212325	7.10346	0.0831282	2.6367	0.433432	14.5328	0.674133	22.64	0.381685	12.6955	0.831392	27.5196
0.216418	7.08426	0.0859602	2.67072	0.433725	14.2283	0.676401	22.2245	0.384349	12.51	0.830432	26.9012
0.220462	7.06428	0.0888134	2.70402	0.434082	13.9388	0.67869	21.8272	0.387029	12.3328	0.8295	26.3095
0.224454	7.0435	0.0916869	2.73662	0.434507	13.6634	0.680998	21.447	0.389724	12.1633	0.828597	25.743
0.228392	7.02191	0.0945798	2.76852	0.435001	13.4013	0.683324	21.0828	0.392432	12.0011	0.827724	25.2001
0.232274	6.99948	0.0974911	2.79975	0.435568	13.1519	0.685668	20.7337	0.395152	11.8456	0.826881	24.6794
0.236097	6.9762	0.10042	2.83032	0.436212	12.9144	0.688028	20.3987	0.397883	11.6965	0.826068	24.1797
0.23986	6.95206	0.103366	2.86025	0.436934	12.6883	0.690404	20.077	0.400623	11.5533	0.825286	23.6998
0.24356	6.92703	0.106329	2.88954	0.437737	12.473	0.692795	19.7678	0.403372	11.4157	0.824536	23.2386
0.247195	6.9011	0.109307	2.91822	0.438625	12.268	0.6952	19.4704	0.406129	11.2833	0.823817	22.7951
0.250763	6.87428	0.112299	2.9463	0.4396	12.0728	0.697619	19.1842	0.408891	11.1559	0.823131	22.3683
0.254262	6.84654	0.115306	2.97379	0.440663	11.8869	0.700051	18.9085	0.411659	11.0331	0.822477	21.9575
0.25769	6.8179	0.118327	3.00071	0.441819	11.71	0.702496	18.6428	0.414431	10.9147	0.821857	21.5617
0.261045	6.78835	0.12136	3.02706	0.443068	11.5416	0.704952	18.3865	0.417207	10.8003	0.821271	21.1802
0.264327	6.7579	0.124406	3.05287	0.444413	11.3813	0.70742	18.1392	0.419984	10.6899	0.820718	20.8124
0.267532	6.72657	0.127464	3.07814	0.445856	11.2288	0.709898	17.9004	0.422762	10.5832	0.820201	20.4575
0.270662	6.69435	0.130533	3.10289	0.447398	11.0837	0.712385	17.6696	0.425541	10.4799	0.819718	20.1149
0.273713	6.66129	0.133613	3.12713	0.44904	10.9458	0.714883	17.4464	0.428319	10.3799	0.819271	19.7841
0.276687	6.6274	0.136703	3.15087	0.450784	10.8146	0.717389	17.2306	0.431095	10.283	0.81886	19.4645
0.279582	6.59271	0.139803	3.17413	0.45263	10.6899	0.719903	17.0216	0.433868	10.189	0.818486	19.1556
0.282398	6.55725	0.142913	3.19691	0.454578	10.5714	0.722426	16.8192	0.436638	10.0979	0.818149	18.857
0.285136	6.52108	0.146031	3.21922	0.456629	10.4589	0.724955	16.6232	0.439403	10.0093	0.817849	18.5681
0.287797	6.48423	0.149158	3.24108	0.458782	10.352	0.727491	16.4331	0.441809	9.93419	0.817587	18.2886
0.290381	6.44674	0.152293	3.2625	0.461036	10.2505	0.730034	16.2487	0.443856	9.87159	0.817363	18.0181
0.292888	6.40869	0.155436	3.28349	0.463391	10.1541	0.732582	16.0698	0.445546	9.82078	0.817179	17.7562
0.295322	6.37011	0.158586	3.30405	0.465845	10.0626	0.735136	15.8961	0.44688	9.7812	0.817033	17.5024
0.297683	6.33107	0.161743	3.3242	0.468064	9.98672	0.737695	15.7274	0.44786	9.75243	0.816927	17.2566
0.299974	6.29163	0.164907	3.34395	0.470013	9.92467	0.740259	15.5634	0.448487	9.73416	0.816862	17.0184
0.302196	6.25185	0.168078	3.36331	0.471665	9.87515	0.742826	15.4041	0.449387	9.70808	0.816836	16.7875
0.304352	6.2118	0.170845	3.37986	0.472995	9.8371	0.745398	15.249	0.450365	9.68	0.816852	16.5635
0.306445	6.17153	0.173208	3.39374	0.473987	9.80974	0.747973	15.0982	0.451692	9.64221	0.816909	16.3463
0.308478	6.13112	0.175164	3.40507	0.474629	9.79249	0.75055	14.9514	0.453368	9.5951	0.817008	16.1356
0.310453	6.09062	0.176712	3.41393	0.475559	9.76805	0.753131	14.8085	0.45539	9.53909	0.817149	15.9311
0.312373	6.0501	0.177851	3.42039	0.47658	9.74196	0.755714	14.6693	0.457755	9.47468	0.817332	15.7326
0.314242	6.00961	0.178581	3.4245	0.477988	9.70724	0.758298	14.5336	0.460459	9.40243	0.817559	15.5399
0.316062	5.96922	0.17963	3.43037	0.479799	9.66457	0.760885	14.4013	0.463151	9.33188	0.817828	15.3528
0.317612	5.93414	0.18077	3.43671	0.482031	9.61476	0.763473	14.2723	0.465832	9.26293	0.818141	15.171
0.318907	5.90435	0.182323	3.44527	0.484709	9.55871	0.766062	14.1465	0.4685	9.19552	0.818498	14.9944
0.319961	5.87982	0.184288	3.45597	0.487857	9.49741	0.768651	14.0237	0.471154	9.12957	0.818899	14.8229
0.320784	5.86048	0.186666	3.46874	0.491084	9.43916	0.771242	13.9038	0.473795	9.06501	0.819344	14.6562
0.321384	5.84631	0.189459	3.48348	0.494385	9.38379	0.773832	13.7868	0.476421	9.00178	0.819834	14.4941
0.321766	5.83726	0.192669	3.50009	0.497759	9.33114	0.776423	13.6725	0.479031	8.93983	0.820369	14.3366
0.322311	5.82428	0.195882	3.51638	0.5012	9.28104	0.779014	13.5608	0.481626	8.87909	0.820949	14.1834
0.322899	5.81021	0.199099	3.53235	0.504707	9.23334	0.781604	13.4516	0.484205	8.81951	0.821574	14.0345
0.323693	5.79114	0.202319	3.54802	0.508276	9.18789	0.784194	13.3449	0.486766	8.76104	0.822245	13.8896
0.324686	5.76715	0.205543	3.56338	0.511904	9.14457	0.786783	13.2405	0.48931	8.70362	0.822961	13.7487
0.325872	5.73833	0.208769	3.57845	0.515587	9.10323	0.789371	13.1384	0.491837	8.64723	0.823724	13.6117
0.327244	5.70482	0.211999	3.59323	0.519323	9.06376	0.791959	13.0385	0.494345	8.5918	0.824531	13.4783
0.328794	5.66677	0.215231	3.60772	0.523108	9.02604	0.794545	12.9407	0.496834	8.53731	0.825385	13.3485
0.330323	5.62919	0.218466	3.62195	0.52694	8.98996	0.79713	12.845	0.499304	8.48371	0.826285	13.2221
0.331831	5.59211	0.221703	3.6359	0.530815	8.95542	0.799715	12.7513	0.501754	8.43097	0.82723	13.0992
0.333322	5.55556	0.224942	3.64959	0.534731	8.92231	0.802298	12.6595	0.504185	8.37906	0.828221	12.9795
0.334798	5.51955	0.228183	3.66302	0.538685	8.89056	0.804879	12.5695	0.506595	8.32793	0.829258	12.8629
0.336261	5.48411	0.231425	3.6762	0.542674	8.86006	0.80746	12.4814	0.508985	8.27757	0.830341	12.7494
0.337713	5.44925	0.23467	3.68913	0.546696	8.83074	0.810039	12.3951	0.511354	8.22794	0.831469	12.6389
0.339157	5.41498	0.237916	3.70181	0.550749	8.80252	0.812617	12.3104	0.513701	8.17902	0.832643	12.5313
0.340594	5.38132	0.241163	3.71426	0.554829	8.77534	0.815194	12.2274	0.516028	8.13077	0.833862	12.4264
0.342027	5.34828	0.244411	3.72648	0.558935	8.74911	0.81777	12.146	0.518333	8.08319	0.835126	12.3242
0.343456	5.31587	0.24766	3.73847	0.563064	8.72379	0.820345	12.0662	0.520617	8.03624	0.836434	12.2247
0.344883	5.28408	0.250911	3.75024	0.567215	8.6993	0.822919	11.9879	0.522879	7.9899	0.837787	12.1277
0.346311	5.25293	0.254162	3.76179	0.571384	8.67559	0.825493	11.9111	0.525119	7.94416	0.839184	12.0332
0.34774	5.22242	0.257413	3.77312	0.575571	8.65261	0.828066	11.8357	0.527338	7.899	0.840625	11.941
0.349172	5.19255	0.260666	3.78425	0.579773	8.6303	0.830639	11.7617	0.529535	7.85439	0.84211	11.8512
0.350607	5.16331	0.263918	3.79517	0.583989	8.60863	0.833212	11.6891	0.53171	7.81033	0.843637	11.7636
0.352048	5.13471	0.267171	3.80589	0.588216	8.58754	0.835786	11.6178	0.533863	7.7668	0.845206	11.6782
0.353495	5.10675	0.270424	3.81641	0.592453	8.567	0.83836	11.5479	0.535995	7.72379	0.846818	11.5949
0.35495	5.07941	0.273677	3.82674	0.596698	8.54696	0.840936	11.4792	0.538105	7.68128	0.848471	11.5137
0.356412	5.05271	0.27693	3.83688	0.600949	8.52738	0.843513	11.4117	0.540194	7.63926	0.850165	11.4345
0.357883	5.02662	0.280182	3.84683	0.605205	8.50824	0.846092	11.3455	0.542262	7.59771	0.8519	11.3572
0.359365	5.00115	0.283435	3.85661	0.609464	8.48949	0.848674	11.2805	0.544309	7.55664	0.853674	11.2817
0.360856	4.97628	0.286687	3.8662	0.613725	8.4711	0.851258	11.2166	0.546336	7.51603	0.855487	11.2081
0.362359	4.95202	0.289939	3.87562	0.617986	8.45305	0.853846	11.1539	0.548342	7.47587	0.857339	11.1363
0.363874	4.92835	0.29319	3.88486	0.622246	8.4353	0.856438	11.0923	0.550328	7.43616	0.859228	11.0661
0.365401	4.90526	0.29644	3.89394	0.626503	8.41783	0.859034	11.0318	0.552294	7.39688	0.861155	10.9976
0.366941	4.88275	0.29969	3.90285	0.630755	8.40061	0.861636	10.9723	0.554241	7.35803	0.863118	10.9307
0.368495	4.86081	0.302938	3.9116	0.635002	8.38361	0.864243	10.914	0.556168	7.3196	0.865117	10.8654
0.370062	4.83943	0.306186	3.92018	0.639242	8.36681	0.866857	10.8567	0.558078	7.28159	0.866887	10.8097
0.371644	4.8186	0.309433	3.92862	0.643473	8.35019	0.869141	10.8076	0.559969	7.244	0.868416	10.763
0.37324	4.79831	0.312679	3.9369	0.647695	8.33373	0.871093	10.7663	0.561842	7.20681	0.869695	10.7251
0.374851	4.77855	0.315923	3.94502	0.651905	8.3174	0.87271	10.7326	0.563698	7.17003	0.870715	10.6955
0.376477	4.75931	0.319166	3.953	0.656103	8.30118	0.873992	10.7063	0.565537	7.13365	0.87147	10.6739
0.378119	4.74058	0.322408	3.96083	0.660287	8.28505	0.874935	10.687	0.56736	7.09766	0.871955	10.6602
0.379776	4.72235	0.325649	3.96852	0.664455	8.269	0.87554	10.6748	0.569168	7.06207	0.872656	10.6406
0.381449	4.70461	0.328888	3.97607	0.668607	8.25301	0.87641	10.6572	0.57096	7.02686	0.873421	10.6194
0.383138	4.68736	0.332125	3.98348	0.672742	8.23706	0.877357	10.6383	0.572737	6.99205	0.874468	10.591
0.384843	4.67058	0.335361	3.99076	0.676857	8.22113	0.878647	10.6128	0.574501	6.95762	0.875803	10.5554
0.386565	4.65425	0.338595	3.9979	0.680951	8.2052	0.880282	10.5808	0.576251	6.92357	0.877433	10.513
0.388302	4.63838	0.341827	4.00491	0.685024	8.18927	0.882265	10.5426	0.577988	6.8899	0.879367	10.4642
0.390056	4.62296	0.345057	4.01179	0.689073	8.17331	0.8846	10.4985	0.579712	6.85661	0.881613	10.4094
0.391827	4.60796	0.348286	4.01855	0.693099	8.15731	0.887292	10.4488	0.581425	6.8237	0.883887	10.3556
0.393614	4.59339	0.351512	4.02518	0.697098	8.14125	0.889998	10.3999	0.583127	6.79116	0.886189	10.3031
0.395417	4.57923	0.354736	4.03168	0.701071	8.12514	0.892719	10.352	0.584818	6.759	0.888517	10.2516
0.397237	4.56547	0.357958	4.03807	0.705015	8.10894	0.895456	10.3051	0.586499	6.72721	0.890871	10.2013
0.399074	4.55211	0.361178	4.04434	0.708931	8.09265	0.89821	10.259	0.588171	6.69579	0.89325	10.1519
0.400927	4.53914	0.364396	4.05049	0.712815	8.07625	0.900982	10.2138	0.589834	6.66474	0.895653	10.1036
0.402796	4.52654	0.367611	4.05652	0.716668	8.05974	0.903773	10.1695	0.591489	6.63405	0.898079	10.0562
0.404682	4.51431	0.370824	4.06244	0.720487	8.04311	0.906584	10.126	0.593137	6.60373	0.900527	10.0098
0.406584	4.50243	0.374035	4.06825	0.724273	8.02634	0.909416	10.0835	0.594777	6.57378	0.902996	9.96425
0.408502	4.49091	0.377243	4.07395	0.728023	8.00942	0.91227	10.0418	0.596412	6.5442	0.905485	9.9196
0.410436	4.47973	0.380448	4.07954	0.731737	7.99235	0.915148	10.0009	0.59804	6.51497	0.907993	9.87581
0.412386	4.46889	0.383651	4.08503	0.735414	7.97512	0.918049	9.9609	0.599664	6.48611	0.91052	9.83284
0.414353	4.45836	0.386851	4.09041	0.739052	7.95772	0.920976	9.92174	0.601283	6.4576	0.913065	9.79066
0.416335	4.44816	0.390048	4.09569	0.74265	7.94014	0.923928	9.8834	0.602898	6.42946	0.915626	9.74925
0.418333	4.43826	0.393243	4.10086	0.746209	7.92238	0.926908	9.84588	0.60451	6.40167	0.918202	9.70858
0.420346	4.42867	0.396435	4.10593	0.749726	7.90444	0.929915	9.80918	0.606119	6.37424	0.920794	9.66863
0.422375	4.41937	0.399623	4.11091	0.753201	7.8863	0.932951	9.77328	0.607726	6.34716	0.923399	9.62937
0.424419	4.41035	0.402809	4.11579	0.756633	7.86796	0.936016	9.73819	0.609331	6.32044	0.926017	9.59078
0.426478	4.40162	0.405991	4.12057	0.760022	7.84943	0.939112	9.70388	0.610935	6.29406	0.928647	9.55284
0.428552	4.39316	0.409171	4.12525	0.763367	7.8307	0.942238	9.67035	0.612538	6.26804	0.931289	9.51552
0.430641	4.38496	0.412347	4.12984	0.766667	7.81176	0.945396	9.6376	0.614142	6.24236	0.93394	9.47881
0.432745	4.37702	0.41552	4.13435	0.769922	7.79262	0.948585	9.6056	0.615745	6.21703	0.936601	9.44268
0.434864	4.36933	0.41869	4.13875	0.773132	7.77327	0.951808	9.57436	0.61735	6.19205	0.93927	9.40711
0.436997	4.36189	0.421856	4.14307	0.776296	7.75372	0.955063	9.54385	0.618956	6.16741	0.941948	9.37208
0.439144	4.35468	0.425019	4.1473	0.779414	7.73397	0.958351	9.51408	0.620565	6.1431	0.944632	9.33758
0.441305	4.34771	0.428179	4.15145	0.782486	7.71402	0.961673	9.48502	0.622175	6.11914	0.947321	9.30358
0.44348	4.34097	0.431335	4.1555	0.785511	7.69388	0.965029	9.45667	0.623789	6.09551	0.950016	9.27007
0.445669	4.33444	0.434487	4.15947	0.78849	7.67354	0.968418	9.42902	0.625405	6.07222	0.952716	9.23703
0.447871	4.32813	0.437636	4.16336	0.791423	7.65302	0.971842	9.40204	0.627026	6.04926	0.955419	9.20444
0.450087	4.32202	0.440782	4.16716	0.79431	7.63231	0.975299	9.37573	0.628651	6.02663	0.958124	9.17229
0.452316	4.31612	0.443923	4.17089	0.797151	7.61143	0.97879	9.35007	0.63028	6.00433	0.960831	9.14056
0.454558	4.31042	0.447061	4.17453	0.799947	7.59038	0.982315	9.32506	0.631914	5.98235	0.96354	9.10924
0.456813	4.30491	0.450195	4.17809	0.802698	7.56916	0.985873	9.30067	0.633554	5.9607	0.966249	9.0783
0.459081	4.29959	0.453324	4.18157	0.805404	7.54779	0.989464	9.27689	0.6352	5.93937	0.968957	9.04774
0.461361	4.29445	0.456451	4.18497	0.808066	7.52627	0.993087	9.2537	0.636852	5.91836	0.971664	9.01755
0.463654	4.28948	0.459573	4.1883	0.810684	7.50461	0.996743	9.2311	0.63851	5.89766	0.974369	8.9877
0.465959	4.28469	0.462691	4.19155	0.81326	7.48281	1.00043	9.20906	0.640176	5.87728	0.977072	8.95819
0.468275	4.28006	0.465804	4.19472	0.815793	7.4609			0.641848	5.85721	0.979771	8.92901
0.470604	4.2756	0.468914	4.19782	0.818285	7.43887			0.643528	5.83745	0.982466	8.90013
0.472944	4.2713	0.47202	4.20085	0.820737	7.41674			0.645217	5.81799	0.985156	8.87155
0.475296	4.26715	0.475121	4.2038	0.823149	7.39451			0.646913	5.79884	0.987841	8.84327
0.477659	4.26315	0.478218	4.20668	0.825522	7.3722			0.648618	5.77999	0.990519	8.81525
0.480033	4.25929	0.481311	4.20949	0.827857	7.34981			0.650332	5.76144	0.993191	8.78751
0.482418	4.25558	0.484399	4.21223	0.830155	7.32736			0.652055	5.74318	0.995855	8.76002
0.484814	4.25201	0.487483	4.2149	0.832418	7.30485			0.653787	5.72522	0.998512	8.73278
0.487221	4.24856	0.490562	4.2175	0.834645	7.28229			0.655529	5.70754	1.00116	8.70578
0.489638	4.24525	0.493637	4.22004	0.836838	7.2597			0.657281	5.69016		
0.492065	4.24207	0.496708	4.2225	0.838999	7.23708			0.659043	5.67306		
0.494503	4.239	0.499773	4.2249	0.841127	7.21444			0.660815	5.65624		
0.49695	4.23606	0.502834	4.22724	0.843224	7.19179			0.662598	5.6397		
0.499407	4.23323	0.505891	4.22951	0.845292	7.16914			0.664392	5.62343		
0.501874	4.23052	0.508942	4.23171	0.847331	7.1465			0.666197	5.60744		
0.50435	4.22791	0.511989	4.23385	0.849342	7.12388			0.668014	5.59172		
0.506835	4.22541	0.515031	4.23593	0.851326	7.10128			0.669841	5.57627		
0.50933	4.22301	0.518069	4.23795	0.853284	7.07872			0.671681	5.56109		
0.511834	4.22072	0.521101	4.2399	0.855218	7.0562			0.673532	5.54616		
0.514346	4.21852	0.524128	4.2418	0.857128	7.03372			0.675395	5.53149		
0.516867	4.21641	0.527151	4.24364	0.859015	7.0113			0.677271	5.51709		
0.519397	4.2144	0.530168	4.24541	0.860881	6.98895			0.679158	5.50293		
0.521935	4.21247	0.533181	4.24713	0.862725	6.96666			0.681058	5.48902		
0.524481	4.21063	0.536188	4.24879	0.86455	6.94445			0.682971	5.47537		
0.527035	4.20888	0.539191	4.25039	0.866355	6.92232			0.684896	5.46195		
0.529597	4.2072	0.542188	4.25194	0.868143	6.90028			0.686835	5.44878		
0.532167	4.20561	0.54518	4.25343	0.869913	6.87833			0.688786	5.43585		
0.534745	4.20409	0.548168	4.25486	0.871667	6.85649			0.69075	5.42316		
0.53733	4.20265	0.55115	4.25624	0.873405	6.83474			0.692727	5.4107		
0.539922	4.20127	0.554126	4.25757	0.875129	6.8131			0.694718	5.39846		
0.542522	4.19997	0.557098	4.25885	0.876839	6.79158			0.696722	5.38646		
0.545128	4.19874	0.560064	4.26007	0.878535	6.77017			0.698739	5.37468		
0.547742	4.19757	0.563026	4.26124	0.880219	6.74889			0.70077	5.36312		
0.550362	4.19646	0.565982	4.26236	0.881892	6.72773			0.702814	5.35179		
0.552989	4.19542	0.568933	4.26343	0.883553	6.7067			0.704872	5.34066		
0.555623	4.19443	0.571878	4.26445	0.885204	6.6858			0.706943	5.32976		
0.558263	4.19351	0.574819	4.26542	0.886846	6.66503			0.709029	5.31906		
0.560909	4.19264	0.577754	4.26635	0.888479	6.6444			0.711128	5.30857		
0.563562	4.19182	0.580684	4.26722	0.890103	6.62392			0.71324	5.29828		
0.56622	4.19106	0.583609	4.26805	0.89172	6.60357			0.715367	5.2882		
0.568884	4.19034	0.586528	4.26884	0.89333	6.58337			0.717507	5.27832		
0.571554	4.18968	0.589443	4.26958	0.894933	6.56332			0.719661	5.26863		
0.57423	4.18906	0.592352	4.27027	0.89653	6.54342			0.721829	5.25913		
0.576911	4.18849	0.595256	4.27092	0.898122	6.52367			0.724011	5.24983		
0.579598	4.18797	0.598155	4.27153	0.899709	6.50407			0.726207	5.24072		
0.58229	4.18749	0.601049	4.2721	0.901291	6.48463			0.728416	5.23179		
0.584988	4.18705	0.603938	4.27263	0.90287	6.46534			0.73064	5.22304		
0.58769	4.18665	0.606822	4.27311	0.904445	6.44621			0.732877	5.21447		
0.590397	4.18629	0.609701	4.27356	0.906017	6.42724			0.735127	5.20609		
0.593109	4.18596	0.612575	4.27397	0.907587	6.40843			0.737392	5.19787		
0.595826	4.18568	0.615444	4.27434	0.909155	6.38977			0.73967	5.18983		
0.598548	4.18542	0.618308	4.27467	0.910721	6.37128			0.741962	5.18195		
0.601274	4.18521	0.621167	4.27496	0.912286	6.35295			0.744267	5.17425		
0.604005	4.18502	0.624021	4.27522	0.91385	6.33478			0.746586	5.16671		
0.60674	4.18487	0.626871	4.27545	0.915414	6.31677			0.748918	5.15932		
0.609479	4.18475	0.629715	4.27564	0.916978	6.29892			0.751264	5.1521		
0.612222	4.18465	0.632556	4.2758	0.918542	6.28124			0.753623	5.14503		
0.614969	4.18459	0.635391	4.27592	0.920106	6.26372			0.755995	5.13812		
0.617721	4.18455	0.638222	4.27602	0.921671	6.24636			0.758381	5.13136		
0.620476	4.18454	0.641049	4.27608	0.923238	6.22917			0.76078	5.12474		
0.623235	4.18455	0.643871	4.27611	0.924806	6.21213			0.763191	5.11827		
0.625998	4.18459	0.646688	4.27612	0.926376	6.19526			0.765616	5.11195		
0.628764	4.18466	0.649502	4.27609	0.927949	6.17856			0.768053	5.10576		
0.631533	4.18474	0.652311	4.27604	0.929523	6.16201			0.770503	5.09972		
0.634306	4.18485	0.655116	4.27596	0.931101	6.14563			0.772966	5.09381		
0.637083	4.18497	0.657917	4.27586	0.932681	6.12941			0.775442	5.08803		
0.639863	4.18512	0.660714	4.27573	0.934265	6.11335			0.777929	5.08238		
0.642645	4.18529	0.663507	4.27557	0.935852	6.09744			0.780429	5.07686		
0.645431	4.18547	0.666296	4.27539	0.937442	6.0817			0.782942	5.07147		
0.64822	4.18568	0.669081	4.27519	0.939037	6.06612			0.785466	5.0662		
0.651012	4.1859	0.671863	4.27497	0.940636	6.0507			0.788002	5.06106		
0.653806	4.18613	0.674641	4.27473	0.942239	6.03543			0.790551	5.05603		
0.656604	4.18638	0.677415	4.27447	0.943847	6.02033			0.79311	5.05112		
0.659403	4.18665	0.680186	4.27418	0.945459	6.00538			0.795682	5.04632		
0.662206	4.18693	0.682954	4.27388	0.947076	5.99058			0.798265	5.04164		
0.665011	4.18722	0.685718	4.27356	0.948699	5.97594			0.800859	5.03707		
0.667818	4.18753	0.68848	4.27322	0.950327	5.96145			0.803465	5.0326		
0.670628	4.18785	0.691238	4.27287	0.95196	5.94712			0.806081	5.02824		
0.67344	4.18818	0.693993	4.2725	0.953598	5.93294			0.808709	5.02398		
0.676255	4.18852	0.696745	4.27212	0.955243	5.91891			0.811347	5.01983		
0.679071	4.18887	0.699494	4.27172	0.956894	5.90503			0.813996	5.01577		
0.68189	4.18923	0.702241	4.27131	0.95855	5.8913			0.816655	5.01181		
0.68471	4.18961	0.704985	4.27088	0.960213	5.87773			0.819325	5.00795		
0.687533	4.18999	0.707726	4.27045	0.961882	5.86429			0.822005	5.00418		
0.690357	4.19037	0.710465	4.27	0.963558	5.85101			0.824695	5.0005		
0.693184	4.19077	0.713201	4.26954	0.96524	5.83787			0.827395	4.99691		
0.696012	4.19117	0.715935	4.26907	0.966929	5.82487			0.830105	4.99341		
0.698841	4.19159	0.718667	4.26859	0.968625	5.81202			0.832824	4.98999		
0.701672	4.192	0.721397	4.2681	0.970327	5.79931			0.835553	4.98666		
0.704505	4.19243	0.724124	4.2676	0.972037	5.78675			0.838291	4.98341		
0.70734	4.19285	0.72685	4.2671	0.973754	5.77432			0.841039	4.98024		
0.710176	4.19329	0.729574	4.26659	0.975478	5.76204			0.843795	4.97714		
0.713013	4.19373	0.732296	4.26607	0.977209	5.74989			0.846561	4.97412		
0.715851	4.19417	0.735016	4.26555	0.978948	5.73788			0.849335	4.97118		
0.718691	4.19462	0.737735	4.26502	0.980695	5.726			0.852118	4.96831		
0.721532	4.19507	0.740452	4.26449	0.982449	5.71426			0.85491	4.96552		
0.724374	4.19552	0.743167	4.26395	0.984211	5.70266			0.857709	4.96279		
0.727218	4.19598	0.745882	4.2634	0.98598	5.69119			0.860518	4.96013		
0.730062	4.19644	0.748595	4.26286	0.987757	5.67985			0.863334	4.95753		
0.732907	4.1969	0.751306	4.26231	0.989543	5.66864			0.866158	4.95501		
0.735754	4.19737	0.754017	4.26176	0.991336	5.65756			0.86899	4.95254		
0.738601	4.19783	0.756726	4.26121	0.993137	5.64661			0.871829	4.95014		
0.741449	4.1983	0.759435	4.26065	0.994946	5.63578			0.874676	4.9478		
0.744298	4.19877	0.762143	4.2601	0.996763	5.62509			0.877531	4.94551		
0.747148	4.19924	0.764849	4.25954	0.998589	5.61451			0.880393	4.94329		
0.749998	4.19971	0.767555	4.25899	1.00042	5.60407			0.883262	4.94112		
0.752849	4.20018	0.770261	4.25843					0.886138	4.93901		
0.755701	4.20065	0.772965	4.25787					0.889021	4.93695		
0.758553	4.20112	0.775669	4.25732					0.89191	4.93494		
0.761406	4.20159	0.778373	4.25676					0.894807	4.93298		
0.764259	4.20206	0.781075	4.25621					0.897709	4.93107		
0.767113	4.20253	0.783778	4.25566					0.900618	4.92922		
0.769967	4.20299	0.78648	4.25511					0.903534	4.92741		
0.772822	4.20346	0.789182	4.25457					0.906455	4.92564		
0.775677	4.20392	0.791884	4.25402					0.909383	4.92392		
0.778532	4.20438	0.794586	4.25348					0.912317	4.92225		
0.781387	4.20484	0.797287	4.25294					0.915256	4.92062		
0.784243	4.2053	0.799989	4.25241					0.918201	4.91903		
0.787099	4.20576	0.80269	4.25188					0.921152	4.91748		
0.789955	4.20621	0.805391	4.25135					0.924108	4.91597		
0.792811	4.20666	0.808093	4.25083					0.927069	4.9145		
0.795667	4.20711	0.810794	4.25031					0.930036	4.91307		
0.798523	4.20756	0.813496	4.2498					0.933008	4.91167		
0.801379	4.208	0.816198	4.24929					0.935985	4.91032		
0.804236	4.20844	0.8189	4.24879					0.938966	4.90899		
0.807092	4.20888	0.821603	4.24829					0.941953	4.9077		
0.809948	4.20931	0.824306	4.24779					0.944945	4.90645		
0.812804	4.20974	0.827009	4.2473					0.947941	4.90523		
0.81566	4.21016	0.829713	4.24682					0.950942	4.90404		
0.818515	4.21058	0.832417	4.24634					0.953947	4.90288		
0.821371	4.211	0.835121	4.24587					0.956956	4.90175		
0.824226	4.21142	0.837827	4.2454					0.95997	4.90065		
0.827081	4.21183	0.840532	4.24494					0.962988	4.89958		
0.829936	4.21223	0.843238	4.24448					0.966011	4.89853		
0.832791	4.21263	0.845945	4.24404					0.969037	4.89752		
0.835645	4.21303	0.848652	4.24359					0.972067	4.89653		
0.838498	4.21343	0.85136	4.24315					0.975101	4.89557		
0.841352	4.21381	0.854069	4.24272					0.978139	4.89463		
0.844205	4.2142	0.856778	4.2423					0.981181	4.89372		
0.847058	4.21458	0.859488	4.24188					0.984226	4.89283		
0.84991	4.21495	0.862199	4.24147					0.987275	4.89196		
0.852762	4.21532	0.864911	4.24106					0.990328	4.89112		
0.855613	4.21569	0.867623	4.24066					0.993384	4.8903		
0.858464	4.21605	0.870336	4.24027					0.996443	4.88951		
0.861314	4.21641	0.87305	4.23988					0.999505	4.88873		
0.864164	4.21676	0.875765	4.2395					1.00257	4.88797		
0.867013	4.2171	0.87848	4.23913								
0.869862	4.21744	0.881197	4.23876								
0.87271	4.21778	0.883914	4.2384								
0.875557	4.21811	0.886632	4.23805								
0.878404	4.21844	0.889351	4.2377								
0.88125	4.21876	0.892071	4.23736								
0.884096	4.21908	0.894792	4.23702								
0.886941	4.21939	0.897514	4.23669								
0.889785	4.21969	0.900236	4.23637								
0.892629	4.21999	0.90296	4.23605								
0.895472	4.22029	0.905684	4.23574								
0.898314	4.22058	0.90841	4.23544								
0.901156	4.22087	0.911136	4.23514								
0.903997	4.22115	0.913863	4.23485								
0.906837	4.22142	0.916591	4.23457								
0.909676	4.2217	0.919321	4.23429								
0.912515	4.22196	0.922051	4.23401								
0.915353	4.22222	0.924782	4.23375								
0.91819	4.22248	0.927514	4.23348								
0.921027	4.22273	0.930247	4.23323								
0.923863	4.22297	0.932981	4.23298								
0.926698	4.22321	0.935715	4.23274								
0.929532	4.22345	0.938451	4.2325								
0.932365	4.22368	0.941188	4.23227								
0.935198	4.22391	0.943926	4.23204								
0.93803	4.22413	0.946664	4.23182								
0.940861	4.22435	0.949404	4.2316								
0.943691	4.22456	0.952144	4.23139								
0.94652	4.22476	0.954886	4.23119								
0.949349	4.22497	0.957628	4.23099								
0.952177	4.22516	0.960371	4.23079								
0.955004	4.22536	0.963116	4.2306								
0.957831	4.22554	0.965861	4.23042								
0.960656	4.22573	0.968607	4.23024								
0.963481	4.22591	0.971354	4.23007								
0.966305	4.22608	0.974101	4.2299								
0.969128	4.22625	0.97685	4.22973								
0.97195	4.22642	0.9796	4.22957								
0.974772	4.22658	0.98235	4.22942								
0.977593	4.22674	0.985101	4.22927								
0.980413	4.22689	0.987854	4.22912								
0.983232	4.22704	0.990607	4.22898								
0.986051	4.22718	0.993361	4.22884								
0.988868	4.22732	0.996115	4.22871								
0.991685	4.22746	0.998871	4.22858								
0.994502	4.22759	1.00163	4.22846								
0.997317	4.22772										
1.00013	4.22784										
