Sym0		Asym0		Sym1		Sym2		Sym3		Asym1		Asym2	
387  Points		394  Points		225  Points		147  Points		123  Points		323  Points		168  Points	
Freq (MHz)	Vph (m/ms)	Freq (MHz)	Vph (m/ms)	Freq (MHz)	Vph (m/ms)	Freq (MHz)	Vph (m/ms)	Freq (MHz)	Vph (m/ms)	Freq (MHz)	Vph (m/ms)	Freq (MHz)	Vph (m/ms)
0.00363727	7.44714	0.000474616	0.226097	0.408191	505.423	0.444307	1174.61	0.816498	2741.76	0.204143	575.352	0.612376	1470.65
0.00972216	7.44672	0.000913357	0.313188	0.408019	251.124	0.444519	371.855	0.816521	732.338	0.204328	174.346	0.612403	496.457
0.0158054	7.44586	0.0014911	0.399388	0.407739	166.974	0.444947	221.085	0.816571	422.633	0.20471	102.915	0.612457	298.658
0.0218862	7.44462	0.00220452	0.484443	0.407361	124.993	0.445581	157.465	0.816646	297.043	0.205287	73.153	0.612539	213.588
0.0279633	7.44296	0.00304991	0.56819	0.406899	99.8226	0.446411	122.41	0.816749	229.012	0.206057	56.8681	0.612647	166.254
0.0340359	7.44089	0.0040228	0.650421	0.406368	83.0445	0.447423	100.229	0.816878	186.351	0.207016	46.6193	0.612782	136.109
0.0401029	7.43842	0.00511829	0.730967	0.405781	71.0585	0.4486	84.9435	0.817033	157.1	0.20816	39.5914	0.612944	115.23
0.0461632	7.43552	0.00633109	0.809683	0.405154	62.067	0.449931	73.7796	0.817214	135.798	0.209485	34.484	0.613133	99.9165
0.0522157	7.43218	0.00765583	0.886464	0.404498	55.0725	0.4514	65.274	0.817422	119.594	0.210986	30.6131	0.613349	88.2059
0.0582593	7.42841	0.00908667	0.961193	0.403827	49.4766	0.452996	58.5826	0.817657	106.853	0.212656	27.5848	0.613592	78.9617
0.064293	7.42421	0.0106179	1.03381	0.40315	44.8985	0.454708	53.1837	0.817918	96.5743	0.214489	25.1561	0.613861	71.4798
0.0703155	7.41954	0.0122437	1.10424	0.402476	41.0846	0.456525	48.7381	0.818205	88.1073	0.216479	23.1691	0.614158	65.3009
0.0763257	7.41442	0.0139583	1.17247	0.401815	37.8591	0.458441	45.0155	0.818518	81.0125	0.218621	21.5165	0.614482	60.1124
0.0823222	7.40883	0.0157558	1.23846	0.401173	35.0965	0.460446	41.8541	0.818858	74.9818	0.220906	20.1231	0.614832	55.6945
0.0883037	7.40274	0.017631	1.30221	0.400557	32.7046	0.462536	39.137	0.819224	69.793	0.223329	18.9344	0.615209	51.8879
0.094269	7.39615	0.0195784	1.36374	0.399971	30.6142	0.464704	36.7776	0.819617	65.2818	0.225884	17.9101	0.615613	48.5742
0.100216	7.38905	0.0215928	1.42305	0.399421	28.7725	0.466946	34.7103	0.820035	61.3238	0.228563	17.0198	0.616044	45.664
0.106145	7.38142	0.0236693	1.48019	0.398911	27.1383	0.469258	32.8847	0.82048	57.8236	0.231361	16.24	0.616501	43.088
0.112052	7.37323	0.0258034	1.5352	0.398445	25.6791	0.471637	31.2612	0.820951	54.7063	0.234271	15.5522	0.616985	40.7921
0.117937	7.36448	0.0279904	1.58811	0.398027	24.3688	0.474079	29.8086	0.821448	51.9126	0.237287	14.9419	0.617496	38.7333
0.123797	7.35513	0.0302264	1.63898	0.39766	23.1863	0.476582	28.5016	0.821971	49.3949	0.240404	14.3973	0.618034	36.8768
0.129632	7.34518	0.0325073	1.68787	0.397348	22.1144	0.479144	27.3197	0.82252	47.1143	0.243616	13.909	0.618598	35.1945
0.135438	7.33459	0.0348295	1.73484	0.397092	21.1389	0.481761	26.2461	0.823095	45.0391	0.246918	13.4692	0.619189	33.6631
0.141215	7.32334	0.0371897	1.77995	0.396897	20.2477	0.484433	25.2668	0.823696	43.1429	0.250305	13.0713	0.619807	32.2633
0.146959	7.3114	0.0395845	1.82327	0.396766	19.431	0.487158	24.3703	0.824323	41.4037	0.253773	12.71	0.620451	30.9792
0.152669	7.29874	0.0420112	1.86485	0.3967	18.6802	0.489934	23.5466	0.824976	39.8028	0.257315	12.3807	0.621122	29.7969
0.158342	7.28533	0.0444668	1.90476	0.396703	17.9882	0.49276	22.7875	0.825654	38.3246	0.260929	12.0796	0.62182	28.7051
0.163975	7.27115	0.046949	1.94307	0.396778	17.3488	0.495635	22.0858	0.826359	36.9556	0.264609	11.8035	0.622544	27.6939
0.169566	7.25615	0.0494552	1.97984	0.396928	16.7566	0.498557	21.4355	0.827089	35.6842	0.268353	11.5495	0.623295	26.7548
0.175113	7.24031	0.0519835	2.01514	0.397155	16.2071	0.501525	20.8312	0.827845	34.5005	0.272155	11.3152	0.624073	25.8804
0.180611	7.22358	0.0545318	2.04901	0.397463	15.6963	0.504539	20.2685	0.828626	33.3958	0.276013	11.0985	0.624878	25.0644
0.186058	7.20592	0.0570982	2.08153	0.397854	15.2205	0.507596	19.7432	0.829433	32.3625	0.279923	10.8977	0.62571	24.3012
0.19145	7.18731	0.0596811	2.11276	0.398333	14.7769	0.510698	19.2519	0.830266	31.394	0.283882	10.7111	0.626568	23.586
0.196784	7.16768	0.0622789	2.14274	0.398902	14.3626	0.513842	18.7916	0.831124	30.4846	0.287887	10.5373	0.627454	22.9145
0.202057	7.14701	0.0648902	2.17153	0.399565	13.9753	0.517028	18.3595	0.832008	29.6289	0.291934	10.3751	0.628366	22.2829
0.207264	7.12526	0.0675137	2.19918	0.400326	13.6129	0.520255	17.9531	0.832917	28.8226	0.296021	10.2234	0.629306	21.6877
0.212402	7.10237	0.0698088	2.2224	0.401187	13.2733	0.523522	17.5704	0.833851	28.0614	0.300144	10.0814	0.630273	21.1261
0.217467	7.07831	0.0717713	2.24155	0.402154	12.9551	0.52683	17.2094	0.834811	27.3418	0.304303	9.94798	0.631267	20.5953
0.222454	7.05303	0.0733981	2.25698	0.403229	12.6565	0.530176	16.8685	0.835796	26.6606	0.308493	9.82257	0.632288	20.093
0.227359	7.02651	0.0746867	2.26891	0.404416	12.3764	0.533561	16.546	0.836807	26.0147	0.312168	9.71923	0.633337	19.6169
0.232178	6.9987	0.0756354	2.27754	0.405719	12.1133	0.536983	16.2406	0.837843	25.4016	0.315318	9.63519	0.634414	19.1652
0.236907	6.96957	0.0762431	2.283	0.407143	11.8663	0.540443	15.951	0.838904	24.8189	0.317933	9.56834	0.635519	18.736
0.241541	6.93909	0.0771174	2.29076	0.40869	11.6343	0.54394	15.6761	0.83999	24.2645	0.320007	9.51708	0.636651	18.3279
0.246077	6.90724	0.0780686	2.29908	0.410364	11.4164	0.547473	15.4149	0.841101	23.7363	0.321536	9.48027	0.637812	17.9393
0.25051	6.87401	0.0793637	2.31022	0.412168	11.2117	0.551041	15.1665	0.842238	23.2326	0.322516	9.45708	0.639001	17.569
0.254837	6.83938	0.0810038	2.32401	0.414106	11.0195	0.554645	14.9299	0.8434	22.7518	0.323927	9.42425	0.640219	17.2157
0.259054	6.80336	0.0829904	2.34024	0.41618	10.839	0.558283	14.7044	0.844587	22.2924	0.325463	9.38921	0.641466	16.8783
0.263159	6.76596	0.0853248	2.35871	0.418392	10.6695	0.561956	14.4892	0.845799	21.8531	0.327556	9.34262	0.642742	16.5559
0.267148	6.72721	0.0880085	2.37915	0.420744	10.5105	0.565662	14.2839	0.847036	21.4325	0.330209	9.28537	0.644047	16.2476
0.271021	6.68712	0.0906967	2.39883	0.423236	10.3612	0.569401	14.0876	0.848299	21.0297	0.333427	9.21851	0.645382	15.9524
0.274775	6.64576	0.0933889	2.41779	0.42587	10.2213	0.573174	13.8999	0.849586	20.6434	0.337214	9.1432	0.646747	15.6696
0.27841	6.60317	0.0960846	2.43604	0.428645	10.09	0.576978	13.7203	0.850899	20.2728	0.341574	9.06066	0.648142	15.3986
0.281926	6.55943	0.0987833	2.45363	0.431178	9.98228	0.580815	13.5482	0.852237	19.9169	0.345947	8.98197	0.649568	15.1385
0.285322	6.5146	0.101485	2.47058	0.433421	9.89514	0.584683	13.3834	0.8536	19.5749	0.350331	8.90683	0.651025	14.8889
0.288602	6.46878	0.104188	2.48692	0.435333	9.82618	0.588582	13.2253	0.854988	19.2461	0.354725	8.83499	0.652513	14.6492
0.291765	6.42206	0.106894	2.50269	0.436881	9.77357	0.592512	13.0735	0.856402	18.9297	0.359127	8.7662	0.654033	14.4188
0.294815	6.37455	0.109601	2.5179	0.43804	9.73592	0.596472	12.9278	0.857841	18.6251	0.363534	8.70025	0.655585	14.1973
0.297756	6.32634	0.112309	2.53257	0.43879	9.71228	0.600463	12.7878	0.859305	18.3317	0.367946	8.63692	0.65717	13.9841
0.300589	6.27756	0.115018	2.54674	0.439881	9.67891	0.604483	12.6532	0.860795	18.0488	0.37236	8.57605	0.658788	13.779
0.303321	6.22832	0.117729	2.56042	0.441083	9.64343	0.608532	12.5238	0.86231	17.776	0.376776	8.51744	0.660439	13.5814
0.305954	6.17871	0.120439	2.57364	0.442744	9.59648	0.61261	12.3992	0.863851	17.5128	0.381191	8.46094	0.662125	13.391
0.308494	6.12887	0.123151	2.58641	0.444889	9.53917	0.616717	12.2792	0.865418	17.2587	0.385603	8.40641	0.663845	13.2075
0.310946	6.07889	0.125862	2.59876	0.447545	9.47283	0.620853	12.1637	0.86701	17.0132	0.390012	8.35371	0.6656	13.0306
0.313314	6.02888	0.128574	2.6107	0.450747	9.39894	0.625016	12.0523	0.868628	16.7759	0.394415	8.3027	0.667391	12.8599
0.315604	5.97893	0.131285	2.62224	0.454532	9.31907	0.629207	11.9449	0.870272	16.5465	0.398811	8.25328	0.669218	12.6952
0.317821	5.92914	0.133996	2.63342	0.458429	9.24411	0.633426	11.8413	0.871942	16.3247	0.403199	8.20533	0.671081	12.5363
0.319969	5.87959	0.136707	2.64423	0.462434	9.1737	0.637672	11.7413	0.873639	16.11	0.407577	8.15874	0.672982	12.3828
0.322055	5.83036	0.139418	2.6547	0.46654	9.10752	0.641944	11.6448	0.875361	15.9021	0.411943	8.11343	0.674921	12.2345
0.324082	5.78153	0.142128	2.66484	0.470742	9.04526	0.646244	11.5515	0.87711	15.7008	0.416297	8.06931	0.676898	12.0912
0.326055	5.73315	0.144837	2.67466	0.475033	8.98661	0.650569	11.4614	0.878886	15.5058	0.420636	8.02628	0.678915	11.9528
0.327979	5.68529	0.147546	2.68418	0.479408	8.93131	0.654921	11.3743	0.880689	15.3168	0.424959	7.98428	0.680971	11.8189
0.329857	5.63799	0.150254	2.69341	0.483861	8.87909	0.659299	11.2901	0.882518	15.1335	0.429265	7.94323	0.683067	11.6895
0.331694	5.5913	0.152962	2.70236	0.488385	8.82971	0.663702	11.2087	0.884375	14.9558	0.433552	7.90305	0.685204	11.5644
0.333494	5.54526	0.155668	2.71103	0.492976	8.78295	0.668131	11.1299	0.88626	14.7834	0.437819	7.8637	0.687382	11.4433
0.33526	5.4999	0.158374	2.71946	0.497627	8.73859	0.672585	11.0536	0.888171	14.616	0.442064	7.8251	0.689602	11.3262
0.336996	5.45524	0.161079	2.72763	0.502333	8.69645	0.677064	10.9798	0.890111	14.4536	0.446286	7.78721	0.691864	11.2129
0.338704	5.41131	0.163783	2.73557	0.507089	8.65633	0.681567	10.9083	0.892079	14.2959	0.450485	7.74996	0.69417	11.1032
0.340388	5.36813	0.166486	2.74327	0.511891	8.61808	0.686095	10.839	0.894075	14.1426	0.454657	7.71331	0.696519	10.997
0.342049	5.3257	0.169188	2.75076	0.516733	8.58153	0.690648	10.7718	0.8961	13.9938	0.458803	7.67721	0.698912	10.8943
0.343692	5.28405	0.171889	2.75803	0.52161	8.54656	0.695224	10.7068	0.898153	13.8491	0.46292	7.64162	0.701349	10.7948
0.345317	5.24317	0.174589	2.7651	0.526519	8.51301	0.699824	10.6437	0.900236	13.7085	0.467008	7.6065	0.703832	10.6984
0.346928	5.20307	0.177289	2.77198	0.531456	8.48078	0.704448	10.5825	0.902349	13.5718	0.471066	7.57181	0.706359	10.6051
0.348321	5.16876	0.179987	2.77866	0.536416	8.44975	0.709095	10.5231	0.904491	13.4389	0.475092	7.53751	0.708598	10.5262
0.349502	5.13998	0.182684	2.78516	0.541396	8.41981	0.713164	10.4728	0.906664	13.3095	0.479084	7.50358	0.710535	10.4606
0.350474	5.1165	0.18538	2.79149	0.546392	8.39088	0.716646	10.431	0.908867	13.1837	0.483043	7.46998	0.712156	10.4076
0.35124	5.09815	0.188075	2.79765	0.551401	8.36286	0.719535	10.3971	0.911101	13.0613	0.486966	7.43668	0.713449	10.3663
0.351802	5.08477	0.190769	2.80365	0.55642	8.33567	0.721825	10.3707	0.913366	12.9422	0.490854	7.40365	0.714407	10.3364
0.352162	5.07626	0.193462	2.80949	0.561446	8.30924	0.723513	10.3515	0.915663	12.8262	0.494704	7.37088	0.715024	10.3175
0.352677	5.0641	0.196154	2.81517	0.566475	8.2835	0.724594	10.3394	0.917992	12.7133	0.498517	7.33834	0.715914	10.2905
0.353237	5.05097	0.198846	2.82072	0.571506	8.25839	0.726151	10.322	0.920354	12.6034	0.50229	7.30601	0.716887	10.2614
0.353997	5.03327	0.201536	2.82612	0.576536	8.23384	0.727846	10.3034	0.922749	12.4964	0.506024	7.27386	0.718221	10.2224
0.354957	5.01115	0.204225	2.83138	0.581561	8.2098	0.730155	10.2783	0.925177	12.3921	0.509718	7.2419	0.719922	10.1739
0.356114	4.98477	0.206913	2.83652	0.58658	8.18622	0.733083	10.2471	0.927639	12.2906	0.513371	7.21009	0.722004	10.1166
0.35747	4.95436	0.2096	2.84153	0.591591	8.16306	0.736635	10.2101	0.930136	12.1917	0.516982	7.17842	0.724478	10.051
0.359022	4.92016	0.212287	2.84641	0.596591	8.14027	0.740817	10.1677	0.932668	12.0953	0.520552	7.14689	0.727361	9.97783
0.360573	4.88668	0.214972	2.85118	0.601578	8.11781	0.745636	10.1204	0.935235	12.0014	0.524078	7.11549	0.73029	9.90696
0.362122	4.85392	0.217656	2.85583	0.606551	8.09564	0.750475	10.0743	0.937839	11.9099	0.527562	7.08419	0.733265	9.83826
0.363671	4.82188	0.22034	2.86037	0.611508	8.07374	0.755336	10.0296	0.940479	11.8208	0.531003	7.05301	0.736286	9.77166
0.365221	4.79053	0.223022	2.86481	0.616446	8.05207	0.760217	9.98602	0.943156	11.7339	0.534401	7.02192	0.739353	9.70709
0.366773	4.75986	0.225704	2.86914	0.621365	8.0306	0.765117	9.94366	0.945871	11.6493	0.537755	6.99093	0.742465	9.64448
0.368327	4.72986	0.228385	2.87337	0.626262	8.0093	0.770037	9.90244	0.948625	11.5668	0.541066	6.96004	0.745621	9.58375
0.369883	4.70052	0.231065	2.8775	0.631136	7.98816	0.774977	9.86232	0.951418	11.4864	0.544334	6.92923	0.748822	9.52485
0.371442	4.67183	0.233744	2.88155	0.635985	7.96714	0.779935	9.82326	0.95425	11.408	0.547558	6.89852	0.752066	9.46771
0.373006	4.64376	0.236422	2.8855	0.640809	7.94622	0.784911	9.78522	0.957123	11.3317	0.550739	6.86789	0.755353	9.41227
0.374573	4.61632	0.2391	2.88936	0.645606	7.92539	0.789904	9.74817	0.960036	11.2573	0.553877	6.83735	0.758683	9.35846
0.376146	4.58948	0.241777	2.89313	0.650374	7.90463	0.794915	9.71207	0.962992	11.1848	0.556972	6.8069	0.762053	9.30624
0.377723	4.56322	0.244452	2.89683	0.655112	7.88393	0.799942	9.67687	0.96599	11.1141	0.560026	6.77654	0.765464	9.25553
0.379306	4.53755	0.247128	2.90044	0.65982	7.86326	0.804985	9.64256	0.968637	11.054	0.563037	6.74627	0.768915	9.20629
0.380894	4.51245	0.249802	2.90398	0.664497	7.84261	0.810043	9.60909	0.970921	11.0038	0.566008	6.71611	0.772404	9.15846
0.382489	4.48789	0.252476	2.90744	0.66914	7.82198	0.815115	9.57643	0.972827	10.9631	0.568938	6.68604	0.775931	9.11199
0.38409	4.46387	0.255148	2.91083	0.67375	7.80135	0.820201	9.54456	0.974346	10.9313	0.571827	6.65608	0.779494	9.06683
0.385697	4.44039	0.25782	2.91415	0.678326	7.78071	0.8253	9.51343	0.97547	10.9082	0.574678	6.62624	0.783092	9.02292
0.387312	4.41741	0.260492	2.9174	0.682866	7.76005	0.830411	9.48302	0.976193	10.8935	0.577489	6.5965	0.786725	8.98022
0.388933	4.39494	0.263163	2.92058	0.68737	7.73936	0.835534	9.4533	0.977235	10.8726	0.580263	6.56689	0.79039	8.93869
0.390561	4.37296	0.265833	2.9237	0.691837	7.71865	0.840666	9.42424	0.978374	10.85	0.583	6.53741	0.794087	8.89826
0.392196	4.35146	0.268502	2.92675	0.696267	7.69789	0.845808	9.39582	0.979933	10.8197	0.5857	6.50805	0.797814	8.85891
0.393839	4.33042	0.271171	2.92975	0.700658	7.67709	0.850959	9.36799	0.981919	10.7818	0.588365	6.47884	0.80157	8.82059
0.395489	4.30985	0.273839	2.93268	0.705012	7.65623	0.856117	9.34075	0.984345	10.7369	0.590995	6.44976	0.805354	8.78325
0.397147	4.28971	0.276506	2.93556	0.709326	7.63533	0.861281	9.31405	0.987224	10.6853	0.593592	6.42084	0.809165	8.74685
0.398813	4.27001	0.279173	2.93838	0.713601	7.61437	0.86645	9.28788	0.990573	10.6276	0.596155	6.39207	0.813	8.71136
0.400486	4.25074	0.281839	2.94114	0.717836	7.59335	0.871623	9.2622	0.993971	10.5713	0.598687	6.36346	0.816859	8.67673
0.402167	4.23188	0.284504	2.94385	0.722031	7.57227	0.8768	9.237	0.997418	10.5166	0.601188	6.33502	0.82074	8.64294
0.403856	4.21342	0.287169	2.94652	0.726185	7.55113	0.881978	9.21224	1.00092	10.4633	0.603658	6.30675	0.824641	8.60994
0.405552	4.19535	0.289834	2.94913	0.730299	7.52993	0.887156	9.18791			0.6061	6.27865	0.828563	8.5777
0.407257	4.17767	0.292498	2.95169	0.734373	7.50866	0.892334	9.16398			0.608513	6.25073	0.832502	8.54618
0.408969	4.16036	0.295161	2.9542	0.738405	7.48733	0.897509	9.14043			0.610898	6.22301	0.836458	8.51536
0.41069	4.14342	0.297823	2.95667	0.742396	7.46595	0.902681	9.11723			0.613258	6.19547	0.840429	8.4852
0.412418	4.12684	0.300486	2.9591	0.746347	7.4445	0.907849	9.09436			0.615591	6.16812	0.844415	8.45568
0.414155	4.1106	0.303147	2.96148	0.750256	7.42299	0.91301	9.0718			0.6179	6.14098	0.848412	8.42676
0.415899	4.0947	0.305808	2.96381	0.754125	7.40143	0.918164	9.04954			0.620186	6.11404	0.852421	8.39841
0.417651	4.07914	0.308469	2.96611	0.757953	7.37981	0.92331	9.02755			0.622448	6.0873	0.85644	8.37062
0.419411	4.06389	0.311129	2.96836	0.76174	7.35814	0.928446	9.00581			0.624688	6.06078	0.860468	8.34334
0.421179	4.04897	0.313789	2.97058	0.765487	7.33642	0.93357	8.9843			0.626907	6.03447	0.864503	8.31657
0.422955	4.03434	0.316448	2.97276	0.769193	7.31466	0.938682	8.96301			0.629106	6.00837	0.868543	8.29028
0.424738	4.02002	0.319106	2.97489	0.772859	7.29285	0.94378	8.94192			0.631285	5.98249	0.872589	8.26443
0.42653	4.006	0.321765	2.977	0.776486	7.27101	0.948863	8.92102			0.633445	5.95683	0.876638	8.23902
0.428329	3.99226	0.324422	2.97906	0.780073	7.24913	0.953931	8.90028			0.635587	5.9314	0.88069	8.21401
0.430136	3.97879	0.327079	2.9811	0.783621	7.22722	0.958981	8.8797			0.637712	5.90619	0.884742	8.1894
0.43195	3.9656	0.329736	2.98309	0.78713	7.20528	0.964013	8.85926			0.63982	5.8812	0.888795	8.16515
0.433772	3.95268	0.332393	2.98506	0.790601	7.18332	0.969025	8.83895			0.641912	5.85644	0.892846	8.14125
0.435602	3.94001	0.335049	2.98699	0.794035	7.16135	0.974018	8.81876			0.643989	5.83191	0.896895	8.11769
0.437439	3.9276	0.337704	2.98889	0.79743	7.13936	0.978989	8.79867			0.646051	5.80761	0.900941	8.09444
0.439284	3.91543	0.340359	2.99076	0.800789	7.11736	0.983939	8.77869			0.648099	5.78354	0.904983	8.07149
0.441136	3.90351	0.343014	2.9926	0.804111	7.09535	0.988867	8.7588			0.650134	5.7597	0.909018	8.04882
0.442995	3.89182	0.345668	2.99441	0.807397	7.07335	0.993772	8.73899			0.652157	5.73609	0.913048	8.02643
0.444862	3.88037	0.348322	2.99619	0.810648	7.05135	0.998653	8.71926			0.654167	5.71271	0.917069	8.00428
0.446736	3.86913	0.350976	2.99794	0.813864	7.02935	1.00351	8.6996			0.656165	5.68956	0.921083	7.98238
0.448617	3.85812	0.353629	2.99967	0.817045	7.00738					0.658153	5.66665	0.925087	7.9607
0.450505	3.84732	0.356282	3.00137	0.820193	6.98541					0.66013	5.64396	0.92908	7.93924
0.4524	3.83673	0.358934	3.00304	0.823307	6.96348					0.662097	5.6215	0.933062	7.91798
0.454302	3.82634	0.361587	3.00469	0.826388	6.94156					0.664055	5.59928	0.937033	7.89691
0.456211	3.81616	0.364238	3.00631	0.829438	6.91968					0.666003	5.57728	0.94099	7.87603
0.458127	3.80617	0.36689	3.0079	0.832456	6.89784					0.667943	5.55551	0.944934	7.85531
0.46005	3.79637	0.369541	3.00948	0.835443	6.87603					0.669875	5.53396	0.948863	7.83475
0.461979	3.78676	0.372191	3.01103	0.8384	6.85427					0.671799	5.51265	0.952777	7.81434
0.463915	3.77733	0.374842	3.01255	0.841327	6.83255					0.673716	5.49155	0.956675	7.79408
0.465858	3.76807	0.377492	3.01406	0.844225	6.81089					0.675626	5.47068	0.960557	7.77395
0.467807	3.75899	0.380142	3.01554	0.847095	6.78928					0.677529	5.45003	0.964421	7.75394
0.469763	3.75008	0.382791	3.017	0.849936	6.76774					0.679427	5.42961	0.968267	7.73406
0.471725	3.74134	0.38544	3.01844	0.852751	6.74625					0.681318	5.4094	0.972095	7.71428
0.473693	3.73276	0.388089	3.01986	0.855539	6.72483					0.683204	5.38941	0.975904	7.69461
0.475668	3.72434	0.390737	3.02125	0.858301	6.70348					0.685085	5.36963	0.979693	7.67504
0.477648	3.71607	0.393386	3.02263	0.861037	6.68221					0.686962	5.35007	0.983462	7.65555
0.479635	3.70796	0.396034	3.02399	0.863748	6.66101					0.688833	5.33073	0.987211	7.63616
0.481628	3.69999	0.398681	3.02533	0.866436	6.63989					0.690701	5.31159	0.990938	7.61685
0.483627	3.69217	0.401328	3.02665	0.869099	6.61885					0.692565	5.29266	0.994644	7.59762
0.485632	3.68449	0.403976	3.02796	0.871739	6.5979					0.694425	5.27394	0.998329	7.57845
0.487643	3.67695	0.406622	3.02924	0.874357	6.57704					0.696281	5.25543	1.00199	7.55936
0.489659	3.66954	0.409269	3.03051	0.876953	6.55626					0.698135	5.23712		
0.491682	3.66227	0.411915	3.03176	0.879527	6.53558					0.699985	5.21901		
0.49371	3.65513	0.414561	3.03299	0.882081	6.515					0.701833	5.2011		
0.495743	3.64811	0.417207	3.03421	0.884614	6.49451					0.703679	5.18338		
0.497782	3.64122	0.419852	3.03541	0.887127	6.47412					0.705522	5.16587		
0.499827	3.63446	0.422497	3.03659	0.88962	6.45383					0.707364	5.14855		
0.501877	3.62781	0.425142	3.03776	0.892095	6.43365					0.709203	5.13142		
0.503932	3.62127	0.427787	3.03892	0.894552	6.41357					0.711041	5.11448		
0.505993	3.61486	0.430431	3.04005	0.896991	6.39359					0.712878	5.09772		
0.508059	3.60855	0.433076	3.04118	0.899412	6.37373					0.714713	5.08116		
0.51013	3.60235	0.43572	3.04229	0.901817	6.35397					0.716548	5.06477		
0.512207	3.59626	0.438363	3.04338	0.904205	6.33433					0.718381	5.04857		
0.514288	3.59028	0.441007	3.04446	0.906577	6.3148					0.720214	5.03255		
0.516374	3.58439	0.44365	3.04553	0.908933	6.29538					0.722046	5.01671		
0.518465	3.57861	0.446293	3.04658	0.911274	6.27607					0.723877	5.00104		
0.520562	3.57293	0.448936	3.04763	0.913601	6.25689					0.725709	4.98555		
0.522663	3.56734	0.451579	3.04865	0.915913	6.23781					0.72754	4.97023		
0.524769	3.56185	0.454221	3.04967	0.918211	6.21886					0.729371	4.95507		
0.526879	3.55645	0.456863	3.05067	0.920496	6.20002					0.731202	4.94009		
0.528994	3.55114	0.459505	3.05166	0.922768	6.1813					0.733034	4.92527		
0.531114	3.54592	0.462147	3.05264	0.925027	6.1627					0.734866	4.91062		
0.533239	3.54079	0.464788	3.0536	0.927274	6.14421					0.736698	4.89613		
0.535368	3.53574	0.46743	3.05456	0.929508	6.12585					0.738531	4.8818		
0.537501	3.53077	0.470071	3.0555	0.931731	6.10761					0.740364	4.86762		
0.539639	3.52589	0.472712	3.05643	0.933942	6.08949					0.742198	4.85361		
0.541781	3.52109	0.475352	3.05735	0.936143	6.07149					0.744033	4.83975		
0.543928	3.51636	0.477993	3.05826	0.938333	6.05361					0.745869	4.82604		
0.546078	3.51172	0.480633	3.05916	0.940512	6.03585					0.747706	4.81248		
0.548233	3.50714	0.483273	3.06005	0.942681	6.01821					0.749545	4.79907		
0.550392	3.50265	0.485913	3.06093	0.944841	6.00069					0.751384	4.78581		
0.552556	3.49822	0.488553	3.0618	0.946991	5.98329					0.753224	4.77269		
0.554723	3.49387	0.491192	3.06266	0.949132	5.96602					0.755066	4.75972		
0.556894	3.48958	0.493832	3.0635	0.951264	5.94886					0.75691	4.74688		
0.55907	3.48537	0.496471	3.06434	0.953387	5.93183					0.758755	4.73419		
0.561249	3.48122	0.49911	3.06517	0.955502	5.91491					0.760601	4.72164		
0.563432	3.47714	0.501749	3.06599	0.957608	5.89812					0.762449	4.70922		
0.565619	3.47312	0.504387	3.0668	0.959707	5.88144					0.764299	4.69694		
0.56781	3.46917	0.507026	3.0676	0.961798	5.86489					0.76615	4.68479		
0.570005	3.46527	0.509664	3.06839	0.963882	5.84845					0.768004	4.67278		
0.572203	3.46144	0.512302	3.06918	0.965959	5.83214					0.769859	4.66089		
0.574405	3.45767	0.51494	3.06995	0.968028	5.81594					0.771716	4.64913		
0.57661	3.45396	0.517578	3.07072	0.970091	5.79986					0.773575	4.6375		
0.578819	3.4503	0.520215	3.07147	0.972147	5.78389					0.775435	4.626		
0.581032	3.4467	0.522853	3.07222	0.974197	5.76805					0.777298	4.61462		
0.583248	3.44316	0.52549	3.07296	0.976241	5.75232					0.779164	4.60336		
0.585468	3.43967	0.528127	3.0737	0.978279	5.7367					0.781031	4.59222		
0.587691	3.43623	0.530764	3.07442	0.980311	5.72121					0.7829	4.5812		
0.589917	3.43285	0.5334	3.07514	0.982338	5.70582					0.784771	4.5703		
0.592147	3.42952	0.536037	3.07585	0.984359	5.69055					0.786645	4.55951		
0.59438	3.42623	0.538673	3.07655	0.986375	5.6754					0.788521	4.54884		
0.596617	3.423	0.54131	3.07725	0.988386	5.66036					0.7904	4.53828		
0.598856	3.41982	0.543946	3.07793	0.990393	5.64543					0.79228	4.52784		
0.601099	3.41668	0.546582	3.07861	0.992394	5.63061					0.794163	4.5175		
0.603345	3.41359	0.549217	3.07929	0.994391	5.6159					0.796049	4.50727		
0.605594	3.41055	0.551853	3.07995	0.996384	5.60131					0.797937	4.49716		
0.607846	3.40755	0.554488	3.08061	0.998373	5.58682					0.799827	4.48714		
0.610102	3.4046	0.557124	3.08127	1.00036	5.57245					0.80172	4.47724		
0.61236	3.40169	0.559759	3.08191							0.803615	4.46744		
0.614621	3.39882	0.562394	3.08255							0.805512	4.45774		
0.616885	3.396	0.565029	3.08318							0.807413	4.44814		
0.619152	3.39321	0.567663	3.08381							0.809316	4.43864		
0.621422	3.39047	0.570298	3.08443							0.811221	4.42924		
0.623695	3.38777	0.572932	3.08504							0.813129	4.41993		
0.625971	3.3851	0.575566	3.08565							0.81504	4.41073		
0.628249	3.38248	0.578201	3.08625							0.816953	4.40162		
0.630531	3.37989	0.580835	3.08685							0.818869	4.3926		
0.632815	3.37734	0.583468	3.08744							0.820787	4.38368		
0.635101	3.37483	0.586102	3.08802							0.822708	4.37484		
0.637391	3.37235	0.588736	3.0886							0.824632	4.3661		
0.639683	3.3699	0.591369	3.08917							0.826559	4.35745		
0.641977	3.3675	0.594002	3.08974							0.828488	4.34889		
0.644274	3.36512	0.596635	3.0903							0.83042	4.34041		
0.646574	3.36278	0.599268	3.09085							0.832354	4.33202		
0.648876	3.36047	0.601901	3.0914							0.834292	4.32371		
0.651181	3.3582	0.604534	3.09195							0.836232	4.31549		
0.653488	3.35595	0.607166	3.09249							0.838174	4.30735		
0.655798	3.35374	0.609799	3.09302							0.84012	4.2993		
0.65811	3.35156	0.612431	3.09355							0.842068	4.29132		
0.660425	3.34941	0.615063	3.09408							0.844019	4.28343		
0.662741	3.34729	0.617695	3.0946							0.845973	4.27561		
0.665061	3.34519	0.620327	3.09511							0.847929	4.26787		
0.667382	3.34313	0.622959	3.09562							0.849889	4.26021		
0.669706	3.34109	0.62559	3.09612							0.851851	4.25263		
0.672032	3.33909	0.628222	3.09662							0.853816	4.24512		
0.67436	3.33711	0.630853	3.09712							0.855783	4.23769		
0.676691	3.33515	0.633484	3.09761							0.857753	4.23032		
0.679024	3.33322	0.636115	3.0981							0.859727	4.22304		
0.681359	3.33132	0.638746	3.09858							0.861702	4.21582		
0.683696	3.32945	0.641377	3.09906							0.863681	4.20868		
0.686035	3.3276	0.644008	3.09953							0.865662	4.2016		
0.688376	3.32577	0.646639	3.1							0.867647	4.19459		
0.690719	3.32397	0.649269	3.10046							0.869634	4.18766		
0.693065	3.32219	0.651899	3.10092							0.871623	4.18079		
0.695412	3.32044	0.654529	3.10138							0.873616	4.17398		
0.697762	3.31871	0.65716	3.10183							0.875611	4.16725		
0.700113	3.317	0.659789	3.10228							0.877609	4.16058		
0.702467	3.31532	0.662419	3.10272							0.87961	4.15397		
0.704822	3.31365	0.665049	3.10316							0.881613	4.14742		
0.707179	3.31201	0.667679	3.1036							0.883619	4.14094		
0.709539	3.31039	0.670308	3.10403							0.885628	4.13453		
0.7119	3.30879	0.672937	3.10446							0.88764	4.12817		
0.714263	3.30722	0.675567	3.10489							0.889655	4.12187		
0.716628	3.30566	0.678196	3.10531							0.891672	4.11564		
0.718994	3.30412	0.680825	3.10572							0.893692	4.10946		
0.721363	3.3026	0.683453	3.10614							0.895714	4.10334		
0.723733	3.30111	0.686082	3.10655							0.897739	4.09728		
0.726105	3.29963	0.688711	3.10695							0.899767	4.09128		
0.728479	3.29817	0.691339	3.10736							0.901798	4.08534		
0.730855	3.29673	0.693968	3.10776							0.903832	4.07945		
0.733232	3.2953	0.696596	3.10815							0.905868	4.07361		
0.735611	3.2939	0.699224	3.10854							0.907907	4.06783		
0.737992	3.29251	0.701852	3.10893							0.909948	4.06211		
0.740374	3.29114	0.70448	3.10932							0.911992	4.05643		
0.742758	3.28979	0.707108	3.1097							0.914039	4.05081		
0.745144	3.28845	0.709735	3.11008							0.916088	4.04525		
0.747531	3.28714	0.712363	3.11046							0.91814	4.03973		
0.74992	3.28583	0.71499	3.11083							0.920195	4.03427		
0.752311	3.28455	0.717618	3.1112							0.922252	4.02885		
0.754703	3.28328	0.720245	3.11157							0.924312	4.02349		
0.757097	3.28202	0.722872	3.11193							0.926375	4.01818		
0.759492	3.28079	0.725499	3.11229							0.92844	4.01291		
0.761888	3.27956	0.728126	3.11265							0.930508	4.00769		
0.764287	3.27835	0.730753	3.113							0.932578	4.00252		
0.766686	3.27716	0.733379	3.11336							0.934651	3.9974		
0.769088	3.27598	0.736006	3.1137							0.936727	3.99233		
0.77149	3.27482	0.738632	3.11405							0.938805	3.9873		
0.773894	3.27367	0.741259	3.11439							0.940886	3.98231		
0.7763	3.27253	0.743885	3.11473							0.942969	3.97737		
0.778707	3.27141	0.746511	3.11507							0.945055	3.97248		
0.781115	3.2703	0.749137	3.11541							0.947143	3.96763		
0.783525	3.26921	0.751763	3.11574							0.949234	3.96282		
0.785936	3.26812	0.754388	3.11607							0.951327	3.95806		
0.788349	3.26705	0.757014	3.11639							0.953423	3.95334		
0.793178	3.26495	0.75964	3.11672							0.955521	3.94866		
0.795595	3.26392	0.762265	3.11704							0.957622	3.94402		
0.798013	3.2629	0.76489	3.11736							0.959725	3.93943		
0.800432	3.2619	0.767516	3.11767							0.961831	3.93487		
0.802853	3.2609	0.770141	3.11799							0.963939	3.93036		
0.805274	3.25992	0.772766	3.1183							0.96605	3.92588		
0.807698	3.25895	0.77539	3.11861							0.968163	3.92145		
0.810122	3.25799	0.778015	3.11891							0.970279	3.91705		
0.812548	3.25704	0.78064	3.11922							0.972396	3.91269		
0.814974	3.2561	0.783264	3.11952							0.974517	3.90838		
0.817402	3.25518	0.785889	3.11982							0.976639	3.90409		
0.819832	3.25426	0.788513	3.12012							0.978765	3.89985		
0.822262	3.25336	0.791137	3.12041							0.980892	3.89564		
0.824694	3.25246	0.793762	3.1207							0.983022	3.89147		
0.827127	3.25158	0.796386	3.12099							0.985154	3.88734		
0.829561	3.2507	0.79901	3.12128							0.987289	3.88324		
0.831996	3.24984	0.801633	3.12156							0.989426	3.87918		
0.834432	3.24898	0.804257	3.12185							0.991565	3.87515		
0.836869	3.24814	0.806881	3.12213							0.993707	3.87116		
0.839308	3.24731	0.809504	3.12241							0.99585	3.8672		
0.841748	3.24648	0.812127	3.12268							0.997997	3.86327		
0.844188	3.24567	0.814751	3.12296							1.00015	3.85938		
0.84663	3.24486	0.817374	3.12323										
0.849073	3.24406	0.819997	3.1235										
0.851517	3.24327	0.82262	3.12377										
0.853962	3.2425	0.825243	3.12403										
0.856408	3.24173	0.827866	3.1243										
0.858856	3.24096	0.830488	3.12456										
0.861304	3.24021	0.833111	3.12482										
0.863753	3.23947	0.835733	3.12508										
0.866203	3.23873	0.838356	3.12533										
0.868655	3.238	0.840978	3.12559										
0.871107	3.23728	0.8436	3.12584										
0.87356	3.23657	0.846222	3.12609										
0.876014	3.23587	0.848844	3.12634										
0.878469	3.23517	0.851466	3.12659										
0.880926	3.23448	0.854088	3.12683										
0.883383	3.2338	0.856709	3.12707										
0.885841	3.23313	0.859331	3.12731										
0.8883	3.23246	0.861952	3.12755										
0.89076	3.2318	0.864574	3.12779										
0.893221	3.23115	0.867195	3.12803										
0.895682	3.23051	0.869816	3.12826										
0.898145	3.22987	0.872437	3.12849										
0.900608	3.22924	0.875058	3.12872										
0.903073	3.22862	0.877679	3.12895										
0.905538	3.228	0.880299	3.12918										
0.908004	3.22739	0.88292	3.12941										
0.910471	3.22679	0.885541	3.12963										
0.912939	3.22619	0.888161	3.12985										
0.915408	3.2256	0.890781	3.13007										
0.917878	3.22502	0.893402	3.13029										
0.920348	3.22444	0.896022	3.13051										
0.922819	3.22387	0.898642	3.13072										
0.925291	3.2233	0.901262	3.13094										
0.927764	3.22274	0.903882	3.13115										
0.930238	3.22219	0.906501	3.13136										
0.932712	3.22164	0.909121	3.13157										
0.935188	3.2211	0.911741	3.13178										
0.937664	3.22056	0.91436	3.13199										
0.940141	3.22003	0.916979	3.13219										
0.942618	3.21951	0.919599	3.1324										
0.945097	3.21899	0.922218	3.1326										
0.947576	3.21848	0.924837	3.1328										
0.950056	3.21797	0.927456	3.133										
0.952536	3.21747	0.930075	3.1332										
0.955018	3.21697	0.932693	3.13339										
0.9575	3.21648	0.935312	3.13359										
0.959983	3.21599	0.937931	3.13378										
0.962466	3.21551	0.940549	3.13397										
0.964951	3.21503	0.943168	3.13416										
0.967436	3.21456	0.945786	3.13435										
0.969921	3.21409	0.948404	3.13454										
0.972408	3.21363	0.951022	3.13473										
0.974895	3.21317	0.95364	3.13491										
0.977383	3.21271	0.956258	3.1351										
0.979871	3.21227	0.958876	3.13528										
0.98236	3.21182	0.961494	3.13546										
0.98485	3.21138	0.964111	3.13564										
0.98734	3.21095	0.966729	3.13582										
0.989832	3.21052	0.969346	3.136										
0.992323	3.21009	0.971963	3.13618										
0.994816	3.20967	0.974581	3.13635										
0.997309	3.20925	0.977198	3.13653										
0.999802	3.20884	0.979815	3.1367										
1.0023	3.20843	0.982432	3.13687										
		0.985049	3.13704										
		0.987665	3.13721										
		0.990282	3.13738										
		0.992899	3.13755										
		0.995515	3.13771										
		0.998132	3.13788										
		1.00075	3.13804										
