Sym0		Asym0		Sym1		Sym2		Asym1		Asym2	
364  Points		363  Points		283  Points		174  Points		313  Points		179  Points	
Freq (MHz)	Vph (m/ms)	Freq (MHz)	Vph (m/ms)	Freq (MHz)	Vph (m/ms)	Freq (MHz)	Vph (m/ms)	Freq (MHz)	Vph (m/ms)	Freq (MHz)	Vph (m/ms)
0.00129685	7.44706	0.000394392	0.206311	0.444279	1264.4	0.645512	1517.34	0.32279	513.834	0.888558	3362.25
0.00608474	7.447	0.000703653	0.275449	0.444252	446.797	0.645588	604.283	0.322916	254.039	0.888479	979.358
0.0108721	7.4466	0.00110097	0.344323	0.444201	271.311	0.645729	377.336	0.323128	168.818	0.888313	573.055
0.0156582	7.44591	0.00158584	0.412932	0.444124	194.777	0.645936	274.374	0.323425	126.487	0.888063	404.941
0.0204429	7.44496	0.00215735	0.48119	0.444022	151.901	0.646207	215.608	0.323807	101.192	0.88773	313.022
0.0252254	7.44376	0.00281467	0.549066	0.443896	124.479	0.646543	177.618	0.324272	84.3832	0.887317	255.055
0.0300054	7.44231	0.00355669	0.616494	0.443747	105.429	0.646942	151.049	0.32482	72.4111	0.886828	215.152
0.0347823	7.44062	0.00438224	0.683427	0.443575	91.4231	0.647406	131.428	0.325451	63.4566	0.886266	186.003
0.0395557	7.43866	0.00529011	0.74983	0.443381	80.6906	0.647931	116.349	0.326162	56.5111	0.885637	163.773
0.044325	7.43644	0.00627882	0.815641	0.443165	72.2032	0.648519	104.401	0.326953	50.9703	0.884944	146.256
0.0490897	7.43395	0.00734704	0.88084	0.44293	65.3223	0.649168	94.7037	0.327822	46.4501	0.884191	132.095
0.0538494	7.43121	0.00849309	0.94537	0.442675	59.6307	0.649877	86.6773	0.328768	42.6948	0.883385	120.409
0.0586032	7.42818	0.00971549	1.00921	0.442403	54.8442	0.650645	79.9261	0.32979	39.5272	0.882529	110.6
0.063351	7.42489	0.0110125	1.07233	0.442115	50.7625	0.651472	74.1698	0.330886	36.8212	0.881627	102.249
0.0680919	7.42132	0.0123825	1.13469	0.441811	47.2404	0.652356	69.2048	0.332054	34.4839	0.880685	95.0519
0.0728254	7.41746	0.0138236	1.19627	0.441494	44.17	0.653296	64.8794	0.333292	32.4461	0.879707	88.7854
0.077551	7.41332	0.0153341	1.25704	0.441164	41.4696	0.654291	61.0784	0.334598	30.6547	0.878696	83.2795
0.0822679	7.40888	0.016912	1.31699	0.440824	39.076	0.655339	57.7125	0.335972	29.0683	0.877656	78.4035
0.0869756	7.40414	0.0185557	1.37609	0.440476	36.9399	0.656441	54.7117	0.33741	27.6544	0.876592	74.0551
0.0916734	7.39909	0.0202632	1.43433	0.44012	35.0217	0.657593	52.0202	0.338911	26.387	0.875506	70.1529
0.0963606	7.39372	0.0220328	1.4917	0.439759	33.2899	0.658796	49.5931	0.340473	25.2449	0.874402	66.6318
0.101036	7.38803	0.0238625	1.54819	0.439394	31.7185	0.660047	47.3935	0.342094	24.2109	0.873282	63.4385
0.1057	7.38202	0.0257505	1.60378	0.439028	30.2864	0.661346	45.3913	0.343772	23.2708	0.87215	60.5292
0.110351	7.37566	0.0276949	1.65848	0.438662	28.976	0.662691	43.5614	0.345505	22.4127	0.871009	57.8679
0.114989	7.36896	0.0296941	1.71227	0.438297	27.7725	0.664082	41.8827	0.347291	21.6265	0.86986	55.4241
0.119612	7.36189	0.0317462	1.76516	0.437938	26.6635	0.665515	40.3375	0.349128	20.904	0.868706	53.1724
0.124219	7.35446	0.0338494	1.81714	0.437584	25.6383	0.666992	38.9107	0.351014	20.2379	0.867549	51.091
0.128811	7.34665	0.0360021	1.86822	0.437239	24.6881	0.668509	37.5893	0.352947	19.622	0.866391	49.1614
0.133385	7.33845	0.0382025	1.9184	0.436904	23.805	0.670066	36.3623	0.354926	19.051	0.865234	47.3677
0.137941	7.32985	0.040449	1.96769	0.436581	22.9824	0.671661	35.2201	0.356948	18.5204	0.86408	45.6961
0.142478	7.32083	0.0427401	2.01608	0.436273	22.2143	0.673294	34.1542	0.359011	18.0262	0.86293	44.1347
0.146995	7.31139	0.045074	2.06359	0.435982	21.4958	0.674963	33.1575	0.361114	17.5647	0.861786	42.673
0.151491	7.3015	0.0474493	2.11023	0.43571	20.8223	0.676667	32.2235	0.363255	17.1331	0.860649	41.3018
0.155964	7.29116	0.0498645	2.15599	0.435459	20.19	0.678405	31.3465	0.365432	16.7285	0.859521	40.0131
0.160414	7.28034	0.0523182	2.2009	0.435232	19.5953	0.680175	30.5216	0.367643	16.3485	0.858402	38.7998
0.164838	7.26904	0.0548089	2.24496	0.435031	19.0353	0.681976	29.7443	0.369887	15.9911	0.857295	37.6554
0.169236	7.25724	0.0573352	2.28818	0.434859	18.5071	0.683808	29.0107	0.372162	15.6544	0.8562	36.5745
0.173607	7.24491	0.0598958	2.33057	0.434717	18.0083	0.685669	28.3172	0.374467	15.3365	0.855119	35.5519
0.177948	7.23205	0.0624896	2.37215	0.434608	17.5367	0.687558	27.6608	0.376799	15.0361	0.854052	34.5831
0.182259	7.21864	0.0651152	2.41293	0.434535	17.0904	0.689474	27.0385	0.379157	14.7518	0.853	33.6641
0.186538	7.20464	0.0677714	2.45292	0.4345	16.6676	0.691416	26.4478	0.38154	14.4822	0.851965	32.7912
0.190783	7.19006	0.070457	2.49213	0.434506	16.2666	0.693384	25.8865	0.383946	14.2264	0.850948	31.9612
0.194993	7.17486	0.073171	2.53058	0.434555	15.8861	0.695375	25.3523	0.386374	13.9832	0.849948	31.1709
0.199165	7.15903	0.0759122	2.56828	0.43465	15.5247	0.697389	24.8434	0.388822	13.7518	0.848967	30.4177
0.203299	7.14254	0.0786797	2.60524	0.434794	15.1812	0.699425	24.358	0.391289	13.5314	0.848007	29.6992
0.207392	7.12539	0.0814724	2.64148	0.434989	14.8545	0.701483	23.8947	0.393774	13.3211	0.847067	29.013
0.211442	7.10753	0.0842894	2.677	0.435238	14.5437	0.703561	23.4518	0.396275	13.1204	0.846148	28.3571
0.215447	7.08897	0.0871296	2.71184	0.435544	14.2479	0.705658	23.0282	0.398791	12.9285	0.845252	27.7295
0.219406	7.06967	0.0899922	2.74598	0.43591	13.9661	0.707774	22.6226	0.401321	12.7448	0.844379	27.1287
0.223316	7.04962	0.0928765	2.77946	0.436338	13.6977	0.709908	22.2339	0.403863	12.5689	0.843529	26.5529
0.227175	7.0288	0.0957813	2.81229	0.436832	13.4418	0.712059	21.8611	0.406416	12.4003	0.842704	26.0007
0.230982	7.00719	0.0987061	2.84447	0.437393	13.198	0.714226	21.5032	0.408979	12.2384	0.841904	25.4708
0.234734	6.98477	0.10165	2.87602	0.438025	12.9655	0.716408	21.1593	0.411552	12.0829	0.841129	24.9618
0.238429	6.96153	0.104612	2.90695	0.43873	12.7439	0.718605	20.8287	0.414132	11.9334	0.840381	24.4727
0.242064	6.93745	0.107592	2.93728	0.439512	12.5326	0.720816	20.5105	0.416719	11.7895	0.839661	24.0023
0.245639	6.91253	0.110589	2.96702	0.440372	12.331	0.72304	20.2042	0.419311	11.651	0.838967	23.5497
0.249151	6.88675	0.113603	2.99618	0.441314	12.1388	0.725277	19.909	0.421908	11.5174	0.838302	23.1139
0.252597	6.86011	0.116631	3.02478	0.442339	11.9556	0.727525	19.6244	0.424509	11.3885	0.837666	22.694
0.255978	6.83261	0.119675	3.05282	0.44345	11.7809	0.729785	19.3498	0.427112	11.264	0.83706	22.2893
0.259289	6.80424	0.122734	3.08031	0.444649	11.6144	0.732055	19.0846	0.429717	11.1438	0.836483	21.8991
0.262531	6.77501	0.125806	3.10728	0.445938	11.4557	0.734335	18.8285	0.432322	11.0275	0.835938	21.5225
0.265702	6.74492	0.128891	3.13373	0.447319	11.3045	0.736625	18.5809	0.434927	10.9149	0.835423	21.159
0.2688	6.71399	0.13199	3.15966	0.448793	11.1604	0.738923	18.3414	0.43753	10.8059	0.834941	20.808
0.271825	6.68224	0.1351	3.18511	0.450363	11.0232	0.741229	18.1097	0.440132	10.7003	0.834491	20.4688
0.274776	6.64968	0.138223	3.21006	0.452028	10.8925	0.743543	17.8852	0.44273	10.5978	0.834074	20.141
0.277652	6.61634	0.141356	3.23454	0.453789	10.7681	0.745864	17.6678	0.445324	10.4983	0.833691	19.8239
0.280454	6.58225	0.144501	3.25856	0.455648	10.6498	0.748191	17.4571	0.447914	10.4017	0.833342	19.5173
0.28318	6.54744	0.147656	3.28212	0.457604	10.5372	0.750524	17.2527	0.450498	10.3078	0.833027	19.2205
0.285832	6.51196	0.150821	3.30523	0.459658	10.43	0.752863	17.0544	0.453075	10.2165	0.832748	18.9332
0.28841	6.47583	0.153995	3.32791	0.461809	10.3282	0.755206	16.8619	0.455645	10.1276	0.832504	18.6549
0.290915	6.43912	0.157179	3.35016	0.464056	10.2313	0.757554	16.675	0.458207	10.0411	0.832297	18.3854
0.293348	6.40187	0.160371	3.37199	0.466398	10.1392	0.759906	16.4933	0.460433	9.96746	0.832126	18.1242
0.29571	6.36413	0.163572	3.39342	0.468834	10.0517	0.762261	16.3168	0.462324	9.90599	0.831993	17.8711
0.298004	6.32596	0.166781	3.41445	0.471033	9.97895	0.76462	16.1451	0.463884	9.85601	0.831897	17.6256
0.30023	6.28741	0.169997	3.43508	0.472962	9.91945	0.766981	15.978	0.465115	9.81702	0.831839	17.3875
0.302392	6.24854	0.173221	3.45534	0.474594	9.87192	0.769344	15.8154	0.466018	9.78865	0.83182	17.1566
0.30449	6.20942	0.176452	3.47522	0.475909	9.83537	0.771709	15.6571	0.466596	9.77061	0.83184	16.9324
0.306529	6.1701	0.17969	3.49473	0.476889	9.80907	0.774075	15.5029	0.467425	9.74487	0.8319	16.7149
0.30851	6.13064	0.182934	3.51389	0.477521	9.79249	0.776442	15.3526	0.468325	9.71711	0.832	16.5037
0.310437	6.0911	0.186184	3.53269	0.478439	9.76898	0.77881	15.2061	0.469546	9.67973	0.832139	16.2986
0.312073	6.05662	0.18944	3.55116	0.479447	9.74388	0.781178	15.0632	0.471086	9.63305	0.83232	16.0994
0.313438	6.02724	0.192282	3.56697	0.480834	9.71045	0.783546	14.9239	0.472943	9.57748	0.832542	15.9059
0.314547	6.00298	0.194708	3.58025	0.482617	9.66934	0.785914	14.7879	0.475111	9.51346	0.832805	15.7179
0.315412	5.98382	0.196717	3.5911	0.484815	9.6213	0.78828	14.6551	0.477588	9.44149	0.83311	15.5351
0.316041	5.96975	0.198306	3.5996	0.487448	9.56719	0.790646	14.5255	0.48005	9.37106	0.833457	15.3575
0.316441	5.96075	0.199475	3.60579	0.490542	9.50793	0.793011	14.3989	0.482498	9.3021	0.833846	15.1848
0.317011	5.94784	0.200224	3.60974	0.49371	9.45156	0.795373	14.2751	0.48493	9.23453	0.834278	15.0168
0.317627	5.93382	0.201301	3.61538	0.49695	9.3979	0.797734	14.1542	0.487347	9.1683	0.834753	14.8535
0.318455	5.9148	0.202472	3.62147	0.500258	9.34682	0.800093	14.0359	0.489747	9.10336	0.835271	14.6946
0.31949	5.89081	0.204065	3.6297	0.503631	9.29815	0.80245	13.9202	0.492131	9.03964	0.835832	14.54
0.320723	5.86192	0.206082	3.64	0.507067	9.25176	0.804804	13.8071	0.494498	8.97709	0.836437	14.3896
0.322145	5.82823	0.208522	3.6523	0.510562	9.20751	0.807155	13.6964	0.496847	8.91568	0.837086	14.2432
0.323747	5.78986	0.211389	3.66652	0.514113	9.16529	0.809503	13.588	0.499178	8.85534	0.837778	14.1007
0.325319	5.75184	0.214682	3.68257	0.517718	9.12497	0.811849	13.4818	0.501491	8.79604	0.838514	13.962
0.326864	5.7142	0.217978	3.69834	0.521373	9.08643	0.814191	13.3779	0.503784	8.73774	0.839295	13.827
0.328385	5.67699	0.221279	3.71382	0.525076	9.04956	0.81653	13.2761	0.506059	8.68039	0.840119	13.6955
0.329885	5.64022	0.224582	3.72903	0.528824	9.01428	0.818865	13.1763	0.508314	8.62397	0.840987	13.5675
0.331366	5.60394	0.227889	3.74397	0.532615	8.98047	0.821197	13.0785	0.510549	8.56843	0.841899	13.4427
0.332829	5.56815	0.231199	3.75864	0.536445	8.94805	0.823525	12.9827	0.512765	8.51375	0.842856	13.3213
0.334279	5.53289	0.234512	3.77306	0.540312	8.91693	0.82585	12.8887	0.51496	8.45988	0.843856	13.2029
0.335716	5.49817	0.237827	3.78722	0.544215	8.88704	0.828171	12.7965	0.517135	8.40682	0.8449	13.0876
0.337144	5.46401	0.241144	3.80114	0.548149	8.85828	0.830489	12.7061	0.519289	8.35451	0.845987	12.9752
0.338563	5.43043	0.244464	3.81481	0.552114	8.8306	0.832803	12.6174	0.521422	8.30295	0.847118	12.8657
0.339976	5.39744	0.247786	3.82824	0.556106	8.80393	0.835113	12.5303	0.523535	8.25211	0.848292	12.7589
0.341385	5.36504	0.251111	3.84144	0.560124	8.77819	0.837421	12.4449	0.525626	8.20196	0.849509	12.6549
0.342791	5.33325	0.254436	3.85441	0.564166	8.75334	0.839725	12.361	0.527697	8.15248	0.850769	12.5534
0.344196	5.30207	0.257764	3.86715	0.56823	8.72931	0.842025	12.2787	0.529747	8.10366	0.852071	12.4545
0.345601	5.27151	0.261093	3.87967	0.572313	8.70604	0.844323	12.1979	0.531776	8.05547	0.853416	12.358
0.347008	5.24157	0.264423	3.89198	0.576414	8.6835	0.846619	12.1185	0.533784	8.0079	0.854802	12.2639
0.348418	5.21225	0.267755	3.90407	0.580531	8.66163	0.848911	12.0405	0.535771	7.96093	0.856229	12.1721
0.349833	5.18356	0.271088	3.91595	0.584662	8.64039	0.851202	11.9639	0.537738	7.91454	0.857698	12.0825
0.351253	5.15549	0.274421	3.92763	0.588806	8.61973	0.85349	11.8886	0.539684	7.86872	0.859207	11.9951
0.35268	5.12804	0.277756	3.93911	0.592961	8.59961	0.855777	11.8146	0.54161	7.82346	0.860756	11.9099
0.354115	5.10121	0.281091	3.95038	0.597125	8.58	0.858063	11.742	0.543515	7.77875	0.862344	11.8266
0.355558	5.075	0.284426	3.96147	0.601297	8.56086	0.860348	11.6706	0.545401	7.73457	0.863971	11.7454
0.35701	5.04939	0.287762	3.97236	0.605475	8.54215	0.862632	11.6004	0.547267	7.69091	0.865637	11.6661
0.358473	5.02439	0.291099	3.98307	0.609658	8.52385	0.864917	11.5314	0.549114	7.64776	0.867341	11.5886
0.359947	5	0.294435	3.99359	0.613844	8.50592	0.867201	11.4636	0.550942	7.60512	0.869081	11.513
0.361433	4.97619	0.297772	4.00393	0.618032	8.48833	0.869488	11.397	0.552751	7.56297	0.870859	11.4391
0.362937	4.95306	0.301108	4.01409	0.622221	8.47106	0.871775	11.3314	0.554542	7.52131	0.872672	11.3669
0.364442	4.93033	0.304445	4.02408	0.626409	8.45407	0.874065	11.2671	0.556315	7.48013	0.87452	11.2964
0.365966	4.90827	0.307781	4.03389	0.630594	8.43735	0.876358	11.2038	0.55807	7.43942	0.876403	11.2275
0.367505	4.88677	0.311117	4.04354	0.634776	8.42086	0.878654	11.1415	0.559809	7.39918	0.87832	11.1601
0.369058	4.86582	0.314452	4.05302	0.638953	8.40459	0.880955	11.0804	0.561531	7.3594	0.880269	11.0942
0.370626	4.84542	0.317786	4.06234	0.643124	8.38851	0.883261	11.0203	0.563236	7.32008	0.882252	11.0298
0.372209	4.82555	0.32112	4.07149	0.647287	8.3726	0.885573	10.9612	0.564927	7.2812	0.884265	10.9669
0.373808	4.80622	0.324453	4.08049	0.651442	8.35685	0.887891	10.9031	0.566601	7.24277	0.88631	10.9053
0.375422	4.7874	0.327786	4.08933	0.655587	8.34122	0.889917	10.8533	0.568262	7.20478	0.888116	10.8527
0.377053	4.7691	0.331117	4.09802	0.65972	8.3257	0.89165	10.8115	0.569908	7.16723	0.889673	10.8086
0.3787	4.75129	0.334447	4.10656	0.663841	8.31028	0.893086	10.7773	0.571541	7.13012	0.890972	10.7727
0.380364	4.73398	0.337776	4.11495	0.667948	8.29493	0.894224	10.7505	0.573161	7.09343	0.892007	10.7447
0.382045	4.71715	0.341103	4.12319	0.67204	8.27964	0.895062	10.731	0.574769	7.05717	0.892773	10.7242
0.383742	4.70079	0.344429	4.13129	0.676115	8.26439	0.8956	10.7185	0.576364	7.02134	0.893264	10.7112
0.385457	4.6849	0.347754	4.13924	0.680173	8.24917	0.896373	10.7007	0.577949	6.98593	0.893974	10.6926
0.387188	4.66946	0.351077	4.14706	0.684213	8.23395	0.897215	10.6815	0.579523	6.95094	0.894748	10.6726
0.388937	4.65446	0.354398	4.15473	0.688232	8.21873	0.898362	10.6555	0.581087	6.91636	0.895806	10.6456
0.390703	4.6399	0.357717	4.16228	0.69223	8.20348	0.899817	10.623	0.582642	6.8822	0.897153	10.6118
0.392487	4.62576	0.361035	4.16968	0.696205	8.1882	0.901583	10.5842	0.584188	6.84845	0.898796	10.5715
0.394288	4.61204	0.36435	4.17696	0.700156	8.17288	0.903663	10.5393	0.585726	6.81511	0.90074	10.525
0.396107	4.59873	0.367663	4.18411	0.704082	8.15749	0.906064	10.4886	0.587256	6.78219	0.902994	10.4726
0.397942	4.58581	0.370975	4.19112	0.707982	8.14202	0.90848	10.4389	0.588779	6.74966	0.905272	10.4213
0.399796	4.57328	0.374284	4.19801	0.711855	8.12647	0.910913	10.3901	0.590297	6.71754	0.907572	10.3711
0.401666	4.56114	0.37759	4.20478	0.715698	8.11081	0.913363	10.3422	0.591808	6.68583	0.909894	10.3218
0.403554	4.54936	0.380894	4.21142	0.719512	8.09505	0.915831	10.2952	0.593314	6.65451	0.912237	10.2734
0.405459	4.53795	0.384195	4.21794	0.723294	8.07917	0.918319	10.2491	0.594817	6.62359	0.9146	10.226
0.407382	4.52689	0.387494	4.22433	0.727044	8.06315	0.920828	10.2039	0.596315	6.59308	0.916982	10.1795
0.409321	4.51618	0.39079	4.23061	0.730761	8.04699	0.923359	10.1596	0.59781	6.56295	0.919383	10.1338
0.411278	4.5058	0.394083	4.23678	0.734442	8.03067	0.925913	10.1161	0.599302	6.53322	0.921801	10.0889
0.413251	4.49575	0.397373	4.24282	0.738088	8.0142	0.928491	10.0735	0.600792	6.50388	0.924236	10.0449
0.415241	4.48603	0.400661	4.24875	0.741697	7.99755	0.931095	10.0318	0.602281	6.47494	0.926686	10.0016
0.417248	4.47662	0.403945	4.25457	0.745268	7.98073	0.933725	9.9909	0.603769	6.44638	0.929151	9.95914
0.419272	4.46751	0.407225	4.26027	0.7488	7.96372	0.936382	9.95088	0.605257	6.4182	0.931631	9.91737
0.421312	4.4587	0.410503	4.26587	0.752291	7.94652	0.939068	9.91171	0.606745	6.39041	0.934123	9.87631
0.423368	4.45018	0.413777	4.27135	0.755742	7.92912	0.941784	9.87337	0.608234	6.36301	0.936628	9.83594
0.425441	4.44195	0.417047	4.27673	0.759151	7.91152	0.944531	9.83587	0.609724	6.33598	0.939145	9.79622
0.427529	4.43399	0.420314	4.282	0.762518	7.89371	0.947309	9.79919	0.611217	6.30934	0.941672	9.75715
0.429634	4.4263	0.423577	4.28716	0.765841	7.8757	0.950119	9.76333	0.612711	6.28307	0.944209	9.71869
0.431754	4.41888	0.426836	4.29222	0.76912	7.85746	0.952963	9.72828	0.614209	6.25717	0.946754	9.68083
0.43389	4.4117	0.430091	4.29717	0.772354	7.83901	0.955841	9.69403	0.61571	6.23165	0.949308	9.64354
0.436041	4.40478	0.433342	4.30202	0.775542	7.82035	0.958753	9.66058	0.617216	6.2065	0.95187	9.60682
0.438207	4.3981	0.43659	4.30676	0.778685	7.80146	0.961701	9.62791	0.618726	6.18172	0.954437	9.57063
0.440389	4.39166	0.439832	4.31141	0.781782	7.78236	0.964684	9.59601	0.620241	6.1573	0.957011	9.53496
0.442585	4.38544	0.443071	4.31595	0.784832	7.76304	0.967704	9.56488	0.621761	6.13325	0.959589	9.4998
0.444796	4.37945	0.446305	4.3204	0.787835	7.7435	0.970761	9.5345	0.623287	6.10956	0.962172	9.46512
0.447022	4.37368	0.449535	4.32475	0.790792	7.72375	0.973855	9.50487	0.62482	6.08623	0.964757	9.43091
0.449262	4.36812	0.45276	4.329	0.793701	7.70379	0.976986	9.47597	0.62636	6.06326	0.967346	9.39715
0.451516	4.36277	0.45598	4.33315	0.796563	7.68362	0.980154	9.44778	0.627907	6.04064	0.969936	9.36383
0.453785	4.35762	0.459195	4.3372	0.799379	7.66325	0.983361	9.42031	0.629462	6.01838	0.972527	9.33093
0.456067	4.35266	0.462406	4.34117	0.802147	7.64268	0.986604	9.39353	0.631026	5.99646	0.975119	9.29844
0.458363	4.34789	0.465611	4.34503	0.804869	7.62193	0.989886	9.36743	0.632598	5.97489	0.97771	9.26633
0.460672	4.34331	0.468811	4.3488	0.807545	7.60099	0.993204	9.34199	0.634178	5.95367	0.980299	9.23461
0.462995	4.33891	0.472006	4.35248	0.810174	7.57987	0.99656	9.31721	0.635769	5.93279	0.982887	9.20325
0.465331	4.33468	0.475196	4.35607	0.812759	7.55859	0.999952	9.29307	0.637369	5.91225	0.985473	9.17224
0.46768	4.33062	0.47838	4.35956	0.815299	7.53714	1.00338	9.26955	0.638979	5.89205	0.988055	9.14157
0.470041	4.32673	0.481558	4.36297	0.817794	7.51554			0.6406	5.87219	0.990633	9.11122
0.472415	4.323	0.484731	4.36628	0.820247	7.4938			0.642232	5.85265	0.993207	9.08119
0.474802	4.31943	0.487898	4.3695	0.822656	7.47192			0.643876	5.83345	0.995775	9.05147
0.477201	4.31601	0.491059	4.37263	0.825024	7.44993			0.645531	5.81458	0.998337	9.02203
0.479611	4.31273	0.494214	4.37568	0.82735	7.42781			0.647198	5.79602	1.00089	8.99287
0.482034	4.3096	0.497363	4.37863	0.829637	7.40559			0.648877	5.7778		
0.484468	4.30661	0.500506	4.3815	0.831884	7.38328			0.650569	5.75989		
0.486914	4.30375	0.503642	4.38428	0.834093	7.36088			0.652273	5.74229		
0.489371	4.30103	0.506772	4.38698	0.836265	7.33841			0.653991	5.72501		
0.491839	4.29843	0.509896	4.38958	0.8384	7.31588			0.655723	5.70805		
0.494318	4.29596	0.513013	4.39211	0.840501	7.29329			0.657468	5.69139		
0.496808	4.29361	0.516123	4.39455	0.842567	7.27065			0.659228	5.67503		
0.499309	4.29138	0.519226	4.3969	0.8446	7.24799			0.661002	5.65898		
0.50182	4.28926	0.522323	4.39917	0.846602	7.2253			0.66279	5.64323		
0.504341	4.28725	0.525412	4.40136	0.848572	7.20259			0.664593	5.62778		
0.506873	4.28534	0.528495	4.40346	0.850513	7.17988			0.666411	5.61262		
0.509414	4.28354	0.53157	4.40548	0.852425	7.15718			0.668245	5.59775		
0.511965	4.28185	0.534638	4.40742	0.854309	7.13449			0.670094	5.58317		
0.514525	4.28025	0.537698	4.40929	0.856167	7.11182			0.671959	5.56888		
0.517095	4.27874	0.540751	4.41106	0.858	7.08918			0.67384	5.55487		
0.519675	4.27733	0.543797	4.41276	0.859808	7.06658			0.675737	5.54114		
0.522263	4.276	0.546835	4.41439	0.861593	7.04403			0.67765	5.52768		
0.52486	4.27477	0.549865	4.41593	0.863355	7.02153			0.67958	5.5145		
0.527466	4.27361	0.552887	4.41739	0.865097	6.9991			0.681527	5.5016		
0.530081	4.27254	0.555902	4.41878	0.866818	6.97673			0.68349	5.48896		
0.532704	4.27155	0.558909	4.42009	0.868519	6.95444			0.685471	5.47658		
0.535335	4.27063	0.561907	4.42133	0.870202	6.93223			0.687468	5.46447		
0.537974	4.26978	0.564898	4.42249	0.871868	6.91011			0.689483	5.45262		
0.540622	4.26901	0.567881	4.42357	0.873518	6.88808			0.691515	5.44103		
0.543277	4.26831	0.570856	4.42459	0.875151	6.86615			0.693564	5.42969		
0.54594	4.26767	0.573822	4.42553	0.87677	6.84433			0.695632	5.4186		
0.54861	4.2671	0.576781	4.4264	0.878375	6.82262			0.697716	5.40776		
0.551288	4.2666	0.579731	4.42719	0.879967	6.80102			0.699819	5.39716		
0.553973	4.26615	0.582673	4.42792	0.881547	6.77954			0.701939	5.3868		
0.556665	4.26576	0.585607	4.42858	0.883115	6.75819			0.704078	5.37668		
0.559365	4.26543	0.588533	4.42917	0.884673	6.73696			0.706234	5.3668		
0.56207	4.26515	0.59145	4.42969	0.88622	6.71586			0.708408	5.35715		
0.564783	4.26493	0.59436	4.43015	0.887758	6.6949			0.7106	5.34772		
0.567502	4.26476	0.597261	4.43054	0.889288	6.67407			0.712811	5.33853		
0.570228	4.26463	0.600154	4.43087	0.89081	6.65339			0.715039	5.32955		
0.57296	4.26456	0.603038	4.43113	0.892324	6.63285			0.717285	5.3208		
0.575698	4.26453	0.605915	4.43134	0.893832	6.61246			0.71955	5.31226		
0.578441	4.26455	0.608784	4.43148	0.895334	6.59222			0.721832	5.30393		
0.581191	4.2646	0.611644	4.43156	0.896831	6.57212			0.724132	5.29582		
0.583947	4.26471	0.614497	4.43159	0.898322	6.55218			0.72645	5.28791		
0.586708	4.26484	0.617342	4.43155	0.89981	6.5324			0.728786	5.2802		
0.589475	4.26502	0.620179	4.43147	0.901294	6.51277			0.73114	5.2727		
0.592247	4.26524	0.623008	4.43132	0.902774	6.49331			0.733512	5.26539		
0.595024	4.26549	0.625829	4.43113	0.904252	6.474			0.735901	5.25827		
0.597806	4.26578	0.628643	4.43088	0.905728	6.45485			0.738308	5.25134		
0.600594	4.26609	0.63145	4.43059	0.907202	6.43587			0.740733	5.2446		
0.603386	4.26644	0.634249	4.43024	0.908674	6.41704			0.743174	5.23805		
0.606183	4.26682	0.637041	4.42985	0.910146	6.39839			0.745633	5.23167		
0.608985	4.26723	0.639825	4.42941	0.911618	6.3799			0.748109	5.22547		
0.611791	4.26767	0.642603	4.42893	0.913089	6.36157			0.750602	5.21944		
0.614602	4.26813	0.645374	4.4284	0.914561	6.34341			0.753112	5.21359		
0.617417	4.26862	0.648138	4.42783	0.916034	6.32542			0.755638	5.2079		
0.620236	4.26914	0.650895	4.42722	0.917508	6.3076			0.758181	5.20237		
0.623059	4.26968	0.653646	4.42658	0.918984	6.28994			0.760741	5.19701		
0.625886	4.27024	0.656391	4.42589	0.920461	6.27245			0.763316	5.1918		
0.628717	4.27082	0.659129	4.42517	0.921941	6.25513			0.765908	5.18674		
0.631552	4.27142	0.661861	4.42442	0.923423	6.23797			0.768515	5.18184		
0.634391	4.27204	0.664588	4.42363	0.924909	6.22099			0.771138	5.17708		
0.637233	4.27268	0.667309	4.42282	0.926397	6.20417			0.773776	5.17246		
0.640079	4.27334	0.670024	4.42197	0.927889	6.18752			0.776429	5.16799		
0.642928	4.27402	0.672734	4.4211	0.929385	6.17104			0.779098	5.16365		
0.64578	4.27471	0.675439	4.4202	0.930885	6.15472			0.781781	5.15945		
0.648635	4.27541	0.678139	4.41927	0.932389	6.13857			0.784479	5.15538		
0.651494	4.27613	0.680834	4.41832	0.933898	6.12259			0.787191	5.15144		
0.654355	4.27687	0.683524	4.41735	0.935411	6.10678			0.789917	5.14762		
0.65722	4.27761	0.68621	4.41636	0.93693	6.09112			0.792657	5.14393		
0.660087	4.27837	0.688891	4.41534	0.938454	6.07564			0.795411	5.14035		
0.662957	4.27914	0.691569	4.41431	0.939984	6.06032			0.798178	5.13689		
0.665829	4.27992	0.694242	4.41327	0.941519	6.04516			0.800958	5.13354		
0.668704	4.28071	0.696912	4.4122	0.943061	6.03016			0.803752	5.1303		
0.671582	4.28151	0.699578	4.41113	0.944608	6.01533			0.806558	5.12717		
0.674462	4.28232	0.70224	4.41004	0.946162	6.00065			0.809376	5.12415		
0.677344	4.28313	0.7049	4.40894	0.947723	5.98614			0.812207	5.12122		
0.680228	4.28395	0.707556	4.40783	0.94929	5.97179			0.81505	5.1184		
0.683114	4.28478	0.710209	4.40671	0.950864	5.9576			0.817904	5.11567		
0.686002	4.28561	0.71286	4.40558	0.952446	5.94356			0.82077	5.11304		
0.688892	4.28645	0.715508	4.40444	0.954034	5.92969			0.823648	5.11049		
0.691785	4.2873	0.718154	4.4033	0.95563	5.91597			0.826536	5.10804		
0.694678	4.28814	0.720797	4.40216	0.957234	5.9024			0.829435	5.10567		
0.697574	4.289	0.723439	4.40101	0.958845	5.88899			0.832345	5.10338		
0.700471	4.28985	0.726078	4.39986	0.960464	5.87573			0.835266	5.10118		
0.703369	4.29071	0.728716	4.3987	0.962092	5.86263			0.838196	5.09906		
0.706269	4.29157	0.731352	4.39755	0.963727	5.84968			0.841137	5.09701		
0.709171	4.29243	0.733986	4.39639	0.96537	5.83687			0.844087	5.09504		
0.712074	4.29329	0.73662	4.39524	0.967022	5.82422			0.847047	5.09314		
0.714977	4.29415	0.739252	4.39409	0.968683	5.81172			0.850016	5.09131		
0.717883	4.29501	0.741883	4.39294	0.970352	5.79936			0.852994	5.08955		
0.720789	4.29588	0.744513	4.3918	0.97203	5.78715			0.855981	5.08785		
0.723696	4.29674	0.747143	4.39065	0.973717	5.77509			0.858977	5.08622		
0.726604	4.2976	0.749771	4.38952	0.975412	5.76317			0.861981	5.08465		
0.729513	4.29846	0.7524	4.38839	0.977117	5.75139			0.864994	5.08314		
0.732423	4.29932	0.755028	4.38726	0.97883	5.73976			0.868014	5.0817		
0.735333	4.30017	0.757655	4.38615	0.980553	5.72827			0.871043	5.0803		
0.738244	4.30103	0.760283	4.38504	0.982286	5.71691			0.874079	5.07897		
0.741156	4.30188	0.76291	4.38393	0.984027	5.7057			0.877123	5.07768		
0.744068	4.30272	0.765538	4.38284	0.985778	5.69462			0.880174	5.07645		
0.746981	4.30357	0.768166	4.38175	0.987539	5.68369			0.883232	5.07527		
0.749894	4.30441	0.770794	4.38068	0.989309	5.67288			0.886297	5.07414		
0.752808	4.30524	0.773422	4.37961	0.991089	5.66221			0.889369	5.07305		
0.755722	4.30607	0.776051	4.37856	0.992879	5.65168			0.892447	5.07201		
0.758636	4.3069	0.77868	4.37751	0.994678	5.64128			0.895533	5.07101		
0.76155	4.30772	0.78131	4.37648	0.996487	5.631			0.898624	5.07006		
0.764464	4.30854	0.783941	4.37546	0.998307	5.62086			0.901722	5.06915		
0.767379	4.30935	0.786572	4.37445	1.00014	5.61085			0.904825	5.06828		
0.770293	4.31015	0.789204	4.37345					0.907935	5.06745		
0.773208	4.31095	0.791838	4.37246					0.91105	5.06665		
0.776122	4.31174	0.794472	4.37149					0.91417	5.06589		
0.779036	4.31253	0.797107	4.37053					0.917297	5.06517		
0.78195	4.31331	0.799744	4.36958					0.920428	5.06448		
0.784864	4.31408	0.802382	4.36865					0.923565	5.06383		
0.787777	4.31485	0.805021	4.36773					0.926706	5.06321		
0.79069	4.3156	0.807661	4.36682					0.929853	5.06261		
0.793602	4.31635	0.810303	4.36593					0.933004	5.06205		
0.796515	4.3171	0.812946	4.36505					0.93616	5.06152		
0.799426	4.31783	0.81559	4.36418					0.939321	5.06101		
0.802337	4.31856	0.818237	4.36333					0.942486	5.06054		
0.805248	4.31928	0.820884	4.36249					0.945655	5.06008		
0.808158	4.31999	0.823534	4.36167					0.948828	5.05966		
0.811067	4.32069	0.826185	4.36086					0.952006	5.05926		
0.813975	4.32138	0.828837	4.36007					0.955187	5.05888		
0.816883	4.32207	0.831491	4.35928					0.958373	5.05853		
0.81979	4.32274	0.834148	4.35852					0.961562	5.0582		
0.822696	4.32341	0.836805	4.35777					0.964755	5.05789		
0.825601	4.32407	0.839465	4.35703					0.967952	5.0576		
0.828505	4.32471	0.842126	4.3563					0.971152	5.05733		
0.831409	4.32535	0.84479	4.3556					0.974355	5.05708		
0.834311	4.32598	0.847455	4.3549					0.977562	5.05685		
0.837212	4.3266	0.850122	4.35422					0.980772	5.05663		
0.840113	4.32721	0.85279	4.35355					0.983985	5.05644		
0.843012	4.32782	0.855461	4.3529					0.987201	5.05626		
0.84591	4.32841	0.858134	4.35226					0.99042	5.0561		
0.848807	4.32899	0.860809	4.35164					0.993643	5.05596		
0.851703	4.32956	0.863485	4.35103					0.996868	5.05583		
0.854597	4.33012	0.866164	4.35043					1.0001	5.05571		
0.857491	4.33068	0.868844	4.34985								
0.860383	4.33122	0.871527	4.34928								
0.863274	4.33175	0.874211	4.34872								
0.866163	4.33227	0.876897	4.34818								
0.869051	4.33279	0.879586	4.34765								
0.871938	4.33329	0.882276	4.34713								
0.874824	4.33378	0.884968	4.34663								
0.877708	4.33427	0.887663	4.34613								
0.880591	4.33474	0.890359	4.34566								
0.883472	4.3352	0.893057	4.34519								
0.886352	4.33566	0.895757	4.34474								
0.889231	4.3361	0.89846	4.3443								
0.892108	4.33653	0.901164	4.34387								
0.894983	4.33696	0.90387	4.34345								
0.897857	4.33737	0.906578	4.34304								
0.90073	4.33778	0.909287	4.34265								
0.903601	4.33817	0.911999	4.34227								
0.90647	4.33856	0.914713	4.3419								
0.909338	4.33893	0.917429	4.34154								
0.912205	4.3393	0.920146	4.34119								
0.91507	4.33965	0.922865	4.34085								
0.917933	4.34	0.925587	4.34053								
0.920795	4.34034	0.92831	4.34021								
0.923655	4.34066	0.931035	4.33991								
0.926514	4.34098	0.933761	4.33961								
0.929371	4.34129	0.93649	4.33932								
0.932227	4.34159	0.93922	4.33905								
0.935081	4.34188	0.941952	4.33878								
0.937933	4.34216	0.944686	4.33853								
0.940784	4.34244	0.947421	4.33828								
0.943633	4.3427	0.950159	4.33804								
0.946481	4.34296	0.952898	4.33782								
0.949327	4.3432	0.955638	4.3376								
0.952172	4.34344	0.95838	4.33739								
0.955015	4.34367	0.961124	4.33718								
0.957856	4.34389	0.96387	4.33699								
0.960696	4.3441	0.966617	4.3368								
0.963535	4.34431	0.969366	4.33663								
0.966372	4.34451	0.972116	4.33646								
0.969207	4.3447	0.974868	4.3363								
0.972041	4.34488	0.977621	4.33614								
0.974873	4.34505	0.980376	4.336								
0.977704	4.34522	0.983132	4.33586								
0.980534	4.34538	0.98589	4.33573								
0.983362	4.34553	0.988649	4.3356								
0.986188	4.34567	0.99141	4.33549								
0.989014	4.34581	0.994172	4.33537								
0.991837	4.34594	0.996935	4.33527								
0.99466	4.34606	0.9997	4.33517								
0.997481	4.34618	1.00247	4.33508								
1.0003	4.34629										
