Sym0		Asym0		Sym1		Sym2		Asym1		Asym2	
369  Points		370  Points		242  Points		153  Points		317  Points		173  Points	
Freq (MHz)	Vph (m/ms)	Freq (MHz)	Vph (m/ms)	Freq (MHz)	Vph (m/ms)	Freq (MHz)	Vph (m/ms)	Freq (MHz)	Vph (m/ms)	Freq (MHz)	Vph (m/ms)
0.00499877	7.44712	0.000474585	0.226186	0.444273	1891.33	0.478783	888.274	0.239368	804.901	0.71807	2312.66
0.0106633	7.44661	0.000879276	0.307554	0.444112	446.063	0.479116	368.627	0.239502	226.348	0.718063	670.322
0.0163263	7.44579	0.00140561	0.388328	0.443759	252.66	0.479712	232.818	0.239787	131.835	0.718048	391.959
0.021987	7.44459	0.00205173	0.46839	0.443231	176.09	0.480551	170.337	0.24022	93.1242	0.718027	276.945
0.0276446	7.44306	0.00281525	0.547595	0.442549	135.014	0.481612	134.457	0.240801	72.0898	0.717997	214.11
0.0332982	7.44117	0.00369348	0.625818	0.441739	109.381	0.48287	111.193	0.241528	58.8946	0.717961	174.511
0.0389471	7.43892	0.00468335	0.702935	0.440824	91.8527	0.4843	94.8982	0.242398	49.8583	0.717918	147.27
0.0445905	7.43631	0.00578158	0.778844	0.439828	79.1061	0.48588	82.8569	0.243409	43.2923	0.717868	127.382
0.0502273	7.43333	0.00698477	0.853465	0.438772	69.4182	0.487592	73.6009	0.244558	38.3128	0.717813	112.223
0.0558568	7.42997	0.0082891	0.926701	0.437672	61.8056	0.489419	66.2672	0.245842	34.4127	0.717751	100.286
0.061478	7.42623	0.00969074	0.998483	0.436544	55.6664	0.491348	60.3157	0.247256	31.2798	0.717684	90.6424
0.06709	7.4221	0.0111857	1.06875	0.435401	50.6111	0.493366	55.3909	0.248797	28.7116	0.717613	82.6888
0.0726918	7.41757	0.0127702	1.13746	0.434254	46.3767	0.495465	51.2494	0.250461	26.571	0.717537	76.0167
0.0782826	7.41265	0.01444	1.20457	0.43311	42.7791	0.497636	47.7192	0.252243	24.7617	0.717457	70.3394
0.0838611	7.40731	0.0161911	1.27005	0.431979	39.6855	0.499874	44.6748	0.254141	23.2144	0.717374	65.4499
0.0894263	7.40154	0.0180196	1.33389	0.430866	36.9975	0.502172	42.0231	0.256148	21.8775	0.717289	61.1949
0.0949772	7.39534	0.0199216	1.39606	0.429776	34.6412	0.504525	39.6932	0.258261	20.7122	0.717202	57.4584
0.100513	7.38869	0.021893	1.45657	0.428716	32.5593	0.50693	37.6303	0.260475	19.6886	0.717113	54.1511
0.106031	7.38157	0.0239304	1.51542	0.427688	30.7072	0.509384	35.7913	0.262787	18.7833	0.717025	51.203
0.111532	7.37398	0.0260299	1.57261	0.426698	29.0494	0.511884	34.142	0.265192	17.9777	0.716936	48.5588
0.117013	7.3659	0.0281881	1.62817	0.425747	27.5575	0.514426	32.6547	0.267685	17.2567	0.716849	46.1738
0.122473	7.35731	0.0304016	1.68211	0.42484	26.2083	0.517009	31.3069	0.270263	16.6084	0.716764	44.0117
0.127912	7.3482	0.0326671	1.73446	0.42398	24.9828	0.519632	30.08	0.272921	16.0228	0.716681	42.0428
0.133326	7.33854	0.0349816	1.78524	0.423169	23.8653	0.522291	28.9587	0.275657	15.4915	0.716601	40.2423
0.138715	7.32832	0.037342	1.83448	0.42241	22.8425	0.524986	27.9301	0.278465	15.0077	0.716526	38.5895
0.144077	7.31751	0.0397456	1.88222	0.421706	21.9033	0.527716	26.9833	0.281343	14.5656	0.716456	37.0671
0.14941	7.3061	0.0421896	1.92848	0.421059	21.0385	0.530478	26.1089	0.284287	14.1603	0.716392	35.6603
0.154713	7.29405	0.0446715	1.97331	0.420472	20.2398	0.533273	25.2993	0.287293	13.7876	0.716335	34.3564
0.159983	7.28135	0.0471888	2.01674	0.419947	19.5005	0.536098	24.5474	0.290358	13.4439	0.716285	33.1447
0.165217	7.26797	0.0497393	2.05881	0.419487	18.8145	0.538954	23.8475	0.293479	13.1261	0.716244	32.0158
0.170415	7.25387	0.0523209	2.09956	0.419094	18.1767	0.541839	23.1944	0.296653	12.8315	0.716212	30.9616
0.175574	7.23904	0.0549313	2.13901	0.418771	17.5826	0.544752	22.5837	0.299878	12.5578	0.71619	29.9749
0.180691	7.22345	0.057569	2.17723	0.418521	17.0282	0.547692	22.0114	0.30315	12.3028	0.716179	29.0495
0.185763	7.20705	0.0602318	2.21423	0.418346	16.5101	0.55066	21.4741	0.306466	12.0649	0.71618	28.18
0.190789	7.18983	0.0629181	2.25006	0.41825	16.0252	0.553654	20.9688	0.309824	11.8425	0.716194	27.3616
0.195764	7.17174	0.0656264	2.28476	0.418234	15.5707	0.556673	20.4927	0.313222	11.6341	0.716221	26.5898
0.200687	7.15276	0.0683551	2.31835	0.418303	15.1444	0.559717	20.0435	0.316657	11.4385	0.716263	25.861
0.205555	7.13284	0.0711028	2.35089	0.418459	14.7439	0.562786	19.6189	0.320127	11.2545	0.71632	25.1717
0.210364	7.11197	0.0738682	2.3824	0.418705	14.3675	0.565879	19.2171	0.323629	11.0813	0.716393	24.5188
0.21511	7.09009	0.07665	2.41292	0.419044	14.0134	0.568994	18.8363	0.327162	10.9179	0.716483	23.8997
0.219791	7.06719	0.0794471	2.44248	0.41948	13.6799	0.572133	18.475	0.330724	10.7635	0.716591	23.3117
0.224404	7.04322	0.0822584	2.47112	0.420016	13.3658	0.575294	18.1316	0.334312	10.6174	0.716717	22.7527
0.228944	7.01816	0.0850828	2.49886	0.420655	13.0698	0.578477	17.8051	0.337924	10.479	0.716863	22.2207
0.233409	6.99198	0.0879194	2.52574	0.421401	12.7906	0.581682	17.4941	0.341559	10.3476	0.717029	21.7139
0.237795	6.96465	0.0907672	2.55178	0.422257	12.5273	0.584907	17.1976	0.345215	10.2227	0.717216	21.2304
0.242099	6.93615	0.0936254	2.57702	0.423226	12.279	0.588154	16.9147	0.34889	10.104	0.717425	20.7689
0.246316	6.90646	0.0964933	2.60149	0.424311	12.0446	0.59142	16.6445	0.352582	9.99078	0.717656	20.328
0.250445	6.87557	0.0989997	2.6222	0.425516	11.8235	0.594706	16.3862	0.356291	9.88282	0.717911	19.9062
0.254482	6.84348	0.101141	2.63941	0.426844	11.6149	0.598012	16.139	0.359534	9.79271	0.71819	19.5026
0.258424	6.81017	0.102915	2.65336	0.428296	11.418	0.601337	15.9023	0.362306	9.71863	0.718494	19.116
0.262269	6.77567	0.10432	2.6642	0.429876	11.2324	0.604681	15.6753	0.364603	9.65917	0.718824	18.7454
0.266015	6.73997	0.105354	2.67206	0.431586	11.0573	0.608043	15.4577	0.366422	9.61327	0.71918	18.3898
0.269659	6.70311	0.106017	2.67705	0.433427	10.8921	0.611423	15.2487	0.367762	9.58012	0.719564	18.0486
0.273201	6.66511	0.106969	2.68417	0.435401	10.7365	0.614821	15.0479	0.368619	9.55916	0.719976	17.7208
0.276639	6.62601	0.108005	2.69182	0.437509	10.5898	0.618236	14.8549	0.369853	9.52939	0.720417	17.4057
0.279973	6.58587	0.109416	2.70209	0.43975	10.4516	0.621669	14.6693	0.371195	9.49749	0.720888	17.1027
0.283203	6.54473	0.111202	2.71486	0.442126	10.3215	0.625118	14.4906	0.373022	9.45485	0.721389	16.8112
0.286329	6.50267	0.113365	2.73	0.444634	10.1989	0.628584	14.3184	0.375336	9.40212	0.721921	16.5306
0.289354	6.45975	0.115906	2.74733	0.447275	10.0835	0.632066	14.1525	0.378136	9.34005	0.722485	16.2603
0.292277	6.41606	0.118826	2.76666	0.449682	9.98851	0.635565	13.9925	0.381425	9.26951	0.723082	15.9998
0.295103	6.37167	0.121751	2.78543	0.451811	9.91138	0.639079	13.8381	0.385204	9.19141	0.723713	15.7486
0.297832	6.32668	0.12468	2.80364	0.453624	9.85018	0.642609	13.6891	0.388985	9.11616	0.724378	15.5064
0.300468	6.28118	0.127613	2.82133	0.455091	9.80338	0.646154	13.5451	0.392767	9.04358	0.725077	15.2727
0.303015	6.23526	0.130549	2.8385	0.456188	9.76983	0.649714	13.4059	0.39655	8.9735	0.725813	15.0471
0.305475	6.18902	0.133488	2.85518	0.456898	9.74874	0.653289	13.2714	0.400332	8.90578	0.726585	14.8292
0.307854	6.14254	0.13643	2.87139	0.45793	9.71893	0.656879	13.1412	0.404112	8.84026	0.727394	14.6187
0.310155	6.09592	0.139374	2.88713	0.459067	9.68719	0.660484	13.0152	0.407888	8.7768	0.728241	14.4154
0.312383	6.04926	0.14232	2.90243	0.460636	9.64511	0.664102	12.8933	0.411659	8.71529	0.729127	14.2188
0.314541	6.00263	0.145269	2.91729	0.462661	9.59363	0.667735	12.7751	0.415425	8.6556	0.730052	14.0287
0.316635	5.95612	0.148219	2.93175	0.465166	9.53386	0.671382	12.6606	0.419183	8.59762	0.731017	13.8449
0.318668	5.9098	0.15117	2.9458	0.468183	9.46706	0.675042	12.5496	0.422932	8.54126	0.732022	13.667
0.320646	5.86375	0.154123	2.95946	0.471744	9.39456	0.678717	12.442	0.426672	8.48641	0.73307	13.4949
0.322572	5.81802	0.157076	2.97275	0.475407	9.32621	0.682404	12.3375	0.430401	8.43298	0.734159	13.3283
0.32445	5.7727	0.160031	2.98568	0.479166	9.26174	0.686106	12.2362	0.434118	8.38089	0.735291	13.167
0.326285	5.72782	0.162986	2.99826	0.483017	9.20089	0.68982	12.1377	0.437822	8.33006	0.736466	13.0108
0.32808	5.68344	0.165941	3.0105	0.486955	9.14341	0.693548	12.0421	0.441511	8.28041	0.737685	12.8595
0.32984	5.6396	0.168897	3.02242	0.490974	9.08905	0.697289	11.9493	0.445186	8.23188	0.738949	12.713
0.331567	5.59634	0.171853	3.03401	0.49507	9.0376	0.701043	11.859	0.448844	8.18439	0.740257	12.5709
0.333265	5.5537	0.17481	3.04531	0.499237	8.98884	0.704811	11.7712	0.452484	8.13789	0.741612	12.4333
0.334938	5.5117	0.177766	3.0563	0.503471	8.94258	0.708591	11.6859	0.456106	8.09232	0.743012	12.2999
0.336588	5.47037	0.180722	3.06701	0.507766	8.89864	0.712384	11.6029	0.459709	8.04762	0.74446	12.1706
0.338009	5.43492	0.183678	3.07744	0.512119	8.85684	0.71619	11.5221	0.463291	8.00374	0.745954	12.0453
0.339211	5.40512	0.186633	3.0876	0.516524	8.81703	0.720009	11.4435	0.466851	7.96063	0.747496	11.9237
0.340197	5.38077	0.189588	3.09751	0.520977	8.77904	0.723842	11.367	0.470389	7.91824	0.749086	11.8058
0.340974	5.36172	0.192542	3.10716	0.525475	8.74276	0.727687	11.2925	0.473904	7.87654	0.750724	11.6914
0.341542	5.34781	0.195496	3.11657	0.530012	8.70803	0.731545	11.2199	0.477394	7.83549	0.75241	11.5805
0.341906	5.33896	0.19845	3.12574	0.534585	8.67474	0.735417	11.1492	0.48086	7.79503	0.754146	11.4729
0.342427	5.32631	0.201402	3.13469	0.539191	8.64279	0.739302	11.0803	0.484299	7.75515	0.75593	11.3685
0.342992	5.31265	0.204354	3.14341	0.543825	8.61206	0.7432	11.0132	0.487711	7.7158	0.757764	11.2671
0.343758	5.29422	0.207305	3.15192	0.548485	8.58246	0.747112	10.9477	0.491096	7.67696	0.759648	11.1688
0.344724	5.27116	0.210255	3.16022	0.553167	8.5539	0.751037	10.8839	0.494453	7.6386	0.761581	11.0734
0.345888	5.24365	0.213204	3.16832	0.557867	8.52629	0.754976	10.8217	0.497781	7.60068	0.763563	10.9807
0.347249	5.2119	0.216152	3.17623	0.562584	8.49955	0.758929	10.761	0.501079	7.56319	0.765595	10.8908
0.348806	5.17617	0.219099	3.18394	0.567314	8.47362	0.762896	10.7018	0.504347	7.5261	0.767677	10.8035
0.350359	5.14118	0.222045	3.19147	0.572054	8.44843	0.766877	10.6441	0.507584	7.48939	0.769807	10.7188
0.35191	5.10693	0.22499	3.19882	0.576801	8.4239	0.770358	10.5949	0.51079	7.45304	0.771704	10.6469
0.35346	5.07341	0.227934	3.206	0.581554	8.39999	0.773335	10.5538	0.513965	7.41703	0.773351	10.5871
0.35501	5.04063	0.230877	3.21302	0.58631	8.37663	0.775802	10.5204	0.517107	7.38134	0.774732	10.5386
0.356562	5.00857	0.233819	3.21987	0.591065	8.35379	0.777757	10.4943	0.520217	7.34597	0.775838	10.5008
0.358117	4.97722	0.236759	3.22656	0.595819	8.3314	0.779197	10.4754	0.523294	7.31088	0.776658	10.4734
0.359676	4.94658	0.239698	3.2331	0.600569	8.30942	0.780119	10.4633	0.526338	7.27608	0.777186	10.456
0.361239	4.91664	0.242636	3.23949	0.605312	8.28782	0.781447	10.4461	0.529349	7.24155	0.77795	10.4312
0.362807	4.88738	0.245573	3.24573	0.610047	8.26654	0.782891	10.4275	0.532327	7.20729	0.778786	10.4045
0.364382	4.8588	0.248509	3.25183	0.614771	8.24557	0.784859	10.4025	0.535272	7.17327	0.779933	10.3687
0.365963	4.83088	0.251443	3.2578	0.619484	8.22485	0.787354	10.3714	0.538183	7.1395	0.781399	10.324
0.367551	4.80361	0.254376	3.26364	0.624182	8.20437	0.790378	10.3343	0.54106	7.10596	0.783196	10.2711
0.369148	4.77699	0.257308	3.26934	0.628864	8.18408	0.793936	10.2916	0.543905	7.07266	0.785337	10.2104
0.370753	4.75099	0.260239	3.27492	0.633529	8.16396	0.798035	10.2437	0.546716	7.03958	0.787837	10.1426
0.372367	4.7256	0.263168	3.28038	0.638174	8.14398	0.80215	10.197	0.549495	7.00672	0.790383	10.0767
0.37399	4.70082	0.266096	3.28572	0.642799	8.12413	0.806282	10.1513	0.552241	6.97409	0.792975	10.0126
0.375623	4.67663	0.269023	3.29095	0.6474	8.10437	0.810431	10.1068	0.554954	6.94167	0.795611	9.9503
0.377266	4.65302	0.271948	3.29606	0.651978	8.08468	0.814597	10.0632	0.557636	6.90946	0.79829	9.88972
0.37892	4.62997	0.274872	3.30107	0.656529	8.06504	0.81878	10.0208	0.560285	6.87747	0.801012	9.83079
0.380584	4.60747	0.277795	3.30597	0.661054	8.04544	0.822981	9.97926	0.562904	6.84569	0.803777	9.77347
0.382258	4.58552	0.280717	3.31077	0.66555	8.02586	0.8272	9.93874	0.565492	6.81412	0.806582	9.71769
0.383944	4.56409	0.283637	3.31546	0.670017	8.00627	0.831437	9.89916	0.56805	6.78277	0.809427	9.66341
0.385641	4.54317	0.286556	3.32006	0.674452	7.98667	0.835692	9.86052	0.570578	6.75162	0.812312	9.61056
0.387349	4.52276	0.289474	3.32457	0.678855	7.96704	0.839966	9.82278	0.573077	6.7207	0.815234	9.5591
0.389068	4.50284	0.292391	3.32898	0.683225	7.94736	0.844259	9.78593	0.575548	6.68999	0.818194	9.50898
0.390799	4.4834	0.295306	3.3333	0.687559	7.92764	0.848571	9.74993	0.57799	6.65949	0.821189	9.46016
0.392541	4.46443	0.29822	3.33753	0.691858	7.90784	0.852902	9.71478	0.580406	6.62922	0.824219	9.41258
0.394296	4.44591	0.301133	3.34168	0.696121	7.88798	0.857251	9.68044	0.582795	6.59917	0.827283	9.3662
0.396061	4.42784	0.304045	3.34575	0.700346	7.86803	0.86162	9.64691	0.585158	6.56934	0.830379	9.32097
0.397839	4.41021	0.306955	3.34973	0.704532	7.84799	0.866008	9.61415	0.587496	6.53974	0.833507	9.27686
0.399628	4.39299	0.309864	3.35364	0.708679	7.82785	0.870416	9.58216	0.58981	6.51037	0.836664	9.23382
0.401429	4.37619	0.312772	3.35747	0.712786	7.8076	0.874842	9.5509	0.592101	6.48123	0.83985	9.19181
0.403241	4.3598	0.315679	3.36122	0.716852	7.78725	0.879288	9.52037	0.594368	6.45232	0.843064	9.1508
0.405065	4.34379	0.318584	3.3649	0.720876	7.76679	0.883753	9.49054	0.596614	6.42365	0.846304	9.11074
0.406901	4.32817	0.321488	3.36851	0.724859	7.74621	0.888236	9.46139	0.598838	6.39522	0.849569	9.0716
0.408749	4.31292	0.324391	3.37205	0.7288	7.72552	0.892738	9.43291	0.601042	6.36702	0.852858	9.03334
0.410608	4.29804	0.327293	3.37553	0.732697	7.7047	0.897258	9.40507	0.603226	6.33907	0.85617	8.99593
0.412478	4.28351	0.330194	3.37893	0.736552	7.68377	0.901796	9.37786	0.605391	6.31137	0.859503	8.95934
0.41436	4.26932	0.333094	3.38227	0.740363	7.66271	0.906352	9.35126	0.607537	6.28391	0.862856	8.92353
0.416253	4.25547	0.335992	3.38555	0.74413	7.64154	0.910925	9.32525	0.609666	6.2567	0.866227	8.88847
0.418157	4.24195	0.338889	3.38877	0.747854	7.62025	0.915514	9.29981	0.611779	6.22975	0.869616	8.85413
0.420073	4.22875	0.341785	3.39193	0.751533	7.59884	0.92012	9.27492	0.613875	6.20304	0.873022	8.82048
0.421999	4.21586	0.34468	3.39503	0.755169	7.57732	0.924741	9.25057	0.615956	6.17659	0.876442	8.7875
0.423937	4.20327	0.347574	3.39807	0.758762	7.55569	0.929378	9.22674	0.618023	6.1504	0.879876	8.75516
0.425886	4.19098	0.350467	3.40106	0.76231	7.53396	0.934029	9.2034	0.620075	6.12446	0.883323	8.72342
0.427845	4.17898	0.353359	3.40399	0.765815	7.51212	0.938693	9.18055	0.622115	6.09878	0.886781	8.69227
0.429815	4.16725	0.356249	3.40687	0.769277	7.49019	0.943371	9.15816	0.624142	6.07336	0.89025	8.66168
0.431795	4.1558	0.359139	3.4097	0.772696	7.46816	0.94806	9.13621	0.626157	6.0482	0.893727	8.63163
0.433786	4.14462	0.362027	3.41247	0.776073	7.44605	0.952761	9.1147	0.628161	6.0233	0.897213	8.60209
0.435788	4.1337	0.364915	3.4152	0.779407	7.42385	0.957472	9.09359	0.630155	5.99865	0.900705	8.57304
0.437799	4.12303	0.367801	3.41788	0.782699	7.40158	0.962193	9.07287	0.632138	5.97427	0.904202	8.54446
0.439821	4.1126	0.370686	3.42051	0.78595	7.37924	0.966923	9.05253	0.634112	5.95015	0.907704	8.51634
0.441852	4.10242	0.373571	3.4231	0.78916	7.35683	0.97166	9.03255	0.636078	5.92629	0.91121	8.48864
0.443894	4.09247	0.376454	3.42564	0.79233	7.33437	0.976404	9.01291	0.638035	5.90269	0.914718	8.46135
0.445945	4.08275	0.379336	3.42814	0.795461	7.31186	0.981153	8.9936	0.639984	5.87935	0.918226	8.43446
0.448006	4.07325	0.382217	3.43059	0.798552	7.2893	0.985907	8.97459	0.641927	5.85627	0.921736	8.40794
0.450077	4.06396	0.385098	3.433	0.801605	7.26671	0.990664	8.95588	0.643863	5.83344	0.925244	8.38178
0.452157	4.05489	0.387977	3.43537	0.80462	7.24409	0.995423	8.93744	0.645793	5.81088	0.928751	8.35596
0.454246	4.04602	0.390855	3.4377	0.807598	7.22144	1.00018	8.91927	0.647717	5.78857	0.932254	8.33047
0.456344	4.03736	0.393733	3.43999	0.81054	7.19878			0.649636	5.76652	0.935754	8.30529
0.458452	4.02889	0.396609	3.44224	0.813447	7.17611			0.651551	5.74472	0.93925	8.2804
0.460568	4.02061	0.399484	3.44446	0.816318	7.15343			0.653461	5.72318	0.942739	8.2558
0.462693	4.01251	0.402359	3.44664	0.819156	7.13076			0.655368	5.70189	0.946223	8.23147
0.464827	4.0046	0.405232	3.44878	0.82196	7.1081			0.657271	5.68084	0.949699	8.20739
0.466969	3.99686	0.408105	3.45088	0.824731	7.08546			0.659171	5.66005	0.953166	8.18356
0.46912	3.98929	0.410977	3.45295	0.827471	7.06284			0.661068	5.63951	0.956625	8.15996
0.471279	3.9819	0.413847	3.45499	0.83018	7.04024			0.662964	5.61921	0.960074	8.13658
0.473447	3.97466	0.416717	3.45699	0.832858	7.01769			0.664857	5.59916	0.963512	8.11341
0.475622	3.96759	0.419586	3.45897	0.835508	6.99517			0.666749	5.57934	0.966939	8.09044
0.477806	3.96067	0.422454	3.46091	0.838128	6.9727			0.66864	5.55977	0.970354	8.06766
0.479997	3.9539	0.425322	3.46282	0.840721	6.95028			0.670529	5.54044	0.973756	8.04506
0.482196	3.94728	0.428188	3.46469	0.843287	6.92793			0.672418	5.52134	0.977144	8.02264
0.484403	3.9408	0.431054	3.46654	0.845826	6.90563			0.674307	5.50248	0.980519	8.00037
0.486617	3.93447	0.433918	3.46836	0.84834	6.8834			0.676196	5.48385	0.983879	7.97827
0.488839	3.92827	0.436782	3.47015	0.850829	6.86125			0.678085	5.46545	0.987223	7.95631
0.491068	3.92221	0.439645	3.47191	0.853294	6.83917			0.679974	5.44728	0.990552	7.93449
0.493304	3.91627	0.442507	3.47365	0.855735	6.81717			0.681864	5.42933	0.993864	7.9128
0.495548	3.91047	0.445369	3.47536	0.858154	6.79526			0.683755	5.41161	0.99716	7.89125
0.497798	3.90478	0.448229	3.47704	0.860551	6.77344			0.685647	5.39411	1.00044	7.86981
0.500055	3.89922	0.451089	3.47869	0.862927	6.75171			0.687541	5.37683		
0.50232	3.89378	0.453948	3.48032	0.865283	6.73009			0.689436	5.35976		
0.50459	3.88845	0.456806	3.48193	0.867618	6.70856			0.691333	5.34291		
0.506868	3.88324	0.459663	3.48351	0.869935	6.68714			0.693232	5.32627		
0.509151	3.87813	0.46252	3.48507	0.872233	6.66582			0.695133	5.30984		
0.511442	3.87313	0.465376	3.4866	0.874513	6.64462			0.697036	5.29362		
0.513738	3.86824	0.468231	3.48811	0.876776	6.62353			0.698942	5.2776		
0.516041	3.86345	0.471085	3.4896	0.879022	6.60255			0.70085	5.26179		
0.51835	3.85876	0.473939	3.49106	0.881253	6.5817			0.702761	5.24618		
0.520665	3.85416	0.476792	3.49251	0.883468	6.56096			0.704675	5.23076		
0.522985	3.84966	0.479644	3.49393	0.885668	6.54035			0.706593	5.21554		
0.525312	3.84526	0.482495	3.49533	0.887853	6.51987			0.708513	5.20051		
0.527644	3.84094	0.485346	3.49671	0.890025	6.49951			0.710436	5.18567		
0.529982	3.83672	0.488196	3.49807	0.892184	6.47928			0.712363	5.17103		
0.532326	3.83258	0.491045	3.49941	0.89433	6.45918			0.714294	5.15656		
0.534675	3.82852	0.493893	3.50073	0.896464	6.43921			0.716228	5.14228		
0.537029	3.82455	0.496741	3.50204	0.898586	6.41938			0.718165	5.12819		
0.539389	3.82065	0.499588	3.50332	0.900697	6.39968			0.720107	5.11427		
0.541754	3.81684	0.502435	3.50458	0.902797	6.38012			0.722052	5.10053		
0.544125	3.8131	0.50528	3.50583	0.904887	6.36069			0.724001	5.08696		
0.5465	3.80944	0.508125	3.50706	0.906967	6.3414			0.725955	5.07357		
0.54888	3.80585	0.51097	3.50827	0.909038	6.32225			0.727912	5.06035		
0.551265	3.80233	0.513813	3.50947	0.911099	6.30324			0.729874	5.04729		
0.553655	3.79888	0.516656	3.51064	0.913152	6.28437			0.73184	5.0344		
0.55605	3.7955	0.519499	3.5118	0.915197	6.26564			0.73381	5.02167		
0.55845	3.79219	0.522341	3.51295	0.917234	6.24705			0.735784	5.00911		
0.560854	3.78894	0.525182	3.51408	0.919263	6.2286			0.737763	4.9967		
0.563263	3.78576	0.528022	3.51519	0.921285	6.21029			0.739747	4.98446		
0.565676	3.78264	0.530862	3.51629	0.923301	6.19212			0.741734	4.97236		
0.568094	3.77958	0.533701	3.51737	0.92531	6.1741			0.743727	4.96042		
0.570516	3.77658	0.53654	3.51844	0.927312	6.15621			0.745724	4.94863		
0.572942	3.77364	0.539378	3.51949	0.92931	6.13847			0.747725	4.93699		
0.575373	3.77076	0.542215	3.52053	0.931301	6.12087			0.749731	4.9255		
0.577808	3.76793	0.545052	3.52155	0.933288	6.10341			0.751742	4.91415		
0.580246	3.76515	0.547888	3.52256	0.935269	6.08609			0.753758	4.90294		
0.582689	3.76243	0.550723	3.52356	0.937247	6.06891			0.755778	4.89188		
0.585136	3.75976	0.553558	3.52454	0.939219	6.05188			0.757803	4.88095		
0.587587	3.75715	0.556392	3.52551	0.941188	6.03498			0.759833	4.87016		
0.590042	3.75458	0.559226	3.52647	0.943153	6.01822			0.761868	4.85951		
0.5925	3.75206	0.562059	3.52741	0.945114	6.0016			0.763907	4.84899		
0.594962	3.74959	0.564892	3.52835	0.947072	5.98512			0.765951	4.8386		
0.597428	3.74717	0.567724	3.52927	0.949027	5.96878			0.768	4.82834		
0.599898	3.74479	0.570555	3.53017	0.950979	5.95258			0.770054	4.81821		
0.602371	3.74245	0.573386	3.53107	0.952928	5.93652			0.772113	4.80821		
0.604848	3.74016	0.576216	3.53195	0.954875	5.92059			0.774177	4.79833		
0.607328	3.73792	0.579046	3.53282	0.95682	5.90479			0.776245	4.78857		
0.609811	3.73571	0.581875	3.53368	0.958763	5.88914			0.778318	4.77893		
0.612298	3.73355	0.584703	3.53453	0.960704	5.87361			0.780397	4.76942		
0.614788	3.73142	0.587531	3.53537	0.962643	5.85822			0.78248	4.76002		
0.617282	3.72934	0.590359	3.53619	0.964581	5.84296			0.784568	4.75073		
0.619779	3.72729	0.593185	3.53701	0.966518	5.82784			0.78666	4.74156		
0.622279	3.72528	0.596012	3.53781	0.968453	5.81285			0.788758	4.73251		
0.624782	3.72331	0.598838	3.53861	0.970388	5.79798			0.790861	4.72356		
0.627288	3.72138	0.601663	3.53939	0.972321	5.78325			0.792968	4.71473		
0.629797	3.71947	0.604488	3.54017	0.974254	5.76865			0.79508	4.706		
0.632309	3.71761	0.607312	3.54093	0.976187	5.75417			0.797197	4.69738		
0.634824	3.71578	0.610135	3.54169	0.978119	5.73982			0.799319	4.68887		
0.637342	3.71398	0.612959	3.54243	0.980051	5.7256			0.801446	4.68046		
0.639863	3.71221	0.615781	3.54317	0.981983	5.7115			0.803577	4.67215		
0.642387	3.71048	0.618603	3.54389	0.983915	5.69753			0.805714	4.66394		
0.644913	3.70877	0.621425	3.54461	0.985847	5.68368			0.807855	4.65583		
0.647442	3.7071	0.624246	3.54532	0.987779	5.66995			0.810001	4.64782		
0.649974	3.70546	0.627067	3.54602	0.989712	5.65635			0.812151	4.63991		
0.652509	3.70385	0.629887	3.54671	0.991645	5.64286			0.814307	4.63209		
0.655046	3.70226	0.632706	3.54739	0.993579	5.6295			0.816467	4.62437		
0.657586	3.7007	0.635525	3.54806	0.995514	5.61625			0.818632	4.61674		
0.660128	3.69918	0.638344	3.54872	0.997449	5.60313			0.820801	4.6092		
0.662673	3.69767	0.641162	3.54938	0.999385	5.59012			0.822976	4.60175		
0.665221	3.6962	0.64398	3.55003	1.00132	5.57722			0.825155	4.59439		
0.66777	3.69475	0.646797	3.55067					0.827338	4.58712		
0.670323	3.69332	0.649613	3.5513					0.829526	4.57993		
0.672877	3.69192	0.652429	3.55192					0.831719	4.57283		
0.675434	3.69055	0.655245	3.55254					0.833916	4.56582		
0.677993	3.6892	0.65806	3.55315					0.836118	4.55889		
0.680555	3.68787	0.660875	3.55375					0.838325	4.55204		
0.683119	3.68657	0.663689	3.55434					0.840536	4.54527		
0.685685	3.68529	0.666503	3.55493					0.842751	4.53858		
0.688253	3.68403	0.669316	3.55551					0.844971	4.53197		
0.690823	3.68279	0.672129	3.55608					0.847196	4.52543		
0.693395	3.68157	0.674942	3.55664					0.849425	4.51897		
0.69597	3.68037	0.677753	3.5572					0.851658	4.51259		
0.698546	3.6792	0.680565	3.55775					0.853896	4.50629		
0.701125	3.67804	0.683376	3.5583					0.856138	4.50005		
0.703706	3.67691	0.686187	3.55883					0.858384	4.49389		
0.706288	3.67579	0.688997	3.55937					0.860635	4.4878		
0.708873	3.67469	0.691806	3.55989					0.86289	4.48178		
0.711459	3.67361	0.694616	3.56041					0.86515	4.47583		
0.714047	3.67255	0.697424	3.56092					0.867413	4.46995		
0.716638	3.67151	0.700233	3.56143					0.869681	4.46414		
0.71923	3.67048	0.703041	3.56193					0.871953	4.45839		
0.721823	3.66948	0.705848	3.56242					0.874229	4.45271		
0.724419	3.66848	0.708655	3.56291					0.87651	4.4471		
0.727017	3.66751	0.711462	3.56339					0.878795	4.44154		
0.729616	3.66655	0.714268	3.56387					0.881083	4.43606		
0.732217	3.66561	0.717074	3.56434					0.883376	4.43063		
0.734819	3.66468	0.719879	3.5648					0.885673	4.42527		
0.737423	3.66377	0.722684	3.56526					0.887974	4.41996		
0.740029	3.66287	0.725488	3.56571					0.890279	4.41472		
0.742637	3.66199	0.728292	3.56616					0.892588	4.40953		
0.745246	3.66112	0.731096	3.5666					0.894901	4.40441		
0.747857	3.66027	0.733899	3.56704					0.897217	4.39934		
0.750469	3.65943	0.736702	3.56747					0.899538	4.39433		
0.753083	3.6586	0.739505	3.5679					0.901863	4.38937		
0.755698	3.65779	0.742307	3.56832					0.904192	4.38447		
0.758315	3.65699	0.745108	3.56874					0.906524	4.37963		
0.760933	3.6562	0.747909	3.56915					0.90886	4.37483		
0.763553	3.65543	0.75071	3.56956					0.9112	4.3701		
0.766174	3.65467	0.753511	3.56996					0.913544	4.36541		
0.768797	3.65392	0.756311	3.57036					0.915892	4.36078		
0.771421	3.65318	0.75911	3.57075					0.918243	4.35619		
0.774047	3.65246	0.761909	3.57114					0.920598	4.35166		
0.776674	3.65175	0.764708	3.57153					0.922956	4.34718		
0.779302	3.65104	0.767507	3.57191					0.925319	4.34274		
0.781931	3.65035	0.770305	3.57228					0.927685	4.33836		
0.784562	3.64968	0.773102	3.57265					0.930054	4.33402		
0.787194	3.64901	0.7759	3.57302					0.932427	4.32973		
0.789828	3.64835	0.778697	3.57338					0.934804	4.32549		
0.792462	3.6477	0.781493	3.57374					0.937184	4.32129		
0.795098	3.64706	0.784289	3.57409					0.939568	4.31714		
0.797736	3.64644	0.787085	3.57444					0.941955	4.31303		
0.800374	3.64582	0.789881	3.57478					0.944346	4.30897		
0.803014	3.64521	0.792676	3.57512					0.94674	4.30495		
0.805654	3.64461	0.79547	3.57546					0.949138	4.30098		
0.808296	3.64402	0.798265	3.57579					0.951539	4.29704		
0.81094	3.64344	0.801058	3.57612					0.953943	4.29315		
0.813584	3.64287	0.803852	3.57645					0.956351	4.2893		
0.816229	3.64231	0.806645	3.57677					0.958762	4.2855		
0.818876	3.64176	0.809438	3.57709					0.961176	4.28173		
0.821523	3.64122	0.812231	3.5774					0.963594	4.278		
0.824172	3.64068	0.815023	3.57771					0.966015	4.27431		
0.826822	3.64015	0.817814	3.57802					0.968439	4.27066		
0.829473	3.63963	0.820606	3.57832					0.970866	4.26705		
0.832124	3.63912	0.823397	3.57862					0.973297	4.26348		
0.834777	3.63862	0.826188	3.57892					0.97573	4.25994		
0.837431	3.63812	0.828978	3.57921					0.978167	4.25645		
0.840086	3.63763	0.831768	3.5795					0.980607	4.25299		
0.842742	3.63715	0.834558	3.57979					0.98305	4.24956		
0.845399	3.63668	0.837347	3.58007					0.985496	4.24617		
0.848057	3.63622	0.840136	3.58035					0.987945	4.24282		
0.850716	3.63576	0.842925	3.58062					0.990398	4.2395		
0.853375	3.6353	0.845713	3.5809					0.992853	4.23621		
0.856036	3.63486	0.848501	3.58117					0.995311	4.23296		
0.858698	3.63442	0.851289	3.58143					0.997772	4.22975		
0.86136	3.63399	0.854076	3.5817					1.00024	4.22656		
0.864024	3.63357	0.856863	3.58196								
0.866688	3.63315	0.85965	3.58221								
0.869353	3.63273	0.862436	3.58247								
0.872019	3.63233	0.865222	3.58272								
0.874686	3.63193	0.868008	3.58297								
0.877354	3.63153	0.870793	3.58321								
0.880022	3.63115	0.873578	3.58346								
0.882692	3.63076	0.876363	3.5837								
0.885362	3.63039	0.879147	3.58393								
0.888033	3.63002	0.881931	3.58417								
0.890705	3.62965	0.884715	3.5844								
0.893377	3.62929	0.887498	3.58463								
0.896051	3.62894	0.890282	3.58486								
0.898725	3.62859	0.893064	3.58508								
0.9014	3.62825	0.895847	3.5853								
0.904075	3.62791	0.898629	3.58552								
0.906752	3.62757	0.901411	3.58574								
0.909429	3.62724	0.904193	3.58595								
0.912107	3.62692	0.906974	3.58616								
0.914785	3.6266	0.909755	3.58637								
0.917465	3.62629	0.912536	3.58658								
0.920145	3.62598	0.915316	3.58678								
0.922825	3.62567	0.918096	3.58698								
0.925506	3.62537	0.920876	3.58718								
0.928188	3.62507	0.923656	3.58738								
0.930871	3.62478	0.926435	3.58757								
0.933554	3.62449	0.929214	3.58776								
0.936238	3.62421	0.931993	3.58795								
0.938923	3.62393	0.934771	3.58814								
0.941608	3.62365	0.937549	3.58833								
0.944294	3.62338	0.940327	3.58851								
0.946981	3.62311	0.943105	3.58869								
0.949668	3.62285	0.945882	3.58887								
0.952355	3.62259	0.948659	3.58905								
0.955044	3.62233	0.951436	3.58922								
0.957732	3.62208	0.954212	3.5894								
0.960422	3.62183	0.956988	3.58957								
0.963112	3.62159	0.959764	3.58974								
0.965802	3.62135	0.96254	3.58991								
0.968494	3.62111	0.965315	3.59007								
0.971185	3.62087	0.96809	3.59023								
0.973877	3.62064	0.970865	3.5904								
0.97657	3.62041	0.97364	3.59056								
0.979264	3.62019	0.976414	3.59071								
0.981958	3.61997	0.979188	3.59087								
0.984652	3.61975	0.981962	3.59102								
0.987347	3.61953	0.984736	3.59118								
0.990042	3.61932	0.987509	3.59133								
0.992738	3.61911	0.990282	3.59147								
0.995435	3.61891	0.993055	3.59162								
0.998131	3.6187	0.995827	3.59177								
1.00083	3.6185	0.9986	3.59191								
		1.00137	3.59205								
