Sym0		Asym0		Sym1		Sym2		Sym3		Sym4		Asym1		Asym2		Asym3		Asym4	
481  Points		499  Points		274  Points		230  Points		213  Points		150  Points		378  Points		243  Points		203  Points		151  Points	
Freq (MHz)	Vph (m/ms)	Freq (MHz)	Vph (m/ms)	Freq (MHz)	Vph (m/ms)	Freq (MHz)	Vph (m/ms)	Freq (MHz)	Vph (m/ms)	Freq (MHz)	Vph (m/ms)	Freq (MHz)	Vph (m/ms)	Freq (MHz)	Vph (m/ms)	Freq (MHz)	Vph (m/ms)	Freq (MHz)	Vph (m/ms)
0.00269957	4.52912	0.000242255	0.126041	0.279513	628.353	0.430033	1382.03	0.559024	876.727	0.838528	1725.92	0.139814	167.077	0.419265	1291.76	0.698772	3177.81	0.860068	1149.15
0.00691923	4.52905	0.000532568	0.186622	0.279554	203.086	0.430052	346.019	0.559058	356.242	0.838546	591.55	0.140022	79.1749	0.419294	333.763	0.698786	606.803	0.860082	511.914
0.0111386	4.52893	0.000933558	0.246619	0.279637	121.148	0.430094	197.785	0.559122	223.558	0.838581	356.959	0.140378	51.9877	0.419359	191.667	0.69882	335.442	0.860108	329.313
0.0153576	4.52876	0.0014429	0.305885	0.279761	86.3482	0.430158	138.482	0.559215	162.908	0.838633	255.609	0.140879	38.7893	0.419458	134.457	0.698872	231.8	0.860146	242.738
0.0195761	4.52855	0.00205743	0.364223	0.279927	67.1028	0.430245	106.551	0.559336	128.159	0.838703	199.093	0.141524	31.0115	0.419592	103.568	0.698945	177.097	0.860195	192.213
0.0237939	4.52827	0.00277371	0.421504	0.280135	54.8927	0.430355	86.5969	0.559487	105.641	0.838791	163.052	0.142309	25.8966	0.41976	84.2378	0.699036	143.293	0.860255	159.103
0.0280109	4.52795	0.00358786	0.477604	0.280383	46.4595	0.430488	72.9475	0.559667	89.866	0.838896	138.067	0.143231	22.2859	0.419964	71.0029	0.699147	120.334	0.860326	135.728
0.0322269	4.52758	0.00449565	0.532414	0.280673	40.2879	0.430643	63.0238	0.559876	78.2005	0.839018	119.728	0.144286	19.6075	0.420202	61.3753	0.699277	103.723	0.860409	118.346
0.0364418	4.52715	0.0054926	0.585841	0.281004	35.5774	0.430822	55.4845	0.560113	69.2251	0.839157	105.695	0.145469	17.5467	0.420474	54.0585	0.699426	91.1488	0.860503	104.914
0.0406554	4.52667	0.00657399	0.6378	0.281376	31.8656	0.431024	49.5634	0.56038	62.1066	0.839314	94.6122	0.146775	15.9156	0.420781	48.3111	0.699595	81.2996	0.860609	94.2236
0.0448675	4.52613	0.00773524	0.688251	0.281788	28.8664	0.431249	44.7906	0.560675	56.3234	0.839489	85.6377	0.148201	14.5956	0.421122	43.678	0.699783	73.3768	0.860726	85.5135
0.049078	4.52553	0.00897148	0.737139	0.28224	26.3937	0.431497	40.8622	0.561	51.5328	0.83968	78.2227	0.14974	13.5077	0.421498	39.8647	0.69999	66.866	0.860854	78.2803
0.0532867	4.52488	0.0102781	0.784448	0.282732	24.3207	0.431768	37.5728	0.561352	47.4999	0.839889	71.9935	0.151387	12.5976	0.421908	36.672	0.700216	61.4212	0.860994	72.1779
0.0574935	4.52417	0.0116505	0.830161	0.283263	22.5584	0.432064	34.7788	0.561734	44.0587	0.840115	66.687	0.153139	11.8264	0.422351	33.9604	0.700461	56.8006	0.861146	66.9607
0.0616981	4.5234	0.0130842	0.874273	0.283834	21.0426	0.432383	32.3764	0.562143	41.0883	0.840359	62.1127	0.154988	11.1659	0.422829	31.6292	0.700725	52.8306	0.861309	62.4491
0.0659005	4.52257	0.0145747	0.916797	0.284443	19.7252	0.432726	30.2889	0.562582	38.4986	0.84062	58.129	0.156932	10.5947	0.423341	29.6042	0.701009	49.3831	0.861483	58.5093
0.0701004	4.52169	0.0161182	0.957753	0.28509	18.5703	0.433093	28.4587	0.563048	36.2211	0.840898	54.6287	0.158964	10.0969	0.423886	27.8292	0.701312	46.3615	0.861669	55.0392
0.0742977	4.52074	0.0177105	0.997163	0.285776	17.5498	0.433484	26.8411	0.563543	34.203	0.841193	51.529	0.160804	9.71285	0.424464	26.2608	0.701633	43.6918	0.861866	51.9595
0.078492	4.51972	0.0193478	1.03506	0.286498	16.642	0.4339	25.4015	0.564066	32.4024	0.841506	48.765	0.162421	9.41684	0.425076	24.8654	0.701974	41.3159	0.862075	49.2082
0.0826833	4.51864	0.0210269	1.07148	0.287257	15.8294	0.43434	24.1121	0.564617	30.7864	0.841835	46.2851	0.163791	9.19125	0.425721	23.616	0.702333	39.1881	0.862296	46.7353
0.0868713	4.5175	0.0227443	1.10646	0.288053	15.0981	0.434805	22.9508	0.565196	29.328	0.842182	44.0478	0.164893	9.02397	0.426399	22.4912	0.702712	37.2716	0.862528	44.5007
0.0910558	4.51629	0.024497	1.14005	0.288885	14.4367	0.435296	21.8997	0.565802	28.0055	0.842546	42.0192	0.165715	8.90676	0.42711	21.4734	0.703109	35.5366	0.862772	42.4717
0.0952365	4.51501	0.026282	1.17229	0.289751	13.8358	0.435811	20.944	0.566436	26.801	0.842927	40.1717	0.166246	8.83417	0.427853	20.5483	0.703525	33.9585	0.863027	40.6212
0.0994134	4.51366	0.0280967	1.20323	0.290653	13.2877	0.436352	20.0713	0.567098	25.6994	0.843326	38.482	0.167015	8.73299	0.428628	19.7038	0.70396	32.5172	0.863294	38.9267
0.103586	4.51223	0.0299386	1.23292	0.291589	12.7859	0.436919	19.2715	0.567787	24.6882	0.843741	36.9308	0.16786	8.62706	0.429436	18.9302	0.704414	31.1956	0.863574	37.3694
0.107754	4.51073	0.0318054	1.2614	0.292559	12.3249	0.437512	18.5359	0.568503	23.7569	0.844173	35.5019	0.169023	8.48938	0.430276	18.2189	0.704886	29.9795	0.863864	35.9332
0.111918	4.50916	0.033695	1.28872	0.293562	11.9001	0.438132	17.8572	0.569246	22.8965	0.844622	34.1815	0.170516	8.32504	0.431147	17.563	0.705377	28.8569	0.864167	34.6047
0.116076	4.5075	0.0356054	1.31493	0.294597	11.5074	0.438778	17.2293	0.570016	22.0993	0.845089	32.9577	0.172353	8.1397	0.43205	16.9562	0.705887	27.8175	0.864482	33.3723
0.120229	4.50576	0.0375348	1.34008	0.295664	11.1436	0.43945	16.6467	0.570813	21.3587	0.845572	31.8203	0.174552	7.93911	0.432984	16.3934	0.706415	26.8524	0.864808	32.2258
0.124377	4.50393	0.0394816	1.3642	0.296763	10.8055	0.44015	16.1048	0.571636	20.6689	0.846072	30.7607	0.177129	7.72882	0.433949	15.8702	0.706961	25.954	0.865147	31.1567
0.128519	4.50202	0.0414441	1.38735	0.297893	10.4908	0.440877	15.5996	0.572486	20.0251	0.846589	29.771	0.179762	7.53728	0.434945	15.3824	0.707526	25.1156	0.865497	30.1574
0.132654	4.50002	0.0434211	1.40957	0.299054	10.1971	0.441632	15.1276	0.573363	19.4227	0.847123	28.8447	0.182447	7.36226	0.435971	14.9269	0.708109	24.3316	0.86586	29.2214
0.136783	4.49792	0.0454111	1.43089	0.300244	9.92244	0.442415	14.6858	0.574265	18.8581	0.847673	27.9759	0.185182	7.20186	0.437028	14.5005	0.70871	23.5968	0.866234	28.3429
0.140905	4.49572	0.0474131	1.45136	0.301305	9.69732	0.443226	14.2713	0.575193	18.3278	0.84824	27.1595	0.187964	7.05444	0.438114	14.1007	0.70933	22.9069	0.866621	27.5167
0.145019	4.49343	0.0494258	1.47102	0.302227	9.51504	0.444065	13.8819	0.576147	17.829	0.848824	26.3909	0.190791	6.9186	0.439231	13.725	0.709968	22.2578	0.86702	26.7384
0.149126	4.49102	0.0514484	1.4899	0.303001	9.37057	0.444933	13.5154	0.577127	17.3588	0.849425	25.6661	0.19366	6.79313	0.440376	13.3715	0.710623	21.6461	0.867431	26.0039
0.152698	4.48884	0.0534799	1.50804	0.303621	9.26014	0.445831	13.1699	0.578132	16.915	0.850042	24.9815	0.196569	6.67696	0.441551	13.0383	0.711297	21.0687	0.867854	25.3097
0.155738	4.48691	0.0552567	1.52327	0.304081	9.181	0.446757	12.8438	0.579162	16.4955	0.850676	24.3338	0.199516	6.56918	0.442755	12.7238	0.711989	20.5228	0.86829	24.6525
0.158248	4.48527	0.0567759	1.53585	0.304377	9.13123	0.447713	12.5355	0.580217	16.0984	0.851326	23.7203	0.2025	6.46897	0.443987	12.4265	0.712698	20.006	0.868738	24.0296
0.16023	4.48394	0.058035	1.54597	0.304806	9.06087	0.4487	12.2437	0.581298	15.7219	0.851993	23.1382	0.205518	6.37562	0.445247	12.1451	0.713425	19.516	0.869199	23.4383
0.161686	4.48294	0.0590322	1.55381	0.305275	8.98593	0.449716	11.9672	0.582403	15.3646	0.852676	22.5853	0.208569	6.28851	0.446536	11.8784	0.71417	19.0508	0.869672	22.8763
0.162618	4.4823	0.0597664	1.55948	0.305918	8.8865	0.450763	11.7049	0.583532	15.0251	0.853376	22.0594	0.211651	6.20707	0.447852	11.6253	0.714933	18.6086	0.870158	22.3416
0.163955	4.48136	0.0602367	1.56306	0.306741	8.76469	0.45184	11.4557	0.584686	14.7021	0.854092	21.5587	0.214762	6.1308	0.449196	11.3848	0.715713	18.1879	0.870656	21.8321
0.165408	4.48032	0.0609133	1.56816	0.30775	8.62299	0.452949	11.2188	0.585864	14.3945	0.854824	21.0814	0.217902	6.05927	0.450567	11.1561	0.71651	17.787	0.871167	21.3462
0.167382	4.47888	0.0616494	1.57363	0.308953	8.46412	0.454088	10.9933	0.587065	14.1012	0.855573	20.6259	0.221069	5.99209	0.451964	10.9384	0.717325	17.4047	0.871691	20.8823
0.169875	4.47702	0.0626516	1.58095	0.310357	8.29097	0.455259	10.7786	0.588291	13.8214	0.856338	20.1909	0.224261	5.92888	0.453388	10.7309	0.718157	17.0397	0.872227	20.439
0.172884	4.4747	0.0639208	1.59001	0.311788	8.12692	0.456462	10.5738	0.58954	13.554	0.857118	19.7749	0.227477	5.86935	0.454839	10.5329	0.719006	16.6909	0.872777	20.0149
0.176406	4.47188	0.0654579	1.60069	0.313244	7.97129	0.457697	10.3784	0.590813	13.2984	0.857915	19.3767	0.230717	5.81319	0.456315	10.3439	0.719873	16.3572	0.873339	19.6088
0.180436	4.46851	0.0672642	1.61284	0.314726	7.82351	0.458963	10.1918	0.592108	13.0538	0.858728	18.9954	0.233979	5.76015	0.457817	10.1633	0.720756	16.0377	0.873914	19.2197
0.184454	4.46499	0.0693408	1.6263	0.316233	7.68304	0.460262	10.0135	0.593427	12.8196	0.859557	18.6298	0.237261	5.71	0.459344	9.99061	0.721656	15.7316	0.874502	18.8464
0.188458	4.46131	0.0714209	1.63927	0.317766	7.54939	0.461421	9.86445	0.594768	12.5951	0.860402	18.279	0.240564	5.66252	0.460696	9.84613	0.722574	15.4381	0.875104	18.4882
0.192449	4.45747	0.0735042	1.65176	0.319323	7.42211	0.462428	9.74184	0.596132	12.3797	0.861263	17.9421	0.243886	5.61752	0.461863	9.72718	0.723508	15.1563	0.875718	18.144
0.196425	4.45345	0.0755904	1.66381	0.320906	7.30079	0.463274	9.6434	0.597519	12.173	0.862139	17.6184	0.247226	5.57482	0.462838	9.63162	0.724458	14.8857	0.876346	17.8132
0.200385	4.44925	0.0776791	1.67542	0.322514	7.18507	0.463952	9.56739	0.598927	11.9744	0.863032	17.3071	0.250584	5.53425	0.463615	9.5578	0.725425	14.6256	0.876987	17.4949
0.204329	4.44487	0.07977	1.68663	0.324147	7.07461	0.464456	9.5125	0.600358	11.7835	0.86394	17.0076	0.253958	5.49569	0.464191	9.50446	0.726409	14.3754	0.877641	17.1884
0.208255	4.44029	0.0818629	1.69744	0.325806	6.9691	0.46478	9.47781	0.601811	11.5999	0.864863	16.7191	0.257347	5.45898	0.464561	9.47074	0.727409	14.1346	0.878309	16.8933
0.212163	4.4355	0.0839576	1.70788	0.32749	6.86824	0.46525	9.42852	0.603285	11.4231	0.865802	16.4411	0.260752	5.424	0.465094	9.42281	0.728425	13.9026	0.878991	16.6087
0.216052	4.43049	0.0860537	1.71796	0.3292	6.77178	0.465764	9.37572	0.60478	11.2529	0.866757	16.1731	0.264171	5.39064	0.465678	9.37145	0.729458	13.6791	0.879685	16.3343
0.219919	4.42526	0.0881511	1.72769	0.330936	6.67949	0.46647	9.30517	0.606297	11.0889	0.867727	15.9145	0.267603	5.3588	0.466476	9.30279	0.730506	13.4635	0.880394	16.0695
0.223765	4.41979	0.0902496	1.7371	0.332699	6.59113	0.467374	9.21797	0.607835	10.9308	0.868712	15.6649	0.271048	5.32838	0.467493	9.21787	0.731571	13.2555	0.881116	15.8137
0.227588	4.41407	0.0923491	1.7462	0.33449	6.5065	0.468485	9.11543	0.609394	10.7782	0.869713	15.4239	0.274506	5.29928	0.468735	9.11793	0.732651	13.0547	0.881852	15.5666
0.231387	4.40809	0.0944494	1.755	0.336308	6.42542	0.46981	8.99907	0.610973	10.631	0.870729	15.1909	0.277975	5.27144	0.470209	9.00438	0.733748	12.8607	0.882602	15.3278
0.23516	4.40184	0.0965504	1.7635	0.338155	6.34772	0.471363	8.8705	0.612573	10.4888	0.871761	14.9656	0.281455	5.24477	0.471921	8.87876	0.73486	12.6733	0.883366	15.0968
0.238906	4.3953	0.0986519	1.77174	0.340032	6.27323	0.472949	8.74698	0.614193	10.3514	0.872807	14.7477	0.284945	5.2192	0.473656	8.75789	0.735987	12.492	0.884143	14.8732
0.242623	4.38846	0.100754	1.77971	0.341939	6.20182	0.474568	8.62825	0.615834	10.2186	0.873868	14.5368	0.288445	5.19466	0.475414	8.64152	0.73713	12.3166	0.884935	14.6568
0.24631	4.38131	0.102856	1.78743	0.343878	6.13333	0.47622	8.51407	0.617279	10.1064	0.874945	14.3325	0.291955	5.1711	0.477193	8.52942	0.738289	12.1469	0.885741	14.4473
0.249965	4.37384	0.104959	1.7949	0.345849	6.06766	0.477906	8.40421	0.618524	10.0133	0.876036	14.1347	0.295473	5.14845	0.478995	8.42138	0.739463	11.9825	0.886561	14.2442
0.253587	4.36604	0.107061	1.80215	0.347853	6.00468	0.479625	8.29848	0.619561	9.93802	0.877142	13.9429	0.299	5.12667	0.480818	8.3172	0.740652	11.8233	0.887395	14.0473
0.257173	4.35788	0.109164	1.80917	0.349893	5.94428	0.481378	8.19667	0.620386	9.87955	0.878263	13.757	0.302534	5.10571	0.482663	8.21668	0.741856	11.669	0.888244	13.8564
0.260722	4.34936	0.111267	1.81598	0.351969	5.88638	0.483163	8.0986	0.620996	9.83713	0.879399	13.5767	0.306076	5.08552	0.484528	8.11965	0.743076	11.5193	0.889107	13.6711
0.264233	4.34046	0.113369	1.82258	0.354082	5.83087	0.484982	8.00408	0.621387	9.81024	0.880549	13.4017	0.309624	5.06605	0.486415	8.02596	0.74431	11.3742	0.889984	13.4913
0.267703	4.33118	0.115472	1.82899	0.356235	5.77766	0.486834	7.91297	0.621952	9.77192	0.881714	13.2318	0.313179	5.04727	0.488322	7.93543	0.745559	11.2333	0.890877	13.3168
0.271131	4.32149	0.117575	1.83521	0.358427	5.72669	0.488718	7.8251	0.622568	9.73073	0.882894	13.0668	0.316739	5.02914	0.490249	7.84792	0.746823	11.0966	0.891783	13.1472
0.274514	4.31139	0.119677	1.84125	0.360662	5.67788	0.490636	7.74033	0.62341	9.67545	0.884088	12.9065	0.320305	5.01162	0.492196	7.76331	0.748102	10.9638	0.892705	12.9825
0.277852	4.30088	0.121779	1.84711	0.36294	5.63114	0.492586	7.65852	0.624481	9.60674	0.885296	12.7507	0.323877	4.99468	0.494163	7.68145	0.749395	10.8348	0.893641	12.8224
0.281142	4.28993	0.123881	1.85281	0.365263	5.58642	0.494568	7.57955	0.625786	9.52539	0.886519	12.5992	0.327452	4.9783	0.496149	7.60222	0.750703	10.7095	0.894592	12.6667
0.284382	4.27855	0.125982	1.85834	0.367631	5.54366	0.496582	7.50328	0.627329	9.43233	0.887756	12.4519	0.331032	4.96243	0.498155	7.52552	0.752025	10.5876	0.895557	12.5153
0.287572	4.26673	0.128084	1.86372	0.370047	5.50278	0.498629	7.42961	0.629119	9.32855	0.889007	12.3086	0.334616	4.94705	0.500179	7.45123	0.753361	10.4691	0.896538	12.3679
0.290709	4.25447	0.130184	1.86896	0.372512	5.46373	0.500707	7.35842	0.630926	9.22787	0.890272	12.1692	0.338203	4.93215	0.502222	7.37924	0.754537	10.3685	0.897534	12.2245
0.293793	4.24176	0.132285	1.87405	0.375027	5.42646	0.502816	7.28961	0.632753	9.13016	0.891551	12.0334	0.341793	4.91768	0.504284	7.30947	0.755548	10.2845	0.898545	12.085
0.296821	4.22861	0.134385	1.879	0.377592	5.3909	0.504957	7.22308	0.634597	9.03531	0.892844	11.9012	0.345385	4.90364	0.506364	7.24182	0.75639	10.2164	0.899571	11.949
0.299795	4.21502	0.136485	1.88382	0.380209	5.35701	0.507129	7.15874	0.636459	8.94319	0.894151	11.7724	0.34898	4.88999	0.508462	7.1762	0.757059	10.1633	0.900612	11.8166
0.302711	4.201	0.138584	1.88851	0.382878	5.32471	0.509331	7.09649	0.63834	8.8537	0.895471	11.6469	0.352576	4.87672	0.510578	7.11254	0.757553	10.1247	0.901669	11.6876
0.305571	4.18655	0.140683	1.89307	0.3856	5.29397	0.511563	7.03626	0.640238	8.76674	0.896806	11.5246	0.356174	4.86381	0.512711	7.05075	0.757871	10.1002	0.902741	11.5619
0.308374	4.1717	0.142782	1.89752	0.388374	5.26472	0.513826	6.97796	0.642153	8.6822	0.898154	11.4054	0.359774	4.85124	0.514862	6.99075	0.758328	10.0653	0.903828	11.4393
0.311119	4.15645	0.14488	1.90186	0.391201	5.2369	0.516118	6.92151	0.644086	8.6	0.899516	11.2891	0.363374	4.83899	0.51703	6.93249	0.758827	10.0276	0.904931	11.3198
0.313807	4.14082	0.146978	1.90608	0.394081	5.21047	0.518439	6.86684	0.646036	8.52005	0.900891	11.1757	0.366974	4.82704	0.519215	6.87589	0.759508	9.97693	0.906049	11.2032
0.316438	4.12482	0.149075	1.9102	0.397013	5.18536	0.520789	6.81388	0.648004	8.44226	0.902279	11.065	0.370574	4.81538	0.521416	6.82089	0.760374	9.91378	0.907183	11.0895
0.319013	4.10849	0.151172	1.91422	0.399997	5.16152	0.523168	6.76257	0.649988	8.36656	0.903681	10.957	0.374174	4.804	0.523635	6.76743	0.761429	9.83875	0.908333	10.9785
0.321533	4.09184	0.153268	1.91813	0.403031	5.13889	0.525575	6.71284	0.651989	8.29286	0.905097	10.8516	0.377773	4.79287	0.52587	6.71545	0.762676	9.75254	0.909498	10.8702
0.323998	4.0749	0.155364	1.92196	0.406115	5.11742	0.52801	6.66462	0.654006	8.2211	0.906525	10.7487	0.381371	4.782	0.528121	6.6649	0.764119	9.65596	0.910679	10.7644
0.32641	4.05769	0.15746	1.92568	0.409248	5.09705	0.530472	6.61788	0.656041	8.1512	0.907781	10.6609	0.384968	4.77136	0.530388	6.61572	0.765576	9.56179	0.911721	10.6743
0.328771	4.04024	0.159555	1.92932	0.412427	5.07773	0.532961	6.57253	0.658091	8.08311	0.908859	10.5875	0.388562	4.76093	0.532671	6.56787	0.767046	9.46995	0.912619	10.5989
0.331081	4.02257	0.16165	1.93288	0.415653	5.0594	0.535477	6.52855	0.660157	8.01675	0.909756	10.5278	0.392155	4.75072	0.53497	6.5213	0.768529	9.38037	0.913368	10.5376
0.333342	4.00472	0.163744	1.93635	0.418922	5.04202	0.538018	6.48586	0.66224	7.95207	0.910468	10.4811	0.395745	4.74071	0.537284	6.47596	0.770026	9.29296	0.913965	10.4897
0.335557	3.9867	0.165838	1.93974	0.422234	5.02552	0.540586	6.44443	0.664339	7.88901	0.910994	10.4472	0.399333	4.73088	0.539614	6.43182	0.771536	9.20765	0.914406	10.4548
0.337726	3.96855	0.167931	1.94305	0.425586	5.00987	0.543179	6.40422	0.666453	7.82751	0.911332	10.4256	0.402917	4.72123	0.54196	6.38882	0.773059	9.12438	0.91469	10.4327
0.339852	3.95028	0.170024	1.94628	0.428977	4.995	0.545797	6.36516	0.668583	7.76753	0.911818	10.3947	0.406498	4.71175	0.54432	6.34694	0.774596	9.04306	0.915098	10.401
0.341937	3.93193	0.172117	1.94945	0.432405	4.98088	0.54844	6.32723	0.670728	7.70901	0.912348	10.3615	0.410074	4.70242	0.546696	6.30614	0.776145	8.96365	0.915545	10.3669
0.343982	3.91352	0.174209	1.95254	0.435868	4.96746	0.551107	6.29038	0.672889	7.6519	0.913072	10.3167	0.413647	4.69324	0.549087	6.26637	0.777707	8.88607	0.916155	10.3209
0.345989	3.89506	0.176301	1.95556	0.439365	4.95471	0.553797	6.25458	0.675065	7.59617	0.913991	10.2607	0.417215	4.68421	0.551492	6.22761	0.779282	8.81028	0.916932	10.2635
0.34796	3.87659	0.178392	1.95852	0.442893	4.94256	0.556511	6.21978	0.677256	7.54176	0.91511	10.1941	0.420778	4.6753	0.553913	6.18982	0.780869	8.7362	0.91788	10.1951
0.349897	3.85813	0.180483	1.96141	0.446451	4.931	0.559248	6.18595	0.679462	7.48863	0.916431	10.1173	0.424335	4.66652	0.556348	6.15297	0.782469	8.6638	0.919004	10.1164
0.351802	3.83968	0.182574	1.96425	0.450037	4.91998	0.562007	6.15306	0.681683	7.43674	0.917958	10.031	0.427887	4.65786	0.558798	6.11703	0.784082	8.59301	0.920308	10.0279
0.353676	3.82128	0.184664	1.96702	0.45365	4.90946	0.564789	6.12108	0.683919	7.38606	0.919499	9.94653	0.431433	4.6493	0.561263	6.08198	0.785708	8.52379	0.921629	9.94134
0.355521	3.80293	0.186754	1.96973	0.457287	4.89943	0.567592	6.08996	0.686169	7.33654	0.921051	9.86392	0.434972	4.64085	0.563742	6.04778	0.787345	8.45609	0.922966	9.8567
0.357338	3.78465	0.188844	1.97239	0.460947	4.88983	0.570416	6.05969	0.688434	7.28815	0.922616	9.78306	0.438505	4.63249	0.566235	6.01442	0.788996	8.38986	0.924319	9.7739
0.35913	3.76646	0.190933	1.97499	0.464629	4.88065	0.573262	6.03024	0.690713	7.24086	0.924194	9.70392	0.44203	4.62422	0.568743	5.98186	0.790658	8.32506	0.925689	9.69289
0.360897	3.74837	0.193021	1.97753	0.468331	4.87186	0.576128	6.00156	0.693007	7.19463	0.925783	9.62644	0.445548	4.61603	0.571265	5.95008	0.792333	8.26165	0.927075	9.61362
0.362641	3.73039	0.19511	1.98003	0.472052	4.86343	0.579014	5.97365	0.695314	7.14944	0.927385	9.55057	0.449058	4.60792	0.573802	5.91906	0.79402	8.19959	0.928477	9.53603
0.364364	3.71252	0.197198	1.98248	0.47579	4.85533	0.58192	5.94647	0.697636	7.10525	0.928999	9.47627	0.45256	4.59987	0.576353	5.88878	0.79572	8.13883	0.929896	9.46008
0.366066	3.69479	0.199286	1.98487	0.479545	4.84756	0.584845	5.92	0.699972	7.06202	0.930625	9.40348	0.456053	4.59189	0.578918	5.85921	0.797431	8.07934	0.931331	9.38572
0.367749	3.6772	0.201373	1.98722	0.483314	4.84007	0.587789	5.89422	0.702322	7.01975	0.932263	9.33218	0.459537	4.58397	0.581497	5.83034	0.799155	8.02109	0.932783	9.31291
0.369414	3.65976	0.20346	1.98953	0.487097	4.83287	0.590753	5.8691	0.704685	6.97838	0.933913	9.26231	0.463012	4.5761	0.584091	5.80214	0.800891	7.96403	0.934252	9.2416
0.371063	3.64247	0.205547	1.99179	0.490893	4.82592	0.593734	5.84462	0.707063	6.93791	0.935574	9.19383	0.466477	4.56828	0.586699	5.7746	0.802638	7.90814	0.935737	9.17176
0.372695	3.62534	0.207633	1.994	0.4947	4.8192	0.596734	5.82076	0.709453	6.89831	0.937248	9.12672	0.469932	4.56051	0.589321	5.7477	0.804398	7.85339	0.937238	9.10334
0.374313	3.60837	0.20972	1.99618	0.498518	4.81272	0.599751	5.79751	0.711858	6.85954	0.938933	9.06092	0.473376	4.55277	0.591957	5.72143	0.806169	7.79974	0.938756	9.03632
0.375917	3.59157	0.211805	1.99831	0.502345	4.80643	0.602786	5.77483	0.714276	6.8216	0.940629	8.9964	0.47681	4.54506	0.594608	5.69575	0.807953	7.74716	0.940291	8.97064
0.377508	3.57495	0.213891	2.0004	0.506182	4.80035	0.605837	5.75272	0.716707	6.78445	0.942337	8.93314	0.480232	4.53739	0.597273	5.67067	0.809748	7.69562	0.941842	8.90627
0.379087	3.55851	0.215976	2.00245	0.510026	4.79444	0.608905	5.73115	0.719151	6.74807	0.944057	8.87108	0.483643	4.52974	0.599952	5.64617	0.811555	7.6451	0.943411	8.84319
0.380654	3.54224	0.218061	2.00447	0.513877	4.7887	0.61199	5.71011	0.721609	6.71245	0.945788	8.81022	0.487041	4.52211	0.602645	5.62222	0.813373	7.59556	0.944995	8.78135
0.382211	3.52616	0.220146	2.00645	0.517734	4.78312	0.615091	5.68958	0.72408	6.67756	0.94753	8.7505	0.490427	4.5145	0.605353	5.59882	0.815204	7.54699	0.946597	8.72073
0.383759	3.51026	0.22223	2.00839	0.521597	4.77768	0.618207	5.66955	0.726564	6.64339	0.949283	8.69191	0.493801	4.5069	0.608076	5.57594	0.817046	7.49936	0.948215	8.66129
0.385296	3.49455	0.224314	2.0103	0.525465	4.77238	0.621339	5.64999	0.729061	6.60991	0.951048	8.6344	0.497161	4.49931	0.610812	5.55359	0.8189	7.45265	0.949849	8.60301
0.386826	3.47902	0.226398	2.01218	0.529336	4.7672	0.624486	5.63091	0.731571	6.57711	0.952824	8.57797	0.500508	4.49172	0.613563	5.53175	0.820765	7.40682	0.951501	8.54585
0.388347	3.46368	0.228482	2.01402	0.533211	4.76215	0.627649	5.61227	0.734093	6.54496	0.95461	8.52257	0.503841	4.48414	0.616329	5.51039	0.822642	7.36186	0.953169	8.48979
0.389862	3.44853	0.230565	2.01583	0.537089	4.75719	0.630825	5.59407	0.736629	6.51346	0.956408	8.46818	0.50716	4.47656	0.619109	5.48952	0.82453	7.31774	0.954854	8.4348
0.391369	3.43356	0.232648	2.0176	0.540969	4.75234	0.634016	5.5763	0.739177	6.48259	0.958216	8.41477	0.510465	4.46897	0.621904	5.46912	0.82643	7.27446	0.956555	8.38086
0.39287	3.41879	0.234731	2.01935	0.544851	4.74759	0.637222	5.55894	0.741738	6.45233	0.960036	8.36233	0.513754	4.46138	0.624713	5.44918	0.828342	7.23197	0.958273	8.32793
0.394365	3.4042	0.236814	2.02107	0.548734	4.74291	0.640441	5.54198	0.744311	6.42266	0.961865	8.31082	0.517028	4.45378	0.627537	5.42968	0.830265	7.19027	0.960008	8.27599
0.395855	3.3898	0.238896	2.02276	0.552617	4.73832	0.643674	5.52541	0.746898	6.39358	0.963706	8.26023	0.520287	4.44617	0.630375	5.41063	0.8322	7.14934	0.961759	8.22503
0.39734	3.37558	0.240979	2.02442	0.5565	4.7338	0.64692	5.50921	0.749496	6.36506	0.965557	8.21053	0.52353	4.43854	0.633229	5.392	0.834146	7.10916	0.963527	8.17501
0.39882	3.36155	0.24306	2.02605	0.560383	4.72935	0.65018	5.49338	0.752108	6.33709	0.967419	8.1617	0.526757	4.4309	0.636097	5.37378	0.836103	7.0697	0.965312	8.12592
0.400297	3.34771	0.245142	2.02765	0.564265	4.72495	0.653452	5.47791	0.754731	6.30967	0.969291	8.11371	0.529967	4.42324	0.638979	5.35598	0.838072	7.03096	0.967113	8.07773
0.401769	3.33404	0.247224	2.02923	0.568145	4.72061	0.656737	5.46278	0.757368	6.28277	0.971174	8.06656	0.53316	4.41555	0.641877	5.33858	0.840052	6.99292	0.968931	8.03042
0.403239	3.32056	0.249305	2.03079	0.572023	4.71633	0.660035	5.44799	0.760016	6.25638	0.973066	8.02022	0.536337	4.40785	0.644789	5.32156	0.842044	6.95555	0.970765	7.98397
0.404705	3.30726	0.251386	2.03231	0.575899	4.71209	0.663345	5.43353	0.762677	6.2305	0.97497	7.97466	0.539496	4.40012	0.647716	5.30493	0.844047	6.91885	0.972615	7.93836
0.406168	3.29414	0.253467	2.03382	0.579772	4.70789	0.666667	5.41938	0.76535	6.20511	0.976883	7.92988	0.542637	4.39236	0.650658	5.28866	0.846061	6.88279	0.974483	7.89357
0.407629	3.28119	0.255548	2.0353	0.583642	4.70372	0.670002	5.40554	0.768036	6.1802	0.978806	7.88585	0.545761	4.38458	0.653614	5.27276	0.848087	6.84738	0.976366	7.84959
0.409087	3.26842	0.257628	2.03675	0.587508	4.69959	0.673347	5.39201	0.770733	6.15576	0.98074	7.84256	0.548866	4.37677	0.656586	5.25722	0.850125	6.81258	0.978266	7.80639
0.410544	3.25582	0.259708	2.03819	0.59137	4.69549	0.676705	5.37876	0.773444	6.13178	0.982683	7.79999	0.551953	4.36893	0.659572	5.24202	0.852173	6.77838	0.980182	7.76396
0.411999	3.2434	0.261789	2.0396	0.595227	4.69141	0.680074	5.36581	0.776166	6.10824	0.984636	7.75812	0.555022	4.36105	0.662572	5.22717	0.854233	6.74478	0.982115	7.72228
0.413453	3.23114	0.263868	2.04099	0.59908	4.68736	0.683454	5.35312	0.7789	6.08514	0.986599	7.71694	0.558072	4.35315	0.665588	5.21264	0.856304	6.71176	0.984064	7.68133
0.414905	3.21905	0.265948	2.04235	0.602928	4.68332	0.686845	5.34071	0.781647	6.06247	0.988572	7.67643	0.561103	4.34521	0.668618	5.19844	0.858387	6.67931	0.986029	7.6411
0.416357	3.20713	0.268028	2.0437	0.606769	4.6793	0.690247	5.32856	0.784406	6.04022	0.990555	7.63658	0.564114	4.33724	0.671662	5.18455	0.860481	6.64741	0.98801	7.60157
0.417808	3.19538	0.270107	2.04503	0.610606	4.67529	0.69366	5.31667	0.787177	6.01838	0.992547	7.59736	0.567107	4.32924	0.674721	5.17098	0.862586	6.61605	0.990007	7.56272
0.419258	3.18378	0.272186	2.04634	0.614435	4.67129	0.697083	5.30502	0.78996	5.99694	0.994549	7.55878	0.570081	4.3212	0.677795	5.1577	0.864702	6.58523	0.992021	7.52455
0.420708	3.17234	0.274265	2.04762	0.618259	4.6673	0.700517	5.29362	0.792756	5.9759	0.996561	7.52081	0.573034	4.31313	0.680882	5.14472	0.86683	6.55492	0.99405	7.48703
0.422157	3.16107	0.276344	2.04889	0.622075	4.66331	0.703961	5.28246	0.795563	5.95524	0.998582	7.48345	0.575969	4.30503	0.683984	5.13203	0.868969	6.52513	0.996096	7.45016
0.423606	3.14994	0.278423	2.05014	0.625884	4.65932	0.707416	5.27152	0.798383	5.93495	1.00061	7.44667	0.578883	4.29689	0.6871	5.11962	0.87112	6.49583	0.998157	7.41391
0.425056	3.13898	0.280502	2.05138	0.629685	4.65533	0.71088	5.26081	0.801215	5.91504			0.581778	4.28872	0.69023	5.10748	0.873281	6.46702	1.00023	7.37828
0.426506	3.12816	0.28258	2.05259	0.633478	4.65133	0.714354	5.25032	0.804059	5.89548			0.584653	4.28052	0.693373	5.09562	0.875454	6.43869		
0.427956	3.11749	0.284658	2.05379	0.637263	4.64733	0.717838	5.24004	0.806915	5.87628			0.587509	4.27228	0.69653	5.08401	0.877638	6.41082		
0.429407	3.10697	0.286736	2.05497	0.64104	4.64333	0.721331	5.22998	0.809783	5.85742			0.590344	4.26401	0.699701	5.07265	0.879834	6.38341		
0.430858	3.0966	0.288814	2.05613	0.644808	4.63931	0.724834	5.22011	0.812663	5.83891			0.59316	4.25571	0.702885	5.06155	0.882041	6.35646		
0.43231	3.08637	0.290892	2.05727	0.648566	4.63528	0.728347	5.21044	0.815556	5.82073			0.595956	4.24737	0.706082	5.05068	0.884259	6.32994		
0.433763	3.07628	0.29297	2.05841	0.652315	4.63123	0.731868	5.20097	0.818461	5.80287			0.598732	4.23901	0.709292	5.04005	0.886488	6.30386		
0.435218	3.06633	0.295047	2.05952	0.656055	4.62717	0.735399	5.19169	0.821378	5.78534			0.601488	4.23062	0.712514	5.02965	0.888729	6.27819		
0.436673	3.05652	0.297125	2.06062	0.659784	4.6231	0.738938	5.18259	0.824307	5.76812			0.604225	4.2222	0.715749	5.01948	0.89098	6.25295		
0.438129	3.04685	0.299202	2.0617	0.663503	4.619	0.742487	5.17367	0.827249	5.75121			0.606942	4.21375	0.718997	5.00952	0.893244	6.2281		
0.439587	3.0373	0.301279	2.06277	0.667212	4.61489	0.746044	5.16492	0.830202	5.7346			0.609639	4.20528	0.722256	4.99977	0.895518	6.20366		
0.441046	3.02789	0.303356	2.06383	0.67091	4.61075	0.749609	5.15634	0.833168	5.71828			0.612317	4.19678	0.725527	4.99023	0.897803	6.17961		
0.442506	3.01861	0.305433	2.06487	0.674596	4.6066	0.753183	5.14794	0.836147	5.70226			0.614975	4.18825	0.728809	4.98089	0.9001	6.15594		
0.443968	3.00946	0.30751	2.0659	0.678272	4.60241	0.756765	5.13969	0.839137	5.68652			0.617615	4.1797	0.732103	4.97174	0.902408	6.13265		
0.445432	3.00043	0.309586	2.06691	0.681936	4.5982	0.760356	5.13161	0.84214	5.67107			0.620235	4.17114	0.735407	4.96278	0.904727	6.10972		
0.446897	2.99153	0.311663	2.06791	0.685588	4.59397	0.763955	5.12367	0.845155	5.65589			0.622836	4.16255	0.738722	4.954	0.907057	6.08716		
0.448364	2.98274	0.313739	2.0689	0.689229	4.58971	0.767561	5.11589	0.848183	5.64098			0.625418	4.15394	0.742048	4.9454	0.909399	6.06495		
0.449833	2.97408	0.315815	2.06987	0.692857	4.58542	0.771175	5.10826	0.851223	5.62633			0.627982	4.14532	0.745384	4.93698	0.911751	6.04309		
0.451304	2.96554	0.317891	2.07083	0.696472	4.5811	0.774797	5.10077	0.854275	5.61195			0.630527	4.13668	0.748729	4.92872	0.914115	6.02157		
0.452777	2.95711	0.319967	2.07178	0.700076	4.57676	0.778426	5.09342	0.85734	5.59782			0.633054	4.12802	0.752084	4.92063	0.91649	6.00039		
0.454252	2.9488	0.322043	2.07272	0.703666	4.57238	0.782063	5.08621	0.860417	5.58394			0.635562	4.11935	0.755448	4.91269	0.918876	5.97954		
0.455728	2.9406	0.324119	2.07365	0.707244	4.56797	0.785707	5.07913	0.863507	5.57031			0.638053	4.11067	0.758821	4.90491	0.921273	5.95901		
0.457207	2.93251	0.326195	2.07456	0.710808	4.56353	0.789358	5.07219	0.866609	5.55693			0.640526	4.10198	0.762202	4.89727	0.923681	5.93879		
0.458688	2.92454	0.32827	2.07546	0.714359	4.55906	0.793015	5.06536	0.869724	5.54378			0.642981	4.09328	0.765592	4.88978	0.926101	5.91889		
0.460171	2.91667	0.330346	2.07635	0.717896	4.55455	0.79668	5.05867	0.872851	5.53086			0.645419	4.08458	0.76899	4.88243	0.928531	5.8993		
0.461657	2.9089	0.332421	2.07723	0.72142	4.55001	0.800351	5.05209	0.875991	5.51818			0.64784	4.07586	0.772395	4.87521	0.930972	5.88		
0.463144	2.90124	0.334496	2.0781	0.724931	4.54544	0.804028	5.04563	0.879143	5.50573			0.650244	4.06715	0.775807	4.86812	0.933425	5.861		
0.464634	2.89369	0.336571	2.07896	0.728427	4.54084	0.807712	5.03928	0.882308	5.49349			0.652631	4.05843	0.779227	4.86116	0.935888	5.84229		
0.466126	2.88623	0.338646	2.07981	0.731909	4.5362	0.811402	5.03304	0.885486	5.48148			0.655001	4.0497	0.782653	4.85432	0.938362	5.82387		
0.467621	2.87888	0.340721	2.08065	0.735377	4.53153	0.815097	5.02692	0.888676	5.46968			0.657356	4.04098	0.786085	4.84759	0.940848	5.80572		
0.469118	2.87162	0.342796	2.08147	0.738831	4.52682	0.818799	5.02089	0.891879	5.4581			0.659694	4.03226	0.789524	4.84098	0.943344	5.78785		
0.470617	2.86446	0.344871	2.08229	0.742271	4.52208	0.822505	5.01497	0.895095	5.44672			0.662016	4.02354	0.792968	4.83448	0.945851	5.77025		
0.472118	2.8574	0.346946	2.0831	0.745696	4.51731	0.826218	5.00915	0.898323	5.43555			0.664323	4.01483	0.796417	4.82809	0.948369	5.75291		
0.473623	2.85043	0.34902	2.0839	0.749107	4.5125	0.829935	5.00343	0.901564	5.42458			0.666614	4.00612	0.799872	4.82179	0.950898	5.73583		
0.475129	2.84355	0.351095	2.08469	0.752503	4.50766	0.833657	4.99779	0.904818	5.41381			0.66889	3.99742	0.803331	4.8156	0.953438	5.71901		
0.476638	2.83677	0.353169	2.08547	0.755884	4.50278	0.837384	4.99225	0.908084	5.40323			0.671152	3.98872	0.806795	4.8095	0.955989	5.70244		
0.47815	2.83007	0.355243	2.08624	0.759251	4.49787	0.841116	4.9868	0.911363	5.39284			0.673398	3.98003	0.810263	4.8035	0.95855	5.68612		
0.479664	2.82346	0.357318	2.087	0.762602	4.49293	0.844852	4.98143	0.914655	5.38265			0.67563	3.97136	0.813734	4.79758	0.961122	5.67004		
0.48118	2.81694	0.359392	2.08775	0.76594	4.48796	0.848592	4.97615	0.91796	5.37264			0.677848	3.96269	0.817209	4.79174	0.963705	5.6542		
0.4827	2.8105	0.361466	2.0885	0.769262	4.48295	0.852336	4.97095	0.921277	5.36281			0.680052	3.95404	0.820687	4.78599	0.966299	5.6386		
0.484221	2.80415	0.36354	2.08924	0.772569	4.47791	0.856084	4.96582	0.924608	5.35316			0.682242	3.9454	0.824168	4.78032	0.968903	5.62322		
0.485745	2.79788	0.365614	2.08996	0.775861	4.47284	0.859835	4.96077	0.927951	5.34369			0.684418	3.93677	0.827652	4.77472	0.971518	5.60807		
0.487272	2.7917	0.367687	2.09068	0.779139	4.46774	0.86359	4.95579	0.931306	5.3344			0.686581	3.92816	0.831138	4.7692	0.974144	5.59315		
0.488802	2.78559	0.369761	2.09139	0.782401	4.4626	0.867347	4.95089	0.934675	5.32527			0.688731	3.91957	0.834625	4.76374	0.97678	5.57844		
0.490334	2.77956	0.371835	2.0921	0.785649	4.45744	0.871108	4.94605	0.938056	5.31632			0.690868	3.911	0.838115	4.75835	0.979427	5.56396		
0.491868	2.77361	0.373908	2.09279	0.788881	4.45224	0.874871	4.94128	0.94145	5.30753			0.692993	3.90244	0.841606	4.75303	0.982085	5.54968		
0.493406	2.76774	0.375982	2.09348	0.792099	4.44702	0.878637	4.93657	0.944857	5.2989			0.695105	3.8939	0.845098	4.74777	0.984753	5.53561		
0.494945	2.76194	0.378055	2.09416	0.795302	4.44177	0.882404	4.93192	0.948276	5.29044			0.697204	3.88539	0.84859	4.74257	0.987431	5.52175		
0.496488	2.75622	0.380129	2.09484	0.79849	4.43649	0.886174	4.92733	0.951709	5.28213			0.699292	3.87689	0.852083	4.73742	0.99012	5.50809		
0.498033	2.75057	0.382202	2.0955	0.801663	4.43118	0.889946	4.9228	0.955153	5.27397			0.701368	3.86842	0.855577	4.73233	0.992819	5.49462		
0.49958	2.74499	0.384275	2.09616	0.804821	4.42584	0.893719	4.91832	0.958611	5.26598			0.703432	3.85997	0.85907	4.72729	0.995529	5.48136		
0.501131	2.73949	0.386348	2.09681	0.807964	4.42048	0.897493	4.9139	0.962081	5.25813			0.705485	3.85154	0.862564	4.72231	0.998249	5.46828		
0.502684	2.73405	0.388421	2.09746	0.811093	4.41509	0.901268	4.90952	0.965564	5.25043			0.707527	3.84314	0.866056	4.71736	1.00098	5.4554		
0.504239	2.72868	0.390494	2.0981	0.814207	4.40968	0.905045	4.9052	0.969059	5.24287			0.709558	3.83477	0.869548	4.71247				
0.505797	2.72338	0.392567	2.09873	0.817306	4.40424	0.908821	4.90092	0.972567	5.23546			0.711578	3.82642	0.873038	4.70762				
0.507358	2.71815	0.39464	2.09935	0.820391	4.39878	0.912599	4.89669	0.976087	5.22819			0.713587	3.81809	0.876528	4.7028				
0.508921	2.71298	0.396712	2.09997	0.823461	4.39329	0.916376	4.8925	0.97962	5.22105			0.715587	3.8098	0.880015	4.69803				
0.510487	2.70788	0.398785	2.10058	0.826517	4.38779	0.920154	4.88835	0.983165	5.21406			0.717576	3.80153	0.883501	4.6933				
0.512056	2.70285	0.400858	2.10119	0.829558	4.38226	0.923931	4.88424	0.986723	5.20719			0.719555	3.79329	0.886985	4.6886				
0.513627	2.69787	0.40293	2.10179	0.832585	4.3767	0.927708	4.88017	0.990293	5.20046			0.721524	3.78508	0.890466	4.68393				
0.515201	2.69296	0.405003	2.10238	0.835598	4.37113	0.931484	4.87613	0.993875	5.19386			0.723483	3.7769	0.893945	4.6793				
0.516777	2.68811	0.407075	2.10297	0.838597	4.36554	0.935259	4.87213	0.997469	5.18739			0.725434	3.76875	0.897421	4.67469				
0.518356	2.68332	0.409148	2.10355	0.841581	4.35993	0.939033	4.86817	1.00107	5.18104			0.727375	3.76063	0.900893	4.67012				
0.519937	2.67858	0.41122	2.10413	0.844551	4.3543	0.942806	4.86423					0.729307	3.75254	0.904363	4.66557				
0.521521	2.67391	0.413292	2.10469	0.847508	4.34866	0.946577	4.86033					0.73123	3.74449	0.907829	4.66105				
0.523108	2.66929	0.415364	2.10526	0.850451	4.34299	0.950347	4.85645					0.733144	3.73647	0.911291	4.65655				
0.524697	2.66473	0.417436	2.10582	0.853379	4.33731	0.954115	4.8526					0.73505	3.72847	0.914749	4.65207				
0.526289	2.66023	0.419508	2.10637	0.856295	4.33162	0.957881	4.84878					0.736948	3.72052	0.918203	4.64761				
0.527883	2.65578	0.42158	2.10692	0.859196	4.32591	0.961645	4.84498					0.738837	3.71259	0.921652	4.64318				
0.52948	2.65139	0.423652	2.10746	0.862084	4.32018	0.965406	4.8412					0.740718	3.7047	0.925097	4.63876				
0.53108	2.64705	0.425724	2.10799	0.864959	4.31444	0.969164	4.83745					0.742592	3.69685	0.928537	4.63436				
0.532681	2.64276	0.427796	2.10853	0.86782	4.30869	0.97292	4.83372					0.744458	3.68902	0.931972	4.62997				
0.534286	2.63852	0.429868	2.10905	0.870668	4.30293	0.976673	4.83001					0.746316	3.68124	0.935402	4.6256				
0.535893	2.63434	0.43194	2.10957	0.873503	4.29715	0.980423	4.82632					0.748167	3.67349	0.938826	4.62124				
0.537502	2.6302	0.434011	2.11009	0.876325	4.29137	0.98417	4.82264					0.750011	3.66577	0.942245	4.61689				
0.539114	2.62612	0.436083	2.1106	0.879134	4.28557	0.987914	4.81898					0.751848	3.65809	0.945658	4.61256				
0.540728	2.62208	0.438154	2.11111	0.88193	4.27976	0.991653	4.81534					0.753678	3.65044	0.949064	4.60823				
0.542345	2.61809	0.440226	2.11161	0.884713	4.27394	0.99539	4.81172					0.755501	3.64284	0.952465	4.60392				
0.543965	2.61415	0.442297	2.11211	0.887484	4.26812	0.999122	4.8081					0.757317	3.63526	0.955859	4.59961				
0.545586	2.61026	0.444369	2.1126	0.890242	4.26229	1.00285	4.8045					0.759127	3.62773	0.959247	4.59531				
0.54721	2.60641	0.44644	2.11309	0.892988	4.25644							0.760931	3.62023	0.962628	4.59102				
0.548837	2.60261	0.448511	2.11357	0.895722	4.2506							0.762729	3.61277	0.966002	4.58673				
0.550466	2.59885	0.450582	2.11405	0.898443	4.24474							0.76452	3.60534	0.969369	4.58244				
0.552097	2.59514	0.452653	2.11452	0.901152	4.23888							0.766306	3.59795	0.972729	4.57816				
0.553731	2.59147	0.454725	2.11499	0.903848	4.23302							0.768086	3.5906	0.976081	4.57388				
0.555367	2.58784	0.456796	2.11546	0.906533	4.22715							0.76986	3.58329	0.979426	4.56961				
0.557006	2.58426	0.458867	2.11592	0.909206	4.22127							0.771628	3.57601	0.982764	4.56533				
0.558647	2.58071	0.460938	2.11638	0.911868	4.21539							0.773392	3.56878	0.986094	4.56106				
0.56029	2.57721	0.463009	2.11683	0.914517	4.20951							0.77515	3.56158	0.989415	4.55679				
0.561935	2.57375	0.465079	2.11728	0.917155	4.20363							0.776902	3.55441	0.992729	4.55251				
0.563583	2.57033	0.46715	2.11772	0.919782	4.19774							0.77865	3.54729	0.996035	4.54824				
0.565233	2.56695	0.469221	2.11816	0.922397	4.19185							0.780393	3.5402	0.999332	4.54396				
0.566886	2.56361	0.471292	2.1186	0.925001	4.18596							0.782131	3.53316	1.00262	4.53969				
0.568541	2.5603	0.473362	2.11903	0.927594	4.18007							0.783865	3.52615						
0.570198	2.55704	0.475433	2.11946	0.930175	4.17418							0.785594	3.51917						
0.571857	2.55381	0.477504	2.11989	0.932746	4.16828							0.787318	3.51224						
0.573518	2.55061	0.479574	2.12031	0.935305	4.16239							0.789038	3.50534						
0.575182	2.54746	0.481645	2.12073	0.937854	4.1565							0.790754	3.49849						
0.576848	2.54434	0.483715	2.12114	0.940392	4.15061							0.792466	3.49167						
0.578516	2.54125	0.485785	2.12155	0.94292	4.14472							0.794173	3.48488						
0.580186	2.5382	0.487856	2.12196	0.945437	4.13884							0.795877	3.47814						
0.581859	2.53518	0.489926	2.12237	0.947943	4.13295							0.797577	3.47144						
0.583534	2.5322	0.491996	2.12277	0.950439	4.12707							0.799273	3.46477						
0.585211	2.52925	0.494067	2.12316	0.952925	4.12119							0.800966	3.45814						
0.586889	2.52634	0.496137	2.12356	0.9554	4.11531							0.802655	3.45155						
0.588571	2.52345	0.498207	2.12395	0.957866	4.10944							0.80434	3.44499						
0.590254	2.5206	0.500277	2.12434	0.960321	4.10357							0.806023	3.43848						
0.591939	2.51778	0.502347	2.12472	0.962767	4.09771							0.807701	3.432						
0.593627	2.51499	0.504417	2.1251	0.965202	4.09185							0.809377	3.42556						
0.595316	2.51223	0.506487	2.12548	0.967628	4.08599							0.81105	3.41915						
0.597008	2.5095	0.508557	2.12585	0.970044	4.08014							0.812719	3.41279						
0.598701	2.50681	0.510627	2.12623	0.972451	4.0743							0.814386	3.40646						
0.600397	2.50414	0.512697	2.12659	0.974848	4.06846							0.81605	3.40017						
0.602095	2.5015	0.514766	2.12696	0.977235	4.06263							0.817711	3.39391						
0.603795	2.49889	0.516836	2.12732	0.979614	4.0568							0.819369	3.3877						
0.605496	2.4963	0.518906	2.12768	0.981983	4.05098							0.821025	3.38152						
0.6072	2.49375	0.520976	2.12804	0.984342	4.04517							0.822679	3.37537						
0.608906	2.49122	0.523045	2.12839	0.986693	4.03936							0.824329	3.36927						
0.610613	2.48872	0.525115	2.12874	0.989035	4.03357							0.825978	3.3632						
0.612323	2.48625	0.527184	2.12909	0.991367	4.02777							0.827624	3.35716						
0.614035	2.4838	0.529254	2.12944	0.993691	4.02199							0.829268	3.35117						
0.615748	2.48138	0.531323	2.12978	0.996006	4.01622							0.830909	3.3452						
0.617463	2.47899	0.533393	2.13012	0.998313	4.01045							0.832549	3.33928						
0.619181	2.47662	0.535462	2.13046	1.00061	4.00469							0.834186	3.33339						
0.6209	2.47427	0.537532	2.13079									0.835822	3.32754						
0.622621	2.47195	0.539601	2.13112									0.837455	3.32172						
0.624344	2.46966	0.54167	2.13145									0.839087	3.31594						
0.626069	2.46739	0.54374	2.13178									0.840717	3.31019						
0.627796	2.46514	0.545809	2.1321									0.842345	3.30448						
0.629524	2.46292	0.547878	2.13243									0.843972	3.2988						
0.631255	2.46072	0.549947	2.13275									0.845597	3.29316						
0.632987	2.45854	0.552016	2.13306									0.84722	3.28756						
0.634721	2.45639	0.554085	2.13338									0.848842	3.28198						
0.636456	2.45425	0.556154	2.13369									0.850463	3.27645						
0.638194	2.45214	0.558223	2.134									0.852082	3.27094						
0.639933	2.45006	0.560292	2.13431									0.853699	3.26547						
0.641674	2.44799	0.562361	2.13461									0.855316	3.26004						
0.643417	2.44595	0.56443	2.13492									0.856931	3.25464						
0.645161	2.44392	0.566499	2.13522									0.858545	3.24927						
0.646908	2.44192	0.568568	2.13552									0.860158	3.24394						
0.648656	2.43993	0.570637	2.13581									0.86177	3.23863						
0.650405	2.43797	0.572706	2.13611									0.86338	3.23337						
0.652156	2.43603	0.574774	2.1364									0.86499	3.22813						
0.653909	2.43411	0.576843	2.13669									0.866599	3.22293						
0.655664	2.4322	0.578912	2.13698									0.868207	3.21776						
0.65742	2.43032	0.58098	2.13726									0.869814	3.21262						
0.659178	2.42845	0.583049	2.13754									0.87142	3.20752						
0.660938	2.4266	0.585117	2.13783									0.873025	3.20244						
0.662699	2.42478	0.587186	2.1381									0.87463	3.1974						
0.664462	2.42297	0.589254	2.13838									0.876234	3.19239						
0.666226	2.42117	0.591323	2.13866									0.877837	3.18741						
0.667992	2.4194	0.593391	2.13893									0.87944	3.18247						
0.66976	2.41764	0.59546	2.1392									0.881042	3.17755						
0.671529	2.4159	0.597528	2.13947									0.882643	3.17267						
0.673299	2.41418	0.599596	2.13974									0.884244	3.16781						
0.675071	2.41248	0.601665	2.14001									0.885845	3.16299						
0.676845	2.41079	0.603733	2.14027									0.887445	3.1582						
0.67862	2.40912	0.605801	2.14053									0.889045	3.15343						
0.680397	2.40746	0.60787	2.14079									0.890644	3.1487						
0.682175	2.40582	0.609938	2.14105									0.892243	3.144						
0.683955	2.4042	0.612006	2.14131									0.893842	3.13932						
0.685736	2.40259	0.614074	2.14156									0.89544	3.13468						
0.687519	2.401	0.616142	2.14182									0.897038	3.13007						
0.689303	2.39942	0.61821	2.14207									0.898636	3.12548						
0.691089	2.39786	0.620278	2.14232									0.900234	3.12092						
0.692876	2.39632	0.622346	2.14256									0.901832	3.1164						
0.694664	2.39479	0.624414	2.14281									0.903429	3.1119						
0.696454	2.39327	0.626482	2.14305									0.905026	3.10743						
0.698246	2.39177	0.62855	2.1433									0.906623	3.10299						
0.700038	2.39028	0.630618	2.14354									0.908221	3.09857						
0.701832	2.38881	0.632686	2.14378									0.909818	3.09418						
0.703628	2.38735	0.634754	2.14402									0.911415	3.08983						
0.705425	2.3859	0.636821	2.14425									0.913012	3.08549						
0.707223	2.38447	0.638889	2.14449									0.914609	3.08119						
0.709023	2.38305	0.640957	2.14472									0.916207	3.07691						
0.710824	2.38165	0.643025	2.14495									0.917804	3.07266						
0.712626	2.38025	0.645092	2.14518									0.919402	3.06844						
0.71443	2.37888	0.64716	2.14541									0.920999	3.06425						
0.716234	2.37751	0.649228	2.14564									0.922597	3.06008						
0.718041	2.37616	0.651295	2.14587									0.924195	3.05593						
0.719848	2.37482	0.653363	2.14609									0.925793	3.05182						
0.721657	2.37349	0.65543	2.14631									0.927392	3.04772						
0.723467	2.37217	0.657498	2.14653									0.92899	3.04366						
0.725279	2.37087	0.659565	2.14675									0.930589	3.03962						
0.727091	2.36958	0.661633	2.14697									0.932188	3.0356						
0.728905	2.3683	0.6637	2.14719									0.933788	3.03161						
0.730721	2.36703	0.665767	2.1474									0.935388	3.02765						
0.732537	2.36578	0.667835	2.14762									0.936988	3.02371						
0.734355	2.36453	0.669902	2.14783									0.938588	3.0198						
0.736174	2.3633	0.671969	2.14804									0.940189	3.01591						
0.737994	2.36208	0.674037	2.14825									0.941791	3.01204						
0.739815	2.36087	0.676104	2.14846									0.943392	3.0082						
0.741638	2.35967	0.678171	2.14867									0.944994	3.00438						
0.743461	2.35848	0.680238	2.14888									0.946597	3.00059						
0.745286	2.3573	0.682306	2.14908									0.9482	2.99682						
0.747112	2.35613	0.684373	2.14928									0.949803	2.99307						
0.74894	2.35497	0.68644	2.14949									0.951407	2.98935						
0.750768	2.35383	0.688507	2.14969									0.953012	2.98565						
0.752598	2.35269	0.690574	2.14989									0.954616	2.98198						
0.754428	2.35157	0.692641	2.15009									0.956222	2.97832						
0.75626	2.35045	0.694708	2.15028									0.957828	2.97469						
0.758093	2.34934	0.696775	2.15048									0.959434	2.97109						
0.759927	2.34825	0.698842	2.15068									0.961041	2.9675						
0.761763	2.34716	0.700909	2.15087									0.962649	2.96394						
0.763599	2.34608	0.702976	2.15106									0.964257	2.9604						
0.765437	2.34502	0.705043	2.15125									0.965866	2.95688						
0.767275	2.34396	0.70711	2.15144									0.967476	2.95338						
0.769115	2.34291	0.709176	2.15163									0.969086	2.94991						
0.770955	2.34187	0.711243	2.15182									0.970696	2.94645						
0.772797	2.34084	0.71331	2.15201									0.972308	2.94302						
0.77464	2.33982	0.715377	2.15219									0.97392	2.93961						
0.776484	2.33881	0.717443	2.15238									0.975532	2.93622						
0.778329	2.3378	0.71951	2.15256									0.977145	2.93285						
0.780175	2.33681	0.721577	2.15274									0.978759	2.9295						
0.782022	2.33582	0.723643	2.15293									0.980374	2.92618						
0.78387	2.33485	0.72571	2.15311									0.981989	2.92287						
0.785719	2.33388	0.727777	2.15328									0.983606	2.91958						
0.78757	2.33292	0.729843	2.15346									0.985222	2.91632						
0.789421	2.33196	0.73191	2.15364									0.98684	2.91307						
0.791273	2.33102	0.733976	2.15382									0.988458	2.90985						
0.793126	2.33008	0.736043	2.15399									0.990077	2.90664						
0.79498	2.32916	0.738109	2.15416									0.991697	2.90345						
0.796835	2.32824	0.740176	2.15434									0.993317	2.90029						
0.798691	2.32732	0.742242	2.15451									0.994939	2.89714						
0.800549	2.32642	0.744308	2.15468									0.996561	2.89401						
0.802407	2.32552	0.746375	2.15485									0.998183	2.8909						
0.804266	2.32463	0.748441	2.15502									0.999807	2.88781						
0.806126	2.32375	0.750507	2.15519									1.00143	2.88474						
0.807987	2.32288	0.752574	2.15535																
0.809848	2.32201	0.75464	2.15552																
0.811711	2.32115	0.756706	2.15569																
0.813575	2.3203	0.758772	2.15585																
0.81544	2.31945	0.760839	2.15601																
0.817305	2.31861	0.762905	2.15618																
0.819172	2.31778	0.764971	2.15634																
0.821039	2.31696	0.767037	2.1565																
0.822907	2.31614	0.769103	2.15666																
0.824776	2.31533	0.771169	2.15681																
0.826646	2.31453	0.773235	2.15697																
0.828517	2.31373	0.775301	2.15713																
0.830389	2.31294	0.777367	2.15729																
0.832262	2.31215	0.779433	2.15744																
0.834136	2.31138	0.781499	2.15759																
0.83601	2.31061	0.783565	2.15775																
0.837885	2.30984	0.785631	2.1579																
0.839761	2.30908	0.787697	2.15805																
0.841638	2.30833	0.789763	2.1582																
0.843516	2.30758	0.791828	2.15835																
0.845395	2.30684	0.793894	2.1585																
0.847274	2.30611	0.79596	2.15865																
0.849155	2.30538	0.798026	2.1588																
0.851036	2.30466	0.800092	2.15895																
0.852918	2.30394	0.802157	2.15909																
0.854801	2.30323	0.804223	2.15924																
0.856684	2.30253	0.806289	2.15938																
0.858568	2.30183	0.808354	2.15952																
0.860453	2.30113	0.81042	2.15967																
0.862339	2.30044	0.812485	2.15981																
0.864226	2.29976	0.814551	2.15995																
0.866114	2.29908	0.816616	2.16009																
0.868002	2.29841	0.818682	2.16023																
0.869891	2.29774	0.820747	2.16037																
0.871781	2.29708	0.822813	2.16051																
0.873671	2.29643	0.824878	2.16065																
0.875563	2.29578	0.826944	2.16078																
0.877455	2.29513	0.829009	2.16092																
0.879347	2.29449	0.831075	2.16105																
0.881241	2.29385	0.83314	2.16119																
0.883135	2.29322	0.835205	2.16132																
0.88503	2.2926	0.837271	2.16146																
0.886926	2.29198	0.839336	2.16159																
0.888822	2.29136	0.841401	2.16172																
0.89072	2.29075	0.843466	2.16185																
0.892617	2.29014	0.845532	2.16198																
0.894516	2.28954	0.847597	2.16211																
0.896415	2.28894	0.849662	2.16224																
0.898315	2.28835	0.851727	2.16237																
0.900216	2.28776	0.853792	2.1625																
0.902117	2.28718	0.855857	2.16262																
0.904019	2.2866	0.857922	2.16275																
0.905922	2.28603	0.859987	2.16288																
0.907826	2.28546	0.862052	2.163																
0.90973	2.28489	0.864117	2.16313																
0.911635	2.28433	0.866182	2.16325																
0.91354	2.28377	0.868247	2.16337																
0.915446	2.28322	0.870312	2.1635																
0.917353	2.28267	0.872377	2.16362																
0.91926	2.28213	0.874442	2.16374																
0.921168	2.28159	0.876507	2.16386																
0.923077	2.28105	0.878572	2.16398																
0.924986	2.28052	0.880637	2.1641																
0.926896	2.27999	0.882701	2.16422																
0.928807	2.27946	0.884766	2.16434																
0.930718	2.27894	0.886831	2.16445																
0.93263	2.27843	0.888896	2.16457																
0.934543	2.27791	0.89096	2.16469																
0.936456	2.27741	0.893025	2.1648																
0.938369	2.2769	0.89509	2.16492																
0.940284	2.2764	0.897154	2.16503																
0.942199	2.2759	0.899219	2.16515																
0.944114	2.27541	0.901284	2.16526																
0.946031	2.27492	0.903348	2.16538																
0.947947	2.27443	0.905413	2.16549																
0.949865	2.27395	0.907477	2.1656																
0.951783	2.27347	0.909542	2.16571																
0.953701	2.27299	0.911606	2.16582																
0.95562	2.27252	0.913671	2.16593																
0.95754	2.27205	0.915735	2.16604																
0.95946	2.27159	0.917799	2.16615																
0.961381	2.27113	0.919864	2.16626																
0.963303	2.27067	0.921928	2.16637																
0.965225	2.27021	0.923993	2.16648																
0.967147	2.26976	0.926057	2.16658																
0.96907	2.26931	0.928121	2.16669																
0.970994	2.26887	0.930186	2.1668																
0.972918	2.26842	0.93225	2.1669																
0.974843	2.26798	0.934314	2.16701																
0.976768	2.26755	0.936378	2.16711																
0.978694	2.26712	0.938442	2.16722																
0.980621	2.26669	0.940507	2.16732																
0.982548	2.26626	0.942571	2.16742																
0.984475	2.26584	0.944635	2.16753																
0.986403	2.26542	0.946699	2.16763																
0.988332	2.265	0.948763	2.16773																
0.990261	2.26458	0.950827	2.16783																
0.99219	2.26417	0.952891	2.16793																
0.994121	2.26376	0.954955	2.16803																
0.996051	2.26336	0.957019	2.16813																
0.997982	2.26296	0.959083	2.16823																
0.999914	2.26256	0.961147	2.16833																
1.00185	2.26216	0.963211	2.16843																
		0.965275	2.16853																
		0.967339	2.16862																
		0.969403	2.16872																
		0.971466	2.16882																
		0.97353	2.16891																
		0.975594	2.16901																
		0.977658	2.1691																
		0.979722	2.1692																
		0.981785	2.16929																
		0.983849	2.16939																
		0.985913	2.16948																
		0.987976	2.16957																
		0.99004	2.16967																
		0.992104	2.16976																
		0.994167	2.16985																
		0.996231	2.16994																
		0.998294	2.17003																
		1.00036	2.17012																
