Sym0		Asym0		Sym1		Sym2		Sym3		Sym4		Asym1		Asym2		Asym3	
250  Points		498  Points		250  Points		228  Points		211  Points		144  Points		313  Points		236  Points		192  Points	
Freq (MHz)	Vph (m/ms)	Freq (MHz)	Vph (m/ms)	Freq (MHz)	Vph (m/ms)	Freq (MHz)	Vph (m/ms)	Freq (MHz)	Vph (m/ms)	Freq (MHz)	Vph (m/ms)	Freq (MHz)	Vph (m/ms)	Freq (MHz)	Vph (m/ms)	Freq (MHz)	Vph (m/ms)
0.279516	570.668	0.000277821	0.13494	0.279514	669.771	0.50167	612.12	0.559025	892.786	0.838532	1061.8	0.139768	355.88	0.419266	1039.76	0.698777	1049.66
0.279567	196.671	0.00058455	0.195467	0.279561	207.233	0.501684	286.471	0.559065	358.869	0.838558	487.131	0.139906	105.635	0.419302	314.1	0.698803	437.46
0.27967	118.847	0.00100161	0.255367	0.27966	122.619	0.501707	186.998	0.559139	224.595	0.838602	316.082	0.140193	62.139	0.419375	185.022	0.698852	276.323
0.279822	85.1847	0.00152646	0.31448	0.279809	87.1024	0.501741	138.808	0.559247	163.463	0.838666	233.95	0.140629	44.1144	0.419485	131.158	0.698922	201.954
0.280026	66.4105	0.00215608	0.372662	0.280008	67.5678	0.501784	110.371	0.559389	128.508	0.838748	185.707	0.14121	34.2783	0.419634	101.606	0.699014	159.138
0.280279	54.4413	0.00288687	0.429765	0.280257	55.2144	0.501838	91.609	0.559565	105.885	0.838849	153.968	0.141934	28.0991	0.41982	82.9404	0.699128	131.312
0.280582	46.1486	0.00371476	0.485653	0.280557	46.7011	0.501901	78.303	0.559775	90.0492	0.838969	131.502	0.142798	23.8677	0.420044	70.0844	0.699264	111.777
0.280936	40.0669	0.00463561	0.540236	0.280906	40.4811	0.501975	68.3757	0.560019	78.346	0.839108	114.764	0.143798	20.7963	0.420306	60.6931	0.699421	97.3097
0.281338	35.418	0.00564477	0.593412	0.281305	35.74	0.502059	60.6856	0.560296	69.346	0.839266	101.812	0.144929	18.471	0.420605	53.5339	0.699601	86.1654
0.28179	31.7508	0.00673764	0.645115	0.281753	32.008	0.502154	54.5534	0.560606	62.2107	0.839442	91.4926	0.146187	16.6538	0.420941	47.8968	0.699802	77.3179
0.282291	28.7854	0.00790946	0.695289	0.282251	28.9955	0.50226	49.5496	0.56095	56.416	0.839638	83.0776	0.147567	15.1979	0.421315	43.3443	0.700025	70.124
0.282841	26.3391	0.00915553	0.743899	0.282797	26.5139	0.502377	45.3892	0.561327	51.6172	0.839852	76.0848	0.149064	14.008	0.421726	39.5917	0.700269	64.1604
0.283439	24.2876	0.0104711	0.790916	0.283391	24.4352	0.502505	41.8757	0.561737	47.5786	0.840086	70.1822	0.150674	13.0193	0.422173	36.4459	0.700536	59.1366
0.284085	22.5432	0.0118515	0.836328	0.284033	22.6694	0.502644	38.8694	0.562179	44.1334	0.840338	65.1336	0.15239	12.1865	0.422658	33.7714	0.700824	54.8472
0.284779	21.0424	0.0132924	0.880144	0.284723	21.1516	0.502795	36.2681	0.562654	41.1601	0.840608	60.7663	0.153969	11.5621	0.42318	31.4703	0.701133	51.1423
0.285519	19.7383	0.0147895	0.922365	0.28546	19.8336	0.502958	33.9952	0.563161	38.5685	0.840898	56.9515	0.155373	11.0911	0.423738	29.4699	0.701464	47.9105
0.286306	18.595	0.0163386	0.963021	0.286243	18.6789	0.503133	31.9923	0.5637	36.2898	0.841206	53.5908	0.156574	10.7381	0.424333	27.7154	0.701817	45.0668
0.287139	17.585	0.0179358	1.00213	0.287073	17.6594	0.503321	30.2143	0.564271	34.271	0.841533	50.6078	0.157547	10.4796	0.424964	26.1644	0.702191	42.5454
0.288018	16.6867	0.0195775	1.03973	0.287948	16.753	0.503521	28.6253	0.564873	32.4702	0.841879	47.9424	0.158277	10.3002	0.425631	24.7838	0.702587	40.2947
0.288942	15.8829	0.0212601	1.07586	0.288869	15.9424	0.503734	27.1969	0.565506	30.8542	0.842243	45.5465	0.158749	10.1897	0.426334	23.5473	0.703004	38.2735
0.28991	15.1597	0.0229804	1.11056	0.289833	15.2134	0.503961	25.906	0.566171	29.3961	0.842626	43.3815	0.159437	10.0366	0.427073	22.4337	0.703443	36.4486
0.290922	14.5059	0.0247354	1.14386	0.290842	14.5545	0.504201	24.7337	0.566866	28.0741	0.843028	41.4156	0.160194	9.8774	0.427847	21.4258	0.703903	34.7928
0.291978	13.9122	0.0265222	1.17583	0.291894	13.9565	0.504455	23.6646	0.567591	26.8702	0.843448	39.6227	0.161241	9.67208	0.428657	20.5094	0.704384	33.2838
0.293076	13.371	0.0283381	1.2065	0.292989	13.4114	0.504724	22.6857	0.568346	25.7693	0.843887	37.9809	0.162592	9.42941	0.429501	19.6728	0.704887	31.903
0.294216	12.8757	0.0301807	1.23593	0.294125	12.9127	0.505007	21.7861	0.569131	24.759	0.844344	36.4721	0.164266	9.15884	0.430381	18.9063	0.705411	30.6349
0.295397	12.4209	0.0320479	1.26415	0.295304	12.455	0.505305	20.9566	0.569946	23.8286	0.84482	35.0808	0.166282	8.86972	0.431295	18.2015	0.705956	29.4663
0.296619	12.0021	0.0339373	1.29123	0.296523	12.0335	0.505618	20.1895	0.57079	22.9692	0.845314	33.7939	0.168662	8.57074	0.432243	17.5514	0.706522	28.386
0.297881	11.6153	0.0358472	1.31721	0.297782	11.6443	0.505946	19.478	0.571662	22.173	0.845827	32.6001	0.17111	8.30208	0.433226	16.95	0.707109	27.3845
0.299183	11.2571	0.0377757	1.34212	0.298911	11.3288	0.506291	18.8163	0.572564	21.4334	0.846358	31.4898	0.173623	8.05965	0.434242	16.3923	0.707717	26.4536
0.300523	10.9245	0.0397212	1.36602	0.299897	11.0757	0.506652	18.1995	0.573493	20.7447	0.846907	30.4545	0.176196	7.84003	0.435292	15.8736	0.708346	25.586
0.301901	10.6151	0.0416823	1.38896	0.300728	10.8765	0.507029	17.6233	0.574451	20.1018	0.847474	29.487	0.178827	7.64036	0.436375	15.3902	0.708995	24.7757
0.303316	10.3266	0.0436574	1.41097	0.301395	10.7251	0.507423	17.0837	0.575436	19.5006	0.84806	28.5809	0.181513	7.45823	0.437492	14.9387	0.709666	24.0172
0.304768	10.057	0.0456454	1.4321	0.301892	10.617	0.507835	16.5776	0.576449	18.937	0.848664	27.7305	0.184251	7.29158	0.438641	14.5161	0.710357	23.3057
0.306255	9.80464	0.047645	1.45238	0.302212	10.5493	0.508264	16.1019	0.577489	18.4077	0.849286	26.931	0.187038	7.13867	0.439822	14.1199	0.711069	22.6371
0.307778	9.568	0.0496553	1.47186	0.302676	10.4537	0.50871	15.654	0.578556	17.9098	0.849927	26.1779	0.189872	6.99798	0.441035	13.7476	0.711801	22.0077
0.309335	9.34571	0.0516752	1.49057	0.303184	10.3523	0.509176	15.2316	0.579649	17.4407	0.850585	25.4673	0.19275	6.86821	0.442281	13.3973	0.712554	21.4141
0.310926	9.13658	0.0537039	1.50854	0.303883	10.2183	0.50966	14.8327	0.580769	16.9979	0.851261	24.7959	0.19567	6.74824	0.443558	13.0672	0.713328	20.8534
0.312549	8.93955	0.0554782	1.52363	0.304779	10.0549	0.510162	14.4554	0.581915	16.5793	0.851956	24.1604	0.198631	6.63708	0.444866	12.7557	0.714121	20.3231
0.314205	8.75363	0.056995	1.53609	0.305881	9.86601	0.510684	14.098	0.583086	16.1831	0.852668	23.5582	0.20163	6.53387	0.446205	12.4612	0.714935	19.8207
0.315892	8.57798	0.0582522	1.54613	0.307199	9.65564	0.511226	13.759	0.584284	15.8076	0.853398	22.9866	0.204665	6.43786	0.447574	12.1824	0.715769	19.3442
0.31761	8.41182	0.0592479	1.55389	0.308743	9.42808	0.511788	13.4372	0.585506	15.4512	0.854146	22.4436	0.207735	6.34837	0.448974	11.9183	0.716623	18.8916
0.319358	8.25443	0.059981	1.55951	0.310321	9.21412	0.51237	13.1313	0.586753	15.1125	0.854912	21.9269	0.210837	6.26481	0.450404	11.6677	0.717498	18.4612
0.321135	8.10518	0.0604506	1.56306	0.311932	9.01263	0.512973	12.8401	0.588025	14.7904	0.855695	21.4348	0.213972	6.18667	0.451674	11.4596	0.718392	18.0514
0.322942	7.9635	0.061126	1.56812	0.313576	8.82262	0.513597	12.5628	0.589322	14.4835	0.856496	20.9655	0.217136	6.11346	0.452774	11.2892	0.719306	17.6609
0.324776	7.82887	0.061861	1.57354	0.315251	8.64319	0.514242	12.2983	0.590642	14.1911	0.857315	20.5176	0.220329	6.04479	0.453697	11.1531	0.720239	17.2884
0.326637	7.70078	0.0628616	1.58079	0.316957	8.47352	0.514909	12.0458	0.591987	13.9119	0.858151	20.0897	0.223549	5.98028	0.454433	11.0483	0.721192	16.9326
0.328525	7.57883	0.0641286	1.58977	0.318694	8.3129	0.515598	11.8046	0.593355	13.6453	0.859005	19.6804	0.226795	5.91958	0.454979	10.9728	0.722165	16.5925
0.330439	7.46259	0.0656633	1.60036	0.320461	8.16065	0.516216	11.6031	0.594747	13.3904	0.859876	19.2886	0.230066	5.8624	0.455331	10.9251	0.723158	16.267
0.332379	7.3517	0.0674666	1.61241	0.322256	8.01617	0.516757	11.4374	0.596162	13.1465	0.860764	18.9133	0.233362	5.80847	0.455839	10.8576	0.724169	15.9554
0.334344	7.24584	0.0695397	1.62575	0.324079	7.87893	0.517214	11.3043	0.597601	12.9129	0.86167	18.5534	0.23668	5.75754	0.456394	10.7853	0.7252	15.6567
0.336332	7.14467	0.0716164	1.63861	0.325931	7.74843	0.517582	11.2015	0.599061	12.689	0.862593	18.208	0.24002	5.70938	0.457155	10.689	0.72625	15.3702
0.338345	7.04793	0.0736962	1.651	0.327809	7.62421	0.517856	11.1273	0.600545	12.4743	0.863533	17.8762	0.24338	5.6638	0.458127	10.5703	0.72732	15.0952
0.34038	6.95535	0.0757789	1.66295	0.329713	7.50585	0.518032	11.0804	0.602051	12.2681	0.86449	17.5574	0.246761	5.62062	0.459317	10.4312	0.728408	14.831
0.342439	6.86668	0.0778641	1.67447	0.331643	7.39299	0.518289	11.0138	0.603578	12.0701	0.865464	17.2508	0.250161	5.57965	0.460732	10.2739	0.729515	14.577
0.344519	6.7817	0.0799515	1.68559	0.333599	7.28526	0.51857	10.9424	0.605128	11.8798	0.866456	16.9557	0.25358	5.54076	0.462382	10.1008	0.730641	14.3327
0.346621	6.70019	0.0820409	1.69632	0.335578	7.18236	0.518958	10.847	0.606496	11.7198	0.867464	16.6714	0.257016	5.50379	0.464058	9.93521	0.731785	14.0975
0.348745	6.62198	0.0841321	1.70668	0.337582	7.08398	0.519456	10.729	0.607675	11.5876	0.868489	16.3975	0.260469	5.46862	0.465762	9.77666	0.732948	13.8709
0.350889	6.54688	0.0862249	1.71669	0.339609	6.98985	0.520071	10.5904	0.608659	11.4811	0.869531	16.1334	0.263938	5.43514	0.467492	9.62474	0.73413	13.6526
0.353054	6.47472	0.0883189	1.72636	0.341658	6.89973	0.520809	10.4329	0.609443	11.3986	0.870589	15.8785	0.267423	5.40323	0.469248	9.47907	0.735329	13.442
0.355239	6.40535	0.0904141	1.7357	0.343731	6.81338	0.52168	10.2589	0.610022	11.3388	0.871664	15.6325	0.270922	5.3728	0.471029	9.33929	0.736548	13.2388
0.357444	6.33862	0.0925104	1.74474	0.345825	6.73059	0.522576	10.0916	0.610394	11.301	0.872756	15.3949	0.274436	5.34375	0.472837	9.20507	0.737784	13.0426
0.359669	6.27441	0.0946076	1.75348	0.34794	6.65116	0.523497	9.93071	0.610931	11.2472	0.873864	15.1652	0.277963	5.31599	0.474669	9.07612	0.739038	12.853
0.361914	6.21259	0.0967054	1.76193	0.350077	6.5749	0.524444	9.77589	0.611518	11.1895	0.874989	14.9431	0.281504	5.28946	0.476526	8.95215	0.74031	12.6699
0.364177	6.15304	0.0988038	1.77012	0.352234	6.50164	0.525417	9.62683	0.612319	11.1121	0.87613	14.7282	0.285057	5.26406	0.478407	8.83289	0.7416	12.4927
0.36646	6.09565	0.100903	1.77804	0.354411	6.43124	0.526416	9.48326	0.61334	11.0162	0.877287	14.5202	0.288622	5.23975	0.480313	8.71811	0.742908	12.3214
0.368762	6.04034	0.103002	1.78572	0.356609	6.36353	0.527443	9.3449	0.614585	10.9031	0.878461	14.3189	0.292199	5.21645	0.482242	8.60756	0.744233	12.1555
0.371084	5.98699	0.105102	1.79316	0.358826	6.29838	0.528496	9.21151	0.616059	10.774	0.87965	14.1238	0.295787	5.19411	0.484195	8.50105	0.745402	12.0153
0.373424	5.93553	0.107202	1.80037	0.361063	6.23567	0.529577	9.08285	0.61777	10.6307	0.880856	13.9347	0.299386	5.17267	0.486171	8.39836	0.746409	11.8988
0.375785	5.88588	0.109302	1.80735	0.36332	6.17527	0.530685	8.9587	0.619501	10.4923	0.882078	13.7513	0.302994	5.15209	0.48817	8.29932	0.747249	11.8045
0.378164	5.83796	0.111402	1.81413	0.365596	6.11708	0.531822	8.83887	0.621252	10.3585	0.883315	13.5735	0.306613	5.13231	0.490191	8.20374	0.747918	11.7312
0.380564	5.7917	0.113502	1.82071	0.36789	6.061	0.532987	8.72316	0.623023	10.2291	0.884569	13.4009	0.31024	5.11329	0.492235	8.11146	0.748412	11.678
0.382983	5.74704	0.115602	1.82709	0.370205	6.00692	0.534181	8.61139	0.624813	10.1039	0.885838	13.2333	0.313877	5.09499	0.494301	8.02233	0.74873	11.6442
0.385424	5.70391	0.117703	1.83329	0.372538	5.95476	0.535404	8.50338	0.626623	9.9828	0.887122	13.0706	0.317522	5.07737	0.496388	7.9362	0.749187	11.5961
0.387885	5.66226	0.119803	1.83931	0.374891	5.90443	0.536656	8.39898	0.628451	9.8655	0.888423	12.9125	0.321176	5.0604	0.498496	7.85293	0.749687	11.5444
0.390367	5.62204	0.121903	1.84516	0.377263	5.85587	0.537937	8.29804	0.630299	9.75187	0.889739	12.7588	0.324837	5.04404	0.500625	7.77239	0.750371	11.475
0.392872	5.58319	0.124002	1.85084	0.379655	5.80899	0.539249	8.20042	0.632165	9.64176	0.89107	12.6095	0.328506	5.02826	0.502775	7.69447	0.751241	11.3886
0.395399	5.54568	0.126102	1.85636	0.382067	5.76373	0.540591	8.10597	0.63405	9.53502	0.892417	12.4642	0.332181	5.01303	0.504945	7.61905	0.752301	11.2863
0.39795	5.50946	0.128201	1.86173	0.384499	5.72003	0.541963	8.01458	0.635953	9.43149	0.893603	12.3408	0.335864	4.99833	0.507135	7.54601	0.753557	11.1691
0.400525	5.47449	0.130301	1.86696	0.386952	5.67782	0.543365	7.92612	0.637875	9.33106	0.894623	12.2379	0.339553	4.98412	0.509346	7.47527	0.755014	11.0382
0.403124	5.44073	0.132399	1.87204	0.389427	5.63707	0.544799	7.84047	0.639814	9.23359	0.895473	12.1544	0.343248	4.97039	0.511575	7.40671	0.756487	10.9111
0.405749	5.40816	0.134498	1.87698	0.391923	5.59771	0.546264	7.75753	0.641772	9.13895	0.896149	12.0893	0.346949	4.9571	0.513824	7.34025	0.757977	10.7877
0.408401	5.37674	0.136596	1.8818	0.394442	5.5597	0.54776	7.6772	0.643747	9.04705	0.896649	12.042	0.350656	4.94424	0.516092	7.27581	0.759483	10.6676
0.411081	5.34643	0.138694	1.88649	0.396984	5.52299	0.549287	7.59938	0.64574	8.95776	0.896969	12.0119	0.354368	4.93179	0.518378	7.21329	0.761005	10.5509
0.413789	5.31722	0.140792	1.89105	0.399549	5.48755	0.550846	7.52396	0.64775	8.87099	0.897432	11.9691	0.358084	4.91973	0.520682	7.15263	0.762544	10.4375
0.416526	5.28907	0.142889	1.89551	0.402139	5.45335	0.552438	7.45088	0.649777	8.78664	0.897936	11.9229	0.361806	4.90803	0.523005	7.09375	0.764098	10.327
0.419294	5.26196	0.144986	1.89984	0.404755	5.42033	0.554061	7.38003	0.651821	8.70462	0.898625	11.8608	0.365532	4.89669	0.525346	7.03657	0.765668	10.2196
0.422093	5.23587	0.147083	1.90407	0.407396	5.38848	0.555716	7.31134	0.653883	8.62483	0.899501	11.7833	0.369262	4.88568	0.527704	6.98104	0.767254	10.1149
0.424924	5.21077	0.149179	1.90819	0.410065	5.35775	0.557403	7.24474	0.655961	8.5472	0.900568	11.6913	0.372996	4.87499	0.530079	6.92708	0.768856	10.0131
0.427788	5.18663	0.151275	1.91222	0.412762	5.32813	0.559123	7.18014	0.658055	8.47165	0.901831	11.5856	0.376734	4.8646	0.532471	6.87464	0.770473	9.91384
0.430686	5.16344	0.153371	1.91614	0.415488	5.29958	0.560875	7.11749	0.660166	8.3981	0.903293	11.4671	0.380475	4.85451	0.53488	6.82366	0.772106	9.81716
0.433619	5.14117	0.155466	1.91997	0.418244	5.27209	0.56266	7.0567	0.662293	8.32647	0.90477	11.3516	0.384219	4.84469	0.537306	6.77409	0.773754	9.72293
0.436586	5.1198	0.157561	1.92371	0.421032	5.24561	0.564477	6.99773	0.664437	8.2567	0.906262	11.2389	0.387966	4.83513	0.539748	6.72587	0.775417	9.63107
0.439202	5.1019	0.159656	1.92736	0.42385	5.22014	0.566327	6.94049	0.666596	8.18873	0.907768	11.129	0.391716	4.82583	0.542206	6.67896	0.777094	9.5415
0.441453	5.08714	0.16175	1.93092	0.426702	5.19564	0.568209	6.88495	0.668771	8.12248	0.909289	11.0218	0.395469	4.81677	0.54468	6.6333	0.778787	9.45413
0.443329	5.0753	0.163844	1.9344	0.429587	5.17209	0.570124	6.83103	0.670962	8.05791	0.910824	10.9171	0.399223	4.80794	0.547169	6.58886	0.780495	9.36889
0.444823	5.06615	0.165938	1.9378	0.432506	5.14948	0.572071	6.77869	0.673168	7.99494	0.912373	10.8149	0.40298	4.79933	0.549674	6.54558	0.782217	9.28572
0.445927	5.05955	0.168031	1.94113	0.435461	5.12777	0.574051	6.72787	0.675389	7.93354	0.913936	10.7151	0.406738	4.79093	0.552193	6.50343	0.783954	9.20453
0.446635	5.05537	0.170124	1.94438	0.438451	5.10695	0.576063	6.67853	0.677626	7.87364	0.915513	10.6176	0.410498	4.78273	0.554728	6.46237	0.785706	9.12527
0.447658	5.04945	0.172217	1.94756	0.441477	5.08699	0.578107	6.63061	0.679878	7.8152	0.917105	10.5223	0.414259	4.77473	0.557277	6.42236	0.787471	9.04787
0.448774	5.04311	0.174309	1.95067	0.444539	5.06787	0.580184	6.58406	0.682145	7.75817	0.91871	10.4293	0.418022	4.7669	0.559841	6.38337	0.789251	8.97227
0.450299	5.03464	0.176401	1.95371	0.447638	5.04956	0.582292	6.53885	0.684426	7.7025	0.92033	10.3383	0.421785	4.75925	0.562419	6.34536	0.791045	8.89842
0.45224	5.02419	0.178492	1.95668	0.450774	5.03205	0.584432	6.49493	0.686722	7.64815	0.921963	10.2494	0.425549	4.75177	0.565011	6.30829	0.792853	8.82625
0.454605	5.01194	0.180584	1.95959	0.453946	5.0153	0.586604	6.45226	0.689033	7.59507	0.923609	10.1624	0.429314	4.74445	0.567617	6.27214	0.794674	8.75572
0.457406	4.99808	0.182675	1.96244	0.457155	4.99929	0.588807	6.41079	0.691358	7.54323	0.925269	10.0774	0.433079	4.73728	0.570236	6.23687	0.79651	8.68677
0.460654	4.98284	0.184765	1.96523	0.4604	4.984	0.591041	6.37049	0.693698	7.49259	0.926943	9.99421	0.436844	4.73025	0.572869	6.20247	0.798359	8.61935
0.463938	4.96829	0.186856	1.96796	0.463681	4.9694	0.593306	6.33133	0.696051	7.44311	0.92863	9.91282	0.440608	4.72336	0.575516	6.16889	0.800221	8.55342
0.467257	4.9544	0.188946	1.97064	0.466998	4.95546	0.595601	6.29325	0.698418	7.39475	0.930331	9.83318	0.444373	4.71661	0.578175	6.13611	0.802097	8.48893
0.470611	4.94115	0.191036	1.97326	0.470349	4.94216	0.597927	6.25624	0.700799	7.34748	0.932045	9.75523	0.448137	4.70998	0.580847	6.10412	0.803986	8.42584
0.473998	4.9285	0.193125	1.97583	0.473733	4.92947	0.600284	6.22026	0.703194	7.30127	0.933772	9.67892	0.4519	4.70348	0.583532	6.07287	0.805888	8.36411
0.477419	4.91644	0.195214	1.97835	0.477151	4.91736	0.602669	6.18526	0.705603	7.25608	0.935512	9.60421	0.455662	4.69709	0.58623	6.04236	0.807804	8.30369
0.480871	4.90494	0.197303	1.98081	0.480602	4.90581	0.605085	6.15123	0.708025	7.21189	0.937265	9.53104	0.459423	4.6908	0.58894	6.01255	0.809732	8.24455
0.484355	4.89396	0.199392	1.98323	0.484083	4.8948	0.607529	6.11814	0.71046	7.16867	0.939031	9.45938	0.463183	4.68463	0.591662	5.98343	0.811673	8.18665
0.487869	4.88349	0.20148	1.9856	0.487594	4.88429	0.610002	6.08594	0.712909	7.12638	0.94081	9.38917	0.466941	4.67855	0.594396	5.95498	0.813626	8.12996
0.491412	4.8735	0.203569	1.98793	0.491135	4.87426	0.612504	6.05462	0.71537	7.085	0.942602	9.32039	0.470697	4.67257	0.597143	5.92716	0.815593	8.07443
0.494982	4.86397	0.205657	1.99021	0.494703	4.8647	0.615034	6.02414	0.717845	7.0445	0.944406	9.25299	0.474451	4.66667	0.599901	5.89998	0.817571	8.02005
0.49858	4.85487	0.207744	1.99245	0.498299	4.85556	0.617591	5.99449	0.720332	7.00487	0.946223	9.18693	0.478204	4.66087	0.602671	5.8734	0.819562	7.96676
0.502202	4.84618	0.209832	1.99464	0.50192	4.84685	0.620176	5.96562	0.722832	6.96607	0.948052	9.12217	0.481953	4.65514	0.605452	5.84741	0.821566	7.91456
0.50585	4.83788	0.211919	1.9968	0.505565	4.83852	0.622787	5.93753	0.725345	6.92808	0.949894	9.05869	0.4857	4.64949	0.608245	5.822	0.823581	7.8634
0.50952	4.82995	0.214006	1.99892	0.509234	4.83056	0.625425	5.91018	0.72787	6.89087	0.951748	8.99643	0.489445	4.64392	0.611049	5.79714	0.825608	7.81325
0.513213	4.82237	0.216092	2.00099	0.512925	4.82294	0.628089	5.88356	0.730408	6.85444	0.953615	8.93538	0.493186	4.63841	0.613864	5.77282	0.827648	7.76409
0.516927	4.81511	0.218179	2.00303	0.516637	4.81566	0.630779	5.85763	0.732958	6.81875	0.955494	8.87551	0.496924	4.63297	0.61669	5.74903	0.829699	7.71589
0.520661	4.80816	0.220265	2.00503	0.52037	4.80869	0.633494	5.83238	0.73552	6.78378	0.957385	8.81677	0.500659	4.6276	0.619528	5.72574	0.831762	7.66863
0.524413	4.8015	0.222351	2.007	0.524121	4.80201	0.636233	5.80778	0.738094	6.74953	0.959287	8.75913	0.50439	4.62228	0.622376	5.70296	0.833836	7.62228
0.528184	4.79512	0.224437	2.00893	0.52789	4.79561	0.638997	5.78383	0.74068	6.71596	0.961202	8.70258	0.508117	4.61701	0.625234	5.68066	0.835922	7.57682
0.531972	4.789	0.226522	2.01083	0.531676	4.78947	0.641786	5.76048	0.743278	6.68305	0.963129	8.64708	0.51184	4.6118	0.628104	5.65883	0.838019	7.53222
0.535775	4.78312	0.228608	2.0127	0.535479	4.78357	0.644597	5.73774	0.745888	6.6508	0.965067	8.59261	0.515558	4.60663	0.630984	5.63745	0.840128	7.48846
0.539593	4.77747	0.230693	2.01453	0.539296	4.7779	0.647432	5.71557	0.748509	6.61919	0.967018	8.53914	0.519272	4.60151	0.633874	5.61652	0.842248	7.44553
0.543426	4.77204	0.232778	2.01633	0.543127	4.77246	0.65029	5.69396	0.751142	6.58819	0.968979	8.48664	0.522982	4.59643	0.636775	5.59603	0.844378	7.40339
0.547272	4.76681	0.234863	2.0181	0.546972	4.76721	0.653169	5.6729	0.753787	6.55779	0.970953	8.43509	0.526686	4.59139	0.639686	5.57596	0.84652	7.36203
0.55113	4.76178	0.236947	2.01985	0.55083	4.76216	0.656071	5.65236	0.756442	6.52798	0.972937	8.38447	0.530385	4.58639	0.642608	5.5563	0.848673	7.32142
0.555	4.75692	0.239031	2.02156	0.554699	4.75729	0.658994	5.63234	0.759109	6.49875	0.974934	8.33475	0.534079	4.58141	0.645539	5.53704	0.850836	7.28156
0.558881	4.75223	0.241116	2.02324	0.558579	4.75259	0.661938	5.6128	0.761787	6.47007	0.976941	8.28592	0.537767	4.57647	0.648481	5.51817	0.853011	7.24242
0.562772	4.74771	0.2432	2.0249	0.562469	4.74805	0.664903	5.59375	0.764476	6.44193	0.97896	8.23794	0.541449	4.57156	0.651432	5.49969	0.855195	7.20398
0.566672	4.74333	0.245284	2.02653	0.566369	4.74366	0.667888	5.57517	0.767176	6.41432	0.98099	8.1908	0.545125	4.56668	0.654394	5.48157	0.857391	7.16623
0.570582	4.73909	0.247367	2.02813	0.570277	4.73942	0.670893	5.55703	0.769887	6.38723	0.983031	8.14449	0.548794	4.56181	0.657366	5.46383	0.859596	7.12915
0.5745	4.73499	0.249451	2.02971	0.574194	4.73531	0.673918	5.53933	0.772609	6.36065	0.985082	8.09897	0.552457	4.55697	0.660347	5.44643	0.861812	7.09272
0.578425	4.73101	0.251534	2.03126	0.578119	4.73132	0.676961	5.52206	0.775341	6.33456	0.987145	8.05423	0.556113	4.55214	0.663339	5.42938	0.864039	7.05693
0.582357	4.72715	0.253617	2.03279	0.582051	4.72745	0.680023	5.5052	0.778084	6.30894	0.989219	8.01026	0.559762	4.54733	0.66634	5.41267	0.866275	7.02177
0.586296	4.7234	0.2557	2.0343	0.585989	4.72369	0.683103	5.48873	0.780838	6.2838	0.991303	7.96703	0.563404	4.54253	0.669351	5.39629	0.868522	6.98721
0.590241	4.71976	0.257783	2.03578	0.589934	4.72004	0.686201	5.47266	0.783602	6.25911	0.993398	7.92453	0.567038	4.53774	0.672372	5.38023	0.870778	6.95324
0.594191	4.71621	0.259866	2.03724	0.593884	4.71648	0.689317	5.45696	0.786376	6.23487	0.995504	7.88274	0.570664	4.53296	0.675403	5.36449	0.873044	6.91986
0.598147	4.71276	0.261948	2.03867	0.597839	4.71302	0.69245	5.44163	0.789161	6.21107	0.99762	7.84165	0.574282	4.52819	0.678443	5.34905	0.875321	6.88704
0.602107	4.70939	0.264031	2.04008	0.601799	4.70964	0.6956	5.42665	0.791956	6.18769	0.999747	7.80123	0.577892	4.52342	0.681493	5.33392	0.877606	6.85478
0.606071	4.7061	0.266113	2.04148	0.605762	4.70635	0.698766	5.41201	0.794761	6.16473	1.00188	7.76148	0.581493	4.51866	0.684553	5.31908	0.879902	6.82305
0.610039	4.70288	0.268195	2.04285	0.60973	4.70313	0.701949	5.39771	0.797576	6.14218			0.585085	4.51389	0.687623	5.30453	0.882207	6.79186
0.61401	4.69974	0.270277	2.0442	0.613701	4.69998	0.705147	5.38373	0.800401	6.12002			0.588669	4.50912	0.690702	5.29026	0.884521	6.76118
0.617984	4.69667	0.272359	2.04553	0.617675	4.6969	0.70836	5.37007	0.803236	6.09826			0.592242	4.50435	0.693791	5.27627	0.886845	6.73101
0.621961	4.69366	0.274441	2.04684	0.621652	4.69389	0.711589	5.35671	0.80608	6.07687			0.595807	4.49958	0.696889	5.26254	0.889179	6.70133
0.62594	4.6907	0.276523	2.04814	0.62563	4.69093	0.714833	5.34365	0.808935	6.05585			0.599361	4.49479	0.699997	5.24908	0.891521	6.67214
0.629921	4.6878	0.278604	2.04941	0.629611	4.68803	0.718091	5.33088	0.811799	6.0352			0.602905	4.49	0.703115	5.23588	0.893873	6.64341
0.633903	4.68496	0.280685	2.05067	0.633593	4.68518	0.721364	5.31839	0.814673	6.0149			0.606439	4.4852	0.706243	5.22294	0.896234	6.61515
0.637887	4.68216	0.282767	2.05191	0.637577	4.68238	0.72465	5.30617	0.817556	5.99495			0.609963	4.48038	0.70938	5.21024	0.898604	6.58734
0.641871	4.6794	0.284848	2.05313	0.641561	4.67962	0.727951	5.29422	0.820449	5.97534			0.613475	4.47555	0.712527	5.19778	0.900983	6.55998
0.645857	4.67669	0.286929	2.05433	0.645547	4.6769	0.731264	5.28252	0.823352	5.95607			0.616976	4.47071	0.715684	5.18557	0.903371	6.53305
0.649842	4.67402	0.28901	2.05552	0.649532	4.67423	0.734591	5.27108	0.826264	5.93711			0.620466	4.46585	0.71885	5.17359	0.905767	6.50654
0.653828	4.67138	0.29109	2.05669	0.653518	4.67159	0.737931	5.25988	0.829185	5.91848			0.623945	4.46097	0.722027	5.16183	0.908173	6.48045
0.657813	4.66878	0.293171	2.05784	0.657503	4.66898	0.741283	5.24891	0.832115	5.90016			0.627411	4.45607	0.725213	5.1503	0.910587	6.45476
0.661798	4.6662	0.295252	2.05898	0.661488	4.6664	0.744647	5.23818	0.835054	5.88214			0.630866	4.45115	0.728408	5.139	0.91301	6.42947
0.665782	4.66366	0.297332	2.0601	0.665472	4.66386	0.748024	5.22767	0.838003	5.86443			0.634308	4.44621	0.731614	5.1279	0.915441	6.40458
0.669765	4.66114	0.299412	2.06121	0.669456	4.66133	0.751413	5.21738	0.840961	5.847			0.637737	4.44124	0.734829	5.11702	0.917882	6.38006
0.673747	4.65864	0.301493	2.06231	0.673438	4.65884	0.754813	5.20731	0.843928	5.82987			0.641154	4.43625	0.738054	5.10635	0.92033	6.35592
0.677728	4.65617	0.303573	2.06338	0.677418	4.65636	0.758225	5.19744	0.846904	5.81301			0.644557	4.43124	0.741289	5.09589	0.922787	6.33214
0.681707	4.65372	0.305653	2.06445	0.681397	4.65391	0.761648	5.18777	0.849889	5.79643			0.647948	4.4262	0.744534	5.08562	0.925253	6.30873
0.685683	4.65128	0.307733	2.0655	0.685374	4.65147	0.765082	5.1783	0.852883	5.78012			0.651325	4.42112	0.747788	5.07555	0.927727	6.28567
0.689658	4.64886	0.309813	2.06653	0.689349	4.64905	0.768527	5.16902	0.855885	5.76407			0.654688	4.41603	0.751052	5.06567	0.930209	6.26295
0.69363	4.64646	0.311892	2.06756	0.693321	4.64665	0.771983	5.15993	0.858897	5.74829			0.658037	4.4109	0.754326	5.05598	0.932699	6.24057
0.6976	4.64407	0.313972	2.06857	0.697291	4.64425	0.775449	5.15102	0.861917	5.73275			0.661372	4.40574	0.75761	5.04647	0.935198	6.21852
0.701567	4.64168	0.316051	2.06957	0.701258	4.64187	0.778925	5.14228	0.864946	5.71747			0.664693	4.40055	0.760903	5.03715	0.937705	6.1968
0.705531	4.63931	0.318131	2.07055	0.705223	4.6395	0.782412	5.13372	0.867984	5.70243			0.667999	4.39532	0.764207	5.02801	0.94022	6.1754
0.709491	4.63695	0.32021	2.07152	0.709183	4.63713	0.785908	5.12533	0.87103	5.68763			0.671291	4.39007	0.76752	5.01904	0.942743	6.15431
0.713449	4.63459	0.32229	2.07248	0.713141	4.63477	0.789414	5.1171	0.874085	5.67306			0.674568	4.38478	0.770842	5.01024	0.945274	6.13353
0.717402	4.63224	0.324369	2.07343	0.717095	4.63242	0.79293	5.10904	0.877149	5.65873			0.677829	4.37946	0.774175	5.00161	0.947813	6.11305
0.721352	4.62989	0.326448	2.07437	0.721045	4.63007	0.796455	5.10113	0.880221	5.64462			0.681075	4.3741	0.777517	4.99315	0.95036	6.09286
0.725298	4.62754	0.328527	2.07529	0.724991	4.62772	0.799989	5.09337	0.883301	5.63074			0.684307	4.36871	0.780868	4.98484	0.952915	6.07297
0.729239	4.62519	0.330606	2.0762	0.728933	4.62538	0.803533	5.08576	0.886391	5.61707			0.687522	4.36329	0.784229	4.9767	0.955478	6.05336
0.733176	4.62285	0.332685	2.07711	0.73287	4.62303	0.807085	5.0783	0.889488	5.60361			0.690722	4.35783	0.7876	4.96871	0.958049	6.03403
0.737109	4.6205	0.334764	2.078	0.736803	4.62068	0.810646	5.07098	0.892594	5.59037			0.693906	4.35233	0.79098	4.96088	0.960628	6.01498
0.741037	4.61815	0.336842	2.07888	0.740731	4.61833	0.814216	5.0638	0.895709	5.57733			0.697074	4.3468	0.79437	4.95319	0.963215	5.99619
0.744959	4.61579	0.338921	2.07975	0.744654	4.61598	0.817795	5.05675	0.898832	5.56449			0.700226	4.34123	0.797769	4.94565	0.965809	5.97767
0.748877	4.61344	0.341	2.08061	0.748572	4.61362	0.821382	5.04984	0.901963	5.55186			0.703362	4.33563	0.801177	4.93826	0.968412	5.95941
0.752789	4.61107	0.343078	2.08146	0.752485	4.61126	0.824977	5.04306	0.905103	5.53941			0.706481	4.32999	0.804594	4.93101	0.971022	5.94141
0.756696	4.6087	0.345156	2.0823	0.756392	4.60889	0.828581	5.0364	0.908251	5.52716			0.709584	4.32432	0.80802	4.92389	0.973639	5.92366
0.760597	4.60632	0.347235	2.08313	0.760294	4.60651	0.832192	5.02987	0.911407	5.5151			0.712671	4.31861	0.811456	4.91691	0.976265	5.90615
0.764493	4.60393	0.349313	2.08395	0.76419	4.60412	0.835812	5.02346	0.914571	5.50322			0.715741	4.31286	0.8149	4.91006	0.978898	5.88889
0.768382	4.60154	0.351391	2.08476	0.76808	4.60172	0.839439	5.01716	0.917744	5.49153			0.718795	4.30708	0.818353	4.90334	0.981539	5.87187
0.772265	4.59913	0.353469	2.08556	0.771963	4.59932	0.843074	5.01099	0.920925	5.48001			0.721832	4.30127	0.821815	4.89674	0.984188	5.85508
0.776142	4.59671	0.355548	2.08635	0.77584	4.5969	0.846717	5.00492	0.924115	5.46867			0.724852	4.29542	0.825285	4.89027	0.986844	5.83852
0.780012	4.59428	0.357626	2.08713	0.779711	4.59447	0.850367	4.99897	0.927312	5.4575			0.727856	4.28953	0.828764	4.88392	0.989508	5.82219
0.783875	4.59184	0.359704	2.08791	0.783575	4.59203	0.854025	4.99312	0.930518	5.4465			0.730842	4.28362	0.832251	4.87769	0.992179	5.80608
0.787732	4.58939	0.361781	2.08867	0.787432	4.58958	0.85769	4.98738	0.933731	5.43567			0.733812	4.27766	0.835746	4.87158	0.994858	5.79018
0.791582	4.58692	0.363859	2.08943	0.791282	4.58711	0.861362	4.98175	0.936953	5.425			0.736766	4.27168	0.83925	4.86557	0.997545	5.77451
0.795424	4.58443	0.365937	2.09018	0.795126	4.58462	0.865041	4.97621	0.940184	5.4145			0.739702	4.26566	0.842761	4.85968	1.00024	5.75904
0.799259	4.58193	0.368015	2.09092	0.798961	4.58213	0.868727	4.97077	0.943422	5.40415			0.742621	4.25961	0.84628	4.8539		
0.803087	4.57941	0.370092	2.09165	0.80279	4.57961	0.87242	4.96543	0.946668	5.39396			0.745524	4.25353	0.849807	4.84822		
0.806907	4.57688	0.37217	2.09237	0.80661	4.57708	0.87612	4.96019	0.949923	5.38392			0.74841	4.24742	0.853342	4.84264		
0.81072	4.57433	0.374248	2.09309	0.810423	4.57453	0.879827	4.95504	0.953186	5.37404			0.751279	4.24127	0.856883	4.83716		
0.814524	4.57176	0.376325	2.0938	0.814228	4.57197	0.88354	4.94998	0.956456	5.3643			0.754131	4.2351	0.860432	4.83179		
0.818321	4.56918	0.378402	2.0945	0.818025	4.56938	0.88726	4.94501	0.959735	5.35471			0.756967	4.2289	0.863988	4.8265		
0.822109	4.56657	0.38048	2.09519	0.821814	4.56678	0.890986	4.94012	0.963022	5.34526			0.759786	4.22267	0.867551	4.82131		
0.825889	4.56395	0.382557	2.09588	0.825595	4.56416	0.894719	4.93532	0.966318	5.33596			0.762588	4.21641	0.871121	4.81621		
0.82966	4.56131	0.384634	2.09656	0.829367	4.56151	0.898458	4.9306	0.969621	5.32679			0.765374	4.21012	0.874697	4.8112		
0.833423	4.55865	0.386712	2.09723	0.833131	4.55885	0.902202	4.92597	0.972932	5.31776			0.768143	4.20381	0.878279	4.80628		
0.837177	4.55596	0.388789	2.09789	0.836885	4.55617	0.905953	4.92141	0.976251	5.30887			0.770896	4.19747	0.881868	4.80143		
0.840923	4.55326	0.390866	2.09855	0.840632	4.55347	0.90971	4.91694	0.979579	5.30011			0.773632	4.19111	0.885463	4.79667		
0.844659	4.55053	0.392943	2.0992	0.844369	4.55075	0.913473	4.91254	0.982914	5.29149			0.776352	4.18472	0.889063	4.79199		
0.848386	4.54779	0.39502	2.09985	0.848097	4.548	0.917241	4.90821	0.986258	5.28299			0.779056	4.17831	0.892669	4.78739		
0.852105	4.54502	0.397097	2.10048	0.851816	4.54523	0.921016	4.90396	0.989609	5.27462			0.781743	4.17188	0.896281	4.78286		
0.855813	4.54223	0.399174	2.10112	0.855525	4.54245	0.924795	4.89977	0.992969	5.26637			0.784415	4.16543	0.899898	4.7784		
0.859513	4.53942	0.40125	2.10174	0.859226	4.53964	0.92858	4.89566	0.996337	5.25825			0.78707	4.15895	0.90352	4.77402		
0.863203	4.53658	0.403327	2.10236	0.862916	4.5368	0.932371	4.89162	0.999713	5.25025			0.78971	4.15246	0.907147	4.7697		
0.866884	4.53373	0.405404	2.10297	0.866598	4.53395	0.936166	4.88764	1.0031	5.24237			0.792334	4.14594	0.910779	4.76545		
0.870554	4.53085	0.407481	2.10358	0.870269	4.53107	0.939967	4.88373					0.794942	4.13941	0.914415	4.76127		
0.874215	4.52794	0.409557	2.10418	0.873931	4.52817	0.943773	4.87988					0.797534	4.13286	0.918056	4.75714		
0.877867	4.52502	0.411634	2.10477	0.877583	4.52525	0.947583	4.87609					0.800111	4.12629	0.921701	4.75308		
0.881508	4.52207	0.41371	2.10536	0.881225	4.5223	0.951399	4.87236					0.802673	4.1197	0.925349	4.74908		
0.885139	4.5191	0.415787	2.10594	0.884857	4.51933	0.955219	4.8687					0.805219	4.11311	0.929002	4.74514		
0.88876	4.51611	0.417863	2.10652	0.888479	4.51634	0.959044	4.86509					0.807751	4.10649	0.932659	4.74125		
0.892371	4.51309	0.41994	2.10709	0.892091	4.51332	0.962873	4.86154					0.810267	4.09986	0.936318	4.73742		
0.895972	4.51005	0.422016	2.10765	0.895692	4.51028	0.966707	4.85804					0.812768	4.09322	0.939982	4.73364		
0.899563	4.50698	0.424093	2.10821	0.899284	4.50722	0.970544	4.8546					0.815255	4.08657	0.943648	4.72991		
0.903143	4.5039	0.426169	2.10877	0.902865	4.50414	0.974386	4.8512					0.817727	4.07991	0.947317	4.72623		
0.906712	4.50079	0.428245	2.10932	0.906435	4.50103	0.978232	4.84786					0.820184	4.07323	0.950989	4.7226		
0.910272	4.49765	0.430321	2.10986	0.909995	4.4979	0.982082	4.84457					0.822627	4.06655	0.954663	4.71901		
0.91382	4.4945	0.432397	2.1104	0.913545	4.49474	0.985935	4.84133					0.825056	4.05986	0.95834	4.71547		
0.917359	4.49132	0.434474	2.11093	0.917084	4.49157	0.989792	4.83814					0.82747	4.05316	0.962019	4.71197		
0.920886	4.48812	0.43655	2.11146	0.920612	4.48837	0.993653	4.83499					0.829871	4.04645	0.9657	4.70851		
0.924403	4.48489	0.438626	2.11199	0.92413	4.48515	0.997516	4.83188					0.832258	4.03974	0.969383	4.7051		
0.92791	4.48165	0.440702	2.11251	0.927637	4.4819	1.00138	4.82882					0.83463	4.03301	0.973068	4.70172		
0.931405	4.47838	0.442778	2.11302	0.931134	4.47863							0.83699	4.02629	0.976754	4.69838		
0.93489	4.47509	0.444854	2.11353	0.934619	4.47534							0.839336	4.01956	0.980442	4.69508		
0.938364	4.47177	0.44693	2.11403	0.938094	4.47203							0.841668	4.01283	0.98413	4.69181		
0.941827	4.46844	0.449005	2.11453	0.941558	4.4687							0.843988	4.00609	0.98782	4.68857		
0.94528	4.46508	0.451081	2.11503	0.945012	4.46534							0.846294	3.99935	0.991511	4.68537		
0.948722	4.4617	0.453157	2.11552	0.948454	4.46196							0.848588	3.99261	0.995202	4.6822		
0.952152	4.4583	0.455233	2.11601	0.951886	4.45857							0.850869	3.98587	0.998894	4.67906		
0.955572	4.45488	0.457308	2.11649	0.955307	4.45515							0.853137	3.97913	1.00259	4.67594		
0.958982	4.45144	0.459384	2.11697	0.958717	4.45171							0.855393	3.97239				
0.96238	4.44798	0.46146	2.11744	0.962116	4.44825							0.857636	3.96565				
0.965767	4.44449	0.463535	2.11791	0.965504	4.44476							0.859868	3.95891				
0.969144	4.44099	0.465611	2.11838	0.968881	4.44126							0.862087	3.95217				
0.972509	4.43747	0.467687	2.11884	0.972248	4.43774							0.864294	3.94544				
0.975864	4.43392	0.469762	2.1193	0.975603	4.4342							0.86649	3.93871				
0.979208	4.43036	0.471838	2.11975	0.978948	4.43064							0.868674	3.93199				
0.98254	4.42678	0.473913	2.1202	0.982282	4.42706							0.870846	3.92527				
0.985862	4.42318	0.475988	2.12065	0.985604	4.42346							0.873008	3.91855				
0.989174	4.41956	0.478064	2.12109	0.988916	4.41984							0.875158	3.91184				
0.992474	4.41593	0.480139	2.12153	0.992218	4.41621							0.877297	3.90514				
0.995763	4.41227	0.482215	2.12196	0.995508	4.41256							0.879425	3.89845				
0.999042	4.4086	0.48429	2.12239	0.998787	4.40888							0.881543	3.89176				
1.00231	4.40491	0.486365	2.12282	1.00206	4.40519							0.883649	3.88508				
		0.48844	2.12324									0.885746	3.87841				
		0.490516	2.12366									0.887832	3.87175				
		0.492591	2.12408									0.889908	3.8651				
		0.494666	2.12449									0.891974	3.85846				
		0.496741	2.1249									0.89403	3.85183				
		0.498816	2.12531									0.896076	3.84521				
		0.500891	2.12571									0.898113	3.8386				
		0.502966	2.12611									0.900141	3.83201				
		0.505041	2.12651									0.902159	3.82543				
		0.507116	2.1269									0.904167	3.81886				
		0.509191	2.12729									0.906167	3.8123				
		0.511266	2.12767									0.908158	3.80576				
		0.513341	2.12806									0.91014	3.79923				
		0.515416	2.12844									0.912114	3.79272				
		0.51749	2.12882									0.914079	3.78622				
		0.519565	2.12919									0.916035	3.77974				
		0.52164	2.12956									0.917984	3.77327				
		0.523715	2.12993									0.919924	3.76682				
		0.525789	2.1303									0.921856	3.76039				
		0.527864	2.13066									0.92378	3.75397				
		0.529939	2.13102									0.925697	3.74757				
		0.532014	2.13138									0.927606	3.74119				
		0.534088	2.13173									0.929508	3.73483				
		0.536163	2.13208									0.931402	3.72848				
		0.538237	2.13243									0.933289	3.72215				
		0.540312	2.13278									0.935169	3.71584				
		0.542386	2.13312									0.937042	3.70955				
		0.544461	2.13346									0.938908	3.70328				
		0.546535	2.1338									0.940768	3.69703				
		0.54861	2.13414									0.94262	3.6908				
		0.550684	2.13447									0.944467	3.68458				
		0.552759	2.1348									0.946307	3.67839				
		0.554833	2.13513									0.94814	3.67222				
		0.556907	2.13546									0.949968	3.66607				
		0.558982	2.13578									0.951789	3.65994				
		0.561056	2.1361									0.953604	3.65383				
		0.56313	2.13642									0.955414	3.64774				
		0.565205	2.13674									0.957218	3.64167				
		0.567279	2.13705									0.959016	3.63563				
		0.569353	2.13737									0.960809	3.6296				
		0.571427	2.13768									0.962596	3.6236				
		0.573501	2.13798									0.964378	3.61762				
		0.575576	2.13829									0.966155	3.61166				
		0.57765	2.13859									0.967927	3.60573				
		0.579724	2.13889									0.969693	3.59982				
		0.581798	2.13919									0.971455	3.59393				
		0.583872	2.13949									0.973212	3.58806				
		0.585946	2.13978									0.974965	3.58221				
		0.58802	2.14008									0.976712	3.57639				
		0.590094	2.14037									0.978455	3.57059				
		0.592168	2.14066									0.980194	3.56482				
		0.594242	2.14094									0.981928	3.55907				
		0.596316	2.14123									0.983658	3.55334				
		0.59839	2.14151									0.985384	3.54763				
		0.600464	2.14179									0.987106	3.54195				
		0.602538	2.14207									0.988824	3.53629				
		0.604612	2.14235									0.990538	3.53066				
		0.606685	2.14262									0.992248	3.52504				
		0.608759	2.14289									0.993954	3.51946				
		0.610833	2.14316									0.995657	3.51389				
		0.612907	2.14343									0.997356	3.50835				
		0.614981	2.1437									0.999051	3.50284				
		0.617054	2.14397									1.00074	3.49735				
		0.619128	2.14423														
		0.621202	2.14449														
		0.623276	2.14475														
		0.625349	2.14501														
		0.627423	2.14527														
		0.629497	2.14552														
		0.63157	2.14578														
		0.633644	2.14603														
		0.635717	2.14628														
		0.637791	2.14653														
		0.639865	2.14678														
		0.641938	2.14702														
		0.644012	2.14727														
		0.646085	2.14751														
		0.648159	2.14775														
		0.650232	2.14799														
		0.652305	2.14823														
		0.654379	2.14846														
		0.656452	2.1487														
		0.658526	2.14893														
		0.660599	2.14916														
		0.662673	2.14939														
		0.664746	2.14962														
		0.666819	2.14985														
		0.668892	2.15007														
		0.670966	2.1503														
		0.673039	2.15052														
		0.675112	2.15074														
		0.677186	2.15096														
		0.679259	2.15118														
		0.681332	2.1514														
		0.683405	2.15162														
		0.685478	2.15183														
		0.687552	2.15205														
		0.689625	2.15226														
		0.691698	2.15247														
		0.693771	2.15268														
		0.695844	2.15289														
		0.697917	2.1531														
		0.69999	2.1533														
		0.702063	2.15351														
		0.704136	2.15371														
		0.706209	2.15391														
		0.708282	2.15412														
		0.710355	2.15432														
		0.712428	2.15451														
		0.714501	2.15471														
		0.716574	2.15491														
		0.718647	2.1551														
		0.72072	2.1553														
		0.722793	2.15549														
		0.724866	2.15568														
		0.726939	2.15588														
		0.729012	2.15607														
		0.731084	2.15625														
		0.733157	2.15644														
		0.73523	2.15663														
		0.737303	2.15682														
		0.739376	2.157														
		0.741449	2.15718														
		0.743521	2.15737														
		0.745594	2.15755														
		0.747667	2.15773														
		0.749739	2.15791														
		0.751812	2.15809														
		0.753885	2.15826														
		0.755958	2.15844														
		0.75803	2.15862														
		0.760103	2.15879														
		0.762176	2.15896														
		0.764248	2.15914														
		0.766321	2.15931														
		0.768393	2.15948														
		0.770466	2.15965														
		0.772538	2.15982														
		0.774611	2.15999														
		0.776684	2.16015														
		0.778756	2.16032														
		0.780829	2.16048														
		0.782901	2.16065														
		0.784974	2.16081														
		0.787046	2.16098														
		0.789119	2.16114														
		0.791191	2.1613														
		0.793263	2.16146														
		0.795336	2.16162														
		0.797408	2.16178														
		0.799481	2.16193														
		0.801553	2.16209														
		0.803625	2.16225														
		0.805698	2.1624														
		0.80777	2.16256														
		0.809842	2.16271														
		0.811915	2.16286														
		0.813987	2.16301														
		0.816059	2.16317														
		0.818132	2.16332														
		0.820204	2.16347														
		0.822276	2.16361														
		0.824348	2.16376														
		0.826421	2.16391														
		0.828493	2.16406														
		0.830565	2.1642														
		0.832637	2.16435														
		0.834709	2.16449														
		0.836781	2.16463														
		0.838854	2.16478														
		0.840926	2.16492														
		0.842998	2.16506														
		0.84507	2.1652														
		0.847142	2.16534														
		0.849214	2.16548														
		0.851286	2.16562														
		0.853358	2.16576														
		0.85543	2.1659														
		0.857502	2.16603														
		0.859574	2.16617														
		0.861646	2.1663														
		0.863718	2.16644														
		0.86579	2.16657														
		0.867862	2.16671														
		0.869934	2.16684														
		0.872006	2.16697														
		0.874078	2.1671														
		0.87615	2.16723														
		0.878222	2.16736														
		0.880294	2.16749														
		0.882366	2.16762														
		0.884438	2.16775														
		0.88651	2.16788														
		0.888582	2.168														
		0.890653	2.16813														
		0.892725	2.16826														
		0.894797	2.16838														
		0.896869	2.16851														
		0.898941	2.16863														
		0.901012	2.16875														
		0.903084	2.16888														
		0.905156	2.169														
		0.907228	2.16912														
		0.9093	2.16924														
		0.911371	2.16936														
		0.913443	2.16948														
		0.915515	2.1696														
		0.917586	2.16972														
		0.919658	2.16984														
		0.92173	2.16996														
		0.923801	2.17007														
		0.925873	2.17019														
		0.927945	2.17031														
		0.930016	2.17042														
		0.932088	2.17054														
		0.93416	2.17065														
		0.936231	2.17077														
		0.938303	2.17088														
		0.940374	2.17099														
		0.942446	2.1711														
		0.944517	2.17122														
		0.946589	2.17133														
		0.94866	2.17144														
		0.950732	2.17155														
		0.952803	2.17166														
		0.954875	2.17177														
		0.956946	2.17188														
		0.959018	2.17199														
		0.961089	2.1721														
		0.963161	2.1722														
		0.965232	2.17231														
		0.967304	2.17242														
		0.969375	2.17252														
		0.971447	2.17263														
		0.973518	2.17273														
		0.975589	2.17284														
		0.977661	2.17294														
		0.979732	2.17305														
		0.981803	2.17315														
		0.983875	2.17325														
		0.985946	2.17336														
		0.988017	2.17346														
		0.990089	2.17356														
		0.99216	2.17366														
		0.994231	2.17376														
		0.996303	2.17386														
		0.998374	2.17396														
		1.00045	2.17406														
