Sym0		Asym0		Sym1		Sym2		Sym3		Sym4		Asym1		Asym2		Asym3		Asym4	
502  Points		504  Points		390  Points		255  Points		207  Points		178  Points		454  Points		312  Points		224  Points		172  Points	
Freq (MHz)	Vph (m/ms)	Freq (MHz)	Vph (m/ms)	Freq (MHz)	Vph (m/ms)	Freq (MHz)	Vph (m/ms)	Freq (MHz)	Vph (m/ms)	Freq (MHz)	Vph (m/ms)	Freq (MHz)	Vph (m/ms)	Freq (MHz)	Vph (m/ms)	Freq (MHz)	Vph (m/ms)	Freq (MHz)	Vph (m/ms)
0.00081571	4.52927	0.000147178	0.0982713	0.279502	338.729	0.332424	3084.36	0.559024	734.017	0.838526	4164.06	0.139758	657.293	0.419274	456.838	0.664849	1345.46	0.698772	3969.3
0.0050353	4.52899	0.000386523	0.159105	0.279481	159.081	0.332477	319.852	0.559051	330.157	0.838534	740.056	0.139863	122.224	0.419307	226.718	0.664861	466.296	0.698791	630.827
0.00925421	4.52864	0.000737386	0.219391	0.279445	103.939	0.332616	168.741	0.559099	212.991	0.838552	406.125	0.140113	67.4914	0.419363	150.787	0.664885	282.026	0.698839	342.663
0.0134719	4.5281	0.00119787	0.279045	0.279395	77.176	0.33284	114.659	0.559167	157.216	0.838582	279.858	0.140506	46.7152	0.419441	112.97	0.664922	202.151	0.698916	235.236
0.0176879	4.52739	0.00176514	0.337861	0.279332	61.3657	0.333149	86.8806	0.559256	124.601	0.838622	213.49	0.14104	35.8023	0.419541	90.3298	0.66497	157.542	0.699021	179.106
0.0219016	4.52646	0.00243597	0.395698	0.279258	50.9259	0.333541	69.9797	0.559366	103.203	0.838674	172.572	0.141712	29.0924	0.419664	75.2593	0.665031	129.067	0.699154	144.617
0.0261124	4.52534	0.00320666	0.452418	0.279174	43.5168	0.334015	58.6202	0.559497	88.0852	0.838736	144.821	0.142519	24.5604	0.41981	64.5073	0.665104	109.315	0.699315	121.278
0.0303198	4.52401	0.00407321	0.507912	0.279082	37.9858	0.334569	50.4656	0.559647	76.8381	0.83881	124.763	0.143458	21.302	0.419978	56.4513	0.66519	94.8103	0.699504	104.436
0.034523	4.52248	0.0050313	0.562079	0.278985	33.6991	0.335201	44.331	0.559819	68.1447	0.838894	109.589	0.144524	18.8522	0.420168	50.1912	0.665287	83.7081	0.699722	91.7115
0.0387217	4.52073	0.00607638	0.614837	0.278883	30.2792	0.33591	39.5513	0.560011	61.2245	0.838989	97.7088	0.145714	16.9476	0.42038	45.1874	0.665397	74.9372	0.699968	81.7595
0.042915	4.51878	0.00720388	0.666125	0.278781	27.4875	0.336693	35.7245	0.560224	55.5858	0.839095	88.1558	0.147021	15.4279	0.420615	41.0968	0.66552	67.8334	0.700241	73.764
0.0471025	4.51661	0.008409	0.715885	0.278679	25.1656	0.337549	32.5932	0.560457	50.9032	0.839212	80.3072	0.148442	14.1896	0.420871	37.6908	0.665655	61.963	0.700542	67.2003
0.0512835	4.51422	0.00968707	0.764084	0.278581	23.2044	0.338474	29.985	0.56071	46.9531	0.83934	73.7446	0.149971	13.1634	0.421151	34.8113	0.665804	57.0307	0.700871	61.7161
0.0554572	4.5116	0.0110335	0.810708	0.278488	21.5262	0.339466	27.78	0.560985	43.5763	0.839479	68.176	0.151603	12.3008	0.421452	32.3452	0.665965	52.8284	0.701228	57.0657
0.059623	4.50876	0.0124438	0.855749	0.278404	20.074	0.340524	25.8924	0.561279	40.6567	0.839628	63.3916	0.153333	11.5668	0.421775	30.2099	0.666139	49.2056	0.701612	53.0729
0.0637802	4.50567	0.0139136	0.89921	0.27833	18.8054	0.341645	24.2591	0.561594	38.1077	0.839789	59.2369	0.155157	10.9357	0.422121	28.3432	0.666326	46.0502	0.702023	49.6078
0.0679279	4.50235	0.0154385	0.9411	0.27827	17.6878	0.342827	22.8325	0.56193	35.8632	0.83996	55.5953	0.157068	10.3883	0.422488	26.6977	0.666526	43.2774	0.702461	46.5725
0.0720655	4.49877	0.0170147	0.981441	0.278224	16.6961	0.344068	21.5763	0.562286	33.8718	0.840143	52.3774	0.159064	9.90963	0.422878	25.2365	0.66674	40.8218	0.702926	43.8921
0.076192	4.49494	0.0186383	1.02026	0.278196	15.8105	0.345366	20.4622	0.562662	32.0932	0.840336	49.5134	0.161138	9.48814	0.423289	23.9305	0.666968	38.632	0.703418	41.508
0.0803067	4.49085	0.0203057	1.0576	0.278188	15.015	0.346719	19.4677	0.563058	30.4953	0.84054	46.9482	0.163288	9.11466	0.423722	22.7563	0.667209	36.6672	0.703936	39.3739
0.0844085	4.48647	0.0220134	1.09348	0.278202	14.2968	0.348125	18.5749	0.563475	29.0519	0.840756	44.6373	0.165507	8.78183	0.424178	21.6952	0.667464	34.8945	0.704481	37.4526
0.0884966	4.48182	0.0237583	1.12795	0.278239	13.6454	0.349582	17.7693	0.563912	27.7418	0.840982	42.5448	0.167793	8.48373	0.424655	20.7317	0.667733	33.2872	0.705052	35.714
0.09257	4.47687	0.0255374	1.16106	0.278303	13.0521	0.351089	17.039	0.564369	26.5475	0.841219	40.6412	0.170142	8.21546	0.425153	19.853	0.668016	31.8233	0.705649	34.1333
0.0966275	4.47162	0.0273479	1.19284	0.278395	12.5098	0.352644	16.374	0.564847	25.4544	0.841467	38.9021	0.172549	7.97302	0.425674	19.0486	0.668314	30.4844	0.706272	32.6902
0.100668	4.46605	0.0291871	1.22335	0.278517	12.0124	0.354245	15.7663	0.565345	24.4502	0.841725	37.3071	0.175012	7.75305	0.426216	18.3095	0.668625	29.2553	0.706921	31.3675
0.104691	4.46015	0.0310528	1.25263	0.278671	11.5547	0.355892	15.2089	0.565862	23.5247	0.841995	35.8391	0.177527	7.55273	0.42678	17.6281	0.668952	28.1232	0.707595	30.1509
0.108694	4.45391	0.0329426	1.28073	0.27886	11.1325	0.357582	14.696	0.5664	22.669	0.842276	34.4835	0.179759	7.39234	0.427365	16.9982	0.669293	27.0769	0.708295	29.0283
0.112677	4.44732	0.0348544	1.30769	0.279085	10.7419	0.359314	14.2226	0.566958	21.8756	0.842567	33.228	0.18169	7.26496	0.427972	16.414	0.669649	26.1073	0.70902	27.9893
0.116637	4.44035	0.0367865	1.33356	0.279347	10.3798	0.361088	13.7845	0.567536	21.138	0.84287	32.0619	0.183305	7.16556	0.4286	15.871	0.67002	25.2062	0.70977	27.0249
0.120574	4.433	0.0387369	1.35839	0.27965	10.0434	0.362902	13.3779	0.568134	20.4506	0.843183	30.976	0.184593	7.09049	0.429249	15.3649	0.670406	24.3666	0.710544	26.1276
0.124486	4.42525	0.0407042	1.38222	0.279995	9.73017	0.364754	12.9997	0.568751	19.8085	0.843507	29.9624	0.185547	7.03718	0.42992	14.8923	0.670808	23.5826	0.711344	25.2905
0.128372	4.41708	0.0426867	1.40508	0.280385	9.43812	0.366645	12.6472	0.569389	19.2075	0.843843	29.0141	0.18616	7.00386	0.430613	14.4499	0.671224	22.8489	0.712168	24.508
0.132229	4.40847	0.0446832	1.42703	0.280821	9.16534	0.368573	12.3178	0.570046	18.6437	0.844189	28.125	0.187045	6.95703	0.431326	14.0351	0.671656	22.1608	0.713016	23.7749
0.136056	4.3994	0.0466922	1.44811	0.281305	8.9102	0.370536	12.0095	0.570724	18.1139	0.844546	27.2898	0.188012	6.9075	0.432061	13.6453	0.672104	21.5142	0.713889	23.0868
0.139851	4.38986	0.0487128	1.46835	0.281839	8.67124	0.372535	11.7203	0.571421	17.6151	0.844914	26.5038	0.189334	6.84233	0.432817	13.2785	0.672568	20.9055	0.714785	22.4397
0.143612	4.37982	0.0507438	1.48778	0.282427	8.44718	0.374568	11.4487	0.572137	17.1448	0.845292	25.7627	0.191019	6.76334	0.433594	12.9327	0.673047	20.3316	0.715706	21.83
0.147337	4.36927	0.0527841	1.50645	0.28307	8.23687	0.376634	11.1931	0.572874	16.7006	0.845682	25.0629	0.193075	6.67262	0.434393	12.6062	0.673542	19.7896	0.71665	21.2548
0.151023	4.35818	0.0545691	1.52213	0.28377	8.0393	0.378733	10.9522	0.57363	16.2804	0.846083	24.401	0.195511	6.57238	0.435212	12.2974	0.674052	19.2769	0.717618	20.7112
0.154669	4.34653	0.0560955	1.53507	0.28453	7.85353	0.380864	10.7249	0.574405	15.8825	0.846494	23.7741	0.198336	6.46488	0.436053	12.0051	0.674579	18.7913	0.718609	20.1967
0.158272	4.3343	0.0573607	1.54548	0.285352	7.67876	0.383026	10.51	0.575201	15.505	0.846917	23.1794	0.201192	6.36466	0.436915	11.728	0.675122	18.3307	0.719624	19.7092
0.16183	4.32146	0.0583628	1.55354	0.286121	7.53483	0.385218	10.3067	0.576015	15.1466	0.84735	22.6146	0.204076	6.27106	0.437798	11.465	0.675682	17.8932	0.720662	19.2465
0.165339	4.308	0.0591008	1.55937	0.286817	7.41794	0.387441	10.114	0.57685	14.8058	0.847794	22.0775	0.206986	6.18346	0.438702	11.2151	0.676257	17.4772	0.721723	18.8068
0.168799	4.2939	0.0595734	1.56306	0.287421	7.32513	0.389693	9.93127	0.577703	14.4814	0.84825	21.5661	0.209921	6.10132	0.439627	10.9772	0.676849	17.0812	0.722807	18.3886
0.172205	4.27914	0.0602534	1.56831	0.287917	7.25411	0.391973	9.7577	0.578576	14.1723	0.848716	21.0786	0.212879	6.02417	0.440574	10.7508	0.677457	16.7038	0.723914	17.9904
0.175556	4.2637	0.0609933	1.57393	0.288292	7.20319	0.394282	9.59268	0.579469	13.8774	0.849193	20.6135	0.215859	5.95158	0.441541	10.5349	0.678081	16.3437	0.725043	17.6107
0.178849	4.24756	0.0620006	1.58146	0.288537	7.17115	0.396618	9.43563	0.580381	13.5959	0.84968	20.1692	0.218859	5.88316	0.44253	10.3289	0.678722	15.9999	0.726195	17.2483
0.182082	4.23071	0.0632764	1.59078	0.288897	7.12586	0.398981	9.28602	0.581312	13.3269	0.850179	19.7444	0.221877	5.81857	0.44354	10.1321	0.679379	15.6712	0.727369	16.9022
0.185251	4.21314	0.0648217	1.60176	0.289296	7.07762	0.40137	9.14336	0.582263	13.0695	0.850689	19.3378	0.224912	5.75749	0.444571	9.94401	0.680053	15.3567	0.728566	16.5712
0.188355	4.19485	0.0666376	1.61424	0.289854	7.01363	0.403786	9.00721	0.583232	12.8231	0.85121	18.9483	0.227964	5.69966	0.445624	9.76408	0.680743	15.0555	0.729785	16.2545
0.191392	4.17583	0.0687253	1.62807	0.290586	6.93529	0.406227	8.87717	0.584222	12.587	0.851741	18.5749	0.231029	5.64482	0.446698	9.5918	0.68145	14.7669	0.731026	15.9511
0.194359	4.15609	0.0708167	1.64139	0.29151	6.84428	0.408693	8.75285	0.58523	12.3606	0.852284	18.2166	0.234108	5.59273	0.447794	9.42673	0.682173	14.49	0.73229	15.6603
0.197255	4.13563	0.0729113	1.65421	0.292649	6.74249	0.411183	8.6339	0.586258	12.1434	0.852837	17.8725	0.237199	5.54319	0.448911	9.26846	0.682913	14.2242	0.733575	15.3813
0.200079	4.11447	0.0750089	1.66657	0.294031	6.63198	0.413698	8.52003	0.587305	11.9347	0.853401	17.5418	0.240301	5.49601	0.45005	9.11661	0.683669	13.9689	0.734882	15.1135
0.20283	4.09262	0.0771089	1.67849	0.295496	6.52785	0.416236	8.41091	0.588371	11.7342	0.853976	17.2238	0.243412	5.45102	0.45121	8.9708	0.684442	13.7234	0.73621	14.8562
0.205506	4.07011	0.0792111	1.68997	0.297046	6.42974	0.418798	8.30629	0.589456	11.5414	0.854562	16.9177	0.246533	5.40805	0.452392	8.83073	0.685231	13.4873	0.737561	14.6088
0.208108	4.04697	0.0813152	1.70105	0.298681	6.33733	0.421382	8.20592	0.590561	11.3559	0.855159	16.6229	0.24966	5.36697	0.453597	8.69609	0.686037	13.26	0.738933	14.3707
0.210636	4.02323	0.083421	1.71174	0.300404	6.25032	0.423989	8.10955	0.591684	11.1772	0.855767	16.3388	0.252794	5.32764	0.454823	8.56659	0.68686	13.041	0.740326	14.1416
0.21309	3.99893	0.0855282	1.72206	0.302214	6.16842	0.426618	8.01697	0.592827	11.0051	0.856386	16.0649	0.255934	5.28994	0.456072	8.44196	0.687699	12.83	0.741741	13.9209
0.21547	3.97412	0.0876365	1.73202	0.304114	6.09136	0.429269	7.92798	0.59399	10.8392	0.857016	15.8005	0.259078	5.25375	0.457343	8.32197	0.688554	12.6265	0.743177	13.7081
0.217779	3.94884	0.0897458	1.74163	0.306102	6.01887	0.431941	7.84238	0.595171	10.6792	0.857656	15.5453	0.262225	5.21897	0.458636	8.20638	0.689426	12.4301	0.744634	13.5029
0.220018	3.92315	0.0918559	1.75092	0.30818	5.9507	0.434634	7.76001	0.596372	10.5248	0.858308	15.2988	0.265375	5.18551	0.459953	8.09498	0.690314	12.2405	0.746113	13.305
0.222188	3.89711	0.0939666	1.7599	0.310346	5.88661	0.437348	7.6807	0.597592	10.3758	0.85897	15.0605	0.268527	5.15327	0.461292	7.98758	0.691219	12.0574	0.747612	13.1138
0.224292	3.87076	0.0960777	1.76858	0.312599	5.82638	0.43973	7.61396	0.598831	10.2318	0.859643	14.83	0.271679	5.12218	0.462654	7.88398	0.692139	11.8803	0.749133	12.9292
0.226333	3.84417	0.0981893	1.77697	0.314937	5.76978	0.441772	7.55874	0.60009	10.0926	0.860328	14.607	0.274831	5.09216	0.46404	7.784	0.693077	11.7092	0.750674	12.7508
0.228313	3.8174	0.100301	1.78509	0.31736	5.71659	0.443469	7.51419	0.601368	9.95806	0.861023	14.3912	0.277982	5.06313	0.465266	7.69971	0.69403	11.5436	0.752236	12.5782
0.230235	3.79049	0.102413	1.79295	0.319865	5.66661	0.444816	7.47966	0.602665	9.82792	0.861729	14.1821	0.28113	5.03503	0.466326	7.62986	0.694999	11.3833	0.753819	12.4114
0.231866	3.76698	0.104525	1.80055	0.322449	5.61964	0.445809	7.45465	0.603982	9.70198	0.862446	13.9796	0.284276	5.00781	0.467213	7.57344	0.695985	11.2281	0.755423	12.2498
0.233224	3.74691	0.106636	1.80791	0.32511	5.57548	0.446446	7.43882	0.605319	9.58007	0.863173	13.7832	0.287418	4.98139	0.46792	7.52967	0.696987	11.0778	0.757047	12.0935
0.234326	3.73032	0.108748	1.81504	0.327844	5.53395	0.447364	7.41628	0.606675	9.46201	0.863912	13.5928	0.290555	4.95574	0.468443	7.49795	0.698004	10.932	0.758691	11.942
0.235185	3.71721	0.110859	1.82194	0.330649	5.49487	0.448364	7.39207	0.60805	9.34764	0.864662	13.408	0.293686	4.9308	0.46878	7.47785	0.699038	10.7908	0.760357	11.7952
0.23581	3.70759	0.11297	1.82863	0.333521	5.45808	0.449727	7.35965	0.609446	9.23679	0.865422	13.2287	0.296811	4.90652	0.469266	7.44923	0.700088	10.6537	0.762042	11.653
0.236206	3.70143	0.115081	1.83512	0.336456	5.42342	0.451458	7.31942	0.610861	9.12932	0.866194	13.0546	0.299929	4.88285	0.469798	7.41848	0.701153	10.5208	0.763748	11.515
0.236772	3.69259	0.117191	1.84141	0.33945	5.39073	0.453561	7.27191	0.612296	9.0251	0.866976	12.8854	0.303039	4.85977	0.470526	7.37726	0.702234	10.3917	0.765474	11.3811
0.237382	3.68298	0.1193	1.84751	0.342501	5.35988	0.45604	7.21771	0.613751	8.92399	0.86777	12.7211	0.30614	4.83722	0.471455	7.32609	0.703331	10.2664	0.76722	11.2513
0.238203	3.66995	0.121409	1.85343	0.345605	5.33072	0.458903	7.15747	0.615226	8.82588	0.868574	12.5613	0.309231	4.81518	0.47259	7.26559	0.704443	10.1447	0.768987	11.1252
0.239227	3.65352	0.123518	1.85918	0.348757	5.30314	0.461783	7.09923	0.616721	8.73064	0.869389	12.4059	0.312312	4.79361	0.47394	7.19651	0.705571	10.0264	0.770773	11.0027
0.240447	3.63373	0.125626	1.86476	0.351955	5.277	0.464682	7.04291	0.618236	8.63815	0.870215	12.2548	0.315381	4.77247	0.475513	7.11966	0.706714	9.91142	0.77258	10.8837
0.241851	3.61065	0.127733	1.87017	0.355195	5.25221	0.467597	6.98842	0.619772	8.54833	0.871052	12.1077	0.318439	4.75174	0.47711	7.0453	0.707873	9.79963	0.774406	10.7681
0.24343	3.58437	0.12984	1.87543	0.358473	5.22866	0.47053	6.93568	0.621328	8.46107	0.8719	11.9646	0.321483	4.73139	0.478733	6.97333	0.709046	9.69088	0.776252	10.6557
0.244977	3.55834	0.131946	1.88055	0.361787	5.20624	0.473481	6.88462	0.622905	8.37627	0.872759	11.8252	0.324514	4.7114	0.480382	6.90366	0.710236	9.58508	0.778117	10.5465
0.246496	3.53259	0.134051	1.88551	0.365133	5.18488	0.476447	6.83516	0.624503	8.29384	0.873628	11.6894	0.327531	4.69173	0.482057	6.8362	0.71144	9.4821	0.780003	10.4402
0.247988	3.50714	0.136156	1.89034	0.368509	5.16449	0.479431	6.78724	0.626122	8.21371	0.874509	11.5571	0.330532	4.67236	0.483759	6.77087	0.712659	9.38185	0.781908	10.3368
0.249456	3.48202	0.13826	1.89504	0.371911	5.14498	0.48243	6.74079	0.627762	8.13578	0.875401	11.4282	0.333518	4.65328	0.485487	6.70758	0.713893	9.28423	0.783832	10.2361
0.250902	3.45725	0.140363	1.89961	0.375337	5.1263	0.485446	6.69576	0.629423	8.05999	0.876303	11.3025	0.336486	4.63446	0.487241	6.64627	0.715143	9.18913	0.785776	10.1382
0.252328	3.43283	0.142465	1.90406	0.378783	5.10837	0.488478	6.65209	0.631105	7.98625	0.877217	11.1799	0.339438	4.61588	0.489023	6.58686	0.716407	9.09647	0.787739	10.0428
0.253737	3.40879	0.144567	1.90838	0.382249	5.09113	0.491525	6.60972	0.632589	7.92362	0.878141	11.0603	0.342372	4.59753	0.490832	6.52929	0.717685	9.00617	0.789721	9.94986
0.25513	3.38513	0.146668	1.91259	0.38573	5.07453	0.494587	6.56861	0.633867	7.87138	0.879076	10.9437	0.345287	4.57938	0.492669	6.47349	0.718979	8.91813	0.791723	9.85934
0.256509	3.36186	0.148768	1.91669	0.389226	5.05852	0.497665	6.5287	0.634933	7.82898	0.880022	10.8299	0.348183	4.56142	0.494533	6.4194	0.720287	8.83228	0.793744	9.77114
0.257875	3.33899	0.150868	1.92069	0.392733	5.04303	0.500757	6.48994	0.635781	7.79594	0.88098	10.7187	0.351059	4.54364	0.496425	6.36695	0.721609	8.74855	0.795783	9.68516
0.25923	3.31653	0.152967	1.92458	0.39625	5.02804	0.503864	6.4523	0.636408	7.77192	0.881948	10.6103	0.353914	4.52602	0.498345	6.31611	0.722946	8.66686	0.797842	9.60134
0.260576	3.29448	0.155065	1.92837	0.399775	5.0135	0.506986	6.41573	0.636811	7.75667	0.882927	10.5043	0.356748	4.50854	0.500293	6.2668	0.724297	8.58714	0.799919	9.51961
0.261913	3.27283	0.157162	1.93207	0.403306	4.99937	0.510122	6.38019	0.637393	7.73491	0.883917	10.4008	0.359561	4.49121	0.50227	6.21898	0.725663	8.50934	0.802015	9.43988
0.263243	3.2516	0.159258	1.93567	0.406841	4.98561	0.513272	6.34564	0.638027	7.71147	0.884918	10.2996	0.362352	4.474	0.504275	6.1726	0.727042	8.43338	0.80413	9.36211
0.264567	3.23078	0.161354	1.93918	0.410379	4.9722	0.516436	6.31205	0.638895	7.67995	0.88593	10.2008	0.36512	4.4569	0.506308	6.1276	0.728436	8.35921	0.806263	9.28622
0.265887	3.21036	0.163449	1.94261	0.413918	4.9591	0.519613	6.27938	0.64	7.64067	0.886953	10.1042	0.367865	4.43992	0.50837	6.08396	0.729844	8.28676	0.808415	9.21214
0.267202	3.19035	0.165544	1.94595	0.417457	4.94628	0.522804	6.24759	0.641347	7.594	0.887987	10.0097	0.370586	4.42302	0.510461	6.04161	0.731266	8.21599	0.810585	9.13984
0.268514	3.17074	0.167637	1.94922	0.420994	4.93372	0.526008	6.21667	0.642944	7.54042	0.889031	9.91735	0.373284	4.40622	0.51258	6.00053	0.732702	8.14684	0.812774	9.06924
0.269824	3.15154	0.16973	1.9524	0.424527	4.92139	0.529225	6.18656	0.644798	7.48043	0.890087	9.82699	0.375957	4.3895	0.514728	5.96066	0.733964	8.08787	0.81498	9.00029
0.271132	3.13272	0.171823	1.95551	0.428056	4.90927	0.532454	6.15725	0.646675	7.42198	0.891154	9.73859	0.378606	4.37286	0.516904	5.92197	0.735049	8.03851	0.817205	8.93294
0.272439	3.1143	0.173914	1.95855	0.431579	4.89735	0.535696	6.12872	0.648576	7.36504	0.892232	9.6521	0.38123	4.35629	0.519109	5.88441	0.735951	7.99832	0.819448	8.86715
0.273746	3.09626	0.176005	1.96151	0.435094	4.88559	0.538951	6.10092	0.6505	7.30956	0.893321	9.56745	0.383828	4.33978	0.521342	5.84796	0.736668	7.96693	0.821708	8.80286
0.275053	3.0786	0.178095	1.96441	0.438602	4.87399	0.542217	6.07383	0.652449	7.25549	0.894421	9.48459	0.386402	4.32334	0.523603	5.81258	0.737198	7.94407	0.823986	8.74003
0.27636	3.06132	0.180185	1.96724	0.442101	4.86252	0.545495	6.04744	0.654422	7.2028	0.895532	9.40346	0.38895	4.30695	0.525892	5.77822	0.737537	7.92953	0.826282	8.67862
0.27767	3.0444	0.182274	1.97001	0.445589	4.85118	0.548784	6.02171	0.656419	7.15145	0.896653	9.32402	0.391472	4.29062	0.528208	5.74487	0.738027	7.90877	0.828595	8.61858
0.27898	3.02784	0.184362	1.97271	0.449066	4.83994	0.552085	5.99662	0.658441	7.1014	0.897786	9.24622	0.393969	4.27433	0.530552	5.71247	0.738561	7.88637	0.830926	8.55987
0.280293	3.01163	0.186449	1.97536	0.452531	4.82879	0.555397	5.97215	0.660489	7.05261	0.89893	9.17001	0.396441	4.2581	0.532923	5.68101	0.73929	7.85619	0.833274	8.50245
0.281608	2.99578	0.188536	1.97794	0.455983	4.81773	0.558719	5.94828	0.662561	7.00506	0.900085	9.09535	0.398886	4.24192	0.53532	5.65045	0.740216	7.81848	0.83564	8.44629
0.282926	2.98026	0.190623	1.98047	0.45942	4.80673	0.562051	5.92499	0.66466	6.9587	0.901252	9.02219	0.401306	4.22579	0.537744	5.62075	0.741344	7.77356	0.838022	8.39135
0.284248	2.96508	0.192708	1.98295	0.462843	4.79579	0.565394	5.90226	0.666785	6.91351	0.902429	8.9505	0.403701	4.2097	0.540194	5.5919	0.742675	7.72179	0.840421	8.33759
0.285572	2.95022	0.194793	1.98537	0.46625	4.7849	0.568746	5.88006	0.668936	6.86945	0.903617	8.88022	0.40607	4.19366	0.542669	5.56386	0.744216	7.66357	0.842838	8.28498
0.2869	2.93569	0.196878	1.98774	0.469641	4.77406	0.572108	5.85839	0.671113	6.8265	0.904816	8.81133	0.408414	4.17767	0.545169	5.5366	0.745771	7.6066	0.844957	8.24005
0.288232	2.92146	0.198962	1.99006	0.473015	4.76324	0.575479	5.83721	0.673318	6.78463	0.906027	8.74379	0.410732	4.16173	0.547693	5.5101	0.747338	7.55083	0.846773	8.2024
0.289568	2.90755	0.201045	1.99233	0.476371	4.75245	0.578858	5.81652	0.67555	6.74381	0.907248	8.67755	0.413026	4.14583	0.550241	5.48433	0.748919	7.49624	0.848282	8.17171
0.290909	2.89393	0.203128	1.99456	0.479708	4.74167	0.582246	5.7963	0.67781	6.70401	0.908481	8.61259	0.415296	4.12999	0.552812	5.45926	0.750514	7.44279	0.849479	8.14773
0.292254	2.88061	0.20521	1.99674	0.483027	4.7309	0.585641	5.77652	0.680098	6.66522	0.909725	8.54887	0.417541	4.1142	0.555406	5.43487	0.752121	7.39045	0.850362	8.13025
0.293603	2.86758	0.207292	1.99887	0.486326	4.72014	0.589044	5.75718	0.682415	6.62741	0.91098	8.48637	0.419762	4.09846	0.558022	5.41114	0.753742	7.33918	0.850929	8.11913
0.294957	2.85482	0.209373	2.00096	0.489605	4.70938	0.592455	5.73826	0.684759	6.59055	0.912246	8.42504	0.42196	4.08277	0.560659	5.38803	0.755376	7.28897	0.851744	8.10324
0.296316	2.84234	0.211454	2.00301	0.492863	4.69861	0.595871	5.71974	0.687134	6.55462	0.913359	8.37254	0.424134	4.06715	0.563317	5.36553	0.757023	7.23977	0.852632	8.08609
0.297679	2.83013	0.213534	2.00502	0.4961	4.68783	0.599294	5.7016	0.689537	6.5196	0.914314	8.32845	0.426286	4.05158	0.565995	5.34362	0.758683	7.19157	0.853844	8.06298
0.299048	2.81818	0.215613	2.00699	0.499315	4.67704	0.602723	5.68384	0.69197	6.48548	0.915109	8.29246	0.428415	4.03608	0.568692	5.32226	0.760357	7.14434	0.855381	8.03408
0.300422	2.80649	0.217692	2.00892	0.502509	4.66623	0.606157	5.66644	0.694433	6.45222	0.91574	8.26429	0.430522	4.02064	0.571407	5.30145	0.762043	7.09805	0.857248	7.99961
0.301801	2.79504	0.219771	2.01081	0.50568	4.6554	0.609596	5.64938	0.696927	6.41981	0.916206	8.24374	0.432608	4.00527	0.57414	5.28115	0.763743	7.05267	0.85945	7.95985
0.303185	2.78384	0.221849	2.01267	0.508828	4.64455	0.613039	5.63266	0.699451	6.38824	0.916505	8.23066	0.434673	3.98997	0.57689	5.26136	0.765456	7.00819	0.861991	7.91509
0.304574	2.77288	0.223927	2.01449	0.511954	4.63367	0.616486	5.61625	0.702006	6.35748	0.916936	8.21195	0.436717	3.97474	0.579656	5.24205	0.767181	6.96459	0.864548	7.87123
0.305969	2.76215	0.226004	2.01627	0.515056	4.62276	0.619936	5.60015	0.704592	6.32751	0.917405	8.19174	0.438741	3.95959	0.582438	5.22319	0.76892	6.92183	0.867121	7.82825
0.307369	2.75164	0.228081	2.01803	0.518134	4.61183	0.62339	5.58434	0.70721	6.29832	0.918046	8.16447	0.440746	3.94451	0.585234	5.20478	0.770672	6.87989	0.869709	7.78612
0.308775	2.74136	0.230157	2.01975	0.521189	4.60086	0.626845	5.56882	0.70986	6.2699	0.91886	8.13033	0.442731	3.92951	0.588044	5.18679	0.772437	6.83877	0.872312	7.74482
0.310186	2.73129	0.232233	2.02144	0.52422	4.58986	0.630302	5.55356	0.712542	6.24221	0.919851	8.08956	0.444698	3.9146	0.590867	5.16921	0.774215	6.79843	0.87493	7.70434
0.311603	2.72144	0.234308	2.02309	0.527226	4.57884	0.63376	5.53856	0.715256	6.21526	0.921021	8.04242	0.446647	3.89977	0.593703	5.15202	0.776007	6.75887	0.877563	7.66464
0.313024	2.71179	0.236383	2.02472	0.530208	4.56778	0.637218	5.52381	0.718003	6.18902	0.922374	7.98924	0.448578	3.88503	0.596549	5.13521	0.777811	6.72005	0.880211	7.62572
0.314452	2.70235	0.238457	2.02632	0.533166	4.55668	0.640677	5.5093	0.720782	6.16348	0.923739	7.93701	0.450493	3.87038	0.599407	5.11875	0.779628	6.68196	0.882874	7.58754
0.315885	2.6931	0.240532	2.02789	0.536099	4.54556	0.644135	5.49501	0.723595	6.13863	0.925115	7.8857	0.45239	3.85582	0.602274	5.10264	0.781459	6.64459	0.885551	7.55009
0.317323	2.68404	0.242605	2.02943	0.539008	4.5344	0.647592	5.48094	0.726441	6.11444	0.926502	7.8353	0.454272	3.84135	0.60515	5.08686	0.783302	6.60792	0.888242	7.51335
0.318766	2.67517	0.244678	2.03095	0.541892	4.52321	0.651047	5.46707	0.72932	6.09091	0.927901	7.78579	0.456138	3.82698	0.608035	5.07139	0.785159	6.57193	0.890948	7.47731
0.320216	2.66648	0.246751	2.03243	0.544752	4.51199	0.654501	5.4534	0.732232	6.06802	0.929312	7.73714	0.45799	3.81271	0.610927	5.05622	0.787029	6.53661	0.893667	7.44194
0.32167	2.65797	0.248824	2.0339	0.547587	4.50074	0.657951	5.43992	0.735178	6.04575	0.930734	7.68933	0.459826	3.79854	0.613826	5.04134	0.788913	6.50194	0.8964	7.40723
0.32313	2.64964	0.250896	2.03533	0.550398	4.48947	0.661398	5.42662	0.738157	6.0241	0.932167	7.64235	0.461649	3.78447	0.616732	5.02673	0.790809	6.46791	0.899147	7.37316
0.324595	2.64147	0.252968	2.03675	0.553184	4.47816	0.664842	5.41349	0.74117	6.00304	0.933613	7.59618	0.463458	3.7705	0.619642	5.01239	0.792719	6.43449	0.901907	7.33972
0.326066	2.63347	0.255039	2.03813	0.555946	4.46683	0.668281	5.40052	0.744217	5.98257	0.935069	7.55079	0.465254	3.75664	0.622557	4.9983	0.794642	6.40169	0.90468	7.30689
0.327542	2.62564	0.25711	2.0395	0.558684	4.45547	0.671715	5.38771	0.747297	5.96267	0.936538	7.50618	0.467038	3.74288	0.625475	4.98445	0.796579	6.36948	0.907467	7.27465
0.329023	2.61796	0.259181	2.04084	0.561398	4.4441	0.675144	5.37505	0.750411	5.94333	0.938019	7.46232	0.468809	3.72923	0.628397	4.97082	0.798529	6.33786	0.910266	7.243
0.33051	2.61043	0.261251	2.04216	0.564088	4.4327	0.678567	5.36253	0.753557	5.92454	0.939511	7.4192	0.470569	3.71569	0.631321	4.95742	0.800492	6.3068	0.913078	7.21191
0.332002	2.60306	0.263321	2.04346	0.566754	4.42128	0.681985	5.35014	0.756738	5.90628	0.941015	7.3768	0.472317	3.70226	0.634247	4.94422	0.802469	6.27631	0.915903	7.18137
0.333499	2.59584	0.26539	2.04473	0.569397	4.40984	0.685395	5.33788	0.759951	5.88853	0.942531	7.33511	0.474054	3.68894	0.637174	4.93122	0.804459	6.24636	0.91874	7.15137
0.335001	2.58876	0.26746	2.04599	0.572016	4.39839	0.688799	5.32575	0.763197	5.8713	0.944059	7.29411	0.475781	3.67573	0.640101	4.91841	0.806463	6.21694	0.921589	7.1219
0.336508	2.58181	0.269529	2.04723	0.574612	4.38693	0.692196	5.31373	0.766475	5.85456	0.945598	7.25379	0.477498	3.66263	0.643028	4.90578	0.80848	6.18805	0.92445	7.09294
0.338021	2.57501	0.271597	2.04844	0.577186	4.37545	0.695585	5.30182	0.769786	5.8383	0.94715	7.21414	0.479206	3.64964	0.645954	4.89332	0.810511	6.15967	0.927323	7.06448
0.339538	2.56834	0.273665	2.04964	0.579737	4.36397	0.698966	5.29003	0.773129	5.82251	0.948715	7.17513	0.480904	3.63677	0.648879	4.88103	0.812556	6.13179	0.930207	7.03651
0.341061	2.5618	0.275733	2.05082	0.582266	4.35248	0.702338	5.27833	0.776503	5.80717	0.950291	7.13677	0.482593	3.62401	0.651801	4.86889	0.814614	6.1044	0.933103	7.00902
0.342588	2.55539	0.277801	2.05198	0.584772	4.34098	0.705703	5.26674	0.779908	5.79228	0.951879	7.09902	0.484274	3.61137	0.65472	4.85689	0.816686	6.0775	0.936009	6.98199
0.344121	2.54911	0.279868	2.05312	0.587257	4.32948	0.709058	5.25524	0.783344	5.77782	0.95348	7.06189	0.485947	3.59884	0.657636	4.84504	0.818772	6.05107	0.938927	6.95541
0.345658	2.54295	0.281935	2.05424	0.589721	4.31799	0.712405	5.24383	0.786811	5.76378	0.955093	7.02536	0.487612	3.58642	0.660548	4.83331	0.820872	6.0251	0.941855	6.92928
0.3472	2.5369	0.284002	2.05535	0.592163	4.30649	0.715742	5.23251	0.790307	5.75014	0.956719	6.98942	0.489269	3.57412	0.663456	4.82172	0.822985	5.99958	0.944794	6.90358
0.348747	2.53098	0.286069	2.05643	0.594585	4.295	0.71907	5.22128	0.793832	5.7369	0.958358	6.95406	0.490919	3.56193	0.666358	4.81024	0.825113	5.97451	0.947742	6.8783
0.350299	2.52516	0.288135	2.05751	0.596986	4.28352	0.722389	5.21013	0.797386	5.72404	0.960008	6.91926	0.492563	3.54986	0.669255	4.79888	0.827254	5.94987	0.950701	6.85343
0.351855	2.51946	0.290201	2.05856	0.599367	4.27204	0.725698	5.19906	0.800968	5.71155	0.961672	6.88501	0.4942	3.5379	0.672146	4.78762	0.829409	5.92567	0.95367	6.82896
0.353416	2.51387	0.292266	2.0596	0.601728	4.26058	0.728998	5.18807	0.804577	5.69943	0.963348	6.85132	0.495831	3.52605	0.67503	4.77647	0.831578	5.90188	0.956648	6.80489
0.354982	2.50838	0.294332	2.06063	0.60407	4.24913	0.732287	5.17715	0.808213	5.68765	0.965038	6.81815	0.497455	3.51432	0.677907	4.76541	0.833761	5.8785	0.959635	6.78119
0.356552	2.503	0.296397	2.06164	0.606393	4.23769	0.735567	5.16631	0.811875	5.6762	0.96674	6.78551	0.499074	3.50271	0.680777	4.75444	0.835957	5.85552	0.962631	6.75787
0.358127	2.49772	0.298461	2.06263	0.608696	4.22628	0.738837	5.15554	0.815563	5.66509	0.968455	6.75339	0.500688	3.4912	0.683639	4.74356	0.838168	5.83294	0.965636	6.73492
0.359707	2.49254	0.300526	2.06361	0.610982	4.21488	0.742098	5.14485	0.819276	5.65428	0.970184	6.72177	0.502297	3.47981	0.686492	4.73276	0.840393	5.81074	0.96865	6.71232
0.36129	2.48746	0.30259	2.06458	0.613249	4.2035	0.745348	5.13422	0.823013	5.64378	0.971926	6.69065	0.5039	3.46854	0.689336	4.72204	0.842631	5.78893	0.971671	6.69006
0.362879	2.48247	0.304654	2.06553	0.615499	4.19215	0.748588	5.12365	0.826773	5.63357	0.973681	6.66002	0.505499	3.45737	0.692171	4.71139	0.844883	5.76749	0.974701	6.66815
0.364471	2.47757	0.306718	2.06647	0.617732	4.18083	0.751819	5.11316	0.830556	5.62365	0.97545	6.62987	0.507094	3.44632	0.694996	4.70081	0.84715	5.74641	0.977738	6.64656
0.366068	2.47276	0.308781	2.0674	0.619947	4.16953	0.755039	5.10273	0.834361	5.61399	0.977233	6.60019	0.508685	3.43537	0.697811	4.69029	0.84943	5.72569	0.980783	6.6253
0.367669	2.46805	0.310845	2.06831	0.622146	4.15826	0.758249	5.09236	0.838187	5.6046	0.979029	6.57097	0.510271	3.42454	0.700616	4.67984	0.851724	5.70532	0.983834	6.60434
0.369275	2.46342	0.312908	2.06921	0.624328	4.14702	0.76145	5.08205	0.842033	5.59546	0.980839	6.54221	0.511854	3.41382	0.70341	4.66944	0.854031	5.6853	0.986893	6.5837
0.370884	2.45887	0.31497	2.07009	0.626495	4.13582	0.76464	5.07181	0.8459	5.58657	0.982664	6.5139	0.513433	3.4032	0.706193	4.6591	0.856353	5.66561	0.989957	6.56335
0.372498	2.45441	0.317033	2.07097	0.628646	4.12465	0.767821	5.06163	0.849785	5.57791	0.984502	6.48603	0.515009	3.39269	0.708965	4.64881	0.858688	5.64626	0.993029	6.54329
0.374116	2.45003	0.319095	2.07183	0.630781	4.11352	0.770992	5.0515	0.853689	5.56947	0.986355	6.45859	0.516582	3.3823	0.711725	4.63857	0.861037	5.62723	0.996105	6.52352
0.375738	2.44573	0.321157	2.07268	0.632902	4.10242	0.774152	5.04144	0.85761	5.56125	0.988223	6.43159	0.518151	3.372	0.714473	4.62838	0.863399	5.60851	0.999188	6.50402
0.377363	2.4415	0.323219	2.07352	0.635008	4.09136	0.777303	5.03143	0.861548	5.55323	0.990105	6.405	0.519718	3.36182	0.717209	4.61823	0.865774	5.59011	1.00228	6.48479
0.378993	2.43735	0.325281	2.07435	0.6371	4.08035	0.780444	5.02147	0.865501	5.54542	0.992003	6.37883	0.521283	3.35174	0.719932	4.60812	0.868163	5.57202		
0.380627	2.43328	0.327342	2.07516	0.639178	4.06937	0.783575	5.01158	0.869471	5.53779	0.993915	6.35306	0.522844	3.34176	0.722643	4.59805	0.870565	5.55422		
0.382264	2.42928	0.329403	2.07597	0.641242	4.05844	0.786696	5.00173	0.873454	5.53034	0.995843	6.3277	0.524404	3.33189	0.725341	4.58801	0.87298	5.53672		
0.383906	2.42535	0.331464	2.07676	0.643294	4.04756	0.789807	4.99194	0.877452	5.52307	0.997786	6.30273	0.525961	3.32212	0.728025	4.57802	0.875409	5.5195		
0.385551	2.42149	0.333525	2.07755	0.645332	4.03672	0.792909	4.98221	0.881462	5.51597	0.999745	6.27816	0.527517	3.31245	0.730697	4.56805	0.87785	5.50257		
0.3872	2.4177	0.335586	2.07832	0.647357	4.02592	0.796	4.97252	0.885485	5.50902	1.00172	6.25397	0.529071	3.30288	0.733355	4.55812	0.880303	5.48591		
0.388852	2.41398	0.337646	2.07908	0.64937	4.01518	0.799081	4.96288	0.889519	5.50223			0.530622	3.29341	0.735999	4.54822	0.88277	5.46952		
0.390509	2.41032	0.339706	2.07984	0.651371	4.00448	0.802153	4.9533	0.893565	5.49558			0.532173	3.28404	0.73863	4.53834	0.885248	5.4534		
0.392169	2.40672	0.341766	2.08058	0.653361	3.99384	0.805214	4.94376	0.89762	5.48906			0.533722	3.27477	0.741247	4.5285	0.887739	5.43754		
0.393832	2.40319	0.343826	2.08131	0.655338	3.98324	0.808266	4.93427	0.901684	5.48268			0.535269	3.2656	0.74385	4.51868	0.890242	5.42193		
0.395499	2.39972	0.345885	2.08204	0.657305	3.9727	0.811307	4.92482	0.905757	5.47642			0.536816	3.25652	0.746439	4.50889	0.892757	5.40656		
0.397169	2.39631	0.347944	2.08275	0.659261	3.9622	0.814338	4.91542	0.909837	5.47028			0.538361	3.24754	0.749014	4.49912	0.895283	5.39144		
0.398843	2.39295	0.350004	2.08346	0.661206	3.95177	0.817359	4.90607	0.913925	5.46424			0.539905	3.23866	0.751575	4.48938	0.897821	5.37656		
0.400521	2.38966	0.352062	2.08416	0.66314	3.94138	0.82037	4.89675	0.918018	5.45831			0.541449	3.22986	0.754121	4.47966	0.900369	5.3619		
0.402201	2.38642	0.354121	2.08484	0.665065	3.93105	0.82337	4.88748	0.922118	5.45248			0.542991	3.22116	0.756654	4.46997	0.902929	5.34748		
0.403885	2.38324	0.35618	2.08552	0.66698	3.92078	0.82636	4.87825	0.926221	5.44674			0.544533	3.21256	0.759172	4.46029	0.9055	5.33327		
0.405573	2.38011	0.358238	2.0862	0.668885	3.91056	0.82934	4.86906	0.930328	5.44108			0.546075	3.20404	0.761676	4.45064	0.908081	5.31928		
0.407263	2.37703	0.360296	2.08686	0.670781	3.9004	0.832309	4.85991	0.934438	5.4355			0.547616	3.19561	0.764166	4.44101	0.910672	5.30551		
0.408957	2.37401	0.362354	2.08751	0.672667	3.89029	0.835268	4.8508	0.93855	5.42999			0.549156	3.18727	0.766641	4.4314	0.913273	5.29193		
0.410654	2.37104	0.364412	2.08816	0.674545	3.88024	0.838216	4.84172	0.942663	5.42455			0.550697	3.17902	0.769103	4.42182	0.915883	5.27857		
0.412354	2.36812	0.36647	2.0888	0.676414	3.87025	0.841154	4.83268	0.946777	5.41916			0.552237	3.17086	0.77155	4.41225	0.918503	5.26539		
0.414057	2.36524	0.368527	2.08943	0.678275	3.86032	0.84408	4.82368	0.950889	5.41383			0.553777	3.16278	0.773983	4.40271	0.921132	5.25241		
0.415764	2.36242	0.370584	2.09005	0.680128	3.85045	0.846996	4.81471	0.955	5.40854			0.555317	3.15479	0.776402	4.39319	0.92377	5.23961		
0.417473	2.35964	0.372641	2.09067	0.681972	3.84063	0.849901	4.80577	0.959107	5.4033			0.556857	3.14688	0.778808	4.38369	0.926417	5.227		
0.419185	2.3569	0.374698	2.09128	0.683809	3.83088	0.852795	4.79686	0.963211	5.39808			0.558397	3.13906	0.781199	4.37421	0.929071	5.21457		
0.420901	2.35421	0.376755	2.09188	0.685638	3.82118	0.855678	4.78798	0.96731	5.3929			0.559937	3.13132	0.783577	4.36476	0.931733	5.20231		
0.422619	2.35157	0.378812	2.09247	0.68746	3.81154	0.85855	4.77914	0.971403	5.38773			0.561478	3.12366	0.785941	4.35532	0.934403	5.19021		
0.42434	2.34897	0.380868	2.09306	0.689275	3.80196	0.861411	4.77032	0.975489	5.38257			0.563019	3.11608	0.788292	4.34591	0.93708	5.17828		
0.426064	2.34641	0.382924	2.09364	0.691083	3.79244	0.86426	4.76153	0.979566	5.37743			0.56456	3.10858	0.790629	4.33652	0.939764	5.16651		
0.427791	2.3439	0.38498	2.09421	0.692884	3.78299	0.867098	4.75277	0.983633	5.37228			0.566102	3.10116	0.792953	4.32715	0.942454	5.1549		
0.429521	2.34142	0.387036	2.09478	0.694678	3.77359	0.869925	4.74404	0.98769	5.36712			0.567644	3.09381	0.795264	4.31781	0.945151	5.14344		
0.431253	2.33898	0.389092	2.09534	0.696466	3.76425	0.87274	4.73533	0.991733	5.36195			0.569187	3.08655	0.797562	4.30849	0.947853	5.13212		
0.432988	2.33659	0.391147	2.0959	0.698247	3.75497	0.875543	4.72665	0.995763	5.35675			0.57073	3.07936	0.799847	4.2992	0.950561	5.12095		
0.434726	2.33423	0.393203	2.09644	0.700023	3.74575	0.878335	4.71799	0.999778	5.35153			0.572274	3.07225	0.802119	4.28993	0.953274	5.10992		
0.436467	2.33191	0.395258	2.09698	0.701793	3.73659	0.881115	4.70935	1.00378	5.34626			0.573819	3.06521	0.804379	4.28068	0.955992	5.09902		
0.43821	2.32963	0.397313	2.09752	0.703556	3.72749	0.883883	4.70074					0.575364	3.05824	0.806626	4.27146	0.958714	5.08826		
0.439955	2.32738	0.399368	2.09805	0.705315	3.71845	0.88664	4.69215					0.57691	3.05135	0.808861	4.26227	0.961441	5.07762		
0.441704	2.32517	0.401423	2.09857	0.707067	3.70947	0.889385	4.68358					0.578457	3.04453	0.811084	4.2531	0.964171	5.06711		
0.443455	2.32299	0.403478	2.09909	0.708815	3.70055	0.892117	4.67504					0.580005	3.03778	0.813295	4.24396	0.966905	5.05671		
0.445208	2.32085	0.405532	2.0996	0.710557	3.69169	0.894838	4.66651					0.581554	3.0311	0.815494	4.23485	0.969641	5.04644		
0.446964	2.31874	0.407586	2.10011	0.712295	3.68289	0.897547	4.658					0.583104	3.02449	0.817681	4.22576	0.972381	5.03627		
0.448722	2.31667	0.409641	2.10061	0.714027	3.67415	0.900243	4.64952					0.584655	3.01795	0.819858	4.21671	0.975123	5.02622		
0.450483	2.31462	0.411695	2.1011	0.715755	3.66546	0.902928	4.64105					0.586207	3.01148	0.822023	4.20768	0.977866	5.01627		
0.452246	2.31261	0.413748	2.10159	0.717478	3.65684	0.9056	4.6326					0.58776	3.00507	0.824176	4.19868	0.980612	5.00643		
0.454012	2.31063	0.415802	2.10207	0.719197	3.64828	0.90826	4.62417					0.589314	2.99873	0.826319	4.18971	0.983359	4.99668		
0.45578	2.30868	0.417856	2.10255	0.720911	3.63977	0.910909	4.61576					0.590869	2.99246	0.828452	4.18077	0.986107	4.98704		
0.45755	2.30676	0.419909	2.10302	0.722621	3.63132	0.913544	4.60736					0.592425	2.98625	0.830573	4.17186	0.988855	4.97748		
0.459323	2.30487	0.421962	2.10349	0.724327	3.62293	0.916168	4.59898					0.593983	2.98011	0.832685	4.16299	0.991604	4.96802		
0.461098	2.30301	0.424016	2.10396	0.726029	3.6146	0.91878	4.59062					0.595542	2.97403	0.834786	4.15414	0.994353	4.95865		
0.462875	2.30118	0.426069	2.10441	0.727727	3.60633	0.921379	4.58228					0.597102	2.96801	0.836877	4.14533	0.997101	4.94936		
0.464654	2.29938	0.428121	2.10487	0.729421	3.59811	0.923966	4.57395					0.598663	2.96205	0.838958	4.13655	0.999849	4.94015		
0.466436	2.2976	0.430174	2.10532	0.731112	3.58995	0.926541	4.56564					0.600226	2.95616	0.84103	4.1278	1.0026	4.93102		
0.468219	2.29585	0.432227	2.10576	0.732799	3.58185	0.929104	4.55735					0.60179	2.95032	0.843092	4.11908				
0.470005	2.29412	0.434279	2.1062	0.734483	3.5738	0.931655	4.54907					0.603356	2.94455	0.845145	4.1104				
0.471793	2.29243	0.436332	2.10663	0.736164	3.56582	0.934193	4.54081					0.604922	2.93883	0.847188	4.10175				
0.473583	2.29075	0.438384	2.10706	0.737841	3.55788	0.93672	4.53256					0.606491	2.93317	0.849223	4.09314				
0.475375	2.28911	0.440436	2.10749	0.739515	3.55001	0.939234	4.52433					0.60806	2.92757	0.851248	4.08456				
0.47717	2.28748	0.442488	2.10791	0.741186	3.54218	0.941736	4.51612					0.609631	2.92203	0.853266	4.07602				
0.478966	2.28588	0.444539	2.10833	0.742854	3.53442	0.944227	4.50792					0.611204	2.91654	0.855274	4.06751				
0.480764	2.28431	0.446591	2.10874	0.744519	3.52671	0.946705	4.49974					0.612778	2.91111	0.857274	4.05904				
0.482564	2.28276	0.448642	2.10915	0.746181	3.51905	0.949172	4.49157					0.614354	2.90574	0.859266	4.0506				
0.484366	2.28123	0.450694	2.10955	0.747841	3.51145	0.951627	4.48342					0.615931	2.90042	0.86125	4.0422				
0.48617	2.27972	0.452745	2.10995	0.749498	3.5039	0.95407	4.47529					0.61751	2.89515	0.863227	4.03384				
0.487976	2.27824	0.454796	2.11034	0.751152	3.49641	0.956502	4.46717					0.61909	2.88993	0.865195	4.02551				
0.489784	2.27677	0.456847	2.11074	0.752805	3.48897	0.958921	4.45907					0.620672	2.88477	0.867156	4.01722				
0.491594	2.27533	0.458898	2.11112	0.754454	3.48158	0.96133	4.45098					0.622255	2.87966	0.869109	4.00896				
0.493406	2.27391	0.460949	2.11151	0.756102	3.47424	0.963727	4.44291					0.62384	2.8746	0.871056	4.00075				
0.495219	2.27251	0.462999	2.11189	0.757747	3.46696	0.966112	4.43486					0.625427	2.86959	0.872995	3.99257				
0.497034	2.27113	0.46505	2.11226	0.75939	3.45973	0.968487	4.42683					0.627015	2.86463	0.874927	3.98443				
0.498851	2.26977	0.4671	2.11264	0.761031	3.45255	0.97085	4.41881					0.628605	2.85972	0.876852	3.97632				
0.50067	2.26843	0.46915	2.113	0.76267	3.44542	0.973202	4.41082					0.630196	2.85486	0.878771	3.96826				
0.502491	2.26711	0.4712	2.11337	0.764307	3.43835	0.975543	4.40283					0.631789	2.85005	0.880683	3.96023				
0.504313	2.2658	0.47325	2.11373	0.765942	3.43132	0.977874	4.39487					0.633384	2.84529	0.882588	3.95224				
0.506137	2.26452	0.4753	2.11409	0.767576	3.42435	0.980193	4.38693					0.634981	2.84057	0.884487	3.94429				
0.507963	2.26325	0.47735	2.11444	0.769208	3.41742	0.982502	4.379					0.636579	2.8359	0.88638	3.93638				
0.50979	2.26201	0.479399	2.11479	0.770838	3.41055	0.9848	4.37109					0.638179	2.83127	0.888267	3.9285				
0.511619	2.26078	0.481449	2.11514	0.772466	3.40372	0.987088	4.3632					0.63978	2.8267	0.890148	3.92067				
0.51345	2.25956	0.483498	2.11549	0.774093	3.39694	0.989365	4.35533					0.641383	2.82216	0.892024	3.91287				
0.515282	2.25837	0.485547	2.11583	0.775718	3.39022	0.991633	4.34748					0.642988	2.81767	0.893893	3.90511				
0.517116	2.25719	0.487596	2.11616	0.777342	3.38353	0.99389	4.33965					0.644595	2.81323	0.895757	3.89739				
0.518952	2.25602	0.489645	2.1165	0.778965	3.3769	0.996137	4.33184					0.646203	2.80882	0.897616	3.88971				
0.520789	2.25488	0.491694	2.11683	0.780586	3.37032	0.998374	4.32405					0.647813	2.80447	0.899469	3.88206				
0.522627	2.25375	0.493743	2.11716	0.782206	3.36378	1.0006	4.31628					0.649425	2.80015	0.901316	3.87446				
0.524467	2.25263	0.495792	2.11748	0.783824	3.35729							0.651039	2.79587	0.903159	3.86689				
0.526309	2.25153	0.49784	2.1178	0.785442	3.35085							0.652654	2.79164	0.904997	3.85936				
0.528152	2.25045	0.499888	2.11812	0.787058	3.34445							0.654271	2.78745	0.90683	3.85188				
0.529997	2.24938	0.501937	2.11844	0.788674	3.3381							0.65589	2.7833	0.908657	3.84443				
0.531843	2.24832	0.503985	2.11875	0.790288	3.33179							0.65751	2.77919	0.910481	3.83701				
0.533691	2.24728	0.506033	2.11906	0.791901	3.32553							0.659133	2.77512	0.912299	3.82964				
0.53554	2.24625	0.508081	2.11937	0.793514	3.31931							0.660757	2.77108	0.914113	3.82231				
0.53739	2.24524	0.510128	2.11967	0.795125	3.31314							0.662382	2.76709	0.915923	3.81501				
0.539242	2.24424	0.512176	2.11997	0.796736	3.30702							0.66401	2.76313	0.917728	3.80775				
0.541095	2.24326	0.514224	2.12027	0.798346	3.30093							0.665639	2.75922	0.919529	3.80053				
0.54295	2.24229	0.516271	2.12057	0.799955	3.29489							0.66727	2.75534	0.921325	3.79335				
0.544806	2.24133	0.518318	2.12086	0.801563	3.2889							0.668903	2.75149	0.923118	3.78621				
0.546663	2.24038	0.520366	2.12115	0.803171	3.28294							0.670537	2.74769	0.924907	3.7791				
0.548522	2.23945	0.522413	2.12144	0.804778	3.27703							0.672174	2.74391	0.926691	3.77204				
0.550382	2.23853	0.52446	2.12172	0.806385	3.27116							0.673812	2.74018	0.928472	3.76501				
0.552243	2.23762	0.526507	2.12201	0.80799	3.26534							0.675452	2.73648	0.930249	3.75801				
0.554106	2.23672	0.528553	2.12229	0.809596	3.25955							0.677093	2.73282	0.932022	3.75106				
0.55597	2.23583	0.5306	2.12256	0.811201	3.25381							0.678737	2.72919	0.933792	3.74414				
0.557835	2.23496	0.532647	2.12284	0.812805	3.2481							0.680382	2.72559	0.935558	3.73726				
0.559701	2.2341	0.534693	2.12311	0.814409	3.24244							0.682028	2.72203	0.937321	3.73042				
0.561569	2.23325	0.536739	2.12338	0.816013	3.23682							0.683677	2.7185	0.93908	3.72361				
0.563438	2.23241	0.538786	2.12365	0.817616	3.23124							0.685327	2.715	0.940836	3.71685				
0.565308	2.23158	0.540832	2.12391	0.819219	3.22569							0.686979	2.71154	0.942589	3.71012				
0.567179	2.23076	0.542878	2.12418	0.820822	3.22019							0.688633	2.70811	0.944339	3.70342				
0.569052	2.22996	0.544924	2.12444	0.822424	3.21473							0.690289	2.70471	0.946085	3.69676				
0.570925	2.22916	0.546969	2.12469	0.824026	3.2093							0.691946	2.70134	0.947829	3.69014				
0.5728	2.22837	0.549015	2.12495	0.825628	3.20392							0.693605	2.698	0.949569	3.68355				
0.574676	2.2276	0.55106	2.1252	0.82723	3.19857							0.695266	2.6947	0.951306	3.677				
0.576553	2.22683	0.553106	2.12546	0.828831	3.19326							0.696929	2.69142	0.953041	3.67049				
0.578432	2.22608	0.555151	2.1257	0.830433	3.18798							0.698593	2.68818	0.954773	3.66401				
0.580311	2.22533	0.557196	2.12595	0.832034	3.18275							0.700259	2.68496	0.956502	3.65757				
0.582192	2.22459	0.559242	2.1262	0.833636	3.17755							0.701927	2.68178	0.958228	3.65116				
0.584073	2.22387	0.561287	2.12644	0.835237	3.17238							0.703596	2.67862	0.959952	3.64479				
0.585956	2.22315	0.563332	2.12668	0.836838	3.16726							0.705267	2.67549	0.961673	3.63846				
0.58784	2.22244	0.565376	2.12692	0.83844	3.16217							0.70694	2.67239	0.963391	3.63215				
0.589724	2.22174	0.567421	2.12715	0.840041	3.15711							0.708615	2.66932	0.965107	3.62589				
0.59161	2.22105	0.569466	2.12739	0.841642	3.1521							0.710291	2.66628	0.966821	3.61966				
0.593497	2.22037	0.57151	2.12762	0.843244	3.14711							0.711969	2.66326	0.968532	3.61346				
0.595385	2.21969	0.573555	2.12785	0.844845	3.14216							0.713649	2.66028	0.970241	3.60729				
0.597274	2.21903	0.575599	2.12808	0.846447	3.13725							0.71533	2.65731	0.971948	3.60117				
0.599164	2.21837	0.577643	2.12831	0.848049	3.13237							0.717013	2.65438	0.973652	3.59507				
0.601055	2.21772	0.579687	2.12853	0.849651	3.12752							0.718698	2.65147	0.975355	3.58901				
0.602947	2.21708	0.581731	2.12875	0.851253	3.12271							0.720385	2.64859	0.977055	3.58298				
0.60484	2.21645	0.583775	2.12897	0.852856	3.11793							0.722073	2.64573	0.978753	3.57699				
0.606734	2.21582	0.585819	2.12919	0.854459	3.11319							0.723763	2.6429	0.980449	3.57103				
0.608629	2.2152	0.587862	2.12941	0.856061	3.10848							0.725454	2.6401	0.982143	3.5651				
0.610525	2.21459	0.589906	2.12962	0.857665	3.1038							0.727147	2.63732	0.983835	3.5592				
0.612421	2.21399	0.591949	2.12984	0.859268	3.09915							0.728842	2.63456	0.985525	3.55334				
0.614319	2.2134	0.593993	2.13005	0.860872	3.09454							0.730539	2.63183	0.987213	3.54751				
0.616218	2.21281	0.596036	2.13026	0.862476	3.08996							0.732237	2.62912	0.9889	3.54171				
0.618117	2.21223	0.598079	2.13047	0.864081	3.08541							0.733937	2.62644	0.990584	3.53595				
0.620018	2.21166	0.600122	2.13067	0.865686	3.08089							0.735638	2.62378	0.992267	3.53021				
0.621919	2.21109	0.602165	2.13088	0.867291	3.0764							0.737341	2.62114	0.993949	3.52451				
0.623821	2.21053	0.604208	2.13108	0.868896	3.07194							0.739046	2.61853	0.995628	3.51884				
0.625725	2.20998	0.606251	2.13128	0.870502	3.06752							0.740752	2.61594	0.997306	3.51321				
0.627629	2.20943	0.608293	2.13148	0.872109	3.06312							0.74246	2.61337	0.998982	3.5076				
0.629533	2.2089	0.610336	2.13168	0.873716	3.05875							0.74417	2.61083	1.00066	3.50202				
0.631439	2.20836	0.612378	2.13188	0.875323	3.05442							0.745881	2.60831						
0.633346	2.20784	0.614421	2.13207	0.876931	3.05011							0.747593	2.60581						
0.635253	2.20732	0.616463	2.13226	0.87854	3.04584							0.749308	2.60333						
0.637161	2.2068	0.618505	2.13245	0.880148	3.04159							0.751024	2.60087						
0.63907	2.2063	0.620547	2.13264	0.881758	3.03737							0.752741	2.59844						
0.64098	2.20579	0.622589	2.13283	0.883368	3.03318							0.75446	2.59602						
0.642891	2.2053	0.624631	2.13302	0.884978	3.02902							0.756181	2.59363						
0.644803	2.20481	0.626672	2.1332	0.886589	3.02489							0.757903	2.59125						
0.646715	2.20433	0.628714	2.13339	0.888201	3.02079							0.759627	2.5889						
0.648628	2.20385	0.630756	2.13357	0.889813	3.01671							0.761353	2.58657						
0.650542	2.20337	0.632797	2.13375	0.891426	3.01266							0.763079	2.58425						
0.652456	2.20291	0.634838	2.13393	0.893039	3.00864							0.764808	2.58196						
0.654372	2.20245	0.63688	2.13411	0.894653	3.00465							0.766538	2.57969						
0.656288	2.20199	0.638921	2.13429	0.896267	3.00068							0.768269	2.57743						
0.658205	2.20154	0.640962	2.13446	0.897883	2.99674							0.770002	2.5752						
0.660122	2.2011	0.643003	2.13463	0.899499	2.99283							0.771737	2.57298						
0.662041	2.20066	0.645044	2.13481	0.901115	2.98894							0.773473	2.57078						
0.66396	2.20022	0.647084	2.13498	0.902732	2.98508							0.775211	2.5686						
0.66588	2.19979	0.649125	2.13515	0.90435	2.98124							0.77695	2.56644						
0.6678	2.19937	0.651166	2.13531	0.905969	2.97744							0.778691	2.5643						
0.669722	2.19895	0.653206	2.13548	0.907588	2.97365							0.780433	2.56218						
0.671644	2.19853	0.655246	2.13565	0.909208	2.96989							0.782176	2.56007						
0.673566	2.19812	0.657287	2.13581	0.910829	2.96616							0.783921	2.55798						
0.675489	2.19771	0.659327	2.13597	0.91245	2.96245							0.785668	2.55591						
0.677413	2.19731	0.661367	2.13613	0.914072	2.95877							0.787416	2.55386						
0.679338	2.19692	0.663407	2.1363	0.915695	2.95511							0.789165	2.55182						
0.681264	2.19653	0.665447	2.13645	0.917319	2.95148							0.790916	2.5498						
0.68319	2.19614	0.667487	2.13661	0.918943	2.94786							0.792669	2.5478						
0.685116	2.19576	0.669526	2.13677	0.920568	2.94428							0.794423	2.54581						
0.687044	2.19538	0.671566	2.13692	0.922194	2.94072							0.796178	2.54384						
0.688972	2.195	0.673606	2.13708	0.923821	2.93718							0.797935	2.54189						
0.6909	2.19463	0.675645	2.13723	0.925448	2.93366							0.799693	2.53995						
0.692829	2.19427	0.677684	2.13738	0.927077	2.93017							0.801452	2.53803						
0.694759	2.19391	0.679723	2.13753	0.928706	2.9267							0.803213	2.53612						
0.69669	2.19355	0.681763	2.13768	0.930336	2.92325							0.804975	2.53423						
0.698621	2.19319	0.683802	2.13783	0.931966	2.91983							0.806739	2.53235						
0.700553	2.19285	0.685841	2.13798	0.933598	2.91643							0.808504	2.53049						
0.702485	2.1925	0.68788	2.13812	0.93523	2.91305							0.810271	2.52865						
0.704418	2.19216	0.689918	2.13827	0.936864	2.90969							0.812039	2.52682						
0.706351	2.19182	0.691957	2.13841	0.938498	2.90636							0.813808	2.52501						
0.708286	2.19149	0.693996	2.13855	0.940132	2.90304							0.815579	2.52321						
0.71022	2.19116	0.696034	2.1387	0.941768	2.89975							0.817351	2.52142						
0.712156	2.19083	0.698072	2.13884	0.943405	2.89648							0.819124	2.51965						
0.714091	2.19051	0.700111	2.13897	0.945042	2.89323							0.820899	2.51789						
0.716028	2.19019	0.702149	2.13911	0.946681	2.89							0.822675	2.51615						
0.717965	2.18987	0.704187	2.13925	0.94832	2.8868							0.824453	2.51442						
0.719902	2.18956	0.706225	2.13939	0.94996	2.88361							0.826231	2.51271						
0.72184	2.18925	0.708263	2.13952	0.951601	2.88045							0.828011	2.511						
0.723779	2.18894	0.710301	2.13965	0.953243	2.8773							0.829793	2.50932						
0.725718	2.18864	0.712339	2.13979	0.954885	2.87418							0.831576	2.50764						
0.727658	2.18834	0.714376	2.13992	0.956529	2.87107							0.83336	2.50598						
0.729598	2.18805	0.716414	2.14005	0.958173	2.86799							0.835145	2.50433						
0.731539	2.18775	0.718451	2.14018	0.959819	2.86492							0.836932	2.5027						
0.73348	2.18746	0.720489	2.14031	0.961465	2.86188							0.83872	2.50108						
0.735422	2.18718	0.722526	2.14044	0.963112	2.85885							0.840509	2.49947						
0.737365	2.1869	0.724563	2.14056	0.96476	2.85585							0.842299	2.49787						
0.739308	2.18662	0.7266	2.14069	0.966409	2.85286							0.844091	2.49629						
0.741251	2.18634	0.728637	2.14081	0.968059	2.84989							0.845884	2.49472						
0.743195	2.18606	0.730674	2.14094	0.96971	2.84694							0.847679	2.49316						
0.745139	2.18579	0.732711	2.14106	0.971362	2.84401							0.849474	2.49161						
0.747084	2.18553	0.734748	2.14118	0.973015	2.8411							0.851271	2.49008						
0.749029	2.18526	0.736785	2.14131	0.974668	2.83821							0.853069	2.48856						
0.750975	2.185	0.738821	2.14143	0.976323	2.83534							0.854868	2.48705						
0.752922	2.18474	0.740858	2.14155	0.977978	2.83248							0.856669	2.48555						
0.754869	2.18448	0.742894	2.14166	0.979635	2.82964							0.858471	2.48406						
0.756816	2.18423	0.74493	2.14178	0.981292	2.82682							0.860274	2.48258						
0.758764	2.18398	0.746967	2.1419	0.982951	2.82402							0.862078	2.48112						
0.760712	2.18373	0.749003	2.14201	0.98461	2.82124							0.863883	2.47967						
0.76266	2.18348	0.751039	2.14213	0.98627	2.81847							0.86569	2.47822						
0.76461	2.18324	0.753075	2.14224	0.987931	2.81572							0.867498	2.47679						
0.766559	2.183	0.755111	2.14236	0.989593	2.81299							0.869307	2.47537						
0.768509	2.18276	0.757146	2.14247	0.991256	2.81027							0.871117	2.47397						
0.77046	2.18253	0.759182	2.14258	0.992921	2.80757							0.872929	2.47257						
0.772411	2.18229	0.761218	2.14269	0.994585	2.80489							0.874741	2.47118						
0.774362	2.18206	0.763253	2.1428	0.996251	2.80223							0.876555	2.4698						
0.776314	2.18183	0.765289	2.14291	0.997918	2.79958							0.87837	2.46844						
0.778266	2.18161	0.767324	2.14302	0.999586	2.79695							0.880186	2.46708						
0.780219	2.18138	0.769359	2.14313	1.00125	2.79433							0.882003	2.46574						
0.782172	2.18116	0.771394	2.14323									0.883822	2.4644						
0.784126	2.18094	0.773429	2.14334									0.885641	2.46307						
0.786079	2.18073	0.775464	2.14345									0.887462	2.46176						
0.788034	2.18051	0.777499	2.14355									0.889284	2.46045						
0.789989	2.1803	0.779534	2.14365									0.891107	2.45916						
0.791944	2.18009	0.781569	2.14376									0.892931	2.45787						
0.793899	2.17988	0.783604	2.14386									0.894756	2.4566						
0.795855	2.17968	0.785638	2.14396									0.896582	2.45533						
0.797812	2.17948	0.787673	2.14406									0.89841	2.45407						
0.799768	2.17927	0.789707	2.14416									0.900238	2.45283						
0.801726	2.17908	0.791741	2.14426									0.902068	2.45159						
0.803683	2.17888	0.793775	2.14436									0.903899	2.45036						
0.805641	2.17868	0.79581	2.14446									0.90573	2.44914						
0.807599	2.17849	0.797844	2.14455									0.907563	2.44793						
0.809558	2.1783	0.799878	2.14465									0.909397	2.44672						
0.811517	2.17811	0.801912	2.14474									0.911232	2.44553						
0.813477	2.17792	0.803945	2.14484									0.913068	2.44435						
0.815436	2.17774	0.805979	2.14493									0.914906	2.44317						
0.817396	2.17755	0.808013	2.14503									0.916744	2.442						
0.819357	2.17737	0.810046	2.14512									0.918583	2.44085						
0.821318	2.17719	0.81208	2.14521									0.920423	2.4397						
0.823279	2.17702	0.814113	2.1453									0.922265	2.43856						
0.825241	2.17684	0.816146	2.14539									0.924107	2.43742						
0.827203	2.17667	0.81818	2.14548									0.92595	2.4363						
0.829165	2.17649	0.820213	2.14557									0.927795	2.43518						
0.831128	2.17632	0.822246	2.14566									0.92964	2.43407						
0.833091	2.17615	0.824279	2.14575									0.931487	2.43297						
0.835054	2.17599	0.826312	2.14584									0.933334	2.43188						
0.837018	2.17582	0.828344	2.14592									0.935183	2.43079						
0.838982	2.17566	0.830377	2.14601									0.937032	2.42972						
0.840946	2.17549	0.83241	2.1461									0.938883	2.42865						
0.842911	2.17533	0.834442	2.14618									0.940734	2.42759						
0.844876	2.17517	0.836475	2.14627									0.942587	2.42653						
0.846841	2.17502	0.838507	2.14635									0.94444	2.42549						
0.848807	2.17486	0.840539	2.14643									0.946295	2.42445						
0.850773	2.17471	0.842572	2.14651									0.94815	2.42342						
0.852739	2.17455	0.844604	2.1466									0.950006	2.42239						
0.854705	2.1744	0.846636	2.14668									0.951864	2.42138						
0.856672	2.17425	0.848668	2.14676									0.953722	2.42037						
0.858639	2.17411	0.8507	2.14684									0.955581	2.41937						
0.860607	2.17396	0.852731	2.14692									0.957441	2.41837						
0.862575	2.17381	0.854763	2.147									0.959303	2.41738						
0.864543	2.17367	0.856795	2.14708									0.961165	2.4164						
0.866511	2.17353	0.858826	2.14715									0.963028	2.41543						
0.86848	2.17339	0.860858	2.14723									0.964892	2.41446						
0.870449	2.17325	0.862889	2.14731									0.966756	2.4135						
0.872418	2.17311	0.864921	2.14738									0.968622	2.41255						
0.874388	2.17297	0.866952	2.14746									0.970489	2.4116						
0.876358	2.17284	0.868983	2.14754									0.972357	2.41066						
0.878328	2.1727	0.871014	2.14761									0.974225	2.40973						
0.880298	2.17257	0.873045	2.14768									0.976095	2.4088						
0.882269	2.17244	0.875076	2.14776									0.977965	2.40788						
0.88424	2.17231	0.877107	2.14783									0.979836	2.40696						
0.886211	2.17218	0.879138	2.1479									0.981708	2.40606						
0.888183	2.17205	0.881168	2.14797									0.983581	2.40515						
0.890155	2.17192	0.883199	2.14805									0.985455	2.40426						
0.892127	2.1718	0.88523	2.14812									0.98733	2.40337						
0.894099	2.17167	0.88726	2.14819									0.989206	2.40249						
0.896072	2.17155	0.88929	2.14826									0.991082	2.40161						
0.898045	2.17143	0.891321	2.14833									0.99296	2.40074						
0.900018	2.17131	0.893351	2.1484									0.994838	2.39987						
0.901991	2.17119	0.895381	2.14846									0.996717	2.39902						
0.903965	2.17107	0.897411	2.14853									0.998597	2.39816						
0.905939	2.17095	0.899441	2.1486									1.00048	2.39732						
0.907913	2.17084	0.901471	2.14867																
0.909888	2.17072	0.903501	2.14873																
0.911862	2.17061	0.905531	2.1488																
0.913837	2.1705	0.90756	2.14886																
0.915812	2.17039	0.90959	2.14893																
0.917788	2.17027	0.91162	2.14899																
0.919763	2.17017	0.913649	2.14906																
0.921739	2.17006	0.915678	2.14912																
0.923715	2.16995	0.917708	2.14918																
0.925692	2.16984	0.919737	2.14925																
0.927669	2.16974	0.921766	2.14931																
0.929645	2.16963	0.923795	2.14937																
0.931622	2.16953	0.925824	2.14943																
0.9336	2.16943	0.927853	2.14949																
0.935577	2.16933	0.929882	2.14955																
0.937555	2.16923	0.931911	2.14961																
0.939533	2.16913	0.93394	2.14967																
0.941511	2.16903	0.935968	2.14973																
0.94349	2.16893	0.937997	2.14979																
0.945468	2.16883	0.940025	2.14985																
0.947447	2.16874	0.942054	2.14991																
0.949426	2.16864	0.944082	2.14997																
0.951406	2.16855	0.94611	2.15002																
0.953385	2.16846	0.948138	2.15008																
0.955365	2.16836	0.950167	2.15014																
0.957345	2.16827	0.952195	2.15019																
0.959325	2.16818	0.954223	2.15025																
0.961305	2.16809	0.95625	2.1503																
0.963286	2.168	0.958278	2.15036																
0.965267	2.16792	0.960306	2.15041																
0.967248	2.16783	0.962334	2.15047																
0.969229	2.16774	0.964361	2.15052																
0.97121	2.16766	0.966389	2.15057																
0.973192	2.16757	0.968416	2.15063																
0.975174	2.16749	0.970444	2.15068																
0.977156	2.16741	0.972471	2.15073																
0.979138	2.16732	0.974498	2.15078																
0.98112	2.16724	0.976526	2.15083																
0.983103	2.16716	0.978553	2.15088																
0.985085	2.16708	0.98058	2.15094																
0.987068	2.167	0.982607	2.15099																
0.989052	2.16692	0.984634	2.15104																
0.991035	2.16685	0.986661	2.15109																
0.993018	2.16677	0.988687	2.15113																
0.995002	2.16669	0.990714	2.15118																
0.996986	2.16662	0.992741	2.15123																
0.99897	2.16654	0.994767	2.15128																
1.00095	2.16647	0.996794	2.15133																
		0.99882	2.15138																
		1.00085	2.15142																
