Sym0		Asym0		Sym1		Sym2		Sym3		Sym4		Asym1		Asym2		Asym3		Asym4	
488  Points		501  Points		306  Points		232  Points		213  Points		157  Points		410  Points		253  Points		210  Points		164  Points	
Freq (MHz)	Vph (m/ms)	Freq (MHz)	Vph (m/ms)	Freq (MHz)	Vph (m/ms)	Freq (MHz)	Vph (m/ms)	Freq (MHz)	Vph (m/ms)	Freq (MHz)	Vph (m/ms)	Freq (MHz)	Vph (m/ms)	Freq (MHz)	Vph (m/ms)	Freq (MHz)	Vph (m/ms)	Freq (MHz)	Vph (m/ms)
0.000276509	4.52962	5.09261e-005	0.0578526	0.27951	954.652	0.393109	509.181	0.559018	1779.57	0.838526	2876.72	0.139765	395.101	0.419265	1182.57	0.698772	3883.95	0.786202	973.189
0.00449615	4.52903	0.000215361	0.118855	0.279536	228.29	0.393154	230.76	0.559041	448.731	0.838539	685.539	0.139895	108.83	0.419293	325.986	0.698783	628.624	0.786225	451.969
0.00871566	4.52895	0.000492471	0.179494	0.279595	129.672	0.393232	149.21	0.55909	256.755	0.838568	389.149	0.140172	63.2223	0.419354	189.075	0.69881	342	0.786265	294.343
0.0129346	4.52873	0.000880561	0.239585	0.279687	90.5759	0.393344	110.269	0.559167	179.842	0.838613	271.697	0.140596	44.6501	0.419446	133.173	0.698853	234.909	0.786322	218.244
0.017153	4.52845	0.0013772	0.298932	0.27981	69.612	0.393489	87.465	0.55927	138.402	0.838675	208.716	0.141163	34.5942	0.41957	102.803	0.698912	178.901	0.786396	173.42
0.0213704	4.52808	0.00197956	0.357402	0.279966	56.5444	0.393669	72.4919	0.5594	112.496	0.838752	169.446	0.141871	28.305	0.419727	83.7275	0.698987	144.467	0.786488	143.878
0.0255866	4.52763	0.00268419	0.414838	0.280154	47.6213	0.393882	61.9095	0.559556	94.771	0.838845	142.621	0.142716	24.0105	0.419915	70.6368	0.699078	121.156	0.786596	122.943
0.0298014	4.52709	0.00348717	0.471104	0.280374	41.1428	0.394128	54.0353	0.55974	81.8812	0.838954	123.134	0.143696	20.8994	0.420136	61.0982	0.699185	104.328	0.786721	107.333
0.0340147	4.52648	0.00438438	0.526094	0.280626	36.2269	0.394409	47.9489	0.55995	72.0871	0.839079	108.338	0.144806	18.5475	0.420388	53.84	0.699308	91.6107	0.786863	95.2454
0.0382261	4.52578	0.00537134	0.579712	0.280909	32.3701	0.394723	43.1048	0.560187	64.3938	0.839221	96.7207	0.14604	16.7113	0.420671	48.1329	0.699447	81.6618	0.787022	85.6099
0.0424354	4.525	0.00644351	0.631889	0.281224	29.2645	0.395072	39.1587	0.56045	58.1919	0.839378	87.3584	0.147395	15.2414	0.420987	43.5287	0.699602	73.6666	0.787198	77.7494
0.0466424	4.52413	0.00759604	0.682549	0.281571	26.7109	0.395454	35.8829	0.560741	53.0865	0.839551	79.6528	0.148866	14.0408	0.421334	39.7366	0.699772	67.1015	0.787391	71.2152
0.0508468	4.52318	0.00882436	0.731668	0.281948	24.5747	0.395871	33.1207	0.561057	48.8111	0.83974	73.2002	0.150447	13.0437	0.421713	36.5598	0.699959	61.6147	0.787601	65.698
0.0550482	4.52213	0.0101238	0.779213	0.282356	22.7618	0.396322	30.7606	0.561401	45.1789	0.839945	67.7183	0.152133	12.204	0.422123	33.8604	0.700161	56.961	0.787828	60.9779
0.0592466	4.52099	0.0114895	0.825157	0.282795	21.2046	0.396807	28.7213	0.56177	42.0554	0.840167	63.0036	0.153919	11.4887	0.422564	31.5387	0.70038	52.9642	0.788072	56.894
0.0634415	4.51976	0.0129172	0.869513	0.283265	19.8528	0.397327	26.9421	0.562166	39.3411	0.840403	58.9058	0.155801	10.873	0.423036	29.5211	0.700614	49.4947	0.788334	53.326
0.0676327	4.51844	0.0144026	0.912282	0.283764	18.6688	0.397881	25.3764	0.562589	36.9607	0.840656	55.3114	0.157774	10.3385	0.42354	27.7519	0.700864	46.4547	0.788612	50.1822
0.0718199	4.51702	0.0159413	0.953476	0.284293	17.6234	0.39847	23.9886	0.563037	34.8566	0.840925	52.1333	0.159832	9.87071	0.424074	26.1881	0.70113	43.7694	0.788908	47.3913
0.0760028	4.5155	0.0175295	0.993128	0.284852	16.6938	0.399094	22.7501	0.563512	32.9835	0.84121	49.3031	0.161972	9.45861	0.424639	24.7964	0.701411	41.3802	0.78922	44.8972
0.0801811	4.51387	0.0191634	1.03126	0.285439	15.8622	0.399753	21.6384	0.564012	31.3056	0.84151	46.767	0.164188	9.09331	0.425234	23.5499	0.701709	39.2408	0.78955	42.6552
0.0843544	4.51215	0.0208395	1.06792	0.286056	15.1139	0.400447	20.6353	0.564539	29.7941	0.841827	44.4813	0.16618	8.80755	0.42586	22.4273	0.702022	37.3142	0.789897	40.6289
0.0885225	4.51032	0.0225545	1.10313	0.286702	14.4373	0.401176	19.7258	0.565092	28.4255	0.842159	42.411	0.167919	8.58481	0.426516	21.4113	0.70235	35.5701	0.790261	38.7888
0.0926848	4.50838	0.0243053	1.13695	0.287376	13.8227	0.40194	18.8976	0.56567	27.1807	0.842507	40.527	0.169385	8.41358	0.427203	20.4875	0.702695	33.984	0.790643	37.1104
0.096841	4.50632	0.0260888	1.16941	0.288078	13.2622	0.402739	18.1406	0.566274	26.0438	0.84287	38.8053	0.170561	8.28576	0.427919	19.6441	0.703055	32.5354	0.791041	35.5734
0.100991	4.50415	0.0279025	1.20057	0.288808	12.749	0.403574	17.446	0.566904	25.0015	0.84325	37.226	0.171435	8.19576	0.428664	18.8712	0.70343	31.2073	0.791457	34.1609
0.105134	4.50186	0.0297437	1.23047	0.289566	12.2775	0.404445	16.8068	0.567558	24.0425	0.843645	35.7721	0.171999	8.13984	0.42944	18.1605	0.703822	29.9852	0.79189	32.8582
0.10927	4.49945	0.0316103	1.25916	0.290351	11.8429	0.405351	16.2166	0.568239	23.1573	0.844055	34.4294	0.172815	8.06166	0.430244	17.5048	0.704228	28.8571	0.792341	31.6532
0.113398	4.4969	0.0335	1.28668	0.291163	11.4413	0.406293	15.6702	0.568944	22.3379	0.844482	33.1856	0.173709	7.97951	0.431078	16.8982	0.704651	27.8126	0.792808	30.5353
0.117517	4.49422	0.0354108	1.31308	0.292003	11.069	0.40727	15.163	0.569675	21.5773	0.844924	32.0302	0.174937	7.87227	0.43194	16.3354	0.705088	26.8427	0.793293	29.4956
0.121628	4.49141	0.0373409	1.33841	0.292869	10.7231	0.408284	14.6911	0.570431	20.8694	0.845381	30.9543	0.176509	7.74358	0.432831	15.8119	0.705541	25.9399	0.793796	28.5261
0.12573	4.48845	0.0392887	1.36272	0.293763	10.401	0.409333	14.2511	0.571211	20.2091	0.845854	29.9499	0.178438	7.59751	0.43375	15.324	0.70601	25.0974	0.794316	27.62
0.129822	4.48534	0.0412524	1.38604	0.294682	10.1004	0.410419	13.84	0.572016	19.5918	0.846343	29.0101	0.180738	7.43829	0.434698	14.868	0.706493	24.3095	0.794853	26.7714
0.133903	4.48207	0.0432308	1.40842	0.295629	9.81927	0.411541	13.4551	0.572846	19.0135	0.846847	28.1291	0.183423	7.27005	0.435674	14.4412	0.706993	23.571	0.795408	25.9749
0.137974	4.47865	0.0452225	1.42991	0.296602	9.55588	0.412698	13.0941	0.573701	18.4707	0.847367	27.3015	0.186156	7.11561	0.436677	14.0409	0.707507	22.8775	0.79598	25.2261
0.142032	4.47505	0.0472263	1.45053	0.297602	9.30867	0.413892	12.7549	0.574579	17.9602	0.847902	26.5225	0.188934	6.97345	0.437708	13.6646	0.708037	22.2251	0.796569	24.5208
0.146079	4.47129	0.049241	1.47034	0.298629	9.07628	0.415122	12.4357	0.575482	17.4794	0.848452	25.7882	0.191755	6.84227	0.438766	13.3105	0.708581	21.6102	0.797176	23.8553
0.150112	4.46733	0.0512658	1.48936	0.299545	8.88488	0.416388	12.135	0.576409	17.0257	0.849018	25.0947	0.194616	6.72091	0.439851	12.9767	0.709141	21.0297	0.797801	23.2264
0.154131	4.46319	0.0532995	1.50764	0.300343	8.72933	0.41769	11.8511	0.57736	16.5971	0.849599	24.4389	0.197515	6.6084	0.440963	12.6614	0.709716	20.4809	0.798443	22.6312
0.158135	4.45885	0.0550785	1.52298	0.301013	8.60568	0.419028	11.5829	0.578334	16.1914	0.850195	23.8177	0.20045	6.50386	0.442101	12.3634	0.710307	19.9612	0.799103	22.0672
0.162124	4.4543	0.0565995	1.53565	0.301551	8.51094	0.420402	11.3291	0.579333	15.8071	0.850806	23.2286	0.20342	6.40654	0.443266	12.0812	0.710912	19.4685	0.79978	21.5319
0.166096	4.44954	0.0578601	1.54585	0.301951	8.44292	0.421812	11.0887	0.580354	15.4424	0.851433	22.669	0.206422	6.31576	0.444457	11.8136	0.711532	19.0007	0.800475	21.0233
0.17005	4.44454	0.0588586	1.55374	0.302208	8.40011	0.423258	10.8607	0.581399	15.0959	0.852075	22.137	0.209454	6.23093	0.445673	11.5597	0.712167	18.556	0.801188	20.5394
0.173986	4.43931	0.0595938	1.55945	0.302581	8.33951	0.424739	10.6442	0.582468	14.7665	0.852731	21.6305	0.212516	6.15152	0.446915	11.3184	0.712817	18.1327	0.801918	20.0786
0.177902	4.43382	0.0600647	1.56306	0.302989	8.27488	0.426257	10.4385	0.583559	14.4527	0.853403	21.1477	0.215606	6.07707	0.448182	11.0888	0.713482	17.7294	0.802666	19.6391
0.181798	4.42808	0.0607422	1.5682	0.303551	8.189	0.427809	10.2429	0.584673	14.1537	0.85409	20.6871	0.218722	6.00715	0.449474	10.8702	0.714162	17.3448	0.803432	19.2197
0.185671	4.42206	0.0614792	1.57371	0.30427	8.0836	0.429398	10.0565	0.58581	13.8685	0.854792	20.2472	0.221863	5.94138	0.450791	10.6618	0.714857	16.9775	0.804215	18.819
0.18952	4.41576	0.0624827	1.58108	0.305155	7.96072	0.431021	9.879	0.586969	13.596	0.855509	19.8266	0.225028	5.87943	0.452132	10.463	0.715566	16.6264	0.805017	18.4358
0.193345	4.40915	0.0637535	1.59021	0.306213	7.82263	0.432679	9.70967	0.588151	13.3356	0.85624	19.4242	0.228215	5.821	0.453498	10.2731	0.71629	16.2906	0.805836	18.0691
0.197143	4.40224	0.0652927	1.60096	0.307454	7.67174	0.434372	9.54803	0.589355	13.0865	0.856987	19.0387	0.231423	5.76581	0.454887	10.0916	0.717029	15.969	0.806672	17.7177
0.200913	4.39499	0.0671015	1.6132	0.308726	7.52845	0.4361	9.39363	0.590581	12.8479	0.857748	18.6692	0.234652	5.71362	0.4563	9.91793	0.717783	15.6608	0.807527	17.3808
0.204654	4.3874	0.0691809	1.62675	0.310028	7.39226	0.437862	9.24603	0.591829	12.6193	0.858524	18.3147	0.237899	5.6642	0.457737	9.75168	0.718551	15.3653	0.808399	17.0575
0.208363	4.37945	0.0712639	1.63981	0.311362	7.26272	0.439659	9.10484	0.593099	12.4	0.859314	17.9743	0.241165	5.61734	0.459197	9.59238	0.719334	15.0815	0.80929	16.7471
0.21204	4.37113	0.0733501	1.65239	0.312728	7.13943	0.441252	8.98673	0.59439	12.1896	0.860119	17.6472	0.244448	5.57287	0.460679	9.43963	0.720131	14.809	0.810198	16.4487
0.215682	4.36242	0.0754391	1.66451	0.314128	7.02204	0.44263	8.88949	0.595703	11.9874	0.860939	17.3327	0.247747	5.5306	0.462185	9.29307	0.720943	14.5469	0.811124	16.1618
0.219287	4.3533	0.0775307	1.6762	0.315563	6.91019	0.443784	8.81138	0.597038	11.7932	0.861773	17.0301	0.251061	5.49039	0.463713	9.15233	0.721769	14.2949	0.812068	15.8857
0.222853	4.34376	0.0796244	1.68748	0.317034	6.80358	0.444705	8.75104	0.598393	11.6064	0.862622	16.7387	0.254389	5.4521	0.465062	9.0342	0.72261	14.0522	0.81303	15.6198
0.226379	4.33378	0.0817202	1.69836	0.318541	6.70194	0.445387	8.70745	0.599769	11.4266	0.863485	16.4579	0.257732	5.41559	0.466226	8.93665	0.723465	13.8185	0.81401	15.3637
0.229862	4.32335	0.0838176	1.70886	0.320088	6.605	0.445826	8.67989	0.601166	11.2534	0.864362	16.1871	0.261087	5.38075	0.467197	8.85809	0.724335	13.5932	0.815007	15.1167
0.233301	4.31245	0.0859165	1.719	0.321674	6.51253	0.44646	8.64073	0.602584	11.0866	0.865254	15.926	0.264454	5.34746	0.467971	8.79728	0.725219	13.3759	0.816023	14.8784
0.236692	4.30107	0.0880167	1.72879	0.323302	6.42431	0.447153	8.59877	0.604023	10.9258	0.86616	15.6738	0.267832	5.31564	0.468543	8.75328	0.726117	13.1662	0.817056	14.6484
0.240035	4.28919	0.0901179	1.73825	0.324973	6.34014	0.448102	8.54268	0.605481	10.7707	0.86708	15.4303	0.271221	5.28517	0.468911	8.72544	0.72703	12.9638	0.818108	14.4263
0.243327	4.27681	0.0922201	1.7474	0.326689	6.25983	0.449314	8.47333	0.60696	10.6209	0.868014	15.195	0.27462	5.25597	0.469441	8.68583	0.727957	12.7682	0.819177	14.2116
0.246566	4.26392	0.094323	1.75624	0.328452	6.18322	0.450795	8.39173	0.608459	10.4764	0.868962	14.9675	0.278028	5.22798	0.470021	8.64333	0.728898	12.5791	0.820265	14.0042
0.24975	4.2505	0.0964266	1.76479	0.330263	6.11015	0.452555	8.29907	0.609978	10.3367	0.869924	14.7474	0.281445	5.2011	0.470813	8.58645	0.729853	12.3963	0.82137	13.8035
0.252878	4.23656	0.0985306	1.77306	0.332125	6.04047	0.454605	8.19662	0.611517	10.2017	0.870901	14.5344	0.28487	5.17528	0.471822	8.51596	0.730823	12.2194	0.822493	13.6093
0.255557	4.22398	0.100635	1.78107	0.334039	5.97405	0.456686	8.09811	0.613075	10.0712	0.871891	14.3281	0.288301	5.15045	0.473052	8.43283	0.731807	12.0482	0.823635	13.4212
0.257805	4.21294	0.10274	1.78882	0.336006	5.91074	0.458799	8.00334	0.614652	9.94487	0.872895	14.1283	0.29174	5.12655	0.474511	8.33814	0.732805	11.8823	0.824794	13.2391
0.259639	4.2036	0.104844	1.79633	0.338029	5.85044	0.460942	7.91214	0.616249	9.82263	0.873912	13.9346	0.295185	5.10353	0.476203	8.2331	0.733817	11.7217	0.825971	13.0627
0.261073	4.19607	0.106949	1.80361	0.34011	5.79304	0.463116	7.82432	0.617865	9.70428	0.874944	13.7469	0.298635	5.08133	0.477917	8.13173	0.734844	11.5659	0.827166	12.8916
0.262118	4.19045	0.109054	1.81065	0.342249	5.73841	0.46532	7.73972	0.6195	9.58963	0.875989	13.5647	0.30209	5.0599	0.47965	8.03387	0.735884	11.4149	0.828379	12.7257
0.262782	4.18682	0.111159	1.81749	0.344448	5.68645	0.467553	7.65819	0.621154	9.47853	0.877047	13.388	0.30555	5.03921	0.481404	7.93935	0.736939	11.2684	0.82961	12.5648
0.263732	4.18156	0.113264	1.82411	0.346709	5.63707	0.469816	7.57958	0.622827	9.37082	0.87812	13.2164	0.309013	5.01921	0.483177	7.84801	0.738008	11.1263	0.830859	12.4086
0.264757	4.17578	0.115369	1.83054	0.349032	5.59016	0.472107	7.50375	0.624299	9.27962	0.879205	13.0497	0.31248	4.99985	0.48497	7.7597	0.739091	10.9882	0.832126	12.257
0.266138	4.16781	0.117473	1.83678	0.351418	5.54563	0.474427	7.43059	0.625566	9.20376	0.880304	12.8878	0.315949	4.98111	0.486783	7.6743	0.740188	10.8542	0.83341	12.1097
0.267863	4.15757	0.119577	1.84283	0.353869	5.50339	0.476775	7.35996	0.626621	9.1423	0.881417	12.7304	0.319421	4.96294	0.488615	7.59167	0.741299	10.724	0.834713	11.9666
0.269918	4.14494	0.121681	1.84871	0.356384	5.46333	0.47915	7.29176	0.62746	9.0945	0.882542	12.5775	0.322894	4.94532	0.490466	7.51169	0.742424	10.5974	0.836033	11.8276
0.272285	4.12979	0.123784	1.85442	0.358963	5.42538	0.481553	7.22587	0.62808	9.05978	0.883681	12.4287	0.326369	4.92822	0.492336	7.43425	0.743564	10.4744	0.837371	11.6924
0.274942	4.11198	0.125888	1.85996	0.361606	5.38944	0.483982	7.1622	0.628477	9.03776	0.884833	12.2839	0.329845	4.9116	0.494225	7.35924	0.744717	10.3547	0.838727	11.5609
0.277536	4.09374	0.12799	1.86536	0.364313	5.35541	0.486438	7.10064	0.629051	9.00636	0.885998	12.143	0.33332	4.89544	0.496132	7.28655	0.745885	10.2383	0.840101	11.433
0.280068	4.07509	0.130093	1.8706	0.367082	5.32322	0.48892	7.04111	0.629676	8.97257	0.887177	12.0058	0.336796	4.87971	0.498058	7.2161	0.747066	10.1251	0.841493	11.3086
0.28254	4.05606	0.132195	1.87569	0.369914	5.29277	0.491428	6.98352	0.630531	8.92718	0.888368	11.8723	0.34027	4.86439	0.500003	7.14778	0.748262	10.0148	0.842902	11.1875
0.284951	4.03669	0.134296	1.88065	0.372805	5.26397	0.49396	6.92778	0.631618	8.87068	0.889572	11.7422	0.343744	4.84945	0.501966	7.08152	0.749471	9.90745	0.844329	11.0695
0.287304	4.017	0.136397	1.88547	0.375756	5.23674	0.496518	6.87383	0.632941	8.80369	0.890789	11.6154	0.347215	4.83488	0.503947	7.01723	0.750695	9.8029	0.845773	10.9546
0.2896	3.99703	0.138498	1.89016	0.378764	5.21099	0.499099	6.82158	0.634505	8.7269	0.892018	11.4918	0.350685	4.82065	0.505945	6.95484	0.751933	9.70103	0.847236	10.8427
0.291841	3.97682	0.140598	1.89473	0.381827	5.18665	0.501705	6.77097	0.636317	8.64109	0.893261	11.3713	0.354152	4.80674	0.507962	6.89427	0.753185	9.60177	0.848716	10.7337
0.294029	3.9564	0.142697	1.89918	0.384943	5.16363	0.504334	6.72193	0.638147	8.55767	0.894516	11.2538	0.357615	4.79314	0.509997	6.83545	0.754287	9.51731	0.850213	10.6274
0.296165	3.93581	0.144796	1.90351	0.38811	5.14186	0.506986	6.6744	0.639994	8.47653	0.895783	11.1392	0.361075	4.77983	0.512049	6.77831	0.755235	9.44678	0.851728	10.5238
0.298252	3.91507	0.146895	1.90773	0.391327	5.12125	0.509661	6.62831	0.641858	8.39759	0.897063	11.0273	0.364531	4.76678	0.51412	6.7228	0.756025	9.38944	0.85326	10.4227
0.300293	3.89423	0.148993	1.91185	0.394589	5.10175	0.512358	6.58362	0.64374	8.32078	0.898356	10.9182	0.367982	4.75399	0.516207	6.66885	0.756653	9.34473	0.85481	10.3242
0.302289	3.87331	0.151091	1.91586	0.397896	5.08327	0.515078	6.54026	0.645639	8.24602	0.899661	10.8116	0.371428	4.74144	0.518313	6.61641	0.757118	9.31219	0.856378	10.228
0.304242	3.85235	0.153188	1.91977	0.401245	5.06575	0.517819	6.49819	0.647554	8.17323	0.900978	10.7076	0.374869	4.72911	0.520436	6.56543	0.757416	9.29152	0.857962	10.1342
0.306155	3.83138	0.155284	1.92358	0.404633	5.04914	0.520581	6.45735	0.649487	8.10234	0.902308	10.6059	0.378303	4.717	0.522576	6.51584	0.757845	9.26201	0.859565	10.0426
0.308031	3.81042	0.15738	1.9273	0.408058	5.03336	0.523363	6.4177	0.651436	8.03329	0.903649	10.5066	0.381731	4.70508	0.524734	6.46761	0.758314	9.2302	0.861184	9.95314
0.30987	3.7895	0.159476	1.93093	0.411518	5.01837	0.526167	6.37919	0.653402	7.96601	0.905003	10.4096	0.385152	4.69335	0.526909	6.42069	0.758954	9.18739	0.86282	9.86582
0.311676	3.76865	0.161571	1.93448	0.415011	5.0041	0.52899	6.34178	0.655384	7.90043	0.906369	10.3148	0.388566	4.68179	0.529102	6.37503	0.759769	9.13397	0.864474	9.78054
0.313451	3.74788	0.163665	1.93794	0.418534	4.99052	0.531833	6.30544	0.657383	7.83652	0.907747	10.2221	0.391971	4.67039	0.531312	6.3306	0.760761	9.07043	0.865929	9.70782
0.315196	3.72722	0.165759	1.94131	0.422086	4.97758	0.534695	6.27012	0.659398	7.7742	0.909137	10.1314	0.395368	4.65915	0.533539	6.28734	0.761935	8.99733	0.86718	9.64699
0.316913	3.70669	0.167853	1.94461	0.425664	4.96522	0.537577	6.23577	0.66143	7.71342	0.910539	10.0428	0.398756	4.64804	0.535784	6.24522	0.763296	8.91531	0.868221	9.59747
0.318604	3.6863	0.169946	1.94784	0.429267	4.95341	0.540477	6.20238	0.663478	7.65414	0.911953	9.95608	0.402135	4.63706	0.538046	6.20422	0.76467	8.83521	0.869049	9.5588
0.320272	3.66608	0.172038	1.95099	0.432892	4.94211	0.543395	6.16991	0.665542	7.5963	0.913378	9.87123	0.405503	4.62621	0.540326	6.16428	0.766059	8.75699	0.86966	9.53065
0.321916	3.64602	0.17413	1.95407	0.436538	4.93128	0.546332	6.13831	0.667621	7.53986	0.91463	9.79878	0.408862	4.61546	0.542623	6.12538	0.767462	8.68057	0.870053	9.51275
0.32354	3.62615	0.176222	1.95708	0.440203	4.92089	0.549286	6.10757	0.669717	7.48477	0.915704	9.73808	0.412209	4.60482	0.544938	6.08749	0.768879	8.60591	0.870618	9.48717
0.325145	3.60648	0.178313	1.96002	0.443886	4.91092	0.552258	6.07765	0.671829	7.43099	0.916596	9.6886	0.415545	4.59427	0.547271	6.05057	0.77031	8.53294	0.871235	9.4596
0.326732	3.58701	0.180404	1.9629	0.447585	4.90132	0.555246	6.04853	0.673956	7.37849	0.917306	9.64994	0.41887	4.58381	0.549621	6.0146	0.771755	8.46162	0.872077	9.42244
0.328302	3.56775	0.182494	1.96572	0.451299	4.89207	0.558252	6.02017	0.6761	7.32721	0.917829	9.62176	0.422182	4.57342	0.551988	5.97954	0.773215	8.3919	0.873148	9.37604
0.329857	3.54872	0.184584	1.96847	0.455025	4.88315	0.561274	5.99255	0.678259	7.27713	0.918164	9.60384	0.425481	4.56311	0.554374	5.94538	0.774688	8.32372	0.874452	9.32076
0.331397	3.52991	0.186673	1.97117	0.458764	4.87453	0.564312	5.96564	0.680433	7.22821	0.918648	9.57823	0.428767	4.55286	0.556777	5.91208	0.776176	8.25705	0.875993	9.25708
0.332925	3.51133	0.188762	1.97381	0.462513	4.86619	0.567367	5.93943	0.682623	7.1804	0.919175	9.55058	0.43204	4.54266	0.559198	5.87962	0.777678	8.19184	0.877778	9.1855
0.33444	3.49299	0.190851	1.97639	0.466271	4.85811	0.570437	5.91389	0.684829	7.13369	0.919894	9.51332	0.435298	4.53252	0.561637	5.84798	0.779194	8.12804	0.879578	9.11547
0.335945	3.47489	0.192939	1.97892	0.470038	4.85028	0.573522	5.88899	0.68705	7.08804	0.920807	9.46673	0.438542	4.52242	0.564095	5.81713	0.780725	8.06562	0.881396	9.04695
0.337439	3.45703	0.195027	1.9814	0.473812	4.84266	0.576622	5.86472	0.689286	7.04341	0.921916	9.41118	0.44177	4.51236	0.56657	5.78705	0.782269	8.00453	0.88323	8.9799
0.338924	3.43941	0.197114	1.98383	0.477592	4.83526	0.579738	5.84106	0.691538	6.99978	0.923226	9.34708	0.444983	4.50234	0.569063	5.75773	0.783828	7.94474	0.885081	8.91427
0.3404	3.42204	0.199201	1.98621	0.481378	4.82804	0.582868	5.81798	0.693805	6.95712	0.92474	9.27492	0.448181	4.49234	0.571575	5.72914	0.785402	7.88621	0.886948	8.85003
0.341869	3.40491	0.201287	1.98854	0.485167	4.821	0.586012	5.79547	0.696088	6.91539	0.926265	9.2042	0.451361	4.48236	0.574105	5.70125	0.786989	7.82891	0.888831	8.78714
0.343331	3.38803	0.203374	1.99082	0.48896	4.81412	0.589171	5.77351	0.698385	6.87459	0.927801	9.1349	0.454525	4.4724	0.576654	5.67406	0.788591	7.7728	0.890731	8.72555
0.344786	3.3714	0.205459	1.99306	0.492756	4.80739	0.592344	5.75208	0.700698	6.83468	0.929349	9.06696	0.457672	4.46245	0.57922	5.64754	0.790206	7.71785	0.892647	8.66523
0.346235	3.355	0.207545	1.99526	0.496553	4.80079	0.59553	5.73117	0.703027	6.79563	0.930907	9.00035	0.460802	4.45252	0.581806	5.62168	0.791836	7.66403	0.894579	8.60615
0.34768	3.33886	0.20963	1.99741	0.500351	4.79433	0.59873	5.71076	0.70537	6.75742	0.932476	8.93503	0.463913	4.44259	0.58441	5.59646	0.793481	7.61131	0.896527	8.54827
0.34912	3.32295	0.211714	1.99953	0.504149	4.78798	0.601943	5.69084	0.707729	6.72004	0.934057	8.87098	0.467006	4.43266	0.587032	5.57186	0.795139	7.55966	0.898491	8.49156
0.350555	3.30729	0.213799	2.0016	0.507946	4.78173	0.60517	5.67139	0.710102	6.68345	0.935648	8.80815	0.47008	4.42272	0.589674	5.54787	0.796812	7.50905	0.900472	8.436
0.351987	3.29186	0.215883	2.00363	0.511743	4.77558	0.608409	5.65239	0.712491	6.64764	0.937249	8.74651	0.473135	4.41279	0.592333	5.52447	0.798499	7.45945	0.902468	8.38154
0.353416	3.27668	0.217966	2.00563	0.515537	4.76952	0.611661	5.63384	0.714895	6.61259	0.938862	8.68604	0.476171	4.40284	0.595012	5.50164	0.800201	7.41084	0.904479	8.32816
0.354842	3.26172	0.22005	2.00759	0.519328	4.76353	0.614926	5.61572	0.717315	6.57828	0.940485	8.6267	0.479188	4.39289	0.597709	5.47938	0.801916	7.3632	0.906507	8.27583
0.356266	3.247	0.222133	2.00951	0.523116	4.75762	0.618203	5.59801	0.719749	6.54468	0.942119	8.56846	0.482184	4.38292	0.600425	5.45766	0.803646	7.31649	0.90855	8.22453
0.357688	3.23251	0.224215	2.0114	0.5269	4.75177	0.621492	5.58071	0.722199	6.51179	0.943764	8.51129	0.48516	4.37294	0.603159	5.43648	0.80539	7.27069	0.910609	8.17422
0.359108	3.21825	0.226298	2.01325	0.53068	4.74598	0.624793	5.56381	0.724663	6.47958	0.945419	8.45518	0.488116	4.36294	0.605913	5.41581	0.807148	7.22579	0.912683	8.12489
0.360527	3.20421	0.22838	2.01507	0.534455	4.74024	0.628106	5.54729	0.727143	6.44804	0.947084	8.40008	0.491051	4.35293	0.608684	5.39565	0.80892	7.18175	0.914773	8.07651
0.361945	3.1904	0.230461	2.01686	0.538223	4.73455	0.631431	5.53114	0.729638	6.41715	0.94876	8.34597	0.493965	4.34289	0.611475	5.37599	0.810707	7.13857	0.916878	8.02905
0.363362	3.1768	0.232543	2.01862	0.541986	4.72889	0.634767	5.51535	0.732149	6.38689	0.950446	8.29284	0.496858	4.33283	0.614283	5.3568	0.812508	7.09621	0.918998	7.98249
0.364779	3.16342	0.234624	2.02034	0.545742	4.72326	0.638115	5.49991	0.734674	6.35725	0.952143	8.24065	0.49973	4.32276	0.61711	5.33808	0.814323	7.05465	0.921134	7.93681
0.366196	3.15025	0.236705	2.02204	0.549491	4.71767	0.641474	5.48482	0.737215	6.32822	0.95385	8.18939	0.50258	4.31265	0.619956	5.31982	0.816152	7.01388	0.923285	7.89198
0.367612	3.13729	0.238786	2.0237	0.553232	4.71209	0.644843	5.47005	0.739772	6.29978	0.955567	8.13902	0.505409	4.30253	0.622819	5.302	0.817995	6.97388	0.92545	7.84799
0.369029	3.12454	0.240866	2.02534	0.556965	4.70654	0.648224	5.45562	0.742343	6.27192	0.957294	8.08954	0.508216	4.29238	0.6257	5.28462	0.819852	6.93463	0.927631	7.80482
0.370446	3.11199	0.242946	2.02695	0.560689	4.70099	0.651616	5.44149	0.74493	6.24462	0.959031	8.04091	0.511001	4.28221	0.6286	5.26765	0.821723	6.89612	0.929826	7.76244
0.371864	3.09964	0.245026	2.02854	0.564403	4.69546	0.655018	5.42767	0.747533	6.21787	0.960778	7.99312	0.513765	4.27202	0.631516	5.2511	0.823608	6.85831	0.932037	7.72084
0.373283	3.08749	0.247105	2.0301	0.568109	4.68993	0.65843	5.41415	0.75015	6.19166	0.962535	7.94615	0.516507	4.2618	0.63445	5.23494	0.825508	6.82121	0.934262	7.68
0.374703	3.07553	0.249185	2.03163	0.571804	4.68441	0.661853	5.40092	0.752784	6.16598	0.964303	7.89997	0.519227	4.25156	0.637402	5.21917	0.827421	6.78479	0.936501	7.63989
0.376124	3.06377	0.251264	2.03313	0.575488	4.67888	0.665286	5.38797	0.755433	6.14081	0.96608	7.85458	0.521926	4.2413	0.64037	5.20378	0.829349	6.74903	0.938755	7.60051
0.377547	3.05219	0.253343	2.03462	0.579162	4.67335	0.668729	5.37529	0.758097	6.11615	0.967867	7.80995	0.524602	4.23102	0.643355	5.18875	0.83129	6.71392	0.941024	7.56184
0.378971	3.0408	0.255421	2.03607	0.582824	4.66781	0.672182	5.36288	0.760777	6.09198	0.969664	7.76606	0.527257	4.22071	0.646357	5.17408	0.833245	6.67945	0.943307	7.52385
0.380396	3.02959	0.2575	2.03751	0.586475	4.66226	0.675644	5.35073	0.763473	6.0683	0.97147	7.7229	0.529891	4.21039	0.649374	5.15975	0.835214	6.6456	0.945604	7.48654
0.381824	3.01856	0.259578	2.03892	0.590114	4.65669	0.679116	5.33884	0.766185	6.04508	0.973286	7.68045	0.532502	4.20005	0.652408	5.14576	0.837197	6.61236	0.947915	7.44988
0.383253	3.0077	0.261656	2.04031	0.59374	4.65111	0.682597	5.32718	0.768912	6.02233	0.975112	7.6387	0.535093	4.18969	0.655457	5.13209	0.839194	6.57971	0.95024	7.41387
0.384684	2.99702	0.263733	2.04168	0.597353	4.64551	0.686088	5.31577	0.771655	6.00003	0.976948	7.59763	0.537662	4.17932	0.658521	5.11875	0.841204	6.54765	0.95258	7.37849
0.386117	2.98651	0.265811	2.04303	0.600953	4.63989	0.689588	5.3046	0.774414	5.97818	0.978793	7.55722	0.54021	4.16893	0.6616	5.1057	0.843229	6.51615	0.954933	7.34372
0.387553	2.97616	0.267888	2.04435	0.60454	4.63424	0.693096	5.29365	0.77719	5.95676	0.980648	7.51746	0.542737	4.15854	0.664694	5.09296	0.845267	6.48521	0.9573	7.30955
0.38899	2.96598	0.269965	2.04566	0.608112	4.62857	0.696614	5.28292	0.779981	5.93576	0.982512	7.47834	0.545243	4.14813	0.667802	5.08051	0.847318	6.45481	0.959681	7.27597
0.39043	2.95596	0.272042	2.04694	0.611671	4.62288	0.700139	5.2724	0.782788	5.91519	0.984385	7.43984	0.547729	4.13771	0.670924	5.06833	0.849384	6.42494	0.962076	7.24296
0.391873	2.9461	0.274119	2.04821	0.615215	4.61715	0.703674	5.2621	0.785611	5.89502	0.986268	7.40195	0.550194	4.12728	0.674059	5.05643	0.851463	6.39559	0.964484	7.21052
0.393317	2.9364	0.276195	2.04946	0.618744	4.61139	0.707216	5.252	0.788451	5.87525	0.988161	7.36466	0.552639	4.11685	0.677207	5.04478	0.853555	6.36675	0.966906	7.17862
0.394765	2.92684	0.278271	2.05069	0.622259	4.6056	0.710766	5.24209	0.791307	5.85588	0.990063	7.32795	0.555065	4.10642	0.680368	5.03339	0.855661	6.33841	0.969341	7.14726
0.396215	2.91744	0.280347	2.0519	0.625758	4.59978	0.714325	5.23238	0.794179	5.83689	0.991974	7.29181	0.55747	4.09598	0.683541	5.02225	0.857781	6.31056	0.971789	7.11642
0.397668	2.90819	0.282423	2.05309	0.629241	4.59392	0.71789	5.22286	0.797068	5.81828	0.993894	7.25623	0.559857	4.08555	0.686726	5.01134	0.859913	6.28318	0.974251	7.0861
0.399123	2.89908	0.284499	2.05427	0.632709	4.58803	0.721464	5.21351	0.799973	5.80004	0.995824	7.2212	0.562224	4.07512	0.689922	5.00067	0.86206	6.25627	0.976725	7.05629
0.400581	2.89011	0.286574	2.05543	0.63616	4.5821	0.725044	5.20435	0.802895	5.78216	0.997762	7.1867	0.564572	4.06469	0.693129	4.99021	0.864219	6.22982	0.979213	7.02696
0.402042	2.88128	0.28865	2.05657	0.639596	4.57614	0.728632	5.19535	0.805833	5.76464	0.99971	7.15273	0.566902	4.05426	0.696346	4.97997	0.866392	6.20382	0.981714	6.99812
0.403506	2.8726	0.290725	2.05769	0.643015	4.57014	0.732226	5.18653	0.808788	5.74747	1.00167	7.11928	0.569213	4.04385	0.699574	4.96994	0.868578	6.17826	0.984227	6.96974
0.404973	2.86404	0.2928	2.0588	0.646417	4.5641	0.735827	5.17786	0.811759	5.73065			0.571506	4.03344	0.702811	4.96011	0.870778	6.15312	0.986754	6.94183
0.406443	2.85562	0.294875	2.0599	0.649803	4.55802	0.739434	5.16936	0.814748	5.71416			0.573782	4.02305	0.706058	4.95047	0.87299	6.12841	0.989292	6.91437
0.407916	2.84733	0.296949	2.06098	0.653171	4.5519	0.743048	5.161	0.817753	5.69801			0.57604	4.01267	0.709313	4.94102	0.875216	6.10411	0.991844	6.88736
0.409391	2.83917	0.299024	2.06204	0.656523	4.54574	0.746667	5.15279	0.820775	5.68218			0.578281	4.00231	0.712576	4.93174	0.877455	6.08021	0.994408	6.86077
0.41087	2.83113	0.301098	2.06309	0.659857	4.53954	0.750292	5.14473	0.823814	5.66666			0.580505	3.99196	0.715848	4.92264	0.879706	6.05671	0.996984	6.83461
0.412352	2.82321	0.303172	2.06412	0.663174	4.5333	0.753922	5.1368	0.82687	5.65147			0.582713	3.98163	0.719127	4.91371	0.881971	6.0336	0.999573	6.80887
0.413837	2.81542	0.305246	2.06514	0.666473	4.52702	0.757557	5.12901	0.829943	5.63658			0.584905	3.97132	0.722412	4.90493	0.884248	6.01087	1.00217	6.78354
0.415325	2.80775	0.30732	2.06615	0.669755	4.52071	0.761197	5.12135	0.833033	5.62199			0.58708	3.96104	0.725705	4.89631	0.886539	5.98851		
0.416816	2.80019	0.309394	2.06714	0.673019	4.51435	0.764842	5.11382	0.83614	5.6077			0.58924	3.95078	0.729003	4.88784	0.888842	5.96652		
0.41831	2.79275	0.311467	2.06812	0.676266	4.50795	0.768491	5.10641	0.839264	5.5937			0.591385	3.94054	0.732307	4.87951	0.891158	5.94489		
0.419808	2.78542	0.31354	2.06909	0.679495	4.50152	0.772144	5.09911	0.842406	5.57998			0.593515	3.93033	0.735617	4.87132	0.893487	5.92361		
0.421308	2.7782	0.315614	2.07005	0.682706	4.49505	0.775801	5.09193	0.845564	5.56655			0.59563	3.92015	0.738931	4.86326	0.895829	5.90267		
0.422812	2.77109	0.317687	2.07099	0.685899	4.48853	0.779461	5.08486	0.84874	5.5534			0.597731	3.91	0.742249	4.85533	0.898183	5.88207		
0.424319	2.76409	0.31976	2.07192	0.689074	4.48199	0.783125	5.0779	0.851933	5.54051			0.599818	3.89989	0.745572	4.84752	0.900549	5.8618		
0.425829	2.75719	0.321833	2.07283	0.692231	4.4754	0.786791	5.07104	0.855143	5.52789			0.601891	3.8898	0.748898	4.83983	0.902929	5.84186		
0.427342	2.7504	0.323905	2.07374	0.695371	4.46878	0.79046	5.06427	0.85837	5.51554			0.60395	3.87975	0.752227	4.83225	0.905321	5.82224		
0.428858	2.74371	0.325978	2.07463	0.698492	4.46212	0.794131	5.0576	0.861615	5.50344			0.605996	3.86973	0.755559	4.82478	0.907725	5.80293		
0.430378	2.73711	0.32805	2.07552	0.701596	4.45543	0.797805	5.05103	0.864877	5.49159			0.60803	3.85976	0.758893	4.81741	0.910142	5.78393		
0.431901	2.73062	0.330123	2.07639	0.704682	4.44871	0.80148	5.04454	0.868156	5.47999			0.610051	3.84981	0.762229	4.81014	0.912571	5.76524		
0.433427	2.72422	0.332195	2.07725	0.70775	4.44195	0.805156	5.03813	0.871452	5.46864			0.612059	3.83991	0.765567	4.80296	0.915012	5.74683		
0.434956	2.71791	0.334267	2.0781	0.7108	4.43516	0.808834	5.03181	0.874766	5.45752			0.614056	3.83005	0.768906	4.79587	0.917466	5.72872		
0.436488	2.7117	0.336339	2.07894	0.713833	4.42834	0.812512	5.02557	0.878096	5.44664			0.61604	3.82023	0.772245	4.78887	0.919932	5.7109		
0.438024	2.70558	0.338411	2.07977	0.716848	4.42149	0.816191	5.0194	0.881444	5.43599			0.618013	3.81045	0.775585	4.78196	0.92241	5.69335		
0.439563	2.69955	0.340482	2.08058	0.719845	4.41461	0.81987	5.0133	0.884809	5.42557			0.619975	3.80071	0.778925	4.77512	0.924901	5.67608		
0.441105	2.69361	0.342554	2.08139	0.722826	4.4077	0.82355	5.00727	0.888191	5.41537			0.621926	3.79102	0.782265	4.76835	0.927403	5.65908		
0.44265	2.68775	0.344625	2.08219	0.725788	4.40076	0.827229	5.0013	0.89159	5.40539			0.623866	3.78137	0.785603	4.76166	0.929918	5.64235		
0.444198	2.68198	0.346697	2.08298	0.728734	4.3938	0.830907	4.9954	0.895006	5.39562			0.625796	3.77177	0.788941	4.75504	0.932445	5.62588		
0.44575	2.67629	0.348768	2.08376	0.731662	4.38681	0.834584	4.98956	0.898438	5.38606			0.627716	3.76221	0.792277	4.74848	0.934984	5.60966		
0.447304	2.67069	0.350839	2.08453	0.734573	4.3798	0.83826	4.98378	0.901888	5.37671			0.629625	3.7527	0.795611	4.74199	0.937535	5.5937		
0.448862	2.66516	0.35291	2.08529	0.737468	4.37277	0.841935	4.97805	0.905354	5.36756			0.631525	3.74323	0.798943	4.73555	0.940097	5.57798		
0.450423	2.65972	0.354981	2.08605	0.740345	4.36571	0.845608	4.97238	0.908837	5.35861			0.633415	3.73382	0.802273	4.72917	0.942672	5.56251		
0.451987	2.65435	0.357052	2.08679	0.743206	4.35864	0.849279	4.96676	0.912336	5.34985			0.635296	3.72445	0.8056	4.72284	0.945259	5.54727		
0.453554	2.64906	0.359122	2.08752	0.746051	4.35154	0.852948	4.96118	0.915852	5.34129			0.637168	3.71513	0.808923	4.71656	0.947857	5.53227		
0.455124	2.64384	0.361193	2.08825	0.748878	4.34443	0.856614	4.95565	0.919384	5.33291			0.639031	3.70586	0.812243	4.71033	0.950467	5.5175		
0.456698	2.6387	0.363263	2.08897	0.75169	4.33729	0.860278	4.95016	0.922932	5.32471			0.640886	3.69665	0.81556	4.70415	0.953089	5.50296		
0.458274	2.63363	0.365334	2.08968	0.754486	4.33015	0.863939	4.94472	0.926496	5.3167			0.642732	3.68748	0.818872	4.69801	0.955723	5.48864		
0.459853	2.62863	0.367404	2.09038	0.757265	4.32298	0.867596	4.93931	0.930076	5.30886			0.64457	3.67836	0.82218	4.6919	0.958369	5.47454		
0.461436	2.6237	0.369474	2.09107	0.760029	4.3158	0.87125	4.93394	0.933672	5.30119			0.6464	3.66929	0.825483	4.68584	0.961026	5.46066		
0.463021	2.61885	0.371544	2.09176	0.762777	4.30861	0.8749	4.92861	0.937284	5.29369			0.648222	3.66028	0.82878	4.67981	0.963694	5.44699		
0.46461	2.61406	0.373614	2.09244	0.765509	4.30141	0.878547	4.92331	0.940911	5.28636			0.650036	3.65132	0.832073	4.67381	0.966375	5.43352		
0.466201	2.60933	0.375684	2.09311	0.768227	4.2942	0.882189	4.91805	0.944553	5.27919			0.651844	3.6424	0.83536	4.66785	0.969067	5.42027		
0.467796	2.60467	0.377754	2.09377	0.770929	4.28698	0.885828	4.91281	0.94821	5.27217			0.653644	3.63355	0.838641	4.66191	0.97177	5.40721		
0.469393	2.60008	0.379823	2.09443	0.773615	4.27974	0.889462	4.90761	0.951882	5.26531			0.655437	3.62474	0.841916	4.656	0.974485	5.39435		
0.470994	2.59555	0.381893	2.09507	0.776287	4.2725	0.893091	4.90243	0.955568	5.25861			0.657223	3.61599	0.845185	4.65012	0.977211	5.38168		
0.472597	2.59108	0.383962	2.09571	0.778944	4.26526	0.896715	4.89728	0.95927	5.25205			0.659002	3.60729	0.848447	4.64426	0.979949	5.36921		
0.474204	2.58668	0.386032	2.09635	0.781587	4.258	0.900335	4.89215	0.962985	5.24563			0.660775	3.59864	0.851702	4.63842	0.982698	5.35693		
0.475813	2.58233	0.388101	2.09698	0.784215	4.25075	0.903949	4.88705	0.966715	5.23936			0.662542	3.59004	0.85495	4.6326	0.985458	5.34483		
0.477425	2.57804	0.39017	2.0976	0.786829	4.24348	0.907558	4.88197	0.970458	5.23322			0.664303	3.5815	0.858191	4.62681	0.988229	5.33291		
0.47904	2.57382	0.392239	2.09821	0.789429	4.23622	0.911162	4.87692	0.974215	5.22721			0.666057	3.57302	0.861424	4.62102	0.991012	5.32117		
0.480658	2.56965	0.394308	2.09882	0.792015	4.22895	0.91476	4.87188	0.977985	5.22134			0.667806	3.56458	0.864649	4.61526	0.993806	5.30961		
0.482279	2.56553	0.396377	2.09942	0.794587	4.22169	0.918352	4.86686	0.981769	5.2156			0.66955	3.5562	0.867866	4.6095	0.996611	5.29822		
0.483902	2.56147	0.398446	2.10001	0.797146	4.21442	0.921939	4.86186	0.985565	5.20998			0.671287	3.54787	0.871074	4.60377	0.999426	5.28701		
0.485529	2.55747	0.400515	2.1006	0.799691	4.20715	0.925519	4.85688	0.989374	5.20448			0.67302	3.5396	0.874275	4.59804	1.00225	5.27595		
0.487158	2.55352	0.402583	2.10119	0.802223	4.19988	0.929094	4.85192	0.993195	5.1991			0.674747	3.53138	0.877466	4.59232				
0.48879	2.54962	0.404652	2.10176	0.804742	4.19262	0.932662	4.84697	0.997029	5.19384			0.676469	3.52321	0.880649	4.58661				
0.490425	2.54578	0.406721	2.10233	0.807247	4.18536	0.936224	4.84204	1.00087	5.18868			0.678186	3.5151	0.883823	4.58091				
0.492062	2.54198	0.408789	2.1029	0.80974	4.1781	0.93978	4.83712					0.679899	3.50704	0.886987	4.57522				
0.493702	2.53824	0.410857	2.10345	0.812221	4.17085	0.943329	4.83221					0.681607	3.49903	0.890142	4.56953				
0.495345	2.53455	0.412926	2.10401	0.814688	4.1636	0.946872	4.82732					0.68331	3.49108	0.893287	4.56385				
0.496991	2.5309	0.414994	2.10455	0.817144	4.15636	0.950408	4.82244					0.685009	3.48318	0.896423	4.55818				
0.498639	2.5273	0.417062	2.1051	0.819587	4.14912	0.953938	4.81758					0.686703	3.47533	0.899549	4.5525				
0.50029	2.52375	0.41913	2.10563	0.822019	4.1419	0.95746	4.81272					0.688394	3.46754	0.902665	4.54683				
0.501943	2.52025	0.421198	2.10616	0.824438	4.13468	0.960976	4.80788					0.690081	3.4598	0.905771	4.54117				
0.5036	2.51679	0.423266	2.10669	0.826846	4.12747	0.964485	4.80304					0.691763	3.45211	0.908866	4.5355				
0.505258	2.51338	0.425334	2.10721	0.829242	4.12026	0.967986	4.79822					0.693442	3.44447	0.911951	4.52983				
0.50692	2.51001	0.427401	2.10772	0.831627	4.11307	0.971481	4.7934					0.695118	3.43689	0.915026	4.52417				
0.508584	2.50668	0.429469	2.10824	0.834	4.10589	0.974968	4.7886					0.696789	3.42936	0.91809	4.5185				
0.51025	2.5034	0.431537	2.10874	0.836362	4.09872	0.978448	4.7838					0.698458	3.42188	0.921144	4.51284				
0.511919	2.50016	0.433604	2.10924	0.838713	4.09156	0.981921	4.77901					0.700123	3.41445	0.924186	4.50717				
0.513591	2.49696	0.435672	2.10974	0.841054	4.08441	0.985386	4.77423					0.701785	3.40707	0.927218	4.5015				
0.515265	2.49381	0.437739	2.11023	0.843384	4.07728	0.988844	4.76945					0.703443	3.39975	0.930239	4.49583				
0.516941	2.49069	0.439806	2.11071	0.845703	4.07016	0.992295	4.76468					0.705099	3.39247	0.933249	4.49016				
0.51862	2.48761	0.441874	2.11119	0.848011	4.06305	0.995738	4.75992					0.706752	3.38525	0.936248	4.48449				
0.520302	2.48457	0.443941	2.11167	0.85031	4.05596	0.999173	4.75516					0.708402	3.37808	0.939235	4.47881				
0.521985	2.48157	0.446008	2.11214	0.852598	4.04888	1.0026	4.75041					0.710049	3.37095	0.942212	4.47313				
0.523672	2.47861	0.448075	2.11261	0.854876	4.04181							0.711693	3.36388	0.945177	4.46745				
0.52536	2.47569	0.450142	2.11307	0.857144	4.03476							0.713335	3.35686	0.948132	4.46176				
0.527051	2.4728	0.452209	2.11353	0.859403	4.02773							0.714975	3.34989	0.951074	4.45608				
0.528745	2.46994	0.454276	2.11399	0.861651	4.02071							0.716612	3.34297	0.954006	4.45038				
0.53044	2.46713	0.456342	2.11444	0.863891	4.01371							0.718247	3.3361	0.956927	4.44469				
0.532138	2.46435	0.458409	2.11488	0.86612	4.00673							0.71988	3.32927	0.959836	4.43899				
0.533838	2.4616	0.460476	2.11532	0.868341	3.99976							0.721511	3.3225	0.962734	4.43329				
0.535541	2.45889	0.462542	2.11576	0.870552	3.99281							0.723139	3.31577	0.96562	4.42759				
0.537246	2.45621	0.464609	2.1162	0.872755	3.98588							0.724766	3.30909	0.968496	4.42188				
0.538953	2.45356	0.466675	2.11663	0.874948	3.97897							0.726391	3.30246	0.97136	4.41617				
0.540662	2.45095	0.468742	2.11705	0.877132	3.97207							0.728013	3.29588	0.974212	4.41046				
0.542374	2.44836	0.470808	2.11747	0.879308	3.96519							0.729635	3.28934	0.977054	4.40475				
0.544088	2.44581	0.472874	2.11789	0.881476	3.95834							0.731254	3.28286	0.979885	4.39903				
0.545803	2.44329	0.47494	2.11831	0.883634	3.9515							0.732872	3.27642	0.982704	4.39331				
0.547522	2.44081	0.477007	2.11872	0.885785	3.94468							0.734488	3.27002	0.985512	4.38759				
0.549242	2.43835	0.479073	2.11913	0.887927	3.93788							0.736103	3.26367	0.988309	4.38187				
0.550964	2.43592	0.481139	2.11953	0.890061	3.9311							0.737717	3.25737	0.991095	4.37614				
0.552689	2.43352	0.483205	2.11993	0.892187	3.92434							0.739329	3.25112	0.99387	4.37042				
0.554415	2.43115	0.485271	2.12033	0.894305	3.9176							0.74094	3.2449	0.996634	4.36469				
0.556144	2.4288	0.487336	2.12072	0.896415	3.91088							0.74255	3.23874	0.999388	4.35896				
0.557875	2.42649	0.489402	2.12111	0.898517	3.90419							0.744158	3.23262	1.00213	4.35323				
0.559608	2.4242	0.491468	2.12149	0.900612	3.89751							0.745766	3.22654						
0.561342	2.42194	0.493534	2.12188	0.902699	3.89086							0.747372	3.22051						
0.563079	2.41971	0.495599	2.12226	0.904779	3.88422							0.748977	3.21452						
0.564818	2.4175	0.497665	2.12263	0.906852	3.87761							0.750582	3.20858						
0.566559	2.41532	0.49973	2.12301	0.908917	3.87102							0.752185	3.20268						
0.568302	2.41317	0.501796	2.12338	0.910975	3.86445							0.753788	3.19682						
0.570046	2.41104	0.503861	2.12374	0.913026	3.8579							0.75539	3.19101						
0.571793	2.40893	0.505926	2.12411	0.91507	3.85138							0.756991	3.18523						
0.573542	2.40685	0.507992	2.12447	0.917107	3.84487							0.758592	3.1795						
0.575292	2.4048	0.510057	2.12483	0.919137	3.83839							0.760192	3.17381						
0.577045	2.40276	0.512122	2.12518	0.921161	3.83193							0.761791	3.16817						
0.578799	2.40075	0.514187	2.12553	0.923178	3.8255							0.76339	3.16256						
0.580556	2.39877	0.516252	2.12588	0.925189	3.81909							0.764988	3.157						
0.582314	2.39681	0.518317	2.12623	0.927193	3.8127							0.766586	3.15148						
0.584073	2.39487	0.520382	2.12657	0.929191	3.80633							0.768183	3.14599						
0.585835	2.39295	0.522447	2.12691	0.931182	3.79998							0.76978	3.14055						
0.587599	2.39105	0.524512	2.12725	0.933168	3.79366							0.771377	3.13515						
0.589364	2.38918	0.526577	2.12758	0.935147	3.78736							0.772973	3.12978						
0.591131	2.38732	0.528641	2.12791	0.93712	3.78109							0.774569	3.12446						
0.5929	2.38549	0.530706	2.12824	0.939088	3.77483							0.776165	3.11917						
0.594671	2.38368	0.532771	2.12857	0.941049	3.76861							0.777761	3.11393						
0.596443	2.38189	0.534835	2.12889	0.943005	3.7624							0.779357	3.10872						
0.598217	2.38012	0.5369	2.12922	0.944955	3.75622							0.780952	3.10355						
0.599993	2.37837	0.538964	2.12953	0.9469	3.75006							0.782547	3.09842						
0.601771	2.37664	0.541029	2.12985	0.948838	3.74392							0.784143	3.09332						
0.60355	2.37493	0.543093	2.13016	0.950772	3.73781							0.785738	3.08827						
0.605331	2.37323	0.545157	2.13048	0.9527	3.73172							0.787333	3.08325						
0.607113	2.37156	0.547222	2.13079	0.954623	3.72566							0.788929	3.07826						
0.608898	2.3699	0.549286	2.13109	0.95654	3.71961							0.790524	3.07331						
0.610684	2.36827	0.55135	2.1314	0.958453	3.7136							0.79212	3.0684						
0.612471	2.36665	0.553414	2.1317	0.96036	3.7076							0.793716	3.06353						
0.61426	2.36505	0.555478	2.132	0.962262	3.70163							0.795312	3.05869						
0.616051	2.36346	0.557542	2.13229	0.96416	3.69569							0.796908	3.05388						
0.617843	2.3619	0.559606	2.13259	0.966052	3.68976							0.798504	3.04912						
0.619637	2.36035	0.56167	2.13288	0.96794	3.68386							0.800101	3.04438						
0.621432	2.35881	0.563734	2.13317	0.969823	3.67799							0.801697	3.03968						
0.623229	2.3573	0.565798	2.13346	0.971701	3.67213							0.803295	3.03502						
0.625028	2.3558	0.567862	2.13374	0.973574	3.66631							0.804892	3.03038						
0.626828	2.35432	0.569925	2.13403	0.975443	3.6605							0.80649	3.02579						
0.628629	2.35285	0.571989	2.13431	0.977308	3.65472							0.808088	3.02122						
0.630432	2.3514	0.574053	2.13459	0.979168	3.64896							0.809687	3.01669						
0.632237	2.34996	0.576116	2.13487	0.981024	3.64323							0.811286	3.01219						
0.634043	2.34854	0.57818	2.13514	0.982875	3.63752							0.812885	3.00772						
0.63585	2.34714	0.580243	2.13541	0.984723	3.63183							0.814485	3.00329						
0.637659	2.34575	0.582307	2.13569	0.986566	3.62617							0.816085	2.99889						
0.639469	2.34437	0.58437	2.13595	0.988405	3.62053							0.817686	2.99452						
0.641281	2.34301	0.586434	2.13622	0.99024	3.61492							0.819287	2.99018						
0.643094	2.34166	0.588497	2.13649	0.992071	3.60933							0.820889	2.98587						
0.644909	2.34033	0.59056	2.13675	0.993898	3.60376							0.822492	2.9816						
0.646725	2.33901	0.592623	2.13701	0.995722	3.59821							0.824095	2.97735						
0.648542	2.33771	0.594687	2.13727	0.997541	3.59269							0.825698	2.97314						
0.650361	2.33642	0.59675	2.13753	0.999357	3.58719							0.827303	2.96896						
0.652181	2.33514	0.598813	2.13778	1.00117	3.58172							0.828907	2.9648						
0.654003	2.33388	0.600876	2.13804									0.830513	2.96068						
0.655826	2.33263	0.602939	2.13829									0.832119	2.95658						
0.65765	2.33139	0.605002	2.13854									0.833726	2.95252						
0.659475	2.33016	0.607065	2.13879									0.835333	2.94848						
0.661302	2.32895	0.609128	2.13903									0.836942	2.94448						
0.66313	2.32775	0.61119	2.13928									0.83855	2.9405						
0.66496	2.32656	0.613253	2.13952									0.84016	2.93655						
0.66679	2.32539	0.615316	2.13976									0.841771	2.93263						
0.668622	2.32423	0.617379	2.14									0.843382	2.92873						
0.670456	2.32307	0.619441	2.14024									0.844994	2.92487						
0.67229	2.32194	0.621504	2.14048									0.846606	2.92103						
0.674126	2.32081	0.623566	2.14071									0.84822	2.91722						
0.675963	2.31969	0.625629	2.14094									0.849834	2.91344						
0.677801	2.31859	0.627692	2.14117									0.851449	2.90968						
0.67964	2.31749	0.629754	2.1414									0.853065	2.90595						
0.681481	2.31641	0.631816	2.14163									0.854682	2.90224						
0.683323	2.31534	0.633879	2.14186									0.856299	2.89857						
0.685166	2.31428	0.635941	2.14208									0.857918	2.89492						
0.68701	2.31323	0.638003	2.14231									0.859537	2.89129						
0.688855	2.31219	0.640065	2.14253									0.861157	2.88769						
0.690702	2.31116	0.642128	2.14275									0.862778	2.88412						
0.692549	2.31014	0.64419	2.14297									0.8644	2.88057						
0.694398	2.30913	0.646252	2.14318									0.866023	2.87704						
0.696248	2.30813	0.648314	2.1434									0.867647	2.87354						
0.698099	2.30714	0.650376	2.14361									0.869272	2.87007						
0.699952	2.30616	0.652438	2.14383									0.870897	2.86662						
0.701805	2.30519	0.6545	2.14404									0.872524	2.86319						
0.703659	2.30423	0.656562	2.14425									0.874151	2.85979						
0.705515	2.30328	0.658624	2.14446									0.87578	2.85641						
0.707371	2.30233	0.660686	2.14466									0.877409	2.85305						
0.709229	2.3014	0.662747	2.14487									0.87904	2.84972						
0.711088	2.30048	0.664809	2.14507									0.880671	2.84641						
0.712948	2.29956	0.666871	2.14528									0.882303	2.84313						
0.714808	2.29866	0.668932	2.14548									0.883937	2.83986						
0.71667	2.29776	0.670994	2.14568									0.885571	2.83662						
0.718533	2.29687	0.673056	2.14588									0.887206	2.8334						
0.720397	2.29599	0.675117	2.14608									0.888842	2.83021						
0.722262	2.29512	0.677179	2.14627									0.89048	2.82704						
0.724128	2.29426	0.67924	2.14647									0.892118	2.82388						
0.725995	2.2934	0.681301	2.14666									0.893757	2.82075						
0.727863	2.29256	0.683363	2.14686									0.895398	2.81765						
0.729732	2.29172	0.685424	2.14705									0.897039	2.81456						
0.731602	2.29089	0.687485	2.14724									0.898681	2.81149						
0.733473	2.29007	0.689547	2.14743									0.900325	2.80845						
0.735345	2.28925	0.691608	2.14761									0.901969	2.80542						
0.737218	2.28845	0.693669	2.1478									0.903615	2.80242						
0.739092	2.28765	0.69573	2.14799									0.905261	2.79944						
0.740967	2.28685	0.697791	2.14817									0.906909	2.79648						
0.742842	2.28607	0.699852	2.14835									0.908558	2.79353						
0.744719	2.28529	0.701913	2.14853									0.910207	2.79061						
0.746597	2.28452	0.703974	2.14872									0.911858	2.78771						
0.748475	2.28376	0.706035	2.14889									0.91351	2.78483						
0.750355	2.283	0.708096	2.14907									0.915163	2.78197						
0.752235	2.28226	0.710157	2.14925									0.916817	2.77912						
0.754116	2.28151	0.712218	2.14943									0.918472	2.7763						
0.755999	2.28078	0.714279	2.1496									0.920128	2.77349						
0.757882	2.28005	0.716339	2.14978									0.921785	2.77071						
0.759766	2.27933	0.7184	2.14995									0.923443	2.76794						
0.76165	2.27862	0.720461	2.15012									0.925102	2.76519						
0.763536	2.27791	0.722521	2.15029									0.926763	2.76246						
0.765423	2.27721	0.724582	2.15046									0.928424	2.75975						
0.76731	2.27651	0.726643	2.15063									0.930087	2.75706						
0.769198	2.27582	0.728703	2.1508									0.93175	2.75438						
0.771087	2.27514	0.730764	2.15096									0.933415	2.75172						
0.772977	2.27446	0.732824	2.15113									0.935081	2.74908						
0.774868	2.27379	0.734884	2.15129									0.936747	2.74646						
0.77676	2.27313	0.736945	2.15146									0.938415	2.74385						
0.778652	2.27247	0.739005	2.15162									0.940084	2.74127						
0.780545	2.27182	0.741065	2.15178									0.941755	2.7387						
0.782439	2.27117	0.743126	2.15194									0.943426	2.73614						
0.784334	2.27053	0.745186	2.1521									0.945098	2.73361						
0.78623	2.2699	0.747246	2.15226									0.946771	2.73109						
0.788126	2.26927	0.749306	2.15242									0.948446	2.72858						
0.790024	2.26865	0.751366	2.15257									0.950121	2.7261						
0.791922	2.26803	0.753426	2.15273									0.951798	2.72363						
0.79382	2.26742	0.755486	2.15289									0.953476	2.72117						
0.79572	2.26681	0.757546	2.15304									0.955155	2.71873						
0.79762	2.26621	0.759606	2.15319									0.956835	2.71631						
0.799521	2.26561	0.761666	2.15334									0.958516	2.71391						
0.801423	2.26502	0.763726	2.1535									0.960198	2.71152						
0.803326	2.26444	0.765786	2.15365									0.961881	2.70914						
0.805229	2.26386	0.767846	2.1538									0.963565	2.70678						
0.807133	2.26328	0.769906	2.15394									0.965251	2.70444						
0.809038	2.26271	0.771965	2.15409									0.966937	2.70211						
0.810944	2.26215	0.774025	2.15424									0.968625	2.6998						
0.81285	2.26159	0.776085	2.15438									0.970314	2.6975						
0.814757	2.26103	0.778144	2.15453									0.972003	2.69522						
0.816665	2.26048	0.780204	2.15467									0.973694	2.69295						
0.818573	2.25993	0.782263	2.15482									0.975386	2.69069						
0.820482	2.25939	0.784323	2.15496									0.977079	2.68845						
0.822392	2.25886	0.786382	2.1551									0.978773	2.68623						
0.824302	2.25833	0.788442	2.15524									0.980469	2.68402						
0.826214	2.2578	0.790501	2.15538									0.982165	2.68182						
0.828125	2.25728	0.79256	2.15552									0.983862	2.67964						
0.830038	2.25676	0.79462	2.15566									0.985561	2.67747						
0.831951	2.25624	0.796679	2.1558									0.98726	2.67532						
0.833865	2.25574	0.798738	2.15593									0.988961	2.67318						
0.83578	2.25523	0.800798	2.15607									0.990663	2.67105						
0.837695	2.25473	0.802857	2.15621									0.992365	2.66894						
0.839611	2.25423	0.804916	2.15634									0.994069	2.66684						
0.841527	2.25374	0.806975	2.15647									0.995774	2.66475						
0.843444	2.25325	0.809034	2.15661									0.99748	2.66268						
0.845362	2.25277	0.811093	2.15674									0.999187	2.66062						
0.847281	2.25229	0.813152	2.15687									1.0009	2.65857						
0.8492	2.25181	0.815211	2.157																
0.85112	2.25134	0.81727	2.15713																
0.85304	2.25088	0.819329	2.15726																
0.854961	2.25041	0.821388	2.15739																
0.856883	2.24995	0.823447	2.15752																
0.858805	2.2495	0.825505	2.15764																
0.860728	2.24904	0.827564	2.15777																
0.862651	2.2486	0.829623	2.1579																
0.864575	2.24815	0.831682	2.15802																
0.8665	2.24771	0.83374	2.15815																
0.868425	2.24727	0.835799	2.15827																
0.870351	2.24684	0.837857	2.15839																
0.872277	2.24641	0.839916	2.15851																
0.874204	2.24598	0.841974	2.15864																
0.876132	2.24556	0.844033	2.15876																
0.87806	2.24514	0.846091	2.15888																
0.879988	2.24472	0.84815	2.159																
0.881918	2.24431	0.850208	2.15912																
0.883848	2.2439	0.852266	2.15923																
0.885778	2.2435	0.854325	2.15935																
0.887709	2.24309	0.856383	2.15947																
0.88964	2.2427	0.858441	2.15959																
0.891573	2.2423	0.860499	2.1597																
0.893505	2.24191	0.862558	2.15982																
0.895438	2.24152	0.864616	2.15993																
0.897372	2.24113	0.866674	2.16004																
0.899306	2.24075	0.868732	2.16016																
0.901241	2.24037	0.87079	2.16027																
0.903176	2.23999	0.872848	2.16038																
0.905112	2.23962	0.874906	2.16049																
0.907048	2.23924	0.876964	2.1606																
0.908985	2.23888	0.879022	2.16071																
0.910922	2.23851	0.881079	2.16082																
0.91286	2.23815	0.883137	2.16093																
0.914799	2.23779	0.885195	2.16104																
0.916737	2.23743	0.887253	2.16115																
0.918677	2.23708	0.88931	2.16126																
0.920617	2.23673	0.891368	2.16136																
0.922557	2.23638	0.893426	2.16147																
0.926439	2.23569	0.895483	2.16158																
0.928381	2.23535	0.897541	2.16168																
0.930323	2.23502	0.899598	2.16179																
0.932266	2.23468	0.901656	2.16189																
0.934209	2.23435	0.903713	2.16199																
0.936153	2.23402	0.905771	2.1621																
0.938097	2.23369	0.907828	2.1622																
0.940042	2.23337	0.909885	2.1623																
0.941987	2.23305	0.911943	2.1624																
0.943933	2.23273	0.914	2.1625																
0.945879	2.23241	0.916057	2.1626																
0.947825	2.2321	0.918114	2.1627																
0.949772	2.23179	0.920172	2.1628																
0.95172	2.23148	0.922229	2.1629																
0.953668	2.23117	0.924286	2.163																
0.955616	2.23086	0.926343	2.1631																
0.957565	2.23056	0.9284	2.16319																
0.959514	2.23026	0.930457	2.16329																
0.961463	2.22996	0.932514	2.16339																
0.963414	2.22967	0.934571	2.16348																
0.965364	2.22938	0.936628	2.16358																
0.967315	2.22909	0.938685	2.16367																
0.969266	2.2288	0.940742	2.16377																
0.971218	2.22851	0.942798	2.16386																
0.97317	2.22823	0.944855	2.16395																
0.975123	2.22794	0.946912	2.16405																
0.977076	2.22766	0.948969	2.16414																
0.979029	2.22739	0.951025	2.16423																
0.980983	2.22711	0.953082	2.16432																
0.982937	2.22684	0.955138	2.16441																
0.984892	2.22657	0.957195	2.1645																
0.986847	2.2263	0.959252	2.16459																
0.988802	2.22603	0.961308	2.16468																
0.990758	2.22576	0.963365	2.16477																
0.992715	2.2255	0.965421	2.16486																
0.994671	2.22524	0.967477	2.16495																
0.996628	2.22498	0.969534	2.16503																
0.998586	2.22472	0.97159	2.16512																
1.00054	2.22447	0.973646	2.16521																
		0.975703	2.1653																
		0.977759	2.16538																
		0.979815	2.16547																
		0.981871	2.16555																
		0.983927	2.16564																
		0.985983	2.16572																
		0.988039	2.16581																
		0.990096	2.16589																
		0.992151	2.16597																
		0.994207	2.16605																
		0.996263	2.16614																
		0.998319	2.16622																
		1.00038	2.1663																
