Sym0		Asym0		Sym1		Sym2		Sym3		Sym4		Asym1		Asym2		Asym3		Asym4	
265  Points		499  Points		265  Points		229  Points		213  Points		148  Points		362  Points		240  Points		199  Points		142  Points	
Freq (MHz)	Vph (m/ms)	Freq (MHz)	Vph (m/ms)	Freq (MHz)	Vph (m/ms)	Freq (MHz)	Vph (m/ms)	Freq (MHz)	Vph (m/ms)	Freq (MHz)	Vph (m/ms)	Freq (MHz)	Vph (m/ms)	Freq (MHz)	Vph (m/ms)	Freq (MHz)	Vph (m/ms)	Freq (MHz)	Vph (m/ms)
0.279526	334.382	0.000252598	0.128698	0.279509	1811.47	0.447502	839.635	0.55903	653.402	0.838531	1123.97	0.139815	166.686	0.419263	2660.46	0.698772	4142.64	0.894999	2421.84
0.279589	158.17	0.000547762	0.189247	0.279539	257.404	0.447523	305.546	0.559072	312.809	0.838554	499.811	0.140024	79.0877	0.419287	384.92	0.698785	635.044	0.895007	687.807
0.279696	103.617	0.000953556	0.249223	0.279613	138.581	0.447562	186.767	0.559145	205.647	0.838596	321.37	0.14038	51.9508	0.419347	207.497	0.698819	343.896	0.895025	400.828
0.279848	77.0711	0.00146747	0.308434	0.279732	94.8443	0.447621	134.499	0.559248	153.191	0.838655	236.832	0.140883	38.7694	0.419442	142.055	0.698873	235.806	0.895052	282.829
0.280044	61.3764	0.00208654	0.366734	0.279896	72.1181	0.447699	105.1	0.559381	122.073	0.838732	187.517	0.14153	30.9994	0.419573	108.016	0.698948	179.426	0.895089	218.51
0.280284	51.0125	0.00280712	0.42396	0.280104	58.2001	0.447796	86.2564	0.559544	101.476	0.838826	155.208	0.142317	25.8887	0.41974	87.1542	0.699042	144.815	0.895135	178.029
0.280569	43.6607	0.0036254	0.480001	0.280356	48.8045	0.447912	73.1507	0.559736	86.8382	0.838939	132.404	0.143241	22.2807	0.419943	73.0619	0.699157	121.406	0.89519	150.207
0.280897	38.1767	0.00453709	0.534745	0.280653	42.038	0.448048	63.5093	0.559959	75.9016	0.839069	115.448	0.144299	19.6041	0.42018	62.9064	0.699292	104.519	0.895255	129.909
0.281269	33.9308	0.00553764	0.588092	0.280993	36.9345	0.448203	56.1198	0.560212	67.4212	0.839218	102.349	0.145485	17.5445	0.420454	55.2418	0.699446	91.7639	0.89533	114.447
0.281685	30.5475	0.00662255	0.639984	0.281377	32.9498	0.448377	50.2765	0.560494	60.6541	0.839384	91.9238	0.146795	15.9144	0.420763	49.2532	0.699622	81.7895	0.895413	102.277
0.282144	27.7895	0.00778691	0.690348	0.281804	29.7536	0.448571	45.5406	0.560806	55.1295	0.839568	83.4312	0.148224	14.5951	0.421107	44.4462	0.699817	73.7765	0.895507	92.4489
0.282645	25.4989	0.0090261	0.739155	0.282274	27.1341	0.448785	41.6251	0.561148	50.5347	0.839769	76.3795	0.149767	13.5078	0.421486	40.5032	0.700032	67.1988	0.895609	84.3467
0.283189	23.5671	0.0103354	0.786375	0.282787	24.9489	0.449019	38.3341	0.561519	46.6536	0.839989	70.4311	0.151419	12.5982	0.421901	37.2114	0.700267	61.7029	0.895722	77.5524
0.283775	21.9165	0.0117102	0.832001	0.283342	23.0992	0.449273	35.5297	0.56192	43.3326	0.840226	65.3462	0.153175	11.8274	0.42235	34.4224	0.700522	57.0425	0.895844	71.7732
0.284403	20.4906	0.013146	0.876023	0.283939	21.5138	0.449547	33.1117	0.56235	40.4589	0.840481	60.9496	0.155029	11.1672	0.422834	32.0297	0.700798	53.0409	0.895975	66.7976
0.285072	19.2468	0.0146386	0.91846	0.284578	20.1404	0.449842	31.0056	0.562809	37.9482	0.840754	57.1107	0.156978	10.5964	0.423353	29.9549	0.701093	49.5679	0.896116	62.469
0.285781	18.1528	0.0161837	0.959326	0.285258	18.9397	0.450157	29.1551	0.563297	35.7361	0.841045	53.73	0.158749	10.1592	0.423907	28.1391	0.701408	46.5254	0.896267	58.669
0.286531	17.1835	0.0177774	0.998644	0.285978	17.8814	0.450492	27.5164	0.563815	33.7727	0.841353	50.7302	0.16031	9.82397	0.424495	26.5369	0.701743	43.8384	0.896427	55.3064
0.287321	16.3191	0.0194161	1.03645	0.286739	16.9419	0.450849	26.0554	0.564361	32.0185	0.841679	48.0505	0.161635	9.56954	0.425117	25.1131	0.702098	41.4481	0.896597	52.31
0.28815	15.5436	0.0210963	1.07279	0.287539	16.1028	0.451227	24.7449	0.564936	30.442	0.842022	45.6424	0.162704	9.38147	0.425773	23.8397	0.702472	39.3082	0.896777	49.6231
0.289018	14.8444	0.0228145	1.10768	0.288379	15.3489	0.451626	23.5628	0.56554	29.0177	0.842383	43.4667	0.163501	9.24998	0.426463	22.6945	0.702867	37.3814	0.896966	47.2002
0.289924	14.2109	0.0245679	1.14119	0.289257	14.6683	0.452047	22.4915	0.566172	27.7248	0.842762	41.4916	0.164017	9.16868	0.427186	21.6591	0.703281	35.6375	0.897166	45.0042
0.290867	13.6345	0.0263534	1.17335	0.290173	14.0509	0.452489	21.5161	0.566832	26.546	0.843158	39.6905	0.164765	9.05552	0.427944	20.7188	0.703715	34.0519	0.897375	43.0048
0.291848	13.108	0.0281685	1.20421	0.291127	13.4885	0.452954	20.6245	0.567521	25.467	0.843572	38.0415	0.165587	8.93725	0.428734	19.8611	0.704168	32.6039	0.897593	41.1768
0.292865	12.6253	0.0300107	1.23382	0.292117	12.9743	0.45344	19.8064	0.568238	24.4759	0.844003	36.5263	0.166719	8.78383	0.429557	19.076	0.704641	31.2766	0.897822	39.499
0.293918	12.1814	0.0318776	1.26222	0.293144	12.5026	0.45395	19.0532	0.568982	23.5623	0.844452	35.1293	0.168175	8.60117	0.430414	18.3546	0.705134	30.0555	0.898061	37.9538
0.295006	11.772	0.0337671	1.28947	0.294206	12.0683	0.454482	18.3577	0.569754	22.7178	0.844918	33.8372	0.16997	8.39577	0.431302	17.6896	0.705646	28.9285	0.89831	36.5261
0.296128	11.3932	0.0356774	1.31561	0.295304	11.6674	0.455037	17.7135	0.570554	21.9348	0.845402	32.6387	0.17212	8.17419	0.432224	17.0749	0.706178	27.8852	0.898569	35.203
0.297285	11.0419	0.0376065	1.34069	0.296436	11.2963	0.455616	17.1153	0.571381	21.207	0.845903	31.5241	0.174647	7.94272	0.433177	16.5051	0.706728	26.9167	0.898837	33.9735
0.298475	10.7153	0.0395529	1.36474	0.297601	10.9519	0.456218	16.5584	0.572235	20.5288	0.846421	30.485	0.177232	7.73263	0.434162	15.9755	0.707299	26.0153	0.899116	32.828
0.299698	10.411	0.041515	1.38783	0.298801	10.6315	0.456845	16.0387	0.573116	19.8954	0.846957	29.5139	0.179872	7.54129	0.435179	15.4821	0.707888	25.1742	0.899406	31.7582
0.300953	10.1268	0.0434914	1.40999	0.300032	10.3328	0.457495	15.5529	0.574024	19.3026	0.84751	28.6045	0.182566	7.36646	0.436227	15.0215	0.708497	24.3878	0.899705	30.7569
0.30224	9.86095	0.0454808	1.43125	0.301131	10.0886	0.45817	15.0976	0.574959	18.7467	0.84808	27.751	0.185309	7.20625	0.437306	14.5906	0.709124	23.6509	0.900015	29.8178
0.303558	9.61176	0.0474821	1.45167	0.302087	9.89125	0.45887	14.6703	0.57592	18.2244	0.848667	26.9487	0.1881	7.05901	0.438415	14.1866	0.709771	22.9591	0.900335	28.9353
0.304905	9.37779	0.0494941	1.47127	0.302891	9.73513	0.459596	14.2685	0.576907	17.7329	0.849271	26.1929	0.190935	6.92336	0.439556	13.8072	0.710436	22.3083	0.900665	28.1043
0.306283	9.15773	0.0515159	1.4901	0.303534	9.61595	0.460347	13.89	0.57792	17.2694	0.849893	25.4799	0.193814	6.79807	0.440726	13.4503	0.711121	21.6951	0.901006	27.3207
0.30769	8.95045	0.0535465	1.50819	0.304012	9.53062	0.461123	13.533	0.578959	16.8319	0.850531	24.8062	0.196733	6.68208	0.441927	13.1141	0.711824	21.1163	0.901357	26.5804
0.309125	8.75492	0.0553226	1.52338	0.30432	9.477	0.461926	13.1957	0.580024	16.4181	0.851187	24.1686	0.19969	6.57448	0.443157	12.7968	0.712546	20.5692	0.901719	25.88
0.310588	8.57022	0.0568411	1.53592	0.304765	9.40123	0.462755	12.8767	0.581114	16.0263	0.851859	23.5643	0.202684	6.47445	0.444417	12.497	0.713287	20.0513	0.902092	25.2164
0.312079	8.39551	0.0580995	1.54602	0.305253	9.3206	0.463612	12.5745	0.58223	15.6548	0.852549	22.9908	0.205713	6.38128	0.445705	12.2132	0.714047	19.5604	0.902475	24.5868
0.313596	8.23006	0.0590964	1.55383	0.305922	9.21371	0.464495	12.288	0.58337	15.3022	0.853255	22.4459	0.208775	6.29435	0.447023	11.9444	0.714824	19.0943	0.902869	23.9886
0.31514	8.07318	0.0598303	1.55949	0.306778	9.08293	0.465406	12.0159	0.584536	14.967	0.853978	21.9275	0.211868	6.21309	0.448369	11.6893	0.715621	18.6514	0.903273	23.4196
0.31671	7.92427	0.0603003	1.56306	0.307827	8.931	0.466344	11.7573	0.585726	14.648	0.854718	21.4337	0.214992	6.13701	0.449743	11.4471	0.716435	18.23	0.903689	22.8778
0.318306	7.78277	0.0609766	1.56815	0.309079	8.76094	0.467311	11.5113	0.58694	14.3441	0.855475	20.9629	0.218144	6.06566	0.451145	11.2168	0.717268	17.8285	0.904115	22.3611
0.319927	7.64817	0.0617123	1.5736	0.310541	8.5759	0.468306	11.277	0.588179	14.0544	0.856248	20.5135	0.221323	5.99866	0.452574	10.9976	0.71812	17.4456	0.904553	21.8681
0.321573	7.52002	0.062714	1.5809	0.312031	8.40089	0.46933	11.0537	0.589441	13.7778	0.857037	20.0842	0.224528	5.93564	0.454031	10.7887	0.718989	17.0802	0.905001	21.3969
0.323243	7.3979	0.0639826	1.58994	0.313548	8.23516	0.470383	10.8406	0.590728	13.5136	0.857844	19.6735	0.227758	5.87629	0.455515	10.5895	0.719876	16.7309	0.905461	20.9464
0.324938	7.28142	0.065519	1.60059	0.315091	8.07802	0.471465	10.6371	0.592038	13.2609	0.858667	19.2804	0.231011	5.82032	0.457025	10.3994	0.720781	16.3969	0.905932	20.5151
0.326656	7.17023	0.0673244	1.61271	0.31666	7.92886	0.472577	10.4427	0.593372	13.0191	0.859506	18.9038	0.234287	5.76748	0.458363	10.2406	0.721704	16.0772	0.906414	20.1019
0.328399	7.06402	0.0694	1.62614	0.318255	7.78713	0.473571	10.2802	0.594728	12.7875	0.860362	18.5426	0.237585	5.71752	0.459519	10.1101	0.722645	15.7708	0.906908	19.7057
0.330165	6.96248	0.071479	1.63907	0.319875	7.65233	0.474436	10.1465	0.596108	12.5654	0.861233	18.196	0.240903	5.67023	0.460485	10.0054	0.723603	15.477	0.907412	19.3254
0.331956	6.86534	0.0735613	1.65153	0.32152	7.52398	0.475164	10.0392	0.597511	12.3524	0.862122	17.8632	0.24424	5.62543	0.461256	9.92459	0.724579	15.1951	0.907929	18.9602
0.333769	6.77235	0.0756464	1.66355	0.32319	7.40167	0.475748	9.95637	0.598936	12.1479	0.863026	17.5433	0.247597	5.58292	0.461827	9.86623	0.725572	14.9243	0.908456	18.6092
0.335607	6.6833	0.0777341	1.67514	0.324884	7.28502	0.476181	9.89654	0.600383	11.9514	0.863947	17.2355	0.250971	5.54256	0.462194	9.82935	0.726583	14.6641	0.908996	18.2715
0.337468	6.59795	0.0798239	1.68632	0.326602	7.17367	0.476461	9.85872	0.601853	11.7625	0.864883	16.9394	0.254362	5.5042	0.462724	9.77697	0.727611	14.4138	0.909547	17.9465
0.339354	6.51612	0.0819158	1.69711	0.328344	7.0673	0.476866	9.80499	0.603344	11.5808	0.865836	16.6541	0.257769	5.4677	0.463303	9.72086	0.728656	14.1729	0.91011	17.6334
0.341264	6.43763	0.0840094	1.70752	0.330109	6.96562	0.47731	9.74743	0.604857	11.4058	0.866805	16.3792	0.261192	5.43293	0.464096	9.64591	0.729718	13.9409	0.910685	17.3317
0.343199	6.3623	0.0861045	1.71758	0.331899	6.86834	0.47792	9.67052	0.606392	11.2374	0.867789	16.1141	0.26463	5.39979	0.465107	9.55328	0.730797	13.7174	0.911271	17.0407
0.345159	6.29	0.0882009	1.72729	0.333712	6.77523	0.478702	9.57545	0.607949	11.075	0.868789	15.8583	0.268081	5.36816	0.466342	9.44439	0.731893	13.5018	0.91187	16.7599
0.347145	6.22057	0.0902984	1.73668	0.335548	6.68605	0.479664	9.46367	0.609526	10.9184	0.869806	15.6114	0.271547	5.33796	0.467808	9.32082	0.733006	13.2939	0.91248	16.4888
0.349157	6.15388	0.092397	1.74576	0.337409	6.60059	0.480814	9.3368	0.611124	10.7673	0.870837	15.3729	0.275025	5.3091	0.469513	9.18429	0.734135	13.0931	0.913103	16.2268
0.351196	6.08982	0.0944963	1.75454	0.339294	6.51865	0.482164	9.19662	0.612743	10.6215	0.871885	15.1423	0.278515	5.28148	0.471242	9.05312	0.735281	12.8992	0.913738	15.9736
0.353263	6.02827	0.0965963	1.76303	0.341203	6.44006	0.483545	9.06193	0.614171	10.4985	0.872948	14.9193	0.282016	5.25504	0.472995	8.927	0.736443	12.7118	0.914385	15.7287
0.355358	5.96912	0.0986969	1.77125	0.343137	6.36464	0.484959	8.93246	0.6154	10.3965	0.874026	14.7036	0.285529	5.22971	0.47477	8.80568	0.737622	12.5306	0.915044	15.4918
0.357483	5.91229	0.100798	1.77921	0.345097	6.29224	0.486405	8.80794	0.616425	10.3141	0.87512	14.4949	0.289053	5.20541	0.476569	8.68889	0.738817	12.3554	0.915716	15.2624
0.359639	5.85768	0.102899	1.78692	0.347082	6.22272	0.487883	8.68813	0.617241	10.2501	0.87623	14.2927	0.292586	5.18209	0.478391	8.57642	0.740028	12.1858	0.916401	15.0403
0.361826	5.80522	0.105001	1.79438	0.349093	6.15595	0.489394	8.57279	0.617844	10.2038	0.877354	14.0968	0.296129	5.1597	0.480235	8.46803	0.741255	12.0215	0.917098	14.825
0.364046	5.75481	0.107103	1.80161	0.351131	6.09181	0.490937	8.46173	0.618231	10.1744	0.878494	13.9069	0.299681	5.13818	0.482101	8.36354	0.742498	11.8625	0.917807	14.6164
0.366301	5.7064	0.109205	1.80862	0.353197	6.03018	0.492514	8.35473	0.618789	10.1325	0.879649	13.7228	0.303241	5.11747	0.483989	8.26273	0.743757	11.7083	0.91853	14.414
0.36859	5.65991	0.111307	1.81542	0.355292	5.97096	0.494123	8.25161	0.619399	10.0875	0.880819	13.5442	0.30681	5.09754	0.485898	8.16545	0.745031	11.5588	0.919265	14.2177
0.370916	5.61529	0.113409	1.82202	0.357416	5.91406	0.495765	8.1522	0.620232	10.0272	0.882004	13.3709	0.310386	5.07834	0.487829	8.07152	0.746321	11.4139	0.920013	14.0271
0.37328	5.57248	0.115511	1.82842	0.35957	5.85938	0.49744	8.05631	0.621292	9.95224	0.883204	13.2026	0.313969	5.05984	0.48978	7.98078	0.747627	11.2732	0.920774	13.8421
0.375682	5.53141	0.117612	1.83463	0.361757	5.80684	0.499148	7.96381	0.622583	9.86358	0.884419	13.0391	0.317559	5.04199	0.491752	7.89308	0.748948	11.1367	0.921548	13.6624
0.378126	5.49205	0.119714	1.84067	0.363976	5.75637	0.500889	7.87453	0.624112	9.76223	0.885649	12.8803	0.321155	5.02476	0.493745	7.8083	0.750284	11.0041	0.922335	13.4877
0.380611	5.45433	0.121816	1.84652	0.366229	5.7079	0.502663	7.78834	0.625884	9.64933	0.886893	12.726	0.324757	5.00811	0.495757	7.72628	0.751636	10.8753	0.923136	13.318
0.383139	5.41822	0.123917	1.85222	0.368517	5.66135	0.50447	7.70511	0.627676	9.53991	0.888152	12.5759	0.328365	4.99202	0.49779	7.64692	0.752826	10.766	0.923949	13.1529
0.385711	5.38366	0.126018	1.85775	0.370842	5.61667	0.50631	7.62471	0.629486	9.43384	0.889426	12.43	0.331978	4.97646	0.499842	7.5701	0.753849	10.675	0.924776	12.9924
0.388328	5.3506	0.128118	1.86313	0.373204	5.5738	0.508182	7.54702	0.631315	9.33096	0.890714	12.288	0.335595	4.9614	0.501913	7.4957	0.754701	10.6012	0.925617	12.8362
0.390991	5.31901	0.130219	1.86836	0.375606	5.53269	0.510088	7.47193	0.633163	9.23115	0.892016	12.1498	0.339217	4.94681	0.504003	7.42362	0.755379	10.5437	0.926471	12.6841
0.393701	5.28884	0.132319	1.87344	0.378048	5.49327	0.512026	7.39934	0.635029	9.13428	0.893333	12.0152	0.342844	4.93267	0.506112	7.35377	0.75588	10.5019	0.927338	12.5361
0.396458	5.26005	0.134418	1.87839	0.380532	5.4555	0.513996	7.32913	0.636913	9.04023	0.894664	11.8842	0.346473	4.91895	0.50824	7.28605	0.756202	10.4753	0.92822	12.3919
0.399263	5.23258	0.136518	1.88321	0.383058	5.41933	0.515999	7.26123	0.638815	8.94889	0.89601	11.7566	0.350106	4.90564	0.510386	7.22037	0.756665	10.4375	0.929115	12.2515
0.402116	5.2064	0.138617	1.8879	0.385629	5.38472	0.518034	7.19552	0.640735	8.86014	0.897369	11.6322	0.353742	4.89272	0.512549	7.15665	0.757171	10.3968	0.930023	12.1146
0.405018	5.18147	0.140715	1.89247	0.388244	5.35162	0.520101	7.13194	0.642673	8.7739	0.898743	11.511	0.357381	4.88016	0.514731	7.09482	0.757861	10.342	0.930946	11.9813
0.407968	5.15773	0.142814	1.89692	0.390906	5.31999	0.5222	7.07038	0.644628	8.69006	0.90013	11.3928	0.361022	4.86794	0.51693	7.03478	0.758739	10.2737	0.931883	11.8512
0.410965	5.13514	0.144911	1.90125	0.393614	5.28978	0.52433	7.01078	0.646601	8.60853	0.901532	11.2776	0.364665	4.85606	0.519146	6.97649	0.759809	10.1927	0.932834	11.7244
0.41401	5.11365	0.147009	1.90548	0.39637	5.26094	0.526491	6.95306	0.64859	8.52922	0.902947	11.1652	0.36831	4.84449	0.52138	6.91986	0.761074	10.0996	0.933798	11.6007
0.417102	5.09323	0.149106	1.9096	0.399174	5.23343	0.528684	6.89715	0.650597	8.45205	0.904192	11.0694	0.371956	4.83321	0.52363	6.86484	0.762538	9.9955	0.934777	11.4799
0.420239	5.07381	0.151202	1.91362	0.402025	5.20721	0.530907	6.84298	0.65262	8.37694	0.905261	10.9894	0.375602	4.82222	0.525897	6.81136	0.764017	9.89405	0.935771	11.3621
0.423422	5.05537	0.153299	1.91754	0.404925	5.18224	0.53316	6.79047	0.654661	8.30382	0.90615	10.9243	0.37925	4.8115	0.52818	6.75937	0.76551	9.7952	0.936779	11.2471
0.426648	5.03785	0.155394	1.92136	0.407874	5.15846	0.535443	6.73958	0.656717	8.23262	0.906858	10.8735	0.382898	4.80103	0.53048	6.70881	0.767017	9.69886	0.937668	11.1491
0.429916	5.0212	0.15749	1.92509	0.41087	5.13583	0.537756	6.69024	0.65879	8.16326	0.90738	10.8365	0.386546	4.7908	0.532795	6.65962	0.768538	9.60494	0.938436	11.0672
0.433226	5.00539	0.159585	1.92873	0.413913	5.11431	0.540099	6.64239	0.660879	8.09569	0.907715	10.813	0.390194	4.78081	0.535127	6.61176	0.770073	9.51334	0.939076	11.0005
0.436575	4.99037	0.161679	1.93229	0.417003	5.09386	0.542471	6.59598	0.662985	8.02983	0.908197	10.7795	0.393841	4.77103	0.537474	6.56519	0.771622	9.424	0.939587	10.9484
0.439962	4.97609	0.163774	1.93577	0.420139	5.07441	0.544871	6.55095	0.665106	7.96563	0.908724	10.7433	0.397488	4.76146	0.539836	6.51984	0.773184	9.33684	0.939964	10.9105
0.443386	4.96252	0.165867	1.93916	0.42332	5.05594	0.547299	6.50726	0.667243	7.90304	0.909442	10.6946	0.401133	4.75209	0.542214	6.47569	0.77476	9.25178	0.940207	10.8864
0.446845	4.94962	0.167961	1.94247	0.426545	5.03839	0.549756	6.46485	0.669395	7.842	0.910356	10.6337	0.404776	4.74291	0.544607	6.43269	0.776349	9.16874	0.940557	10.852
0.450337	4.93735	0.170054	1.94571	0.429812	5.02171	0.55224	6.42368	0.671563	7.78245	0.911467	10.5613	0.408418	4.7339	0.547014	6.3908	0.777951	9.08767	0.940939	10.8149
0.453861	4.92567	0.172146	1.94888	0.433121	5.00588	0.554751	6.38371	0.673746	7.72435	0.91278	10.478	0.412058	4.72506	0.549437	6.34999	0.779567	9.0085	0.941462	10.7649
0.457415	4.91455	0.174239	1.95198	0.436469	4.99083	0.557289	6.34489	0.675945	7.66765	0.914299	10.3844	0.415695	4.71638	0.551874	6.31021	0.781196	8.93117	0.942128	10.7025
0.460998	4.90395	0.17633	1.95501	0.439855	4.97653	0.559854	6.30718	0.678158	7.61231	0.915831	10.2928	0.41933	4.70785	0.554326	6.27143	0.782838	8.85561	0.942942	10.6282
0.464607	4.89384	0.178422	1.95797	0.443278	4.96294	0.562444	6.27055	0.680387	7.55827	0.917377	10.2034	0.422961	4.69947	0.556792	6.23362	0.784493	8.78177	0.943906	10.5426
0.468242	4.88419	0.180513	1.96087	0.446735	4.95002	0.56506	6.23495	0.68263	7.50551	0.918935	10.1159	0.42659	4.69122	0.559272	6.19675	0.78616	8.70961	0.945027	10.4464
0.4719	4.87497	0.182604	1.96371	0.450227	4.93773	0.567701	6.20035	0.684888	7.45398	0.920506	10.0303	0.430214	4.68309	0.561767	6.16079	0.787841	8.63905	0.946162	10.3523
0.475581	4.86616	0.184694	1.96648	0.453749	4.92603	0.570367	6.16671	0.68716	7.40363	0.92209	9.94657	0.433835	4.67509	0.564275	6.12571	0.789534	8.57006	0.947313	10.2603
0.479283	4.85773	0.186784	1.9692	0.457302	4.91489	0.573057	6.13401	0.689447	7.35444	0.923687	9.86465	0.437451	4.6672	0.566797	6.09148	0.791239	8.50259	0.948479	10.1703
0.483005	4.84966	0.188874	1.97186	0.460884	4.90427	0.575771	6.1022	0.691748	7.30637	0.925297	9.78449	0.441063	4.65942	0.569333	6.05807	0.792958	8.43658	0.94966	10.0823
0.486745	4.84192	0.190963	1.97447	0.464492	4.89415	0.578509	6.07126	0.694063	7.25939	0.926919	9.70601	0.44467	4.65174	0.571883	6.02546	0.794688	8.37201	0.950856	9.99608
0.490502	4.83449	0.193052	1.97703	0.468126	4.88449	0.581269	6.04116	0.696392	7.21346	0.928553	9.62919	0.448272	4.64415	0.574446	5.99363	0.796431	8.30881	0.952068	9.91173
0.494276	4.82735	0.195141	1.97953	0.471784	4.87526	0.584052	6.01188	0.698735	7.16854	0.9302	9.55396	0.451868	4.63665	0.577022	5.96255	0.798186	8.24696	0.953295	9.82917
0.498064	4.82048	0.197229	1.98198	0.475464	4.86644	0.586858	5.98337	0.701092	7.12462	0.93186	9.48028	0.455458	4.62924	0.579612	5.9322	0.799953	8.18642	0.954537	9.74833
0.501866	4.81387	0.199317	1.98438	0.479166	4.85799	0.589685	5.95563	0.703462	7.08166	0.933531	9.40811	0.459042	4.6219	0.582216	5.90256	0.801733	8.12714	0.955795	9.66918
0.505681	4.8075	0.201405	1.98674	0.482887	4.84991	0.592534	5.92861	0.705846	7.03964	0.935215	9.33741	0.462619	4.61463	0.584832	5.87361	0.803524	8.06909	0.957069	9.59165
0.509507	4.80135	0.203492	1.98905	0.486626	4.84216	0.595404	5.9023	0.708244	6.99852	0.936911	9.26813	0.46619	4.60743	0.587462	5.84533	0.805327	8.01223	0.958358	9.51572
0.513345	4.79541	0.205579	1.99132	0.490383	4.83472	0.598294	5.87668	0.710654	6.95828	0.93862	9.20023	0.469754	4.60029	0.590105	5.81769	0.807142	7.95654	0.959663	9.44134
0.517192	4.78966	0.207666	1.99354	0.494156	4.82757	0.601205	5.85172	0.713079	6.91889	0.94034	9.13368	0.47331	4.5932	0.592761	5.79069	0.808969	7.90197	0.960983	9.36846
0.521048	4.7841	0.209753	1.99572	0.497944	4.8207	0.604135	5.8274	0.715516	6.88034	0.942072	9.06844	0.476858	4.58617	0.59543	5.7643	0.810808	7.8485	0.96232	9.29704
0.524913	4.7787	0.211839	1.99786	0.501745	4.81408	0.607086	5.80369	0.717966	6.8426	0.943816	9.00447	0.480398	4.57918	0.598112	5.7385	0.812658	7.7961	0.963672	9.22705
0.528786	4.77347	0.213925	1.99996	0.50556	4.8077	0.610055	5.78059	0.720429	6.80565	0.945571	8.94173	0.48393	4.57224	0.600807	5.71329	0.81452	7.74474	0.96504	9.15845
0.532665	4.76838	0.216011	2.00202	0.509386	4.80154	0.613043	5.75807	0.722905	6.76946	0.947338	8.88021	0.487452	4.56534	0.603515	5.68864	0.816393	7.69439	0.966424	9.09119
0.53655	4.76343	0.218096	2.00404	0.513223	4.79559	0.616049	5.73611	0.725394	6.73401	0.949117	8.81985	0.490966	4.55847	0.606237	5.66454	0.818277	7.64502	0.967824	9.02526
0.540441	4.75861	0.220181	2.00603	0.51707	4.78984	0.619074	5.7147	0.727896	6.69929	0.950908	8.76064	0.49447	4.55163	0.608971	5.64098	0.820173	7.5966	0.96924	8.96061
0.544336	4.75392	0.222266	2.00798	0.520926	4.78427	0.622116	5.69381	0.73041	6.66528	0.952709	8.70254	0.497964	4.54481	0.611717	5.61794	0.822081	7.54912	0.970672	8.89722
0.548236	4.74933	0.224351	2.00989	0.524791	4.77887	0.625175	5.67343	0.732937	6.63195	0.954523	8.64552	0.501449	4.53803	0.614477	5.59541	0.823999	7.50255	0.97212	8.83504
0.55214	4.74485	0.226435	2.01178	0.528663	4.77363	0.628252	5.65355	0.735476	6.59929	0.956347	8.58956	0.504922	4.53125	0.61725	5.57338	0.825929	7.45686	0.973584	8.77405
0.556046	4.74046	0.228519	2.01362	0.532542	4.76854	0.631345	5.63415	0.738027	6.56728	0.958183	8.53463	0.508385	4.5245	0.620036	5.55182	0.827869	7.41204	0.975065	8.71422
0.559955	4.73617	0.230603	2.01544	0.536427	4.76359	0.634455	5.61521	0.740591	6.5359	0.96003	8.4807	0.511836	4.51776	0.622835	5.53074	0.829821	7.36805	0.976561	8.65553
0.563866	4.73196	0.232687	2.01723	0.540318	4.75877	0.63758	5.59672	0.743167	6.50515	0.961888	8.42775	0.515277	4.51102	0.625646	5.51013	0.831784	7.32488	0.978074	8.59794
0.567778	4.72782	0.234771	2.01898	0.544213	4.75406	0.640722	5.57867	0.745755	6.47499	0.963756	8.37575	0.518705	4.5043	0.628471	5.48995	0.833758	7.28251	0.979604	8.54143
0.571692	4.72376	0.236854	2.02071	0.548113	4.74947	0.643878	5.56105	0.748355	6.44543	0.965636	8.32469	0.522121	4.49757	0.631309	5.47022	0.835743	7.24092	0.981149	8.48596
0.575606	4.71977	0.238937	2.0224	0.552016	4.74499	0.64705	5.54383	0.750967	6.41644	0.967527	8.27452	0.525524	4.49085	0.63416	5.45092	0.837738	7.20009	0.982711	8.43153
0.57952	4.71584	0.24102	2.02407	0.555922	4.7406	0.650237	5.52702	0.75359	6.388	0.969428	8.22525	0.528915	4.48412	0.637023	5.43203	0.841762	7.12063	0.984289	8.3781
0.583434	4.71196	0.243102	2.02571	0.559831	4.7363	0.653439	5.51059	0.756226	6.36012	0.971341	8.17683	0.532292	4.47739	0.6399	5.41355	0.84379	7.08197	0.985884	8.32565
0.587347	4.70814	0.245185	2.02732	0.563742	4.73209	0.656654	5.49454	0.758874	6.33276	0.973263	8.12926	0.535656	4.47065	0.64279	5.39548	0.845828	7.044	0.987495	8.27415
0.591258	4.70436	0.247267	2.02891	0.567654	4.72795	0.659884	5.47885	0.761533	6.30592	0.975197	8.08251	0.539006	4.4639	0.645693	5.37779	0.847878	7.0067	0.989122	8.22359
0.595169	4.70063	0.249349	2.03047	0.571568	4.72389	0.663128	5.46352	0.764204	6.27959	0.97714	8.03656	0.542342	4.45713	0.64861	5.36048	0.849938	6.97006	0.990766	8.17394
0.599077	4.69693	0.251431	2.032	0.575482	4.7199	0.666385	5.44853	0.766886	6.25376	0.979095	7.9914	0.545664	4.45035	0.651539	5.34355	0.852008	6.93406	0.992427	8.12518
0.602983	4.69327	0.253512	2.03352	0.579396	4.71596	0.669655	5.43387	0.76958	6.2284	0.981059	7.947	0.548971	4.44356	0.654482	5.32698	0.854089	6.89869	0.994103	8.0773
0.606887	4.68965	0.255594	2.035	0.58331	4.71208	0.672939	5.41954	0.772286	6.20352	0.983034	7.90335	0.552262	4.43674	0.657438	5.31076	0.856181	6.86393	0.995797	8.03026
0.610787	4.68605	0.257675	2.03647	0.587223	4.70826	0.676235	5.40553	0.775003	6.1791	0.985019	7.86043	0.555539	4.42991	0.660407	5.2949	0.858283	6.82977	0.997506	7.98406
0.614684	4.68248	0.259756	2.03791	0.591135	4.70448	0.679544	5.39183	0.777731	6.15514	0.987014	7.81822	0.558799	4.42305	0.66339	5.27937	0.860396	6.79619	0.999233	7.93868
0.618577	4.67893	0.261837	2.03933	0.595045	4.70074	0.682866	5.37842	0.780471	6.13161	0.98902	7.77671	0.562044	4.41616	0.666385	5.26418	0.862519	6.76319	1.00098	7.89409
0.622467	4.6754	0.263917	2.04072	0.598954	4.69705	0.686199	5.3653	0.783222	6.10851	0.991035	7.73589	0.565273	4.40925	0.669394	5.24932	0.864652	6.73074		
0.626352	4.67188	0.265998	2.0421	0.60286	4.69339	0.689545	5.35247	0.785985	6.08583	0.99306	7.69573	0.568485	4.40232	0.672417	5.23477	0.866796	6.69885		
0.630232	4.66838	0.268078	2.04345	0.606763	4.68976	0.692902	5.33991	0.788759	6.06356	0.995095	7.65622	0.571681	4.39535	0.675452	5.22054	0.86895	6.66749		
0.634107	4.66489	0.270158	2.04479	0.610664	4.68616	0.696271	5.32762	0.791544	6.0417	0.99714	7.61735	0.57486	4.38836	0.678501	5.20661	0.871115	6.63665		
0.637977	4.66141	0.272238	2.0461	0.614561	4.68259	0.699651	5.31559	0.79434	6.02023	0.999194	7.5791	0.578021	4.38133	0.681564	5.19298	0.87329	6.60633		
0.641841	4.65794	0.274318	2.0474	0.618454	4.67904	0.703043	5.30381	0.797147	5.99915	1.00126	7.54146	0.581165	4.37427	0.684639	5.17964	0.875475	6.57651		
0.645699	4.65447	0.276398	2.04867	0.622344	4.67551	0.706445	5.29228	0.799965	5.97844			0.584292	4.36718	0.687728	5.16659	0.877671	6.54718		
0.649552	4.651	0.278478	2.04993	0.626229	4.67199	0.709858	5.281	0.802795	5.9581			0.587401	4.36005	0.69083	5.15382	0.879876	6.51833		
0.653397	4.64753	0.280557	2.05117	0.630109	4.66849	0.713283	5.26994	0.805636	5.93812			0.590492	4.35289	0.693945	5.14133	0.882093	6.48995		
0.657236	4.64406	0.282636	2.05239	0.633984	4.665	0.716717	5.25912	0.808487	5.9185			0.593565	4.3457	0.697073	5.1291	0.884319	6.46204		
0.661068	4.64059	0.284716	2.0536	0.637855	4.66152	0.720162	5.24851	0.81135	5.89922			0.59662	4.33847	0.700214	5.11713	0.886556	6.43457		
0.664893	4.63711	0.286795	2.05478	0.641719	4.65805	0.723618	5.23813	0.814224	5.88028			0.599656	4.33121	0.703368	5.10542	0.888803	6.40755		
0.66871	4.63362	0.288873	2.05595	0.645578	4.65458	0.727083	5.22795	0.817109	5.86167			0.602674	4.3239	0.706535	5.09396	0.89106	6.38097		
0.67203	4.63057	0.290952	2.05711	0.64943	4.65111	0.730558	5.21798	0.820005	5.84339			0.605673	4.31657	0.709715	5.08274	0.893327	6.3548		
0.674855	4.62797	0.293031	2.05825	0.653276	4.64764	0.734043	5.20822	0.822911	5.82543			0.608654	4.3092	0.712908	5.07176	0.895605	6.32906		
0.677188	4.62581	0.295109	2.05937	0.657115	4.64417	0.737538	5.19865	0.825829	5.80778			0.611615	4.30179	0.716113	5.06102	0.897893	6.30372		
0.67903	4.6241	0.297187	2.06047	0.660947	4.6407	0.741042	5.18927	0.828758	5.79043			0.614558	4.29435	0.71933	5.0505	0.900191	6.27879		
0.680383	4.62284	0.299266	2.06157	0.664772	4.63722	0.744556	5.18008	0.831698	5.77339			0.617482	4.28687	0.72256	5.04021	0.902499	6.25424		
0.681249	4.62203	0.301344	2.06264	0.668589	4.63373	0.748079	5.17107	0.834649	5.75664			0.620387	4.27936	0.725802	5.03013	0.904817	6.23008		
0.682492	4.62087	0.303422	2.06371	0.672399	4.63023	0.751611	5.16224	0.83761	5.74018			0.623273	4.27181	0.729056	5.02027	0.907146	6.2063		
0.683843	4.61961	0.3055	2.06475	0.6762	4.62672	0.755152	5.15358	0.840583	5.72401			0.62614	4.26423	0.732322	5.01062	0.909485	6.18289		
0.685678	4.61789	0.307577	2.06579	0.679993	4.6232	0.758702	5.14509	0.843566	5.70811			0.628988	4.25662	0.7356	5.00116	0.911834	6.15985		
0.687995	4.6157	0.309655	2.06681	0.683777	4.61967	0.76226	5.13677	0.846561	5.69248			0.631817	4.24897	0.73889	4.9919	0.914193	6.13716		
0.690793	4.61305	0.311732	2.06782	0.687553	4.61612	0.765828	5.12861	0.849566	5.67713			0.634627	4.24129	0.74219	4.98284	0.916562	6.11482		
0.694069	4.60993	0.31381	2.06881	0.691319	4.61255	0.769403	5.1206	0.852583	5.66203			0.637418	4.23358	0.745502	4.97396	0.918942	6.09282		
0.697819	4.60634	0.315887	2.06979	0.695076	4.60897	0.772988	5.11276	0.85561	5.6472			0.64019	4.22585	0.748825	4.96526	0.921331	6.07116		
0.701559	4.60272	0.317964	2.07076	0.698824	4.60537	0.77658	5.10506	0.858649	5.63261			0.642943	4.21808	0.752158	4.95675	0.923731	6.04983		
0.70529	4.59908	0.320041	2.07172	0.702562	4.60175	0.780181	5.09751	0.861698	5.61828			0.645678	4.21028	0.755503	4.9484	0.926141	6.02883		
0.70901	4.59542	0.322118	2.07266	0.706289	4.5981	0.783789	5.0901	0.864759	5.60419			0.648393	4.20246	0.758857	4.94023	0.928561	6.00814		
0.71272	4.59174	0.324195	2.07359	0.710007	4.59444	0.787406	5.08283	0.86783	5.59034			0.651091	4.19461	0.762222	4.93221	0.930991	5.98777		
0.71642	4.58804	0.326272	2.07451	0.713714	4.59075	0.79103	5.0757	0.870912	5.57673			0.653769	4.18674	0.765596	4.92436	0.933432	5.9677		
0.720108	4.58431	0.328348	2.07542	0.717411	4.58704	0.794662	5.0687	0.874006	5.56334			0.65643	4.17884	0.76898	4.91666	0.935882	5.94794		
0.723786	4.58055	0.330425	2.07632	0.721096	4.5833	0.798302	5.06184	0.87711	5.55019			0.659072	4.17092	0.772373	4.90912	0.938343	5.92847		
0.727452	4.57677	0.332501	2.07721	0.724771	4.57954	0.801949	5.0551	0.880226	5.53726			0.661695	4.16298	0.775776	4.90171	0.940813	5.9093		
0.731108	4.57296	0.334578	2.07808	0.728435	4.57575	0.805603	5.04848	0.883352	5.52455			0.664301	4.15502	0.779187	4.89446	0.943294	5.89041		
0.734751	4.56912	0.336654	2.07895	0.732087	4.57193	0.809264	5.04199	0.88649	5.51205			0.666889	4.14704	0.782607	4.88734	0.945785	5.8718		
0.738383	4.56526	0.33873	2.0798	0.735727	4.56809	0.812933	5.03561	0.889638	5.49977			0.66946	4.13904	0.786036	4.88035	0.948286	5.85347		
0.742004	4.56137	0.340806	2.08065	0.739356	4.56422	0.816608	5.02935	0.892798	5.48769			0.672012	4.13103	0.789472	4.87349	0.950797	5.83541		
0.745612	4.55744	0.342882	2.08148	0.742973	4.56032	0.82029	5.02321	0.895969	5.47582			0.674548	4.123	0.792916	4.86676	0.953318	5.81762		
0.749208	4.55349	0.344958	2.08231	0.746578	4.55639	0.823979	5.01717	0.899151	5.46416			0.677066	4.11496	0.796368	4.86016	0.955849	5.80009		
0.752792	4.54951	0.347034	2.08312	0.750171	4.55243	0.827674	5.01124	0.902344	5.45269			0.679566	4.1069	0.799827	4.85367	0.958391	5.78281		
0.756363	4.5455	0.34911	2.08393	0.753751	4.54844	0.831376	5.00542	0.905548	5.44142			0.68205	4.09884	0.803292	4.84729	0.960942	5.76579		
0.759922	4.54146	0.351185	2.08472	0.757319	4.54442	0.835084	4.9997	0.908764	5.43034			0.684518	4.09076	0.806765	4.84103	0.963503	5.74902		
0.763468	4.53739	0.353261	2.08551	0.760875	4.54037	0.838798	4.99408	0.91199	5.41944			0.686969	4.08267	0.810244	4.83488	0.966075	5.7325		
0.767001	4.53329	0.355336	2.08629	0.764418	4.53629	0.842518	4.98855	0.915228	5.40874			0.689403	4.07458	0.813729	4.82883	0.968656	5.71621		
0.770522	4.52915	0.357412	2.08705	0.767947	4.53218	0.846243	4.98312	0.918477	5.39822			0.691821	4.06648	0.81722	4.82288	0.971247	5.70016		
0.774029	4.52499	0.359487	2.08781	0.771464	4.52804	0.849974	4.97778	0.921737	5.38787			0.694223	4.05837	0.820717	4.81703	0.973849	5.68435		
0.777523	4.52079	0.361562	2.08857	0.774968	4.52386	0.853711	4.97253	0.925008	5.37771			0.69661	4.05027	0.824219	4.81127	0.97646	5.66876		
0.781005	4.51657	0.363637	2.08931	0.778459	4.51966	0.857453	4.96737	0.928291	5.36772			0.698981	4.04215	0.827726	4.80561	0.979081	5.6534		
0.784472	4.51231	0.365713	2.09004	0.781937	4.51543	0.8612	4.96229	0.931585	5.3579			0.701336	4.03404	0.831237	4.80003	0.981712	5.63826		
0.787927	4.50802	0.367788	2.09077	0.785401	4.51116	0.864952	4.9573	0.93489	5.34825			0.703676	4.02593	0.834753	4.79454	0.984353	5.62334		
0.791368	4.5037	0.369862	2.09149	0.788852	4.50686	0.868708	4.95238	0.938206	5.33876			0.706002	4.01781	0.838274	4.78913	0.987004	5.60863		
0.794796	4.49935	0.371937	2.0922	0.792289	4.50253	0.87247	4.94755	0.941534	5.32944			0.708312	4.0097	0.841798	4.7838	0.989665	5.59413		
0.79821	4.49497	0.374012	2.0929	0.795713	4.49818	0.876235	4.94279	0.944872	5.32028			0.710608	4.00159	0.845326	4.77855	0.992336	5.57985		
0.80161	4.49056	0.376087	2.09359	0.799123	4.49379	0.880005	4.9381	0.948223	5.31128			0.71289	3.99349	0.848857	4.77337	0.995017	5.56576		
0.804997	4.48611	0.378161	2.09428	0.80252	4.48937	0.883779	4.93349	0.951584	5.30244			0.715157	3.98539	0.852392	4.76826	0.997707	5.55187		
0.80837	4.48164	0.380236	2.09496	0.805904	4.48492	0.887557	4.92894	0.954956	5.29375			0.71741	3.97729	0.855929	4.76323	1.00041	5.53819		
0.811729	4.47714	0.382311	2.09563	0.809273	4.48044	0.891339	4.92446	0.95834	5.28521			0.71965	3.96921	0.859469	4.75825				
0.815075	4.47261	0.384385	2.0963	0.812629	4.47593	0.895124	4.92005	0.961735	5.27682			0.721875	3.96113	0.863011	4.75335				
0.818407	4.46805	0.386459	2.09696	0.815971	4.47139	0.898912	4.9157	0.965142	5.26858			0.724088	3.95306	0.866555	4.7485				
0.821725	4.46346	0.388534	2.09761	0.819299	4.46682	0.902704	4.91141	0.968559	5.26048			0.726287	3.945	0.870101	4.74371				
0.82503	4.45885	0.390608	2.09825	0.822614	4.46223	0.906498	4.90718	0.971988	5.25252			0.728474	3.93695	0.873649	4.73898				
0.828321	4.4542	0.392682	2.09889	0.825914	4.4576	0.910296	4.903	0.975428	5.24471			0.730647	3.92892	0.877198	4.73431				
0.831597	4.44953	0.394756	2.09952	0.829201	4.45295	0.914095	4.89889	0.97888	5.23703			0.732808	3.92089	0.880748	4.72968				
0.834861	4.44483	0.39683	2.10014	0.832475	4.44827	0.917897	4.89482	0.982342	5.22949			0.734956	3.91288	0.884298	4.72511				
0.83811	4.44011	0.398904	2.10076	0.835734	4.44357	0.921702	4.89081	0.985816	5.22208			0.737093	3.90489	0.88785	4.72058				
0.841346	4.43536	0.400978	2.10137	0.83898	4.43884	0.925508	4.88685	0.989301	5.2148			0.739217	3.89691	0.891401	4.71611				
0.844567	4.43058	0.403052	2.10198	0.842212	4.43408	0.929316	4.88293	0.992797	5.20765			0.74133	3.88894	0.894953	4.71167				
0.847776	4.42578	0.405126	2.10258	0.84543	4.4293	0.933125	4.87906	0.996304	5.20063			0.74343	3.88099	0.898504	4.70728				
0.85097	4.42096	0.4072	2.10317	0.848634	4.42449	0.936936	4.87524	0.999822	5.19374			0.74552	3.87306	0.902056	4.70293				
0.854151	4.41611	0.409273	2.10376	0.851825	4.41966	0.940748	4.87146	1.00335	5.18697			0.747598	3.86515	0.905606	4.69861				
0.857318	4.41123	0.411347	2.10434	0.855002	4.4148	0.944561	4.86772					0.749665	3.85726	0.909156	4.69434				
0.860472	4.40634	0.413421	2.10491	0.858166	4.40992	0.948375	4.86402					0.751721	3.84938	0.912704	4.6901				
0.863612	4.40142	0.415494	2.10548	0.861316	4.40502	0.952189	4.86035					0.753767	3.84153	0.916251	4.68589				
0.866739	4.39648	0.417568	2.10605	0.864453	4.40009	0.956004	4.85673					0.755802	3.8337	0.919797	4.68172				
0.869852	4.39151	0.419641	2.1066	0.867576	4.39515	0.959819	4.85314					0.757827	3.82589	0.923341	4.67757				
0.872952	4.38653	0.421714	2.10716	0.870686	4.39018	0.963634	4.84958					0.759841	3.8181	0.926883	4.67346				
0.876039	4.38153	0.423788	2.1077	0.873782	4.38519	0.967448	4.84606					0.761846	3.81033	0.930423	4.66937				
0.879112	4.3765	0.425861	2.10825	0.876865	4.38018	0.971263	4.84256					0.763841	3.80259	0.93396	4.66531				
0.882172	4.37146	0.427934	2.10878	0.879935	4.37515	0.975076	4.8391					0.765826	3.79487	0.937495	4.66127				
0.885219	4.3664	0.430007	2.10932	0.882991	4.37011	0.97889	4.83566					0.767801	3.78718	0.941027	4.65726				
0.888253	4.36132	0.43208	2.10984	0.886034	4.36504	0.982702	4.83225					0.769768	3.77951	0.944556	4.65327				
0.891273	4.35623	0.434153	2.11036	0.889065	4.35996	0.986513	4.82887					0.771725	3.77186	0.948081	4.6493				
0.894281	4.35111	0.436226	2.11088	0.892082	4.35485	0.990323	4.82551					0.773674	3.76425	0.951604	4.64535				
0.897276	4.34598	0.438299	2.11139	0.895086	4.34974	0.994131	4.82218					0.775613	3.75665	0.955122	4.64141				
0.900258	4.34084	0.440372	2.1119	0.898078	4.3446	0.997938	4.81887					0.777544	3.74909	0.958637	4.6375				
0.903227	4.33568	0.442445	2.1124	0.901056	4.33945	1.00174	4.81557					0.779467	3.74155	0.962148	4.6336				
0.906184	4.3305	0.444518	2.1129	0.904022	4.33429							0.781381	3.73404	0.965655	4.62971				
0.909128	4.32531	0.446591	2.11339	0.906975	4.32911							0.783287	3.72655	0.969157	4.62584				
0.912059	4.32011	0.448663	2.11388	0.909916	4.32392							0.785185	3.7191	0.972655	4.62198				
0.914978	4.31489	0.450736	2.11436	0.912843	4.31871							0.787075	3.71167	0.976148	4.61813				
0.917884	4.30966	0.452809	2.11484	0.915759	4.31349							0.788957	3.70427	0.979636	4.6143				
0.920778	4.30442	0.454881	2.11532	0.918662	4.30826							0.790832	3.6969	0.983119	4.61047				
0.92366	4.29917	0.456954	2.11579	0.921553	4.30301							0.7927	3.68957	0.986597	4.60665				
0.926529	4.2939	0.459026	2.11626	0.924431	4.29775							0.79456	3.68226	0.99007	4.60284				
0.929387	4.28863	0.461099	2.11672	0.927297	4.29249							0.796413	3.67498	0.993537	4.59904				
0.932232	4.28334	0.463171	2.11718	0.930152	4.28721							0.79826	3.66773	0.996998	4.59524				
0.935065	4.27804	0.465243	2.11763	0.932994	4.28192							0.800099	3.66051	1.00045	4.59145				
0.937887	4.27274	0.467316	2.11808	0.935824	4.27662							0.801932	3.65332						
0.940696	4.26743	0.469388	2.11853	0.938642	4.27132							0.803758	3.64616						
0.943494	4.2621	0.47146	2.11897	0.941448	4.266							0.805578	3.63904						
0.94628	4.25678	0.473532	2.11941	0.944243	4.26068							0.807391	3.63195						
0.949055	4.25144	0.475604	2.11984	0.947026	4.25534							0.809198	3.62488						
0.951818	4.24609	0.477676	2.12027	0.949798	4.25							0.811	3.61785						
0.95457	4.24074	0.479749	2.1207	0.952558	4.24466							0.812795	3.61085						
0.95731	4.23539	0.48182	2.12112	0.955306	4.2393							0.814585	3.60389						
0.960039	4.23002	0.483892	2.12154	0.958043	4.23395							0.816369	3.59695						
0.962756	4.22465	0.485964	2.12196	0.960769	4.22858							0.818147	3.59005						
0.965463	4.21928	0.488036	2.12237	0.963484	4.22321							0.81992	3.58318						
0.968158	4.2139	0.490108	2.12278	0.966187	4.21784							0.821688	3.57634						
0.970843	4.20852	0.49218	2.12319	0.96888	4.21246							0.82345	3.56954						
0.973516	4.20313	0.494252	2.12359	0.971561	4.20707							0.825207	3.56277						
0.976179	4.19774	0.496323	2.12399	0.974232	4.20169							0.82696	3.55603						
0.978831	4.19235	0.498395	2.12438	0.976891	4.1963							0.828707	3.54933						
0.981472	4.18695	0.500467	2.12478	0.97954	4.1909							0.83045	3.54265						
0.984102	4.18155	0.502538	2.12516	0.982179	4.1855							0.832188	3.53602						
0.986722	4.17615	0.50461	2.12555	0.984806	4.18011							0.833922	3.52941						
0.989331	4.17075	0.506681	2.12593	0.987423	4.1747							0.835651	3.52284						
0.99193	4.16535	0.508753	2.12631	0.99003	4.1693							0.837376	3.5163						
0.994519	4.15994	0.510824	2.12669	0.992626	4.1639							0.839097	3.50979						
0.997097	4.15454	0.512896	2.12706	0.995212	4.15849							0.840814	3.50332						
0.999665	4.14913	0.514967	2.12743	0.997788	4.15309							0.842526	3.49688						
1.00222	4.14372	0.517039	2.1278	1.00035	4.14768							0.844235	3.49047						
		0.51911	2.12816									0.84594	3.4841						
		0.521181	2.12852									0.847641	3.47776						
		0.523252	2.12888									0.849338	3.47146						
		0.525324	2.12924									0.851032	3.46518						
		0.527395	2.12959									0.852722	3.45894						
		0.529466	2.12994									0.854409	3.45274						
		0.531537	2.13029									0.856093	3.44656						
		0.533608	2.13063									0.857773	3.44043						
		0.535679	2.13098									0.85945	3.43432						
		0.53775	2.13131									0.861125	3.42825						
		0.539821	2.13165									0.862796	3.42221						
		0.541892	2.13199									0.864464	3.4162						
		0.543963	2.13232									0.86613	3.41022						
		0.546034	2.13265									0.867792	3.40428						
		0.548105	2.13297									0.869452	3.39837						
		0.550176	2.1333									0.87111	3.3925						
		0.552246	2.13362									0.872765	3.38665						
		0.554317	2.13394									0.874417	3.38084						
		0.556388	2.13425									0.876067	3.37507						
		0.558459	2.13457									0.877715	3.36932						
		0.560529	2.13488									0.879361	3.36361						
		0.5626	2.13519									0.881004	3.35793						
		0.56467	2.1355									0.882645	3.35228						
		0.566741	2.1358									0.884284	3.34666						
		0.568812	2.1361									0.885921	3.34107						
		0.570882	2.1364									0.887557	3.33552						
		0.572953	2.1367									0.88919	3.33						
		0.575023	2.137									0.890821	3.32451						
		0.577093	2.13729									0.892451	3.31905						
		0.579164	2.13758									0.894079	3.31362						
		0.581234	2.13787									0.895705	3.30823						
		0.583304	2.13816									0.89733	3.30286						
		0.585375	2.13845									0.898953	3.29753						
		0.587445	2.13873									0.900575	3.29223						
		0.589515	2.13901									0.902195	3.28695						
		0.591585	2.13929									0.903814	3.28171						
		0.593656	2.13957									0.905431	3.2765						
		0.595726	2.13985									0.907047	3.27132						
		0.597796	2.14012									0.908662	3.26617						
		0.599866	2.14039									0.910276	3.26105						
		0.601936	2.14066									0.911889	3.25596						
		0.604006	2.14093									0.9135	3.2509						
		0.606076	2.1412									0.915111	3.24587						
		0.608146	2.14146									0.91672	3.24086						
		0.610216	2.14172									0.918328	3.23589						
		0.612286	2.14198									0.919936	3.23095						
		0.614356	2.14224									0.921542	3.22603						
		0.616426	2.1425									0.923148	3.22115						
		0.618496	2.14275									0.924753	3.21629						
		0.620566	2.14301									0.926357	3.21147						
		0.622635	2.14326									0.92796	3.20667						
		0.624705	2.14351									0.929563	3.2019						
		0.626775	2.14376									0.931165	3.19715						
		0.628845	2.14401									0.932767	3.19244						
		0.630914	2.14425									0.934367	3.18775						
		0.632984	2.14449									0.935968	3.1831						
		0.635054	2.14474									0.937567	3.17846						
		0.637123	2.14498									0.939167	3.17386						
		0.639193	2.14521									0.940765	3.16929						
		0.641263	2.14545									0.942364	3.16474						
		0.643332	2.14569									0.943962	3.16021						
		0.645402	2.14592									0.945559	3.15572						
		0.647471	2.14615									0.947156	3.15125						
		0.649541	2.14639									0.948753	3.14681						
		0.65161	2.14661									0.95035	3.1424						
		0.653679	2.14684									0.951946	3.13801						
		0.655749	2.14707									0.953542	3.13364						
		0.657818	2.14729									0.955138	3.12931						
		0.659888	2.14752									0.956734	3.125						
		0.661957	2.14774									0.95833	3.12071						
		0.664026	2.14796									0.959925	3.11645						
		0.666096	2.14818									0.961521	3.11222						
		0.668165	2.1484									0.963116	3.10801						
		0.670234	2.14862									0.964711	3.10383						
		0.672303	2.14883									0.966307	3.09967						
		0.674372	2.14904									0.967902	3.09553						
		0.676442	2.14926									0.969497	3.09142						
		0.678511	2.14947									0.971093	3.08734						
		0.68058	2.14968									0.972688	3.08328						
		0.682649	2.14989									0.974284	3.07924						
		0.684718	2.15009									0.975879	3.07523						
		0.686787	2.1503									0.977475	3.07124						
		0.688856	2.1505									0.979071	3.06727						
		0.690925	2.15071									0.980667	3.06333						
		0.692994	2.15091									0.982263	3.05942						
		0.695063	2.15111									0.98386	3.05552						
		0.697132	2.15131									0.985457	3.05165						
		0.699201	2.15151									0.987054	3.0478						
		0.70127	2.15171									0.988651	3.04398						
		0.703338	2.1519									0.990248	3.04017						
		0.705407	2.1521									0.991846	3.03639						
		0.707476	2.15229									0.993444	3.03264						
		0.709545	2.15249									0.995043	3.0289						
		0.711614	2.15268									0.996641	3.02519						
		0.713682	2.15287									0.998241	3.0215						
		0.715751	2.15306									0.99984	3.01783						
		0.71782	2.15324									1.00144	3.01418						
		0.719888	2.15343																
		0.721957	2.15362																
		0.724026	2.1538																
		0.726094	2.15399																
		0.728163	2.15417																
		0.730232	2.15435																
		0.7323	2.15453																
		0.734369	2.15471																
		0.736437	2.15489																
		0.738506	2.15507																
		0.740574	2.15524																
		0.742642	2.15542																
		0.744711	2.15559																
		0.746779	2.15576																
		0.748848	2.15594																
		0.750916	2.15611																
		0.752984	2.15628																
		0.755053	2.15645																
		0.757121	2.15662																
		0.759189	2.15678																
		0.761257	2.15695																
		0.763326	2.15712																
		0.765394	2.15728																
		0.767462	2.15744																
		0.76953	2.15761																
		0.771598	2.15777																
		0.773666	2.15793																
		0.775735	2.15809																
		0.777803	2.15825																
		0.779871	2.15841																
		0.781939	2.15857																
		0.784007	2.15872																
		0.786075	2.15888																
		0.788143	2.15903																
		0.790211	2.15919																
		0.792279	2.15934																
		0.794347	2.15949																
		0.796414	2.15964																
		0.798482	2.1598																
		0.80055	2.15995																
		0.802618	2.16009																
		0.804686	2.16024																
		0.806754	2.16039																
		0.808821	2.16054																
		0.810889	2.16068																
		0.812957	2.16083																
		0.815025	2.16097																
		0.817092	2.16112																
		0.81916	2.16126																
		0.821228	2.1614																
		0.823295	2.16154																
		0.825363	2.16168																
		0.82743	2.16182																
		0.829498	2.16196																
		0.831566	2.1621																
		0.833633	2.16224																
		0.835701	2.16238																
		0.837768	2.16251																
		0.839836	2.16265																
		0.841903	2.16278																
		0.843971	2.16292																
		0.846038	2.16305																
		0.848105	2.16318																
		0.850173	2.16332																
		0.85224	2.16345																
		0.854307	2.16358																
		0.856375	2.16371																
		0.858442	2.16384																
		0.860509	2.16397																
		0.862577	2.1641																
		0.864644	2.16422																
		0.866711	2.16435																
		0.868778	2.16448																
		0.870845	2.1646																
		0.872913	2.16473																
		0.87498	2.16485																
		0.877047	2.16498																
		0.879114	2.1651																
		0.881181	2.16522																
		0.883248	2.16534																
		0.885315	2.16546																
		0.887382	2.16558																
		0.889449	2.16571																
		0.891516	2.16582																
		0.893583	2.16594																
		0.89565	2.16606																
		0.897717	2.16618																
		0.899784	2.1663																
		0.901851	2.16641																
		0.903918	2.16653																
		0.905985	2.16665																
		0.908052	2.16676																
		0.910118	2.16688																
		0.912185	2.16699																
		0.914252	2.1671																
		0.916319	2.16722																
		0.918386	2.16733																
		0.920452	2.16744																
		0.922519	2.16755																
		0.924586	2.16766																
		0.926652	2.16777																
		0.928719	2.16788																
		0.930786	2.16799																
		0.932852	2.1681																
		0.934919	2.16821																
		0.936986	2.16831																
		0.939052	2.16842																
		0.941119	2.16853																
		0.943185	2.16863																
		0.945252	2.16874																
		0.947318	2.16884																
		0.949385	2.16895																
		0.951451	2.16905																
		0.953518	2.16916																
		0.955584	2.16926																
		0.957651	2.16936																
		0.959717	2.16946																
		0.961783	2.16957																
		0.96385	2.16967																
		0.965916	2.16977																
		0.967982	2.16987																
		0.970049	2.16997																
		0.972115	2.17007																
		0.974181	2.17017																
		0.976247	2.17027																
		0.978314	2.17036																
		0.98038	2.17046																
		0.982446	2.17056																
		0.984512	2.17066																
		0.986578	2.17075																
		0.988644	2.17085																
		0.990711	2.17094																
		0.992777	2.17104																
		0.994843	2.17113																
		0.996909	2.17123																
		0.998975	2.17132																
		1.00104	2.17141																
