Sym0		Asym0		Sym1		Sym2		Sym3		Sym4		Asym1		Asym2		Asym3		Asym4	
485  Points		500  Points		287  Points		231  Points		213  Points		153  Points		395  Points		246  Points		206  Points		159  Points	
Freq (MHz)	Vph (m/ms)	Freq (MHz)	Vph (m/ms)	Freq (MHz)	Vph (m/ms)	Freq (MHz)	Vph (m/ms)	Freq (MHz)	Vph (m/ms)	Freq (MHz)	Vph (m/ms)	Freq (MHz)	Vph (m/ms)	Freq (MHz)	Vph (m/ms)	Freq (MHz)	Vph (m/ms)	Freq (MHz)	Vph (m/ms)
0.00209582	4.52904	0.000230028	0.122827	0.279523	345.294	0.411917	1055.18	0.559026	744.408	0.838529	1331.38	0.139754	4146.22	0.419272	617.429	0.698775	1225.91	0.823832	1649
0.00631547	4.52901	0.000514402	0.183422	0.279575	160.563	0.411942	311.588	0.559063	332.249	0.838549	537.01	0.139834	144.845	0.419313	260.321	0.698795	465.336	0.823846	575.597
0.0105349	4.52892	0.000909664	0.243475	0.279665	104.629	0.411995	182.803	0.559128	213.868	0.838586	336.348	0.140062	73.8295	0.419388	164.954	0.698833	287.184	0.823874	348.658
0.0147538	4.52872	0.00141329	0.30277	0.279792	77.6207	0.412074	129.361	0.55922	157.702	0.838639	244.865	0.140436	49.6454	0.419497	120.748	0.698889	207.688	0.823915	250.074
0.0189721	4.52846	0.00202241	0.361172	0.279957	61.7149	0.412181	100.113	0.559341	124.916	0.838709	192.515	0.140956	37.4835	0.419639	95.246	0.698963	162.671	0.82397	194.959
0.0231897	4.52814	0.00273347	0.418521	0.28016	51.2364	0.412316	81.6653	0.55949	103.428	0.838796	158.614	0.141619	30.1819	0.419814	78.6532	0.699056	133.702	0.824039	159.757
0.0274061	4.52775	0.00354264	0.474697	0.280401	43.8147	0.412478	68.9699	0.559667	88.2597	0.8389	134.872	0.142421	25.3243	0.420023	66.9976	0.699166	113.498	0.824121	135.329
0.0316215	4.52731	0.00444569	0.529586	0.280678	38.2845	0.412667	59.7009	0.559871	76.9812	0.839021	117.318	0.143358	21.8682	0.420266	58.3628	0.699294	98.6051	0.824217	117.385
0.0358354	4.52679	0.00543821	0.583102	0.280993	34.0058	0.412884	52.6374	0.560104	68.2677	0.839158	103.813	0.144428	19.2898	0.420542	51.7105	0.699441	87.1733	0.824327	103.648
0.0400479	4.5262	0.0065155	0.635161	0.281344	30.5983	0.413129	47.0768	0.560365	61.3344	0.839312	93.101	0.145624	17.2972	0.420851	46.4294	0.699605	78.1223	0.824451	92.7929
0.0442585	4.52554	0.00767283	0.685703	0.281732	27.8214	0.413402	42.5865	0.560653	55.6871	0.839483	84.3976	0.146944	15.7148	0.421193	42.1361	0.699787	70.7789	0.824588	83.9998
0.0484672	4.52483	0.00890559	0.734698	0.282157	25.5157	0.413702	38.8853	0.560969	50.999	0.839671	77.1865	0.148381	14.4306	0.421569	38.578	0.699988	64.702	0.824739	76.7324
0.0526737	4.52403	0.010209	0.78211	0.282617	23.5713	0.41403	35.7826	0.561313	47.0454	0.839875	71.1146	0.14993	13.3699	0.421977	35.5816	0.700206	59.5902	0.824903	70.6257
0.0568779	4.52317	0.0115784	0.827926	0.283113	21.9101	0.414387	33.1446	0.561684	43.6666	0.840096	65.932	0.151587	12.4807	0.422418	33.0244	0.700442	55.231	0.825082	65.4223
0.0610795	4.52224	0.0130094	0.872145	0.283644	20.4749	0.414772	30.8746	0.562083	40.7463	0.840334	61.4569	0.153347	11.7261	0.422892	30.8168	0.700696	51.4698	0.825274	60.9358
0.0652783	4.52123	0.0144976	0.914778	0.28421	19.2229	0.415186	28.901	0.562509	38.1973	0.840589	57.5539	0.155204	11.0788	0.423398	28.8921	0.700968	48.1916	0.82548	57.0279
0.0694741	4.52015	0.016039	0.955844	0.284811	18.1216	0.415628	27.1696	0.562963	35.9535	0.84086	54.1201	0.157154	10.5184	0.423937	27.1996	0.701257	45.3093	0.8257	53.5935
0.0736666	4.51899	0.0176294	0.995361	0.285446	17.1456	0.416099	25.6389	0.563443	33.9633	0.841148	51.0757	0.159192	10.0294	0.424508	25.6999	0.701565	42.7554	0.825933	50.5516
0.0778556	4.51775	0.0192653	1.03336	0.286114	16.275	0.416598	24.276	0.563952	32.1863	0.841452	48.3584	0.161313	9.59956	0.425112	24.3623	0.70189	40.4769	0.826181	47.8388
0.0820408	4.51643	0.020943	1.06989	0.286816	15.4937	0.417127	23.0552	0.564487	30.5902	0.841773	45.9182	0.163226	9.26572	0.425747	23.162	0.702233	38.4317	0.826442	45.4044
0.086222	4.51503	0.0226594	1.10497	0.287551	14.7891	0.417686	21.9554	0.565049	29.149	0.842111	43.7149	0.164902	9.00698	0.426414	22.0792	0.702593	36.586	0.826718	43.2079
0.0903989	4.51355	0.0244112	1.13867	0.288318	14.1505	0.418274	20.9598	0.565638	27.8412	0.842465	41.7157	0.166318	8.80895	0.427112	21.0975	0.702971	34.9119	0.827007	41.216
0.0945713	4.51198	0.0261955	1.17101	0.289117	13.5692	0.418891	20.0545	0.566254	26.6494	0.842836	39.8936	0.167456	8.66164	0.427843	20.2038	0.703367	33.3867	0.82731	39.4016
0.0987387	4.51032	0.0280097	1.20204	0.289948	13.0381	0.419539	19.2278	0.566896	25.5589	0.843223	38.2261	0.168304	8.55817	0.428604	19.3868	0.70378	31.9915	0.827628	37.742
0.102901	4.50857	0.0298514	1.23182	0.29081	12.551	0.420217	18.4702	0.567565	24.5575	0.843627	36.6946	0.16885	8.49399	0.429396	18.6372	0.704211	30.7104	0.827959	36.2182
0.107058	4.50672	0.0317181	1.2604	0.291703	12.1029	0.420925	17.7735	0.56826	23.6348	0.844047	35.283	0.169642	8.4044	0.430219	17.9471	0.704659	29.5301	0.828305	34.8145
0.111209	4.50478	0.0336078	1.28781	0.292625	11.6893	0.421664	17.1307	0.568982	22.782	0.844483	33.9779	0.170511	8.31045	0.431072	17.31	0.705125	28.4392	0.828664	33.517
0.115353	4.50273	0.0355184	1.31411	0.293578	11.3066	0.422433	16.5361	0.569729	21.9915	0.844936	32.7678	0.171706	8.18806	0.431956	16.7199	0.705607	27.428	0.829038	32.3144
0.119492	4.50059	0.0374481	1.33933	0.29456	10.9514	0.423234	15.9845	0.570503	21.2569	0.845406	31.6427	0.173237	8.04162	0.43287	16.1721	0.706107	26.4882	0.829426	31.1966
0.123623	4.49833	0.0393953	1.36354	0.295571	10.6211	0.424066	15.4715	0.571302	20.5726	0.845891	30.5939	0.175119	7.87594	0.433814	15.6622	0.706625	25.6124	0.829828	30.155
0.127747	4.49597	0.0413583	1.38676	0.296611	10.3132	0.424929	14.9933	0.572128	19.9335	0.846393	29.6142	0.177367	7.69601	0.434788	15.1865	0.707159	24.7945	0.830244	29.1821
0.131863	4.49348	0.043336	1.40906	0.297678	10.0255	0.425824	14.5467	0.572978	19.3355	0.846911	28.6968	0.179997	7.50667	0.435791	14.7418	0.707711	24.0288	0.830675	28.2714
0.13597	4.49088	0.0453267	1.43045	0.298774	9.75628	0.426751	14.1287	0.573854	18.7748	0.847446	27.8362	0.182679	7.33357	0.436823	14.3252	0.708279	23.3107	0.83112	27.4172
0.140069	4.48815	0.0473295	1.45099	0.299897	9.50382	0.42771	13.7367	0.574756	18.248	0.847996	27.0271	0.18541	7.17485	0.437884	13.9342	0.708865	22.6359	0.83158	26.6144
0.144159	4.4853	0.0493432	1.47072	0.300898	9.29635	0.428701	13.3685	0.575682	17.7523	0.848563	26.2652	0.188187	7.0289	0.438973	13.5667	0.709468	22.0006	0.832054	25.8585
0.148239	4.48231	0.0513667	1.48966	0.301768	9.12802	0.429725	13.0221	0.576634	17.285	0.849145	25.5465	0.191008	6.89435	0.440091	13.2206	0.710087	21.4015	0.832542	25.1455
0.152309	4.47918	0.0533991	1.50786	0.302498	8.9944	0.430781	12.6956	0.57761	16.8439	0.849744	24.8675	0.193871	6.77001	0.441237	12.8941	0.710723	20.8356	0.833045	24.4721
0.156368	4.4759	0.0551769	1.52314	0.303082	8.89213	0.43187	12.3876	0.578611	16.4268	0.850359	24.225	0.196773	6.65485	0.442411	12.5857	0.711376	20.3003	0.833562	23.8349
0.160415	4.47247	0.0566969	1.53576	0.303516	8.81876	0.432993	12.0965	0.579636	16.0318	0.85099	23.6161	0.199713	6.54794	0.443612	12.2941	0.712046	19.7931	0.834094	23.2312
0.16445	4.46888	0.0579567	1.54592	0.303795	8.7726	0.434148	11.8211	0.580686	15.6574	0.851636	23.0384	0.202688	6.44851	0.444841	12.0178	0.712732	19.312	0.834641	22.6585
0.168472	4.46513	0.0589546	1.55378	0.304199	8.70729	0.435337	11.5602	0.581759	15.3019	0.852299	22.4895	0.205697	6.35584	0.446097	11.7558	0.713434	18.8551	0.835203	22.1144
0.17248	4.4612	0.0596891	1.55946	0.304642	8.63769	0.43656	11.3128	0.582857	14.9641	0.852977	21.9674	0.208738	6.26932	0.447379	11.5071	0.714153	18.4205	0.835779	21.5969
0.176474	4.45709	0.0601597	1.56306	0.305249	8.54525	0.437816	11.0779	0.583979	14.6426	0.853671	21.4701	0.21181	6.1884	0.448688	11.2707	0.714889	18.0067	0.83637	21.1041
0.180452	4.45279	0.0608367	1.56818	0.306026	8.4319	0.439105	10.8546	0.585124	14.3364	0.854381	20.9959	0.21491	6.11259	0.450023	11.0457	0.715641	17.6124	0.836976	20.6342
0.184414	4.44829	0.0615732	1.57367	0.306978	8.29987	0.440429	10.6422	0.586292	14.0444	0.855107	20.5434	0.218038	6.04146	0.451384	10.8314	0.716409	17.236	0.837597	20.1859
0.188359	4.44358	0.062576	1.58101	0.308114	8.15163	0.441787	10.44	0.587484	13.7657	0.855848	20.1111	0.221192	5.97461	0.452771	10.6271	0.717193	16.8766	0.838233	19.7576
0.192286	4.43866	0.0638459	1.5901	0.309442	7.98982	0.443178	10.2473	0.588699	13.4995	0.856605	19.6976	0.224371	5.9117	0.454183	10.4321	0.717993	16.533	0.838884	19.348
0.196193	4.4335	0.065384	1.60081	0.310796	7.83628	0.444604	10.0635	0.589937	13.2449	0.857377	19.3018	0.227573	5.85242	0.45562	10.2459	0.718809	16.2041	0.83955	18.9561
0.20008	4.42811	0.0671914	1.613	0.312177	7.69043	0.446064	9.88798	0.591197	13.0013	0.858165	18.9227	0.230798	5.79647	0.457082	10.0678	0.719642	15.8892	0.840231	18.5806
0.203946	4.42247	0.0692692	1.6265	0.313584	7.55177	0.447558	9.72034	0.59248	12.7679	0.858968	18.5591	0.234045	5.7436	0.458568	9.89742	0.72049	15.5872	0.840927	18.2206
0.207789	4.41657	0.0713506	1.63951	0.315018	7.41983	0.449086	9.56008	0.593786	12.5441	0.859787	18.2102	0.237311	5.69358	0.460079	9.73427	0.721354	15.2976	0.841639	17.8751
0.211607	4.41039	0.0734352	1.65204	0.31648	7.29418	0.450445	9.4261	0.595114	12.3295	0.860621	17.8751	0.240597	5.6462	0.461613	9.57793	0.722233	15.0195	0.842366	17.5434
0.2154	4.40393	0.0755227	1.66412	0.317969	7.17443	0.451625	9.31585	0.596463	12.1235	0.86147	17.5531	0.243901	5.60127	0.46297	9.44693	0.723128	14.7523	0.843108	17.2247
0.219166	4.39716	0.0776126	1.67577	0.319486	7.06024	0.452614	9.22732	0.597835	11.9255	0.862335	17.2434	0.247223	5.55862	0.46414	9.33892	0.724039	14.4953	0.843866	16.9181
0.222903	4.39008	0.0797049	1.68701	0.321031	6.95127	0.453405	9.15896	0.599228	11.7352	0.863214	16.9453	0.250561	5.51808	0.465117	9.25204	0.724965	14.2481	0.844639	16.6231
0.226611	4.38268	0.081799	1.69785	0.322606	6.84724	0.453992	9.10959	0.600643	11.5521	0.864109	16.6582	0.253915	5.47951	0.465896	9.18486	0.725907	14.0101	0.845427	16.339
0.230286	4.37493	0.0838949	1.70832	0.324211	6.74786	0.45437	9.07838	0.602079	11.3759	0.865019	16.3815	0.257283	5.44277	0.466473	9.13629	0.726863	13.7807	0.846231	16.0653
0.233928	4.36682	0.0859922	1.71842	0.325847	6.6529	0.454917	9.03404	0.603536	11.2062	0.865944	16.1146	0.260666	5.40775	0.466843	9.10556	0.727836	13.5596	0.847051	15.8014
0.237073	4.35945	0.0880909	1.72818	0.327514	6.56211	0.455515	8.98654	0.605015	11.0426	0.866883	15.8572	0.264062	5.37433	0.467377	9.06188	0.728823	13.3464	0.847887	15.5467
0.239732	4.35295	0.0901906	1.73762	0.329214	6.47531	0.456335	8.92306	0.606514	10.8848	0.867838	15.6086	0.267471	5.3424	0.467961	9.01503	0.729825	13.1405	0.848738	15.301
0.241914	4.3474	0.0922913	1.74673	0.330949	6.39227	0.457384	8.84459	0.608033	10.7326	0.868807	15.3685	0.270892	5.31187	0.468759	8.95237	0.730843	12.9417	0.849605	15.0636
0.243629	4.34291	0.0943928	1.75555	0.332718	6.31285	0.45867	8.75231	0.609573	10.5857	0.869791	15.1365	0.274324	5.28266	0.469777	8.87479	0.731875	12.7497	0.850488	14.8342
0.244885	4.33954	0.0964948	1.76408	0.334524	6.23686	0.460201	8.64756	0.611134	10.4439	0.87079	14.9121	0.277767	5.25468	0.471018	8.7834	0.732922	12.564	0.851386	14.6124
0.245685	4.33736	0.0985975	1.77233	0.336367	6.16415	0.461991	8.53181	0.612714	10.3068	0.871803	14.695	0.281219	5.22786	0.47249	8.67944	0.733984	12.3844	0.852301	14.3979
0.246832	4.33419	0.1007	1.78032	0.33825	6.0946	0.463813	8.42058	0.614314	10.1742	0.872831	14.4848	0.284682	5.20212	0.474199	8.56426	0.735061	12.2106	0.853232	14.1902
0.248074	4.33068	0.102804	1.78805	0.340174	6.02806	0.465669	8.31365	0.615934	10.046	0.873874	14.2813	0.288153	5.1774	0.47593	8.45328	0.736152	12.0424	0.854179	13.9892
0.249754	4.32583	0.104907	1.79554	0.342139	5.96442	0.467558	8.2108	0.617574	9.92201	0.874931	14.0841	0.291632	5.15363	0.477682	8.34628	0.737258	11.8794	0.855141	13.7945
0.251863	4.31955	0.107011	1.8028	0.344149	5.90357	0.469479	8.11182	0.619233	9.80194	0.876002	13.893	0.295119	5.13078	0.479456	8.24308	0.738378	11.7215	0.85612	13.6058
0.254392	4.31174	0.109115	1.80983	0.346204	5.8454	0.471434	8.01653	0.620695	9.70041	0.877087	13.7077	0.298613	5.10877	0.48125	8.14347	0.739513	11.5684	0.857116	13.4229
0.257325	4.30225	0.111218	1.81665	0.348306	5.78981	0.47342	7.92476	0.621952	9.61605	0.878187	13.5279	0.302114	5.08757	0.483064	8.04731	0.740662	11.4199	0.858127	13.2455
0.260646	4.29093	0.113322	1.82326	0.350457	5.73672	0.475439	7.83634	0.623	9.54776	0.879301	13.3534	0.30562	5.06713	0.484899	7.95441	0.741825	11.2759	0.859155	13.0733
0.263917	4.27915	0.115426	1.82968	0.352658	5.68603	0.477489	7.75111	0.623833	9.49468	0.880429	13.184	0.309133	5.04739	0.486754	7.86464	0.743003	11.1361	0.860199	12.9062
0.267137	4.2669	0.117529	1.83591	0.354911	5.63766	0.479571	7.66892	0.624449	9.45616	0.881571	13.0195	0.312651	5.02833	0.488628	7.77784	0.744195	11.0003	0.86126	12.744
0.270303	4.25416	0.119632	1.84195	0.357217	5.59154	0.481685	7.58963	0.624844	9.43173	0.882727	12.8596	0.316173	5.00991	0.490522	7.69389	0.745401	10.8685	0.862336	12.5864
0.273414	4.24094	0.121735	1.84782	0.359578	5.54759	0.483829	7.51313	0.625414	9.39691	0.883897	12.7042	0.319699	4.99209	0.492436	7.61265	0.74662	10.7404	0.86343	12.4333
0.27647	4.22724	0.123837	1.85352	0.361994	5.50572	0.486004	7.43927	0.626035	9.35946	0.885081	12.5531	0.323229	4.97484	0.494369	7.53402	0.747854	10.6158	0.86454	12.2845
0.279468	4.21306	0.12594	1.85907	0.364466	5.46587	0.488209	7.36794	0.626885	9.30917	0.886279	12.4062	0.326763	4.95812	0.49632	7.45787	0.749102	10.4947	0.865666	12.1398
0.282407	4.19841	0.128042	1.86445	0.366996	5.42796	0.490444	7.29904	0.627965	9.24663	0.88749	12.2632	0.330299	4.94191	0.49829	7.38409	0.750363	10.377	0.86681	11.999
0.285287	4.18329	0.130143	1.86969	0.369583	5.39193	0.492709	7.23246	0.629281	9.17253	0.888715	12.124	0.333837	4.92618	0.500279	7.3126	0.751638	10.2624	0.867969	11.8621
0.288108	4.16771	0.132244	1.87478	0.372229	5.3577	0.495002	7.1681	0.630837	9.08766	0.889953	11.9885	0.337378	4.91091	0.502286	7.2433	0.752927	10.1508	0.869146	11.7288
0.290869	4.15169	0.134345	1.87973	0.374933	5.32521	0.497325	7.10586	0.63264	8.99294	0.891205	11.8566	0.34092	4.89607	0.504312	7.17609	0.75423	10.0423	0.870339	11.5991
0.29357	4.13525	0.136445	1.88455	0.377694	5.29437	0.499676	7.04566	0.634462	8.90094	0.892471	11.728	0.344462	4.88163	0.506355	7.11089	0.755376	9.94996	0.871549	11.4727
0.296211	4.11841	0.138545	1.88924	0.380514	5.26513	0.502055	6.98741	0.6363	8.81156	0.893749	11.6028	0.348006	4.86758	0.508415	7.04762	0.756361	9.87293	0.872776	11.3497
0.298793	4.10118	0.140645	1.89381	0.38339	5.2374	0.504462	6.93104	0.638157	8.72471	0.895041	11.4807	0.35155	4.85389	0.510494	6.9862	0.757182	9.81034	0.874019	11.2298
0.301317	4.0836	0.142744	1.89826	0.386322	5.21113	0.506896	6.87645	0.640031	8.64027	0.896347	11.3617	0.355093	4.84054	0.51259	6.92657	0.757834	9.76156	0.87528	11.113
0.303783	4.06568	0.144842	1.90259	0.389309	5.18625	0.509357	6.8236	0.641923	8.55816	0.897665	11.2456	0.358636	4.82753	0.514703	6.86864	0.758315	9.72608	0.876557	10.9991
0.306193	4.04747	0.146941	1.90682	0.392349	5.16267	0.511845	6.77239	0.643832	8.4783	0.898996	11.1323	0.362178	4.81482	0.516833	6.81237	0.758624	9.70354	0.877851	10.888
0.308548	4.02898	0.149038	1.91093	0.395442	5.14035	0.514358	6.72277	0.645758	8.4006	0.900341	11.0218	0.365718	4.8024	0.51898	6.75768	0.75907	9.67137	0.879162	10.7797
0.31085	4.01024	0.151135	1.91495	0.398585	5.1192	0.516897	6.67468	0.647701	8.32497	0.901698	10.9139	0.369256	4.79026	0.521144	6.70452	0.759556	9.6367	0.88049	10.6741
0.3131	3.99129	0.153232	1.91886	0.401776	5.09917	0.519462	6.62805	0.64966	8.25135	0.903069	10.8086	0.372792	4.77838	0.523325	6.65284	0.76022	9.59006	0.881835	10.571
0.3153	3.97217	0.155328	1.92268	0.405014	5.0802	0.522051	6.58283	0.651637	8.17966	0.904452	10.7058	0.376326	4.76674	0.525522	6.60257	0.761064	9.53189	0.883197	10.4704
0.317452	3.95288	0.157424	1.92641	0.408297	5.06222	0.524665	6.53897	0.65363	8.10983	0.905847	10.6054	0.379856	4.75534	0.527736	6.55366	0.762091	9.46273	0.884576	10.3721
0.319559	3.93348	0.159519	1.93004	0.411623	5.04517	0.527303	6.49641	0.655639	8.0418	0.907256	10.5072	0.383383	4.74415	0.529966	6.50608	0.763305	9.38321	0.885972	10.2762
0.321621	3.91398	0.161614	1.93359	0.414989	5.029	0.529964	6.4551	0.657665	7.97551	0.908677	10.4114	0.386906	4.73318	0.532212	6.45977	0.764711	9.29405	0.887203	10.1945
0.323642	3.89441	0.163709	1.93706	0.418394	5.01366	0.532649	6.415	0.659707	7.91089	0.91011	10.3176	0.390424	4.7224	0.534475	6.41469	0.76613	9.20704	0.888262	10.1262
0.325622	3.87481	0.165802	1.94044	0.421836	4.99908	0.535356	6.37606	0.661765	7.84789	0.91137	10.2377	0.393938	4.7118	0.536753	6.3708	0.767562	9.12211	0.889144	10.0705
0.327565	3.85518	0.167896	1.94375	0.425311	4.98523	0.538086	6.33824	0.663839	7.78645	0.912451	10.1708	0.397447	4.70137	0.539048	6.32806	0.769008	9.0392	0.889847	10.0271
0.329472	3.83557	0.169989	1.94698	0.42882	4.97206	0.540838	6.3015	0.665929	7.72653	0.91335	10.1162	0.40095	4.69111	0.541359	6.28643	0.770466	8.95824	0.890366	9.99545
0.331346	3.81599	0.172082	1.95013	0.432359	4.95951	0.543611	6.2658	0.668035	7.66806	0.914064	10.0737	0.404447	4.681	0.543685	6.24587	0.771938	8.87916	0.8907	9.97534
0.333187	3.79646	0.174174	1.95322	0.435926	4.94756	0.546406	6.2311	0.670156	7.61102	0.914591	10.0426	0.407937	4.67103	0.546028	6.20635	0.773423	8.80191	0.891181	9.94663
0.334998	3.777	0.176265	1.95624	0.439521	4.93616	0.549222	6.19736	0.672293	7.55534	0.914929	10.0229	0.411421	4.66119	0.548386	6.16784	0.77492	8.72643	0.891705	9.91566
0.336781	3.75763	0.178357	1.95919	0.44314	4.92527	0.552058	6.16455	0.674445	7.50098	0.915416	9.99473	0.414898	4.65148	0.55076	6.1303	0.776431	8.65266	0.892423	9.87395
0.338537	3.73836	0.180448	1.96208	0.446782	4.91486	0.554914	6.13265	0.676612	7.44791	0.915947	9.96432	0.418367	4.64188	0.55315	6.0937	0.777954	8.58055	0.893335	9.82185
0.340268	3.71921	0.182538	1.9649	0.450446	4.90489	0.55779	6.1016	0.678794	7.39608	0.916671	9.92335	0.421827	4.6324	0.555555	6.05802	0.779491	8.51004	0.894448	9.75981
0.341976	3.7002	0.184628	1.96767	0.454131	4.89535	0.560686	6.0714	0.680992	7.34546	0.917592	9.87215	0.42528	4.62301	0.557976	6.02323	0.78104	8.4411	0.895765	9.68835
0.343662	3.68133	0.186718	1.97037	0.457833	4.88619	0.5636	6.042	0.683205	7.296	0.918711	9.81114	0.428723	4.61371	0.560413	5.9893	0.782603	8.37366	0.897292	9.60805
0.345327	3.66261	0.188807	1.97302	0.461553	4.87739	0.566533	6.01338	0.685432	7.24768	0.920032	9.74079	0.432157	4.6045	0.562866	5.95621	0.784178	8.3077	0.898836	9.52952
0.346974	3.64406	0.190896	1.97561	0.465289	4.86893	0.569485	5.98552	0.687674	7.20045	0.92156	9.66166	0.435582	4.59537	0.565334	5.92392	0.785766	8.24316	0.900397	9.4527
0.348602	3.62568	0.192984	1.97815	0.469039	4.86078	0.572454	5.95838	0.689931	7.15429	0.923099	9.58418	0.438996	4.58631	0.567819	5.89243	0.787366	8.18	0.901976	9.37754
0.350213	3.60749	0.195073	1.98064	0.472802	4.85292	0.575441	5.93195	0.692203	7.10916	0.92465	9.50831	0.4424	4.57731	0.570319	5.8617	0.78898	8.11818	0.903571	9.304
0.351809	3.58948	0.19716	1.98308	0.476577	4.84533	0.578446	5.9062	0.694489	7.06504	0.926213	9.43399	0.445792	4.56838	0.572834	5.83171	0.790606	8.05767	0.905183	9.23204
0.353391	3.57166	0.199248	1.98547	0.480363	4.83799	0.581468	5.8811	0.69679	7.02189	0.927788	9.36119	0.449173	4.55949	0.575366	5.80245	0.792245	7.99842	0.906813	9.1616
0.354959	3.55404	0.201335	1.98781	0.484158	4.83089	0.584506	5.85664	0.699105	6.97968	0.929374	9.28987	0.452543	4.55066	0.577913	5.77389	0.793897	7.94041	0.908459	9.09264
0.356514	3.53662	0.203421	1.99011	0.487963	4.824	0.587561	5.8328	0.701434	6.9384	0.930972	9.21997	0.4559	4.54186	0.580477	5.74601	0.795561	7.88359	0.910122	9.02512
0.358058	3.51941	0.205508	1.99236	0.491775	4.81732	0.590632	5.80955	0.703778	6.89801	0.932581	9.15147	0.459244	4.5331	0.583056	5.7188	0.797238	7.82794	0.911802	8.95901
0.359591	3.50241	0.207594	1.99456	0.495594	4.81083	0.593719	5.78688	0.706135	6.85849	0.934202	9.08432	0.462575	4.52438	0.585652	5.69224	0.798928	7.77342	0.913499	8.89426
0.361114	3.48561	0.209679	1.99673	0.499419	4.8045	0.596821	5.76477	0.708507	6.81981	0.935834	9.01848	0.465893	4.51568	0.588263	5.66631	0.800631	7.72	0.915213	8.83084
0.362628	3.46903	0.211765	1.99885	0.50325	4.79834	0.599939	5.7432	0.710893	6.78196	0.937477	8.95392	0.469197	4.507	0.590891	5.641	0.802346	7.66766	0.916943	8.76871
0.364134	3.45266	0.21385	2.00094	0.507084	4.79233	0.603072	5.72215	0.713293	6.7449	0.939132	8.89061	0.472486	4.49834	0.593535	5.61628	0.804074	7.61635	0.918691	8.70783
0.365631	3.4365	0.215934	2.00298	0.510922	4.78646	0.606219	5.70162	0.715707	6.70862	0.940797	8.82851	0.475761	4.48969	0.596195	5.59215	0.805815	7.56607	0.920455	8.64818
0.367122	3.42055	0.218019	2.00499	0.514763	4.78072	0.609381	5.68157	0.718135	6.6731	0.942474	8.76759	0.479021	4.48105	0.598871	5.56859	0.807568	7.51677	0.922236	8.58972
0.368605	3.40482	0.220103	2.00696	0.518606	4.77509	0.612557	5.662	0.720577	6.63832	0.944162	8.70782	0.482265	4.47242	0.601564	5.54558	0.809334	7.46844	0.924033	8.53242
0.370083	3.3893	0.222187	2.00889	0.522451	4.76957	0.615748	5.64289	0.723033	6.60426	0.94586	8.64916	0.485493	4.46379	0.604272	5.52312	0.811112	7.42105	0.925847	8.47625
0.371555	3.374	0.22427	2.01079	0.526296	4.76415	0.618952	5.62423	0.725502	6.57089	0.94757	8.5916	0.488705	4.45516	0.606998	5.50118	0.812904	7.37458	0.927678	8.42118
0.373023	3.3589	0.226353	2.01266	0.530142	4.75883	0.62217	5.60601	0.727985	6.53821	0.94929	8.53509	0.491901	4.44653	0.60974	5.47976	0.814708	7.329	0.929526	8.36719
0.374485	3.34402	0.228436	2.01449	0.533987	4.75359	0.625401	5.58821	0.730482	6.5062	0.951021	8.47962	0.49508	4.43788	0.612498	5.45884	0.816524	7.28429	0.93139	8.31423
0.375944	3.32934	0.230519	2.01629	0.537831	4.74842	0.628645	5.57082	0.732993	6.47483	0.952763	8.42516	0.498241	4.42923	0.615273	5.43841	0.818353	7.24042	0.93327	8.2623
0.377399	3.31488	0.232601	2.01806	0.541673	4.74333	0.631902	5.55383	0.735517	6.44409	0.954515	8.37169	0.501385	4.42056	0.618064	5.41846	0.820195	7.19739	0.935167	8.21136
0.37885	3.30062	0.234684	2.0198	0.545513	4.7383	0.635172	5.53723	0.738055	6.41397	0.956278	8.31917	0.504511	4.41188	0.620872	5.39898	0.822049	7.15516	0.93708	8.16139
0.380299	3.28656	0.236765	2.0215	0.549351	4.73333	0.638454	5.521	0.740606	6.38445	0.958052	8.26758	0.507618	4.40318	0.623696	5.37995	0.823917	7.11373	0.939009	8.11237
0.381745	3.27271	0.238847	2.02318	0.553185	4.72841	0.641749	5.50514	0.743171	6.35551	0.959835	8.21691	0.510707	4.39446	0.626537	5.36137	0.825796	7.07306	0.940955	8.06427
0.383189	3.25905	0.240928	2.02483	0.557016	4.72353	0.645056	5.48963	0.74575	6.32715	0.96163	8.16713	0.513778	4.38572	0.629395	5.34322	0.827689	7.03314	0.942916	8.01706
0.384631	3.2456	0.24301	2.02646	0.560842	4.7187	0.648375	5.47447	0.748342	6.29935	0.963434	8.11822	0.516829	4.37696	0.632269	5.3255	0.829594	6.99396	0.944894	7.97074
0.386071	3.23234	0.24509	2.02805	0.564664	4.7139	0.651705	5.45964	0.750948	6.2721	0.965249	8.07015	0.519861	4.36817	0.635159	5.30819	0.831511	6.95549	0.946888	7.92527
0.38751	3.21927	0.247171	2.02962	0.568481	4.70914	0.655048	5.44514	0.753567	6.24537	0.967074	8.02291	0.522874	4.35936	0.638066	5.29128	0.833441	6.91772	0.948898	7.88064
0.388948	3.2064	0.249252	2.03116	0.572292	4.7044	0.658401	5.43096	0.7562	6.21917	0.968909	7.97648	0.525867	4.35052	0.640989	5.27477	0.835384	6.88064	0.950924	7.83683
0.390385	3.19372	0.251332	2.03268	0.576097	4.69968	0.661766	5.41708	0.758847	6.19348	0.970754	7.93084	0.52884	4.34165	0.643929	5.25864	0.83734	6.84422	0.952966	7.79381
0.391821	3.18122	0.253412	2.03418	0.579895	4.69499	0.665143	5.40351	0.761507	6.16828	0.972609	7.88597	0.531793	4.33275	0.646884	5.24289	0.839308	6.80846	0.955023	7.75157
0.393257	3.1689	0.255492	2.03565	0.583687	4.69031	0.66853	5.39022	0.76418	6.14358	0.974474	7.84185	0.534725	4.32382	0.649856	5.2275	0.841288	6.77334	0.957096	7.71009
0.394692	3.15677	0.257571	2.03709	0.587472	4.68564	0.671928	5.37723	0.766867	6.11934	0.976348	7.79847	0.537638	4.31486	0.652844	5.21247	0.843282	6.73883	0.959185	7.66936
0.396128	3.14482	0.25965	2.03852	0.591249	4.68098	0.675336	5.36451	0.769568	6.09558	0.978233	7.75581	0.540529	4.30587	0.655848	5.19778	0.845288	6.70494	0.96129	7.62935
0.397564	3.13304	0.26173	2.03992	0.595017	4.67632	0.678755	5.35206	0.772282	6.07226	0.980127	7.71384	0.543401	4.29686	0.658867	5.18344	0.847306	6.67165	0.96341	7.59005
0.399	3.12144	0.263809	2.0413	0.598778	4.67166	0.682185	5.33987	0.77501	6.0494	0.982031	7.67257	0.546252	4.28781	0.661902	5.16942	0.849337	6.63894	0.965545	7.55144
0.400436	3.11001	0.265887	2.04266	0.602529	4.66701	0.685624	5.32794	0.777752	6.02696	0.983945	7.63197	0.549082	4.27873	0.664953	5.15573	0.851381	6.60679	0.967696	7.51352
0.401874	3.09875	0.267966	2.044	0.606271	4.66235	0.689074	5.31625	0.780507	6.00496	0.985869	7.59202	0.551891	4.26962	0.668018	5.14235	0.853437	6.57521	0.969862	7.47625
0.403312	3.08766	0.270044	2.04532	0.610004	4.65768	0.692534	5.30482	0.783276	5.98337	0.987801	7.55271	0.554679	4.26049	0.671099	5.12928	0.855505	6.54417	0.972043	7.43963
0.404751	3.07673	0.272122	2.04661	0.613727	4.65301	0.696004	5.29361	0.786058	5.96219	0.989744	7.51404	0.557447	4.25132	0.674194	5.1165	0.857587	6.51367	0.974239	7.40365
0.406191	3.06596	0.2742	2.04789	0.61744	4.64832	0.699483	5.28264	0.788854	5.94141	0.991695	7.47597	0.560194	4.24213	0.677304	5.10402	0.85968	6.48369	0.97645	7.36828
0.407632	3.05535	0.276278	2.04915	0.621142	4.64362	0.702972	5.27189	0.791664	5.92103	0.993657	7.43851	0.56292	4.23291	0.680428	5.09181	0.861787	6.45422	0.978676	7.33352
0.409075	3.0449	0.278356	2.05039	0.624833	4.63891	0.70647	5.26137	0.794488	5.90103	0.995627	7.40164	0.565626	4.22367	0.683567	5.07988	0.863905	6.42526	0.980917	7.29935
0.410519	3.03461	0.280433	2.05161	0.628513	4.63417	0.709977	5.25105	0.797325	5.8814	0.997607	7.36534	0.568311	4.21439	0.686719	5.06821	0.866037	6.39678	0.983173	7.26577
0.411964	3.02446	0.282511	2.05282	0.632182	4.62942	0.713494	5.24095	0.800177	5.86215	0.999596	7.32961	0.570976	4.2051	0.689885	5.0568	0.86818	6.36879	0.985444	7.23274
0.413411	3.01447	0.284588	2.05401	0.635838	4.62464	0.717019	5.23104	0.803042	5.84325	1.00159	7.29443	0.57362	4.19578	0.693064	5.04565	0.870336	6.34127	0.987729	7.20028
0.41486	3.00462	0.286665	2.05518	0.639483	4.61984	0.720554	5.22134	0.805921	5.82471			0.576244	4.18645	0.696256	5.03474	0.872505	6.3142	0.990028	7.16836
0.416311	2.99492	0.288741	2.05633	0.643115	4.61502	0.724097	5.21183	0.808814	5.80652			0.578847	4.17709	0.699461	5.02406	0.874686	6.28759	0.992342	7.13696
0.417763	2.98536	0.290818	2.05747	0.646735	4.61017	0.727648	5.2025	0.81172	5.78867			0.581431	4.16771	0.702678	5.01362	0.876879	6.26142	0.994671	7.10609
0.419218	2.97594	0.292895	2.05859	0.650341	4.6053	0.731209	5.19336	0.814641	5.77116			0.583995	4.15832	0.705907	5.0034	0.879085	6.23569	0.997013	7.07573
0.420674	2.96666	0.294971	2.0597	0.653935	4.60039	0.734777	5.1844	0.817576	5.75397			0.586539	4.14891	0.709147	4.99339	0.881303	6.21038	0.99937	7.04587
0.422133	2.95751	0.297047	2.06079	0.657515	4.59545	0.738353	5.17561	0.820525	5.7371			0.589063	4.13948	0.7124	4.9836	0.883534	6.18549	1.00174	7.01649
0.423594	2.9485	0.299123	2.06186	0.661081	4.59049	0.741938	5.16699	0.823488	5.72056			0.591568	4.13005	0.715663	4.974	0.885777	6.161		
0.425057	2.93962	0.301199	2.06292	0.664633	4.58549	0.74553	5.15853	0.826465	5.70432			0.594055	4.1206	0.718936	4.96461	0.888031	6.13692		
0.426522	2.93087	0.303275	2.06397	0.668172	4.58046	0.74913	5.15024	0.829457	5.68838			0.596522	4.11115	0.722221	4.95541	0.890299	6.11322		
0.42799	2.92224	0.30535	2.065	0.671696	4.57539	0.752737	5.1421	0.832462	5.67275			0.59897	4.10168	0.725515	4.94639	0.892578	6.08992		
0.42946	2.91374	0.307426	2.06602	0.675206	4.5703	0.756351	5.13412	0.835482	5.65741			0.6014	4.09221	0.728818	4.93755	0.89487	6.06698		
0.430932	2.90537	0.309501	2.06702	0.6787	4.56516	0.759973	5.12628	0.838516	5.64236			0.603812	4.08274	0.732131	4.92888	0.897174	6.04442		
0.432407	2.89711	0.311576	2.06801	0.68218	4.55999	0.763601	5.11859	0.841565	5.62759			0.606206	4.07327	0.735453	4.92038	0.89949	6.02223		
0.433884	2.88898	0.313651	2.06899	0.685645	4.55479	0.767237	5.11103	0.844627	5.6131			0.608581	4.06379	0.738783	4.91204	0.901818	6.00038		
0.435364	2.88096	0.315726	2.06996	0.689095	4.54955	0.770878	5.10362	0.847705	5.59888			0.61094	4.05432	0.742121	4.90386	0.904158	5.97889		
0.436847	2.87305	0.317801	2.07091	0.69253	4.54427	0.774527	5.09634	0.850796	5.58493			0.613281	4.04484	0.745467	4.89583	0.90651	5.95774		
0.438332	2.86527	0.319876	2.07185	0.695949	4.53895	0.778181	5.08918	0.853902	5.57125			0.615605	4.03537	0.748821	4.88794	0.908875	5.93692		
0.439819	2.85759	0.32195	2.07278	0.699352	4.5336	0.781841	5.08215	0.857023	5.55782			0.617912	4.02591	0.752181	4.8802	0.911251	5.91644		
0.44131	2.85002	0.324025	2.0737	0.70274	4.52821	0.785507	5.07525	0.860158	5.54465			0.620203	4.01646	0.755548	4.87259	0.913639	5.89628		
0.442803	2.84256	0.326099	2.0746	0.706112	4.52279	0.789179	5.06846	0.863307	5.53173			0.622478	4.00701	0.758921	4.86511	0.916039	5.87643		
0.444299	2.8352	0.328173	2.0755	0.709468	4.51733	0.792856	5.06178	0.866472	5.51906			0.624736	3.99757	0.7623	4.85776	0.918451	5.8569		
0.445797	2.82795	0.330247	2.07638	0.712808	4.51183	0.796538	5.05522	0.86965	5.50663			0.626979	3.98815	0.765685	4.85053	0.920875	5.83767		
0.447298	2.8208	0.332321	2.07725	0.716132	4.50629	0.800225	5.04877	0.872844	5.49443			0.629207	3.97874	0.769074	4.84341	0.923311	5.81875		
0.448802	2.81375	0.334395	2.07811	0.719439	4.50072	0.803916	5.04242	0.876052	5.48247			0.631419	3.96934	0.772469	4.83641	0.925758	5.80011		
0.450309	2.8068	0.336469	2.07896	0.722731	4.49511	0.807612	5.03617	0.879274	5.47074			0.633616	3.95996	0.775867	4.82952	0.928217	5.78177		
0.451819	2.79995	0.338543	2.0798	0.726007	4.48947	0.811312	5.03002	0.882512	5.45924			0.635799	3.9506	0.77927	4.82273	0.930688	5.76371		
0.453331	2.7932	0.340616	2.08063	0.729266	4.48379	0.815016	5.02396	0.885764	5.44796			0.637967	3.94125	0.782677	4.81604	0.933171	5.74593		
0.454846	2.78654	0.34269	2.08145	0.732509	4.47808	0.818724	5.018	0.889031	5.43689			0.640121	3.93193	0.786087	4.80945	0.935665	5.72843		
0.456364	2.77997	0.344763	2.08226	0.735735	4.47233	0.822435	5.01212	0.892312	5.42605			0.642261	3.92262	0.789499	4.80295	0.938171	5.71119		
0.457885	2.77349	0.346836	2.08306	0.738946	4.46655	0.826149	5.00633	0.895608	5.41541			0.644388	3.91335	0.792915	4.79654	0.940688	5.69422		
0.459409	2.76711	0.348909	2.08385	0.74214	4.46073	0.829867	5.00063	0.898919	5.40498			0.646501	3.90409	0.796332	4.79022	0.943217	5.67751		
0.460935	2.76081	0.350982	2.08463	0.745317	4.45489	0.833587	4.995	0.902244	5.39475			0.648601	3.89486	0.799752	4.78398	0.945758	5.66105		
0.462465	2.7546	0.353055	2.0854	0.748479	4.44901	0.837309	4.98945	0.905585	5.38473			0.650688	3.88565	0.803173	4.77781	0.948309	5.64485		
0.463997	2.74847	0.355128	2.08616	0.751624	4.4431	0.841034	4.98397	0.908939	5.3749			0.652763	3.87647	0.806595	4.77173	0.950873	5.62889		
0.465532	2.74243	0.357201	2.08692	0.754753	4.43715	0.84476	4.97857	0.912309	5.36526			0.654825	3.86732	0.810018	4.76571	0.953448	5.61317		
0.46707	2.73647	0.359273	2.08766	0.757866	4.43118	0.848488	4.97323	0.915693	5.35582			0.656876	3.8582	0.813442	4.75976	0.956034	5.59769		
0.468611	2.73059	0.361346	2.0884	0.760963	4.42518	0.852218	4.96796	0.919092	5.34656			0.658914	3.84911	0.816866	4.75388	0.958631	5.58245		
0.470155	2.72479	0.363418	2.08913	0.764044	4.41915	0.855949	4.96276	0.922505	5.33749			0.66094	3.84005	0.82029	4.74806	0.96124	5.56743		
0.471701	2.71908	0.365491	2.08985	0.767108	4.4131	0.85968	4.95761	0.925933	5.3286			0.662956	3.83102	0.823714	4.74231	0.96386	5.55264		
0.473251	2.71343	0.367563	2.09056	0.770157	4.40702	0.863413	4.95253	0.929375	5.31988			0.66496	3.82202	0.827137	4.73661	0.966491	5.53808		
0.474803	2.70787	0.369635	2.09126	0.77319	4.40091	0.867145	4.9475	0.932832	5.31134			0.666953	3.81306	0.830559	4.73096	0.969133	5.52373		
0.476358	2.70238	0.371707	2.09196	0.776207	4.39477	0.870878	4.94252	0.936303	5.30298			0.668935	3.80413	0.83398	4.72537	0.971787	5.50959		
0.477916	2.69696	0.373779	2.09265	0.779208	4.38862	0.874611	4.9376	0.939789	5.29478			0.670907	3.79523	0.837399	4.71982	0.974451	5.49567		
0.479477	2.69162	0.375851	2.09333	0.782194	4.38244	0.878344	4.93272	0.943289	5.28674			0.672869	3.78637	0.840816	4.71433	0.977127	5.48196		
0.48104	2.68635	0.377923	2.094	0.785164	4.37623	0.882075	4.9279	0.946803	5.27887			0.674821	3.77755	0.844231	4.70888	0.979814	5.46845		
0.482607	2.68114	0.379995	2.09467	0.788118	4.37001	0.885806	4.92312	0.950331	5.27116			0.676762	3.76877	0.847643	4.70347	0.982512	5.45514		
0.484176	2.67601	0.382066	2.09533	0.791058	4.36376	0.889536	4.91838	0.953873	5.26361			0.678694	3.76002	0.851053	4.6981	0.98522	5.44202		
0.485748	2.67095	0.384138	2.09598	0.793982	4.3575	0.893265	4.91368	0.957429	5.25621			0.680617	3.75131	0.85446	4.69277	0.98794	5.42911		
0.487323	2.66595	0.386209	2.09662	0.79689	4.35121	0.896992	4.90902	0.961	5.24896			0.682531	3.74263	0.857863	4.68748	0.990671	5.41638		
0.488901	2.66102	0.388281	2.09726	0.799784	4.34491	0.900717	4.9044	0.964584	5.24186			0.684435	3.734	0.861263	4.68222	0.993412	5.40384		
0.490481	2.65615	0.390352	2.09789	0.802663	4.33859	0.904441	4.89982	0.968181	5.23491			0.686331	3.72541	0.864659	4.67699	0.996165	5.39149		
0.492065	2.65135	0.392423	2.09851	0.805527	4.33225	0.908162	4.89527	0.971793	5.2281			0.688218	3.71685	0.868051	4.67179	0.998928	5.37932		
0.493651	2.6466	0.394494	2.09913	0.808376	4.3259	0.911881	4.89075	0.975418	5.22143			0.690096	3.70834	0.871439	4.66662	1.0017	5.36733		
0.495239	2.64193	0.396566	2.09974	0.811211	4.31953	0.915597	4.88627	0.979056	5.2149			0.691967	3.69986	0.874822	4.66148				
0.496831	2.63731	0.398637	2.10035	0.814031	4.31315	0.91931	4.88181	0.982708	5.2085			0.693829	3.69143	0.8782	4.65637				
0.498425	2.63275	0.400707	2.10094	0.816837	4.30676	0.92302	4.87738	0.986372	5.20223			0.695683	3.68304	0.881573	4.65127				
0.500022	2.62825	0.402778	2.10154	0.819629	4.30035	0.926727	4.87298	0.99005	5.1961			0.69753	3.67469	0.88494	4.6462				
0.501622	2.62381	0.404849	2.10212	0.822406	4.29393	0.930431	4.86861	0.993741	5.19009			0.699369	3.66639	0.888302	4.64115				
0.503225	2.61943	0.40692	2.1027	0.82517	4.28751	0.934131	4.86425	0.997444	5.1842			0.701201	3.65812	0.891658	4.63612				
0.50483	2.6151	0.408991	2.10328	0.82792	4.28107	0.937828	4.85992	1.00116	5.17844			0.703026	3.6499	0.895009	4.6311				
0.506438	2.61083	0.411061	2.10384	0.830655	4.27462	0.94152	4.85562					0.704843	3.64172	0.898353	4.6261				
0.508048	2.60661	0.413132	2.10441	0.833378	4.26817	0.945209	4.85133					0.706654	3.63358	0.90169	4.62112				
0.509662	2.60245	0.415202	2.10496	0.836086	4.2617	0.948893	4.84706					0.708458	3.62549	0.905021	4.61615				
0.511277	2.59834	0.417272	2.10551	0.838782	4.25523	0.952573	4.84281					0.710255	3.61744	0.908345	4.61119				
0.512896	2.59428	0.419343	2.10606	0.841464	4.24876	0.956249	4.83857					0.712047	3.60944	0.911662	4.60624				
0.514517	2.59027	0.421413	2.1066	0.844133	4.24228	0.959919	4.83436					0.713832	3.60148	0.914972	4.6013				
0.516141	2.58632	0.423483	2.10713	0.846789	4.23579	0.963585	4.83016					0.71561	3.59356	0.918274	4.59637				
0.517767	2.58241	0.425553	2.10766	0.849432	4.2293	0.967246	4.82597					0.717383	3.58569	0.921569	4.59145				
0.519396	2.57855	0.427623	2.10819	0.852063	4.22281	0.970903	4.8218					0.71915	3.57786	0.924855	4.58654				
0.521027	2.57474	0.429693	2.10871	0.854681	4.21632	0.974553	4.81764					0.720912	3.57007	0.928134	4.58163				
0.522661	2.57098	0.431763	2.10922	0.857286	4.20982	0.978199	4.81349					0.722668	3.56233	0.931405	4.57672				
0.524298	2.56726	0.433833	2.10973	0.859879	4.20332	0.981839	4.80935					0.724418	3.55463	0.934667	4.57182				
0.525937	2.56359	0.435903	2.11023	0.862459	4.19682	0.985474	4.80523					0.726164	3.54698	0.937921	4.56693				
0.527579	2.55997	0.437973	2.11073	0.865028	4.19033	0.989103	4.80111					0.727904	3.53938	0.941166	4.56203				
0.529223	2.55639	0.440042	2.11123	0.867585	4.18383	0.992727	4.79701					0.729639	3.53181	0.944403	4.55714				
0.530869	2.55286	0.442112	2.11172	0.870129	4.17733	0.996345	4.79291					0.731369	3.52429	0.947631	4.55225				
0.532518	2.54936	0.444182	2.1122	0.872662	4.17083	0.999957	4.78882					0.733095	3.51682	0.950849	4.54736				
0.53417	2.54591	0.446251	2.11268	0.875184	4.16434	1.00356	4.78474					0.734816	3.50939	0.954059	4.54247				
0.535824	2.54251	0.44832	2.11316	0.877694	4.15785							0.736533	3.50201	0.957259	4.53758				
0.53748	2.53914	0.45039	2.11363	0.880192	4.15136							0.738245	3.49467	0.96045	4.53268				
0.539139	2.53582	0.452459	2.1141	0.882679	4.14488							0.739953	3.48737	0.963631	4.52779				
0.5408	2.53253	0.454528	2.11456	0.885155	4.1384							0.741657	3.48012	0.966803	4.52289				
0.542464	2.52929	0.456598	2.11502	0.88762	4.13193							0.743356	3.47291	0.969965	4.51799				
0.54413	2.52608	0.458667	2.11548	0.890074	4.12546							0.745052	3.46575	0.973117	4.51309				
0.545798	2.52291	0.460736	2.11593	0.892517	4.119							0.746744	3.45863	0.976259	4.50818				
0.547469	2.51978	0.462805	2.11637	0.89495	4.11254							0.748433	3.45156	0.979392	4.50327				
0.549142	2.51669	0.464874	2.11682	0.897372	4.10609							0.750117	3.44453	0.982514	4.49836				
0.550817	2.51364	0.466943	2.11726	0.899783	4.09964							0.751798	3.43754	0.985627	4.49344				
0.552494	2.51062	0.469012	2.11769	0.902184	4.09321							0.753476	3.4306	0.988729	4.48852				
0.554174	2.50763	0.471081	2.11812	0.904575	4.08678							0.755151	3.4237	0.991821	4.48359				
0.555856	2.50468	0.473149	2.11855	0.906955	4.08036							0.756822	3.41684	0.994902	4.47866				
0.557541	2.50177	0.475218	2.11897	0.909326	4.07395							0.75849	3.41003	0.997974	4.47372				
0.559227	2.49889	0.477287	2.11939	0.911687	4.06755							0.760155	3.40326	1.00104	4.46878				
0.560916	2.49605	0.479355	2.1198	0.914038	4.06115							0.761818	3.39653						
0.562607	2.49323	0.481424	2.12022	0.916379	4.05477							0.763477	3.38985						
0.5643	2.49046	0.483492	2.12063	0.91871	4.0484							0.765133	3.38321						
0.565996	2.48771	0.485561	2.12103	0.921032	4.04203							0.766787	3.37661						
0.567693	2.48499	0.487629	2.12143	0.923344	4.03568							0.768439	3.37006						
0.569393	2.48231	0.489698	2.12183	0.925647	4.02934							0.770087	3.36354						
0.571095	2.47966	0.491766	2.12222	0.927941	4.02301							0.771734	3.35707						
0.572798	2.47703	0.493834	2.12261	0.930226	4.01669							0.773378	3.35065						
0.574504	2.47444	0.495902	2.123	0.932502	4.01038							0.775019	3.34426						
0.576213	2.47188	0.49797	2.12339	0.934769	4.00409							0.776659	3.33791						
0.577923	2.46935	0.500038	2.12377	0.937027	3.9978							0.778296	3.33161						
0.579635	2.46684	0.502107	2.12415	0.939276	3.99153							0.779932	3.32535						
0.581349	2.46437	0.504175	2.12452	0.941516	3.98527							0.781565	3.31913						
0.583066	2.46192	0.506243	2.12489	0.943748	3.97903							0.783196	3.31295						
0.584784	2.4595	0.50831	2.12526	0.945972	3.9728							0.784826	3.30681						
0.586504	2.45711	0.510378	2.12563	0.948187	3.96658							0.786453	3.30071						
0.588227	2.45474	0.512446	2.12599	0.950394	3.96038							0.788079	3.29465						
0.589951	2.4524	0.514514	2.12635	0.952593	3.95419							0.789704	3.28863						
0.591677	2.45009	0.516582	2.12671	0.954783	3.94801							0.791326	3.28265						
0.593406	2.4478	0.518649	2.12706	0.956966	3.94185							0.792948	3.27671						
0.595136	2.44554	0.520717	2.12741	0.95914	3.9357							0.794567	3.27081						
0.596868	2.4433	0.522785	2.12776	0.961307	3.92957							0.796186	3.26495						
0.598602	2.44109	0.524852	2.1281	0.963466	3.92345							0.797802	3.25913						
0.600338	2.4389	0.52692	2.12845	0.965617	3.91735							0.799418	3.25335						
0.602075	2.43674	0.528987	2.12879	0.967761	3.91126							0.801032	3.2476						
0.603815	2.4346	0.531054	2.12912	0.969897	3.90519							0.802646	3.2419						
0.605557	2.43248	0.533122	2.12946	0.972025	3.89914							0.804258	3.23623						
0.6073	2.43039	0.535189	2.12979	0.974147	3.89309							0.805869	3.2306						
0.609045	2.42832	0.537256	2.13012	0.976261	3.88707							0.807478	3.22501						
0.610792	2.42627	0.539324	2.13044	0.978368	3.88106							0.809087	3.21946						
0.612541	2.42425	0.541391	2.13077	0.980468	3.87507							0.810695	3.21394						
0.614291	2.42224	0.543458	2.13109	0.98256	3.86909							0.812302	3.20846						
0.616044	2.42026	0.545525	2.13141	0.984646	3.86313							0.813909	3.20302						
0.617798	2.4183	0.547592	2.13172	0.986725	3.85719							0.815514	3.19761						
0.619554	2.41636	0.549659	2.13204	0.988797	3.85126							0.817119	3.19224						
0.621311	2.41444	0.551726	2.13235	0.990863	3.84535							0.818723	3.18691						
0.623071	2.41255	0.553793	2.13266	0.992922	3.83946							0.820326	3.18161						
0.624832	2.41067	0.55586	2.13296	0.994974	3.83359							0.821929	3.17635						
0.626594	2.40881	0.557927	2.13327	0.997019	3.82773							0.823531	3.17112						
0.628359	2.40697	0.559994	2.13357	0.999059	3.82189							0.825132	3.16593						
0.630125	2.40515	0.562061	2.13387	1.00109	3.81606							0.826733	3.16077						
0.631893	2.40335	0.564127	2.13417									0.828334	3.15565						
0.633662	2.40157	0.566194	2.13446									0.829934	3.15056						
0.635433	2.39981	0.568261	2.13476									0.831533	3.14551						
0.637206	2.39807	0.570327	2.13505									0.833133	3.14049						
0.63898	2.39634	0.572394	2.13534									0.834732	3.13551						
0.640756	2.39464	0.57446	2.13562									0.83633	3.13056						
0.642534	2.39295	0.576527	2.13591									0.837929	3.12564						
0.644313	2.39128	0.578593	2.13619									0.839527	3.12076						
0.646094	2.38962	0.58066	2.13647									0.841125	3.1159						
0.647876	2.38798	0.582726	2.13675									0.842723	3.11109						
0.64966	2.38636	0.584793	2.13702									0.844321	3.1063						
0.651445	2.38476	0.586859	2.1373									0.845918	3.10155						
0.653232	2.38317	0.588925	2.13757									0.847516	3.09683						
0.65502	2.3816	0.590991	2.13784									0.849114	3.09214						
0.65681	2.38005	0.593058	2.13811									0.850711	3.08748						
0.658601	2.37851	0.595124	2.13837									0.852309	3.08285						
0.660394	2.37699	0.59719	2.13864									0.853906	3.07826						
0.662189	2.37548	0.599256	2.1389									0.855504	3.07369						
0.663984	2.37399	0.601322	2.13916									0.857102	3.06916						
0.665782	2.37251	0.603388	2.13942									0.8587	3.06466						
0.66758	2.37105	0.605454	2.13968									0.860298	3.06018						
0.66938	2.3696	0.60752	2.13993									0.861896	3.05574						
0.671182	2.36817	0.609586	2.14019									0.863494	3.05133						
0.672985	2.36675	0.611652	2.14044									0.865093	3.04695						
0.674789	2.36534	0.613718	2.14069									0.866692	3.04259						
0.676595	2.36395	0.615783	2.14093									0.868291	3.03827						
0.678402	2.36257	0.617849	2.14118									0.86989	3.03398						
0.680211	2.36121	0.619915	2.14143									0.87149	3.02971						
0.68202	2.35986	0.621981	2.14167									0.87309	3.02547						
0.683832	2.35852	0.624046	2.14191									0.87469	3.02126						
0.685644	2.3572	0.626112	2.14215									0.876291	3.01708						
0.687458	2.35589	0.628177	2.14239									0.877892	3.01293						
0.689273	2.35459	0.630243	2.14262									0.879494	3.00881						
0.69109	2.35331	0.632308	2.14286									0.881096	3.00471						
0.692907	2.35204	0.634374	2.14309									0.882698	3.00064						
0.694727	2.35078	0.636439	2.14332									0.884301	2.9966						
0.696547	2.34953	0.638505	2.14355									0.885904	2.99258						
0.698369	2.34829	0.64057	2.14378									0.887508	2.9886						
0.700191	2.34707	0.642636	2.14401									0.889112	2.98463						
0.702016	2.34586	0.644701	2.14423									0.890717	2.9807						
0.703841	2.34466	0.646766	2.14446									0.892322	2.97679						
0.705668	2.34347	0.648831	2.14468									0.893928	2.97291						
0.707496	2.34229	0.650897	2.1449									0.895535	2.96905						
0.709325	2.34113	0.652962	2.14512									0.897142	2.96522						
0.711155	2.33997	0.655027	2.14534									0.89875	2.96141						
0.712987	2.33883	0.657092	2.14555									0.900358	2.95763						
0.714819	2.3377	0.659157	2.14577									0.901967	2.95388						
0.716653	2.33658	0.661222	2.14598									0.903576	2.95015						
0.718488	2.33546	0.663287	2.14619									0.905186	2.94644						
0.720325	2.33436	0.665352	2.14641									0.906797	2.94276						
0.722162	2.33327	0.667417	2.14661									0.908409	2.9391						
0.724001	2.33219	0.669482	2.14682									0.910021	2.93547						
0.72584	2.33112	0.671547	2.14703									0.911634	2.93186						
0.727681	2.33006	0.673612	2.14724									0.913248	2.92828						
0.729523	2.32901	0.675676	2.14744									0.914862	2.92472						
0.731366	2.32797	0.677741	2.14764									0.916477	2.92118						
0.73321	2.32694	0.679806	2.14784									0.918093	2.91766						
0.735056	2.32592	0.681871	2.14804									0.919709	2.91417						
0.736902	2.32491	0.683935	2.14824									0.921327	2.9107						
0.73875	2.32391	0.686	2.14844									0.922945	2.90726						
0.740598	2.32291	0.688064	2.14864									0.924563	2.90384						
0.742448	2.32193	0.690129	2.14883									0.926183	2.90044						
0.744299	2.32096	0.692194	2.14903									0.927804	2.89706						
0.746151	2.31999	0.694258	2.14922									0.929425	2.8937						
0.748003	2.31903	0.696323	2.14941									0.931047	2.89037						
0.749857	2.31808	0.698387	2.1496									0.93267	2.88705						
0.751712	2.31715	0.700451	2.14979									0.934293	2.88376						
0.753568	2.31621	0.702516	2.14998									0.935918	2.88049						
0.755425	2.31529	0.70458	2.15017									0.937543	2.87725						
0.757283	2.31438	0.706644	2.15035									0.93917	2.87402						
0.759142	2.31347	0.708709	2.15054									0.940797	2.87081						
0.761002	2.31257	0.710773	2.15072									0.942424	2.86763						
0.762863	2.31168	0.712837	2.1509									0.944053	2.86446						
0.764725	2.3108	0.714901	2.15108									0.945683	2.86132						
0.766588	2.30993	0.716966	2.15126									0.947314	2.8582						
0.768452	2.30906	0.71903	2.15144									0.948945	2.85509						
0.770317	2.3082	0.721094	2.15162									0.950577	2.85201						
0.772183	2.30735	0.723158	2.1518									0.952211	2.84895						
0.77405	2.30651	0.725222	2.15197									0.953845	2.8459						
0.775918	2.30568	0.727286	2.15215									0.95548	2.84288						
0.777787	2.30485	0.72935	2.15232									0.957116	2.83987						
0.779656	2.30403	0.731414	2.15249									0.958753	2.83689						
0.781527	2.30321	0.733478	2.15266									0.960391	2.83392						
0.783398	2.30241	0.735542	2.15283									0.962029	2.83097						
0.785271	2.30161	0.737606	2.153									0.963669	2.82804						
0.787144	2.30082	0.739669	2.15317									0.96531	2.82513						
0.789018	2.30003	0.741733	2.15334									0.966951	2.82224						
0.790894	2.29925	0.743797	2.15351									0.968594	2.81937						
0.79277	2.29848	0.745861	2.15367									0.970237	2.81652						
0.794647	2.29771	0.747924	2.15384									0.971882	2.81368						
0.796524	2.29696	0.749988	2.154									0.973527	2.81086						
0.798403	2.2962	0.752052	2.15416									0.975173	2.80806						
0.800283	2.29546	0.754115	2.15432									0.976821	2.80528						
0.802163	2.29472	0.756179	2.15449									0.978469	2.80251						
0.804044	2.29399	0.758242	2.15465									0.980118	2.79977						
0.805926	2.29326	0.760306	2.1548									0.981768	2.79704						
0.807809	2.29254	0.762369	2.15496									0.983419	2.79432						
0.809693	2.29183	0.764433	2.15512									0.985072	2.79163						
0.811578	2.29112	0.766496	2.15527									0.986725	2.78895						
0.813463	2.29042	0.76856	2.15543									0.988379	2.78629						
0.81535	2.28972	0.770623	2.15558									0.990034	2.78364						
0.817237	2.28903	0.772686	2.15574									0.99169	2.78101						
0.819125	2.28835	0.77475	2.15589									0.993347	2.7784						
0.821013	2.28767	0.776813	2.15604									0.995005	2.7758						
0.822903	2.287	0.778876	2.15619									0.996664	2.77322						
0.824793	2.28633	0.780939	2.15634									0.998324	2.77066						
0.826684	2.28567	0.783003	2.15649									0.999986	2.76811						
0.828576	2.28502	0.785066	2.15664									1.00165	2.76558						
0.830469	2.28437	0.787129	2.15679																
0.832362	2.28372	0.789192	2.15693																
0.834257	2.28308	0.791255	2.15708																
0.836152	2.28245	0.793318	2.15723																
0.838047	2.28182	0.795381	2.15737																
0.839944	2.2812	0.797444	2.15751																
0.841841	2.28058	0.799507	2.15766																
0.843739	2.27997	0.80157	2.1578																
0.845638	2.27936	0.803633	2.15794																
0.847537	2.27876	0.805696	2.15808																
0.849438	2.27816	0.807759	2.15822																
0.851339	2.27757	0.809822	2.15836																
0.85324	2.27698	0.811884	2.15849																
0.855143	2.2764	0.813947	2.15863																
0.857046	2.27582	0.81601	2.15877																
0.85895	2.27524	0.818073	2.1589																
0.860854	2.27468	0.820135	2.15904																
0.862759	2.27411	0.822198	2.15917																
0.864665	2.27355	0.824261	2.15931																
0.866572	2.273	0.826323	2.15944																
0.868479	2.27244	0.828386	2.15957																
0.870387	2.2719	0.830448	2.1597																
0.872295	2.27136	0.832511	2.15983																
0.874205	2.27082	0.834573	2.15996																
0.876115	2.27029	0.836636	2.16009																
0.878025	2.26976	0.838698	2.16022																
0.879937	2.26923	0.84076	2.16035																
0.881848	2.26871	0.842823	2.16047																
0.883761	2.2682	0.844885	2.1606																
0.885674	2.26768	0.846947	2.16073																
0.887588	2.26718	0.84901	2.16085																
0.889503	2.26667	0.851072	2.16098																
0.891418	2.26617	0.853134	2.1611																
0.893333	2.26567	0.855196	2.16122																
0.89525	2.26518	0.857259	2.16135																
0.897167	2.26469	0.859321	2.16147																
0.899084	2.26421	0.861383	2.16159																
0.901003	2.26373	0.863445	2.16171																
0.902922	2.26325	0.865507	2.16183																
0.904841	2.26278	0.867569	2.16195																
0.906761	2.26231	0.869631	2.16207																
0.908682	2.26184	0.871693	2.16218																
0.910603	2.26138	0.873755	2.1623																
0.912525	2.26092	0.875817	2.16242																
0.914447	2.26047	0.877879	2.16253																
0.91637	2.26002	0.879941	2.16265																
0.918294	2.25957	0.882002	2.16277																
0.920218	2.25912	0.884064	2.16288																
0.922143	2.25868	0.886126	2.16299																
0.924068	2.25825	0.888188	2.16311																
0.925994	2.25781	0.890249	2.16322																
0.92792	2.25738	0.892311	2.16333																
0.929847	2.25695	0.894373	2.16344																
0.931775	2.25653	0.896434	2.16355																
0.933703	2.25611	0.898496	2.16366																
0.935632	2.25569	0.900558	2.16377																
0.937561	2.25527	0.902619	2.16388																
0.939491	2.25486	0.904681	2.16399																
0.941421	2.25445	0.906742	2.1641																
0.943352	2.25405	0.908804	2.16421																
0.945283	2.25365	0.910865	2.16432																
0.947215	2.25325	0.912926	2.16442																
0.949147	2.25285	0.914988	2.16453																
0.95108	2.25246	0.917049	2.16463																
0.953014	2.25207	0.919111	2.16474																
0.954948	2.25168	0.921172	2.16484																
0.956882	2.2513	0.923233	2.16495																
0.958817	2.25091	0.925294	2.16505																
0.960753	2.25054	0.927356	2.16515																
0.962689	2.25016	0.929417	2.16526																
0.964625	2.24979	0.931478	2.16536																
0.966562	2.24942	0.933539	2.16546																
0.9685	2.24905	0.9356	2.16556																
0.970438	2.24868	0.937661	2.16566																
0.972376	2.24832	0.939722	2.16576																
0.974315	2.24796	0.941784	2.16586																
0.976254	2.24761	0.943845	2.16596																
0.978194	2.24725	0.945906	2.16606																
0.980135	2.2469	0.947966	2.16615																
0.982076	2.24655	0.950027	2.16625																
0.984017	2.2462	0.952088	2.16635																
0.985959	2.24586	0.954149	2.16644																
0.987901	2.24552	0.95621	2.16654																
0.989844	2.24518	0.958271	2.16664																
0.991787	2.24484	0.960332	2.16673																
0.993731	2.24451	0.962392	2.16683																
0.995675	2.24418	0.964453	2.16692																
0.997619	2.24385	0.966514	2.16701																
0.999564	2.24352	0.968575	2.16711																
1.00151	2.2432	0.970635	2.1672																
		0.972696	2.16729																
		0.974756	2.16738																
		0.976817	2.16748																
		0.978878	2.16757																
		0.980938	2.16766																
		0.982999	2.16775																
		0.985059	2.16784																
		0.987119	2.16793																
		0.98918	2.16802																
		0.99124	2.1681																
		0.993301	2.16819																
		0.995361	2.16828																
		0.997421	2.16837																
		0.999482	2.16845																
		1.00154	2.16854																
