Sym0		Asym0		Sym1		Sym2		Sym3		Sym4		Asym1		Asym2		Asym3		Asym4	
256  Points		500  Points		257  Points		229  Points		212  Points		146  Points		341  Points		238  Points		197  Points		121  Points	
Freq (MHz)	Vph (m/ms)	Freq (MHz)	Vph (m/ms)	Freq (MHz)	Vph (m/ms)	Freq (MHz)	Vph (m/ms)	Freq (MHz)	Vph (m/ms)	Freq (MHz)	Vph (m/ms)	Freq (MHz)	Vph (m/ms)	Freq (MHz)	Vph (m/ms)	Freq (MHz)	Vph (m/ms)	Freq (MHz)	Vph (m/ms)
0.279528	330.907	7.59644e-005	0.0706325	0.279516	537.295	0.46987	648.397	0.559024	881.113	0.838527	2253.89	0.139801	190.481	0.41927	695.324	0.698773	1737.77	0.939734	1152.11
0.279595	157.392	0.000264082	0.131569	0.279566	192.549	0.46989	283.688	0.559061	356.966	0.838543	643.188	0.139993	84.0483	0.419313	273.225	0.698793	523.91	0.939742	537.808
0.279709	103.285	0.000564663	0.192136	0.279664	117.328	0.469924	181.574	0.55913	223.845	0.838578	375.131	0.140334	54.0303	0.419391	170.044	0.698833	308.468	0.939757	350.78
0.279871	76.8915	0.000975663	0.252072	0.279809	84.3991	0.469974	133.525	0.55923	163.063	0.838632	264.793	0.140822	39.904	0.419507	123.454	0.698895	218.596	0.939778	260.272
0.28008	61.2664	0.00149464	0.311235	0.280002	65.9292	0.470039	105.593	0.559361	128.258	0.838703	204.621	0.141454	31.7111	0.419659	96.9242	0.698978	169.29	0.939806	206.894
0.280337	50.9406	0.00211859	0.369482	0.280242	54.1143	0.47012	87.3319	0.559524	105.712	0.838793	166.741	0.142228	26.3756	0.419848	79.7968	0.699081	138.142	0.939839	171.687
0.28064	43.6121	0.00284389	0.426648	0.280529	45.9101	0.470215	74.462	0.559718	89.9199	0.838902	140.703	0.143139	22.6339	0.420073	67.8286	0.699206	116.684	0.939879	146.722
0.28099	38.1438	0.00366662	0.482619	0.280863	39.8834	0.470327	64.9037	0.559943	78.2445	0.839028	121.706	0.144185	19.8716	0.420335	58.9957	0.699351	101.004	0.939926	128.098
0.281386	33.9089	0.00458258	0.53729	0.281243	35.2709	0.470453	57.5251	0.560199	69.2629	0.839173	107.234	0.145359	17.7538	0.420633	52.2101	0.699518	89.0462	0.939979	113.672
0.281829	30.5341	0.0055871	0.590556	0.28167	31.6288	0.470596	51.6575	0.560486	62.1402	0.839337	95.8443	0.146659	16.0824	0.420968	46.8354	0.699705	79.6263	0.940038	102.168
0.282318	27.7826	0.00667568	0.64236	0.282142	28.6812	0.470754	46.8803	0.560805	56.3543	0.839518	86.6467	0.148078	14.7329	0.421339	42.4739	0.699914	72.0145	0.940104	92.78
0.282852	25.4974	0.00784355	0.69264	0.282661	26.2479	0.470928	42.9158	0.561154	51.5619	0.839718	79.0644	0.149613	13.6227	0.421746	38.8647	0.700143	65.7365	0.940176	84.9738
0.283432	23.57	0.0090859	0.741354	0.283225	24.2061	0.471119	39.5732	0.561534	47.528	0.839936	72.7068	0.151257	12.6954	0.422189	35.8293	0.700393	60.4702	0.940255	78.3807
0.284056	21.9234	0.0103981	0.788478	0.283833	22.4689	0.471325	36.717	0.561944	44.0862	0.840173	67.2996	0.153006	11.9108	0.422667	33.2416	0.700664	55.9898	0.940341	72.7385
0.284725	20.5008	0.0117755	0.834005	0.284487	20.9737	0.471548	34.2486	0.562385	41.1155	0.840428	62.6448	0.154855	11.2395	0.423182	31.0098	0.700956	52.1318	0.940434	67.8553
0.285437	19.2601	0.0132137	0.877933	0.285184	19.6738	0.471788	32.0942	0.562856	38.5257	0.840701	58.5958	0.156543	10.7298	0.423732	29.0657	0.701268	48.7753	0.940533	63.5878
0.286194	18.1689	0.0147083	0.920271	0.285925	18.5337	0.472044	30.1977	0.563358	36.2485	0.840992	55.0418	0.158037	10.3416	0.424317	27.3575	0.701601	45.8286	0.940639	59.8265
0.286993	17.2021	0.0162553	0.961036	0.28671	17.5261	0.472317	28.5156	0.56389	34.2306	0.841301	51.8974	0.159309	10.0485	0.424938	25.845	0.701955	43.2214	0.940753	56.4865
0.287835	16.3401	0.0178507	1.00026	0.287537	16.6295	0.472607	27.0136	0.564451	32.4305	0.841629	49.0959	0.160337	9.83265	0.425594	24.4967	0.70233	40.8982	0.940873	53.5007
0.288718	15.5669	0.0194907	1.03797	0.288406	15.827	0.472915	25.6644	0.565043	30.8149	0.841974	46.5842	0.161105	9.6822	0.426284	23.2876	0.702725	38.8153	0.941001	50.8158
0.289643	14.8698	0.021172	1.07421	0.289317	15.1047	0.47324	24.446	0.565663	29.3571	0.842338	44.3197	0.161602	9.58935	0.42701	22.1974	0.703141	36.9374	0.941136	48.3885
0.290609	14.2383	0.0228913	1.10901	0.290268	14.4514	0.473583	23.3404	0.566314	28.0353	0.84272	42.2678	0.162324	9.46034	0.427769	21.2097	0.703577	35.2358	0.941278	46.1835
0.291616	13.6639	0.0246453	1.14243	0.291261	13.858	0.473944	22.3327	0.566993	26.8314	0.84312	40.4	0.163118	9.32578	0.428563	20.3108	0.704034	33.6868	0.941428	44.1716
0.292661	13.1393	0.0264315	1.1745	0.292293	13.3168	0.474324	21.4106	0.567702	25.7304	0.843538	38.6926	0.164214	9.15166	0.429391	19.4895	0.704511	32.271	0.941585	42.3286
0.293746	12.6585	0.0282469	1.20527	0.293364	12.8213	0.474722	20.5638	0.56844	24.72	0.843974	37.1259	0.165626	8.94501	0.430253	18.7363	0.705009	30.972	0.94175	40.6341
0.294869	12.2164	0.0300893	1.23479	0.294474	12.3663	0.475139	19.7834	0.569206	23.7894	0.844427	35.6834	0.167369	8.71344	0.431149	18.0432	0.705527	29.776	0.941923	39.0709
0.29603	11.8087	0.0319563	1.26312	0.295621	11.9471	0.475575	19.0621	0.57	22.9298	0.844899	34.3509	0.169462	8.46463	0.432077	17.4035	0.706065	28.6713	0.942103	37.6243
0.297228	11.4316	0.0338458	1.29029	0.296807	11.5597	0.47603	18.3935	0.570823	22.1333	0.845389	33.1164	0.171926	8.20583	0.433039	16.8113	0.706624	27.648	0.942292	36.2819
0.298462	11.082	0.0357559	1.31635	0.298028	11.2008	0.476506	17.772	0.571674	21.3935	0.845897	31.9695	0.174453	7.97193	0.434034	16.2618	0.707202	26.6974	0.942488	35.0327
0.299732	10.757	0.0376848	1.34135	0.299286	10.8676	0.477001	17.1931	0.572553	20.7045	0.846422	30.9012	0.177039	7.75974	0.435061	15.7505	0.707801	25.8121	0.942693	33.8674
0.301037	10.4543	0.0396308	1.36534	0.300411	10.596	0.477517	16.6524	0.573459	20.0613	0.846965	29.9039	0.179682	7.56657	0.436121	15.2736	0.70842	24.9857	0.942906	32.7779
0.302377	10.1717	0.0415924	1.38836	0.30139	10.3772	0.478053	16.1465	0.574393	19.4597	0.847526	28.9707	0.182378	7.39016	0.437212	14.828	0.709059	24.2126	0.943128	31.7571
0.30375	9.90738	0.0435682	1.41044	0.302215	10.2045	0.47861	15.6721	0.575354	18.8959	0.848105	28.0957	0.185124	7.22855	0.438336	14.4108	0.709717	23.4879	0.943357	30.7986
0.305156	9.6597	0.0455569	1.43164	0.302876	10.0729	0.479189	15.2265	0.576342	18.3663	0.848701	27.2737	0.187919	7.08009	0.439491	14.0193	0.710396	22.8071	0.943596	29.897
0.306595	9.4272	0.0475574	1.452	0.303367	9.97883	0.479789	14.8072	0.577357	17.8681	0.849315	26.5	0.190759	6.94336	0.440677	13.6514	0.711094	22.1664	0.943843	29.0473
0.308065	9.2086	0.0495687	1.47154	0.303683	9.91975	0.480411	14.412	0.578398	17.3987	0.849946	25.7705	0.193642	6.81713	0.441893	13.3051	0.711812	21.5626	0.944099	28.2453
0.309566	9.00275	0.0515896	1.49032	0.304141	9.83635	0.481055	14.039	0.579466	16.9556	0.850595	25.0816	0.196567	6.70031	0.443141	12.9786	0.712549	20.9924	0.944363	27.487
0.311098	8.80862	0.0536193	1.50835	0.304643	9.74768	0.481722	13.6863	0.58056	16.5368	0.851262	24.4301	0.19953	6.59198	0.444419	12.6703	0.713306	20.4533	0.944637	26.7691
0.312659	8.62528	0.0553945	1.5235	0.305332	9.63028	0.482412	13.3525	0.581679	16.1403	0.851946	23.813	0.202531	6.4913	0.445727	12.3788	0.714083	19.9428	0.94492	26.0883
0.314249	8.45192	0.0569123	1.536	0.306214	9.48686	0.483125	13.036	0.582824	15.7646	0.852647	23.2277	0.205567	6.39757	0.447064	12.1027	0.714879	19.4587	0.945212	25.4419
0.315868	8.28777	0.0581702	1.54607	0.307297	9.32055	0.483862	12.7357	0.583995	15.4079	0.853365	22.6719	0.208637	6.31013	0.448431	11.8411	0.715694	18.9991	0.945513	24.8274
0.317514	8.13217	0.0591665	1.55386	0.30859	9.13481	0.484623	12.4504	0.585191	15.0691	0.854101	22.1433	0.211738	6.22843	0.449827	11.5927	0.716528	18.5621	0.945823	24.2425
0.319188	7.98451	0.0599	1.5595	0.310102	8.93319	0.485408	12.1791	0.586412	14.7467	0.854854	21.6401	0.21487	6.15196	0.451251	11.3568	0.717382	18.1463	0.946143	23.6851
0.320888	7.84422	0.0603698	1.56306	0.311644	8.74295	0.486218	11.9207	0.587657	14.4397	0.855625	21.1605	0.218032	6.08028	0.452705	11.1323	0.718254	17.75	0.946473	23.1533
0.322614	7.7108	0.0610457	1.56813	0.313215	8.56321	0.487053	11.6745	0.588927	14.147	0.856412	20.703	0.221221	6.01298	0.454186	10.9186	0.719146	17.3721	0.946812	22.6455
0.324366	7.58379	0.0617811	1.57357	0.314815	8.39317	0.487914	11.4397	0.590221	13.8677	0.857217	20.266	0.224436	5.94971	0.455499	10.7405	0.720056	17.0112	0.947161	22.16
0.326143	7.46276	0.0627823	1.58085	0.316444	8.2321	0.4888	11.2155	0.591539	13.601	0.858038	19.8482	0.227677	5.89014	0.456636	10.5944	0.720985	16.6663	0.94752	21.6955
0.327944	7.34734	0.0640501	1.58986	0.3181	8.07936	0.489712	11.0012	0.592882	13.3459	0.858876	19.4484	0.230942	5.83399	0.457587	10.4773	0.721933	16.3364	0.947888	21.2506
0.32977	7.23717	0.0655858	1.60049	0.319783	7.93435	0.490529	10.8222	0.594247	13.1019	0.859732	19.0656	0.23423	5.78099	0.458346	10.3871	0.722899	16.0205	0.948267	20.8241
0.331618	7.13192	0.0673902	1.61257	0.321492	7.79653	0.491241	10.6749	0.595636	12.8682	0.860604	18.6986	0.23754	5.7309	0.458908	10.322	0.723884	15.7178	0.948655	20.4149
0.333491	7.03129	0.0694646	1.62596	0.323228	7.66542	0.491841	10.5567	0.597049	12.6442	0.861493	18.3465	0.240871	5.68352	0.45927	10.2809	0.724887	15.4275	0.949054	20.0221
0.335386	6.93502	0.0715425	1.63886	0.324988	7.54056	0.492323	10.4653	0.598484	12.4293	0.862399	18.0085	0.244223	5.63863	0.459792	10.2225	0.725909	15.1488	0.949463	19.6446
0.337304	6.84285	0.0736237	1.65129	0.326774	7.42155	0.492682	10.3994	0.599942	12.2231	0.863321	17.6837	0.247593	5.59607	0.460363	10.1601	0.726949	14.8812	0.949883	19.2816
0.339244	6.75454	0.0757077	1.66327	0.328583	7.30801	0.492913	10.3577	0.601422	12.025	0.86426	17.3714	0.250982	5.55568	0.461145	10.0767	0.728007	14.6239	0.950312	18.9322
0.341206	6.66988	0.0777942	1.67483	0.330417	7.19961	0.493248	10.2985	0.602925	11.8346	0.865215	17.0709	0.254389	5.5173	0.462143	9.97375	0.729083	14.3765	0.950753	18.5958
0.34319	6.58866	0.0798829	1.68598	0.332274	7.09602	0.493616	10.2351	0.604449	11.6514	0.866187	16.7816	0.257812	5.48079	0.463363	9.8529	0.730176	14.1383	0.951204	18.2717
0.345196	6.51072	0.0819737	1.69674	0.334155	6.99695	0.494121	10.1503	0.605996	11.4752	0.867176	16.5029	0.261251	5.44604	0.464812	9.71598	0.731288	13.9089	0.951665	17.9591
0.347224	6.43588	0.0840661	1.70713	0.336058	6.90215	0.49477	10.0455	0.607564	11.3054	0.868181	16.2342	0.264706	5.41293	0.466499	9.56497	0.732417	13.6878	0.952138	17.6576
0.349274	6.36397	0.0861602	1.71717	0.337983	6.81136	0.495569	9.92233	0.609154	11.1418	0.869201	15.9749	0.268176	5.38136	0.468211	9.42012	0.733564	13.4746	0.952621	17.3665
0.351346	6.29485	0.0882555	1.72686	0.339931	6.72436	0.496526	9.78247	0.610556	11.0041	0.870239	15.7247	0.27166	5.35122	0.469949	9.2811	0.734729	13.2689	0.953115	17.0853
0.353439	6.2284	0.0903519	1.73623	0.341901	6.64093	0.497651	9.62791	0.611765	10.89	0.871292	15.4831	0.275157	5.32242	0.471711	9.14758	0.73591	13.0703	0.95362	16.8135
0.355555	6.16447	0.0924494	1.74529	0.343893	6.56089	0.498806	9.47938	0.612772	10.7979	0.872361	15.2496	0.278667	5.29489	0.473497	9.01927	0.737109	12.8785	0.954136	16.5508
0.357694	6.10297	0.0945477	1.75405	0.345907	6.48405	0.499989	9.33656	0.613575	10.7265	0.873447	15.0239	0.282189	5.26855	0.475308	8.89588	0.738325	12.6932	0.954663	16.2965
0.359855	6.04377	0.0966467	1.76252	0.347943	6.41026	0.501203	9.19917	0.614168	10.6748	0.874548	14.8056	0.285723	5.24332	0.477142	8.77715	0.739559	12.5139	0.955202	16.0505
0.36204	5.98678	0.0987463	1.77073	0.35	6.33935	0.502446	9.06695	0.614549	10.642	0.875665	14.5943	0.289268	5.21915	0.478999	8.66285	0.740809	12.3405	0.955752	15.8121
0.364248	5.93191	0.100846	1.77867	0.352079	6.27118	0.50372	8.93963	0.615099	10.5954	0.876798	14.3897	0.292824	5.19597	0.48088	8.55275	0.742076	12.1727	0.956313	15.5813
0.366481	5.87907	0.102947	1.78636	0.354181	6.20563	0.505025	8.81699	0.615698	10.5453	0.877947	14.1916	0.296391	5.17371	0.482784	8.44664	0.74336	12.0102	0.956885	15.3575
0.368739	5.82818	0.105048	1.79381	0.356305	6.14257	0.50636	8.69881	0.616518	10.4781	0.879111	13.9996	0.299967	5.15234	0.48471	8.34432	0.74466	11.8528	0.95747	15.1404
0.371023	5.77917	0.107149	1.80103	0.358451	6.08189	0.507726	8.58487	0.617562	10.3947	0.880291	13.8134	0.303552	5.1318	0.486658	8.2456	0.745977	11.7002	0.958065	14.9299
0.373333	5.73197	0.10925	1.80804	0.360621	6.02348	0.509124	8.47499	0.618835	10.2962	0.881487	13.6329	0.307146	5.11204	0.488628	8.15032	0.74731	11.5523	0.958673	14.7256
0.375671	5.68652	0.111351	1.81483	0.362814	5.96725	0.510553	8.36898	0.620341	10.1837	0.882698	13.4577	0.310749	5.09302	0.490619	8.05831	0.74866	11.4089	0.959292	14.5272
0.378037	5.64275	0.113452	1.82141	0.365031	5.9131	0.512013	8.26668	0.622089	10.0585	0.883924	13.2876	0.314359	5.07471	0.492632	7.96941	0.749849	11.2874	0.959923	14.3345
0.380432	5.60062	0.115553	1.82781	0.367272	5.86095	0.513506	8.16791	0.623857	9.93742	0.885166	13.1225	0.317978	5.05706	0.494666	7.88349	0.750872	11.1862	0.960565	14.1472
0.382858	5.56007	0.117654	1.83401	0.369539	5.81073	0.515031	8.07254	0.625643	9.82014	0.886422	12.9621	0.321603	5.04004	0.49672	7.80041	0.751725	11.1042	0.96122	13.9653
0.385315	5.52105	0.119755	1.84004	0.371832	5.76237	0.516588	7.9804	0.627449	9.70654	0.887694	12.8062	0.325235	5.02361	0.498795	7.72004	0.752404	11.0405	0.961887	13.7883
0.387805	5.48352	0.121856	1.84589	0.374152	5.71579	0.518178	7.89138	0.629275	9.59646	0.888981	12.6547	0.328874	5.00775	0.50089	7.64226	0.752905	10.9941	0.962566	13.6162
0.390328	5.44744	0.123956	1.85158	0.376499	5.67094	0.5198	7.80533	0.631119	9.48975	0.890283	12.5073	0.332519	4.99242	0.503005	7.56696	0.753227	10.9647	0.963257	13.4487
0.392887	5.41276	0.126057	1.8571	0.378876	5.62775	0.521454	7.72214	0.632981	9.38626	0.8916	12.364	0.336169	4.9776	0.505139	7.49403	0.753691	10.9228	0.96396	13.2857
0.395481	5.37945	0.128157	1.86248	0.381282	5.58618	0.523142	7.64169	0.634863	9.28587	0.892932	12.2245	0.339825	4.96326	0.507292	7.42337	0.754198	10.8777	0.964675	13.127
0.398112	5.34748	0.130256	1.86771	0.383718	5.54617	0.524862	7.56388	0.636762	9.18844	0.894278	12.0888	0.343486	4.94938	0.509465	7.35488	0.75489	10.8171	0.965403	12.9724
0.400782	5.3168	0.132356	1.87279	0.386187	5.50768	0.526615	7.48859	0.63868	9.09385	0.895639	11.9566	0.347152	4.93594	0.511656	7.28848	0.755771	10.7416	0.966144	12.8219
0.403491	5.28738	0.134455	1.87774	0.388688	5.47067	0.5284	7.41573	0.640616	9.00199	0.897015	11.8278	0.350822	4.92291	0.513865	7.22408	0.756844	10.6521	0.966896	12.6751
0.40624	5.2592	0.136554	1.88256	0.391224	5.43508	0.530219	7.34521	0.642569	8.91276	0.898405	11.7024	0.354497	4.91027	0.516093	7.16159	0.758113	10.5494	0.967662	12.5321
0.40903	5.23221	0.138652	1.88725	0.393795	5.40089	0.53207	7.27693	0.64454	8.82604	0.899629	11.5957	0.358175	4.89801	0.518338	7.10094	0.759584	10.4346	0.96844	12.3926
0.411861	5.20638	0.140751	1.89181	0.396402	5.36806	0.533954	7.21082	0.646529	8.74174	0.90068	11.5066	0.361856	4.8861	0.520601	7.04206	0.76107	10.3229	0.969231	12.2566
0.414735	5.18168	0.142849	1.89626	0.399047	5.33654	0.535871	7.14678	0.648535	8.65977	0.901555	11.4342	0.365541	4.87453	0.522882	6.98488	0.762572	10.2142	0.970034	12.124
0.417652	5.15807	0.144946	1.9006	0.40173	5.30631	0.53782	7.08474	0.650558	8.58004	0.902251	11.3777	0.369229	4.86328	0.52518	6.92934	0.764088	10.1083	0.970851	11.9945
0.420611	5.13553	0.147043	1.90483	0.404453	5.27733	0.539802	7.02463	0.652598	8.50247	0.902765	11.3366	0.372919	4.85234	0.527494	6.87536	0.76562	10.0053	0.97168	11.8681
0.423613	5.11401	0.14914	1.90895	0.407217	5.24957	0.541816	6.96638	0.654654	8.42697	0.903095	11.3105	0.376612	4.8417	0.529826	6.82289	0.767166	9.90489	0.972414	11.7605
0.426658	5.09348	0.151236	1.91297	0.410021	5.22299	0.543862	6.90992	0.656728	8.35347	0.903571	11.2732	0.380307	4.83133	0.532173	6.77187	0.768727	9.80707	0.973046	11.6704
0.429746	5.07391	0.153332	1.91689	0.412867	5.19756	0.545941	6.85517	0.658817	8.28191	0.904089	11.2331	0.384003	4.82122	0.534537	6.72225	0.770303	9.71174	0.973575	11.5972
0.432877	5.05526	0.155428	1.92072	0.415756	5.17325	0.548051	6.80209	0.660923	8.2122	0.904797	11.179	0.387701	4.81137	0.536917	6.67398	0.771893	9.6188	0.973997	11.54
0.436049	5.0375	0.157523	1.92445	0.418687	5.15002	0.550193	6.75061	0.663046	8.14428	0.905698	11.1116	0.3914	4.80175	0.539313	6.62701	0.773498	9.52817	0.974309	11.4983
0.439263	5.02058	0.159618	1.9281	0.421662	5.12784	0.552366	6.70068	0.665184	8.0781	0.906793	11.0314	0.3951	4.79237	0.541724	6.5813	0.775116	9.43977	0.97451	11.4719
0.442517	5.00448	0.161712	1.93166	0.424679	5.10668	0.55457	6.65224	0.667338	8.01358	0.908089	10.9391	0.398801	4.7832	0.54415	6.53679	0.776749	9.35353	0.974799	11.4341
0.44581	4.98916	0.163806	1.93513	0.42774	5.08649	0.556806	6.60523	0.669507	7.95068	0.909588	10.8355	0.402502	4.77424	0.546592	6.49344	0.778396	9.26936	0.975116	11.3933
0.449141	4.97457	0.1659	1.93853	0.430843	5.06725	0.559071	6.55961	0.671692	7.88934	0.911101	10.7344	0.406203	4.76548	0.549049	6.45122	0.780057	9.18721	0.975549	11.3384
0.45251	4.96069	0.167993	1.94185	0.433988	5.04892	0.561368	6.51532	0.673893	7.82951	0.912628	10.6356	0.409905	4.75691	0.55152	6.41008	0.781732	9.107	0.976101	11.2699
0.455915	4.94749	0.170086	1.9451	0.437175	5.03145	0.563694	6.47233	0.676109	7.77113	0.914169	10.5392	0.413606	4.74852	0.554006	6.37	0.78342	9.02867	0.976775	11.1883
0.459354	4.93492	0.172179	1.94827	0.440403	5.01483	0.56605	6.43059	0.678339	7.71416	0.915723	10.4449	0.417306	4.74029	0.556506	6.33092	0.785122	8.95216	0.977576	11.0943
0.462827	4.92295	0.174271	1.95137	0.44367	4.999	0.568435	6.39005	0.680585	7.65856	0.917291	10.3528	0.421005	4.73223	0.55902	6.29283	0.786837	8.87741	0.978507	10.9886
0.466332	4.91155	0.176363	1.9544	0.446977	4.98394	0.570849	6.35068	0.682845	7.60427	0.918873	10.2627	0.424703	4.72433	0.561549	6.25568	0.788566	8.80437	0.979452	10.8854
0.469867	4.9007	0.178454	1.95737	0.450322	4.96961	0.573292	6.31243	0.685121	7.55125	0.920467	10.1746	0.4284	4.71657	0.564091	6.21945	0.790308	8.73297	0.98041	10.7843
0.473432	4.89035	0.180546	1.96028	0.453704	4.95597	0.575763	6.27526	0.68741	7.49948	0.922075	10.0885	0.432095	4.70894	0.566647	6.1841	0.792063	8.66318	0.981382	10.6855
0.477024	4.88049	0.182637	1.96312	0.457121	4.94299	0.578262	6.23914	0.689714	7.4489	0.923696	10.0043	0.435788	4.70146	0.569216	6.14962	0.793831	8.59493	0.982368	10.5888
0.480643	4.87108	0.184727	1.9659	0.460572	4.93064	0.580788	6.20403	0.692032	7.39948	0.92533	9.92183	0.439479	4.69409	0.571799	6.11596	0.795612	8.52819	0.983368	10.4942
0.484286	4.86209	0.186817	1.96863	0.464056	4.91888	0.583342	6.1699	0.694365	7.35119	0.926977	9.84118	0.443168	4.68685	0.574395	6.08311	0.797406	8.4629	0.984381	10.4016
0.487953	4.85351	0.188907	1.9713	0.467572	4.90768	0.585922	6.13672	0.696711	7.30398	0.928637	9.76224	0.446854	4.67972	0.577004	6.05103	0.799213	8.39902	0.985409	10.311
0.491643	4.84531	0.190997	1.97391	0.471118	4.897	0.588529	6.10445	0.699071	7.25783	0.93031	9.68497	0.450537	4.6727	0.579626	6.01971	0.801032	8.33652	0.98645	10.2222
0.495354	4.83746	0.193086	1.97647	0.474692	4.88683	0.591161	6.07307	0.701445	7.21271	0.931996	9.60932	0.454216	4.66577	0.582261	5.98913	0.802864	8.27534	0.987505	10.1353
0.499084	4.82995	0.195175	1.97898	0.478294	4.87713	0.593819	6.04254	0.703832	7.16858	0.933695	9.53523	0.457893	4.65895	0.584909	5.95925	0.804708	8.21545	0.988575	10.0502
0.502833	4.82274	0.197263	1.98144	0.481921	4.86787	0.596502	6.01284	0.706233	7.12542	0.935406	9.46267	0.461565	4.65221	0.587569	5.93006	0.806565	8.15682	0.989659	9.96677
0.506115	4.81671	0.199352	1.98385	0.485573	4.85903	0.59921	5.98393	0.708648	7.0832	0.93713	9.39159	0.465233	4.64556	0.590242	5.90155	0.808433	8.0994	0.990757	9.88508
0.508922	4.81173	0.20144	1.98621	0.489248	4.85059	0.601942	5.9558	0.711075	7.04188	0.938866	9.32195	0.468897	4.63899	0.592927	5.87368	0.810314	8.04317	0.991869	9.80503
0.51125	4.80773	0.203528	1.98853	0.492946	4.84251	0.604698	5.92841	0.713516	7.00145	0.940614	9.25371	0.472557	4.63249	0.595625	5.84644	0.812207	7.98808	0.992996	9.72659
0.513095	4.80463	0.205615	1.9908	0.496663	4.83478	0.607477	5.90175	0.71597	6.96188	0.942375	9.18683	0.476211	4.62607	0.598334	5.81981	0.814112	7.93411	0.994138	9.6497
0.514453	4.80239	0.207702	1.99303	0.500401	4.82738	0.610279	5.87579	0.718436	6.92315	0.944148	9.12127	0.479861	4.61971	0.601056	5.79378	0.816028	7.88123	0.995293	9.57434
0.515324	4.80097	0.209789	1.99522	0.504156	4.82028	0.613104	5.8505	0.720916	6.88522	0.945933	9.05699	0.483505	4.61341	0.60379	5.76832	0.817956	7.8294	0.996464	9.50045
0.516576	4.79895	0.211876	1.99737	0.507928	4.81347	0.61595	5.82587	0.723408	6.84809	0.947731	8.99397	0.487144	4.60717	0.606535	5.74343	0.819896	7.7786	0.997649	9.428
0.517939	4.79679	0.213962	1.99948	0.511717	4.80693	0.618819	5.80188	0.725912	6.81172	0.94954	8.93216	0.490776	4.60098	0.609293	5.71909	0.821848	7.72879	0.998849	9.35695
0.519796	4.79389	0.216048	2.00154	0.515521	4.80065	0.621709	5.7785	0.728429	6.7761	0.951361	8.87154	0.494403	4.59485	0.612062	5.69528	0.82381	7.67996	1.00006	9.28727
0.522149	4.7903	0.218134	2.00357	0.519338	4.7946	0.62462	5.75571	0.730959	6.7412	0.953194	8.81207	0.498022	4.58875	0.614843	5.67198	0.825785	7.63207		
0.525	4.78607	0.22022	2.00557	0.523169	4.78877	0.627551	5.73349	0.733501	6.70701	0.955039	8.75373	0.501635	4.5827	0.617636	5.64919	0.82777	7.58511		
0.528353	4.78125	0.222305	2.00753	0.527012	4.78316	0.630502	5.71184	0.736055	6.67351	0.956895	8.69648	0.505241	4.57669	0.620441	5.62689	0.829767	7.53904		
0.532211	4.77589	0.224391	2.00945	0.530866	4.77774	0.633473	5.69072	0.73862	6.64068	0.958764	8.64029	0.50884	4.57071	0.623257	5.60507	0.831774	7.49385		
0.536079	4.77071	0.226476	2.01134	0.53473	4.7725	0.636464	5.67013	0.741198	6.6085	0.960643	8.58515	0.512431	4.56477	0.626084	5.58371	0.833793	7.4495		
0.539956	4.76571	0.22856	2.0132	0.538605	4.76743	0.639473	5.65004	0.743788	6.57696	0.962534	8.53101	0.516014	4.55885	0.628924	5.56281	0.835823	7.40599		
0.543842	4.76086	0.230645	2.01502	0.542488	4.76253	0.642501	5.63045	0.74639	6.54603	0.964436	8.47787	0.519589	4.55295	0.631774	5.54235	0.837863	7.36328		
0.547736	4.75615	0.232729	2.01681	0.546379	4.75778	0.645548	5.61133	0.749003	6.51571	0.96635	8.42568	0.523155	4.54708	0.634637	5.52233	0.839915	7.32136		
0.551638	4.75159	0.234813	2.01858	0.550278	4.75316	0.648612	5.59267	0.751628	6.48598	0.968275	8.37444	0.526712	4.54123	0.63751	5.50272	0.841977	7.28021		
0.555546	4.74715	0.236897	2.02031	0.554184	4.74868	0.651693	5.57446	0.754264	6.45681	0.970211	8.3241	0.530261	4.53539	0.640396	5.48353	0.844049	7.23981		
0.55946	4.74284	0.238981	2.02201	0.558096	4.74433	0.654792	5.55668	0.756912	6.42821	0.972158	8.27466	0.533799	4.52956	0.643292	5.46473	0.846132	7.20013		
0.563379	4.73864	0.241064	2.02369	0.562013	4.74009	0.657908	5.53932	0.759572	6.40015	0.974116	8.22609	0.537328	4.52374	0.6462	5.44633	0.848226	7.16118		
0.567304	4.73455	0.243148	2.02534	0.565936	4.73596	0.66104	5.52237	0.762242	6.37263	0.976085	8.17837	0.540848	4.51793	0.64912	5.42831	0.85033	7.12291		
0.571232	4.73055	0.245231	2.02696	0.569863	4.73193	0.664188	5.50582	0.764924	6.34562	0.978064	8.13148	0.544356	4.51212	0.652051	5.41067	0.852444	7.08533		
0.575165	4.72665	0.247313	2.02855	0.573795	4.728	0.667352	5.48965	0.767617	6.31912	0.980055	8.0854	0.547855	4.50632	0.654994	5.39339	0.854569	7.0484		
0.579101	4.72283	0.249396	2.03012	0.57773	4.72415	0.670532	5.47385	0.770321	6.29311	0.982056	8.04011	0.551342	4.50051	0.657948	5.37646	0.856704	7.01213		
0.58304	4.7191	0.251479	2.03166	0.581668	4.72039	0.673726	5.45842	0.773036	6.26758	0.984068	7.99559	0.554818	4.4947	0.660913	5.35989	0.858849	6.97648		
0.586981	4.71544	0.253561	2.03318	0.585608	4.71671	0.676936	5.44333	0.775761	6.24253	0.98609	7.95183	0.558282	4.48889	0.66389	5.34366	0.861004	6.94145		
0.590924	4.71185	0.255643	2.03468	0.589551	4.71309	0.68016	5.42859	0.778498	6.21793	0.988123	7.9088	0.561735	4.48307	0.666878	5.32776	0.863169	6.90703		
0.594869	4.70833	0.257725	2.03615	0.593495	4.70955	0.683399	5.41418	0.781246	6.19379	0.990166	7.86649	0.565176	4.47723	0.669879	5.31218	0.865344	6.87319		
0.598815	4.70487	0.259807	2.0376	0.597441	4.70607	0.686652	5.40009	0.784004	6.17008	0.992219	7.82488	0.568604	4.47139	0.67289	5.29693	0.867529	6.83993		
0.602762	4.70146	0.261889	2.03903	0.601388	4.70264	0.689918	5.38631	0.786773	6.1468	0.994283	7.78396	0.57202	4.46553	0.675913	5.28199	0.869724	6.80723		
0.60671	4.69811	0.26397	2.04043	0.605335	4.69927	0.693198	5.37284	0.789552	6.12394	0.996357	7.74372	0.575422	4.45966	0.678948	5.26735	0.871929	6.77508		
0.610657	4.6948	0.266052	2.04181	0.609282	4.69595	0.696492	5.35966	0.792342	6.10149	0.99844	7.70413	0.578812	4.45377	0.681994	5.25302	0.874143	6.74346		
0.614604	4.69154	0.268133	2.04318	0.613229	4.69267	0.699798	5.34677	0.795143	6.07943	1.00053	7.66518	0.582188	4.44786	0.685052	5.23897	0.876367	6.71238		
0.618551	4.68833	0.270214	2.04452	0.617176	4.68944	0.703117	5.33415	0.797954	6.05777			0.58555	4.44192	0.688122	5.22522	0.878601	6.6818		
0.622496	4.68514	0.272295	2.04584	0.621122	4.68625	0.706449	5.32181	0.800775	6.03649			0.588898	4.43597	0.691203	5.21174	0.880844	6.65173		
0.62644	4.682	0.274376	2.04715	0.625066	4.68309	0.709793	5.30974	0.803607	6.01559			0.592231	4.42999	0.694296	5.19854	0.883097	6.62216		
0.630383	4.67888	0.276456	2.04843	0.62901	4.67996	0.713149	5.29792	0.806449	5.99505			0.59555	4.42399	0.697401	5.18561	0.88536	6.59306		
0.634323	4.6758	0.278537	2.04969	0.632951	4.67687	0.716517	5.28635	0.809301	5.97487			0.598855	4.41795	0.700517	5.17295	0.887632	6.56443		
0.638261	4.67273	0.280617	2.05094	0.63689	4.6738	0.719896	5.27502	0.812163	5.95504			0.602144	4.41189	0.703645	5.16054	0.889913	6.53627		
0.642197	4.6697	0.282697	2.05217	0.640827	4.67075	0.723287	5.26393	0.815036	5.93556			0.605418	4.40581	0.706784	5.14839	0.892204	6.50856		
0.64613	4.66668	0.284777	2.05338	0.644761	4.66773	0.72669	5.25308	0.817919	5.91641			0.608676	4.39969	0.709936	5.13648	0.894505	6.48129		
0.65006	4.66368	0.286857	2.05458	0.648692	4.66472	0.730103	5.24244	0.820811	5.89759			0.611918	4.39354	0.713099	5.12482	0.896814	6.45445		
0.653987	4.6607	0.288937	2.05576	0.65262	4.66174	0.733527	5.23203	0.823714	5.87909			0.615145	4.38735	0.716273	5.1134	0.899133	6.42803		
0.65791	4.65773	0.291017	2.05692	0.656544	4.65876	0.736963	5.22183	0.826627	5.8609			0.618355	4.38114	0.719459	5.10221	0.901461	6.40204		
0.661829	4.65477	0.293096	2.05806	0.660464	4.6558	0.740408	5.21184	0.82955	5.84303			0.621549	4.37489	0.722657	5.09125	0.903799	6.37645		
0.665743	4.65182	0.295176	2.05919	0.66438	4.65285	0.743864	5.20205	0.832482	5.82545			0.624727	4.3686	0.725866	5.08051	0.906146	6.35125		
0.669654	4.64888	0.297255	2.06031	0.668292	4.6499	0.74733	5.19245	0.835425	5.80818			0.627887	4.36228	0.729087	5.06999	0.908502	6.32645		
0.673559	4.64594	0.299334	2.06141	0.6722	4.64697	0.750806	5.18306	0.838377	5.79119			0.631031	4.35593	0.73232	5.05969	0.910867	6.30204		
0.67746	4.64301	0.301413	2.06249	0.676102	4.64403	0.754292	5.17384	0.84134	5.77449			0.634158	4.34954	0.735563	5.04959	0.913241	6.27799		
0.681356	4.64008	0.303492	2.06356	0.68	4.6411	0.757788	5.16482	0.844312	5.75807			0.637267	4.34311	0.738819	5.0397	0.915625	6.25432		
0.685246	4.63715	0.305571	2.06462	0.683892	4.63817	0.761294	5.15597	0.847294	5.74192			0.64036	4.33665	0.742085	5.03002	0.918017	6.23101		
0.68913	4.63422	0.30765	2.06566	0.687778	4.63524	0.764808	5.14729	0.850286	5.72604			0.643434	4.33015	0.745362	5.02053	0.920419	6.20805		
0.693009	4.63129	0.309729	2.06669	0.691659	4.63231	0.768333	5.13879	0.853287	5.71043			0.646491	4.32362	0.748651	5.01123	0.92283	6.18544		
0.696882	4.62835	0.311807	2.0677	0.695533	4.62937	0.771866	5.13045	0.856299	5.69507			0.649531	4.31704	0.751951	5.00212	0.92525	6.16317		
0.700748	4.6254	0.313886	2.0687	0.699402	4.62643	0.775408	5.12227	0.85932	5.67997			0.652553	4.31044	0.755261	4.9932	0.927678	6.14124		
0.704607	4.62245	0.315964	2.06969	0.703264	4.62348	0.778959	5.11425	0.862351	5.66511			0.655557	4.30379	0.758583	4.98445	0.930116	6.11963		
0.70846	4.61949	0.318042	2.07067	0.707119	4.62052	0.782519	5.10639	0.865391	5.6505			0.658543	4.29711	0.761915	4.97589	0.932563	6.09835		
0.712306	4.61652	0.32012	2.07163	0.710967	4.61756	0.786088	5.09868	0.868441	5.63613			0.661511	4.2904	0.765258	4.96749	0.93502	6.07739		
0.716144	4.61354	0.322198	2.07258	0.714808	4.61458	0.789665	5.09112	0.871501	5.622			0.664461	4.28364	0.768611	4.95927	0.937485	6.05673		
0.719975	4.61055	0.324276	2.07352	0.718642	4.61159	0.793251	5.0837	0.874571	5.60809			0.667393	4.27686	0.771974	4.9512	0.939959	6.03638		
0.723799	4.60754	0.326354	2.07445	0.722468	4.60859	0.796845	5.07642	0.87765	5.59441			0.670307	4.27004	0.775348	4.9433	0.942442	6.01633		
0.727614	4.60452	0.328432	2.07537	0.726286	4.60557	0.800447	5.06928	0.880739	5.58096			0.673203	4.26318	0.778732	4.93556	0.944934	5.99657		
0.731421	4.60148	0.33051	2.07627	0.730096	4.60254	0.804057	5.06227	0.883837	5.56772			0.676081	4.2563	0.782125	4.92796	0.947435	5.9771		
0.735221	4.59843	0.332587	2.07717	0.733898	4.5995	0.807675	5.0554	0.886945	5.5547			0.678941	4.24938	0.785528	4.92052	0.949945	5.95792		
0.739011	4.59536	0.334665	2.07805	0.737692	4.59643	0.811301	5.04865	0.890063	5.54189			0.681783	4.24243	0.788941	4.91322	0.952464	5.93901		
0.742794	4.59228	0.336742	2.07892	0.741477	4.59335	0.814935	5.04203	0.89319	5.52928			0.684607	4.23544	0.792363	4.90607	0.954992	5.92038		
0.746567	4.58917	0.33882	2.07978	0.745254	4.59025	0.818577	5.03553	0.896327	5.51688			0.687413	4.22843	0.795794	4.89905	0.957529	5.90202		
0.750331	4.58604	0.340897	2.08064	0.749021	4.58713	0.822225	5.02915	0.899474	5.50468			0.690201	4.22139	0.799234	4.89217	0.960075	5.88392		
0.754086	4.5829	0.342974	2.08148	0.752779	4.58399	0.825882	5.02289	0.90263	5.49268			0.692972	4.21432	0.802683	4.88542	0.962629	5.86608		
0.757832	4.57973	0.345051	2.08231	0.756528	4.58083	0.829545	5.01675	0.905796	5.48087			0.695724	4.20722	0.80614	4.87879	0.965193	5.8485		
0.761568	4.57654	0.347128	2.08313	0.760267	4.57765	0.833216	5.01072	0.908972	5.46925			0.698459	4.20009	0.809606	4.8723	0.967766	5.83117		
0.765294	4.57333	0.349205	2.08394	0.763997	4.57445	0.836894	5.00479	0.912157	5.45782			0.701176	4.19294	0.81308	4.86592	0.970347	5.81408		
0.769011	4.57009	0.351282	2.08475	0.767717	4.57122	0.840579	4.99898	0.915352	5.44658			0.703876	4.18576	0.816561	4.85966	0.972938	5.79724		
0.772717	4.56683	0.353359	2.08554	0.771427	4.56797	0.844271	4.99326	0.918556	5.43551			0.706558	4.17856	0.820051	4.85351	0.975538	5.78064		
0.776413	4.56355	0.355435	2.08632	0.775127	4.56469	0.847969	4.98765	0.92177	5.42462			0.709223	4.17134	0.823548	4.84748	0.978146	5.76427		
0.780099	4.56024	0.357512	2.0871	0.778816	4.56139	0.851674	4.98214	0.924994	5.41391			0.711871	4.16409	0.827052	4.84155	0.980763	5.74814		
0.783775	4.55691	0.359589	2.08787	0.782496	4.55807	0.855386	4.97673	0.928227	5.40337			0.714502	4.15683	0.830563	4.83573	0.983389	5.73223		
0.787439	4.55355	0.361665	2.08862	0.786164	4.55472	0.859104	4.97141	0.93147	5.393			0.717115	4.14954	0.834081	4.83002	0.986025	5.71654		
0.791093	4.55016	0.363742	2.08937	0.789822	4.55134	0.862828	4.96619	0.934723	5.38279			0.719712	4.14224	0.837606	4.8244	0.988669	5.70108		
0.794737	4.54675	0.365818	2.09011	0.793469	4.54794	0.866558	4.96106	0.937986	5.37275			0.722293	4.13491	0.841137	4.81888	0.991322	5.68583		
0.798369	4.54331	0.367894	2.09085	0.797105	4.54451	0.870295	4.95601	0.941258	5.36288			0.724856	4.12757	0.844674	4.81345	0.993984	5.67079		
0.80199	4.53985	0.36997	2.09157	0.80073	4.54106	0.874037	4.95106	0.944539	5.35316			0.727403	4.12022	0.848217	4.80811	0.996654	5.65596		
0.8056	4.53636	0.372047	2.09229	0.804344	4.53758	0.877785	4.94618	0.947831	5.34359			0.729934	4.11285	0.851765	4.80286	0.999334	5.64134		
0.809198	4.53284	0.374123	2.093	0.807946	4.53407	0.881539	4.94139	0.951132	5.33419			0.732449	4.10547	0.85532	4.79769	1.00202	5.62693		
0.812785	4.52929	0.376199	2.0937	0.811537	4.53053	0.885298	4.93668	0.954442	5.32493			0.734947	4.09807	0.858879	4.79261				
0.81636	4.52572	0.378275	2.09439	0.815116	4.52697	0.889063	4.93205	0.957763	5.31582			0.73743	4.09066	0.862443	4.78761				
0.819924	4.52212	0.380351	2.09508	0.818684	4.52338	0.892833	4.9275	0.961093	5.30686			0.739897	4.08325	0.866012	4.78269				
0.823476	4.51849	0.382426	2.09576	0.82224	4.51976	0.896608	4.92302	0.964433	5.29805			0.742349	4.07582	0.869585	4.77784				
0.827016	4.51484	0.384502	2.09643	0.825785	4.51611	0.900388	4.91861	0.967782	5.28938			0.744785	4.06838	0.873163	4.77306				
0.830545	4.51115	0.386578	2.09709	0.829317	4.51244	0.904173	4.91428	0.971142	5.28085			0.747206	4.06094	0.876745	4.76835				
0.834061	4.50744	0.388653	2.09775	0.832838	4.50874	0.907963	4.91001	0.974511	5.27245			0.749612	4.05349	0.88033	4.76372				
0.837566	4.50371	0.390729	2.0984	0.836346	4.50501	0.911757	4.90581	0.977889	5.2642			0.752003	4.04604	0.883919	4.75914				
0.841058	4.49994	0.392805	2.09904	0.839843	4.50126	0.915555	4.90168	0.981278	5.25608			0.75438	4.03858	0.887512	4.75463				
0.844538	4.49615	0.39488	2.09968	0.843327	4.49747	0.919358	4.89761	0.984676	5.24809			0.756741	4.03111	0.891107	4.75019				
0.848006	4.49233	0.396956	2.10031	0.846799	4.49366	0.923165	4.8936	0.988083	5.24023			0.759089	4.02365	0.894706	4.7458				
0.851462	4.48848	0.399031	2.10094	0.850259	4.48982	0.926976	4.88965	0.991501	5.2325			0.761422	4.01618	0.898307	4.74147				
0.854905	4.48461	0.401106	2.10155	0.853707	4.48596	0.93079	4.88576	0.994928	5.22489			0.763741	4.00871	0.90191	4.73719				
0.858336	4.48071	0.403181	2.10216	0.857143	4.48207	0.934609	4.88193	0.998365	5.21742			0.766046	4.00125	0.905516	4.73297				
0.861755	4.47678	0.405257	2.10277	0.860566	4.47815	0.93843	4.87815	1.00181	5.21006			0.768338	3.99378	0.909124	4.7288				
0.865161	4.47283	0.407332	2.10337	0.863976	4.47421	0.942255	4.87442					0.770616	3.98632	0.912733	4.72467				
0.868555	4.46885	0.409407	2.10396	0.867375	4.47024	0.946083	4.87075					0.772881	3.97885	0.916344	4.7206				
0.871937	4.46484	0.411482	2.10455	0.87076	4.46624	0.949914	4.86713					0.775132	3.9714	0.919956	4.71657				
0.875306	4.46081	0.413557	2.10513	0.874134	4.46222	0.953748	4.86355					0.777371	3.96394	0.92357	4.71259				
0.878663	4.45676	0.415632	2.10571	0.877495	4.45817	0.957585	4.86003					0.779596	3.9565	0.927184	4.70864				
0.882007	4.45268	0.417707	2.10628	0.880843	4.4541	0.961424	4.85655					0.781809	3.94905	0.9308	4.70474				
0.885338	4.44857	0.419782	2.10684	0.884179	4.45001	0.965265	4.85311					0.78401	3.94162	0.934415	4.70088				
0.888658	4.44445	0.421856	2.1074	0.887503	4.44589	0.969109	4.84972					0.786198	3.93419	0.938031	4.69706				
0.891965	4.44029	0.423931	2.10795	0.890814	4.44174	0.972954	4.84637					0.788374	3.92677	0.941648	4.69327				
0.895259	4.43612	0.426006	2.1085	0.894113	4.43758	0.976802	4.84305					0.790538	3.91936	0.945264	4.68951				
0.898541	4.43192	0.428081	2.10904	0.897399	4.43338	0.980651	4.83978					0.79269	3.91197	0.948879	4.68579				
0.90181	4.4277	0.430155	2.10958	0.900673	4.42917	0.984501	4.83654					0.794831	3.90458	0.952495	4.6821				
0.905067	4.42346	0.43223	2.11011	0.903934	4.42494	0.988353	4.83334					0.79696	3.8972	0.956109	4.67845				
0.908312	4.41919	0.434304	2.11064	0.907183	4.42068	0.992206	4.83018					0.799078	3.88983	0.959723	4.67482				
0.911544	4.4149	0.436379	2.11116	0.91042	4.4164	0.996059	4.82704					0.801184	3.88248	0.963335	4.67121				
0.914764	4.4106	0.438453	2.11168	0.913644	4.4121	0.999914	4.82394					0.80328	3.87514	0.966947	4.66764				
0.917972	4.40627	0.440527	2.11219	0.916856	4.40778	1.00377	4.82087					0.805365	3.86781	0.970557	4.66409				
0.921167	4.40192	0.442602	2.1127	0.920056	4.40344							0.807439	3.8605	0.974165	4.66056				
0.92435	4.39755	0.444676	2.1132	0.923243	4.39908							0.809503	3.8532	0.977771	4.65706				
0.927521	4.39316	0.44675	2.1137	0.926418	4.39469							0.811557	3.84592	0.981376	4.65357				
0.93068	4.38876	0.448824	2.1142	0.929581	4.39029							0.8136	3.83866	0.984978	4.65011				
0.933826	4.38433	0.450899	2.11469	0.932732	4.38588							0.815633	3.83141	0.988578	4.64667				
0.936961	4.37989	0.452973	2.11517	0.93587	4.38144							0.817657	3.82418	0.992176	4.64324				
0.940083	4.37543	0.455047	2.11565	0.938997	4.37698							0.819671	3.81696	0.995771	4.63984				
0.943193	4.37095	0.457121	2.11613	0.942111	4.37251							0.821675	3.80977	0.999363	4.63645				
0.946291	4.36645	0.459195	2.1166	0.945213	4.36802							0.82367	3.80259	1.00295	4.63307				
0.949377	4.36194	0.461269	2.11707	0.948304	4.36352							0.825655	3.79543						
0.952452	4.35741	0.463343	2.11753	0.951382	4.35899							0.827632	3.78829						
0.955514	4.35287	0.465417	2.11799	0.954449	4.35445							0.8296	3.78117						
0.958565	4.34831	0.467491	2.11845	0.957503	4.3499							0.831559	3.77408						
0.961603	4.34374	0.469564	2.1189	0.960546	4.34533							0.833509	3.767						
0.96463	4.33915	0.471638	2.11935	0.963577	4.34075							0.835451	3.75994						
0.967646	4.33455	0.473712	2.11979	0.966597	4.33615							0.837385	3.75291						
0.970649	4.32993	0.475785	2.12023	0.969605	4.33154							0.83931	3.7459						
0.973641	4.3253	0.477859	2.12067	0.972601	4.32692							0.841227	3.73891						
0.976622	4.32066	0.479933	2.1211	0.975585	4.32228							0.843137	3.73194						
0.979591	4.316	0.482006	2.12153	0.978558	4.31763							0.845038	3.72499						
0.982549	4.31134	0.48408	2.12195	0.98152	4.31296							0.846933	3.71807						
0.985495	4.30666	0.486153	2.12237	0.98447	4.30829							0.848819	3.71118						
0.98843	4.30197	0.488227	2.12279	0.987409	4.3036							0.850699	3.7043						
0.991353	4.29727	0.4903	2.1232	0.990336	4.29891							0.852571	3.69745						
0.994265	4.29255	0.492374	2.12362	0.993252	4.2942							0.854436	3.69063						
0.997167	4.28783	0.494447	2.12402	0.996157	4.28948							0.856294	3.68383						
1.00006	4.2831	0.49652	2.12443	0.999051	4.28475							0.858145	3.67706						
		0.498594	2.12483	1.00193	4.28001							0.859989	3.67031						
		0.500667	2.12522									0.861827	3.66359						
		0.50274	2.12562									0.863659	3.65689						
		0.504813	2.12601									0.865484	3.65022						
		0.506887	2.1264									0.867303	3.64357						
		0.50896	2.12678									0.869116	3.63695						
		0.511033	2.12716									0.870923	3.63036						
		0.513106	2.12754									0.872725	3.62379						
		0.515179	2.12792									0.87452	3.61726						
		0.517252	2.12829									0.87631	3.61074						
		0.519325	2.12866									0.878094	3.60426						
		0.521398	2.12902									0.879873	3.5978						
		0.523471	2.12939									0.881647	3.59137						
		0.525544	2.12975									0.883416	3.58497						
		0.527617	2.1301									0.885179	3.5786						
		0.529689	2.13046									0.886938	3.57225						
		0.531762	2.13081									0.888691	3.56593						
		0.533835	2.13116									0.89044	3.55964						
		0.535908	2.13151									0.892184	3.55338						
		0.53798	2.13185									0.893924	3.54715						
		0.540053	2.13219									0.89566	3.54094						
		0.542126	2.13253									0.89739	3.53477						
		0.544198	2.13287									0.899117	3.52862						
		0.546271	2.1332									0.90084	3.5225						
		0.548343	2.13353									0.902558	3.51641						
		0.550416	2.13386									0.904273	3.51034						
		0.552489	2.13419									0.905983	3.50431						
		0.554561	2.13451									0.90769	3.49831						
		0.556633	2.13483									0.909393	3.49233						
		0.558706	2.13515									0.911092	3.48638						
		0.560778	2.13547									0.912788	3.48046						
		0.562851	2.13578									0.914481	3.47457						
		0.564923	2.13609									0.91617	3.46871						
		0.566995	2.1364									0.917855	3.46288						
		0.569068	2.13671									0.919538	3.45707						
		0.57114	2.13701									0.921217	3.4513						
		0.573212	2.13732									0.922894	3.44555						
		0.575284	2.13762									0.924567	3.43983						
		0.577357	2.13792									0.926237	3.43414						
		0.579429	2.13821									0.927905	3.42848						
		0.581501	2.13851									0.929569	3.42285						
		0.583573	2.1388									0.931231	3.41725						
		0.585645	2.13909									0.932891	3.41167						
		0.587717	2.13938									0.934548	3.40612						
		0.589789	2.13966									0.936202	3.40061						
		0.591861	2.13995									0.937854	3.39512						
		0.593933	2.14023									0.939503	3.38965						
		0.596005	2.14051									0.94115	3.38422						
		0.598077	2.14079									0.942795	3.37882						
		0.600149	2.14106									0.944438	3.37344						
		0.602221	2.14134									0.946079	3.36809						
		0.604293	2.14161									0.947717	3.36277						
		0.606365	2.14188									0.949354	3.35748						
		0.608436	2.14215									0.950988	3.35221						
		0.610508	2.14241									0.952621	3.34698						
		0.61258	2.14268									0.954252	3.34177						
		0.614652	2.14294									0.955881	3.33659						
		0.616724	2.1432									0.957508	3.33143						
		0.618795	2.14346									0.959134	3.32631						
		0.620867	2.14372									0.960758	3.32121						
		0.622939	2.14398									0.96238	3.31613						
		0.62501	2.14423									0.964001	3.31109						
		0.627082	2.14448									0.965621	3.30607						
		0.629153	2.14473									0.967239	3.30108						
		0.631225	2.14498									0.968855	3.29612						
		0.633297	2.14523									0.970471	3.29118						
		0.635368	2.14548									0.972085	3.28627						
		0.63744	2.14572									0.973697	3.28139						
		0.639511	2.14596									0.975309	3.27653						
		0.641583	2.1462									0.976919	3.2717						
		0.643654	2.14644									0.978529	3.2669						
		0.645725	2.14668									0.980137	3.26212						
		0.647797	2.14692									0.981744	3.25737						
		0.649868	2.14715									0.98335	3.25264						
		0.65194	2.14739									0.984955	3.24794						
		0.654011	2.14762									0.98656	3.24327						
		0.656082	2.14785									0.988163	3.23862						
		0.658154	2.14808									0.989766	3.234						
		0.660225	2.1483									0.991367	3.2294						
		0.662296	2.14853									0.992968	3.22483						
		0.664367	2.14876									0.994569	3.22028						
		0.666439	2.14898									0.996168	3.21576						
		0.66851	2.1492									0.997767	3.21126						
		0.670581	2.14942									0.999365	3.20679						
		0.672652	2.14964									1.00096	3.20234						
		0.674723	2.14986																
		0.676794	2.15007																
		0.678865	2.15029																
		0.680937	2.1505																
		0.683008	2.15072																
		0.685079	2.15093																
		0.68715	2.15114																
		0.689221	2.15134																
		0.691292	2.15155																
		0.693363	2.15176																
		0.695434	2.15196																
		0.697504	2.15217																
		0.699575	2.15237																
		0.701646	2.15257																
		0.703717	2.15277																
		0.705788	2.15297																
		0.707859	2.15317																
		0.70993	2.15336																
		0.712	2.15356																
		0.714071	2.15375																
		0.716142	2.15394																
		0.718213	2.15414																
		0.720283	2.15433																
		0.722354	2.15452																
		0.724425	2.1547																
		0.726495	2.15489																
		0.728566	2.15508																
		0.730637	2.15526																
		0.732707	2.15545																
		0.734778	2.15563																
		0.736848	2.15581																
		0.738919	2.15599																
		0.740989	2.15617																
		0.74306	2.15635																
		0.74513	2.15653																
		0.747201	2.15671																
		0.749271	2.15688																
		0.751342	2.15706																
		0.753412	2.15723																
		0.755483	2.1574																
		0.757553	2.15757																
		0.759623	2.15775																
		0.761694	2.15792																
		0.763764	2.15808																
		0.765834	2.15825																
		0.767905	2.15842																
		0.769975	2.15859																
		0.772045	2.15875																
		0.774116	2.15892																
		0.776186	2.15908																
		0.778256	2.15924																
		0.780326	2.1594																
		0.782396	2.15956																
		0.784466	2.15972																
		0.786537	2.15988																
		0.788607	2.16004																
		0.790677	2.1602																
		0.792747	2.16036																
		0.794817	2.16051																
		0.796887	2.16067																
		0.798957	2.16082																
		0.801027	2.16097																
		0.803097	2.16113																
		0.805167	2.16128																
		0.807237	2.16143																
		0.809307	2.16158																
		0.811377	2.16173																
		0.813447	2.16188																
		0.815517	2.16202																
		0.817587	2.16217																
		0.819657	2.16232																
		0.821727	2.16246																
		0.823796	2.16261																
		0.825866	2.16275																
		0.827936	2.16289																
		0.830006	2.16304																
		0.832076	2.16318																
		0.834145	2.16332																
		0.836215	2.16346																
		0.838285	2.1636																
		0.840355	2.16374																
		0.842424	2.16388																
		0.844494	2.16401																
		0.846564	2.16415																
		0.848633	2.16429																
		0.850703	2.16442																
		0.852773	2.16456																
		0.854842	2.16469																
		0.856912	2.16482																
		0.858981	2.16496																
		0.861051	2.16509																
		0.863121	2.16522																
		0.86519	2.16535																
		0.86726	2.16548																
		0.869329	2.16561																
		0.871399	2.16574																
		0.873468	2.16587																
		0.875538	2.16599																
		0.877607	2.16612																
		0.879676	2.16625																
		0.881746	2.16637																
		0.883815	2.1665																
		0.885885	2.16662																
		0.887954	2.16674																
		0.890023	2.16687																
		0.892093	2.16699																
		0.894162	2.16711																
		0.896231	2.16723																
		0.8983	2.16735																
		0.90037	2.16748																
		0.902439	2.1676																
		0.904508	2.16771																
		0.906578	2.16783																
		0.908647	2.16795																
		0.910716	2.16807																
		0.912785	2.16818																
		0.914854	2.1683																
		0.916923	2.16842																
		0.918993	2.16853																
		0.921062	2.16865																
		0.923131	2.16876																
		0.9252	2.16887																
		0.927269	2.16899																
		0.929338	2.1691																
		0.931407	2.16921																
		0.933476	2.16932																
		0.935545	2.16943																
		0.937614	2.16955																
		0.939683	2.16966																
		0.941752	2.16976																
		0.943821	2.16987																
		0.94589	2.16998																
		0.947959	2.17009																
		0.950028	2.1702																
		0.952097	2.1703																
		0.954166	2.17041																
		0.956234	2.17052																
		0.958303	2.17062																
		0.960372	2.17073																
		0.962441	2.17083																
		0.96451	2.17094																
		0.966579	2.17104																
		0.968647	2.17114																
		0.970716	2.17125																
		0.972785	2.17135																
		0.974854	2.17145																
		0.976922	2.17155																
		0.978991	2.17165																
		0.98106	2.17175																
		0.983128	2.17185																
		0.985197	2.17195																
		0.987266	2.17205																
		0.989334	2.17215																
		0.991403	2.17225																
		0.993472	2.17235																
		0.99554	2.17244																
		0.997609	2.17254																
		0.999677	2.17264																
		1.00175	2.17273																
