Sym0		Asym0		Sym1		Sym2		Sym3		Sym4		Asym1		Asym2		Asym3		Asym4	
256  Points		500  Points		256  Points		229  Points		211  Points		146  Points		336  Points		238  Points		196  Points		115  Points	
Freq (MHz)	Vph (m/ms)	Freq (MHz)	Vph (m/ms)	Freq (MHz)	Vph (m/ms)	Freq (MHz)	Vph (m/ms)	Freq (MHz)	Vph (m/ms)	Freq (MHz)	Vph (m/ms)	Freq (MHz)	Vph (m/ms)	Freq (MHz)	Vph (m/ms)	Freq (MHz)	Vph (m/ms)	Freq (MHz)	Vph (m/ms)
0.279509	3127.94	7.73067e-005	0.0712384	0.279509	1646.12	0.475308	819.984	0.559032	609.094	0.838527	2042.35	0.139776	281.107	0.419263	7622.37	0.698775	1203.13	0.95061	2135.4
0.279537	273.773	0.000266689	0.132228	0.279542	253.785	0.475324	314.503	0.55908	302.286	0.838545	624.724	0.13993	97.9268	0.419283	424.935	0.698799	462.018	0.950615	690.422
0.279614	143.19	0.000568319	0.192744	0.279623	137.529	0.475354	194.574	0.559159	201.049	0.838581	368.776	0.140234	59.4055	0.419341	218.59	0.698844	285.921	0.950624	411.783
0.279739	96.982	0.000980485	0.252685	0.279752	94.3552	0.475399	140.87	0.559269	150.629	0.838635	261.611	0.140685	42.7312	0.419436	147.166	0.69891	207.03	0.950638	293.384
0.279912	73.3495	0.00150058	0.311844	0.279929	71.8397	0.475458	110.406	0.559412	120.444	0.838708	202.716	0.141281	33.4471	0.419567	110.944	0.698998	162.272	0.950657	227.869
0.280133	59.0022	0.00212559	0.370076	0.280154	58.0237	0.475531	90.7826	0.559586	100.351	0.838799	165.475	0.142019	27.546	0.419735	89.05	0.699106	133.436	0.950681	186.275
0.280401	49.3705	0.00285191	0.42723	0.280427	48.6854	0.475619	77.0879	0.559792	86.0162	0.838909	139.801	0.142896	23.4741	0.41994	74.3892	0.699236	113.311	0.950709	157.524
0.280717	42.4607	0.00367564	0.483188	0.280747	41.9547	0.475722	66.9887	0.560029	75.276	0.839037	121.031	0.143909	20.5025	0.420182	63.8878	0.699386	98.4682	0.950743	136.463
0.28108	37.2642	0.00459249	0.537841	0.281114	36.8754	0.475839	59.2339	0.560298	66.9302	0.839183	106.71	0.145052	18.2437	0.42046	55.9974	0.699558	87.0708	0.950781	120.371
0.281491	33.2158	0.00559789	0.591091	0.281528	32.9079	0.475971	53.0927	0.560598	60.2595	0.839348	95.4258	0.146321	16.4729	0.420775	49.8534	0.699751	78.0445	0.950825	107.676
0.281948	29.9743	0.00668729	0.642877	0.28199	29.7246	0.476118	48.1092	0.560929	54.8063	0.839532	86.3048	0.147711	15.0508	0.421127	44.9348	0.699965	70.7196	0.950874	97.4045
0.282451	27.3217	0.00785585	0.693133	0.282497	27.1151	0.47628	43.9847	0.561292	50.2659	0.839734	78.7801	0.149217	13.886	0.421515	40.9093	0.7002	64.6571	0.950928	88.9232
0.283001	25.1117	0.00909895	0.741831	0.283051	24.9381	0.476457	40.5151	0.561685	46.4274	0.839954	72.4666	0.150835	12.9166	0.421939	37.5546	0.700457	59.5569	0.950988	81.8018
0.283596	23.243	0.0104118	0.788939	0.28365	23.0951	0.476649	37.556	0.562109	43.1402	0.840193	67.0941	0.152559	12.0989	0.422399	34.7167	0.700734	55.207	0.951053	75.7377
0.284237	21.6428	0.0117898	0.834445	0.284295	21.5154	0.476857	35.0028	0.562565	40.2939	0.840449	62.467	0.154384	11.4012	0.422895	32.2852	0.701032	51.4536	0.951124	70.5116
0.284923	20.2579	0.0132285	0.878349	0.284984	20.147	0.477081	32.7776	0.56305	37.8058	0.840725	58.4405	0.156053	10.8726	0.423427	30.1792	0.701351	48.1822	0.951201	65.9613
0.285653	19.048	0.0147235	0.920664	0.285718	18.9507	0.47732	30.8212	0.563566	35.6126	0.841018	54.905	0.15753	10.4706	0.423995	28.3379	0.701691	45.3057	0.951283	61.9636
0.286427	17.9824	0.0162709	0.961412	0.286496	17.8964	0.477576	29.0877	0.564113	33.6651	0.84133	51.7761	0.158789	10.1675	0.424598	26.7147	0.702051	42.7569	0.951372	58.4238
0.287244	17.0372	0.0178666	1.00061	0.287317	16.9606	0.477848	27.5414	0.56469	31.9244	0.84166	48.9876	0.159808	9.94456	0.425237	25.2734	0.702433	40.483	0.951467	55.2675
0.288105	16.1933	0.019507	1.0383	0.288181	16.1247	0.478136	26.1536	0.565296	30.3596	0.842009	46.487	0.160569	9.78924	0.425911	23.9852	0.702835	38.442	0.951568	52.4356
0.289008	15.4358	0.0211886	1.07452	0.289088	15.374	0.478442	24.9013	0.565932	28.9454	0.842375	44.232	0.161062	9.69343	0.42662	22.8274	0.703258	36.6	0.951676	49.8807
0.289953	14.7521	0.022908	1.1093	0.290036	14.6962	0.478764	23.7656	0.566598	27.6613	0.84276	42.1883	0.161777	9.56037	0.427364	21.7814	0.703702	34.9294	0.951791	47.564
0.290938	14.1324	0.0246623	1.1427	0.291026	14.0816	0.479103	22.7311	0.567294	26.4904	0.843163	40.3276	0.162565	9.42165	0.428142	20.8318	0.704167	33.4075	0.951912	45.4537
0.291965	13.5682	0.0264485	1.17475	0.292056	13.5219	0.47946	21.7851	0.568018	25.4183	0.843584	38.6264	0.163652	9.24226	0.428954	19.9662	0.704652	32.0154	0.952041	43.5236
0.293032	13.0526	0.0282641	1.2055	0.293126	13.0102	0.479835	20.9166	0.568771	24.4333	0.844023	37.0653	0.165053	9.0295	0.429801	19.1741	0.705157	30.7372	0.952176	41.7514
0.294138	12.5798	0.0301065	1.23501	0.294235	12.5408	0.480227	20.1167	0.569554	23.5254	0.84448	35.6277	0.166783	8.79131	0.430682	18.4467	0.705683	29.5597	0.952319	40.1187
0.295283	12.1448	0.0319735	1.26331	0.295384	12.1089	0.480638	19.3777	0.570364	22.6858	0.844956	34.2995	0.168863	8.53563	0.431596	17.7765	0.70623	28.4714	0.952469	38.6096
0.296466	11.7435	0.033863	1.29046	0.29657	11.7103	0.481068	18.6928	0.571203	21.9074	0.845449	33.0688	0.171312	8.26995	0.432544	17.1571	0.706797	27.4627	0.952627	37.2107
0.297686	11.3721	0.035773	1.31651	0.297793	11.3414	0.481516	18.0566	0.572071	21.1837	0.84596	31.9254	0.173825	8.03009	0.433524	16.5832	0.707384	26.5253	0.952793	35.9102
0.298944	11.0277	0.0377018	1.3415	0.299054	10.9991	0.481984	17.4639	0.572966	20.5092	0.846489	30.8603	0.176398	7.81269	0.434538	16.0499	0.707991	25.6519	0.952966	34.6983
0.300237	10.7074	0.0396478	1.36547	0.300182	10.7204	0.482471	16.9107	0.573889	19.8793	0.847036	29.8658	0.179028	7.61496	0.435585	15.5533	0.708619	24.8362	0.953148	33.5662
0.301566	10.4089	0.0416093	1.38847	0.301164	10.4961	0.482978	16.3931	0.574839	19.2897	0.847601	28.9352	0.181713	7.43451	0.436663	15.0899	0.709267	24.0728	0.953337	32.5064
0.302929	10.1302	0.0435849	1.41054	0.301992	10.3191	0.483505	15.908	0.575816	18.7367	0.848184	28.0625	0.184449	7.26934	0.437774	14.6564	0.709934	23.3569	0.953535	31.512
0.304327	9.86944	0.0455735	1.43173	0.302655	10.1843	0.484053	15.4523	0.576821	18.2171	0.848784	27.2426	0.187233	7.11772	0.438917	14.2501	0.710622	22.6842	0.953741	30.5773
0.305758	9.62502	0.0475739	1.45207	0.303148	10.0879	0.484621	15.0236	0.577852	17.728	0.849402	26.4709	0.190064	6.97818	0.440091	13.8687	0.71133	22.051	0.953956	29.6972
0.307222	9.39553	0.0495849	1.4716	0.303465	10.0274	0.485211	14.6196	0.57891	17.2669	0.850038	25.7432	0.192938	6.84942	0.441297	13.51	0.712057	21.4539	0.954179	28.8669
0.308717	9.17971	0.0516057	1.49036	0.303925	9.94205	0.485822	14.2383	0.579994	16.8315	0.850691	25.056	0.195855	6.73034	0.442533	13.1722	0.712804	20.89	0.954411	28.0823
0.310244	8.97643	0.0536352	1.50839	0.304429	9.8513	0.486454	13.8779	0.581104	16.4198	0.851362	24.406	0.198811	6.61997	0.4438	12.8534	0.713571	20.3566	0.954653	27.3399
0.311802	8.78469	0.0554102	1.52352	0.305121	9.73119	0.487109	13.5368	0.58224	16.0299	0.852051	23.7903	0.201804	6.51745	0.445097	12.5523	0.714358	19.8514	0.954903	26.6364
0.313389	8.60357	0.0569278	1.53602	0.306007	9.58451	0.487787	13.2135	0.583402	15.6601	0.852757	23.2064	0.204834	6.42205	0.446425	12.2674	0.715164	19.3723	0.955162	25.9687
0.315006	8.43228	0.0581856	1.54608	0.307096	9.41451	0.488487	12.9067	0.584589	15.3091	0.85348	22.6517	0.207897	6.33311	0.447782	11.9975	0.715989	18.9172	0.95543	25.3343
0.316651	8.27007	0.0591818	1.55387	0.308395	9.22474	0.48921	12.6153	0.585801	14.9755	0.854221	22.1243	0.210993	6.25003	0.449168	11.7416	0.716834	18.4845	0.955708	24.7307
0.318325	8.11628	0.0599152	1.5595	0.309915	9.01886	0.489957	12.3381	0.587038	14.658	0.854979	21.6222	0.21412	6.17232	0.450584	11.4985	0.717698	18.0726	0.955995	24.1557
0.320026	7.97031	0.060385	1.56306	0.311466	8.82473	0.490728	12.0742	0.5883	14.3555	0.855754	21.1436	0.217277	6.09949	0.452028	11.2675	0.718582	17.68	0.956292	23.6075
0.321753	7.83161	0.0610608	1.56813	0.313047	8.64142	0.491523	11.8228	0.589586	14.0671	0.856547	20.687	0.220462	6.03116	0.453501	11.0476	0.719484	17.3055	0.956599	23.0841
0.323507	7.69969	0.0617961	1.57357	0.314658	8.46809	0.492343	11.5829	0.590896	13.7918	0.857357	20.2508	0.223674	5.96693	0.454808	10.8646	0.720405	16.9479	0.956915	22.584
0.325287	7.57408	0.0627971	1.58084	0.316297	8.304	0.493188	11.3539	0.59223	13.5287	0.858184	19.8339	0.226911	5.90649	0.455938	10.7144	0.721346	16.606	0.957241	22.1056
0.327091	7.45439	0.0640649	1.58985	0.317965	8.14846	0.494058	11.1351	0.593588	13.2772	0.859027	19.4349	0.230173	5.84953	0.456884	10.5942	0.722305	16.279	0.957577	21.6476
0.32892	7.34022	0.0656003	1.60046	0.31966	8.00087	0.494837	10.9523	0.59497	13.0364	0.859888	19.0528	0.233458	5.79579	0.45764	10.5015	0.723283	15.9657	0.957923	21.2087
0.330774	7.23123	0.0674046	1.61254	0.321382	7.86066	0.495517	10.8018	0.596375	12.8058	0.860766	18.6865	0.236766	5.74503	0.4582	10.4347	0.724279	15.6656	0.95828	20.7878
0.332651	7.12709	0.0694787	1.62592	0.32313	7.72733	0.49609	10.6811	0.597803	12.5846	0.861661	18.335	0.240095	5.69701	0.45856	10.3925	0.725294	15.3776	0.958646	20.3837
0.334551	7.02752	0.0715564	1.63881	0.324904	7.60041	0.49655	10.5878	0.599254	12.3725	0.862572	17.9976	0.243444	5.65155	0.459079	10.3326	0.726328	15.1012	0.959023	19.9956
0.336474	6.93225	0.0736373	1.65123	0.326704	7.47949	0.496892	10.5205	0.600727	12.1689	0.863501	17.6734	0.246813	5.60846	0.459648	10.2685	0.727379	14.8357	0.95941	19.6225
0.338419	6.84101	0.075721	1.66321	0.328528	7.36416	0.497113	10.4779	0.602223	11.9732	0.864445	17.3617	0.250201	5.56757	0.460427	10.1829	0.72845	14.5805	0.959807	19.2636
0.340387	6.7536	0.0778073	1.67476	0.330376	7.2541	0.497433	10.4174	0.603741	11.7851	0.865407	17.0617	0.253607	5.52873	0.46142	10.0773	0.729538	14.3349	0.960216	18.918
0.342377	6.66978	0.0798958	1.68591	0.332248	7.14895	0.497785	10.3527	0.605281	11.6041	0.866385	16.7729	0.25703	5.4918	0.462636	9.95343	0.730644	14.0986	0.960634	18.5851
0.344388	6.58936	0.0819863	1.69666	0.334143	7.04843	0.498268	10.2661	0.606843	11.4299	0.86738	16.4947	0.260469	5.45666	0.46408	9.81308	0.731768	13.8709	0.961064	18.2642
0.346421	6.51217	0.0840785	1.70705	0.336061	6.95226	0.498888	10.1591	0.608426	11.2621	0.868391	16.2264	0.263924	5.42318	0.465761	9.65835	0.73291	13.6514	0.961504	17.9547
0.348475	6.43803	0.0861723	1.71708	0.338002	6.86018	0.499652	10.0332	0.609823	11.1208	0.869418	15.9676	0.267394	5.39127	0.467468	9.51001	0.73407	13.4398	0.961955	17.6559
0.350551	6.36679	0.0882674	1.72676	0.339965	6.77196	0.500568	9.89036	0.611027	11.0039	0.870462	15.7178	0.270878	5.36082	0.4692	9.36769	0.735247	13.2356	0.962417	17.3674
0.352648	6.2983	0.0903636	1.73613	0.34195	6.68739	0.501645	9.73248	0.612031	10.9095	0.871522	15.4766	0.274376	5.33173	0.470957	9.23106	0.736442	13.0384	0.96289	17.0886
0.354767	6.23243	0.0924609	1.74518	0.343957	6.60627	0.50275	9.58074	0.612831	10.8363	0.872598	15.2435	0.277887	5.30394	0.472739	9.09981	0.737654	12.8479	0.963374	16.8191
0.356907	6.16905	0.0945589	1.75394	0.345985	6.5284	0.503884	9.43484	0.613422	10.7833	0.87369	15.0181	0.281411	5.27735	0.474545	8.97364	0.738884	12.6639	0.963869	16.5584
0.359069	6.10805	0.0966577	1.76241	0.348035	6.45362	0.505047	9.29447	0.613801	10.7498	0.874798	14.8002	0.284947	5.25189	0.476375	8.85229	0.740131	12.4858	0.964375	16.3061
0.361253	6.04932	0.0987571	1.77061	0.350106	6.38177	0.50624	9.15937	0.614349	10.702	0.875922	14.5892	0.288494	5.2275	0.478229	8.7355	0.741395	12.3136	0.964893	16.0618
0.363459	5.99277	0.100857	1.77855	0.352198	6.31271	0.507462	9.02927	0.614947	10.6507	0.877062	14.385	0.292052	5.20412	0.480107	8.62304	0.742675	12.1469	0.965422	15.8252
0.365688	5.9383	0.102957	1.78624	0.354312	6.24629	0.508714	8.90395	0.615764	10.5819	0.878218	14.1871	0.295621	5.18168	0.482007	8.51469	0.743973	11.9855	0.965962	15.5959
0.36794	5.88582	0.105058	1.79369	0.356448	6.18239	0.509996	8.78316	0.616804	10.4965	0.87939	13.9954	0.2992	5.16014	0.483931	8.41025	0.745287	11.8291	0.966514	15.3735
0.370216	5.83526	0.107158	1.80091	0.358605	6.12089	0.511309	8.6667	0.618072	10.3957	0.880577	13.8095	0.302788	5.13944	0.485876	8.30952	0.746618	11.6776	0.967077	15.1578
0.372516	5.78654	0.109259	1.80791	0.360784	6.06169	0.512652	8.55438	0.619574	10.2805	0.88178	13.6293	0.306385	5.11954	0.487844	8.21232	0.747966	11.5306	0.967652	14.9486
0.374842	5.7396	0.11136	1.8147	0.362986	6.00468	0.514027	8.44601	0.621317	10.1525	0.882998	13.4543	0.309991	5.1004	0.489834	8.11848	0.749154	11.4062	0.968238	14.7454
0.377193	5.69436	0.113461	1.82128	0.36521	5.94977	0.515433	8.34141	0.623079	10.0286	0.884232	13.2846	0.313606	5.08196	0.491845	8.02785	0.750176	11.3026	0.968837	14.5481
0.379571	5.65078	0.115562	1.82767	0.367457	5.89687	0.51687	8.24043	0.62486	9.90868	0.885481	13.1197	0.317228	5.0642	0.493878	7.94028	0.751028	11.2187	0.969447	14.3564
0.381976	5.6088	0.117663	1.83388	0.369728	5.84591	0.518339	8.14289	0.626661	9.79256	0.886745	12.9595	0.320858	5.04707	0.495931	7.85562	0.751706	11.1535	0.970068	14.1701
0.384411	5.56836	0.119764	1.8399	0.372023	5.7968	0.51984	8.04866	0.628481	9.68007	0.888025	12.8039	0.324494	5.03056	0.498005	7.77375	0.752207	11.1061	0.970702	13.989
0.386874	5.52942	0.121865	1.84575	0.374343	5.74948	0.521372	7.9576	0.63032	9.57105	0.88932	12.6526	0.328138	5.01461	0.5001	7.69453	0.752529	11.076	0.971348	13.8128
0.389369	5.49194	0.123965	1.85144	0.376688	5.70389	0.522937	7.86958	0.632178	9.46535	0.89063	12.5054	0.331788	4.99921	0.502214	7.61786	0.752993	11.0331	0.972005	13.6414
0.391895	5.45587	0.126065	1.85697	0.37906	5.65996	0.524535	7.78447	0.634055	9.36284	0.891954	12.3623	0.335444	4.98432	0.504348	7.54363	0.753499	10.987	0.972675	13.4746
0.394454	5.42118	0.128165	1.86234	0.38146	5.61764	0.526165	7.70216	0.63595	9.26337	0.893294	12.223	0.339105	4.96993	0.506502	7.47172	0.754191	10.925	0.973357	13.3123
0.397046	5.38782	0.130265	1.86757	0.383888	5.57687	0.527827	7.62254	0.637863	9.16684	0.894649	12.0875	0.342772	4.956	0.508675	7.40204	0.755071	10.8478	0.974051	13.1541
0.399674	5.35577	0.132364	1.87265	0.386345	5.53762	0.529522	7.54549	0.639794	9.07311	0.896018	11.9555	0.346444	4.94251	0.510867	7.3345	0.756143	10.7562	0.974758	13.0001
0.402338	5.32498	0.134463	1.8776	0.388833	5.49983	0.53125	7.47093	0.641743	8.98207	0.897402	11.8269	0.350121	4.92944	0.513077	7.269	0.757412	10.6513	0.975476	12.85
0.405039	5.29543	0.136562	1.88241	0.391352	5.46346	0.53301	7.39874	0.64371	8.89362	0.89862	11.7176	0.353802	4.91677	0.515306	7.20547	0.758883	10.5339	0.976207	12.7037
0.407778	5.26708	0.13866	1.8871	0.393904	5.42848	0.534803	7.32885	0.645694	8.80766	0.899667	11.6263	0.357487	4.90448	0.517553	7.14382	0.76037	10.4198	0.976951	12.5611
0.410556	5.23991	0.140758	1.89167	0.396489	5.39484	0.53663	7.26117	0.647696	8.72409	0.900539	11.5522	0.361176	4.89255	0.519818	7.08398	0.761872	10.3088	0.977707	12.422
0.413374	5.21387	0.142856	1.89612	0.39911	5.36251	0.538488	7.1956	0.649715	8.64283	0.901232	11.4943	0.364869	4.88097	0.5221	7.02588	0.763389	10.2007	0.978475	12.2863
0.416232	5.18895	0.144954	1.90046	0.401766	5.33146	0.54038	7.13208	0.651751	8.56377	0.901744	11.4522	0.368564	4.86971	0.5244	6.96944	0.764921	10.0955	0.979257	12.154
0.419131	5.1651	0.147051	1.90468	0.404459	5.30164	0.542304	7.07054	0.653804	8.48685	0.902072	11.4255	0.372263	4.85877	0.526717	6.91461	0.766468	9.99303	0.980051	12.0248
0.422072	5.14229	0.149147	1.90881	0.407189	5.27304	0.544261	7.01088	0.655873	8.41198	0.902546	11.3874	0.375964	4.84812	0.529051	6.86133	0.768031	9.89323	0.980753	11.9147
0.425054	5.12051	0.151243	1.91283	0.409959	5.24562	0.54625	6.95306	0.657959	8.33908	0.903062	11.3462	0.379668	4.83776	0.531401	6.80953	0.769608	9.79598	0.981359	11.8227
0.428079	5.0997	0.153339	1.91675	0.412768	5.21934	0.548271	6.897	0.660062	8.2681	0.903768	11.2909	0.383373	4.82766	0.533768	6.75916	0.7712	9.70119	0.981866	11.7478
0.431145	5.07985	0.155435	1.92057	0.415618	5.19418	0.550325	6.84263	0.66218	8.19895	0.904665	11.2219	0.387081	4.81783	0.536151	6.71017	0.772806	9.60878	0.98227	11.6893
0.434253	5.06091	0.15753	1.92431	0.418508	5.1701	0.552411	6.78991	0.664315	8.13157	0.905757	11.1398	0.39079	4.80824	0.53855	6.6625	0.774427	9.51867	0.982569	11.6467
0.437402	5.04285	0.159625	1.92796	0.42144	5.14708	0.554528	6.73876	0.666465	8.06591	0.907047	11.0454	0.394501	4.79888	0.540964	6.61611	0.776062	9.43077	0.982761	11.6197
0.440592	5.02564	0.161719	1.93152	0.424414	5.12508	0.556677	6.68914	0.668632	8.0019	0.908542	10.9394	0.398212	4.78974	0.543394	6.57096	0.777712	9.34501	0.983039	11.5811
0.443822	5.00925	0.163813	1.935	0.427429	5.10407	0.558858	6.641	0.670814	7.93948	0.91005	10.836	0.401924	4.78082	0.545839	6.52699	0.779375	9.26132	0.983342	11.5394
0.447091	4.99364	0.165907	1.93839	0.430486	5.08401	0.561069	6.59427	0.673011	7.87861	0.911572	10.7351	0.405637	4.77209	0.5483	6.48417	0.781053	9.17962	0.983757	11.4833
0.450399	4.97877	0.168	1.94171	0.433585	5.06488	0.563312	6.54892	0.675224	7.81923	0.913108	10.6365	0.40935	4.76356	0.550775	6.44245	0.782745	9.09986	0.984287	11.4132
0.453744	4.96462	0.170093	1.94496	0.436725	5.04664	0.565585	6.50488	0.677451	7.76129	0.914658	10.5401	0.413064	4.75522	0.553264	6.40181	0.78445	9.02196	0.984934	11.3298
0.457126	4.95115	0.172186	1.94813	0.439907	5.02925	0.567889	6.46213	0.679694	7.70474	0.916222	10.446	0.416776	4.74704	0.555769	6.3622	0.786169	8.94588	0.985702	11.2337
0.460542	4.93832	0.174278	1.95124	0.443128	5.01269	0.570222	6.42061	0.681952	7.64954	0.917799	10.354	0.420489	4.73904	0.558287	6.32358	0.787902	8.87154	0.986596	11.1258
0.463993	4.92611	0.17637	1.95427	0.446389	4.99691	0.572585	6.38029	0.684224	7.59565	0.919389	10.264	0.424201	4.73119	0.56082	6.28593	0.789648	8.79889	0.987502	11.0202
0.467476	4.91448	0.178462	1.95724	0.449689	4.98189	0.574978	6.34112	0.686511	7.54302	0.920993	10.1761	0.427911	4.72349	0.563366	6.24922	0.791407	8.72788	0.988423	10.917
0.470991	4.9034	0.180553	1.96015	0.453026	4.96759	0.5774	6.30306	0.688812	7.49161	0.92261	10.0901	0.431621	4.71594	0.565927	6.2134	0.79318	8.65847	0.989356	10.816
0.474535	4.89284	0.182644	1.96299	0.4564	4.95397	0.57985	6.26607	0.691128	7.44139	0.924241	10.006	0.435329	4.70852	0.5685	6.17846	0.794965	8.59059	0.990303	10.7172
0.478109	4.88278	0.184734	1.96578	0.459809	4.94101	0.582328	6.23013	0.693457	7.39232	0.925885	9.92368	0.439035	4.70123	0.571088	6.14436	0.796764	8.52421	0.991264	10.6205
0.481709	4.87318	0.186824	1.9685	0.463253	4.92867	0.584835	6.19519	0.695801	7.34436	0.927542	9.84314	0.44274	4.69407	0.573688	6.11108	0.798576	8.45927	0.992238	10.5258
0.484868	4.86517	0.188914	1.97117	0.466729	4.91692	0.587368	6.16123	0.698159	7.29748	0.929211	9.76432	0.446442	4.68702	0.576302	6.0786	0.8004	8.39573	0.993226	10.4332
0.487575	4.8586	0.191004	1.97379	0.470237	4.90572	0.58993	6.1282	0.700531	7.25165	0.930894	9.68716	0.450141	4.68009	0.578929	6.04688	0.802237	8.33356	0.994227	10.3425
0.489824	4.85333	0.193093	1.97635	0.473776	4.89506	0.592517	6.09608	0.702916	7.20683	0.93259	9.61162	0.453838	4.67325	0.581568	6.0159	0.804087	8.27271	0.995242	10.2537
0.491608	4.84926	0.195182	1.97886	0.477343	4.88489	0.595131	6.06484	0.705314	7.163	0.934298	9.53764	0.457532	4.66652	0.58422	5.98565	0.805949	8.21314	0.996271	10.1667
0.492924	4.84633	0.197271	1.98132	0.480938	4.87519	0.597771	6.03445	0.707726	7.12013	0.936019	9.46519	0.461223	4.65988	0.586885	5.9561	0.807824	8.15482	0.997314	10.0815
0.493767	4.84448	0.199359	1.98373	0.484558	4.86594	0.600437	6.00488	0.710152	7.07818	0.937753	9.39421	0.46491	4.65333	0.589562	5.92722	0.809711	8.0977	0.99837	9.998
0.494981	4.84185	0.201447	1.9861	0.488204	4.85711	0.603127	5.9761	0.71259	7.03714	0.939499	9.32467	0.468594	4.64687	0.592251	5.899	0.81161	8.04176	0.999441	9.9162
0.496304	4.83904	0.203535	1.98842	0.491873	4.84867	0.605843	5.94809	0.715042	6.99697	0.941258	9.25653	0.472274	4.64048	0.594953	5.87143	0.813521	7.98697	1.00053	9.83604
0.498106	4.83528	0.205623	1.99069	0.495565	4.8406	0.608582	5.92083	0.717506	6.95765	0.943029	9.18975	0.475949	4.63417	0.597667	5.84447	0.815444	7.93328		
0.500393	4.83064	0.20771	1.99292	0.499278	4.83288	0.611345	5.89429	0.719984	6.91916	0.944812	9.12428	0.47962	4.62793	0.600393	5.81812	0.817379	7.88067		
0.503168	4.82519	0.209797	1.99511	0.50301	4.82549	0.614132	5.86844	0.722474	6.88148	0.946608	9.0601	0.483286	4.62176	0.60313	5.79235	0.819325	7.82911		
0.506437	4.81901	0.211884	1.99726	0.506761	4.81841	0.616942	5.84326	0.724976	6.84458	0.948415	8.99717	0.486947	4.61564	0.60588	5.76715	0.821284	7.77857		
0.510204	4.81219	0.21397	1.99937	0.51053	4.81162	0.619774	5.81874	0.727491	6.80843	0.950235	8.93546	0.490602	4.60958	0.608641	5.74251	0.823253	7.72903		
0.513987	4.80565	0.216057	2.00144	0.514315	4.8051	0.622628	5.79485	0.730019	6.77303	0.952067	8.87493	0.494253	4.60358	0.611414	5.7184	0.825235	7.68045		
0.517787	4.79937	0.218143	2.00347	0.518115	4.79883	0.625504	5.77157	0.732559	6.73834	0.95391	8.81555	0.497897	4.59763	0.614198	5.69482	0.827228	7.63281		
0.5216	4.79332	0.220228	2.00547	0.52193	4.79281	0.628402	5.74888	0.735111	6.70436	0.955766	8.7573	0.501535	4.59172	0.616995	5.67175	0.829232	7.58608		
0.525428	4.7875	0.222314	2.00743	0.525759	4.78701	0.63132	5.72677	0.737675	6.67106	0.957633	8.70013	0.505167	4.58585	0.619802	5.64917	0.831247	7.54025		
0.529268	4.7819	0.224399	2.00935	0.5296	4.78142	0.634259	5.70521	0.740251	6.63842	0.959512	8.64403	0.508792	4.58002	0.622621	5.62708	0.833273	7.49528		
0.533119	4.77649	0.226484	2.01124	0.533453	4.77603	0.637218	5.68419	0.742838	6.60643	0.961402	8.58897	0.51241	4.57423	0.625451	5.60546	0.835311	7.45117		
0.536982	4.77127	0.228569	2.0131	0.537316	4.77083	0.640196	5.66369	0.745438	6.57507	0.963304	8.53492	0.516021	4.56847	0.628293	5.5843	0.837359	7.40787		
0.540855	4.76622	0.230654	2.01493	0.54119	4.7658	0.643194	5.64369	0.748049	6.54432	0.965217	8.48186	0.519625	4.56274	0.631146	5.56358	0.839418	7.36538		
0.544737	4.76134	0.232738	2.01672	0.545073	4.76093	0.646211	5.62419	0.750672	6.51417	0.967142	8.42975	0.523221	4.55703	0.63401	5.54331	0.841488	7.32367		
0.548628	4.75662	0.234822	2.01849	0.548965	4.75622	0.649247	5.60516	0.753307	6.48461	0.969077	8.37858	0.526808	4.55134	0.636885	5.52345	0.843569	7.28272		
0.552527	4.75204	0.236907	2.02022	0.552864	4.75165	0.652301	5.58658	0.755953	6.45561	0.971024	8.32833	0.530388	4.54568	0.639772	5.50401	0.84566	7.24252		
0.556434	4.74759	0.23899	2.02193	0.556771	4.74721	0.655372	5.56846	0.75861	6.42716	0.972982	8.27897	0.533959	4.54003	0.64267	5.48498	0.847762	7.20305		
0.560347	4.74327	0.241074	2.0236	0.560685	4.7429	0.658461	5.55076	0.761279	6.39926	0.974952	8.23047	0.53752	4.53439	0.645578	5.46634	0.849874	7.16428		
0.564266	4.73907	0.243157	2.02525	0.564605	4.73871	0.661568	5.53349	0.763958	6.37188	0.976932	8.18283	0.541073	4.52877	0.648498	5.44808	0.851997	7.1262		
0.568191	4.73498	0.245241	2.02688	0.56853	4.73463	0.664691	5.51662	0.766649	6.34502	0.978923	8.13601	0.544616	4.52315	0.65143	5.4302	0.854129	7.0888		
0.57212	4.731	0.247324	2.02847	0.57246	4.73066	0.66783	5.50014	0.769351	6.31866	0.980924	8.09	0.54815	4.51754	0.654372	5.41269	0.856273	7.05206		
0.576055	4.72711	0.249406	2.03004	0.576394	4.72678	0.670986	5.48405	0.772064	6.29278	0.982937	8.04479	0.551673	4.51193	0.657325	5.39554	0.858426	7.01596		
0.579993	4.72331	0.251489	2.03159	0.580333	4.72299	0.674157	5.46833	0.774787	6.26739	0.98496	8.00034	0.555186	4.50633	0.66029	5.37874	0.860589	6.98049		
0.583934	4.71961	0.253572	2.03311	0.584275	4.71929	0.677344	5.45297	0.777522	6.24246	0.986994	7.95664	0.558688	4.50072	0.663265	5.36228	0.862763	6.94563		
0.587879	4.71598	0.255654	2.03461	0.58822	4.71567	0.680546	5.43796	0.780267	6.21799	0.989038	7.91368	0.56218	4.4951	0.666252	5.34616	0.864946	6.91136		
0.591827	4.71242	0.257736	2.03608	0.592168	4.71212	0.683763	5.42329	0.783023	6.19396	0.991092	7.87144	0.56566	4.48949	0.66925	5.33036	0.86714	6.87769		
0.595776	4.70893	0.259818	2.03753	0.596117	4.70864	0.686995	5.40895	0.785789	6.17037	0.993157	7.8299	0.569128	4.48386	0.672259	5.31489	0.869343	6.84458		
0.599727	4.70551	0.2619	2.03896	0.600069	4.70522	0.690241	5.39493	0.788566	6.1472	0.995233	7.78905	0.572585	4.47822	0.67528	5.29973	0.871556	6.81204		
0.60368	4.70215	0.263982	2.04037	0.604021	4.70187	0.693501	5.38123	0.791354	6.12445	0.997318	7.74887	0.57603	4.47257	0.678311	5.28488	0.873778	6.78004		
0.607634	4.69885	0.266063	2.04175	0.607975	4.69857	0.696774	5.36782	0.794151	6.1021	0.999414	7.70934	0.579462	4.46691	0.681354	5.27033	0.876011	6.74857		
0.611588	4.6956	0.268145	2.04312	0.61193	4.69532	0.700061	5.35471	0.796959	6.08015	1.00152	7.67046	0.582882	4.46123	0.684408	5.25607	0.878253	6.71762		
0.615543	4.69239	0.270226	2.04446	0.615884	4.69212	0.703362	5.34189	0.799778	6.05859			0.586289	4.45553	0.687473	5.24211	0.880504	6.68719		
0.619497	4.68923	0.272307	2.04578	0.619839	4.68896	0.706675	5.32934	0.802607	6.03741			0.589682	4.44981	0.69055	5.22842	0.882765	6.65726		
0.623451	4.68612	0.274388	2.04709	0.623793	4.68585	0.710001	5.31706	0.805446	6.01659			0.593062	4.44407	0.693637	5.21501	0.885036	6.62781		
0.627405	4.68304	0.276469	2.04838	0.627746	4.68277	0.71334	5.30505	0.808295	5.99614			0.596429	4.43831	0.696736	5.20187	0.887316	6.59884		
0.631357	4.67999	0.278549	2.04964	0.631698	4.67973	0.716691	5.2933	0.811154	5.97605			0.599781	4.43253	0.699847	5.189	0.889605	6.57034		
0.635308	4.67698	0.28063	2.05089	0.635649	4.67672	0.720053	5.28179	0.814023	5.9563			0.603119	4.42672	0.702968	5.17639	0.891904	6.5423		
0.639257	4.67399	0.28271	2.05212	0.639598	4.67374	0.723428	5.27052	0.816902	5.9369			0.606443	4.42088	0.706101	5.16403	0.894211	6.51471		
0.643205	4.67103	0.284791	2.05334	0.643545	4.67078	0.726815	5.25949	0.819791	5.91782			0.609752	4.41502	0.709246	5.15192	0.896529	6.48755		
0.64715	4.6681	0.286871	2.05453	0.64749	4.66785	0.730212	5.24869	0.82269	5.89907			0.613046	4.40912	0.712401	5.14005	0.898855	6.46083		
0.651092	4.66519	0.288951	2.05571	0.651433	4.66494	0.733621	5.23812	0.825599	5.88064			0.616324	4.4032	0.715568	5.12843	0.90119	6.43452		
0.655032	4.66229	0.291031	2.05688	0.655372	4.66204	0.737041	5.22776	0.828517	5.86253			0.619588	4.39724	0.718746	5.11704	0.903535	6.40863		
0.658969	4.65941	0.29311	2.05802	0.659309	4.65917	0.740472	5.21761	0.831446	5.84472			0.622835	4.39126	0.721936	5.10588	0.905889	6.38314		
0.662903	4.65655	0.29519	2.05915	0.663242	4.6563	0.743913	5.20767	0.834384	5.82721			0.626067	4.38524	0.725137	5.09494	0.908252	6.35805		
0.666833	4.6537	0.29727	2.06027	0.667172	4.65345	0.747365	5.19794	0.837332	5.80999			0.629283	4.37918	0.728349	5.08423	0.910624	6.33335		
0.670759	4.65086	0.299349	2.06137	0.671097	4.65061	0.750828	5.1884	0.840289	5.79306			0.632483	4.37309	0.731572	5.07373	0.913004	6.30903		
0.674681	4.64802	0.301428	2.06246	0.675019	4.64778	0.7543	5.17905	0.843257	5.77641			0.635666	4.36697	0.734807	5.06345	0.915394	6.28508		
0.678598	4.6452	0.303508	2.06353	0.678936	4.64495	0.757782	5.16988	0.846234	5.76004			0.638833	4.36081	0.738052	5.05337	0.917793	6.26149		
0.682511	4.64238	0.305587	2.06459	0.682849	4.64213	0.761275	5.1609	0.84922	5.74395			0.641982	4.35462	0.741309	5.04349	0.920201	6.23827		
0.68642	4.63956	0.307666	2.06563	0.686757	4.63932	0.764776	5.1521	0.852216	5.72811			0.645115	4.34839	0.744577	5.03382	0.922618	6.21539		
0.690323	4.63674	0.309744	2.06666	0.69066	4.6365	0.768288	5.14347	0.855222	5.71254			0.648231	4.34213	0.747856	5.02434	0.925043	6.19286		
0.694221	4.63392	0.311823	2.06768	0.694557	4.63368	0.771808	5.13502	0.858237	5.69722			0.65133	4.33583	0.751146	5.01505	0.927478	6.17067		
0.698113	4.63111	0.313902	2.06868	0.698449	4.63086	0.775338	5.12672	0.861261	5.68216			0.654412	4.32949	0.754446	5.00594	0.929921	6.14881		
0.702	4.62828	0.315981	2.06967	0.702336	4.62804	0.778877	5.11859	0.864295	5.66734			0.657476	4.32311	0.757757	4.99702	0.932373	6.12728		
0.705881	4.62546	0.318059	2.07065	0.706216	4.62521	0.782425	5.11061	0.867339	5.65276			0.660523	4.3167	0.761079	4.98828	0.934834	6.10606		
0.709756	4.62263	0.320137	2.07161	0.71009	4.62238	0.785982	5.10279	0.870392	5.63842			0.663553	4.31025	0.764412	4.97972	0.937304	6.08516		
0.713624	4.61979	0.322216	2.07257	0.713958	4.61954	0.789548	5.09512	0.873454	5.62432			0.666564	4.30377	0.767755	4.97132	0.939782	6.06457		
0.717486	4.61694	0.324294	2.07351	0.717819	4.61669	0.793122	5.0876	0.876526	5.61044			0.669558	4.29725	0.771108	4.96309	0.942269	6.04428		
0.721341	4.61408	0.326372	2.07444	0.721673	4.61383	0.796705	5.08022	0.879607	5.59678			0.672535	4.2907	0.774472	4.95503	0.944766	6.02429		
0.725188	4.61121	0.32845	2.07535	0.72552	4.61096	0.800296	5.07298	0.882698	5.58335			0.675493	4.28411	0.777846	4.94712	0.94727	6.00459		
0.729029	4.60833	0.330528	2.07626	0.72936	4.60808	0.803895	5.06587	0.885798	5.57013			0.678434	4.27748	0.78123	4.93938	0.949784	5.98517		
0.732862	4.60544	0.332606	2.07716	0.733193	4.60519	0.807502	5.0589	0.888907	5.55713			0.681357	4.27082	0.784623	4.93178	0.952306	5.96604		
0.736688	4.60253	0.334684	2.07804	0.737018	4.60228	0.811117	5.05206	0.892026	5.54433			0.684262	4.26413	0.788026	4.92433	0.954837	5.94718		
0.740506	4.59961	0.336761	2.07892	0.740835	4.59936	0.814741	5.04535	0.895154	5.53174			0.687149	4.25741	0.791439	4.91703	0.957377	5.9286		
0.744315	4.59667	0.338839	2.07978	0.744644	4.59642	0.818372	5.03877	0.898292	5.51935			0.690019	4.25065	0.794861	4.90987	0.959925	5.91028		
0.748117	4.59372	0.340916	2.08063	0.748445	4.59346	0.82201	5.0323	0.901439	5.50716			0.692871	4.24386	0.798293	4.90285	0.962483	5.89222		
0.75191	4.59075	0.342994	2.08148	0.752237	4.59049	0.825657	5.02596	0.904595	5.49516			0.695705	4.23704	0.801733	4.89597	0.965048	5.87443		
0.755695	4.58776	0.345071	2.08231	0.756021	4.5875	0.82931	5.01973	0.907761	5.48336			0.698521	4.23018	0.805182	4.88921	0.967623	5.85688		
0.759471	4.58475	0.347148	2.08313	0.759797	4.58449	0.832971	5.01362	0.910935	5.47174			0.701319	4.2233	0.80864	4.88259	0.970206	5.83959		
0.763238	4.58172	0.349226	2.08394	0.763563	4.58146	0.83664	5.00761	0.91412	5.46031			0.7041	4.21639	0.812106	4.87608	0.972798	5.82253		
0.766996	4.57867	0.351303	2.08475	0.76732	4.57841	0.840315	5.00172	0.917313	5.44906			0.706864	4.20945	0.815581	4.86971	0.975399	5.80572		
0.770745	4.5756	0.35338	2.08554	0.771068	4.57534	0.843998	4.99593	0.920516	5.43799			0.709609	4.20249	0.819064	4.86344	0.978008	5.78915		
0.774484	4.57251	0.355457	2.08633	0.774806	4.57224	0.847687	4.99025	0.923728	5.42709			0.712338	4.1955	0.822555	4.8573	0.980626	5.77281		
0.778214	4.56939	0.357534	2.08711	0.778535	4.56913	0.851383	4.98467	0.92695	5.41637			0.715049	4.18848	0.826053	4.85127	0.983253	5.7567		
0.781934	4.56626	0.35961	2.08787	0.782255	4.56599	0.855086	4.97919	0.930181	5.40582			0.717743	4.18144	0.829559	4.84534	0.985888	5.74081		
0.785644	4.5631	0.361687	2.08863	0.785964	4.56282	0.858796	4.97381	0.933421	5.39544			0.72042	4.17438	0.833072	4.83953	0.988532	5.72515		
0.789344	4.55991	0.363764	2.08939	0.789663	4.55964	0.862512	4.96852	0.936671	5.38522			0.723079	4.16729	0.836592	4.83381	0.991184	5.7097		
0.793034	4.5567	0.365841	2.09013	0.793352	4.55643	0.866234	4.96332	0.93993	5.37516			0.725722	4.16018	0.840119	4.8282	0.993846	5.69447		
0.796714	4.55347	0.367917	2.09086	0.797031	4.55319	0.869963	4.95822	0.943198	5.36527			0.728348	4.15306	0.843652	4.82269	0.996516	5.67945		
0.800383	4.55021	0.369994	2.09159	0.8007	4.54993	0.873698	4.9532	0.946475	5.35553			0.730957	4.14591	0.847192	4.81727	0.999194	5.66463		
0.804042	4.54693	0.37207	2.09231	0.804357	4.54664	0.877438	4.94827	0.949762	5.34594			0.73355	4.13874	0.850739	4.81194	1.00188	5.65002		
0.80769	4.54362	0.374146	2.09302	0.808005	4.54333	0.881185	4.94343	0.953059	5.33651			0.736126	4.13156	0.854291	4.8067				
0.811327	4.54028	0.376223	2.09372	0.811641	4.54	0.884937	4.93866	0.956365	5.32723			0.738686	4.12436	0.857849	4.80155				
0.814954	4.53692	0.378299	2.09441	0.815266	4.53663	0.888696	4.93398	0.95968	5.3181			0.74123	4.11714	0.861412	4.79648				
0.818569	4.53354	0.380375	2.0951	0.818881	4.53324	0.892459	4.92938	0.963004	5.30911			0.743757	4.10992	0.864981	4.79149				
0.822173	4.53012	0.382451	2.09578	0.822484	4.52983	0.896228	4.92485	0.966338	5.30026			0.746269	4.10267	0.868554	4.78658				
0.825767	4.52668	0.384527	2.09645	0.826076	4.52638	0.900003	4.9204	0.969681	5.29156			0.748765	4.09542	0.872133	4.78175				
0.829348	4.52321	0.386603	2.09712	0.829657	4.52291	0.903782	4.91603	0.973034	5.283			0.751245	4.08815	0.875716	4.777				
0.832919	4.51972	0.388679	2.09778	0.833227	4.51942	0.907567	4.91172	0.976396	5.27457			0.75371	4.08087	0.879304	4.77231				
0.836478	4.5162	0.390755	2.09843	0.836784	4.51589	0.911356	4.90748	0.979767	5.26627			0.75616	4.07359	0.882896	4.7677				
0.840025	4.51265	0.392831	2.09908	0.840331	4.51235	0.91515	4.90331	0.983148	5.25811			0.758594	4.06629	0.886491	4.76315				
0.843561	4.50908	0.394907	2.09971	0.843866	4.50877	0.918949	4.89921	0.986538	5.25008			0.761014	4.05899	0.890091	4.75867				
0.847085	4.50548	0.396982	2.10035	0.847389	4.50517	0.922752	4.89517	0.989938	5.24218			0.763418	4.05168	0.893694	4.75425				
0.850597	4.50185	0.399058	2.10097	0.8509	4.50154	0.92656	4.89119	0.993346	5.23441			0.765808	4.04437	0.8973	4.74989				
0.854098	4.4982	0.401134	2.10159	0.8544	4.49788	0.930371	4.88728	0.996765	5.22676			0.768184	4.03705	0.900909	4.74559				
0.857587	4.49452	0.403209	2.1022	0.857887	4.4942	0.934187	4.88342	1.00019	5.21924			0.770545	4.02973	0.904522	4.74135				
0.861063	4.49081	0.405285	2.10281	0.861363	4.49049	0.938007	4.87962					0.772892	4.0224	0.908136	4.73716				
0.864528	4.48708	0.40736	2.10341	0.864827	4.48675	0.94183	4.87588					0.775224	4.01507	0.911754	4.73303				
0.867981	4.48332	0.409436	2.104	0.868278	4.48299	0.945657	4.87219					0.777543	4.00774	0.915373	4.72895				
0.871422	4.47953	0.411511	2.10459	0.871718	4.4792	0.949487	4.86855					0.779849	4.00041	0.918995	4.72491				
0.87485	4.47572	0.413586	2.10518	0.875146	4.47539	0.953321	4.86497					0.78214	3.99309	0.922618	4.72093				
0.878267	4.47189	0.415661	2.10575	0.878562	4.47155	0.957157	4.86144					0.784419	3.98576	0.926243	4.71699				
0.881672	4.46802	0.417737	2.10632	0.881965	4.46769	0.960997	4.85795					0.786684	3.97843	0.929869	4.71309				
0.885064	4.46414	0.419812	2.10689	0.885356	4.4638	0.964839	4.85451					0.788936	3.97111	0.933496	4.70924				
0.888444	4.46023	0.421887	2.10745	0.888736	4.45989	0.968684	4.85111					0.791175	3.9638	0.937125	4.70543				
0.891812	4.45629	0.423962	2.108	0.892103	4.45595	0.972532	4.84776					0.793402	3.95648	0.940754	4.70166				
0.895168	4.45233	0.426037	2.10855	0.895458	4.45199	0.976382	4.84445					0.795616	3.94917	0.944384	4.69792				
0.898512	4.44835	0.428112	2.1091	0.8988	4.44801	0.980234	4.84119					0.797818	3.94187	0.948014	4.69422				
0.901844	4.44435	0.430187	2.10964	0.902131	4.444	0.984088	4.83796					0.800007	3.93458	0.951644	4.69056				
0.905163	4.44032	0.432262	2.11017	0.905449	4.43997	0.987943	4.83477					0.802185	3.92729	0.955274	4.68693				
0.908471	4.43626	0.434336	2.1107	0.908756	4.43591	0.991801	4.83162					0.80435	3.92001	0.958904	4.68333				
0.911766	4.43219	0.436411	2.11122	0.91205	4.43184	0.99566	4.8285					0.806504	3.91274	0.962534	4.67976				
0.915049	4.42809	0.438486	2.11174	0.915332	4.42774	0.99952	4.82542					0.808646	3.90548	0.966163	4.67623				
0.91832	4.42398	0.440561	2.11225	0.918601	4.42362	1.00338	4.82237					0.810777	3.89824	0.969792	4.67272				
0.921578	4.41984	0.442635	2.11276	0.921859	4.41948							0.812897	3.891	0.973419	4.66923				
0.924825	4.41568	0.44471	2.11327	0.925105	4.41532							0.815006	3.88377	0.977045	4.66578				
0.928059	4.4115	0.446784	2.11377	0.928338	4.41113							0.817103	3.87656	0.98067	4.66234				
0.931282	4.4073	0.448859	2.11426	0.93156	4.40693							0.819191	3.86935	0.984294	4.65893				
0.934492	4.40308	0.450933	2.11475	0.934769	4.40271							0.821267	3.86217	0.987916	4.65554				
0.937691	4.39884	0.453008	2.11524	0.937966	4.39847							0.823333	3.85499	0.991536	4.65218				
0.940877	4.39458	0.455082	2.11572	0.941152	4.39421							0.825389	3.84783	0.995154	4.64883				
0.944052	4.3903	0.457157	2.1162	0.944325	4.38993							0.827435	3.84069	0.99877	4.6455				
0.947215	4.386	0.459231	2.11667	0.947487	4.38563							0.82947	3.83356	1.00238	4.64219				
0.950365	4.38169	0.461305	2.11714	0.950637	4.38131							0.831496	3.82644						
0.953504	4.37736	0.46338	2.11761	0.953775	4.37698							0.833513	3.81935						
0.956631	4.37301	0.465454	2.11807	0.956901	4.37263							0.83552	3.81227						
0.959747	4.36864	0.467528	2.11852	0.960015	4.36827							0.837517	3.80521						
0.96285	4.36426	0.469602	2.11898	0.963118	4.36388							0.839506	3.79816						
0.965942	4.35986	0.471676	2.11942	0.966208	4.35948							0.841485	3.79114						
0.969022	4.35545	0.47375	2.11987	0.969288	4.35507							0.843455	3.78413						
0.972091	4.35102	0.475824	2.12031	0.972355	4.35064							0.845417	3.77714						
0.975148	4.34658	0.477898	2.12075	0.975411	4.34619							0.84737	3.77018						
0.978193	4.34212	0.479972	2.12118	0.978456	4.34174							0.849315	3.76323						
0.981227	4.33765	0.482046	2.12161	0.981489	4.33726							0.851251	3.7563						
0.98425	4.33316	0.48412	2.12204	0.98451	4.33278							0.85318	3.74939						
0.987261	4.32867	0.486194	2.12246	0.98752	4.32828							0.8551	3.74251						
0.990261	4.32415	0.488268	2.12288	0.990519	4.32376							0.857012	3.73565						
0.993249	4.31963	0.490341	2.12329	0.993507	4.31924							0.858917	3.72881						
0.996226	4.31509	0.492415	2.12371	0.996483	4.3147							0.860814	3.72199						
0.999192	4.31054	0.494489	2.12411	0.999448	4.31015							0.862703	3.71519						
1.00215	4.30598	0.496562	2.12452	1.0024	4.30559							0.864585	3.70842						
		0.498636	2.12492									0.86646	3.70166						
		0.50071	2.12532									0.868328	3.69494						
		0.502783	2.12571									0.870189	3.68823						
		0.504857	2.12611									0.872043	3.68155						
		0.50693	2.12649									0.873891	3.6749						
		0.509004	2.12688									0.875732	3.66827						
		0.511077	2.12726									0.877566	3.66166						
		0.513151	2.12764									0.879394	3.65508						
		0.515224	2.12802									0.881216	3.64852						
		0.517297	2.12839									0.883032	3.64199						
		0.519371	2.12876									0.884841	3.63549						
		0.521444	2.12913									0.886645	3.62901						
		0.523517	2.12949									0.888444	3.62255						
		0.525591	2.12985									0.890236	3.61612						
		0.527664	2.13021									0.892023	3.60972						
		0.529737	2.13057									0.893805	3.60335						
		0.53181	2.13092									0.895581	3.597						
		0.533883	2.13127									0.897352	3.59067						
		0.535956	2.13162									0.899119	3.58438						
		0.538029	2.13196									0.90088	3.57811						
		0.540102	2.13231									0.902636	3.57187						
		0.542175	2.13265									0.904387	3.56565						
		0.544248	2.13298									0.906134	3.55946						
		0.546321	2.13332									0.907876	3.5533						
		0.548394	2.13365									0.909614	3.54717						
		0.550467	2.13398									0.911347	3.54106						
		0.55254	2.13431									0.913076	3.53498						
		0.554613	2.13463									0.914801	3.52893						
		0.556686	2.13495									0.916522	3.52291						
		0.558759	2.13527									0.918239	3.51691						
		0.560831	2.13559									0.919951	3.51094						
		0.562904	2.1359									0.92166	3.505						
		0.564977	2.13622									0.923365	3.49909						
		0.56705	2.13653									0.925067	3.4932						
		0.569122	2.13684									0.926765	3.48735						
		0.571195	2.13714									0.928459	3.48152						
		0.573267	2.13745									0.93015	3.47571						
		0.57534	2.13775									0.931838	3.46994						
		0.577413	2.13805									0.933522	3.46419						
		0.579485	2.13834									0.935203	3.45847						
		0.581558	2.13864									0.936881	3.45278						
		0.58363	2.13893									0.938556	3.44712						
		0.585703	2.13922									0.940229	3.44148						
		0.587775	2.13951									0.941898	3.43588						
		0.589848	2.1398									0.943564	3.4303						
		0.59192	2.14008									0.945228	3.42474						
		0.593992	2.14037									0.946889	3.41922						
		0.596065	2.14065									0.948547	3.41372						
		0.598137	2.14092									0.950203	3.40825						
		0.600209	2.1412									0.951856	3.40281						
		0.602282	2.14148									0.953507	3.3974						
		0.604354	2.14175									0.955155	3.39201						
		0.606426	2.14202									0.956802	3.38665						
		0.608498	2.14229									0.958445	3.38132						
		0.61057	2.14256									0.960087	3.37602						
		0.612643	2.14282									0.961727	3.37074						
		0.614715	2.14309									0.963365	3.36549						
		0.616787	2.14335									0.965	3.36027						
		0.618859	2.14361									0.966634	3.35507						
		0.620931	2.14387									0.968266	3.3499						
		0.623003	2.14413									0.969896	3.34476						
		0.625075	2.14438									0.971524	3.33964						
		0.627147	2.14463									0.973151	3.33455						
		0.629219	2.14489									0.974776	3.32949						
		0.631291	2.14514									0.976399	3.32446						
		0.633363	2.14538									0.97802	3.31945						
		0.635435	2.14563									0.97964	3.31447						
		0.637507	2.14588									0.981259	3.30951						
		0.639579	2.14612									0.982876	3.30458						
		0.641651	2.14636									0.984492	3.29968						
		0.643723	2.1466									0.986107	3.2948						
		0.645794	2.14684									0.98772	3.28995						
		0.647866	2.14708									0.989332	3.28512						
		0.649938	2.14731									0.990943	3.28032						
		0.65201	2.14755									0.992552	3.27555						
		0.654081	2.14778									0.994161	3.2708						
		0.656153	2.14801									0.995768	3.26608						
		0.658225	2.14824									0.997375	3.26138						
		0.660297	2.14847									0.99898	3.25671						
		0.662368	2.1487									1.00058	3.25206						
		0.66444	2.14892																
		0.666512	2.14915																
		0.668583	2.14937																
		0.670655	2.14959																
		0.672726	2.14981																
		0.674798	2.15003																
		0.676869	2.15025																
		0.678941	2.15046																
		0.681012	2.15068																
		0.683084	2.15089																
		0.685155	2.1511																
		0.687227	2.15131																
		0.689298	2.15152																
		0.69137	2.15173																
		0.693441	2.15194																
		0.695512	2.15214																
		0.697584	2.15235																
		0.699655	2.15255																
		0.701726	2.15275																
		0.703798	2.15295																
		0.705869	2.15315																
		0.70794	2.15335																
		0.710011	2.15355																
		0.712082	2.15374																
		0.714154	2.15394																
		0.716225	2.15413																
		0.718296	2.15432																
		0.720367	2.15451																
		0.722438	2.1547																
		0.724509	2.15489																
		0.72658	2.15508																
		0.728651	2.15527																
		0.730723	2.15545																
		0.732794	2.15564																
		0.734865	2.15582																
		0.736936	2.15601																
		0.739007	2.15619																
		0.741078	2.15637																
		0.743148	2.15655																
		0.745219	2.15673																
		0.74729	2.1569																
		0.749361	2.15708																
		0.751432	2.15725																
		0.753503	2.15743																
		0.755574	2.1576																
		0.757645	2.15778																
		0.759715	2.15795																
		0.761786	2.15812																
		0.763857	2.15829																
		0.765928	2.15846																
		0.767999	2.15862																
		0.770069	2.15879																
		0.77214	2.15896																
		0.774211	2.15912																
		0.776281	2.15929																
		0.778352	2.15945																
		0.780423	2.15961																
		0.782493	2.15977																
		0.784564	2.15993																
		0.786634	2.16009																
		0.788705	2.16025																
		0.790776	2.16041																
		0.792846	2.16057																
		0.794917	2.16073																
		0.796987	2.16088																
		0.799058	2.16104																
		0.801128	2.16119																
		0.803199	2.16134																
		0.805269	2.16149																
		0.80734	2.16165																
		0.80941	2.1618																
		0.81148	2.16195																
		0.813551	2.1621																
		0.815621	2.16224																
		0.817692	2.16239																
		0.819762	2.16254																
		0.821832	2.16268																
		0.823903	2.16283																
		0.825973	2.16297																
		0.828043	2.16312																
		0.830113	2.16326																
		0.832184	2.1634																
		0.834254	2.16355																
		0.836324	2.16369																
		0.838394	2.16383																
		0.840465	2.16397																
		0.842535	2.1641																
		0.844605	2.16424																
		0.846675	2.16438																
		0.848745	2.16452																
		0.850815	2.16465																
		0.852885	2.16479																
		0.854955	2.16492																
		0.857025	2.16506																
		0.859096	2.16519																
		0.861166	2.16532																
		0.863236	2.16545																
		0.865306	2.16559																
		0.867376	2.16572																
		0.869446	2.16585																
		0.871516	2.16598																
		0.873586	2.1661																
		0.875655	2.16623																
		0.877725	2.16636																
		0.879795	2.16649																
		0.881865	2.16661																
		0.883935	2.16674																
		0.886005	2.16686																
		0.888075	2.16699																
		0.890145	2.16711																
		0.892214	2.16724																
		0.894284	2.16736																
		0.896354	2.16748																
		0.898424	2.1676																
		0.900494	2.16772																
		0.902563	2.16784																
		0.904633	2.16796																
		0.906703	2.16808																
		0.908772	2.1682																
		0.910842	2.16832																
		0.912912	2.16844																
		0.914981	2.16855																
		0.917051	2.16867																
		0.919121	2.16879																
		0.92119	2.1689																
		0.92326	2.16902																
		0.92533	2.16913																
		0.927399	2.16924																
		0.929469	2.16936																
		0.931538	2.16947																
		0.933608	2.16958																
		0.935677	2.16969																
		0.937747	2.1698																
		0.939816	2.16991																
		0.941886	2.17002																
		0.943955	2.17013																
		0.946025	2.17024																
		0.948094	2.17035																
		0.950163	2.17046																
		0.952233	2.17057																
		0.954302	2.17067																
		0.956372	2.17078																
		0.958441	2.17089																
		0.96051	2.17099																
		0.96258	2.1711																
		0.964649	2.1712																
		0.966718	2.17131																
		0.968788	2.17141																
		0.970857	2.17151																
		0.972926	2.17162																
		0.974995	2.17172																
		0.977065	2.17182																
		0.979134	2.17192																
		0.981203	2.17202																
		0.983272	2.17212																
		0.985342	2.17222																
		0.987411	2.17232																
		0.98948	2.17242																
		0.991549	2.17252																
		0.993618	2.17262																
		0.995687	2.17272																
		0.997756	2.17282																
		0.999825	2.17291																
		1.00189	2.17301																
