Sym0		Asym0		Sym1		Sym2		Sym3		Sym4		Asym1		Asym2		Asym3	
249  Points		498  Points		249  Points		228  Points		211  Points		144  Points		309  Points		235  Points		192  Points	
Freq (MHz)	Vph (m/ms)	Freq (MHz)	Vph (m/ms)	Freq (MHz)	Vph (m/ms)	Freq (MHz)	Vph (m/ms)	Freq (MHz)	Vph (m/ms)	Freq (MHz)	Vph (m/ms)	Freq (MHz)	Vph (m/ms)	Freq (MHz)	Vph (m/ms)	Freq (MHz)	Vph (m/ms)
0.279527	356.648	0.000279841	0.135442	0.279509	1921.85	0.506785	712.81	0.559017	8656.02	0.838525	1.24032e+006	0.139758	682.609	0.41928	474.528	0.698782	757.735
0.279595	162.986	0.00058737	0.195932	0.279543	259.525	0.506796	308.521	0.559037	561.126	0.838535	899.358	0.139866	123.074	0.419335	231.004	0.698815	376.945
0.279714	105.666	0.00100525	0.255821	0.279627	139.199	0.506817	196.871	0.559091	289.989	0.838563	449.857	0.140124	67.7537	0.419428	152.688	0.698869	250.888
0.279884	78.2051	0.00153098	0.314937	0.279762	95.1403	0.506845	144.563	0.559181	195.541	0.838611	299.958	0.14053	46.8459	0.419558	114.052	0.698946	188.026
0.280105	62.1001	0.00216143	0.373115	0.279948	72.2966	0.506883	114.221	0.559305	147.521	0.838678	225	0.141082	35.8848	0.419727	91.0401	0.699045	150.365
0.280376	51.5185	0.00289296	0.430205	0.280185	58.3243	0.50693	94.4103	0.559463	118.454	0.838763	180.025	0.141778	29.1531	0.419934	75.7723	0.699165	125.283
0.280698	44.0384	0.00372157	0.48608	0.280472	48.9001	0.506987	80.4596	0.559656	98.971	0.838867	150.043	0.142614	24.6102	0.420178	64.9049	0.699308	107.381
0.281069	38.473	0.00464309	0.540648	0.280809	42.1174	0.507052	70.1043	0.559884	85.0054	0.838991	128.629	0.143587	21.3461	0.42046	56.7772	0.699472	93.9638
0.281491	34.1726	0.00565294	0.593815	0.281197	37.0045	0.507128	62.1135	0.560145	74.5058	0.839133	112.571	0.144692	18.8935	0.420779	50.4705	0.699658	83.5337
0.281962	30.7516	0.00674641	0.645503	0.281634	33.0142	0.507212	55.7608	0.560441	66.3257	0.839295	100.084	0.145926	16.9879	0.421136	45.4358	0.699867	75.1942
0.282483	27.9666	0.0079188	0.695663	0.282121	29.815	0.507307	50.5895	0.56077	59.7739	0.839475	90.0954	0.147282	15.4681	0.421531	41.3244	0.700097	68.3745
0.283052	25.6564	0.00916536	0.744257	0.282657	27.194	0.507412	46.2984	0.561134	54.4091	0.839674	81.9249	0.148757	14.2305	0.421962	37.9046	0.700348	62.6943
0.28367	23.7101	0.0104814	0.79126	0.283242	25.0086	0.507527	42.6805	0.56153	49.9364	0.839892	75.1177	0.150344	13.2054	0.422431	35.0161	0.700622	57.8905
0.284337	22.0488	0.0118623	0.836659	0.283875	23.1593	0.507653	39.5893	0.56196	46.1508	0.840129	69.3593	0.15204	12.3441	0.422937	32.5446	0.700918	53.7751
0.285051	20.6148	0.0133035	0.880454	0.284556	21.575	0.50779	36.9176	0.562423	42.9058	0.840385	64.425	0.153602	11.6997	0.423479	30.4064	0.701235	50.2104
0.285812	19.365	0.014801	0.922664	0.285285	20.2031	0.507938	34.5856	0.562919	40.0939	0.84066	60.1498	0.154992	11.2144	0.424059	28.5389	0.701574	47.093
0.28662	18.2667	0.0163504	0.963303	0.286061	19.0042	0.508098	32.5326	0.563447	37.6341	0.840954	56.4103	0.156182	10.8512	0.424675	26.894	0.701934	44.3439
0.287474	17.2942	0.0179479	1.0024	0.286884	17.9479	0.508269	30.7115	0.564007	35.4645	0.841266	53.1119	0.157147	10.5854	0.425327	25.4346	0.702316	41.9018
0.288374	16.4276	0.0195897	1.03998	0.287753	17.0107	0.508452	29.0852	0.564599	33.537	0.841597	50.1811	0.157871	10.401	0.426015	24.1313	0.70272	39.7181
0.28932	15.6508	0.0212726	1.07609	0.288667	16.174	0.508648	27.6241	0.565222	31.8134	0.841947	47.5599	0.158339	10.2875	0.426739	22.9605	0.703145	37.754
0.29031	14.9508	0.022993	1.11077	0.289627	15.4226	0.508856	26.3044	0.565877	30.2633	0.842316	45.2018	0.159021	10.1304	0.427499	21.9034	0.703592	35.9781
0.291344	14.3171	0.0247481	1.14406	0.290631	14.7446	0.509077	25.1067	0.566563	28.8618	0.842703	43.0692	0.159773	9.96696	0.428295	20.9444	0.70406	34.3649
0.292421	13.7409	0.026535	1.17602	0.291678	14.1298	0.509312	24.0148	0.56728	27.5889	0.84311	41.1314	0.160812	9.75638	0.429126	20.0706	0.70455	32.8929
0.293542	13.215	0.028351	1.20668	0.29277	13.5702	0.50956	23.0154	0.568027	26.4277	0.843534	39.3629	0.162154	9.50766	0.429992	19.2713	0.705061	31.5447
0.294704	12.7333	0.0301936	1.23609	0.293903	13.0588	0.509823	22.0974	0.568804	25.3644	0.843978	37.7427	0.163817	9.23057	0.430893	18.5376	0.705593	30.3052
0.295908	12.2905	0.0320608	1.2643	0.295079	12.5899	0.510099	21.2512	0.56961	24.3872	0.844439	36.2529	0.165821	8.93472	0.431828	17.8619	0.706147	29.1621
0.297153	11.8824	0.0339503	1.29137	0.296296	12.1585	0.510391	20.4688	0.570446	23.4861	0.84492	34.8784	0.168188	8.62908	0.432798	17.2377	0.706721	28.1044
0.298438	11.5052	0.0358601	1.31732	0.297554	11.7604	0.510697	19.7434	0.571312	22.6528	0.845419	33.6065	0.170624	8.35468	0.433802	16.6595	0.707317	27.1232
0.299763	11.1555	0.0377886	1.34223	0.298682	11.438	0.511019	19.069	0.572206	21.88	0.845936	32.4261	0.173125	8.10727	0.434839	16.1225	0.707934	26.2104
0.301126	10.8307	0.039734	1.36612	0.299668	11.1795	0.511357	18.4405	0.573128	21.1613	0.846472	31.3278	0.175687	7.88332	0.435911	15.6225	0.708572	25.3593
0.302528	10.5283	0.041695	1.38905	0.300499	10.9761	0.511711	17.8534	0.574079	20.4915	0.847027	30.3034	0.178308	7.67986	0.437015	15.156	0.709231	24.5638
0.303966	10.2462	0.04367	1.41104	0.301166	10.8216	0.512081	17.3038	0.575057	19.8658	0.847599	29.3457	0.180984	7.49439	0.438153	14.7198	0.709911	23.8187
0.305442	9.98241	0.0456579	1.43216	0.301663	10.7114	0.512468	16.7884	0.576063	19.28	0.84819	28.4485	0.183713	7.32479	0.439323	14.3112	0.710611	23.1195
0.306953	9.73536	0.0476574	1.45243	0.301983	10.6423	0.512872	16.304	0.577097	18.7305	0.848799	27.6063	0.186492	7.16926	0.440525	13.9277	0.711332	22.4621
0.308499	9.50358	0.0496675	1.4719	0.302447	10.5449	0.513294	15.848	0.578157	18.2141	0.849427	26.8142	0.189318	7.02624	0.44176	13.5671	0.712074	21.8429
0.31008	9.28577	0.0516873	1.4906	0.302956	10.4415	0.513734	15.418	0.579244	17.728	0.850073	26.0678	0.192189	6.89439	0.443026	13.2275	0.712837	21.2587
0.311695	9.08076	0.0537158	1.50857	0.303656	10.3049	0.514191	15.012	0.580357	17.2697	0.850736	25.3635	0.195102	6.77255	0.444324	12.9072	0.713619	20.7067
0.313343	8.88753	0.0554899	1.52365	0.304553	10.1384	0.514668	14.628	0.581497	16.8368	0.851418	24.6978	0.198056	6.65971	0.445653	12.6046	0.714423	20.1843
0.315023	8.70513	0.0570067	1.53611	0.305656	9.94598	0.515163	14.2644	0.582662	16.4274	0.852118	24.0677	0.201049	6.55499	0.447013	12.3185	0.715246	19.6893
0.316734	8.53275	0.0582638	1.54614	0.306976	9.7318	0.515677	13.9195	0.583853	16.0396	0.852836	23.4703	0.204079	6.4576	0.448404	12.0475	0.71609	19.2196
0.318477	8.36961	0.0592595	1.5539	0.308523	9.50024	0.516211	13.5921	0.585069	15.6719	0.853572	22.9033	0.207143	6.36687	0.449825	11.7905	0.716955	18.7734
0.32025	8.21505	0.0599924	1.55951	0.310104	9.28263	0.516765	13.2809	0.58631	15.3227	0.854325	22.3644	0.210241	6.28218	0.451087	11.5772	0.717839	18.3489
0.322052	8.06844	0.060462	1.56306	0.311719	9.0778	0.517339	12.9847	0.587575	14.9908	0.855097	21.8517	0.213371	6.20301	0.452181	11.4028	0.718743	17.9446
0.323882	7.92923	0.0611374	1.56811	0.313368	8.88474	0.517934	12.7026	0.588865	14.6749	0.855886	21.3632	0.216531	6.12887	0.453098	11.2633	0.719667	17.5592
0.325741	7.79689	0.0618722	1.57353	0.315048	8.7025	0.51855	12.4336	0.59018	14.3739	0.856693	20.8974	0.21972	6.05934	0.453831	11.156	0.720611	17.1915
0.327627	7.67097	0.0628727	1.58078	0.31676	8.53025	0.519186	12.1768	0.591518	14.0868	0.857517	20.4527	0.222937	5.99404	0.454374	11.0788	0.721575	16.8401
0.32954	7.55104	0.0641397	1.58976	0.318503	8.36725	0.519845	11.9315	0.59288	13.8128	0.85836	20.0277	0.22618	5.93262	0.454724	11.03	0.722558	16.5042
0.33148	7.43671	0.0656743	1.60034	0.320276	8.21281	0.520437	11.7266	0.594266	13.5509	0.859219	19.6212	0.229448	5.87478	0.455229	10.9609	0.723561	16.1827
0.333444	7.32762	0.0674775	1.61238	0.322079	8.06632	0.520954	11.558	0.595675	13.3005	0.860097	19.2321	0.232741	5.82024	0.455781	10.887	0.724583	15.8748
0.335434	7.22344	0.0695504	1.62572	0.32391	7.92721	0.521392	11.4227	0.597106	13.0607	0.860991	18.8592	0.236056	5.76875	0.456539	10.7884	0.725625	15.5796
0.337448	7.12388	0.0716268	1.63857	0.325769	7.79497	0.521744	11.3182	0.598561	12.8311	0.861903	18.5016	0.239394	5.72008	0.457506	10.667	0.726685	15.2964
0.339485	7.02865	0.0737065	1.65096	0.327656	7.66914	0.522006	11.2427	0.600038	12.6109	0.862832	18.1583	0.242753	5.67402	0.45869	10.5248	0.727765	15.0245
0.341546	6.93749	0.0757889	1.6629	0.329569	7.5493	0.522176	11.195	0.601537	12.3996	0.863779	17.8287	0.246132	5.63039	0.460099	10.3641	0.728864	14.7632
0.343629	6.85017	0.077874	1.67442	0.331509	7.43505	0.522421	11.1273	0.603059	12.1967	0.864743	17.5118	0.249531	5.58902	0.461742	10.1873	0.729982	14.512
0.345734	6.76646	0.0799612	1.68553	0.333474	7.32604	0.522691	11.0547	0.604602	12.0018	0.865723	17.207	0.252948	5.54974	0.463412	10.0182	0.731119	14.2703
0.347861	6.68617	0.0820505	1.69626	0.335464	7.22193	0.523063	10.9576	0.605964	11.838	0.866721	16.9136	0.256383	5.51243	0.465109	9.85633	0.732275	14.0376
0.35001	6.60911	0.0841415	1.70662	0.337478	7.12243	0.523541	10.8377	0.607139	11.7027	0.867736	16.6311	0.259835	5.47694	0.466832	9.70131	0.733449	13.8134
0.352179	6.5351	0.0862341	1.71662	0.339515	7.02726	0.524131	10.6967	0.608119	11.5937	0.868768	16.3587	0.263304	5.44315	0.468582	9.55272	0.734642	13.5972
0.354368	6.46397	0.0883279	1.72629	0.341577	6.93616	0.52484	10.5366	0.608899	11.5093	0.869816	16.0961	0.266788	5.41096	0.470358	9.41019	0.735853	13.3888
0.356578	6.39559	0.090423	1.73563	0.34366	6.84889	0.525676	10.3596	0.609476	11.4482	0.870881	15.8426	0.270287	5.38027	0.47216	9.27339	0.737083	13.1876
0.358807	6.3298	0.0925191	1.74466	0.345766	6.76524	0.526537	10.1895	0.609847	11.4095	0.871963	15.598	0.273801	5.35097	0.473987	9.14198	0.73833	12.9933
0.361056	6.26647	0.094616	1.7534	0.347893	6.685	0.527422	10.0258	0.610382	11.3545	0.873062	15.3616	0.277329	5.32299	0.475839	9.01569	0.739596	12.8056
0.363324	6.20549	0.0967137	1.76185	0.350042	6.60799	0.528333	9.86837	0.610966	11.2954	0.874177	15.1331	0.28087	5.29625	0.477716	8.89424	0.74088	12.6242
0.365612	6.14674	0.098812	1.77003	0.352211	6.53402	0.52927	9.71676	0.611764	11.2164	0.875308	14.9122	0.284423	5.27066	0.479617	8.77738	0.742182	12.4487
0.367918	6.09012	0.100911	1.77796	0.354401	6.46294	0.530232	9.57072	0.612781	11.1183	0.876456	14.6985	0.287989	5.24616	0.481542	8.66487	0.743501	12.279
0.370243	6.03552	0.10301	1.78563	0.356611	6.39459	0.531221	9.42998	0.614021	11.0027	0.877621	14.4915	0.291567	5.2227	0.483491	8.55649	0.744665	12.1355
0.372587	5.98286	0.10511	1.79307	0.358841	6.32884	0.532236	9.29428	0.61549	10.8708	0.878801	14.2912	0.295156	5.2002	0.485463	8.45203	0.745668	12.0163
0.374949	5.93206	0.107209	1.80027	0.36109	6.26555	0.533278	9.16339	0.617195	10.7245	0.879998	14.0971	0.298756	5.17861	0.487459	8.35131	0.746505	11.9199
0.377331	5.88302	0.109309	1.80726	0.363358	6.2046	0.534347	9.03708	0.618919	10.5831	0.881211	13.9089	0.302366	5.15789	0.489477	8.25413	0.747171	11.8449
0.379732	5.83568	0.111409	1.81404	0.365646	6.14589	0.535444	8.91515	0.620664	10.4465	0.88244	13.7264	0.305986	5.13799	0.491517	8.16033	0.747663	11.7905
0.382151	5.78996	0.113509	1.82061	0.367952	6.08929	0.536568	8.79741	0.622428	10.3145	0.883684	13.5494	0.309616	5.11885	0.49358	8.06975	0.74798	11.756
0.384591	5.74581	0.115609	1.82699	0.370278	6.03473	0.537721	8.68365	0.624212	10.1867	0.884945	13.3776	0.313254	5.10044	0.495665	7.98224	0.748436	11.7069
0.38705	5.70316	0.11771	1.83319	0.372622	5.9821	0.538902	8.57373	0.626015	10.0632	0.886222	13.2109	0.316902	5.08273	0.497771	7.89766	0.748934	11.654
0.389529	5.66196	0.119809	1.83921	0.374985	5.93131	0.540112	8.46746	0.627837	9.94352	0.887514	13.0489	0.320558	5.06566	0.499898	7.81587	0.749615	11.583
0.392029	5.62216	0.121909	1.84505	0.377367	5.8823	0.541351	8.36471	0.629679	9.82767	0.888822	12.8915	0.324221	5.04922	0.502046	7.73675	0.750482	11.4948
0.39455	5.58371	0.124009	1.85073	0.379767	5.83498	0.542619	8.26532	0.631539	9.71542	0.890145	12.7386	0.327893	5.03336	0.504214	7.66019	0.751539	11.3902
0.397092	5.54655	0.126108	1.85626	0.382188	5.78929	0.543917	8.16915	0.633417	9.60663	0.891484	12.5899	0.331571	5.01806	0.506403	7.58606	0.752791	11.2705
0.399657	5.51066	0.128208	1.86163	0.384627	5.74516	0.545244	8.07608	0.635315	9.50115	0.892663	12.4636	0.335257	5.00329	0.508612	7.51427	0.754243	11.1369
0.402245	5.476	0.130307	1.86685	0.387086	5.70254	0.546602	7.98599	0.63723	9.39884	0.893678	12.3584	0.338949	4.98903	0.510841	7.44472	0.755712	11.0072
0.404856	5.44252	0.132406	1.87193	0.389566	5.66136	0.547991	7.89875	0.639163	9.29956	0.894523	12.2729	0.342648	4.97524	0.513088	7.37731	0.757198	10.8811
0.407492	5.41019	0.134504	1.87688	0.392066	5.62158	0.54941	7.81426	0.641115	9.20319	0.895196	12.2064	0.346352	4.9619	0.515355	7.31196	0.7587	10.7587
0.410153	5.37898	0.136602	1.88169	0.394587	5.58314	0.550859	7.73241	0.643084	9.10962	0.895693	12.158	0.350063	4.949	0.517641	7.24857	0.760219	10.6396
0.41284	5.34887	0.1387	1.88638	0.39713	5.54601	0.55234	7.65311	0.645071	9.01874	0.896011	12.1273	0.353779	4.93651	0.519946	7.18707	0.761754	10.5239
0.415555	5.31982	0.140798	1.89095	0.399695	5.51014	0.553852	7.57626	0.647075	8.93043	0.896471	12.0834	0.3575	4.92441	0.522268	7.12739	0.763305	10.4113
0.418297	5.29181	0.142895	1.8954	0.402283	5.47549	0.555396	7.50177	0.649096	8.8446	0.896973	12.0362	0.361226	4.91269	0.524609	7.06944	0.764872	10.3018
0.421068	5.26481	0.144992	1.89974	0.404895	5.44203	0.556971	7.42955	0.651135	8.76115	0.897658	11.9727	0.364956	4.90132	0.526967	7.01317	0.766455	10.1952
0.423869	5.2388	0.147089	1.90396	0.407531	5.40971	0.558578	7.35952	0.65319	8.68	0.89853	11.8935	0.368691	4.89028	0.529343	6.95851	0.768054	10.0914
0.426701	5.21376	0.149185	1.90809	0.410193	5.37852	0.560218	7.29161	0.655263	8.60104	0.899592	11.7995	0.37243	4.87958	0.531736	6.90539	0.769669	9.99029
0.429564	5.18966	0.151281	1.91211	0.41288	5.34843	0.561889	7.22574	0.657351	8.52422	0.900849	11.6915	0.376173	4.86918	0.534146	6.85376	0.771299	9.89183
0.432459	5.16649	0.153377	1.91603	0.415595	5.31939	0.563592	7.16183	0.659457	8.44943	0.902304	11.5704	0.379919	4.85907	0.536573	6.80357	0.772945	9.79588
0.435009	5.14704	0.155472	1.91986	0.418338	5.2914	0.565328	7.09983	0.661578	8.37662	0.903774	11.4525	0.383669	4.84925	0.539016	6.75475	0.774606	9.70237
0.437204	5.13098	0.157567	1.9236	0.421109	5.26441	0.567096	7.03966	0.663716	8.30571	0.905259	11.3374	0.387422	4.83969	0.541476	6.70725	0.776282	9.6112
0.439032	5.11806	0.159661	1.92725	0.423911	5.23842	0.568896	6.98127	0.66587	8.23663	0.906759	11.2252	0.391178	4.83039	0.543951	6.66104	0.777973	9.5223
0.440487	5.10808	0.161756	1.93082	0.426743	5.2134	0.570729	6.92459	0.66804	8.16932	0.908273	11.1158	0.394936	4.82133	0.546442	6.61606	0.779679	9.43558
0.441563	5.10086	0.16385	1.9343	0.429607	5.18931	0.572595	6.86957	0.670225	8.10371	0.909802	11.0089	0.398697	4.81251	0.548948	6.57227	0.7814	9.35097
0.442253	5.0963	0.165943	1.9377	0.432503	5.16615	0.574492	6.81615	0.672426	8.03976	0.911345	10.9047	0.402461	4.80391	0.55147	6.52962	0.783136	9.26841
0.443249	5.08982	0.168037	1.94103	0.435432	5.1439	0.576423	6.76428	0.674643	7.97739	0.912902	10.8029	0.406226	4.79552	0.554007	6.48809	0.784887	9.18781
0.444336	5.08288	0.170129	1.94428	0.438395	5.12252	0.578385	6.7139	0.676874	7.91656	0.914474	10.7035	0.409993	4.78734	0.556558	6.44762	0.786651	9.10912
0.445821	5.0736	0.172222	1.94746	0.441392	5.102	0.58038	6.66498	0.679121	7.85722	0.916059	10.6064	0.413762	4.77935	0.559124	6.40818	0.788431	9.03228
0.447711	5.06214	0.174314	1.95057	0.444425	5.08232	0.582408	6.61746	0.681383	7.79932	0.917659	10.5115	0.417532	4.77154	0.561705	6.36974	0.790224	8.95722
0.450015	5.04868	0.176406	1.95361	0.447492	5.06345	0.584467	6.57129	0.68366	7.74281	0.919273	10.4188	0.421303	4.76392	0.5643	6.33226	0.792032	8.88389
0.452742	5.03344	0.178498	1.95658	0.450596	5.04537	0.586558	6.52644	0.685951	7.68764	0.9209	10.3282	0.425075	4.75646	0.566908	6.29571	0.793853	8.81223
0.455906	5.01665	0.180589	1.9595	0.453735	5.02807	0.588681	6.48286	0.688257	7.63377	0.922542	10.2396	0.428848	4.74917	0.56953	6.26006	0.795689	8.74219
0.459106	5.00059	0.18268	1.96235	0.45691	5.01151	0.590836	6.44051	0.690577	7.58117	0.924197	10.153	0.432622	4.74203	0.572166	6.22528	0.797538	8.67372
0.462341	4.98523	0.184771	1.96514	0.46012	4.99568	0.593023	6.39935	0.692912	7.52978	0.925866	10.0682	0.436396	4.73504	0.574816	6.19134	0.799401	8.60677
0.465611	4.97056	0.186861	1.96787	0.463367	4.98054	0.59524	6.35934	0.695261	7.47958	0.927548	9.98537	0.44017	4.72819	0.577478	6.15822	0.801278	8.5413
0.468916	4.95655	0.188951	1.97055	0.466648	4.96608	0.597489	6.32045	0.697624	7.43052	0.929244	9.90429	0.443944	4.72148	0.580154	6.12589	0.803168	8.47725
0.472256	4.94316	0.191041	1.97317	0.469964	4.95226	0.599768	6.28264	0.700001	7.38258	0.930953	9.82494	0.447717	4.71489	0.582842	6.09432	0.805071	8.41459
0.475629	4.93039	0.193131	1.97574	0.473314	4.93908	0.602078	6.24588	0.702391	7.33571	0.932675	9.74727	0.451491	4.70843	0.585543	6.06349	0.806987	8.35328
0.479035	4.9182	0.19522	1.97826	0.476698	4.92649	0.604419	6.21014	0.704796	7.28988	0.934411	9.67124	0.455263	4.70209	0.588256	6.03338	0.808917	8.29327
0.482473	4.90656	0.197309	1.98072	0.480114	4.91448	0.606789	6.17538	0.707213	7.24507	0.936159	9.5968	0.459035	4.69586	0.590982	6.00396	0.810859	8.23452
0.485943	4.89546	0.199398	1.98314	0.483562	4.90301	0.609189	6.14157	0.709645	7.20124	0.937921	9.52389	0.462806	4.68973	0.59372	5.97522	0.812814	8.17701
0.489443	4.88487	0.201486	1.98552	0.487042	4.89207	0.611618	6.10868	0.712089	7.15837	0.939696	9.45249	0.466575	4.68371	0.59647	5.94713	0.814782	8.1207
0.492971	4.87476	0.203574	1.98784	0.490551	4.88164	0.614076	6.07668	0.714547	7.11642	0.941483	9.38254	0.470343	4.67778	0.599232	5.91968	0.816763	8.06554
0.496529	4.86511	0.205662	1.99013	0.494088	4.87167	0.616563	6.04556	0.717018	7.07538	0.943284	9.314	0.47411	4.67195	0.602005	5.89284	0.818756	8.01151
0.500113	4.8559	0.20775	1.99237	0.497654	4.86217	0.619078	6.01526	0.719501	7.03521	0.945097	9.24684	0.477874	4.66621	0.60479	5.8666	0.820762	7.95858
0.503723	4.84711	0.209838	1.99456	0.501247	4.85309	0.621622	5.98579	0.721998	6.99588	0.946923	9.18101	0.481637	4.66055	0.607587	5.84093	0.82278	7.90672
0.507358	4.83871	0.211925	1.99672	0.504865	4.84442	0.624192	5.9571	0.724507	6.95738	0.948761	9.11648	0.485397	4.65497	0.610394	5.81583	0.82481	7.85589
0.511017	4.83068	0.214012	1.99884	0.508508	4.83614	0.62679	5.92917	0.727028	6.91969	0.950612	9.05321	0.489155	4.64946	0.613213	5.79128	0.826852	7.80607
0.514698	4.823	0.216098	2.00091	0.512174	4.82822	0.629415	5.90198	0.729562	6.88277	0.952475	8.99118	0.49291	4.64403	0.616043	5.76726	0.828906	7.75723
0.518402	4.81566	0.218185	2.00295	0.515862	4.82065	0.632066	5.8755	0.732109	6.84662	0.954351	8.93034	0.496663	4.63867	0.618884	5.74376	0.830972	7.70934
0.522125	4.80863	0.220271	2.00496	0.519572	4.81341	0.634742	5.84972	0.734667	6.8112	0.956238	8.87067	0.500412	4.63336	0.621736	5.72076	0.833049	7.66238
0.525868	4.8019	0.222357	2.00693	0.523302	4.80648	0.637445	5.82462	0.737238	6.7765	0.958138	8.81213	0.504158	4.62813	0.624598	5.69825	0.835138	7.61633
0.52963	4.79545	0.224443	2.00886	0.527051	4.79984	0.640172	5.80016	0.739821	6.7425	0.96005	8.7547	0.507901	4.62294	0.627471	5.67621	0.837239	7.57116
0.533409	4.78926	0.226529	2.01076	0.530818	4.79347	0.642925	5.77634	0.742416	6.70917	0.961974	8.69834	0.51164	4.61782	0.630355	5.65464	0.839351	7.52684
0.537204	4.78333	0.228614	2.01263	0.534602	4.78737	0.645701	5.75312	0.745022	6.67652	0.96391	8.64303	0.515375	4.61274	0.633249	5.63351	0.841475	7.48336
0.541015	4.77763	0.2307	2.01446	0.538403	4.78151	0.648501	5.7305	0.74764	6.6445	0.965857	8.58874	0.519106	4.60771	0.636153	5.61283	0.84361	7.4407
0.544841	4.77215	0.232785	2.01626	0.542218	4.77588	0.651325	5.70846	0.75027	6.61311	0.967817	8.53545	0.522833	4.60272	0.639068	5.59257	0.845755	7.39882
0.548681	4.76688	0.234869	2.01804	0.546049	4.77047	0.654172	5.68697	0.752911	6.58234	0.969788	8.48312	0.526555	4.59778	0.641992	5.57273	0.847912	7.35772
0.552533	4.7618	0.236954	2.01978	0.549892	4.76526	0.657042	5.66602	0.755564	6.55216	0.97177	8.43175	0.530272	4.59288	0.644927	5.55329	0.85008	7.31737
0.556398	4.75691	0.239039	2.02149	0.553749	4.76024	0.659933	5.6456	0.758228	6.52256	0.973764	8.38129	0.533985	4.58801	0.647872	5.53425	0.852259	7.27776
0.560274	4.7522	0.241123	2.02318	0.557617	4.75541	0.662846	5.62568	0.760903	6.49353	0.97577	8.33174	0.537692	4.58317	0.650826	5.51559	0.854448	7.23886
0.56416	4.74765	0.243207	2.02484	0.561496	4.75075	0.665781	5.60626	0.763589	6.46505	0.977787	8.28307	0.541394	4.57837	0.653791	5.49731	0.856648	7.20066
0.568057	4.74325	0.245291	2.02647	0.565386	4.74624	0.668737	5.58731	0.766286	6.43711	0.979815	8.23525	0.545091	4.57359	0.656765	5.47939	0.858858	7.16314
0.571963	4.739	0.247375	2.02807	0.569286	4.74189	0.671713	5.56883	0.768994	6.40969	0.981854	8.18827	0.548781	4.56884	0.659749	5.46183	0.861079	7.12629
0.575878	4.73488	0.249458	2.02965	0.573195	4.73769	0.674709	5.5508	0.771713	6.38279	0.983904	8.1421	0.552465	4.56411	0.662743	5.44462	0.86331	7.09008
0.579801	4.7309	0.251542	2.03121	0.577112	4.73361	0.677725	5.5332	0.774443	6.35638	0.985966	8.09674	0.556144	4.5594	0.665747	5.42775	0.865552	7.05451
0.583731	4.72703	0.253625	2.03274	0.581038	4.72967	0.68076	5.51602	0.777183	6.33046	0.988038	8.05215	0.559815	4.55471	0.66876	5.41121	0.867803	7.01956
0.587669	4.72328	0.255708	2.03424	0.58497	4.72584	0.683815	5.49925	0.779934	6.30502	0.990121	8.00832	0.56348	4.55004	0.671783	5.395	0.870065	6.98521
0.591613	4.71963	0.257791	2.03572	0.58891	4.72212	0.686887	5.48288	0.782695	6.28004	0.992215	7.96523	0.567138	4.54538	0.674815	5.3791	0.872337	6.95145
0.595562	4.71609	0.259874	2.03718	0.592856	4.71851	0.689978	5.4669	0.785467	6.25552	0.99432	7.92287	0.570788	4.54073	0.677857	5.36352	0.874618	6.91827
0.599518	4.71264	0.261957	2.03862	0.596807	4.71499	0.693087	5.45129	0.788249	6.23143	0.996435	7.88121	0.574431	4.53609	0.680908	5.34823	0.87691	6.88565
0.603478	4.70928	0.264039	2.04004	0.600764	4.71157	0.696213	5.43604	0.791041	6.20779	0.998561	7.84025	0.578067	4.53146	0.683969	5.33325	0.879211	6.85358
0.607443	4.70601	0.266122	2.04143	0.604726	4.70824	0.699357	5.42114	0.793844	6.18456	1.0007	7.79996	0.581694	4.52683	0.687039	5.31855	0.881521	6.82204
0.611411	4.70281	0.268204	2.0428	0.608692	4.70499	0.702517	5.40659	0.796656	6.16174			0.585313	4.52221	0.690119	5.30413	0.883842	6.79104
0.615384	4.69969	0.270286	2.04416	0.612662	4.70182	0.705693	5.39237	0.799478	6.13933			0.588924	4.51759	0.693208	5.29	0.886171	6.76054
0.61936	4.69663	0.272368	2.04549	0.616636	4.69872	0.708885	5.37847	0.802311	6.11731			0.592526	4.51297	0.696307	5.27613	0.888511	6.73055
0.623339	4.69364	0.27445	2.0468	0.620613	4.69568	0.712093	5.36489	0.805153	6.09568			0.596119	4.50834	0.699415	5.26253	0.890859	6.70104
0.627321	4.69072	0.276532	2.0481	0.624592	4.69271	0.715317	5.35161	0.808005	6.07443			0.599703	4.50371	0.702533	5.24919	0.893217	6.67202
0.631304	4.68785	0.278613	2.04937	0.628575	4.68981	0.718555	5.33863	0.810866	6.05354			0.603278	4.49908	0.70566	5.2361	0.895584	6.64346
0.63529	4.68503	0.280695	2.05063	0.632559	4.68695	0.721809	5.32593	0.813737	6.03301			0.606843	4.49443	0.708796	5.22326	0.89796	6.61537
0.639277	4.68226	0.282776	2.05187	0.636545	4.68415	0.725076	5.31351	0.816618	6.01283			0.610398	4.48978	0.711942	5.21067	0.900345	6.58772
0.643266	4.67954	0.284858	2.05309	0.640533	4.6814	0.728358	5.30137	0.819508	5.993			0.613943	4.48512	0.715097	5.19832	0.902739	6.56051
0.647256	4.67687	0.286939	2.0543	0.644522	4.6787	0.731654	5.28949	0.822408	5.97351			0.617477	4.48044	0.718262	5.1862	0.905142	6.53374
0.651246	4.67423	0.28902	2.05548	0.648512	4.67603	0.734963	5.27786	0.825317	5.95434			0.621001	4.47575	0.721436	5.17431	0.907553	6.50738
0.655237	4.67164	0.291101	2.05665	0.652503	4.67341	0.738286	5.26648	0.828235	5.9355			0.624513	4.47105	0.72462	5.16264	0.909974	6.48144
0.659228	4.66908	0.293182	2.05781	0.656493	4.67083	0.741622	5.25535	0.831163	5.91697			0.628015	4.46632	0.727813	5.1512	0.912403	6.4559
0.663219	4.66655	0.295262	2.05895	0.660484	4.66828	0.74497	5.24445	0.8341	5.89875			0.631505	4.46158	0.731015	5.13997	0.914841	6.43075
0.667209	4.66405	0.297343	2.06007	0.664475	4.66576	0.748331	5.23379	0.837046	5.88084			0.634984	4.45682	0.734228	5.12896	0.917287	6.40599
0.671199	4.66158	0.299423	2.06118	0.668466	4.66327	0.751704	5.22334	0.84	5.86322			0.63845	4.45204	0.737449	5.11815	0.919742	6.38161
0.675188	4.65914	0.301504	2.06228	0.672455	4.66081	0.75509	5.21312	0.842964	5.84589			0.641905	4.44724	0.74068	5.10755	0.922205	6.35761
0.679176	4.65672	0.303584	2.06336	0.676444	4.65837	0.758487	5.2031	0.845937	5.82885			0.645347	4.44241	0.743921	5.09715	0.924677	6.33396
0.683162	4.65432	0.305664	2.06442	0.680431	4.65596	0.761895	5.19329	0.848919	5.81208			0.648777	4.43756	0.747171	5.08694	0.927157	6.31068
0.687148	4.65194	0.307744	2.06547	0.684418	4.65357	0.765315	5.18369	0.85191	5.79559			0.652194	4.43268	0.750431	5.07693	0.929645	6.28774
0.691131	4.64958	0.309824	2.06651	0.688402	4.65119	0.768747	5.17427	0.854909	5.77936			0.655598	4.42778	0.7537	5.06711	0.932142	6.26515
0.695112	4.64723	0.311904	2.06754	0.692385	4.64884	0.772189	5.16505	0.857918	5.7634			0.658988	4.42285	0.756979	5.05747	0.934647	6.24289
0.699091	4.6449	0.313984	2.06855	0.696365	4.6465	0.775642	5.15601	0.860934	5.74769			0.662365	4.41789	0.760267	5.04802	0.93716	6.22096
0.703068	4.64259	0.316064	2.06955	0.700344	4.64417	0.779105	5.14716	0.86396	5.73223			0.665729	4.4129	0.763565	5.03875	0.939681	6.19935
0.707042	4.64028	0.318143	2.07053	0.70432	4.64186	0.782579	5.13848	0.866994	5.71702			0.669078	4.40788	0.766872	5.02965	0.94221	6.17806
0.711013	4.63798	0.320223	2.07151	0.708293	4.63956	0.786063	5.12997	0.870037	5.70206			0.672414	4.40283	0.770189	5.02072	0.944747	6.15708
0.714981	4.63569	0.322302	2.07247	0.712263	4.63726	0.789557	5.12163	0.873089	5.68733			0.675735	4.39775	0.773515	5.01196	0.947292	6.13641
0.718946	4.63341	0.324382	2.07342	0.71623	4.63498	0.793061	5.11346	0.876148	5.67283			0.679042	4.39263	0.776851	5.00337	0.949845	6.11604
0.722908	4.63114	0.326461	2.07435	0.720194	4.6327	0.796574	5.10544	0.879217	5.65856			0.682334	4.38749	0.780196	4.99494	0.952406	6.09595
0.726866	4.62886	0.32854	2.07528	0.724155	4.63042	0.800097	5.09758	0.882294	5.64452			0.685612	4.38231	0.78355	4.98667	0.954975	6.07616
0.73082	4.62659	0.330619	2.07619	0.728111	4.62815	0.803629	5.08987	0.885379	5.63069			0.688874	4.37709	0.786914	4.97856	0.957551	6.05665
0.73477	4.62433	0.332698	2.0771	0.732064	4.62588	0.807171	5.08231	0.888472	5.61708			0.692122	4.37185	0.790287	4.9706	0.960136	6.03742
0.738716	4.62206	0.334777	2.07799	0.736013	4.62361	0.810721	5.0749	0.891574	5.60369			0.695354	4.36656	0.79367	4.9628	0.962728	6.01846
0.742658	4.61979	0.336856	2.07887	0.739958	4.62134	0.814281	5.06762	0.894684	5.5905			0.69857	4.36125	0.797061	4.95513	0.965328	5.99977
0.746595	4.61752	0.338935	2.07974	0.743898	4.61908	0.817849	5.06049	0.897803	5.57751			0.701772	4.3559	0.800462	4.94762	0.967935	5.98134
0.750528	4.61525	0.341014	2.0806	0.747834	4.6168	0.821425	5.05348	0.90093	5.56473			0.704957	4.35051	0.803872	4.94025	0.97055	5.96316
0.754455	4.61297	0.343093	2.08145	0.751765	4.61453	0.825011	5.04661	0.904065	5.55214			0.708127	4.34509	0.807291	4.93301	0.973173	5.94524
0.758378	4.61069	0.345171	2.08229	0.755691	4.61225	0.828604	5.03987	0.907208	5.53975			0.71128	4.33963	0.810719	4.92592	0.975803	5.92758
0.762295	4.6084	0.34725	2.08312	0.759612	4.60997	0.832206	5.03326	0.910359	5.52754			0.714418	4.33413	0.814156	4.91895	0.978441	5.91015
0.766207	4.6061	0.349328	2.08394	0.763527	4.60768	0.835816	5.02676	0.913518	5.51552			0.71754	4.32861	0.817601	4.91212	0.981087	5.89297
0.770113	4.6038	0.351407	2.08476	0.767437	4.60538	0.839434	5.02039	0.916686	5.50369			0.720645	4.32304	0.821056	4.90541	0.98374	5.87602
0.774014	4.60149	0.353485	2.08556	0.771342	4.60307	0.843059	5.01413	0.919862	5.49203			0.723734	4.31744	0.824519	4.89883	0.986401	5.8593
0.777908	4.59917	0.355563	2.08635	0.775241	4.60076	0.846693	5.00799	0.923045	5.48056			0.726807	4.31181	0.82799	4.89238	0.989069	5.84282
0.781797	4.59684	0.357641	2.08714	0.779133	4.59844	0.850334	5.00197	0.926237	5.46925			0.729863	4.30614	0.83147	4.88604	0.991745	5.82655
0.785679	4.5945	0.35972	2.08791	0.78302	4.5961	0.853982	4.99605	0.929437	5.45812			0.732903	4.30043	0.834958	4.87982	0.994428	5.81051
0.789555	4.59214	0.361798	2.08868	0.7869	4.59376	0.857639	4.99024	0.932645	5.44715			0.735926	4.29469	0.838455	4.87372	0.997118	5.79469
0.793425	4.58978	0.363876	2.08944	0.790774	4.5914	0.861302	4.98453	0.935861	5.43635			0.738933	4.28892	0.841959	4.86773	0.999816	5.77908
0.797288	4.5874	0.365954	2.09019	0.794642	4.58903	0.864972	4.97893	0.939085	5.42572			0.741923	4.28312	0.845472	4.86185	1.00252	5.76367
0.801143	4.585	0.368032	2.09093	0.798502	4.58665	0.86865	4.97342	0.942316	5.41524			0.744897	4.27728	0.848992	4.85607		
0.804992	4.5826	0.370109	2.09166	0.802356	4.58425	0.872335	4.96802	0.945556	5.40492			0.747854	4.2714	0.85252	4.8504		
0.808834	4.58018	0.372187	2.09239	0.806203	4.58184	0.876027	4.96271	0.948804	5.39475			0.750794	4.2655	0.856055	4.84484		
0.812669	4.57774	0.374265	2.0931	0.810042	4.57941	0.879725	4.9575	0.95206	5.38474			0.753718	4.25956	0.859598	4.83937		
0.816496	4.57528	0.376343	2.09381	0.813875	4.57697	0.88343	4.95237	0.955323	5.37487			0.756625	4.25359	0.863148	4.834		
0.820315	4.57281	0.37842	2.09451	0.817699	4.57451	0.887142	4.94734	0.958595	5.36515			0.759515	4.24759	0.866706	4.82873		
0.824127	4.57032	0.380498	2.09521	0.821516	4.57203	0.89086	4.9424	0.961874	5.35558			0.762389	4.24156	0.87027	4.82355		
0.827931	4.56782	0.382575	2.0959	0.825326	4.56954	0.894585	4.93754	0.965162	5.34615			0.765246	4.23551	0.873841	4.81846		
0.831727	4.56529	0.384653	2.09657	0.829127	4.56702	0.898316	4.93277	0.968457	5.33686			0.768086	4.22942	0.877419	4.81346		
0.835515	4.56275	0.38673	2.09725	0.832921	4.56449	0.902054	4.92808	0.97176	5.32771			0.770911	4.2233	0.881003	4.80854		
0.839294	4.56019	0.388807	2.09791	0.836706	4.56195	0.905798	4.92347	0.975071	5.3187			0.773718	4.21716	0.884594	4.80371		
0.843066	4.55761	0.390885	2.09857	0.840483	4.55938	0.909547	4.91894	0.97839	5.30981			0.776509	4.21099	0.88819	4.79896		
0.846828	4.55501	0.392962	2.09922	0.844251	4.55679	0.913303	4.91449	0.981717	5.30107			0.779284	4.20479	0.891793	4.79429		
0.850582	4.55239	0.395039	2.09987	0.848011	4.55418	0.917064	4.91011	0.985052	5.29245			0.782043	4.19857	0.895401	4.7897		
0.854328	4.54974	0.397116	2.10051	0.851763	4.55156	0.920832	4.90581	0.988394	5.28395			0.784785	4.19232	0.899015	4.78518		
0.858064	4.54708	0.399193	2.10114	0.855505	4.54891	0.924605	4.90158	0.991744	5.27559			0.787511	4.18605	0.902635	4.78074		
0.861792	4.5444	0.40127	2.10176	0.859239	4.54624	0.928383	4.89743	0.995103	5.26735			0.790221	4.17975	0.90626	4.77637		
0.865511	4.54169	0.403347	2.10238	0.862964	4.54355	0.932167	4.89334	0.998469	5.25923			0.792915	4.17343	0.90989	4.77207		
0.86922	4.53897	0.405424	2.103	0.86668	4.54084	0.935957	4.88932	1.00184	5.25123			0.795593	4.16709	0.913525	4.76784		
0.87292	4.53622	0.407501	2.1036	0.870386	4.53811	0.939752	4.88536					0.798255	4.16073	0.917165	4.76367		
0.876611	4.53345	0.409578	2.1042	0.874084	4.53535	0.943552	4.88148					0.800902	4.15435	0.920809	4.75956		
0.880293	4.53066	0.411655	2.1048	0.877771	4.53257	0.947357	4.87765					0.803532	4.14795	0.924458	4.75552		
0.883965	4.52785	0.413732	2.10539	0.88145	4.52978	0.951167	4.87389					0.806147	4.14153	0.928111	4.75154		
0.887627	4.52501	0.415808	2.10597	0.885119	4.52696	0.954982	4.87018					0.808747	4.1351	0.931768	4.74762		
0.89128	4.52215	0.417885	2.10655	0.888778	4.52411	0.958801	4.86654					0.811331	4.12864	0.935429	4.74375		
0.894922	4.51927	0.419962	2.10712	0.892428	4.52125	0.962626	4.86295					0.813901	4.12217	0.939093	4.73994		
0.898555	4.51637	0.422038	2.10769	0.896068	4.51836	0.966455	4.85943					0.816454	4.11569	0.942761	4.73618		
0.902179	4.51344	0.424115	2.10825	0.899697	4.51545	0.970288	4.85595					0.818993	4.10918	0.946433	4.73248		
0.905792	4.5105	0.426191	2.1088	0.903317	4.51252	0.974126	4.85253					0.821517	4.10267	0.950108	4.72882		
0.909395	4.50753	0.428268	2.10935	0.906927	4.50956	0.977968	4.84916					0.824026	4.09614	0.953785	4.72521		
0.912988	4.50453	0.430344	2.1099	0.910527	4.50659	0.981814	4.84585					0.826521	4.0896	0.957466	4.72165		
0.916571	4.50152	0.432421	2.11044	0.914117	4.50359	0.985664	4.84258					0.829	4.08305	0.961149	4.71814		
0.920143	4.49848	0.434497	2.11097	0.917697	4.50056	0.989518	4.83936					0.831466	4.07648	0.964835	4.71467		
0.923706	4.49542	0.436573	2.1115	0.921266	4.49752	0.993375	4.83619					0.833917	4.06991	0.968523	4.71124		
0.927258	4.49234	0.43865	2.11203	0.924825	4.49445	0.997237	4.83307					0.836354	4.06333	0.972213	4.70786		
0.9308	4.48923	0.440726	2.11255	0.928374	4.49136	1.0011	4.82999					0.838777	4.05673	0.975905	4.70451		
0.934331	4.4861	0.442802	2.11306	0.931913	4.48825							0.841185	4.05013	0.979599	4.7012		
0.937852	4.48296	0.444878	2.11357	0.935441	4.48512							0.84358	4.04353	0.983295	4.69793		
0.941363	4.47979	0.446954	2.11408	0.938959	4.48196							0.845962	4.03691	0.986992	4.6947		
0.944862	4.47659	0.44903	2.11458	0.942466	4.47878							0.848329	4.03029	0.99069	4.6915		
0.948352	4.47338	0.451107	2.11508	0.945962	4.47558							0.850684	4.02367	0.99439	4.68833		
0.951831	4.47014	0.453183	2.11557	0.949449	4.47236							0.853025	4.01704	0.99809	4.6852		
0.955299	4.46689	0.455259	2.11606	0.952924	4.46912							0.855353	4.0104	1.00179	4.6821		
0.958757	4.46361	0.457334	2.11654	0.956389	4.46586							0.857668	4.00377				
0.962204	4.46031	0.45941	2.11702	0.959844	4.46257							0.85997	3.99713				
0.965641	4.45699	0.461486	2.11749	0.963287	4.45927							0.862259	3.99049				
0.969067	4.45365	0.463562	2.11796	0.966721	4.45594							0.864536	3.98385				
0.972482	4.45029	0.465638	2.11843	0.970143	4.4526							0.8668	3.97721				
0.975887	4.44691	0.467714	2.11889	0.973555	4.44923							0.869052	3.97057				
0.979281	4.44351	0.469789	2.11935	0.976957	4.44585							0.871292	3.96393				
0.982664	4.4401	0.471865	2.11981	0.980347	4.44244							0.873519	3.95729				
0.986037	4.43666	0.473941	2.12026	0.983727	4.43901							0.875735	3.95065				
0.989398	4.4332	0.476016	2.1207	0.987096	4.43557							0.877939	3.94402				
0.99275	4.42972	0.478092	2.12114	0.990455	4.43211							0.880132	3.93738				
0.99609	4.42623	0.480168	2.12158	0.993803	4.42862							0.882313	3.93076				
0.99942	4.42271	0.482243	2.12202	0.99714	4.42512							0.884482	3.92414				
1.00274	4.41918	0.484319	2.12245	1.00047	4.4216							0.886641	3.91752				
		0.486394	2.12288									0.888788	3.91091				
		0.48847	2.1233									0.890924	3.9043				
		0.490545	2.12372									0.89305	3.8977				
		0.492621	2.12414									0.895165	3.89111				
		0.494696	2.12455									0.89727	3.88453				
		0.496771	2.12496									0.899364	3.87795				
		0.498847	2.12537									0.901448	3.87139				
		0.500922	2.12577									0.903522	3.86483				
		0.502997	2.12617									0.905586	3.85828				
		0.505072	2.12657									0.90764	3.85174				
		0.507148	2.12697									0.909685	3.84522				
		0.509223	2.12736									0.91172	3.8387				
		0.511298	2.12774									0.913746	3.8322				
		0.513373	2.12813									0.915762	3.82571				
		0.515448	2.12851									0.91777	3.81923				
		0.517523	2.12889									0.919768	3.81276				
		0.519598	2.12926									0.921758	3.80631				
		0.521673	2.12964									0.923738	3.79987				
		0.523748	2.13									0.925711	3.79344				
		0.525823	2.13037									0.927674	3.78703				
		0.527898	2.13073									0.92963	3.78063				
		0.529973	2.1311									0.931577	3.77425				
		0.532048	2.13145									0.933517	3.76789				
		0.534123	2.13181									0.935448	3.76154				
		0.536198	2.13216									0.937372	3.7552				
		0.538273	2.13251									0.939287	3.74888				
		0.540347	2.13286									0.941196	3.74258				
		0.542422	2.1332									0.943097	3.7363				
		0.544497	2.13355									0.94499	3.73003				
		0.546572	2.13388									0.946877	3.72379				
		0.548646	2.13422									0.948756	3.71756				
		0.550721	2.13456									0.950629	3.71134				
		0.552796	2.13489									0.952494	3.70515				
		0.55487	2.13522									0.954353	3.69897				
		0.556945	2.13554									0.956205	3.69282				
		0.55902	2.13587									0.958051	3.68668				
		0.561094	2.13619									0.959891	3.68056				
		0.563169	2.13651									0.961724	3.67447				
		0.565243	2.13683									0.963551	3.66839				
		0.567318	2.13714									0.965372	3.66233				
		0.569392	2.13745									0.967187	3.65629				
		0.571467	2.13777									0.968997	3.65028				
		0.573541	2.13807									0.9708	3.64428				
		0.575616	2.13838									0.972598	3.63831				
		0.57769	2.13868									0.974391	3.63235				
		0.579764	2.13899									0.976178	3.62642				
		0.581839	2.13928									0.97796	3.62051				
		0.583913	2.13958									0.979736	3.61462				
		0.585987	2.13988									0.981508	3.60875				
		0.588062	2.14017									0.983275	3.6029				
		0.590136	2.14046									0.985036	3.59708				
		0.59221	2.14075									0.986793	3.59127				
		0.594285	2.14104									0.988545	3.58549				
		0.596359	2.14132									0.990293	3.57973				
		0.598433	2.14161									0.992036	3.574				
		0.600507	2.14189									0.993775	3.56828				
		0.602581	2.14217									0.995509	3.56259				
		0.604655	2.14245									0.997239	3.55693				
		0.60673	2.14272									0.998965	3.55128				
		0.608804	2.14299									1.00069	3.54566				
		0.610878	2.14327														
		0.612952	2.14354														
		0.615026	2.1438														
		0.6171	2.14407														
		0.619174	2.14434														
		0.621248	2.1446														
		0.623322	2.14486														
		0.625396	2.14512														
		0.62747	2.14538														
		0.629544	2.14563														
		0.631618	2.14589														
		0.633691	2.14614														
		0.635765	2.14639														
		0.637839	2.14664														
		0.639913	2.14689														
		0.641987	2.14713														
		0.644061	2.14738														
		0.646134	2.14762														
		0.648208	2.14786														
		0.650282	2.1481														
		0.652356	2.14834														
		0.654429	2.14858														
		0.656503	2.14881														
		0.658577	2.14905														
		0.66065	2.14928														
		0.662724	2.14951														
		0.664798	2.14974														
		0.666871	2.14997														
		0.668945	2.15019														
		0.671019	2.15042														
		0.673092	2.15064														
		0.675166	2.15086														
		0.677239	2.15108														
		0.679313	2.1513														
		0.681386	2.15152														
		0.68346	2.15174														
		0.685533	2.15196														
		0.687607	2.15217														
		0.68968	2.15238														
		0.691754	2.15259														
		0.693827	2.1528														
		0.6959	2.15301														
		0.697974	2.15322														
		0.700047	2.15343														
		0.70212	2.15363														
		0.704194	2.15384														
		0.706267	2.15404														
		0.70834	2.15424														
		0.710414	2.15444														
		0.712487	2.15464														
		0.71456	2.15484														
		0.716633	2.15504														
		0.718707	2.15524														
		0.72078	2.15543														
		0.722853	2.15562														
		0.724926	2.15582														
		0.726999	2.15601														
		0.729073	2.1562														
		0.731146	2.15639														
		0.733219	2.15658														
		0.735292	2.15676														
		0.737365	2.15695														
		0.739438	2.15714														
		0.741511	2.15732														
		0.743584	2.1575														
		0.745657	2.15769														
		0.74773	2.15787														
		0.749803	2.15805														
		0.751876	2.15823														
		0.75395	2.1584														
		0.756022	2.15858														
		0.758095	2.15876														
		0.760168	2.15893														
		0.762241	2.15911														
		0.764314	2.15928														
		0.766387	2.15945														
		0.76846	2.15962														
		0.770533	2.15979														
		0.772606	2.15996														
		0.774679	2.16013														
		0.776752	2.1603														
		0.778824	2.16047														
		0.780897	2.16063														
		0.78297	2.1608														
		0.785043	2.16096														
		0.787116	2.16112														
		0.789188	2.16129														
		0.791261	2.16145														
		0.793334	2.16161														
		0.795407	2.16177														
		0.797479	2.16193														
		0.799552	2.16208														
		0.801625	2.16224														
		0.803697	2.1624														
		0.80577	2.16255														
		0.807843	2.16271														
		0.809915	2.16286														
		0.811988	2.16302														
		0.814061	2.16317														
		0.816133	2.16332														
		0.818206	2.16347														
		0.820278	2.16362														
		0.822351	2.16377														
		0.824424	2.16392														
		0.826496	2.16407														
		0.828569	2.16421														
		0.830641	2.16436														
		0.832714	2.1645														
		0.834786	2.16465														
		0.836859	2.16479														
		0.838931	2.16494														
		0.841004	2.16508														
		0.843076	2.16522														
		0.845149	2.16536														
		0.847221	2.1655														
		0.849293	2.16564														
		0.851366	2.16578														
		0.853438	2.16592														
		0.855511	2.16606														
		0.857583	2.1662														
		0.859655	2.16633														
		0.861728	2.16647														
		0.8638	2.1666														
		0.865872	2.16674														
		0.867945	2.16687														
		0.870017	2.167														
		0.872089	2.16714														
		0.874161	2.16727														
		0.876234	2.1674														
		0.878306	2.16753														
		0.880378	2.16766														
		0.88245	2.16779														
		0.884523	2.16792														
		0.886595	2.16805														
		0.888667	2.16817														
		0.890739	2.1683														
		0.892811	2.16843														
		0.894884	2.16855														
		0.896956	2.16868														
		0.899028	2.1688														
		0.9011	2.16893														
		0.903172	2.16905														
		0.905244	2.16917														
		0.907316	2.16929														
		0.909388	2.16942														
		0.91146	2.16954														
		0.913533	2.16966														
		0.915605	2.16978														
		0.917677	2.1699														
		0.919749	2.17001														
		0.921821	2.17013														
		0.923893	2.17025														
		0.925965	2.17037														
		0.928037	2.17048														
		0.930109	2.1706														
		0.932181	2.17072														
		0.934253	2.17083														
		0.936324	2.17095														
		0.938396	2.17106														
		0.940468	2.17117														
		0.94254	2.17129														
		0.944612	2.1714														
		0.946684	2.17151														
		0.948756	2.17162														
		0.950828	2.17173														
		0.9529	2.17184														
		0.954971	2.17195														
		0.957043	2.17206														
		0.959115	2.17217														
		0.961187	2.17228														
		0.963259	2.17239														
		0.96533	2.1725														
		0.967402	2.1726														
		0.969474	2.17271														
		0.971546	2.17282														
		0.973618	2.17292														
		0.975689	2.17303														
		0.977761	2.17313														
		0.979833	2.17324														
		0.981904	2.17334														
		0.983976	2.17344														
		0.986048	2.17355														
		0.988119	2.17365														
		0.990191	2.17375														
		0.992263	2.17385														
		0.994334	2.17395														
		0.996406	2.17405														
		0.998478	2.17415														
		1.00055	2.17425														
