Sym0		Asym0		Sym1		Sym2		Sym3		Sym4		Asym1		Asym2		Asym3		Asym4	
268  Points		499  Points		268  Points		229  Points		213  Points		148  Points		368  Points		240  Points		201  Points		145  Points	
Freq (MHz)	Vph (m/ms)	Freq (MHz)	Vph (m/ms)	Freq (MHz)	Vph (m/ms)	Freq (MHz)	Vph (m/ms)	Freq (MHz)	Vph (m/ms)	Freq (MHz)	Vph (m/ms)	Freq (MHz)	Vph (m/ms)	Freq (MHz)	Vph (m/ms)	Freq (MHz)	Vph (m/ms)	Freq (MHz)	Vph (m/ms)
0.279512	759.044	0.000249305	0.127849	0.279516	505.837	0.441752	590.848	0.559027	728.663	0.838533	949.697	0.139758	691.51	0.419276	517.638	0.698771	5892.03	0.883495	1106.26
0.279551	215.05	0.000543005	0.188433	0.279564	188.35	0.441778	263.065	0.559066	329.077	0.838559	462.107	0.139865	123.359	0.419325	240.76	0.698784	665.324	0.883509	510.603
0.279634	125.305	0.000947291	0.248412	0.279656	115.753	0.441825	169.214	0.559136	212.552	0.838603	305.353	0.14012	67.8386	0.419409	156.884	0.698816	352.584	0.883532	331.903
0.279761	88.4388	0.00145974	0.307632	0.279791	83.578	0.441892	124.732	0.559235	156.988	0.838664	228.02	0.140523	46.885	0.419528	116.372	0.698869	239.858	0.883566	245.864
0.279931	68.3589	0.00207743	0.365952	0.27997	65.4233	0.441979	98.7786	0.559363	124.47	0.838743	181.951	0.141072	35.9063	0.419683	92.5072	0.698941	181.761	0.88361	195.255
0.280145	55.7313	0.00279667	0.423195	0.280193	53.7689	0.442086	81.7749	0.559521	103.125	0.838839	151.376	0.141763	29.1658	0.419873	76.781	0.699033	146.331	0.883663	161.929
0.280403	47.0599	0.00361368	0.479257	0.280459	45.6568	0.442214	69.7737	0.559709	88.0411	0.838953	129.606	0.142593	24.6178	0.420099	65.6389	0.699145	122.469	0.883727	138.324
0.280703	40.74	0.00452412	0.534018	0.280767	39.6876	0.442362	60.8516	0.559927	76.8174	0.839085	113.316	0.143559	21.3504	0.420359	57.3334	0.699277	105.306	0.883801	120.73
0.281046	35.9311	0.00552358	0.587393	0.281119	35.113	0.442531	53.9592	0.560174	68.1414	0.839235	100.67	0.144657	18.8954	0.420655	50.905	0.699429	92.3686	0.883885	107.109
0.281432	32.1509	0.0066073	0.639298	0.281514	31.4969	0.442721	48.4753	0.560451	61.235	0.839402	90.568	0.145882	16.988	0.420986	45.7831	0.699601	82.2687	0.883979	96.2533
0.281861	29.1022	0.00777072	0.689692	0.281951	28.5678	0.442931	44.0087	0.560757	55.6077	0.839588	82.3133	0.147229	15.4668	0.421352	41.6071	0.699792	74.1655	0.884083	87.3982
0.282331	26.5927	0.00900904	0.738528	0.28243	26.1479	0.443162	40.301	0.561092	50.935	0.83979	75.442	0.148694	14.228	0.421752	38.1379	0.700004	67.5207	0.884198	80.0376
0.282844	24.4916	0.0103174	0.785772	0.28295	24.1159	0.443414	37.1742	0.561456	46.9935	0.840011	69.6336	0.150271	13.202	0.422188	35.2107	0.700235	61.9735	0.884322	73.8229
0.283398	22.7076	0.0116915	0.831426	0.283512	22.3861	0.443687	34.5022	0.56185	43.6245	0.840249	64.6595	0.151955	12.3399	0.422658	32.7084	0.700486	57.2731	0.884457	68.5059
0.283992	21.1745	0.0131267	0.875479	0.284115	20.8965	0.443982	32.1927	0.562273	40.7122	0.840504	60.3521	0.153741	11.6067	0.423162	30.5451	0.700756	53.2396	0.884602	63.9054
0.284628	19.8434	0.0146186	0.91794	0.284758	19.6006	0.444298	30.177	0.562725	38.1699	0.840777	56.5861	0.155624	10.9768	0.423701	28.6567	0.701047	49.7407	0.884757	59.8858
0.285303	18.6773	0.0161631	0.958831	0.285442	18.4636	0.444636	28.4026	0.563205	35.9317	0.841068	53.2656	0.1576	10.4307	0.424274	26.9944	0.701357	46.6771	0.884922	56.3438
0.286018	17.6478	0.0177564	0.99818	0.286165	17.4582	0.444996	26.8289	0.563715	33.9464	0.841376	50.3162	0.159394	10.0115	0.424881	25.5202	0.701687	43.9725	0.885097	53.1991
0.286773	16.7324	0.0193947	1.03602	0.286927	16.5633	0.445378	25.4238	0.564253	32.1737	0.841702	47.6792	0.160973	9.68943	0.425522	24.2042	0.702036	41.5674	0.885283	50.3885
0.287566	15.9136	0.0210746	1.07238	0.287728	15.7618	0.445782	24.1618	0.564819	30.5814	0.842045	45.3074	0.162312	9.44468	0.426196	23.0225	0.702405	39.4149	0.885479	47.8616
0.288398	15.1771	0.0227926	1.1073	0.288566	15.0401	0.446209	23.0223	0.565414	29.1434	0.842406	43.163	0.163392	9.26359	0.426904	21.9557	0.702793	37.4773	0.885686	45.5775
0.289267	14.5113	0.0245457	1.14083	0.289443	14.3871	0.446658	21.9885	0.566038	27.8387	0.842784	41.2149	0.164198	9.13688	0.427645	20.9881	0.703201	35.7241	0.885903	43.5029
0.290173	13.9068	0.026331	1.17302	0.290356	13.7937	0.44713	21.0464	0.566689	26.6495	0.84318	39.4373	0.164718	9.0585	0.428419	20.1067	0.703628	34.1304	0.88613	41.6103
0.291116	13.3556	0.028146	1.2039	0.291306	13.2523	0.447626	20.1846	0.567368	25.5615	0.843593	37.809	0.165473	8.94935	0.429226	19.3006	0.704074	32.6753	0.886368	39.8769
0.292094	12.8512	0.0299881	1.23354	0.292292	12.7565	0.448145	19.3932	0.568075	24.5624	0.844023	36.312	0.166302	8.8352	0.430066	18.5608	0.70454	31.3418	0.886616	38.2834
0.293109	12.388	0.031855	1.26196	0.293313	12.3009	0.448688	18.6642	0.56881	23.6417	0.844471	34.9311	0.167445	8.68704	0.430938	17.8795	0.705026	30.1152	0.886875	36.8135
0.294157	11.9614	0.0337446	1.28924	0.294369	11.8809	0.449254	17.9905	0.569572	22.7908	0.844936	33.6534	0.168912	8.51049	0.431842	17.2502	0.70553	28.9833	0.887145	35.4536
0.295241	11.5672	0.0356549	1.3154	0.295459	11.4927	0.449845	17.3663	0.570361	22.0022	0.845418	32.4677	0.170721	8.31177	0.432778	16.6673	0.706054	27.9356	0.887425	34.1917
0.296358	11.202	0.0375841	1.3405	0.296582	11.133	0.450461	16.7862	0.571178	21.2692	0.845918	31.3647	0.172888	8.09718	0.433746	16.1259	0.706596	26.9631	0.887716	33.0177
0.297507	10.8629	0.0395306	1.36457	0.297739	10.7987	0.451101	16.2461	0.572022	20.5864	0.846434	30.3359	0.17543	7.87274	0.434745	15.6219	0.707158	26.0581	0.888017	31.9226
0.29869	10.5473	0.0414928	1.38768	0.298927	10.4874	0.451767	15.7418	0.572892	19.9489	0.846968	29.3741	0.178031	7.6688	0.435775	15.1517	0.707739	25.2138	0.88833	30.899
0.299904	10.2528	0.0434694	1.40986	0.300148	10.1969	0.452458	15.2702	0.573789	19.3523	0.847519	28.4732	0.180686	7.48286	0.436837	14.712	0.708338	24.4245	0.888653	29.9399
0.301149	9.97761	0.045459	1.43114	0.301236	9.95921	0.453174	14.8281	0.574713	18.7929	0.848087	27.6275	0.183393	7.31281	0.437928	14.3001	0.708957	23.6849	0.888987	29.0396
0.302425	9.71984	0.0474605	1.45157	0.302183	9.76701	0.453917	14.413	0.575663	18.2674	0.848672	26.8322	0.186149	7.15682	0.439051	13.9134	0.709594	22.9906	0.889331	28.1929
0.303731	9.478	0.0494728	1.47119	0.302978	9.61485	0.454686	14.0226	0.576639	17.7729	0.849274	26.0829	0.188952	7.01334	0.440203	13.5499	0.71025	22.3376	0.889687	27.395
0.305066	9.25072	0.0514947	1.49004	0.303615	9.49865	0.455482	13.6548	0.577641	17.3068	0.849893	25.3758	0.191798	6.88104	0.441385	13.2075	0.710925	21.7223	0.890054	26.642
0.306431	9.03678	0.0535256	1.50815	0.304088	9.41542	0.456304	13.3077	0.578668	16.8668	0.850529	24.7075	0.194687	6.75876	0.442597	12.8845	0.711618	21.1416	0.890432	25.9301
0.307823	8.8351	0.055302	1.52335	0.304392	9.36311	0.457154	12.9798	0.579721	16.4507	0.851182	24.0748	0.197615	6.64547	0.443838	12.5795	0.71233	20.5927	0.890821	25.2562
0.309244	8.6447	0.0568206	1.5359	0.304832	9.28918	0.458032	12.6696	0.5808	16.0568	0.851851	23.4751	0.200581	6.5403	0.445107	12.2909	0.71306	20.0732	0.891221	24.6173
0.310692	8.46471	0.0580793	1.54601	0.305315	9.21048	0.458937	12.3757	0.581904	15.6833	0.852537	22.9059	0.203583	6.44246	0.446406	12.0176	0.713808	19.5807	0.891633	24.0107
0.312167	8.29435	0.0590763	1.55383	0.305976	9.10613	0.459871	12.0969	0.583032	15.3288	0.85324	22.365	0.20662	6.35129	0.447732	11.7584	0.714575	19.1132	0.892056	23.4342
0.313668	8.13291	0.0598103	1.55948	0.306823	8.97839	0.460833	11.8323	0.584185	14.9919	0.85396	21.8502	0.209688	6.26615	0.449087	11.5123	0.71536	18.669	0.89249	22.8854
0.315195	7.97974	0.0602804	1.56306	0.30786	8.82993	0.461824	11.5807	0.585363	14.6714	0.854696	21.3599	0.212788	6.18653	0.45047	11.2783	0.716163	18.2463	0.892935	22.3626
0.316748	7.83426	0.0609568	1.56815	0.309098	8.66366	0.462844	11.3413	0.586566	14.366	0.855449	20.8922	0.215917	6.11194	0.45188	11.0557	0.716984	17.8436	0.893392	21.8639
0.318326	7.69595	0.0616927	1.57361	0.310543	8.48264	0.463894	11.1133	0.587792	14.0749	0.856219	20.4458	0.219074	6.04196	0.453317	10.8437	0.717823	17.4597	0.893861	21.3877
0.319929	7.56432	0.0626945	1.58092	0.312015	8.31133	0.464973	10.896	0.589042	13.797	0.857005	20.0192	0.222257	5.9762	0.454781	10.6416	0.71868	17.0932	0.894341	20.9325
0.321557	7.43894	0.0639632	1.58996	0.313513	8.14901	0.466082	10.6886	0.590316	13.5316	0.857807	19.6111	0.225466	5.91432	0.456272	10.4487	0.719554	16.7429	0.894833	20.4971
0.32321	7.31941	0.0654999	1.60062	0.315038	7.99502	0.467222	10.4906	0.591614	13.2777	0.858625	19.2204	0.2287	5.85602	0.457788	10.2644	0.720447	16.408	0.895336	20.0801
0.324886	7.20535	0.0673056	1.61275	0.316588	7.84878	0.468393	10.3014	0.592935	13.0348	0.85946	18.846	0.231956	5.80101	0.459131	10.1104	0.721357	16.0874	0.895852	19.6804
0.326587	7.09644	0.0693815	1.62619	0.318164	7.70976	0.469437	10.1432	0.594279	12.8022	0.860311	18.487	0.235235	5.74904	0.460291	9.98383	0.722284	15.7802	0.896379	19.297
0.328313	6.99237	0.0714609	1.63913	0.319764	7.57747	0.470347	10.0131	0.595646	12.5791	0.861179	18.1424	0.238534	5.6999	0.461261	9.88219	0.723229	15.4856	0.896918	18.929
0.330062	6.89285	0.0735435	1.65161	0.32139	7.45147	0.471112	9.90868	0.597036	12.3652	0.862062	17.8114	0.241854	5.65336	0.462035	9.80372	0.724191	15.2029	0.897469	18.5753
0.331836	6.79763	0.0756289	1.66363	0.32304	7.33136	0.471725	9.82803	0.598448	12.1598	0.862962	17.4933	0.245193	5.60924	0.462607	9.74705	0.72517	14.9314	0.898032	18.2354
0.333634	6.70646	0.0777169	1.67523	0.324714	7.21676	0.472181	9.7698	0.599883	11.9625	0.863877	17.1872	0.24855	5.56737	0.462976	9.71123	0.726167	14.6705	0.898608	17.9082
0.335456	6.61914	0.0798071	1.68641	0.326413	7.10734	0.472474	9.73299	0.60134	11.7728	0.864809	16.8926	0.251924	5.5276	0.463507	9.66035	0.72718	14.4196	0.899195	17.5933
0.337304	6.53545	0.0818993	1.69721	0.328135	7.00278	0.4729	9.6807	0.602819	11.5903	0.865756	16.6089	0.255315	5.48978	0.464088	9.60584	0.72821	14.178	0.899795	17.2898
0.339177	6.45521	0.0839931	1.70763	0.329882	6.90281	0.473366	9.62468	0.604319	11.4147	0.866719	16.3354	0.258722	5.45378	0.464883	9.533	0.729258	13.9455	0.900407	16.9973
0.341076	6.37824	0.0860886	1.7177	0.331653	6.80716	0.474006	9.54983	0.605841	11.2456	0.867698	16.0716	0.262144	5.41947	0.465896	9.44296	0.730321	13.7213	0.901032	16.7151
0.343001	6.3044	0.0881853	1.72742	0.333449	6.7156	0.474826	9.45731	0.607384	11.0825	0.868693	15.8171	0.26558	5.38676	0.467134	9.33707	0.731402	13.5052	0.901669	16.4427
0.344952	6.23353	0.0902832	1.73682	0.335269	6.62789	0.475835	9.34852	0.608949	10.9254	0.869703	15.5713	0.26903	5.35553	0.468603	9.21686	0.732499	13.2967	0.902319	16.1797
0.346932	6.16549	0.092382	1.7459	0.337114	6.54383	0.47704	9.22506	0.610534	10.7737	0.870729	15.3339	0.272493	5.32569	0.470312	9.08399	0.733613	13.0955	0.902981	15.9255
0.34894	6.10017	0.0944817	1.75468	0.338984	6.46325	0.478454	9.08864	0.61214	10.6273	0.87177	15.1044	0.275969	5.29716	0.472044	8.95627	0.734742	12.9011	0.903656	15.6798
0.350977	6.03744	0.0965819	1.76318	0.34088	6.38596	0.4799	8.95758	0.613767	10.486	0.872827	14.8825	0.279456	5.26986	0.473799	8.83341	0.735888	12.7132	0.904344	15.442
0.353044	5.97721	0.0986828	1.7714	0.342803	6.3118	0.481379	8.83159	0.615201	10.3667	0.873899	14.6677	0.282955	5.24371	0.475577	8.71518	0.737051	12.5316	0.905044	15.212
0.355143	5.91937	0.100784	1.77937	0.344752	6.24063	0.48289	8.71043	0.616436	10.2677	0.874986	14.4599	0.286464	5.21864	0.477377	8.60132	0.738229	12.3559	0.905758	14.9893
0.357273	5.86382	0.102886	1.78708	0.346728	6.17232	0.484435	8.59386	0.617465	10.1877	0.876089	14.2585	0.289984	5.19458	0.4792	8.49161	0.739423	12.1859	0.906485	14.7735
0.359438	5.81049	0.104988	1.79454	0.348733	6.10672	0.486012	8.48165	0.618285	10.1257	0.877207	14.0635	0.293513	5.17149	0.481045	8.38586	0.740633	12.0212	0.907224	14.5644
0.361637	5.7593	0.10709	1.80178	0.350767	6.04374	0.487622	8.3736	0.61889	10.0806	0.87834	13.8744	0.297051	5.1493	0.482912	8.28385	0.741859	11.8617	0.907977	14.3617
0.363872	5.71017	0.109192	1.8088	0.352831	5.98325	0.489265	8.26952	0.619279	10.0521	0.879488	13.691	0.300598	5.12796	0.4848	8.18542	0.7431	11.7072	0.908743	14.1651
0.366145	5.66304	0.111294	1.8156	0.354927	5.92517	0.490942	8.16921	0.619839	10.0115	0.880651	13.5132	0.304153	5.10743	0.48671	8.09039	0.744357	11.5573	0.909523	13.9743
0.368456	5.61783	0.113396	1.8222	0.357054	5.86939	0.492651	8.0725	0.620451	9.96777	0.881829	13.3405	0.307716	5.08766	0.48864	7.9986	0.745629	11.412	0.910316	13.789
0.370808	5.5745	0.115499	1.8286	0.359215	5.81584	0.494394	7.97924	0.621287	9.90916	0.883021	13.1729	0.311286	5.0686	0.490591	7.9099	0.746916	11.271	0.911122	13.6092
0.3732	5.53297	0.117601	1.83481	0.361411	5.76444	0.496169	7.88926	0.622351	9.83634	0.884228	13.0101	0.314862	5.05023	0.492562	7.82415	0.748219	11.1341	0.911942	13.4345
0.375636	5.4932	0.119702	1.84085	0.363642	5.7151	0.497978	7.80243	0.623648	9.75017	0.88545	12.8519	0.318445	5.03249	0.494553	7.74122	0.749537	11.0012	0.912775	13.2647
0.378116	5.45514	0.121804	1.84671	0.365911	5.66776	0.49982	7.71861	0.625182	9.65165	0.886687	12.6981	0.322034	5.01536	0.496564	7.66097	0.750869	10.8721	0.913622	13.0996
0.38064	5.41872	0.123906	1.8524	0.368218	5.62236	0.501694	7.63767	0.626961	9.54186	0.887938	12.5486	0.325628	4.99881	0.498595	7.5833	0.752217	10.7466	0.914483	12.9391
0.383211	5.38391	0.126007	1.85793	0.370565	5.57884	0.503601	7.55948	0.628758	9.43542	0.889204	12.4032	0.329228	4.9828	0.500645	7.50808	0.753403	10.6401	0.915358	12.783
0.385829	5.35066	0.128108	1.86331	0.372954	5.53713	0.505541	7.48393	0.630574	9.3322	0.890484	12.2617	0.332832	4.9673	0.502714	7.43522	0.754424	10.5514	0.916247	12.6311
0.388496	5.31891	0.130208	1.86854	0.375385	5.49718	0.507513	7.41091	0.632409	9.23206	0.891778	12.1239	0.336441	4.9523	0.504801	7.36461	0.755273	10.4794	0.917149	12.4832
0.391211	5.28862	0.132308	1.87363	0.37786	5.45895	0.509517	7.34031	0.634262	9.13487	0.893087	11.9899	0.340054	4.93776	0.506908	7.29616	0.755949	10.4233	0.918066	12.3392
0.393975	5.25975	0.134408	1.87858	0.38038	5.42237	0.511554	7.27205	0.636134	9.04051	0.894409	11.8593	0.34367	4.92366	0.509032	7.22979	0.756448	10.3826	0.918997	12.1989
0.396789	5.23223	0.136508	1.8834	0.382946	5.3874	0.513622	7.20601	0.638023	8.94887	0.895746	11.7321	0.347289	4.90997	0.511174	7.1654	0.756768	10.3567	0.919942	12.0623
0.399653	5.20604	0.138607	1.88809	0.38556	5.35399	0.515723	7.14211	0.63993	8.85984	0.897097	11.6081	0.350912	4.89668	0.513335	7.10291	0.75723	10.3198	0.920902	11.9291
0.402566	5.1811	0.140705	1.89266	0.388221	5.32209	0.517854	7.08028	0.641855	8.77332	0.898461	11.4873	0.354536	4.88377	0.515512	7.04226	0.757734	10.28	0.921876	11.7994
0.405529	5.15739	0.142804	1.89711	0.390931	5.29165	0.520017	7.02042	0.643798	8.68921	0.89984	11.3695	0.358163	4.87122	0.517707	6.98336	0.758422	10.2266	0.922864	11.6728
0.40854	5.13485	0.144902	1.90144	0.393691	5.26263	0.52221	6.96245	0.645757	8.60743	0.901232	11.2546	0.361792	4.859	0.519919	6.92616	0.759297	10.16	0.923867	11.5494
0.4116	5.11343	0.146999	1.90567	0.3965	5.23498	0.524434	6.90632	0.647734	8.52787	0.902638	11.1425	0.365423	4.8471	0.522149	6.87058	0.760362	10.0809	0.924884	11.429
0.414707	5.09308	0.149096	1.90979	0.399358	5.20865	0.526688	6.85193	0.649728	8.45047	0.904058	11.0331	0.369054	4.83551	0.524394	6.81656	0.761622	9.99005	0.925916	11.3115
0.417861	5.07375	0.151193	1.91381	0.402266	5.18359	0.528973	6.79924	0.651739	8.37513	0.905306	10.94	0.372687	4.82422	0.526656	6.76405	0.763081	9.88834	0.926963	11.1969
0.421059	5.0554	0.153289	1.91772	0.405224	5.15976	0.531287	6.74817	0.653767	8.30179	0.906378	10.8621	0.376319	4.81319	0.528935	6.71298	0.764553	9.78923	0.928025	11.0849
0.424302	5.03797	0.155385	1.92155	0.408231	5.1371	0.53363	6.69865	0.655811	8.23038	0.907271	10.7987	0.379952	4.80243	0.53123	6.66331	0.76604	9.69264	0.928962	10.9896
0.427587	5.02143	0.15748	1.92528	0.411285	5.11556	0.536002	6.65065	0.657872	8.16082	0.90798	10.7492	0.383585	4.79192	0.53354	6.61499	0.76754	9.59847	0.92977	10.9098
0.430913	5.00571	0.159575	1.92892	0.414388	5.09511	0.538402	6.60409	0.659948	8.09304	0.908503	10.7132	0.387217	4.78164	0.535866	6.56796	0.769054	9.50664	0.930445	10.8449
0.434278	4.99079	0.16167	1.93247	0.417537	5.07568	0.540831	6.55892	0.662041	8.02699	0.908839	10.6903	0.390849	4.77158	0.538208	6.52218	0.770582	9.41707	0.930982	10.7942
0.437681	4.97661	0.163764	1.93595	0.420731	5.05723	0.543288	6.5151	0.66415	7.96261	0.909323	10.6576	0.394479	4.76174	0.540565	6.47761	0.772123	9.32967	0.931379	10.7573
0.44112	4.96314	0.165858	1.93934	0.423969	5.03971	0.545772	6.47257	0.666275	7.89984	0.90985	10.6224	0.398108	4.7521	0.542937	6.4342	0.773678	9.24438	0.931634	10.7338
0.444594	4.95033	0.167952	1.94265	0.427249	5.02308	0.548283	6.43129	0.668415	7.83863	0.910571	10.5749	0.401735	4.74265	0.545325	6.39192	0.775246	9.16113	0.932003	10.7004
0.4481	4.93814	0.170045	1.94589	0.430571	5.00728	0.55082	6.39121	0.670571	7.77891	0.911486	10.5157	0.40536	4.73339	0.547727	6.35072	0.776827	9.07985	0.932405	10.6642
0.451637	4.92654	0.172137	1.94906	0.433933	4.99228	0.553384	6.35228	0.672742	7.72065	0.9126	10.4451	0.408983	4.72429	0.550144	6.31058	0.778421	9.00047	0.932955	10.6156
0.455204	4.91549	0.174229	1.95215	0.437332	4.97803	0.555974	6.31448	0.674928	7.6638	0.913916	10.3639	0.412603	4.71535	0.552576	6.27145	0.780028	8.92293	0.933656	10.5548
0.458798	4.90495	0.176321	1.95518	0.440767	4.96449	0.558589	6.27775	0.67713	7.60831	0.915438	10.2726	0.416219	4.70657	0.555022	6.2333	0.781648	8.84717	0.934512	10.4825
0.462419	4.8949	0.178413	1.95814	0.444237	4.95161	0.561229	6.24206	0.679346	7.55413	0.916973	10.1834	0.419833	4.69794	0.557483	6.1961	0.783281	8.77313	0.935526	10.3991
0.466064	4.88531	0.180504	1.96104	0.447741	4.93936	0.563893	6.20737	0.681577	7.50123	0.918521	10.0961	0.423442	4.68944	0.559958	6.15982	0.784927	8.70077	0.936704	10.3055
0.469732	4.87614	0.182594	1.96388	0.451275	4.9277	0.566582	6.17365	0.683823	7.44956	0.920081	10.0107	0.427048	4.68107	0.562447	6.12443	0.786586	8.63003	0.937897	10.2139
0.473422	4.86737	0.184685	1.96665	0.454838	4.91659	0.569294	6.14086	0.686084	7.39909	0.921655	9.92721	0.430649	4.67282	0.56495	6.0899	0.788257	8.56085	0.939106	10.1244
0.477132	4.85897	0.186775	1.96937	0.45843	4.90601	0.57203	6.10898	0.688359	7.34977	0.923241	9.84549	0.434246	4.66469	0.567467	6.05621	0.78994	8.4932	0.940331	10.0368
0.480861	4.85091	0.188864	1.97203	0.462048	4.89591	0.574789	6.07796	0.690648	7.30158	0.924839	9.76551	0.437837	4.65666	0.569998	6.02333	0.791636	8.42702	0.941571	9.95104
0.484608	4.84319	0.190954	1.97463	0.465691	4.88627	0.57757	6.04779	0.692952	7.25448	0.926451	9.68722	0.441423	4.64874	0.572543	5.99124	0.793345	8.36227	0.942827	9.86716
0.488371	4.83577	0.193043	1.97718	0.469356	4.87706	0.580373	6.01843	0.69527	7.20843	0.928074	9.61057	0.445004	4.64091	0.575101	5.95991	0.795066	8.29891	0.944098	9.78505
0.492149	4.82863	0.195131	1.97969	0.473044	4.86824	0.583198	5.98985	0.697601	7.16341	0.92971	9.53551	0.448578	4.63317	0.577674	5.92931	0.796799	8.23689	0.945386	9.70468
0.495941	4.82177	0.197219	1.98214	0.476752	4.85981	0.586045	5.96203	0.699947	7.11938	0.931358	9.462	0.452146	4.62551	0.580259	5.89944	0.798544	8.17618	0.946689	9.62599
0.499747	4.81515	0.199307	1.98454	0.480479	4.85172	0.588912	5.93495	0.702306	7.07632	0.933019	9.38999	0.455708	4.61793	0.582859	5.87026	0.800301	8.11674	0.948007	9.54894
0.503564	4.80876	0.201395	1.98689	0.484224	4.84396	0.5918	5.90857	0.704679	7.0342	0.934691	9.31944	0.459262	4.61042	0.585472	5.84176	0.80207	8.05854	0.949342	9.47348
0.507392	4.80259	0.203482	1.9892	0.487986	4.83651	0.594708	5.88288	0.707066	6.99298	0.936376	9.2503	0.462809	4.60297	0.588098	5.81391	0.803851	8.00153	0.950693	9.39957
0.511231	4.79662	0.205569	1.99146	0.491762	4.82935	0.597636	5.85786	0.709466	6.95265	0.938072	9.18254	0.466348	4.59559	0.590738	5.78671	0.805644	7.94569	0.95206	9.32717
0.515079	4.79084	0.207656	1.99368	0.495553	4.82246	0.600583	5.83347	0.711879	6.91318	0.93978	9.11613	0.469879	4.58826	0.593391	5.76013	0.807448	7.89097	0.953443	9.25623
0.518935	4.78524	0.209742	1.99586	0.499357	4.81581	0.603549	5.8097	0.714306	6.87455	0.941501	9.05101	0.473402	4.58098	0.596057	5.73415	0.809265	7.83736	0.954842	9.18671
0.522799	4.77981	0.211829	1.998	0.503174	4.8094	0.606533	5.78654	0.716745	6.83673	0.943233	8.98717	0.476916	4.57375	0.598737	5.70877	0.811093	7.78482	0.956257	9.11859
0.52667	4.77453	0.213914	2.0001	0.507001	4.80321	0.609536	5.76396	0.719198	6.79969	0.944976	8.92455	0.480421	4.56656	0.601431	5.68395	0.812932	7.73333	0.957688	9.05182
0.530546	4.76939	0.216	2.00216	0.510838	4.79722	0.612557	5.74193	0.721664	6.76343	0.946731	8.86314	0.483916	4.55941	0.604137	5.6597	0.814783	7.68284	0.959136	8.98637
0.534429	4.76438	0.218085	2.00418	0.514685	4.79143	0.615596	5.72046	0.724143	6.72791	0.948498	8.8029	0.487402	4.55229	0.606857	5.63599	0.816646	7.63335	0.9606	8.9222
0.538316	4.7595	0.22017	2.00616	0.518541	4.78581	0.618652	5.69951	0.726634	6.69312	0.950276	8.74379	0.490877	4.54519	0.609591	5.61281	0.81852	7.58481	0.96208	8.85928
0.542207	4.75474	0.222255	2.00811	0.522404	4.78036	0.621725	5.67907	0.729139	6.65904	0.952065	8.6858	0.494342	4.53813	0.612337	5.59014	0.820405	7.53721	0.963576	8.79758
0.546102	4.75009	0.224339	2.01002	0.526274	4.77506	0.624814	5.65913	0.731655	6.62565	0.953866	8.62888	0.497797	4.53108	0.615097	5.56798	0.822302	7.49052	0.965089	8.73707
0.549999	4.74553	0.226424	2.0119	0.53015	4.76991	0.62792	5.63967	0.734185	6.59293	0.955678	8.57302	0.50124	4.52406	0.617871	5.54631	0.82421	7.44471	0.966618	8.67772
0.5539	4.74107	0.228508	2.01375	0.534032	4.76489	0.631041	5.62067	0.736727	6.56087	0.957501	8.51818	0.504671	4.51704	0.620658	5.52512	0.826129	7.39978	0.968164	8.6195
0.557801	4.73669	0.230592	2.01556	0.537919	4.76	0.634179	5.60213	0.739281	6.52944	0.959335	8.46433	0.508091	4.51004	0.623458	5.50439	0.82806	7.35568	0.969726	8.56238
0.561705	4.7324	0.232675	2.01734	0.541809	4.75522	0.637331	5.58402	0.741848	6.49863	0.96118	8.41147	0.511498	4.50304	0.626272	5.48412	0.830001	7.31241	0.971305	8.50634
0.565609	4.72817	0.234758	2.0191	0.545704	4.75056	0.640499	5.56633	0.744427	6.46843	0.963036	8.35955	0.514893	4.49605	0.629099	5.4643	0.831954	7.26994	0.9729	8.45135
0.569513	4.72402	0.236841	2.02082	0.549601	4.74599	0.643682	5.54906	0.747018	6.43882	0.964903	8.30856	0.518274	4.48906	0.63194	5.44491	0.833918	7.22825	0.974511	8.39739
0.573418	4.71993	0.238924	2.02251	0.553501	4.74152	0.646879	5.53219	0.749621	6.40978	0.966781	8.25847	0.521643	4.48207	0.634795	5.42595	0.835893	7.18732	0.976139	8.34442
0.577321	4.7159	0.241007	2.02418	0.557403	4.73714	0.650091	5.51571	0.752237	6.38131	0.968669	8.20927	0.524998	4.47507	0.637663	5.4074	0.837878	7.14714	0.977783	8.29244
0.581224	4.71192	0.243089	2.02582	0.561306	4.73283	0.653316	5.4996	0.754864	6.35338	0.970568	8.16092	0.528339	4.46806	0.640544	5.38926	0.839875	7.10768	0.979444	8.2414
0.585126	4.70798	0.245171	2.02743	0.56521	4.7286	0.656555	5.48386	0.757504	6.32599	0.972478	8.11342	0.531665	4.46104	0.643439	5.37151	0.841883	7.06894	0.981122	8.1913
0.589025	4.7041	0.247253	2.02901	0.569114	4.72444	0.659808	5.46847	0.760155	6.29912	0.974398	8.06673	0.534978	4.45402	0.646348	5.35415	0.843901	7.03088	0.982816	8.14211
0.592923	4.70025	0.249335	2.03057	0.573019	4.72035	0.663074	5.45343	0.762818	6.27276	0.976328	8.02085	0.538275	4.44697	0.649271	5.33717	0.84593	6.9935	0.984527	8.09381
0.596817	4.69644	0.251417	2.0321	0.576923	4.71631	0.666353	5.43872	0.765493	6.2469	0.978269	7.97574	0.541557	4.43991	0.652207	5.32056	0.847971	6.95679	0.986254	8.04638
0.600709	4.69266	0.253498	2.03361	0.580826	4.71232	0.669645	5.42434	0.76818	6.22152	0.98022	7.9314	0.544823	4.43283	0.655157	5.30431	0.850022	6.92071	0.987998	7.99979
0.604598	4.68891	0.255579	2.03509	0.584727	4.70838	0.67295	5.41028	0.770879	6.19662	0.982181	7.88781	0.548074	4.42573	0.658121	5.28841	0.852083	6.88527	0.989758	7.95404
0.608482	4.68518	0.25766	2.03656	0.588627	4.70449	0.676267	5.39652	0.773589	6.17218	0.984152	7.84494	0.551309	4.41861	0.661099	5.27286	0.854156	6.85044	0.991534	7.9091
0.612363	4.68148	0.259741	2.03799	0.592525	4.70064	0.679596	5.38307	0.776311	6.1482	0.986134	7.80279	0.554527	4.41146	0.66409	5.25765	0.856239	6.81622	0.993328	7.86495
0.616239	4.67779	0.261822	2.03941	0.59642	4.69682	0.682937	5.3699	0.779045	6.12465	0.988125	7.76133	0.557729	4.40429	0.667095	5.24277	0.858333	6.78258	0.995137	7.82158
0.620111	4.67412	0.263902	2.04081	0.600312	4.69304	0.68629	5.35702	0.78179	6.10154	0.990127	7.72055	0.560914	4.39709	0.670114	5.22821	0.860438	6.74952	0.996963	7.77897
0.623977	4.67046	0.265982	2.04218	0.604201	4.68929	0.689654	5.34441	0.784547	6.07885	0.992138	7.68043	0.564082	4.38986	0.673146	5.21397	0.862553	6.71702	0.998806	7.7371
0.627838	4.66682	0.268063	2.04353	0.608086	4.68556	0.69303	5.33208	0.787315	6.05658	0.994159	7.64097	0.567232	4.3826	0.676193	5.20004	0.864679	6.68508	1.00066	7.69596
0.631693	4.66318	0.270143	2.04486	0.611967	4.68185	0.696417	5.32	0.790095	6.03471	0.996189	7.60213	0.570365	4.37531	0.679253	5.18641	0.866816	6.65367		
0.635542	4.65955	0.272222	2.04618	0.615843	4.67817	0.699815	5.30818	0.792886	6.01324	0.99823	7.56393	0.57348	4.36799	0.682326	5.17308	0.868963	6.62279		
0.639385	4.65592	0.274302	2.04747	0.619715	4.67449	0.703224	5.29661	0.795688	5.99215	1.00028	7.52633	0.576577	4.36063	0.685414	5.16004	0.871121	6.59242		
0.643221	4.65229	0.276381	2.04874	0.623582	4.67084	0.706644	5.28527	0.798503	5.97145			0.579656	4.35324	0.688514	5.14728	0.87329	6.56256		
0.647051	4.64866	0.278461	2.05	0.627444	4.66719	0.710074	5.27418	0.801328	5.95111			0.582716	4.34582	0.691629	5.13479	0.875469	6.53319		
0.650873	4.64503	0.28054	2.05124	0.6313	4.66355	0.713515	5.26331	0.804165	5.93114			0.585758	4.33836	0.694756	5.12258	0.877658	6.50431		
0.654687	4.64139	0.282619	2.05245	0.635149	4.65992	0.716966	5.25267	0.807013	5.91153			0.588781	4.33087	0.697897	5.11063	0.879859	6.4759		
0.658494	4.63774	0.284698	2.05366	0.638993	4.65629	0.720427	5.24224	0.809873	5.89226			0.591786	4.32334	0.701052	5.09894	0.88207	6.44796		
0.662292	4.63409	0.286776	2.05484	0.64283	4.65266	0.723898	5.23203	0.812744	5.87334			0.594772	4.31577	0.704219	5.0875	0.884291	6.42047		
0.666083	4.63042	0.288855	2.05601	0.64666	4.64903	0.727379	5.22202	0.815626	5.85475			0.597739	4.30818	0.707399	5.07631	0.886523	6.39343		
0.669864	4.62674	0.290933	2.05716	0.650483	4.6454	0.73087	5.21222	0.81852	5.83648			0.600686	4.30054	0.710593	5.06536	0.888766	6.36682		
0.673637	4.62305	0.293012	2.0583	0.654298	4.64176	0.73437	5.20261	0.821425	5.81854			0.603615	4.29287	0.713799	5.05464	0.891019	6.34064		
0.677401	4.61934	0.29509	2.05942	0.658105	4.63811	0.737879	5.1932	0.824341	5.80092			0.606524	4.28517	0.717017	5.04416	0.893282	6.31488		
0.681155	4.61562	0.297168	2.06052	0.661905	4.63446	0.741398	5.18397	0.827269	5.7836			0.609414	4.27743	0.720249	5.03389	0.895557	6.28953		
0.6849	4.61188	0.299246	2.06161	0.665696	4.6308	0.744926	5.17493	0.830208	5.76659			0.612285	4.26966	0.723492	5.02385	0.897841	6.26459		
0.688635	4.60812	0.301324	2.06268	0.669479	4.62712	0.748463	5.16606	0.833158	5.74987			0.615137	4.26186	0.726747	5.01402	0.900137	6.24004		
0.692359	4.60434	0.303401	2.06374	0.673252	4.62343	0.752009	5.15737	0.83612	5.73344			0.617969	4.25402	0.730015	5.00439	0.902442	6.21587		
0.696073	4.60053	0.305479	2.06479	0.677017	4.61972	0.755564	5.14885	0.839093	5.7173			0.620782	4.24615	0.733294	4.99497	0.904759	6.19209		
0.699777	4.59671	0.307556	2.06582	0.680772	4.616	0.759128	5.14049	0.842078	5.70144			0.623576	4.23825	0.736585	4.98574	0.907085	6.16868		
0.70347	4.59286	0.309634	2.06684	0.684518	4.61226	0.762699	5.1323	0.845073	5.68586			0.62635	4.23032	0.739886	4.9767	0.909423	6.14564		
0.707152	4.58898	0.311711	2.06785	0.688253	4.6085	0.76628	5.12427	0.84808	5.67055			0.629106	4.22236	0.7432	4.96786	0.91177	6.12295		
0.710352	4.58558	0.313788	2.06884	0.691979	4.60472	0.769869	5.11639	0.851099	5.6555			0.631842	4.21437	0.746523	4.95919	0.914129	6.10062		
0.713072	4.58267	0.315865	2.06982	0.695695	4.60092	0.773465	5.10866	0.854129	5.64071			0.634559	4.20636	0.749858	4.9507	0.916497	6.07863		
0.715317	4.58025	0.317942	2.07078	0.699399	4.5971	0.77707	5.10108	0.85717	5.62618			0.637258	4.19832	0.753203	4.94238	0.918877	6.05698		
0.717089	4.57833	0.320018	2.07174	0.703093	4.59325	0.780683	5.09364	0.860223	5.61189			0.639938	4.19025	0.756558	4.93423	0.921266	6.03567		
0.71839	4.57691	0.322095	2.07268	0.706777	4.58938	0.784304	5.08635	0.863287	5.59786			0.642598	4.18216	0.759923	4.92624	0.923667	6.01468		
0.719222	4.57601	0.324171	2.07361	0.710449	4.58548	0.787932	5.07919	0.866363	5.58407			0.645241	4.17405	0.763297	4.91841	0.926077	5.99401		
0.720417	4.5747	0.326248	2.07453	0.714109	4.58155	0.791568	5.07216	0.86945	5.57051			0.647865	4.16591	0.766681	4.91073	0.928498	5.97366		
0.721715	4.57327	0.328324	2.07544	0.717758	4.5776	0.795211	5.06527	0.872548	5.55719			0.65047	4.15776	0.770074	4.90321	0.93093	5.95361		
0.723476	4.57133	0.3304	2.07633	0.721396	4.57362	0.798862	5.0585	0.875658	5.5441			0.653058	4.14958	0.773476	4.89582	0.933372	5.93387		
0.725701	4.56886	0.332476	2.07722	0.725021	4.56962	0.80252	5.05186	0.878779	5.53123			0.655627	4.14139	0.776886	4.88858	0.935824	5.91443		
0.728384	4.56586	0.334552	2.07809	0.728634	4.56558	0.806184	5.04534	0.881912	5.51859			0.658178	4.13318	0.780304	4.88147	0.938287	5.89528		
0.731524	4.56232	0.336628	2.07895	0.732235	4.56151	0.809856	5.03893	0.885057	5.50617			0.660712	4.12496	0.783731	4.87449	0.94076	5.87642		
0.735115	4.55823	0.338704	2.07981	0.735824	4.55742	0.813534	5.03265	0.888213	5.49396			0.663228	4.11672	0.787165	4.86765	0.943244	5.85785		
0.738693	4.55411	0.34078	2.08065	0.7394	4.55329	0.817219	5.02647	0.89138	5.48196			0.665727	4.10847	0.790607	4.86092	0.945738	5.83955		
0.742259	4.54996	0.342855	2.08148	0.742963	4.54913	0.820911	5.02041	0.894559	5.47016			0.668209	4.10021	0.794055	4.85432	0.948242	5.82152		
0.745812	4.54578	0.344931	2.0823	0.746514	4.54494	0.824608	5.01445	0.89775	5.45858			0.670673	4.09194	0.797511	4.84783	0.950757	5.80376		
0.749352	4.54156	0.347006	2.08312	0.750051	4.54072	0.828312	5.00859	0.900953	5.44719			0.673121	4.08366	0.800972	4.84145	0.953282	5.78627		
0.752879	4.53732	0.349082	2.08392	0.753575	4.53647	0.832022	5.00284	0.904167	5.436			0.675552	4.07538	0.804441	4.83519	0.955817	5.76903		
0.756393	4.53304	0.351157	2.08471	0.757086	4.53219	0.835737	4.99719	0.907392	5.425			0.677967	4.06709	0.807915	4.82903	0.958363	5.75205		
0.759893	4.52873	0.353232	2.0855	0.760584	4.52787	0.839459	4.99163	0.910629	5.4142			0.680365	4.05879	0.811394	4.82297	0.960919	5.73532		
0.76338	4.52439	0.355307	2.08627	0.764068	4.52353	0.843185	4.98617	0.913878	5.40358			0.682748	4.05049	0.814879	4.817	0.963486	5.71883		
0.766853	4.52002	0.357383	2.08704	0.767539	4.51915	0.846917	4.98079	0.917139	5.39315			0.685115	4.04219	0.81837	4.81114	0.966062	5.70259		
0.770313	4.51561	0.359457	2.0878	0.770996	4.51474	0.850655	4.97551	0.920411	5.3829			0.687466	4.03388	0.821864	4.80536	0.968649	5.68659		
0.773759	4.51117	0.361532	2.08855	0.77444	4.51029	0.854397	4.97031	0.923695	5.37283			0.689801	4.02558	0.825364	4.79968	0.971246	5.67082		
0.777192	4.5067	0.363607	2.08929	0.777869	4.50582	0.858144	4.9652	0.926991	5.36294			0.692122	4.01728	0.828867	4.79408	0.973854	5.65528		
0.78061	4.5022	0.365682	2.09002	0.781285	4.50131	0.861895	4.96017	0.930298	5.35322			0.694427	4.00898	0.832375	4.78856	0.976471	5.63996		
0.784015	4.49767	0.367756	2.09074	0.784687	4.49677	0.865651	4.95521	0.933617	5.34367			0.696718	4.00069	0.835886	4.78312	0.979099	5.62487		
0.787405	4.49311	0.369831	2.09146	0.788075	4.4922	0.869412	4.95034	0.936948	5.33429			0.698994	3.9924	0.8394	4.77776	0.981737	5.61		
0.790782	4.48851	0.371906	2.09217	0.791449	4.4876	0.873176	4.94553	0.94029	5.32507			0.701255	3.98411	0.842918	4.77247	0.984385	5.59534		
0.794145	4.48389	0.37398	2.09287	0.794808	4.48297	0.876944	4.9408	0.943644	5.31602			0.703503	3.97584	0.846438	4.76725	0.987043	5.58089		
0.797493	4.47923	0.376054	2.09356	0.798154	4.47831	0.880716	4.93614	0.94701	5.30712			0.705737	3.96757	0.849961	4.76211	0.989711	5.56665		
0.800828	4.47454	0.378128	2.09425	0.801486	4.47361	0.884491	4.93155	0.950388	5.29839			0.707956	3.95931	0.853486	4.75702	0.99239	5.55262		
0.804148	4.46983	0.380203	2.09492	0.804803	4.46889	0.88827	4.92702	0.953777	5.28981			0.710163	3.95106	0.857013	4.75201	0.995078	5.53879		
0.807455	4.46508	0.382277	2.09559	0.808107	4.46414	0.892051	4.92256	0.957179	5.28138			0.712356	3.94282	0.860541	4.74705	0.997777	5.52516		
0.810747	4.46031	0.384351	2.09626	0.811396	4.45936	0.895836	4.91816	0.960591	5.2731			0.714536	3.9346	0.864072	4.74215	1.00049	5.51172		
0.814025	4.4555	0.386425	2.09691	0.814671	4.45455	0.899623	4.91381	0.964016	5.26497			0.716703	3.92639	0.867603	4.73731				
0.817288	4.45067	0.388499	2.09756	0.817932	4.44971	0.903412	4.90953	0.967452	5.25699			0.718857	3.91819	0.871135	4.73252				
0.820538	4.44581	0.390573	2.0982	0.821179	4.44485	0.907204	4.9053	0.9709	5.24915			0.720999	3.91001	0.874668	4.72778				
0.823774	4.44092	0.392646	2.09884	0.824412	4.43995	0.910998	4.90112	0.97436	5.24145			0.723128	3.90184	0.878201	4.72309				
0.826995	4.43601	0.39472	2.09947	0.827631	4.43503	0.914794	4.897	0.977831	5.23389			0.725246	3.89369	0.881734	4.71845				
0.830202	4.43107	0.396794	2.10009	0.830835	4.43009	0.918591	4.89292	0.981314	5.22647			0.727351	3.88556	0.885268	4.71386				
0.833396	4.4261	0.398867	2.10071	0.834026	4.42512	0.92239	4.88889	0.984808	5.21918			0.729445	3.87745	0.888801	4.7093				
0.836575	4.42111	0.400941	2.10132	0.837202	4.42012	0.92619	4.88491	0.988314	5.21203			0.731527	3.86935	0.892333	4.7048				
0.83974	4.41609	0.403014	2.10192	0.840365	4.4151	0.929991	4.88097	0.991831	5.205			0.733598	3.86128	0.895864	4.70033				
0.842892	4.41105	0.405088	2.10252	0.843513	4.41005	0.933793	4.87708	0.99536	5.19811			0.735658	3.85323	0.899395	4.69589				
0.846029	4.40599	0.407161	2.10311	0.846648	4.40499	0.937595	4.87322	0.998901	5.19134			0.737707	3.84519	0.902924	4.6915				
0.849153	4.4009	0.409234	2.10369	0.849769	4.39989	0.941398	4.86941	1.00245	5.18469			0.739746	3.83718	0.906451	4.68714				
0.852262	4.39579	0.411308	2.10427	0.852876	4.39478	0.945201	4.86563					0.741773	3.8292	0.909977	4.68281				
0.855358	4.39066	0.413381	2.10485	0.855969	4.38965	0.949004	4.86189					0.743791	3.82123	0.913501	4.67851				
0.85844	4.38551	0.415454	2.10541	0.859049	4.38449	0.952807	4.85819					0.745798	3.81329	0.917022	4.67424				
0.861509	4.38034	0.417527	2.10598	0.862115	4.37931	0.95661	4.85451					0.747795	3.80538	0.920541	4.67				
0.864564	4.37515	0.4196	2.10653	0.865167	4.37412	0.960412	4.85087					0.749783	3.79748	0.924058	4.66578				
0.867605	4.36993	0.421673	2.10708	0.868206	4.3689	0.964213	4.84726					0.75176	3.78962	0.927571	4.6616				
0.870633	4.3647	0.423746	2.10763	0.871231	4.36366	0.968014	4.84368					0.753729	3.78178	0.931082	4.65743				
0.873648	4.35945	0.425819	2.10817	0.874243	4.35841	0.971813	4.84013					0.755688	3.77397	0.934589	4.65329				
0.876649	4.35419	0.427891	2.10871	0.877242	4.35314	0.975611	4.8366					0.757638	3.76618	0.938092	4.64916				
0.879637	4.3489	0.429964	2.10924	0.880227	4.34785	0.979407	4.83309					0.759579	3.75842	0.941592	4.64506				
0.882612	4.3436	0.432037	2.10976	0.883199	4.34255	0.983202	4.82962					0.761511	3.75069	0.945088	4.64098				
0.885574	4.33828	0.434109	2.11028	0.886158	4.33723	0.986995	4.82616					0.763435	3.74299	0.94858	4.63691				
0.888522	4.33295	0.436182	2.1108	0.889104	4.3319	0.990786	4.82272					0.76535	3.73532	0.952068	4.63286				
0.891458	4.32761	0.438254	2.11131	0.892037	4.32655	0.994574	4.81931					0.767257	3.72768	0.955551	4.62882				
0.894381	4.32224	0.440327	2.11181	0.894957	4.32118	0.998361	4.81592					0.769156	3.72006	0.959029	4.6248				
0.897291	4.31687	0.442399	2.11231	0.897865	4.31581	1.00214	4.81254					0.771047	3.71248	0.962503	4.62079				
0.900188	4.31148	0.444472	2.11281	0.900759	4.31042							0.77293	3.70493	0.965971	4.61679				
0.903072	4.30608	0.446544	2.1133	0.903641	4.30501							0.774805	3.6974	0.969434	4.6128				
0.905944	4.30067	0.448616	2.11379	0.906511	4.2996							0.776673	3.68991	0.972892	4.60882				
0.908804	4.29525	0.450688	2.11427	0.909368	4.29417							0.778534	3.68245	0.976344	4.60485				
0.911651	4.28981	0.452761	2.11475	0.912212	4.28874							0.780387	3.67502	0.979791	4.60089				
0.914485	4.28437	0.454833	2.11522	0.915045	4.28329							0.782234	3.66762	0.983231	4.59693				
0.917308	4.27891	0.456905	2.11569	0.917865	4.27783							0.784073	3.66026	0.986666	4.59298				
0.920118	4.27345	0.458977	2.11615	0.920673	4.27237							0.785906	3.65293	0.990094	4.58904				
0.922916	4.26798	0.461049	2.11661	0.923468	4.26689							0.787732	3.64563	0.993516	4.5851				
0.925702	4.2625	0.463121	2.11707	0.926252	4.26141							0.789552	3.63836	0.996931	4.58116				
0.928476	4.25701	0.465193	2.11752	0.929024	4.25592							0.791365	3.63113	1.00034	4.57723				
0.931239	4.25151	0.467264	2.11797	0.931784	4.25042							0.793172	3.62392						
0.933989	4.24601	0.469336	2.11842	0.934532	4.24492							0.794973	3.61676						
0.936728	4.2405	0.471408	2.11886	0.937269	4.23941							0.796768	3.60962						
0.939456	4.23498	0.47348	2.11929	0.939994	4.23389							0.798557	3.60252						
0.942171	4.22946	0.475551	2.11973	0.942707	4.22837							0.80034	3.59546						
0.944876	4.22394	0.477623	2.12016	0.94541	4.22284							0.802118	3.58842						
0.947569	4.21841	0.479695	2.12058	0.9481	4.21731							0.80389	3.58142						
0.950251	4.21287	0.481766	2.121	0.95078	4.21178							0.805657	3.57446						
0.952921	4.20733	0.483838	2.12142	0.953448	4.20624							0.807419	3.56753						
0.955581	4.20179	0.485909	2.12184	0.956105	4.20069							0.809176	3.56063						
0.958229	4.19624	0.48798	2.12225	0.958752	4.19515							0.810927	3.55377						
0.960866	4.19069	0.490052	2.12265	0.961387	4.1896							0.812674	3.54694						
0.963493	4.18514	0.492123	2.12306	0.964011	4.18405							0.814416	3.54015						
0.966109	4.17959	0.494194	2.12346	0.966625	4.17849							0.816154	3.53339						
0.968714	4.17404	0.496266	2.12386	0.969228	4.17294							0.817886	3.52667						
0.971308	4.16848	0.498337	2.12425	0.97182	4.16738							0.819615	3.51998						
0.973892	4.16293	0.500408	2.12464	0.974402	4.16183							0.821339	3.51333						
0.976466	4.15737	0.502479	2.12503	0.976974	4.15627							0.823059	3.50671						
0.979029	4.15181	0.50455	2.12541	0.979534	4.15071							0.824774	3.50012						
0.981581	4.14625	0.506621	2.12579	0.982085	4.14516							0.826486	3.49357						
0.984124	4.1407	0.508692	2.12617	0.984625	4.1396							0.828194	3.48706						
0.986656	4.13514	0.510763	2.12655	0.987156	4.13404							0.829897	3.48058						
0.989178	4.12959	0.512834	2.12692	0.989676	4.12849							0.831597	3.47413						
0.99169	4.12403	0.514905	2.12729	0.992186	4.12294							0.833294	3.46772						
0.994192	4.11848	0.516976	2.12765	0.994686	4.11738							0.834987	3.46135						
0.996685	4.11293	0.519047	2.12802	0.997177	4.11184							0.836676	3.45501						
0.999167	4.10739	0.521118	2.12838	0.999657	4.10629							0.838362	3.4487						
1.00164	4.10184	0.523188	2.12873	1.00213	4.10074							0.840045	3.44243						
		0.525259	2.12909									0.841724	3.43619						
		0.52733	2.12944									0.8434	3.42999						
		0.5294	2.12979									0.845074	3.42382						
		0.531471	2.13013									0.846744	3.41769						
		0.533541	2.13048									0.848411	3.41159						
		0.535612	2.13082									0.850076	3.40552						
		0.537683	2.13115									0.851738	3.39949						
		0.539753	2.13149									0.853397	3.39349						
		0.541823	2.13182									0.855053	3.38753						
		0.543894	2.13215									0.856707	3.3816						
		0.545964	2.13248									0.858359	3.37571						
		0.548035	2.1328									0.860008	3.36985						
		0.550105	2.13313									0.861655	3.36402						
		0.552175	2.13345									0.8633	3.35822						
		0.554245	2.13376									0.864942	3.35246						
		0.556316	2.13408									0.866583	3.34673						
		0.558386	2.13439									0.868221	3.34104						
		0.560456	2.1347									0.869857	3.33538						
		0.562526	2.13501									0.871492	3.32975						
		0.564596	2.13532									0.873124	3.32415						
		0.566666	2.13562									0.874755	3.31859						
		0.568736	2.13592									0.876384	3.31306						
		0.570806	2.13622									0.878012	3.30756						
		0.572876	2.13652									0.879637	3.3021						
		0.574946	2.13681									0.881261	3.29666						
		0.577016	2.13711									0.882884	3.29126						
		0.579086	2.1374									0.884505	3.28589						
		0.581156	2.13769									0.886125	3.28056						
		0.583225	2.13797									0.887743	3.27525						
		0.585295	2.13826									0.88936	3.26998						
		0.587365	2.13854									0.890976	3.26473						
		0.589435	2.13882									0.89259	3.25952						
		0.591504	2.1391									0.894204	3.25434						
		0.593574	2.13937									0.895816	3.24919						
		0.595644	2.13965									0.897427	3.24407						
		0.597713	2.13992									0.899037	3.23898						
		0.599783	2.14019									0.900646	3.23393						
		0.601852	2.14046									0.902255	3.2289						
		0.603922	2.14073									0.903862	3.2239						
		0.605991	2.14099									0.905468	3.21893						
		0.608061	2.14125									0.907074	3.214						
		0.61013	2.14152									0.908679	3.20909						
		0.6122	2.14178									0.910283	3.20421						
		0.614269	2.14203									0.911886	3.19936						
		0.616338	2.14229									0.913489	3.19454						
		0.618407	2.14254									0.915091	3.18975						
		0.620477	2.14279									0.916692	3.18499						
		0.622546	2.14305									0.918293	3.18026						
		0.624615	2.14329									0.919893	3.17555						
		0.626684	2.14354									0.921493	3.17088						
		0.628754	2.14379									0.923093	3.16623						
		0.630823	2.14403									0.924692	3.16161						
		0.632892	2.14427									0.92629	3.15702						
		0.634961	2.14451									0.927889	3.15246						
		0.63703	2.14475									0.929486	3.14792						
		0.639099	2.14499									0.931084	3.14341						
		0.641168	2.14523									0.932681	3.13893						
		0.643237	2.14546									0.934278	3.13448						
		0.645306	2.14569									0.935875	3.13005						
		0.647375	2.14593									0.937472	3.12565						
		0.649444	2.14616									0.939068	3.12128						
		0.651513	2.14638									0.940665	3.11693						
		0.653582	2.14661									0.942261	3.11261						
		0.65565	2.14684									0.943857	3.10832						
		0.657719	2.14706									0.945453	3.10405						
		0.659788	2.14728									0.947049	3.09981						
		0.661857	2.1475									0.948645	3.09559						
		0.663925	2.14772									0.950241	3.0914						
		0.665994	2.14794									0.951837	3.08724						
		0.668063	2.14816									0.953433	3.0831						
		0.670131	2.14837									0.95503	3.07898						
		0.6722	2.14859									0.956626	3.07489						
		0.674269	2.1488									0.958222	3.07083						
		0.676337	2.14901									0.959819	3.06679						
		0.678406	2.14922									0.961416	3.06277						
		0.680474	2.14943									0.963013	3.05878						
		0.682543	2.14964									0.96461	3.05481						
		0.684611	2.14985									0.966207	3.05087						
		0.68668	2.15005									0.967805	3.04695						
		0.688748	2.15025									0.969403	3.04306						
		0.690817	2.15046									0.971001	3.03918						
		0.692885	2.15066									0.972599	3.03533						
		0.694953	2.15086									0.974198	3.03151						
		0.697022	2.15106									0.975797	3.02771						
		0.69909	2.15125									0.977396	3.02393						
		0.701158	2.15145									0.978996	3.02017						
		0.703226	2.15164									0.980596	3.01644						
		0.705295	2.15184									0.982197	3.01273						
		0.707363	2.15203									0.983798	3.00904						
		0.709431	2.15222									0.985399	3.00537						
		0.711499	2.15241									0.987001	3.00173						
		0.713567	2.1526									0.988603	2.99811						
		0.715636	2.15279									0.990206	2.9945						
		0.717704	2.15298									0.991809	2.99093						
		0.719772	2.15316									0.993413	2.98737						
		0.72184	2.15335									0.995017	2.98383						
		0.723908	2.15353									0.996621	2.98032						
		0.725976	2.15372									0.998227	2.97682						
		0.728044	2.1539									0.999832	2.97335						
		0.730112	2.15408									1.00144	2.9699						
		0.73218	2.15426																
		0.734248	2.15443																
		0.736315	2.15461																
		0.738383	2.15479																
		0.740451	2.15496																
		0.742519	2.15514																
		0.744587	2.15531																
		0.746654	2.15548																
		0.748722	2.15565																
		0.75079	2.15583																
		0.752858	2.15599																
		0.754925	2.15616																
		0.756993	2.15633																
		0.759061	2.1565																
		0.761128	2.15666																
		0.763196	2.15683																
		0.765263	2.15699																
		0.767331	2.15715																
		0.769398	2.15732																
		0.771466	2.15748																
		0.773533	2.15764																
		0.775601	2.1578																
		0.777668	2.15795																
		0.779736	2.15811																
		0.781803	2.15827																
		0.783871	2.15842																
		0.785938	2.15858																
		0.788005	2.15873																
		0.790073	2.15888																
		0.79214	2.15904																
		0.794207	2.15919																
		0.796274	2.15934																
		0.798342	2.15949																
		0.800409	2.15964																
		0.802476	2.15979																
		0.804543	2.15993																
		0.80661	2.16008																
		0.808677	2.16023																
		0.810744	2.16037																
		0.812812	2.16052																
		0.814879	2.16066																
		0.816946	2.1608																
		0.819013	2.16094																
		0.82108	2.16108																
		0.823147	2.16123																
		0.825214	2.16136																
		0.82728	2.1615																
		0.829347	2.16164																
		0.831414	2.16178																
		0.833481	2.16192																
		0.835548	2.16205																
		0.837615	2.16219																
		0.839682	2.16232																
		0.841748	2.16246																
		0.843815	2.16259																
		0.845882	2.16272																
		0.847949	2.16285																
		0.850015	2.16299																
		0.852082	2.16312																
		0.854149	2.16325																
		0.856215	2.16338																
		0.858282	2.1635																
		0.860348	2.16363																
		0.862415	2.16376																
		0.864482	2.16389																
		0.866548	2.16401																
		0.868615	2.16414																
		0.870681	2.16426																
		0.872748	2.16439																
		0.874814	2.16451																
		0.876881	2.16463																
		0.878947	2.16475																
		0.881013	2.16488																
		0.88308	2.165																
		0.885146	2.16512																
		0.887212	2.16524																
		0.889279	2.16536																
		0.891345	2.16548																
		0.893411	2.16559																
		0.895478	2.16571																
		0.897544	2.16583																
		0.89961	2.16594																
		0.901676	2.16606																
		0.903742	2.16618																
		0.905809	2.16629																
		0.907875	2.1664																
		0.909941	2.16652																
		0.912007	2.16663																
		0.914073	2.16674																
		0.916139	2.16686																
		0.918205	2.16697																
		0.920271	2.16708																
		0.922337	2.16719																
		0.924403	2.1673																
		0.926469	2.16741																
		0.928535	2.16752																
		0.930601	2.16762																
		0.932667	2.16773																
		0.934733	2.16784																
		0.936799	2.16795																
		0.938864	2.16805																
		0.94093	2.16816																
		0.942996	2.16826																
		0.945062	2.16837																
		0.947128	2.16847																
		0.949193	2.16857																
		0.951259	2.16868																
		0.953325	2.16878																
		0.95539	2.16888																
		0.957456	2.16898																
		0.959522	2.16909																
		0.961587	2.16919																
		0.963653	2.16929																
		0.965719	2.16939																
		0.967784	2.16949																
		0.96985	2.16959																
		0.971915	2.16968																
		0.973981	2.16978																
		0.976046	2.16988																
		0.978112	2.16998																
		0.980177	2.17007																
		0.982243	2.17017																
		0.984308	2.17027																
		0.986373	2.17036																
		0.988439	2.17046																
		0.990504	2.17055																
		0.99257	2.17065																
		0.994635	2.17074																
		0.9967	2.17083																
		0.998765	2.17093																
		1.00083	2.17102																
