Sym0		Asym0		Sym1		Sym2		Sym3		Sym4		Asym1		Asym2		Asym3		Asym4	
258  Points		501  Points		258  Points		228  Points		212  Points		147  Points		347  Points		239  Points		198  Points		128  Points	
Freq (MHz)	Vph (m/ms)	Freq (MHz)	Vph (m/ms)	Freq (MHz)	Vph (m/ms)	Freq (MHz)	Vph (m/ms)	Freq (MHz)	Vph (m/ms)	Freq (MHz)	Vph (m/ms)	Freq (MHz)	Vph (m/ms)	Freq (MHz)	Vph (m/ms)	Freq (MHz)	Vph (m/ms)	Freq (MHz)	Vph (m/ms)
0.279525	357.61	1.16847e-006	0.00874929	0.279529	317.591	0.464375	527.811	0.55902	1309.05	0.838527	1956.83	0.139754	2845.56	0.419264	1759.01	0.698772	2299.29	0.928735	4828.13
0.279588	163.183	7.45113e-005	0.0699475	0.279597	154.316	0.464398	256.36	0.55905	411.448	0.838545	616.483	0.139837	142.573	0.419292	358.354	0.69879	565.545	0.92874	826.242
0.279698	105.744	0.000261404	0.130902	0.279712	101.953	0.464437	169.305	0.559111	244.107	0.838581	365.888	0.140069	73.2386	0.419356	199.528	0.698828	322.442	0.928752	451.783
0.279854	78.2429	0.000560753	0.191472	0.279873	76.151	0.464493	126.396	0.559203	173.551	0.838635	260.155	0.140449	49.3808	0.419456	138.277	0.698886	225.52	0.928772	310.892
0.280057	62.1186	0.000970511	0.251406	0.280081	60.7956	0.464564	100.848	0.559326	134.653	0.838707	201.841	0.140975	37.3355	0.419593	105.821	0.698966	173.411	0.928799	236.991
0.280307	51.5258	0.00148835	0.31059	0.280336	50.6147	0.464652	83.8982	0.55948	110.014	0.838798	164.891	0.141644	30.0885	0.419767	85.7222	0.699067	140.873	0.928833	191.479
0.280603	44.0381	0.00211114	0.36884	0.280637	43.3729	0.464756	71.8327	0.559665	93.0106	0.838906	139.384	0.142454	25.2611	0.419977	72.0554	0.699188	118.626	0.928875	160.635
0.280945	38.4671	0.00283544	0.426034	0.280984	37.9604	0.464877	62.807	0.55988	80.571	0.839033	120.718	0.143401	21.8234	0.420223	62.1611	0.69933	102.454	0.928924	138.352
0.281333	34.1623	0.00365713	0.482019	0.281377	33.7637	0.465014	55.8014	0.560127	71.0767	0.839179	106.467	0.144481	19.2572	0.420505	54.6684	0.699493	90.1703	0.92898	121.5
0.281767	30.7374	0.00457209	0.536705	0.281816	30.4159	0.465168	50.2066	0.560404	63.5934	0.839342	95.2308	0.145688	17.2732	0.420823	48.799	0.699677	80.5229	0.929043	108.31
0.282246	27.949	0.0055757	0.589989	0.282299	27.6843	0.465338	45.6359	0.560712	57.5444	0.839524	86.1451	0.147019	15.697	0.421178	44.0779	0.699881	72.7462	0.929114	97.7058
0.28277	25.6358	0.0066634	0.64181	0.282828	25.4141	0.465526	41.832	0.561051	52.5541	0.839724	78.6467	0.148469	14.4176	0.421568	40.1991	0.700106	66.3447	0.929193	88.9946
0.283339	23.6866	0.00783045	0.69211	0.283402	23.4983	0.46573	38.6172	0.56142	48.3675	0.839942	72.3535	0.150032	13.3606	0.421995	36.9565	0.700352	60.9837	0.929279	81.7114
0.283952	22.0226	0.00907212	0.740849	0.284019	21.8608	0.465951	35.8649	0.561819	44.8055	0.840178	66.9969	0.151703	12.4744	0.422457	34.2059	0.700618	56.4289	0.929372	75.5318
0.284609	20.586	0.0103836	0.787993	0.284681	20.4455	0.46619	33.4821	0.562249	41.7384	0.840432	62.3825	0.153478	11.7223	0.422954	31.844	0.700905	52.5116	0.929473	70.2227
0.285309	19.3337	0.0117605	0.833545	0.285385	19.2107	0.466446	31.3994	0.562709	39.0703	0.840704	58.3663	0.155351	11.0771	0.423487	29.7941	0.701213	49.1068	0.929582	65.6124
0.286052	18.2329	0.0131981	0.877493	0.286133	18.1243	0.46672	29.5637	0.563199	36.7283	0.840995	54.8393	0.15706	10.5861	0.424055	27.9988	0.701541	46.1206	0.929699	61.5716
0.286838	17.2581	0.0146922	0.919851	0.286923	17.1615	0.467011	27.9336	0.563718	34.6565	0.841304	51.7174	0.15857	10.2115	0.424658	26.4138	0.70189	43.4803	0.929823	58.0009
0.287665	16.3892	0.0162388	0.960644	0.287755	16.3028	0.467321	26.4766	0.564267	32.8109	0.84163	48.9348	0.159855	9.92834	0.425297	25.0044	0.702259	41.1293	0.929955	54.823
0.288534	15.61	0.0178337	0.999887	0.288628	15.5324	0.467649	25.1668	0.564846	31.1566	0.841975	46.4391	0.160893	9.71963	0.42597	23.7434	0.702649	39.0228	0.930094	51.9764
0.289444	14.9078	0.0194735	1.03762	0.289542	14.8376	0.467996	23.9829	0.565455	29.6656	0.842337	44.1884	0.161669	9.57403	0.426677	22.6087	0.703059	37.1246	0.930242	49.4119
0.290394	14.2719	0.0211545	1.07388	0.290496	14.2082	0.468361	22.9079	0.566092	28.315	0.842718	42.1483	0.16217	9.48413	0.427419	21.5825	0.703489	35.4055	0.930398	47.0898
0.291383	13.6935	0.0228736	1.10871	0.29149	13.6354	0.468745	21.9274	0.566759	27.0861	0.843117	40.2908	0.162899	9.35917	0.428195	20.6502	0.70394	33.8413	0.930561	44.9771
0.292412	13.1654	0.0246275	1.14214	0.292523	13.1122	0.469148	21.0297	0.567454	25.9633	0.843533	38.5924	0.1637	9.22876	0.429005	19.7996	0.704411	32.4122	0.930733	43.047
0.293479	12.6815	0.0264135	1.17423	0.293594	12.6327	0.469571	20.2049	0.568178	24.9335	0.843967	37.0337	0.164805	9.05992	0.429848	19.0207	0.704902	31.1015	0.930913	41.2766
0.294584	12.2366	0.0282289	1.20503	0.294703	12.1917	0.470014	19.4444	0.568931	23.9859	0.84442	35.5981	0.166227	8.85936	0.430725	18.3048	0.705414	29.8951	0.931101	39.6471
0.295726	11.8264	0.0300712	1.23457	0.295849	11.7848	0.470477	18.7412	0.569712	23.111	0.84489	34.2719	0.167983	8.63443	0.431636	17.6448	0.705945	28.7812	0.931298	38.1423
0.296905	11.447	0.0319382	1.26291	0.297032	11.4085	0.47096	18.0891	0.570521	22.301	0.845377	33.0429	0.17009	8.39252	0.432579	17.0346	0.706497	27.7496	0.931503	36.7484
0.29812	11.0953	0.0338277	1.2901	0.29825	11.0596	0.471463	17.4828	0.571358	21.5489	0.845883	31.9009	0.17257	8.14062	0.433555	16.4688	0.707068	26.7916	0.931716	35.4537
0.29937	10.7684	0.0357378	1.31618	0.299504	10.7352	0.471988	16.9178	0.572223	20.8489	0.846406	30.8371	0.175111	7.91273	0.434564	15.9429	0.70766	25.8997	0.931938	34.2479
0.300654	10.4639	0.0376667	1.3412	0.300625	10.4706	0.472534	16.39	0.573115	20.1958	0.846947	29.8438	0.177711	7.70579	0.435604	15.4529	0.708271	25.0673	0.932168	33.1223
0.301973	10.1797	0.0396129	1.3652	0.3016	10.2574	0.473101	15.8959	0.574035	19.5852	0.847506	28.9142	0.180366	7.51722	0.436677	14.9953	0.708902	24.2887	0.932408	32.0692
0.303325	9.9139	0.0415745	1.38823	0.302421	10.0889	0.47369	15.4326	0.574982	19.0132	0.848082	28.0425	0.183074	7.34487	0.437781	14.5672	0.709553	23.559	0.932656	31.0817
0.304709	9.66483	0.0435505	1.41034	0.303079	9.96046	0.474301	14.9973	0.575956	18.4761	0.848676	27.2234	0.185831	7.18686	0.438917	14.1658	0.710223	22.8736	0.932912	30.154
0.306125	9.43104	0.0455394	1.43155	0.303567	9.8686	0.474935	14.5876	0.576956	17.9711	0.849287	26.4525	0.188636	7.0416	0.440084	13.7888	0.710913	22.2289	0.933178	29.2808
0.307572	9.21124	0.0475401	1.45192	0.303882	9.81091	0.475592	14.2014	0.577983	17.4954	0.849916	25.7255	0.191486	6.90773	0.441282	13.4342	0.711623	21.6212	0.933453	28.4575
0.30905	9.00426	0.0495515	1.47148	0.304338	9.72946	0.476272	13.8367	0.579037	17.0465	0.850562	25.039	0.194378	6.78405	0.44251	13.1	0.712352	21.0475	0.933737	27.6799
0.310558	8.80907	0.0515726	1.49027	0.304837	9.64284	0.476975	13.492	0.580116	16.6224	0.851225	24.3896	0.19731	6.66953	0.443768	12.7846	0.7131	20.5052	0.93403	26.9444
0.312095	8.62474	0.0536025	1.50832	0.305522	9.52812	0.477702	13.1656	0.581221	16.221	0.851906	23.7744	0.200282	6.56327	0.445057	12.4866	0.713868	19.9916	0.934332	26.2477
0.313661	8.45043	0.055378	1.52347	0.3064	9.38792	0.478453	12.8561	0.582352	15.8406	0.852604	23.1909	0.203289	6.46446	0.446375	12.2046	0.714655	19.5048	0.934644	25.5867
0.315255	8.2854	0.0568959	1.53598	0.307476	9.22528	0.479229	12.5625	0.583508	15.4798	0.85332	22.6367	0.206332	6.37241	0.447722	11.9373	0.715461	19.0425	0.934965	24.9589
0.316876	8.12897	0.0581539	1.54606	0.308761	9.04351	0.48003	12.2835	0.58469	15.137	0.854052	22.1097	0.209408	6.28651	0.449099	11.6838	0.716286	18.6032	0.935296	24.3618
0.318525	7.98051	0.0591503	1.55385	0.310263	8.84611	0.480856	12.0181	0.585896	14.811	0.854802	21.6079	0.212515	6.20621	0.450504	11.443	0.71713	18.1851	0.935636	23.7933
0.320199	7.83947	0.0598839	1.55949	0.311794	8.65974	0.481707	11.7654	0.587127	14.5006	0.855568	21.1296	0.215652	6.13101	0.451937	11.214	0.717993	17.7867	0.935986	23.2513
0.3219	7.70534	0.0603538	1.56306	0.313355	8.48355	0.482585	11.5246	0.588383	14.2047	0.856352	20.6733	0.218818	6.06049	0.453399	10.996	0.718874	17.4068	0.936346	22.734
0.323626	7.57765	0.0610298	1.56814	0.314943	8.31677	0.483489	11.2949	0.589663	13.9225	0.857153	20.2374	0.222011	5.99425	0.454888	10.7884	0.719775	17.0441	0.936715	22.2399
0.325376	7.45598	0.0617652	1.57358	0.316559	8.15872	0.484419	11.0755	0.590967	13.6529	0.85797	19.8207	0.225231	5.93195	0.456209	10.6153	0.720694	16.6975	0.937094	21.7674
0.327151	7.33995	0.0627665	1.58086	0.318202	8.00875	0.485376	10.8659	0.592295	13.3953	0.858805	19.422	0.228475	5.87327	0.45735	10.4732	0.721631	16.3659	0.937484	21.3152
0.32895	7.2292	0.0640345	1.58988	0.319872	7.86631	0.486233	10.6908	0.593646	13.1488	0.859656	19.0401	0.231743	5.81794	0.458306	10.3593	0.722587	16.0485	0.937883	20.8819
0.330773	7.1234	0.0655703	1.60051	0.321568	7.73088	0.48698	10.5467	0.595021	12.9128	0.860524	18.6739	0.235034	5.76569	0.459068	10.2715	0.723561	15.7443	0.938293	20.4665
0.332619	7.02225	0.0673751	1.6126	0.323288	7.60197	0.487609	10.4311	0.596419	12.6866	0.861409	18.3227	0.238346	5.7163	0.459633	10.2081	0.724554	15.4526	0.938713	20.0678
0.334488	6.92549	0.0694497	1.626	0.325034	7.47917	0.488114	10.3417	0.59784	12.4697	0.86231	17.9854	0.241679	5.66955	0.459996	10.1681	0.725564	15.1727	0.939143	19.6849
0.336379	6.83284	0.0715279	1.63891	0.326805	7.36207	0.488489	10.2772	0.599284	12.2615	0.863228	17.6613	0.245032	5.62526	0.460521	10.1113	0.726593	14.9038	0.939584	19.3169
0.338294	6.74409	0.0736093	1.65134	0.328599	7.25032	0.488731	10.2365	0.60075	12.0616	0.864162	17.3497	0.248404	5.58324	0.461094	10.0504	0.72764	14.6454	0.940035	18.963
0.34023	6.65902	0.0756935	1.66333	0.330417	7.14358	0.489082	10.1786	0.602239	11.8695	0.865113	17.0499	0.251794	5.54335	0.461879	9.9692	0.728704	14.3969	0.940497	18.6223
0.342189	6.57742	0.0777803	1.6749	0.332258	7.04155	0.489467	10.1165	0.60375	11.6847	0.86608	16.7612	0.255201	5.50544	0.462881	9.86891	0.729786	14.1577	0.94097	18.2941
0.34417	6.49911	0.0798693	1.68606	0.334123	6.94395	0.489996	10.0336	0.605283	11.5068	0.867063	16.483	0.258625	5.46937	0.464105	9.75112	0.730886	13.9273	0.941453	17.9779
0.346174	6.42392	0.0819603	1.69682	0.33601	6.85053	0.490675	9.93113	0.606837	11.3356	0.868063	16.2148	0.262064	5.43502	0.46556	9.61761	0.732004	13.7052	0.941947	17.6729
0.3482	6.3517	0.084053	1.70722	0.33792	6.76104	0.491511	9.81061	0.608413	11.1706	0.869079	15.9561	0.265519	5.40227	0.467252	9.4703	0.733138	13.4911	0.942452	17.3786
0.350249	6.2823	0.0861473	1.71726	0.339852	6.67527	0.492512	9.67382	0.61001	11.0116	0.870111	15.7064	0.268988	5.37104	0.46897	9.32895	0.734291	13.2846	0.942968	17.0944
0.35232	6.21558	0.0882429	1.72696	0.341807	6.59301	0.493688	9.52266	0.611419	10.8776	0.871159	15.4652	0.272471	5.34122	0.470712	9.19322	0.73546	13.0852	0.943495	16.8199
0.354414	6.15142	0.0903396	1.73633	0.343784	6.51407	0.494895	9.3774	0.612633	10.7666	0.872223	15.2322	0.275967	5.31272	0.472478	9.06281	0.736646	12.8926	0.944033	16.5545
0.356532	6.08971	0.0924373	1.7454	0.345783	6.43829	0.496131	9.23775	0.613645	10.677	0.873303	15.0068	0.279475	5.28546	0.474269	8.93743	0.73785	12.7064	0.944583	16.2979
0.358674	6.03032	0.0945358	1.75416	0.347805	6.36551	0.497398	9.10341	0.614451	10.6075	0.874398	14.7889	0.282996	5.25937	0.476083	8.81682	0.73907	12.5265	0.945143	16.0495
0.360841	5.97318	0.096635	1.76264	0.349849	6.29557	0.498695	8.97413	0.615047	10.5572	0.87551	14.578	0.286528	5.23438	0.477921	8.70073	0.740307	12.3524	0.945715	15.8091
0.363032	5.91818	0.0987349	1.77085	0.351916	6.22834	0.500023	8.84966	0.615429	10.5253	0.876637	14.3738	0.290071	5.21042	0.479782	8.58892	0.741561	12.1839	0.946299	15.5763
0.365249	5.86525	0.100835	1.77879	0.354006	6.16369	0.501383	8.72977	0.615981	10.4798	0.87778	14.1759	0.293624	5.18744	0.481665	8.48118	0.742832	12.0208	0.946894	15.3507
0.367493	5.81429	0.102936	1.78649	0.356119	6.10151	0.502774	8.61424	0.616583	10.431	0.878938	13.9842	0.297188	5.16537	0.483571	8.37731	0.744119	11.8627	0.947501	15.1319
0.369765	5.76524	0.105037	1.79394	0.358256	6.04168	0.504196	8.50288	0.617407	10.3656	0.880112	13.7984	0.300761	5.14417	0.4855	8.27712	0.745422	11.7096	0.948119	14.9198
0.372064	5.71803	0.107138	1.80117	0.360418	5.98411	0.50565	8.39549	0.618455	10.2844	0.881301	13.6181	0.304343	5.12378	0.48745	8.18043	0.746741	11.5611	0.948749	14.714
0.374393	5.67259	0.109239	1.80817	0.362604	5.9287	0.507137	8.2919	0.619732	10.1884	0.882506	13.4432	0.307933	5.10417	0.489421	8.08707	0.748077	11.4171	0.949391	14.5142
0.376752	5.62888	0.111341	1.81496	0.364817	5.87537	0.508655	8.19193	0.621245	10.0787	0.883726	13.2734	0.311532	5.08528	0.491414	7.99688	0.749429	11.2774	0.950045	14.3203
0.379143	5.58682	0.113442	1.82155	0.367055	5.82404	0.510206	8.09544	0.622999	9.95666	0.884961	13.1085	0.315138	5.06709	0.493428	7.90973	0.750619	11.1589	0.950711	14.1318
0.381566	5.54638	0.115543	1.82795	0.369321	5.77462	0.511789	8.00226	0.624773	9.83851	0.886211	12.9483	0.318752	5.04955	0.495463	7.82547	0.751644	11.0604	0.951389	13.9487
0.384022	5.50751	0.117644	1.83415	0.371615	5.72706	0.513405	7.91226	0.626566	9.72408	0.887477	12.7926	0.322373	5.03262	0.497518	7.74397	0.752498	10.9805	0.952079	13.7708
0.386514	5.47015	0.119746	1.84018	0.373938	5.68128	0.515053	7.82531	0.628378	9.6132	0.888757	12.6413	0.326	5.01629	0.499593	7.66511	0.753177	10.9183	0.952782	13.5977
0.389042	5.43427	0.121846	1.84603	0.376291	5.63724	0.516735	7.74127	0.630209	9.50572	0.890052	12.4942	0.329633	5.00051	0.501687	7.58877	0.753679	10.8731	0.953496	13.4293
0.391607	5.39982	0.123947	1.85172	0.378676	5.59487	0.518449	7.66003	0.632059	9.40151	0.891362	12.351	0.333272	4.98525	0.503802	7.51484	0.754001	10.8444	0.954223	13.2655
0.39421	5.36677	0.126048	1.85725	0.381092	5.55412	0.520196	7.58148	0.633928	9.30041	0.892687	12.2117	0.336917	4.9705	0.505935	7.44323	0.754466	10.8036	0.954963	13.106
0.396852	5.33507	0.128148	1.86263	0.383542	5.51494	0.521975	7.5055	0.635815	9.20231	0.894026	12.0761	0.340567	4.95622	0.508088	7.37382	0.754973	10.7595	0.955715	12.9507
0.399536	5.3047	0.130248	1.86786	0.386027	5.47729	0.523788	7.432	0.63772	9.10708	0.89538	11.9441	0.344221	4.94239	0.510259	7.30654	0.755665	10.7004	0.95648	12.7995
0.40226	5.27562	0.132347	1.87294	0.388548	5.44112	0.525633	7.36087	0.639643	9.0146	0.896748	11.8155	0.34788	4.92898	0.512449	7.24129	0.756546	10.6268	0.957257	12.6521
0.405027	5.24778	0.134447	1.87789	0.391105	5.4064	0.527512	7.29203	0.641584	8.92477	0.898131	11.6902	0.351543	4.91599	0.514657	7.17799	0.75762	10.5394	0.958047	12.5086
0.407837	5.22116	0.136546	1.88271	0.393701	5.37308	0.529422	7.22539	0.643543	8.83748	0.899528	11.5681	0.35521	4.90338	0.516883	7.11656	0.758889	10.4391	0.95885	12.3686
0.41069	5.19571	0.138644	1.8874	0.396336	5.34113	0.531366	7.16086	0.645519	8.75263	0.900758	11.4642	0.35888	4.89114	0.519126	7.05692	0.760361	10.327	0.959666	12.2321
0.413587	5.17141	0.140742	1.89196	0.399011	5.3105	0.533342	7.09836	0.647513	8.67013	0.901814	11.3775	0.362553	4.87925	0.521387	6.99901	0.761847	10.2179	0.960495	12.099
0.416528	5.14821	0.14284	1.89641	0.401728	5.28117	0.53535	7.03782	0.649524	8.5899	0.902694	11.3069	0.36623	4.86769	0.523666	6.94276	0.763348	10.1117	0.961337	11.9691
0.419514	5.12608	0.144938	1.90075	0.404486	5.25309	0.537391	6.97916	0.651551	8.51183	0.903393	11.2519	0.369909	4.85644	0.525961	6.8881	0.764864	10.0082	0.962192	11.8424
0.422544	5.10498	0.147035	1.90498	0.407288	5.22624	0.539463	6.92232	0.653596	8.43587	0.903909	11.2119	0.37359	4.8455	0.528273	6.83498	0.766395	9.90749	0.96306	11.7187
0.425617	5.08488	0.149132	1.9091	0.410132	5.20056	0.541568	6.86722	0.655657	8.36192	0.90424	11.1864	0.377273	4.83485	0.530601	6.78334	0.76794	9.80932	0.963828	11.6133
0.428734	5.06574	0.151228	1.91312	0.413021	5.17604	0.543704	6.81381	0.657735	8.28991	0.904718	11.1501	0.380958	4.82447	0.532945	6.73311	0.7695	9.71364	0.96449	11.5252
0.431894	5.04751	0.153324	1.91704	0.415954	5.15263	0.545871	6.76202	0.659829	8.21978	0.905239	11.1109	0.384644	4.81434	0.535306	6.68426	0.771074	9.62036	0.965043	11.4534
0.435097	5.03016	0.15542	1.92086	0.418931	5.1303	0.548069	6.71179	0.661939	8.15146	0.90595	11.0583	0.388331	4.80447	0.537682	6.63672	0.772662	9.52941	0.965484	11.3975
0.43834	5.01365	0.157515	1.9246	0.421952	5.109	0.550299	6.66306	0.664066	8.08489	0.906854	10.9925	0.392019	4.79483	0.540074	6.59045	0.774264	9.44069	0.965811	11.3567
0.441624	4.99795	0.15961	1.92824	0.425017	5.08871	0.552559	6.61579	0.666208	8.01999	0.907954	10.9143	0.395708	4.78541	0.542482	6.54541	0.775881	9.35413	0.96602	11.3308
0.444947	4.98301	0.161705	1.9318	0.428126	5.06938	0.554849	6.56993	0.668366	7.95673	0.909255	10.8243	0.399397	4.77621	0.544904	6.50156	0.777511	9.26967	0.966323	11.2938
0.448307	4.9688	0.163799	1.93528	0.431277	5.05098	0.557169	6.52541	0.67054	7.89504	0.91076	10.7232	0.403086	4.76721	0.547342	6.45884	0.779156	9.18722	0.966654	11.2539
0.451705	4.95529	0.165892	1.93867	0.434471	5.03346	0.559519	6.4822	0.672728	7.83486	0.912279	10.6246	0.406774	4.7584	0.549795	6.41723	0.780813	9.10672	0.967106	11.2002
0.455137	4.94243	0.167986	1.94199	0.437707	5.01679	0.561898	6.44025	0.674933	7.77616	0.913811	10.5282	0.410462	4.74978	0.552262	6.37668	0.782485	9.02811	0.967683	11.1331
0.458604	4.93019	0.170079	1.94524	0.440983	5.00094	0.564306	6.39951	0.677152	7.71887	0.915357	10.434	0.41415	4.74133	0.554743	6.33716	0.78417	8.95133	0.968388	11.0531
0.462103	4.91854	0.172171	1.94841	0.444298	4.98586	0.566743	6.35995	0.679386	7.66295	0.916916	10.3419	0.417836	4.73304	0.557239	6.29863	0.785868	8.87631	0.969224	10.9611
0.465633	4.90745	0.174264	1.95151	0.447651	4.97151	0.569208	6.32151	0.681636	7.60837	0.918489	10.2519	0.421521	4.72492	0.559749	6.26106	0.78758	8.80301	0.970196	10.8577
0.469192	4.89688	0.176355	1.95454	0.451042	4.95786	0.571701	6.28417	0.6839	7.55507	0.920075	10.1639	0.425204	4.71694	0.562273	6.22443	0.789304	8.73136	0.971183	10.7566
0.472779	4.8868	0.178447	1.95751	0.454468	4.94488	0.574221	6.24789	0.686178	7.50301	0.921674	10.0779	0.428886	4.70911	0.56481	6.18869	0.791042	8.66131	0.972183	10.6577
0.476394	4.87719	0.180538	1.96041	0.457928	4.93252	0.576769	6.21263	0.688471	7.45217	0.923287	9.99371	0.432565	4.70141	0.567362	6.15382	0.792793	8.59282	0.973197	10.5609
0.480033	4.86801	0.182629	1.96326	0.46142	4.92076	0.579343	6.17835	0.690778	7.40249	0.924912	9.91135	0.436242	4.69384	0.569927	6.1198	0.794556	8.52584	0.974225	10.4663
0.483696	4.85925	0.184719	1.96604	0.464944	4.90956	0.581943	6.14502	0.6931	7.35394	0.92655	9.83075	0.439916	4.6864	0.572505	6.08659	0.796332	8.46032	0.975268	10.3736
0.487382	4.85088	0.18681	1.96876	0.468498	4.89889	0.584569	6.11262	0.695435	7.30649	0.928201	9.75187	0.443587	4.67906	0.575096	6.05417	0.798121	8.39621	0.976324	10.283
0.491089	4.84286	0.188899	1.97143	0.47208	4.88872	0.587221	6.0811	0.697784	7.26011	0.929865	9.67465	0.447255	4.67184	0.577701	6.02252	0.799923	8.33348	0.977395	10.1942
0.494816	4.83519	0.190989	1.97404	0.47569	4.87902	0.589897	6.05044	0.700148	7.21476	0.931542	9.59904	0.450919	4.66472	0.580318	5.99161	0.801737	8.27209	0.97848	10.1073
0.498562	4.82784	0.193078	1.9766	0.479324	4.86976	0.592599	6.02061	0.702524	7.17041	0.933231	9.52501	0.45458	4.65769	0.582949	5.96142	0.803563	8.21199	0.97958	10.0222
0.502325	4.82078	0.195167	1.97911	0.482983	4.86092	0.595324	5.99159	0.704915	7.12703	0.934933	9.45249	0.458236	4.65076	0.585592	5.93194	0.805401	8.15315	0.980694	9.93888
0.506104	4.81401	0.197256	1.98156	0.486664	4.85247	0.598073	5.96334	0.707319	7.0846	0.936648	9.38145	0.461888	4.64391	0.588248	5.90313	0.807252	8.09553	0.981823	9.85724
0.509899	4.8075	0.199344	1.98397	0.490367	4.84439	0.600846	5.93584	0.709736	7.04308	0.938374	9.31185	0.465536	4.63715	0.590916	5.87497	0.809114	8.03909	0.982966	9.77726
0.513709	4.80124	0.201432	1.98633	0.49409	4.83665	0.603641	5.90907	0.712166	7.00246	0.940113	9.24364	0.469178	4.63046	0.593597	5.84746	0.810989	7.98381	0.984124	9.6989
0.517531	4.79522	0.203519	1.98865	0.497832	4.82924	0.606459	5.883	0.714609	6.9627	0.941865	9.1768	0.472816	4.62384	0.59629	5.82057	0.812875	7.92965	0.985296	9.6221
0.521366	4.7894	0.205607	1.99092	0.501592	4.82213	0.6093	5.85761	0.717066	6.92378	0.943628	9.11127	0.476447	4.61729	0.598996	5.79428	0.814773	7.87658	0.986484	9.54683
0.525213	4.7838	0.207694	1.99315	0.505369	4.81531	0.612161	5.83288	0.719535	6.88568	0.945404	9.04703	0.480074	4.6108	0.601714	5.76858	0.816683	7.82457	0.987686	9.47306
0.52907	4.77838	0.209781	1.99534	0.509161	4.80875	0.615045	5.80878	0.722017	6.84837	0.947191	8.98403	0.483694	4.60436	0.604443	5.74346	0.818604	7.77358	0.988903	9.40073
0.532937	4.77314	0.211867	1.99748	0.512967	4.80244	0.617949	5.7853	0.724512	6.81183	0.948991	8.92225	0.487307	4.59798	0.607186	5.71888	0.820537	7.7236	0.990136	9.32981
0.536314	4.76871	0.213954	1.99959	0.516788	4.79637	0.620873	5.76242	0.727019	6.77605	0.950802	8.86166	0.490914	4.59165	0.60994	5.69485	0.822482	7.6746	0.991383	9.26026
0.539198	4.76503	0.21604	2.00165	0.52062	4.79052	0.623818	5.74011	0.729539	6.741	0.952625	8.80221	0.494514	4.58537	0.612706	5.67134	0.824437	7.62655	0.992646	9.19206
0.541587	4.76205	0.218126	2.00368	0.524465	4.78487	0.626782	5.71837	0.732071	6.70665	0.95446	8.74389	0.498107	4.57912	0.615484	5.64834	0.826404	7.57942	0.993923	9.12516
0.543477	4.75973	0.220211	2.00567	0.52832	4.77942	0.629766	5.69716	0.734615	6.67301	0.956306	8.68666	0.501693	4.57291	0.618274	5.62585	0.828382	7.53319	0.995216	9.05954
0.544868	4.75805	0.222296	2.00763	0.532185	4.77414	0.632768	5.67648	0.737171	6.64003	0.958164	8.6305	0.50527	4.56674	0.621076	5.60383	0.830371	7.48783	0.996524	8.99516
0.545759	4.75698	0.224381	2.00955	0.536059	4.76904	0.63579	5.65631	0.73974	6.60771	0.960033	8.57537	0.50884	4.5606	0.62389	5.58229	0.832372	7.44333	0.997848	8.93198
0.54704	4.75546	0.226466	2.01144	0.539942	4.7641	0.638829	5.63662	0.74232	6.57604	0.961914	8.52125	0.5124	4.55448	0.626715	5.56122	0.834383	7.39967	0.999187	8.87
0.548433	4.75382	0.228551	2.0133	0.543833	4.7593	0.641886	5.61742	0.744913	6.54498	0.963806	8.46812	0.515953	4.54839	0.629553	5.54059	0.836405	7.35681	1.00054	8.80916
0.550329	4.75161	0.230635	2.01512	0.547731	4.75464	0.644961	5.59868	0.747517	6.51453	0.965709	8.41595	0.519496	4.54231	0.632402	5.5204	0.838437	7.31475		
0.552729	4.74887	0.232719	2.01691	0.551635	4.75011	0.648053	5.58039	0.750133	6.48468	0.967623	8.36471	0.52303	4.53626	0.635263	5.50064	0.840481	7.27345		
0.555634	4.74561	0.234803	2.01867	0.555545	4.74571	0.651162	5.56253	0.75276	6.4554	0.969549	8.31439	0.526554	4.53022	0.638136	5.48129	0.842535	7.23291		
0.559046	4.74187	0.236887	2.0204	0.55946	4.74142	0.654287	5.54509	0.755399	6.42668	0.971485	8.26496	0.530068	4.52419	0.641021	5.46236	0.844599	7.1931		
0.562965	4.73767	0.238971	2.0221	0.56338	4.73723	0.657428	5.52807	0.75805	6.39851	0.973432	8.2164	0.533572	4.51816	0.643917	5.44382	0.846675	7.15401		
0.566888	4.73357	0.241054	2.02378	0.567303	4.73315	0.660586	5.51144	0.760712	6.37088	0.97539	8.16869	0.537065	4.51214	0.646826	5.42567	0.84876	7.11561		
0.570816	4.72957	0.243137	2.02542	0.571231	4.72915	0.663758	5.49519	0.763385	6.34377	0.977359	8.12181	0.540547	4.50613	0.649746	5.4079	0.850856	7.0779		
0.574746	4.72565	0.24522	2.02704	0.575161	4.72524	0.666946	5.47932	0.766069	6.31717	0.979339	8.07573	0.544019	4.50011	0.652678	5.3905	0.852962	7.04085		
0.578679	4.72182	0.247303	2.02863	0.579095	4.72142	0.670149	5.46381	0.768765	6.29106	0.981329	8.03045	0.547478	4.4941	0.655622	5.37347	0.855079	7.00446		
0.582614	4.71806	0.249385	2.0302	0.58303	4.71767	0.673367	5.44866	0.771472	6.26544	0.98333	7.98593	0.550926	4.48808	0.658578	5.35679	0.857206	6.96869		
0.586551	4.71437	0.251468	2.03174	0.586967	4.71399	0.676599	5.43384	0.77419	6.2403	0.985341	7.94217	0.554362	4.48205	0.661545	5.34046	0.859343	6.93355		
0.590489	4.71075	0.25355	2.03326	0.590905	4.71037	0.679845	5.41936	0.776919	6.21561	0.987363	7.89914	0.557785	4.47601	0.664525	5.32446	0.86149	6.89901		
0.594428	4.70719	0.255632	2.03475	0.594844	4.70681	0.683105	5.4052	0.779658	6.19138	0.989394	7.85684	0.561196	4.46996	0.667516	5.3088	0.863647	6.86506		
0.598368	4.70368	0.257714	2.03622	0.598784	4.70331	0.686378	5.39136	0.782409	6.16759	0.991437	7.81523	0.564594	4.46389	0.670519	5.29346	0.865814	6.83169		
0.602307	4.70023	0.259795	2.03767	0.602724	4.69986	0.689665	5.37782	0.785171	6.14424	0.993489	7.77431	0.567978	4.45781	0.673535	5.27844	0.867991	6.79889		
0.606247	4.69682	0.261877	2.0391	0.606663	4.69646	0.692965	5.36457	0.787943	6.1213	0.995551	7.73407	0.571349	4.45172	0.676562	5.26373	0.870178	6.76664		
0.610186	4.69346	0.263958	2.0405	0.610602	4.6931	0.696277	5.35162	0.790726	6.09878	0.997624	7.69447	0.574706	4.4456	0.679601	5.24933	0.872375	6.73492		
0.614124	4.69014	0.266039	2.04188	0.61454	4.68979	0.699602	5.33894	0.793519	6.07666	0.999706	7.65552	0.578049	4.43946	0.682653	5.23522	0.874581	6.70374		
0.61806	4.68685	0.26812	2.04324	0.618477	4.68651	0.70294	5.32654	0.796323	6.05493	1.0018	7.6172	0.581377	4.4333	0.685716	5.22141	0.876798	6.67307		
0.621995	4.6836	0.270201	2.04458	0.622411	4.68326	0.706289	5.3144	0.799138	6.03359			0.58469	4.42712	0.688791	5.20788	0.879024	6.64291		
0.625928	4.68038	0.272282	2.0459	0.626344	4.68004	0.709651	5.30252	0.801963	6.01262			0.587989	4.42091	0.691879	5.19463	0.88126	6.61325		
0.629859	4.67719	0.274362	2.0472	0.630275	4.67685	0.713024	5.29089	0.804799	5.99203			0.591273	4.41467	0.694978	5.18165	0.883506	6.58407		
0.633788	4.67402	0.276443	2.04849	0.634203	4.67369	0.716409	5.27951	0.807645	5.97179			0.594541	4.4084	0.69809	5.16895	0.885761	6.55536		
0.637713	4.67088	0.278523	2.04975	0.638128	4.67054	0.719805	5.26837	0.810502	5.95191			0.597793	4.40211	0.701214	5.1565	0.888026	6.52711		
0.641635	4.66775	0.280603	2.051	0.642049	4.66742	0.723212	5.25745	0.813368	5.93238			0.60103	4.39578	0.704349	5.14431	0.8903	6.49932		
0.645554	4.66464	0.282683	2.05222	0.645968	4.66431	0.72663	5.24676	0.816245	5.91318			0.60425	4.38942	0.707497	5.13238	0.892584	6.47198		
0.649469	4.66155	0.284763	2.05343	0.649882	4.66122	0.730059	5.2363	0.819133	5.89431			0.607454	4.38303	0.710657	5.12069	0.894878	6.44506		
0.653379	4.65846	0.286843	2.05463	0.653793	4.65814	0.733499	5.22604	0.822031	5.87577			0.610641	4.37661	0.713828	5.10924	0.897181	6.41858		
0.657286	4.65539	0.288922	2.0558	0.657699	4.65507	0.736949	5.216	0.824938	5.85754			0.613812	4.37015	0.717012	5.09803	0.899493	6.39252		
0.661188	4.65233	0.291002	2.05696	0.6616	4.65201	0.740409	5.20616	0.827856	5.83963			0.616966	4.36366	0.720207	5.08705	0.901815	6.36686		
0.665085	4.64927	0.293081	2.05811	0.665497	4.64895	0.743879	5.19652	0.830785	5.82202			0.620102	4.35713	0.723414	5.0763	0.904146	6.34161		
0.668977	4.64622	0.29516	2.05923	0.669388	4.6459	0.747359	5.18707	0.833723	5.80472			0.623222	4.35057	0.726634	5.06577	0.906487	6.31674		
0.672864	4.64317	0.29724	2.06035	0.673274	4.64284	0.75085	5.17781	0.836671	5.7877			0.626324	4.34397	0.729864	5.05546	0.908837	6.29227		
0.676745	4.64012	0.299319	2.06144	0.677155	4.63979	0.754349	5.16873	0.83963	5.77097			0.629408	4.33733	0.733107	5.04536	0.911197	6.26817		
0.68062	4.63706	0.301397	2.06253	0.681029	4.63674	0.757858	5.15984	0.842598	5.75452			0.632475	4.33066	0.736361	5.03546	0.913566	6.24445		
0.684489	4.63401	0.303476	2.0636	0.684898	4.63369	0.761377	5.15112	0.845577	5.73835			0.635524	4.32396	0.739626	5.02577	0.915944	6.22109		
0.688352	4.63095	0.305555	2.06465	0.68876	4.63063	0.764905	5.14257	0.848566	5.72245			0.638555	4.31721	0.742903	5.01628	0.918332	6.19808		
0.692208	4.62788	0.307633	2.06569	0.692615	4.62756	0.768442	5.13419	0.851564	5.70682			0.641568	4.31043	0.746192	5.00699	0.920729	6.17542		
0.696057	4.62481	0.309712	2.06672	0.696464	4.62449	0.771988	5.12597	0.854573	5.69145			0.644563	4.30362	0.749491	4.99788	0.923135	6.15311		
0.6999	4.62173	0.31179	2.06773	0.700305	4.6214	0.775542	5.11791	0.857592	5.67633			0.64754	4.29676	0.752801	4.98896	0.92555	6.13114		
0.703735	4.61864	0.313868	2.06873	0.70414	4.61831	0.779106	5.11001	0.86062	5.66146			0.650499	4.28988	0.756123	4.98022	0.927975	6.10949		
0.707562	4.61553	0.315946	2.06972	0.707966	4.61521	0.782678	5.10226	0.863659	5.64684			0.65344	4.28295	0.759455	4.97166	0.930409	6.08817		
0.711382	4.61242	0.318024	2.07069	0.711785	4.61209	0.786258	5.09466	0.866708	5.63246			0.656362	4.27599	0.762798	4.96327	0.932853	6.06717		
0.715194	4.60929	0.320102	2.07165	0.715596	4.60896	0.789847	5.0872	0.869766	5.61832			0.659266	4.269	0.766151	4.95505	0.935305	6.04649		
0.718997	4.60615	0.32218	2.0726	0.719399	4.60581	0.793444	5.07988	0.872835	5.60441			0.662152	4.26198	0.769515	4.947	0.937767	6.02611		
0.722792	4.60299	0.324258	2.07354	0.723193	4.60265	0.79705	5.07271	0.875913	5.59073			0.665019	4.25492	0.772888	4.9391	0.940238	6.00603		
0.726579	4.59981	0.326335	2.07447	0.726979	4.59947	0.800663	5.06567	0.879001	5.57728			0.667869	4.24782	0.776272	4.93136	0.942719	5.98624		
0.730357	4.59661	0.328413	2.07538	0.730756	4.59627	0.804284	5.05876	0.8821	5.56405			0.6707	4.2407	0.779666	4.92378	0.945209	5.96675		
0.734126	4.5934	0.33049	2.07629	0.734524	4.59306	0.807913	5.05198	0.885208	5.55103			0.673513	4.23355	0.783069	4.91634	0.947707	5.94755		
0.737886	4.59016	0.332568	2.07718	0.738283	4.58982	0.81155	5.04532	0.888326	5.53822			0.676307	4.22636	0.786481	4.90905	0.950216	5.92862		
0.741636	4.58691	0.334645	2.07806	0.742032	4.58656	0.815194	5.03879	0.891454	5.52563			0.679084	4.21915	0.789903	4.90191	0.952733	5.90997		
0.745377	4.58363	0.336722	2.07893	0.745772	4.58329	0.818846	5.03239	0.894592	5.51324			0.681842	4.21191	0.793334	4.89489	0.955259	5.8916		
0.749108	4.58034	0.338799	2.07979	0.749502	4.57999	0.822505	5.02609	0.89774	5.50106			0.684583	4.20464	0.796774	4.88802	0.957795	5.87348		
0.75283	4.57702	0.340876	2.08064	0.753222	4.57666	0.826171	5.01992	0.900898	5.48907			0.687306	4.19734	0.800222	4.88127	0.96034	5.85564		
0.756541	4.57367	0.342953	2.08148	0.756933	4.57332	0.829845	5.01385	0.904066	5.47728			0.690011	4.19002	0.803679	4.87465	0.962894	5.83804		
0.760242	4.5703	0.34503	2.08231	0.760632	4.56994	0.833525	5.0079	0.907244	5.46568			0.692698	4.18267	0.807143	4.86816	0.965458	5.82071		
0.763932	4.56691	0.347107	2.08313	0.764322	4.56655	0.837212	5.00205	0.910432	5.45427			0.695367	4.1753	0.810616	4.86178	0.96803	5.80362		
0.767612	4.56349	0.349183	2.08394	0.768001	4.56313	0.840906	4.99631	0.91363	5.44305			0.69802	4.16791	0.814096	4.85552	0.970612	5.78677		
0.771282	4.56005	0.35126	2.08474	0.771669	4.55968	0.844607	4.99067	0.916837	5.432			0.700654	4.1605	0.817584	4.84938	0.973203	5.77017		
0.77494	4.55658	0.353336	2.08553	0.775326	4.55621	0.848314	4.98514	0.920055	5.42114			0.703272	4.15306	0.821079	4.84335	0.975803	5.7538		
0.778587	4.55308	0.355413	2.08632	0.778972	4.55271	0.852028	4.97969	0.923283	5.41046			0.705872	4.14561	0.824582	4.83742	0.978413	5.73766		
0.782224	4.54956	0.357489	2.08709	0.782608	4.54918	0.855748	4.97435	0.92652	5.39995			0.708456	4.13814	0.82809	4.83159	0.981031	5.72176		
0.785849	4.54601	0.359565	2.08786	0.786231	4.54563	0.859474	4.9691	0.929768	5.38961			0.711022	4.13065	0.831606	4.82587	0.983659	5.70608		
0.789462	4.54243	0.361642	2.08861	0.789844	4.54205	0.863206	4.96394	0.933026	5.37944			0.713572	4.12315	0.835127	4.82025	0.986296	5.69062		
0.793065	4.53882	0.363718	2.08936	0.793445	4.53844	0.866945	4.95886	0.936293	5.36944			0.716105	4.11563	0.838655	4.81472	0.988942	5.67538		
0.796655	4.53519	0.365794	2.0901	0.797034	4.5348	0.870688	4.95388	0.939571	5.3596			0.718622	4.10809	0.842189	4.80928	0.991597	5.66035		
0.800234	4.53153	0.36787	2.09083	0.800612	4.53114	0.874438	4.94898	0.942859	5.34992			0.721122	4.10055	0.845728	4.80393	0.994261	5.64553		
0.803801	4.52784	0.369946	2.09155	0.804177	4.52745	0.878193	4.94416	0.946156	5.3404			0.723607	4.09299	0.849272	4.79867	0.996935	5.63092		
0.807356	4.52412	0.372022	2.09227	0.807731	4.52373	0.881953	4.93942	0.949464	5.33104			0.726075	4.08542	0.852821	4.79349	0.999618	5.61652		
0.810899	4.52037	0.374097	2.09298	0.811273	4.51998	0.885719	4.93476	0.952782	5.32182			0.728528	4.07785	0.856376	4.78839	1.00231	5.60232		
0.81443	4.5166	0.376173	2.09368	0.814803	4.5162	0.889489	4.93017	0.95611	5.31276			0.730965	4.07026	0.859934	4.78337				
0.817949	4.5128	0.378249	2.09437	0.81832	4.51239	0.893265	4.92566	0.959448	5.30385			0.733387	4.06267	0.863498	4.77842				
0.821455	4.50897	0.380324	2.09505	0.821825	4.50856	0.897045	4.92123	0.962796	5.29509			0.735793	4.05507	0.867065	4.77355				
0.824949	4.50511	0.3824	2.09573	0.825318	4.5047	0.90083	4.91686	0.966154	5.28647			0.738185	4.04747	0.870636	4.76875				
0.828431	4.50122	0.384475	2.0964	0.828799	4.5008	0.904619	4.91256	0.969522	5.27799			0.740561	4.03986	0.87421	4.76402				
0.831901	4.4973	0.386551	2.09706	0.832267	4.49688	0.908413	4.90833	0.9729	5.26965			0.742923	4.03225	0.877788	4.75935				
0.835357	4.49336	0.388626	2.09772	0.835722	4.49294	0.912211	4.90416	0.976288	5.26145			0.74527	4.02464	0.88137	4.75475				
0.838802	4.48938	0.390701	2.09837	0.839165	4.48896	0.916013	4.90005	0.979686	5.25339			0.747602	4.01702	0.884954	4.75021				
0.842233	4.48538	0.392777	2.09901	0.842595	4.48496	0.919818	4.89601	0.983094	5.24546			0.749921	4.00941	0.88854	4.74573				
0.845652	4.48136	0.394852	2.09965	0.846013	4.48093	0.923628	4.89203	0.986513	5.23766			0.752225	4.00179	0.89213	4.7413				
0.849059	4.4773	0.396927	2.10027	0.849418	4.47687	0.927441	4.8881	0.989941	5.22999			0.754516	3.99418	0.895721	4.73694				
0.852452	4.47322	0.399002	2.1009	0.852811	4.47279	0.931257	4.88423	0.99338	5.22245			0.756792	3.98657	0.899314	4.73262				
0.855833	4.46911	0.401077	2.10151	0.85619	4.46868	0.935076	4.88041	0.996828	5.21504			0.759056	3.97897	0.902909	4.72836				
0.859202	4.46498	0.403152	2.10212	0.859557	4.46454	0.938899	4.87665	1.00029	5.20775			0.761306	3.97136	0.906506	4.72414				
0.862557	4.46082	0.405227	2.10273	0.862911	4.46038	0.942724	4.87293					0.763542	3.96377	0.910104	4.71997				
0.8659	4.45663	0.407302	2.10332	0.866253	4.45619	0.946551	4.86927					0.765766	3.95618	0.913703	4.71585				
0.86923	4.45242	0.409377	2.10392	0.869581	4.45197	0.950382	4.86565					0.767977	3.94859	0.917303	4.71177				
0.872547	4.44818	0.411451	2.1045	0.872897	4.44773	0.954214	4.86208					0.770176	3.94102	0.920903	4.70774				
0.875852	4.44392	0.413526	2.10508	0.8762	4.44347	0.958049	4.85856					0.772362	3.93345	0.924504	4.70374				
0.879143	4.43964	0.415601	2.10566	0.879491	4.43918	0.961886	4.85507					0.774535	3.92589	0.928105	4.69979				
0.882422	4.43533	0.417675	2.10623	0.882768	4.43487	0.965724	4.85163					0.776697	3.91835	0.931707	4.69587				
0.885688	4.43099	0.41975	2.10679	0.886033	4.43053	0.969564	4.84823					0.778847	3.91081	0.935308	4.69198				
0.888942	4.42664	0.421824	2.10735	0.889285	4.42617	0.973406	4.84487					0.780985	3.90328	0.938908	4.68814				
0.892183	4.42226	0.423899	2.1079	0.892525	4.42179	0.977248	4.84154					0.783111	3.89577	0.942508	4.68432				
0.895411	4.41786	0.425973	2.10844	0.895751	4.41739	0.981092	4.83825					0.785226	3.88827	0.946107	4.68053				
0.898626	4.41343	0.428047	2.10899	0.898965	4.41296	0.984937	4.835					0.78733	3.88078	0.949706	4.67678				
0.901829	4.40899	0.430121	2.10952	0.902167	4.40852	0.988782	4.83178					0.789423	3.87331	0.953303	4.67305				
0.905019	4.40452	0.432196	2.11005	0.905356	4.40405	0.992628	4.82859					0.791505	3.86585	0.956898	4.66935				
0.908197	4.40003	0.43427	2.11058	0.908532	4.39956	0.996475	4.82543					0.793576	3.85841	0.960492	4.66568				
0.911362	4.39553	0.436344	2.1111	0.911696	4.39505	1.00032	4.8223					0.795636	3.85099	0.964084	4.66203				
0.914514	4.391	0.438418	2.11162	0.914847	4.39052							0.797687	3.84358	0.967675	4.6584				
0.917654	4.38646	0.440492	2.11213	0.917986	4.38597							0.799727	3.83618	0.971263	4.65479				
0.920782	4.38189	0.442566	2.11263	0.921112	4.38141							0.801757	3.82881	0.974848	4.65121				
0.923897	4.37731	0.44464	2.11314	0.924226	4.37682							0.803777	3.82145	0.978432	4.64765				
0.927	4.37271	0.446714	2.11363	0.927328	4.37222							0.805787	3.81412	0.982012	4.6441				
0.930091	4.36809	0.448788	2.11413	0.930417	4.3676							0.807788	3.8068	0.98559	4.64057				
0.933169	4.36345	0.450862	2.11461	0.933494	4.36296							0.809779	3.7995	0.989164	4.63706				
0.936236	4.3588	0.452935	2.1151	0.936559	4.35831							0.811762	3.79223	0.992736	4.63357				
0.93929	4.35413	0.455009	2.11558	0.939612	4.35364							0.813735	3.78497	0.996304	4.63009				
0.942332	4.34945	0.457083	2.11605	0.942653	4.34895							0.815699	3.77773	0.999868	4.62662				
0.945362	4.34475	0.459157	2.11652	0.945681	4.34425							0.817654	3.77052	1.00343	4.62316				
0.948379	4.34004	0.46123	2.11699	0.948698	4.33954							0.819601	3.76333						
0.951385	4.33531	0.463304	2.11745	0.951703	4.33481							0.821539	3.75616						
0.954379	4.33057	0.465377	2.11791	0.954695	4.33006							0.823469	3.74901						
0.957362	4.32581	0.467451	2.11837	0.957676	4.32531							0.825391	3.74189						
0.960332	4.32104	0.469524	2.11882	0.960645	4.32054							0.827305	3.73479						
0.963291	4.31626	0.471598	2.11926	0.963603	4.31575							0.829211	3.72772						
0.966238	4.31146	0.473671	2.1197	0.966549	4.31096							0.831109	3.72067						
0.969173	4.30666	0.475744	2.12014	0.969483	4.30615							0.832999	3.71364						
0.972097	4.30184	0.477818	2.12058	0.972405	4.30133							0.834882	3.70664						
0.975009	4.29701	0.479891	2.12101	0.975316	4.2965							0.836758	3.69966						
0.97791	4.29217	0.481964	2.12144	0.978216	4.29166							0.838627	3.69271						
0.980799	4.28732	0.484037	2.12186	0.981104	4.28681							0.840488	3.68579						
0.983678	4.28246	0.48611	2.12228	0.983981	4.28195							0.842342	3.67889						
0.986544	4.27759	0.488184	2.1227	0.986847	4.27708							0.84419	3.67202						
0.9894	4.27271	0.490257	2.12311	0.989701	4.2722							0.846031	3.66517						
0.992244	4.26782	0.49233	2.12352	0.992544	4.26731							0.847866	3.65835						
0.995078	4.26293	0.494403	2.12393	0.995377	4.26241							0.849694	3.65156						
0.9979	4.25802	0.496476	2.12433	0.998198	4.2575							0.851516	3.6448						
1.00071	4.25311	0.498549	2.12473	1.00101	4.25259							0.853331	3.63806						
		0.500622	2.12512									0.855141	3.63135						
		0.502694	2.12552									0.856944	3.62467						
		0.504767	2.12591									0.858742	3.61801						
		0.50684	2.12629									0.860534	3.61139						
		0.508913	2.12668									0.862321	3.60479						
		0.510985	2.12706									0.864102	3.59822						
		0.513058	2.12743									0.865878	3.59168						
		0.515131	2.12781									0.867648	3.58517						
		0.517204	2.12818									0.869414	3.57869						
		0.519276	2.12855									0.871174	3.57223						
		0.521349	2.12891									0.872929	3.56581						
		0.523421	2.12927									0.87468	3.55941						
		0.525494	2.12963									0.876426	3.55305						
		0.527566	2.12999									0.878167	3.54671						
		0.529639	2.13034									0.879904	3.5404						
		0.531711	2.13069									0.881637	3.53413						
		0.533783	2.13104									0.883365	3.52788						
		0.535856	2.13139									0.885089	3.52166						
		0.537928	2.13173									0.886808	3.51547						
		0.54	2.13207									0.888524	3.50931						
		0.542073	2.13241									0.890236	3.50318						
		0.544145	2.13274									0.891944	3.49708						
		0.546217	2.13308									0.893648	3.49101						
		0.548289	2.13341									0.895349	3.48497						
		0.550361	2.13373									0.897046	3.47896						
		0.552434	2.13406									0.898739	3.47297						
		0.554506	2.13438									0.900429	3.46702						
		0.556578	2.1347									0.902116	3.4611						
		0.55865	2.13502									0.903799	3.45521						
		0.560722	2.13533									0.905479	3.44935						
		0.562794	2.13565									0.907156	3.44351						
		0.564866	2.13596									0.908831	3.43771						
		0.566938	2.13627									0.910502	3.43194						
		0.56901	2.13657									0.91217	3.42619						
		0.571081	2.13688									0.913836	3.42048						
		0.573153	2.13718									0.915498	3.41479						
		0.575225	2.13748									0.917159	3.40914						
		0.577297	2.13778									0.918816	3.40351						
		0.579369	2.13807									0.920471	3.39792						
		0.58144	2.13836									0.922124	3.39235						
		0.583512	2.13866									0.923774	3.38681						
		0.585584	2.13894									0.925422	3.3813						
		0.587655	2.13923									0.927067	3.37582						
		0.589727	2.13952									0.928711	3.37037						
		0.591799	2.1398									0.930352	3.36495						
		0.59387	2.14008									0.931991	3.35956						
		0.595942	2.14036									0.933628	3.35419						
		0.598013	2.14064									0.935263	3.34886						
		0.600085	2.14091									0.936896	3.34355						
		0.602156	2.14118									0.938528	3.33828						
		0.604228	2.14146									0.940158	3.33303						
		0.606299	2.14172									0.941785	3.32781						
		0.608371	2.14199									0.943412	3.32261						
		0.610442	2.14226									0.945036	3.31745						
		0.612514	2.14252									0.946659	3.31231						
		0.614585	2.14278									0.948281	3.30721						
		0.616656	2.14304									0.949901	3.30213						
		0.618727	2.1433									0.951519	3.29707						
		0.620799	2.14356									0.953137	3.29205						
		0.62287	2.14381									0.954752	3.28705						
		0.624941	2.14407									0.956367	3.28208						
		0.627012	2.14432									0.95798	3.27714						
		0.629084	2.14457									0.959592	3.27223						
		0.631155	2.14482									0.961203	3.26734						
		0.633226	2.14506									0.962813	3.26248						
		0.635297	2.14531									0.964422	3.25765						
		0.637368	2.14555									0.96603	3.25284						
		0.639439	2.14579									0.967637	3.24806						
		0.64151	2.14603									0.969242	3.24331						
		0.643581	2.14627									0.970847	3.23858						
		0.645652	2.14651									0.972451	3.23388						
		0.647723	2.14675									0.974054	3.22921						
		0.649794	2.14698									0.975657	3.22456						
		0.651865	2.14721									0.977259	3.21994						
		0.653936	2.14744									0.978859	3.21534						
		0.656007	2.14767									0.98046	3.21077						
		0.658078	2.1479									0.982059	3.20623						
		0.660149	2.14813									0.983658	3.20171						
		0.662219	2.14835									0.985257	3.19722						
		0.66429	2.14858									0.986854	3.19275						
		0.666361	2.1488									0.988452	3.18831						
		0.668432	2.14902									0.990048	3.18389						
		0.670502	2.14924									0.991645	3.1795						
		0.672573	2.14946									0.993241	3.17513						
		0.674644	2.14968									0.994836	3.17078						
		0.676715	2.14989									0.996431	3.16646						
		0.678785	2.1501									0.998026	3.16217						
		0.680856	2.15032									0.99962	3.1579						
		0.682926	2.15053									1.00121	3.15365						
		0.684997	2.15074																
		0.687068	2.15095																
		0.689138	2.15116																
		0.691209	2.15136																
		0.693279	2.15157																
		0.69535	2.15177																
		0.69742	2.15197																
		0.699491	2.15218																
		0.701561	2.15238																
		0.703631	2.15257																
		0.705702	2.15277																
		0.707772	2.15297																
		0.709843	2.15316																
		0.711913	2.15336																
		0.713983	2.15355																
		0.716054	2.15374																
		0.718124	2.15394																
		0.720194	2.15412																
		0.722264	2.15431																
		0.724334	2.1545																
		0.726405	2.15469																
		0.728475	2.15487																
		0.730545	2.15506																
		0.732615	2.15524																
		0.734685	2.15542																
		0.736755	2.1556																
		0.738826	2.15578																
		0.740896	2.15596																
		0.742966	2.15614																
		0.745036	2.15632																
		0.747106	2.15649																
		0.749176	2.15667																
		0.751246	2.15684																
		0.753316	2.15702																
		0.755385	2.15719																
		0.757455	2.15736																
		0.759525	2.15753																
		0.761595	2.1577																
		0.763665	2.15787																
		0.765735	2.15803																
		0.767805	2.1582																
		0.769875	2.15837																
		0.771944	2.15853																
		0.774014	2.15869																
		0.776084	2.15886																
		0.778154	2.15902																
		0.780223	2.15918																
		0.782293	2.15934																
		0.784363	2.1595																
		0.786432	2.15966																
		0.788502	2.15982																
		0.790572	2.15997																
		0.792641	2.16013																
		0.794711	2.16028																
		0.79678	2.16044																
		0.79885	2.16059																
		0.80092	2.16074																
		0.802989	2.16089																
		0.805059	2.16105																
		0.807128	2.1612																
		0.809198	2.16134																
		0.811267	2.16149																
		0.813336	2.16164																
		0.815406	2.16179																
		0.817475	2.16193																
		0.819545	2.16208																
		0.821614	2.16222																
		0.823683	2.16237																
		0.825753	2.16251																
		0.827822	2.16265																
		0.829891	2.1628																
		0.831961	2.16294																
		0.83403	2.16308																
		0.836099	2.16322																
		0.838168	2.16335																
		0.840238	2.16349																
		0.842307	2.16363																
		0.844376	2.16377																
		0.846445	2.1639																
		0.848514	2.16404																
		0.850583	2.16417																
		0.852653	2.16431																
		0.854722	2.16444																
		0.856791	2.16457																
		0.85886	2.1647																
		0.860929	2.16484																
		0.862998	2.16497																
		0.865067	2.1651																
		0.867136	2.16523																
		0.869205	2.16535																
		0.871274	2.16548																
		0.873343	2.16561																
		0.875412	2.16574																
		0.877481	2.16586																
		0.87955	2.16599																
		0.881619	2.16611																
		0.883687	2.16624																
		0.885756	2.16636																
		0.887825	2.16648																
		0.889894	2.16661																
		0.891963	2.16673																
		0.894032	2.16685																
		0.8961	2.16697																
		0.898169	2.16709																
		0.900238	2.16721																
		0.902307	2.16733																
		0.904375	2.16745																
		0.906444	2.16757																
		0.908513	2.16768																
		0.910581	2.1678																
		0.91265	2.16792																
		0.914719	2.16803																
		0.916787	2.16815																
		0.918856	2.16826																
		0.920924	2.16838																
		0.922993	2.16849																
		0.925062	2.1686																
		0.92713	2.16871																
		0.929199	2.16883																
		0.931267	2.16894																
		0.933336	2.16905																
		0.935404	2.16916																
		0.937473	2.16927																
		0.939541	2.16938																
		0.941609	2.16949																
		0.943678	2.1696																
		0.945746	2.1697																
		0.947815	2.16981																
		0.949883	2.16992																
		0.951951	2.17002																
		0.95402	2.17013																
		0.956088	2.17024																
		0.958156	2.17034																
		0.960225	2.17044																
		0.962293	2.17055																
		0.964361	2.17065																
		0.966429	2.17076																
		0.968498	2.17086																
		0.970566	2.17096																
		0.972634	2.17106																
		0.974702	2.17116																
		0.97677	2.17126																
		0.978839	2.17136																
		0.980907	2.17146																
		0.982975	2.17156																
		0.985043	2.17166																
		0.987111	2.17176																
		0.989179	2.17186																
		0.991247	2.17196																
		0.993315	2.17205																
		0.995383	2.17215																
		0.997451	2.17225																
		0.999519	2.17234																
		1.00159	2.17244																
