Sym0		Asym0		Sym1		Sym2		Sym3		Sym4		Asym1		Asym2		Asym3		Asym4	
494  Points		499  Points		365  Points		215  Points		179  Points		149  Points		444  Points		269  Points		190  Points		151  Points	
Freq (MHz)	Vph (m/ms)	Freq (MHz)	Vph (m/ms)	Freq (MHz)	Vph (m/ms)	Freq (MHz)	Vph (m/ms)	Freq (MHz)	Vph (m/ms)	Freq (MHz)	Vph (m/ms)	Freq (MHz)	Vph (m/ms)	Freq (MHz)	Vph (m/ms)	Freq (MHz)	Vph (m/ms)	Freq (MHz)	Vph (m/ms)
0.00195346	5.28752	0.000342	0.161714	0.279507	347.294	0.329674	379.688	0.559029	677.041	0.838526	4083.41	0.139767	416.243	0.419271	674.583	0.65926	15072	0.69878	1090.93
0.0068795	5.28728	0.000706997	0.232066	0.2795	160.955	0.329819	183.236	0.559071	318.126	0.838538	737.472	0.13993	110.4	0.419311	269.962	0.659269	675.871	0.698821	444.478
0.0118044	5.28673	0.00119946	0.301506	0.279488	104.748	0.330066	120.829	0.559143	207.931	0.838567	405.352	0.140282	63.7884	0.419386	168.773	0.659296	345.7	0.698899	279.121
0.0167273	5.28586	0.00181563	0.369787	0.279474	77.6338	0.330412	90.1936	0.559245	154.454	0.838613	279.497	0.14082	44.978	0.419496	122.781	0.65934	232.258	0.699011	203.46
0.0216473	5.2847	0.00255092	0.43668	0.279456	61.6685	0.330857	72.0028	0.559378	122.873	0.838677	213.288	0.141542	34.8405	0.419641	96.5067	0.659401	174.883	0.699159	160.089
0.0265637	5.28323	0.00340012	0.501988	0.279438	51.1484	0.331399	59.9628	0.559541	102.028	0.838757	172.448	0.142442	28.5213	0.41982	79.5113	0.65948	140.249	0.699341	131.976
0.0314755	5.28146	0.00435759	0.565553	0.279421	43.6938	0.332038	51.4114	0.559734	87.2422	0.838854	144.742	0.143517	24.2184	0.420033	67.6197	0.659576	117.072	0.699559	112.276
0.0363818	5.27937	0.00541737	0.627249	0.279407	38.1355	0.332769	45.0288	0.559957	76.21	0.838967	124.712	0.14476	21.1093	0.420281	58.835	0.659689	100.477	0.699811	97.7063
0.0412817	5.27697	0.00657298	0.686946	0.279397	33.832	0.333592	40.0864	0.56021	67.6643	0.839098	109.558	0.146165	18.7648	0.420564	52.0816	0.659821	88.0078	0.700098	86.495
0.0461744	5.27424	0.00781831	0.744594	0.279396	30.4019	0.334505	36.1489	0.560494	60.8508	0.839246	97.6935	0.147725	16.939	0.42088	46.7292	0.65997	78.2976	0.70042	77.6021
0.0510586	5.27117	0.00914686	0.800125	0.279404	27.6042	0.335504	32.9403	0.560807	55.292	0.839411	88.1521	0.149434	15.481	0.421231	42.3838	0.660137	70.5223	0.700777	70.3769
0.0559336	5.26776	0.0105525	0.853518	0.279424	25.2793	0.336588	30.2771	0.56115	50.6712	0.839592	80.3131	0.151283	14.293	0.421615	38.7864	0.660323	64.1564	0.701167	64.3912
0.0607982	5.26401	0.012029	0.904767	0.279459	23.3171	0.337754	28.0326	0.561523	46.77	0.839791	73.7584	0.153266	13.3088	0.422034	35.7599	0.660526	58.849	0.701592	59.3519
0.0656512	5.25989	0.0135709	0.953892	0.279512	21.6393	0.339	26.1165	0.561925	43.4331	0.840006	68.1968	0.155375	12.4821	0.422486	33.1789	0.660749	54.3568	0.70205	55.0517
0.0704916	5.2554	0.0151723	1.00091	0.279585	20.1887	0.340323	24.4626	0.562358	40.5466	0.840238	63.4186	0.157604	11.7795	0.422971	30.9523	0.66099	50.5055	0.702542	51.3394
0.0753181	5.25053	0.0168282	1.04586	0.27968	18.9226	0.341722	23.0214	0.56282	38.0255	0.840487	59.2695	0.159946	11.1762	0.42349	29.0122	0.66125	47.1676	0.703068	48.1028
0.0801295	5.24525	0.0185335	1.0888	0.279801	17.8082	0.343194	21.755	0.563311	35.8048	0.840753	55.6331	0.162393	10.6537	0.424042	27.3071	0.661529	44.2469	0.703627	45.2562
0.0849243	5.23957	0.0202839	1.12979	0.279949	16.8202	0.344736	20.6341	0.563832	33.8343	0.841035	52.42	0.16494	10.1975	0.424627	25.797	0.661828	41.6701	0.704219	42.7334
0.0897011	5.23345	0.0220749	1.16889	0.280127	15.9387	0.346348	19.6356	0.564382	32.0741	0.841335	49.5607	0.167581	9.79643	0.425245	24.4505	0.662146	39.3801	0.704844	40.4826
0.0944584	5.22688	0.0239026	1.20616	0.280339	15.1477	0.348026	18.7408	0.564961	30.4925	0.841651	46.9998	0.170309	9.44167	0.425895	23.2428	0.662485	37.3316	0.705501	38.4621
0.0991945	5.21984	0.0257635	1.24169	0.280585	14.4344	0.349769	17.9349	0.56557	29.0638	0.841984	44.6931	0.173119	9.12609	0.426577	22.1536	0.662843	35.4886	0.706191	36.6387
0.103908	5.21232	0.0276543	1.27554	0.28087	13.7881	0.351575	17.2055	0.566207	27.7671	0.842333	42.6046	0.176006	8.84393	0.427292	21.1666	0.663222	33.8218	0.706913	34.9851
0.108596	5.20428	0.0295718	1.30778	0.281194	13.2003	0.353443	16.5427	0.566873	26.5851	0.8427	40.7049	0.178966	8.59047	0.428039	20.2681	0.663622	32.3071	0.707666	33.4787
0.113258	5.19571	0.0315134	1.3385	0.281562	12.6637	0.355371	15.9379	0.567568	25.5033	0.843082	38.9696	0.181993	8.3618	0.428817	19.447	0.664043	30.9249	0.708452	32.1009
0.117891	5.18657	0.0334765	1.36775	0.281976	12.1722	0.357357	15.3841	0.568292	24.5097	0.843482	37.3784	0.185082	8.15468	0.429627	18.6939	0.664484	29.6586	0.709268	30.8361
0.122493	5.17684	0.0354588	1.39562	0.282437	11.7208	0.359399	14.8754	0.569044	23.5941	0.843898	35.914	0.188231	7.96639	0.430468	18.0007	0.664948	28.4944	0.710116	29.6711
0.127062	5.16648	0.0374582	1.42216	0.28295	11.3049	0.361498	14.4067	0.569824	22.7477	0.84433	34.562	0.191435	7.79463	0.431339	17.3608	0.665433	27.4204	0.710995	28.5947
0.131595	5.15548	0.0394731	1.44746	0.283517	10.921	0.36365	13.9736	0.570633	21.9631	0.84478	33.31	0.19469	7.63743	0.432242	16.7683	0.66594	26.4267	0.711904	27.5972
0.136089	5.14379	0.0415014	1.47156	0.28414	10.5659	0.365855	13.5724	0.571469	21.2338	0.845245	32.1474	0.197993	7.49314	0.433175	16.2183	0.666469	25.5047	0.712844	26.6703
0.140541	5.13137	0.0435418	1.49453	0.284824	10.2366	0.368111	13.1999	0.572334	20.5544	0.845727	31.0649	0.20134	7.3603	0.434139	15.7065	0.66702	24.647	0.713814	25.807
0.144949	5.1182	0.0453286	1.51368	0.285571	9.93095	0.370418	12.8532	0.573226	19.9199	0.846226	30.0547	0.204291	7.25291	0.435132	15.2291	0.667594	23.8473	0.714814	25.001
0.149309	5.10423	0.0468575	1.52939	0.286384	9.64668	0.372774	12.5299	0.574146	19.3262	0.846741	29.1097	0.206831	7.16694	0.436155	14.7829	0.668191	23.0998	0.715844	24.2469
0.153617	5.08941	0.0481254	1.54197	0.287268	9.382	0.375178	12.2277	0.575094	18.7694	0.847272	28.224	0.208946	7.09944	0.437208	14.365	0.668811	22.3997	0.716904	23.5399
0.157871	5.07372	0.0491301	1.55166	0.288225	9.13528	0.377629	11.9449	0.576069	18.2464	0.84782	27.3921	0.210627	7.04821	0.438291	13.9728	0.669454	21.7428	0.717993	22.8759
0.162065	5.05711	0.04987	1.55865	0.289259	8.9051	0.380126	11.6797	0.577071	17.7542	0.848384	26.6093	0.211869	7.01168	0.439402	13.6041	0.670121	21.1252	0.719111	22.251
0.166198	5.03953	0.050344	1.56306	0.290375	8.69018	0.382669	11.4306	0.5781	17.2903	0.848964	25.8715	0.212666	6.9888	0.440543	13.257	0.670812	20.5436	0.720258	21.662
0.170263	5.02095	0.0510261	1.56932	0.291575	8.4894	0.385255	11.1962	0.579156	16.8522	0.849561	25.1749	0.213814	6.95656	0.441712	12.9297	0.671526	19.995	0.721434	21.1059
0.174257	5.00133	0.0517683	1.57602	0.292865	8.30175	0.387885	10.9755	0.580239	16.4381	0.850173	24.5162	0.215067	6.92236	0.44291	12.6206	0.672264	19.4766	0.722638	20.5802
0.178176	4.98063	0.0527789	1.58495	0.294248	8.12632	0.390556	10.7672	0.581348	16.046	0.850802	23.8924	0.216776	6.8772	0.444137	12.3282	0.673027	18.9862	0.723871	20.0825
0.182016	4.95882	0.0540591	1.59597	0.295727	7.9623	0.39327	10.5705	0.582485	15.6743	0.851447	23.3009	0.218948	6.82223	0.445391	12.0514	0.673813	18.5216	0.725132	19.6105
0.185772	4.93586	0.0556099	1.60888	0.297307	7.80895	0.396024	10.3845	0.583647	15.3214	0.852108	22.7392	0.221588	6.75874	0.446674	11.7889	0.674625	18.0809	0.726421	19.1626
0.189441	4.91175	0.0574327	1.62348	0.298992	7.6656	0.398818	10.2084	0.584836	14.9861	0.852785	22.2052	0.224703	6.68814	0.447985	11.5398	0.675461	17.6622	0.727739	18.7368
0.193018	4.88645	0.0595284	1.63954	0.300784	7.53164	0.401651	10.0414	0.58605	14.6671	0.853479	21.6968	0.228301	6.61188	0.449324	11.303	0.676321	17.2641	0.729084	18.3317
0.1965	4.85996	0.0616278	1.65489	0.302435	7.4221	0.404523	9.883	0.587291	14.3632	0.854188	21.2124	0.231922	6.54025	0.450691	11.0777	0.677207	16.8852	0.730457	17.9458
0.199883	4.8323	0.0637304	1.66958	0.303911	7.33375	0.407432	9.73253	0.588558	14.0735	0.854913	20.7503	0.235562	6.47285	0.452086	10.8632	0.678117	16.524	0.731857	17.5779
0.203166	4.80346	0.0658358	1.68365	0.305179	7.26402	0.410378	9.58948	0.58985	13.797	0.855654	20.3091	0.239221	6.4093	0.453508	10.6588	0.679052	16.1795	0.733285	17.2267
0.206346	4.77349	0.0679434	1.69711	0.306212	7.21094	0.41336	9.45336	0.591168	13.5329	0.85641	19.8872	0.242896	6.34927	0.454958	10.4637	0.680013	15.8505	0.73474	16.8912
0.20942	4.7424	0.070053	1.71001	0.306989	7.17304	0.416377	9.32371	0.592511	13.2804	0.857183	19.4836	0.246586	6.29247	0.456436	10.2775	0.680999	15.5361	0.736222	16.5703
0.21239	4.71027	0.072164	1.72237	0.307494	7.14927	0.41943	9.20012	0.593879	13.0388	0.857971	19.0971	0.250288	6.23862	0.457942	10.0995	0.68201	15.2353	0.737731	16.2632
0.215253	4.67714	0.0742764	1.73422	0.308231	7.11576	0.422517	9.08222	0.595273	12.8074	0.858775	18.7267	0.254001	6.18748	0.459475	9.92932	0.683046	14.9473	0.739268	15.9691
0.218012	4.64309	0.0763896	1.74559	0.309047	7.0802	0.425637	8.96966	0.596692	12.5857	0.859595	18.3713	0.257724	6.13884	0.461036	9.76641	0.684107	14.6714	0.740831	15.6872
0.220668	4.6082	0.0785036	1.7565	0.31018	7.03324	0.428791	8.86212	0.598136	12.373	0.860431	18.0301	0.261454	6.09248	0.462625	9.6104	0.685194	14.4069	0.742421	15.4167
0.223222	4.57256	0.0806182	1.76697	0.311652	6.9761	0.431977	8.75929	0.599604	12.1688	0.861282	17.7024	0.265191	6.04824	0.464242	9.46087	0.686306	14.153	0.744037	15.157
0.225677	4.53628	0.082733	1.77704	0.313492	6.91022	0.435195	8.66092	0.601098	11.9727	0.862148	17.3872	0.268932	6.00594	0.465887	9.31748	0.687443	13.9092	0.745681	14.9075
0.228037	4.49945	0.084848	1.78671	0.315733	6.83724	0.438444	8.56674	0.602616	11.7843	0.863031	17.084	0.272675	5.96542	0.46756	9.1799	0.688606	13.675	0.74735	14.6677
0.230305	4.46218	0.086963	1.79601	0.318411	6.75889	0.441724	8.47652	0.604159	11.6031	0.863928	16.7921	0.276421	5.92656	0.469262	9.0478	0.689794	13.4497	0.749047	14.437
0.232486	4.42456	0.0890779	1.80496	0.321204	6.68593	0.445034	8.39003	0.605727	11.4287	0.864841	16.5108	0.280166	5.88922	0.470992	8.92091	0.691007	13.233	0.75077	14.215
0.234584	4.38671	0.0911926	1.81357	0.324106	6.618	0.448374	8.30709	0.607319	11.2608	0.86577	16.2397	0.28391	5.85328	0.472752	8.79896	0.692246	13.0243	0.752519	14.0011
0.236604	4.34872	0.0933069	1.82186	0.327116	6.55477	0.451744	8.22749	0.608935	11.099	0.866714	15.9782	0.287651	5.81864	0.47454	8.68169	0.693509	12.8233	0.754294	13.795
0.238551	4.31069	0.0954208	1.82985	0.33023	6.49587	0.455142	8.15107	0.610577	10.9431	0.867673	15.7257	0.291388	5.7852	0.476358	8.56889	0.694798	12.6295	0.756096	13.5963
0.24043	4.2727	0.0975342	1.83754	0.333441	6.44101	0.458568	8.07765	0.612242	10.7927	0.868648	15.482	0.295119	5.75286	0.478205	8.46033	0.696111	12.4427	0.757923	13.4046
0.242245	4.23484	0.0996471	1.84497	0.336747	6.38986	0.462022	8.00709	0.613932	10.6476	0.869638	15.2464	0.298842	5.72153	0.480083	8.35582	0.69745	12.2624	0.759777	13.2195
0.244002	4.19719	0.101759	1.85213	0.340141	6.34214	0.465504	7.93923	0.615646	10.5076	0.870643	15.0187	0.302558	5.69114	0.481991	8.25516	0.698813	12.0883	0.761657	13.0408
0.245704	4.1598	0.103871	1.85903	0.343619	6.29758	0.469013	7.87395	0.617385	10.3723	0.871664	14.7985	0.306263	5.66162	0.483929	8.15818	0.7002	11.9202	0.763564	12.8682
0.247357	4.12275	0.105982	1.8657	0.347174	6.25591	0.472548	7.81113	0.619148	10.2416	0.872699	14.5854	0.309957	5.63289	0.485899	8.06472	0.701613	11.7578	0.765496	12.7013
0.248964	4.08609	0.108092	1.87215	0.350801	6.21689	0.476109	7.75063	0.620935	10.1153	0.87375	14.379	0.313638	5.60489	0.4879	7.97461	0.703049	11.6007	0.767454	12.54
0.25053	4.04986	0.110202	1.87837	0.354494	6.18031	0.479696	7.69235	0.622747	9.99312	0.874816	14.1792	0.317306	5.57756	0.489934	7.88773	0.70451	11.4488	0.769438	12.3839
0.252058	4.01411	0.11231	1.88439	0.358249	6.14594	0.483308	7.63619	0.624584	9.87496	0.875897	13.9855	0.320958	5.55085	0.491999	7.80392	0.705995	11.3018	0.771449	12.2328
0.253552	3.97887	0.114418	1.89021	0.36206	6.1136	0.486477	7.5889	0.626445	9.7606	0.876993	13.7977	0.324593	5.5247	0.494097	7.72307	0.707504	11.1595	0.773485	12.0865
0.255015	3.94416	0.116525	1.89584	0.365921	6.0831	0.489192	7.54975	0.62833	9.6499	0.878104	13.6156	0.32821	5.49906	0.495953	7.65493	0.709036	11.0217	0.775547	11.9448
0.256451	3.91002	0.118632	1.90129	0.369829	6.05428	0.491448	7.51815	0.630241	9.54269	0.87923	13.4389	0.331808	5.4739	0.497555	7.59848	0.710592	10.8882	0.777635	11.8075
0.257862	3.87646	0.120737	1.90656	0.373777	6.027	0.493238	7.49366	0.632176	9.43884	0.88037	13.2674	0.335386	5.44916	0.498893	7.55291	0.712172	10.7588	0.779749	11.6745
0.25925	3.8435	0.122842	1.91167	0.377763	6.0011	0.494558	7.47592	0.634136	9.3382	0.881526	13.1009	0.338941	5.42481	0.499961	7.51757	0.713774	10.6334	0.781888	11.5455
0.260618	3.81115	0.124946	1.91663	0.38178	5.97647	0.495404	7.46468	0.636122	9.24066	0.882697	12.9391	0.342474	5.40081	0.500751	7.49197	0.7154	10.5117	0.784054	11.4203
0.261969	3.77941	0.127049	1.92143	0.385827	5.95299	0.496623	7.44868	0.638132	9.14608	0.883882	12.782	0.345982	5.37713	0.501259	7.47575	0.717048	10.3936	0.786245	11.2989
0.263134	3.75226	0.129151	1.92608	0.389897	5.93054	0.49795	7.43151	0.640168	9.05435	0.885083	12.6292	0.349464	5.35373	0.501993	7.45266	0.718719	10.279	0.788463	11.1811
0.264118	3.72948	0.131253	1.9306	0.393989	5.90904	0.499761	7.40849	0.64223	8.96537	0.886298	12.4806	0.35292	5.33059	0.502794	7.42786	0.720412	10.1678	0.790706	11.0667
0.264926	3.71091	0.133354	1.93498	0.398099	5.88839	0.502058	7.37993	0.644317	8.87903	0.887528	12.3361	0.356348	5.30767	0.503891	7.39463	0.722127	10.0597	0.792975	10.9556
0.265563	3.69639	0.135454	1.93923	0.402223	5.86852	0.504848	7.3462	0.646431	8.79523	0.888773	12.1954	0.359746	5.28495	0.50529	7.35341	0.723864	9.95468	0.795269	10.8476
0.266029	3.68581	0.137553	1.94336	0.406358	5.84934	0.508136	7.30772	0.648571	8.71388	0.890032	12.0585	0.363115	5.2624	0.507	7.30472	0.725622	9.85262	0.797589	10.7427
0.266327	3.67908	0.139651	1.94738	0.410502	5.8308	0.511931	7.26495	0.650737	8.6349	0.891306	11.9253	0.366452	5.24001	0.509031	7.24918	0.727402	9.7534	0.799935	10.6408
0.266754	3.66946	0.141749	1.95128	0.414653	5.81282	0.515748	7.2236	0.65293	8.5582	0.892595	11.7955	0.369757	5.21776	0.511395	7.18748	0.729204	9.65691	0.802307	10.5417
0.267217	3.65908	0.143846	1.95507	0.418806	5.79536	0.519586	7.18362	0.655151	8.4837	0.893898	11.669	0.373028	5.19561	0.513795	7.12787	0.731026	9.56305	0.804704	10.4453
0.267845	3.64509	0.145942	1.95876	0.422961	5.77835	0.523446	7.14495	0.657398	8.41132	0.895216	11.5458	0.376266	5.17357	0.516231	7.07028	0.732868	9.47171	0.807128	10.3516
0.268636	3.62761	0.148038	1.96234	0.427115	5.76176	0.527327	7.10753	0.659674	8.34101	0.896549	11.4257	0.379468	5.15161	0.518704	7.01464	0.734731	9.38281	0.809576	10.2604
0.269589	3.60677	0.150133	1.96583	0.431265	5.74554	0.531228	7.07132	0.661978	8.27268	0.897896	11.3086	0.382635	5.12972	0.521213	6.96087	0.736614	9.29625	0.81205	10.1717
0.270703	3.58275	0.152227	1.96923	0.435411	5.72965	0.535149	7.03625	0.66431	8.20627	0.899258	11.1944	0.385765	5.10788	0.52376	6.90891	0.738517	9.21195	0.81455	10.0853
0.271976	3.55575	0.15432	1.97254	0.439549	5.71405	0.539091	7.00229	0.666671	8.14174	0.900634	11.083	0.388858	5.08609	0.526343	6.85869	0.74044	9.12983	0.817075	10.0012
0.273244	3.52934	0.156413	1.97576	0.443678	5.6987	0.543051	6.96939	0.669061	8.079	0.902025	10.9743	0.391913	5.06433	0.528963	6.81015	0.742382	9.04981	0.819626	9.91927
0.274509	3.50352	0.158505	1.9789	0.447797	5.68359	0.54703	6.93751	0.671482	8.01802	0.90343	10.8682	0.39493	5.04261	0.53162	6.76323	0.744344	8.97182	0.822202	9.8395
0.275771	3.47826	0.160597	1.98196	0.451903	5.66867	0.551028	6.9066	0.673932	7.95874	0.90485	10.7646	0.397909	5.02091	0.534313	6.71787	0.746324	8.89579	0.824804	9.76179
0.277031	3.45357	0.162688	1.98494	0.455996	5.65393	0.555044	6.87663	0.676093	7.90843	0.906284	10.6635	0.400848	4.99922	0.537043	6.67402	0.748323	8.82165	0.82743	9.68607
0.27829	3.42944	0.164778	1.98785	0.460073	5.63934	0.559077	6.84755	0.677953	7.8665	0.907733	10.5647	0.403747	4.97755	0.53981	6.63161	0.750341	8.74934	0.830082	9.61227
0.279549	3.40584	0.166868	1.99068	0.464133	5.62487	0.563127	6.81934	0.679504	7.83249	0.909196	10.4682	0.406608	4.95589	0.542612	6.5906	0.752376	8.67879	0.832759	9.54034
0.280807	3.38278	0.168957	1.99345	0.468176	5.61052	0.567193	6.79195	0.68074	7.80601	0.910674	10.374	0.409428	4.93423	0.54545	6.55093	0.75443	8.60995	0.835461	9.47022
0.282067	3.36024	0.171046	1.99615	0.472199	5.59625	0.571275	6.76535	0.681653	7.78677	0.912166	10.2818	0.412209	4.91259	0.548322	6.51256	0.756502	8.54276	0.838189	9.40184
0.283327	3.3382	0.173134	1.99879	0.476202	5.58205	0.575373	6.73951	0.682239	7.77456	0.913672	10.1918	0.414951	4.89095	0.55123	6.47544	0.758591	8.47716	0.840941	9.33515
0.28459	3.31667	0.175222	2.00136	0.480184	5.56791	0.579485	6.7144	0.683085	7.75714	0.915193	10.1037	0.417653	4.86932	0.554171	6.43951	0.760698	8.41311	0.843717	9.2701
0.285854	3.29562	0.177309	2.00387	0.484142	5.55382	0.583611	6.68999	0.684009	7.73839	0.916729	10.0176	0.420315	4.84771	0.557145	6.40473	0.762822	8.35055	0.846519	9.20663
0.287121	3.27505	0.179395	2.00633	0.488077	5.53975	0.58775	6.66624	0.685272	7.71319	0.918278	9.93344	0.422939	4.82611	0.560152	6.37106	0.764963	8.28945	0.849345	9.14471
0.288391	3.25494	0.181481	2.00873	0.491988	5.5257	0.591901	6.64313	0.686881	7.6818	0.919842	9.85107	0.425524	4.80453	0.563191	6.33845	0.767121	8.22974	0.852196	9.08427
0.289664	3.23528	0.183567	2.01107	0.495873	5.51166	0.596065	6.62063	0.688843	7.64458	0.921421	9.77048	0.428071	4.78297	0.56626	6.30687	0.769295	8.17139	0.855071	9.02529
0.29094	3.21607	0.185652	2.01337	0.499731	5.49761	0.600239	6.59871	0.691168	7.60189	0.923013	9.69163	0.43058	4.76144	0.56936	6.27626	0.771487	8.11437	0.857971	8.9677
0.29222	3.19729	0.187737	2.01561	0.503562	5.48355	0.604424	6.57734	0.693869	7.55418	0.924621	9.61445	0.433052	4.73994	0.572488	6.24659	0.773409	8.06571	0.860894	8.91148
0.293504	3.17893	0.189821	2.0178	0.507366	5.46948	0.608618	6.55651	0.696605	7.50782	0.926242	9.53889	0.435487	4.71847	0.575644	6.21781	0.775058	8.02498	0.863842	8.85657
0.294792	3.16099	0.191904	2.01994	0.51114	5.45538	0.612821	6.53618	0.699377	7.46275	0.927878	9.46493	0.437887	4.69705	0.578827	6.1899	0.776428	7.99181	0.866813	8.80295
0.296084	3.14344	0.193988	2.02204	0.514886	5.44124	0.617031	6.51633	0.702185	7.41896	0.929528	9.39249	0.440251	4.67568	0.582036	6.16282	0.777516	7.9659	0.869808	8.75057
0.297381	3.12629	0.196071	2.0241	0.518601	5.42707	0.621247	6.49693	0.70503	7.37641	0.931193	9.32156	0.44258	4.65437	0.585269	6.13651	0.778318	7.94703	0.872827	8.6994
0.298683	3.10952	0.198153	2.02611	0.522286	5.41286	0.62547	6.47797	0.707913	7.33507	0.932872	9.25208	0.444876	4.63312	0.588526	6.11097	0.778833	7.93503	0.875869	8.6494
0.299989	3.09311	0.200235	2.02808	0.52594	5.3986	0.629697	6.45942	0.710835	7.29492	0.934566	9.18401	0.447138	4.61193	0.591806	6.08614	0.779574	7.91788	0.878934	8.60054
0.301301	3.07708	0.202317	2.03	0.529562	5.38428	0.633927	6.44125	0.713795	7.25592	0.936273	9.11731	0.449369	4.59082	0.595106	6.062	0.780381	7.89938	0.882023	8.55278
0.302617	3.06139	0.204398	2.03189	0.533152	5.36992	0.63816	6.42345	0.716796	7.21806	0.937996	9.05196	0.451568	4.56979	0.598426	6.03851	0.781482	7.87446	0.885134	8.50611
0.303939	3.04605	0.206479	2.03374	0.536711	5.3555	0.642394	6.406	0.719837	7.18131	0.939732	8.98791	0.453736	4.54884	0.601765	6.01565	0.78288	7.84332	0.888268	8.46047
0.305266	3.03105	0.20856	2.03555	0.540236	5.34103	0.646629	6.38887	0.722919	7.14564	0.941484	8.92512	0.455875	4.52799	0.605122	5.99338	0.784579	7.80621	0.891425	8.41585
0.306598	3.01637	0.21064	2.03733	0.543729	5.32649	0.650863	6.37204	0.726044	7.11104	0.943249	8.86358	0.457985	4.50724	0.608495	5.97168	0.786583	7.76343	0.894603	8.37222
0.307935	3.00201	0.21272	2.03907	0.547188	5.3119	0.655094	6.3555	0.729211	7.07747	0.945029	8.80323	0.460067	4.48659	0.611882	5.95051	0.788897	7.71532	0.897804	8.32955
0.309278	2.98796	0.214799	2.04078	0.550614	5.29725	0.659323	6.33922	0.732421	7.04493	0.946824	8.74406	0.462122	4.46605	0.615284	5.92986	0.791226	7.66823	0.901027	8.28781
0.310627	2.97422	0.216878	2.04245	0.554006	5.28253	0.663547	6.32319	0.735675	7.01338	0.948633	8.68603	0.464151	4.44563	0.618698	5.9097	0.793571	7.62213	0.903853	8.25218
0.311981	2.96077	0.218957	2.0441	0.557365	5.26776	0.667766	6.30739	0.738974	6.9828	0.950457	8.62911	0.466154	4.42532	0.622123	5.89	0.795931	7.57699	0.906275	8.22233
0.313341	2.94761	0.221036	2.04571	0.56069	5.25293	0.671978	6.29181	0.742318	6.95319	0.952295	8.57328	0.468133	4.40515	0.625558	5.87074	0.798306	7.53279	0.908287	8.19801
0.314706	2.93473	0.223114	2.04729	0.563981	5.23804	0.676182	6.27642	0.745708	6.92451	0.954148	8.51851	0.470088	4.3851	0.629003	5.8519	0.800697	7.48951	0.909883	8.17901
0.316077	2.92213	0.225192	2.04884	0.567238	5.2231	0.680377	6.26121	0.749144	6.89674	0.956016	8.46478	0.47202	4.36518	0.632455	5.83345	0.803103	7.44711	0.91106	8.16517
0.317453	2.90979	0.22727	2.05036	0.570462	5.2081	0.684562	6.24617	0.752626	6.86988	0.957898	8.41205	0.47393	4.3454	0.635913	5.81537	0.805524	7.40558	0.911814	8.15637
0.318835	2.89771	0.229347	2.05186	0.573651	5.19304	0.688737	6.23129	0.756156	6.84389	0.95955	8.3669	0.475818	4.32577	0.639377	5.79765	0.80796	7.36489	0.912901	8.14379
0.320223	2.88589	0.231424	2.05332	0.576807	5.17794	0.692899	6.21655	0.759733	6.81877	0.960968	8.329	0.477686	4.30628	0.642845	5.78027	0.810412	7.32503	0.914085	8.13021
0.321616	2.87431	0.233501	2.05476	0.57993	5.16279	0.697049	6.20193	0.763357	6.79448	0.962146	8.29805	0.479535	4.28693	0.646317	5.7632	0.812878	7.28597	0.915699	8.11192
0.323015	2.86298	0.235577	2.05618	0.583019	5.1476	0.701184	6.18744	0.767029	6.77101	0.963081	8.27382	0.481364	4.26774	0.64979	5.74643	0.81536	7.24768	0.917747	8.08905
0.32442	2.85188	0.237654	2.05757	0.586074	5.13236	0.705305	6.17305	0.770749	6.74834	0.963772	8.25615	0.483175	4.2487	0.653265	5.72995	0.817856	7.21016	0.920234	8.06179
0.32583	2.841	0.23973	2.05893	0.589097	5.11708	0.709411	6.15876	0.774516	6.72646	0.964214	8.2449	0.484969	4.22982	0.656739	5.71373	0.820368	7.17339	0.923167	8.03036
0.327246	2.83036	0.241805	2.06028	0.592087	5.10176	0.7135	6.14456	0.778331	6.70533	0.964852	8.22882	0.486745	4.21109	0.660212	5.69776	0.822895	7.13734	0.92655	7.995
0.328668	2.81993	0.243881	2.06159	0.595045	5.08641	0.717573	6.13045	0.782193	6.68495	0.965547	8.21144	0.488506	4.19253	0.663684	5.68203	0.825437	7.102	0.929953	7.96037
0.330095	2.80971	0.245956	2.06289	0.59797	5.07103	0.721629	6.11641	0.786102	6.66529	0.966495	8.18799	0.490251	4.17413	0.667152	5.66653	0.827995	7.06735	0.933376	7.92645
0.331527	2.7997	0.248031	2.06416	0.600864	5.05563	0.725667	6.10245	0.790058	6.64632	0.9677	8.15864	0.49198	4.15589	0.670616	5.65123	0.830567	7.03337	0.936817	7.89322
0.332965	2.7899	0.250106	2.06541	0.603726	5.04019	0.729687	6.08855	0.79406	6.62804	0.969164	8.12358	0.493696	4.13781	0.674075	5.63613	0.833155	7.00006	0.940278	7.86067
0.334409	2.78029	0.25218	2.06665	0.606557	5.02474	0.733689	6.07472	0.798107	6.61041	0.970892	8.08305	0.495398	4.11991	0.677528	5.62121	0.835759	6.96739	0.943757	7.82878
0.335858	2.77087	0.254255	2.06786	0.609357	5.00928	0.737673	6.06095	0.802199	6.59342	0.972889	8.03734	0.497086	4.10216	0.680974	5.60646	0.838377	6.93535	0.947255	7.79753
0.337313	2.76165	0.256329	2.06905	0.612127	4.9938	0.741638	6.04723	0.806335	6.57705	0.974901	7.99244	0.498763	4.08459	0.684413	5.59188	0.841011	6.90393	0.950771	7.7669
0.338773	2.7526	0.258403	2.07022	0.614866	4.97831	0.745585	6.03358	0.810513	6.56127	0.976929	7.94835	0.500426	4.06718	0.687843	5.57745	0.84366	6.87311	0.954304	7.73688
0.340238	2.74374	0.260476	2.07137	0.617576	4.96282	0.749513	6.01998	0.814734	6.54606	0.978972	7.90505	0.502079	4.04995	0.691264	5.56316	0.846325	6.84288	0.957854	7.70745
0.341709	2.73505	0.26255	2.0725	0.620258	4.94732	0.753423	6.00644	0.818995	6.53141	0.98103	7.86252	0.50372	4.03288	0.694675	5.549	0.849005	6.81322	0.961422	7.67859
0.343185	2.72653	0.264623	2.07362	0.62291	4.93183	0.757315	5.99295	0.823297	6.51729	0.983104	7.82075	0.505351	4.01598	0.698075	5.53497	0.851701	6.78413	0.965007	7.65029
0.344666	2.71818	0.266696	2.07471	0.625534	4.91634	0.761188	5.97952	0.827637	6.50368	0.985194	7.77971	0.506971	3.99924	0.701463	5.52105	0.854412	6.75559	0.968608	7.62254
0.346153	2.70999	0.268769	2.07579	0.628131	4.90086	0.765044	5.96614	0.832014	6.49056	0.987299	7.73939	0.508582	3.98268	0.704839	5.50724	0.857139	6.72759	0.972224	7.59531
0.347644	2.70196	0.270841	2.07686	0.6307	4.88539	0.768882	5.95282	0.836428	6.47791	0.98942	7.69978	0.510184	3.96629	0.708202	5.49352	0.859881	6.70012	0.975857	7.5686
0.349141	2.69408	0.272914	2.0779	0.633242	4.86994	0.772703	5.93956	0.840876	6.4657	0.991557	7.66087	0.511777	3.95006	0.711552	5.4799	0.862639	6.67316	0.979505	7.54239
0.350643	2.68636	0.274986	2.07893	0.635758	4.8545	0.776507	5.92636	0.845359	6.45393	0.99371	7.62263	0.513361	3.934	0.714887	5.46636	0.865412	6.64671	0.983168	7.51667
0.35215	2.67878	0.277058	2.07995	0.638249	4.83909	0.780295	5.91322	0.849873	6.44257	0.995879	7.58506	0.514938	3.9181	0.718207	5.4529	0.868201	6.62075	0.986845	7.49142
0.353662	2.67135	0.27913	2.08095	0.640714	4.82371	0.784066	5.90013	0.854419	6.43161	0.998065	7.54815	0.516507	3.90238	0.721511	5.43951	0.871005	6.59528	0.990537	7.46664
0.355179	2.66406	0.281202	2.08193	0.643154	4.80835	0.787821	5.88712	0.858995	6.42102	1.00027	7.51187	0.518068	3.88681	0.7248	5.42619	0.873825	6.57028	0.994242	7.4423
0.356701	2.65691	0.283273	2.0829	0.64557	4.79303	0.79156	5.87416	0.863598	6.41078			0.519623	3.87141	0.728072	5.41293	0.876661	6.54574	0.997961	7.4184
0.358228	2.64989	0.285345	2.08386	0.647962	4.77774	0.795283	5.86127	0.868229	6.40089			0.521171	3.85618	0.731327	5.39973	0.879511	6.52166	1.00169	7.39492
0.35976	2.64301	0.287416	2.0848	0.650331	4.76249	0.798991	5.84844	0.872886	6.39132			0.522712	3.84111	0.734564	5.38657	0.882377	6.49802		
0.361296	2.63625	0.289487	2.08572	0.652677	4.74728	0.802685	5.83567	0.877567	6.38206			0.524248	3.8262	0.737784	5.37347	0.885259	6.47482		
0.362837	2.62962	0.291558	2.08664	0.655001	4.73211	0.806363	5.82297	0.882272	6.37309			0.525778	3.81145	0.740985	5.36041	0.888155	6.45203		
0.364383	2.62311	0.293629	2.08754	0.657303	4.71699	0.810027	5.81034	0.886998	6.3644			0.527303	3.79685	0.744167	5.34739	0.891067	6.42967		
0.365934	2.61673	0.295699	2.08842	0.659583	4.70192	0.813677	5.79777	0.891746	6.35597			0.528822	3.78242	0.74733	5.3344	0.893993	6.40771		
0.367489	2.61046	0.29777	2.0893	0.661843	4.6869	0.817312	5.78527	0.896512	6.34779			0.530337	3.76814	0.750473	5.32145	0.896935	6.38614		
0.369049	2.6043	0.29984	2.09016	0.664082	4.67193	0.820933	5.77283	0.901298	6.33985			0.531847	3.75402	0.753597	5.30853	0.899891	6.36497		
0.370614	2.59826	0.30191	2.09101	0.666301	4.65702	0.82454	5.76045	0.9061	6.33213			0.533353	3.74005	0.756701	5.29564	0.902861	6.34417		
0.372182	2.59232	0.30398	2.09185	0.668501	4.64216	0.828134	5.74814	0.910918	6.32463			0.534854	3.72624	0.759784	5.28277	0.905846	6.32374		
0.373756	2.5865	0.30605	2.09268	0.670682	4.62737	0.831714	5.7359	0.915752	6.31732			0.536352	3.71258	0.762847	5.26993	0.908845	6.30368		
0.375334	2.58078	0.308119	2.09349	0.672844	4.61263	0.835279	5.72371	0.920598	6.3102			0.537846	3.69906	0.765889	5.25711	0.911857	6.28396		
0.376916	2.57516	0.310189	2.09429	0.674988	4.59796	0.838832	5.71159	0.925458	6.30325			0.539337	3.6857	0.768911	5.24431	0.914884	6.2646		
0.378502	2.56964	0.312258	2.09509	0.677114	4.58336	0.84237	5.69952	0.930329	6.29647			0.540825	3.67248	0.771911	5.23153	0.917924	6.24557		
0.380093	2.56422	0.314328	2.09587	0.679223	4.56882	0.845895	5.68752	0.93521	6.28984			0.542309	3.65941	0.77489	5.21876	0.920977	6.22686		
0.381688	2.5589	0.316397	2.09664	0.681315	4.55435	0.849406	5.67557	0.9401	6.28336			0.543791	3.64649	0.777848	5.20602	0.924042	6.20848		
0.383287	2.55367	0.318466	2.0974	0.68339	4.53995	0.852903	5.66368	0.944999	6.27701			0.54527	3.6337	0.780785	5.19329	0.927121	6.19041		
0.38489	2.54853	0.320535	2.09815	0.68545	4.52562	0.856386	5.65184	0.949904	6.27079			0.546747	3.62106	0.7837	5.18057	0.930211	6.17265		
0.386497	2.54348	0.322603	2.09889	0.687494	4.51136	0.859855	5.64006	0.954815	6.26468			0.548222	3.60856	0.786594	5.16788	0.933314	6.15518		
0.388109	2.53852	0.324672	2.09963	0.689522	4.49718	0.86331	5.62832	0.95973	6.25867			0.549694	3.5962	0.789466	5.15519	0.936427	6.138		
0.389724	2.53365	0.32674	2.10035	0.691536	4.48307	0.866751	5.61664	0.964649	6.25275			0.551164	3.58397	0.792317	5.14252	0.939553	6.12111		
0.391344	2.52886	0.328809	2.10106	0.693535	4.46903	0.870178	5.60501	0.96957	6.24692			0.552633	3.57188	0.795147	5.12987	0.942689	6.10448		
0.392967	2.52415	0.330877	2.10176	0.695519	4.45508	0.87359	5.59342	0.974491	6.24117			0.5541	3.55992	0.797955	5.11723	0.945835	6.08813		
0.394594	2.51952	0.332945	2.10246	0.69749	4.4412	0.876988	5.58187	0.979412	6.23548			0.555565	3.5481	0.800743	5.1046	0.948991	6.07203		
0.396225	2.51498	0.335013	2.10314	0.699448	4.4274	0.880371	5.57037	0.984331	6.22984			0.557029	3.53641	0.803509	5.09199	0.952157	6.05618		
0.39786	2.51051	0.337081	2.10382	0.701392	4.41368	0.883739	5.55892	0.989247	6.22425			0.558492	3.52484	0.806254	5.0794	0.955333	6.04058		
0.399499	2.50611	0.339149	2.10449	0.703324	4.40003	0.887093	5.5475	0.994158	6.21869			0.559954	3.51341	0.808979	5.06682	0.958517	6.02522		
0.401141	2.50179	0.341216	2.10515	0.705243	4.38647	0.890431	5.53612	0.999062	6.21316			0.561414	3.5021	0.811682	5.05426	0.961709	6.01009		
0.402787	2.49755	0.343284	2.1058	0.70715	4.37299	0.893754	5.52478	1.00396	6.20764			0.562874	3.49092	0.814365	5.04172	0.964909	5.99518		
0.404437	2.49337	0.345351	2.10644	0.709045	4.35959	0.897061	5.51347					0.564333	3.47986	0.817028	5.0292	0.968117	5.98049		
0.40609	2.48927	0.347419	2.10707	0.710929	4.34627	0.900354	5.50219					0.565792	3.46893	0.819671	5.01669	0.971331	5.96601		
0.407747	2.48523	0.349486	2.1077	0.712801	4.33304	0.90363	5.49095					0.56725	3.45811	0.822294	5.00421	0.974552	5.95173		
0.409408	2.48126	0.351553	2.10832	0.714662	4.31989	0.90689	5.47974					0.568707	3.44742	0.824896	4.99175	0.977779	5.93765		
0.411072	2.47736	0.35362	2.10893	0.716513	4.30682	0.910135	5.46856					0.570164	3.43684	0.82748	4.97931	0.981011	5.92377		
0.412739	2.47352	0.355687	2.10954	0.718353	4.29383	0.913363	5.4574					0.571621	3.42638	0.830044	4.96689	0.984249	5.91007		
0.41441	2.46974	0.357754	2.11014	0.720183	4.28093	0.916575	5.44628					0.573078	3.41603	0.832589	4.95449	0.98749	5.89654		
0.416084	2.46602	0.35982	2.11073	0.722003	4.26811	0.919771	5.43518					0.574535	3.4058	0.835114	4.94213	0.990736	5.8832		
0.417761	2.46237	0.361887	2.11131	0.723813	4.25538	0.92295	5.4241					0.575992	3.39568	0.837622	4.92978	0.993986	5.87002		
0.419442	2.45877	0.363953	2.11189	0.725614	4.24273	0.926112	5.41304					0.577449	3.38568	0.840111	4.91747	0.997238	5.857		
0.421126	2.45523	0.36602	2.11246	0.727406	4.23016	0.929258	5.40201					0.578906	3.37578	0.842581	4.90518	1.00049	5.84413		
0.422813	2.45175	0.368086	2.11302	0.729189	4.21768	0.932386	5.391					0.580363	3.36599	0.845034	4.89292				
0.424504	2.44833	0.370152	2.11358	0.730964	4.20528	0.935498	5.38001					0.581821	3.35631	0.84747	4.88069				
0.426198	2.44496	0.372218	2.11413	0.73273	4.19296	0.938593	5.36904					0.583279	3.34673	0.849887	4.86849				
0.427894	2.44164	0.374284	2.11467	0.734487	4.18073	0.941671	5.35809					0.584738	3.33726	0.852288	4.85632				
0.429594	2.43838	0.37635	2.11521	0.736237	4.16858	0.944731	5.34716					0.586197	3.32789	0.854672	4.84419				
0.431297	2.43517	0.378416	2.11574	0.737979	4.15652	0.947774	5.33624					0.587657	3.31863	0.857039	4.83209				
0.433003	2.432	0.380481	2.11627	0.739713	4.14454	0.9508	5.32534					0.589118	3.30947	0.859391	4.82003				
0.434712	2.42889	0.382547	2.11678	0.74144	4.13264	0.953809	5.31446					0.590579	3.3004	0.861726	4.808				
0.436424	2.42583	0.384613	2.1173	0.74316	4.12083	0.9568	5.30359					0.592041	3.29143	0.864045	4.79601				
0.438139	2.42281	0.386678	2.11781	0.744872	4.10909	0.959773	5.29274					0.593504	3.28256	0.866348	4.78405				
0.439856	2.41985	0.388743	2.11831	0.746578	4.09744	0.96273	5.28191					0.594968	3.27379	0.868637	4.77214				
0.441577	2.41692	0.390808	2.11881	0.748278	4.08588	0.965668	5.27109					0.596433	3.26511	0.87091	4.76026				
0.4433	2.41405	0.392874	2.1193	0.74997	4.07439	0.96859	5.26028					0.597899	3.25653	0.873169	4.74843				
0.445027	2.41121	0.394939	2.11978	0.751657	4.06299	0.971494	5.24949					0.599366	3.24803	0.875413	4.73663				
0.446756	2.40842	0.397004	2.12026	0.753337	4.05167	0.97438	5.23872					0.600834	3.23963	0.877643	4.72488				
0.448487	2.40567	0.399069	2.12074	0.755012	4.04043	0.97725	5.22795					0.602303	3.23132	0.87986	4.71317				
0.450222	2.40297	0.401133	2.12121	0.75668	4.02927	0.980102	5.21721					0.603773	3.2231	0.882062	4.7015				
0.451959	2.4003	0.403198	2.12167	0.758343	4.01819	0.982936	5.20647					0.605245	3.21496	0.884251	4.68988				
0.453698	2.39768	0.405263	2.12213	0.760001	4.00719	0.985754	5.19576					0.606718	3.20692	0.886427	4.6783				
0.455441	2.39509	0.407327	2.12259	0.761653	3.99627	0.988554	5.18505					0.608192	3.19895	0.888589	4.66677				
0.457186	2.39255	0.409392	2.12304	0.7633	3.98543	0.991338	5.17437					0.609667	3.19108	0.890739	4.65528				
0.458933	2.39004	0.411456	2.12349	0.764942	3.97467	0.994104	5.1637					0.611144	3.18328	0.892877	4.64384				
0.460683	2.38757	0.41352	2.12393	0.766579	3.96398	0.996854	5.15304					0.612622	3.17557	0.895002	4.63245				
0.462436	2.38513	0.415585	2.12436	0.768212	3.95338	0.999586	5.1424					0.614102	3.16794	0.897115	4.6211				
0.464191	2.38274	0.417649	2.12479	0.76984	3.94285	1.0023	5.13177					0.615583	3.16039	0.899217	4.6098				
0.465948	2.38037	0.419713	2.12522	0.771463	3.9324							0.617066	3.15292	0.901306	4.59855				
0.467708	2.37805	0.421777	2.12564	0.773082	3.92202							0.61855	3.14553	0.903385	4.58735				
0.469471	2.37575	0.423841	2.12606	0.774696	3.91173							0.620036	3.13822	0.905452	4.57619				
0.471235	2.37349	0.425905	2.12648	0.776307	3.9015							0.621523	3.13098	0.907508	4.56509				
0.473002	2.37126	0.427968	2.12689	0.777914	3.89136							0.623012	3.12382	0.909554	4.55404				
0.474772	2.36907	0.430032	2.12729	0.779516	3.88129							0.624502	3.11673	0.911588	4.54303				
0.476543	2.3669	0.432096	2.1277	0.781115	3.87129							0.625994	3.10972	0.913613	4.53208				
0.478317	2.36477	0.434159	2.12809	0.782711	3.86136							0.627488	3.10278	0.915627	4.52117				
0.480093	2.36267	0.436222	2.12849	0.784302	3.85151							0.628984	3.09591	0.917632	4.51032				
0.481872	2.3606	0.438286	2.12888	0.785891	3.84174							0.630481	3.08912	0.919626	4.49952				
0.483652	2.35856	0.440349	2.12926	0.787476	3.83203							0.63198	3.08239	0.921611	4.48877				
0.485435	2.35654	0.442412	2.12965	0.789058	3.8224							0.633481	3.07573	0.923587	4.47807				
0.48722	2.35456	0.444476	2.13002	0.790636	3.81284							0.634983	3.06914	0.925553	4.46742				
0.489007	2.3526	0.446539	2.1304	0.792212	3.80335							0.636487	3.06262	0.927511	4.45683				
0.490796	2.35067	0.448602	2.13077	0.793785	3.79393							0.637993	3.05617	0.929459	4.44629				
0.492587	2.34877	0.450665	2.13114	0.795355	3.78458							0.639501	3.04978	0.931399	4.43579				
0.494381	2.3469	0.452727	2.1315	0.796922	3.7753							0.641011	3.04346	0.93333	4.42536				
0.496176	2.34505	0.45479	2.13186	0.798486	3.76609							0.642522	3.0372	0.935253	4.41497				
0.497973	2.34322	0.456853	2.13222	0.800048	3.75695							0.644036	3.031	0.937167	4.40463				
0.499773	2.34143	0.458916	2.13257	0.801608	3.74787							0.645551	3.02487	0.939073	4.39435				
0.501574	2.33965	0.460978	2.13292	0.803165	3.73887							0.647068	3.0188	0.940972	4.38412				
0.503377	2.3379	0.463041	2.13327	0.80472	3.72993							0.648587	3.01279	0.942862	4.37394				
0.505183	2.33618	0.465103	2.13361	0.806272	3.72105							0.650108	3.00684	0.944745	4.36382				
0.50699	2.33448	0.467166	2.13395	0.807823	3.71225							0.65163	3.00095	0.946621	4.35374				
0.508799	2.3328	0.469228	2.13429	0.809371	3.7035							0.653155	2.99512	0.948489	4.34372				
0.51061	2.33114	0.47129	2.13462	0.810917	3.69483							0.654681	2.98935	0.95035	4.33375				
0.512423	2.32951	0.473352	2.13495	0.812462	3.68622							0.65621	2.98364	0.952204	4.32384				
0.514237	2.3279	0.475414	2.13528	0.814004	3.67767							0.65774	2.97798	0.954051	4.31397				
0.516054	2.32631	0.477476	2.13561	0.815545	3.66918							0.659273	2.97238	0.955891	4.30416				
0.517872	2.32474	0.479538	2.13593	0.817084	3.66076							0.660807	2.96683	0.957724	4.2944				
0.519692	2.3232	0.4816	2.13625	0.818621	3.6524							0.662343	2.96134	0.959551	4.28469				
0.521514	2.32167	0.483662	2.13656	0.820157	3.64411							0.663881	2.95591	0.961371	4.27503				
0.523337	2.32017	0.485724	2.13688	0.821691	3.63587							0.665421	2.95052	0.963185	4.26542				
0.525162	2.31868	0.487786	2.13719	0.823224	3.6277							0.666964	2.9452	0.964993	4.25587				
0.526989	2.31722	0.489847	2.13749	0.824755	3.61959							0.668508	2.93992	0.966794	4.24637				
0.528818	2.31577	0.491909	2.1378	0.826285	3.61154							0.670054	2.93469	0.96859	4.23692				
0.530648	2.31434	0.49397	2.1381	0.827814	3.60354							0.671602	2.92952	0.97038	4.22752				
0.53248	2.31293	0.496032	2.1384	0.829342	3.59561							0.673152	2.92439	0.972164	4.21817				
0.534314	2.31154	0.498093	2.1387	0.830868	3.58774							0.674704	2.91932	0.973942	4.20887				
0.536149	2.31017	0.500155	2.13899	0.832393	3.57992							0.676258	2.9143	0.975715	4.19962				
0.537986	2.30882	0.502216	2.13928	0.833918	3.57216							0.677813	2.90932	0.977483	4.19042				
0.539824	2.30748	0.504277	2.13957	0.835441	3.56446							0.679371	2.90439	0.979245	4.18128				
0.541664	2.30616	0.506338	2.13986	0.836963	3.55682							0.680931	2.89951	0.981001	4.17218				
0.543506	2.30486	0.508399	2.14014	0.838484	3.54923							0.682493	2.89468	0.982753	4.16313				
0.545349	2.30357	0.51046	2.14042	0.840005	3.5417							0.684057	2.88989	0.9845	4.15414				
0.547193	2.3023	0.512521	2.1407	0.841525	3.53422							0.685623	2.88515	0.986241	4.14519				
0.549039	2.30105	0.514582	2.14098	0.843044	3.5268							0.687191	2.88045	0.987978	4.13629				
0.550887	2.29981	0.516643	2.14125	0.844562	3.51944							0.68876	2.8758	0.98971	4.12745				
0.552736	2.29859	0.518704	2.14152	0.84608	3.51212							0.690332	2.8712	0.991438	4.11865				
0.554587	2.29739	0.520764	2.14179	0.847597	3.50487							0.691906	2.86663	0.993161	4.1099				
0.556439	2.2962	0.522825	2.14206	0.849113	3.49766							0.693482	2.86211	0.994879	4.10119				
0.558292	2.29502	0.524886	2.14232	0.850629	3.49051							0.695059	2.85764	0.996593	4.09254				
0.560147	2.29386	0.526946	2.14259	0.852145	3.48341							0.696639	2.8532	0.998302	4.08394				
0.562003	2.29271	0.529007	2.14285	0.85366	3.47636							0.698221	2.84881	1.00001	4.07538				
0.563861	2.29158	0.531067	2.1431	0.855174	3.46937							0.699804	2.84446						
0.56572	2.29046	0.533127	2.14336	0.856688	3.46242							0.70139	2.84015						
0.56758	2.28936	0.535188	2.14361	0.858202	3.45553							0.702978	2.83588						
0.569442	2.28827	0.537248	2.14386	0.859716	3.44869							0.704567	2.83165						
0.571305	2.28719	0.539308	2.14411	0.861229	3.44189							0.706159	2.82746						
0.573169	2.28613	0.541368	2.14436	0.862742	3.43515							0.707752	2.8233						
0.575035	2.28508	0.543428	2.14461	0.864255	3.42846							0.709348	2.81919						
0.576902	2.28404	0.545488	2.14485	0.865768	3.42181							0.710945	2.81512						
0.57877	2.28302	0.547548	2.14509	0.867281	3.41521							0.712544	2.81108						
0.58064	2.28201	0.549608	2.14533	0.868794	3.40866							0.714146	2.80708						
0.582511	2.28101	0.551668	2.14557	0.870306	3.40216							0.715749	2.80311						
0.584383	2.28002	0.553728	2.1458	0.871819	3.39571							0.717354	2.79919						
0.586256	2.27904	0.555787	2.14604	0.873331	3.3893							0.718961	2.79529						
0.588131	2.27808	0.557847	2.14627	0.874844	3.38294							0.72057	2.79144						
0.590007	2.27713	0.559907	2.1465	0.876357	3.37662							0.722181	2.78762						
0.591884	2.27619	0.561966	2.14673	0.877869	3.37035							0.723794	2.78383						
0.593762	2.27526	0.564026	2.14695	0.879382	3.36413							0.725409	2.78008						
0.595641	2.27434	0.566085	2.14718	0.880895	3.35795							0.727025	2.77636						
0.597521	2.27343	0.568145	2.1474	0.882409	3.35181							0.728644	2.77268						
0.599403	2.27254	0.570204	2.14762	0.883922	3.34572							0.730265	2.76903						
0.601286	2.27165	0.572263	2.14784	0.885436	3.33967							0.731887	2.76541						
0.60317	2.27077	0.574322	2.14806	0.88695	3.33367							0.733511	2.76182						
0.605055	2.26991	0.576381	2.14827	0.888464	3.32771							0.735137	2.75827						
0.606941	2.26905	0.57844	2.14848	0.889979	3.32179							0.736765	2.75475						
0.608828	2.26821	0.5805	2.1487	0.891494	3.31591							0.738395	2.75126						
0.610717	2.26737	0.582558	2.14891	0.893009	3.31007							0.740027	2.7478						
0.612606	2.26655	0.584617	2.14912	0.894525	3.30428							0.741661	2.74437						
0.614497	2.26573	0.586676	2.14932	0.896041	3.29853							0.743296	2.74097						
0.616388	2.26493	0.588735	2.14953	0.897557	3.29282							0.744934	2.73761						
0.618281	2.26413	0.590794	2.14973	0.899074	3.28715							0.746573	2.73427						
0.620175	2.26334	0.592853	2.14994	0.900592	3.28152							0.748214	2.73096						
0.622069	2.26256	0.594911	2.15014	0.90211	3.27593							0.749857	2.72768						
0.623965	2.26179	0.59697	2.15034	0.903628	3.27038							0.751501	2.72443						
0.625862	2.26103	0.599028	2.15053	0.905147	3.26486							0.753148	2.72121						
0.627759	2.26028	0.601087	2.15073	0.906666	3.25939							0.754796	2.71801						
0.629658	2.25954	0.603145	2.15092	0.908186	3.25396							0.756446	2.71485						
0.631558	2.2588	0.605204	2.15112	0.909707	3.24856							0.758098	2.71171						
0.633459	2.25808	0.607262	2.15131	0.911228	3.2432							0.759752	2.7086						
0.63536	2.25736	0.60932	2.1515	0.91275	3.23788							0.761408	2.70551						
0.637263	2.25665	0.611378	2.15169	0.914272	3.2326							0.763065	2.70246						
0.639167	2.25595	0.613437	2.15188	0.915796	3.22735							0.764724	2.69942						
0.641071	2.25525	0.615495	2.15206	0.917319	3.22214							0.766385	2.69642						
0.642977	2.25457	0.617553	2.15225	0.918844	3.21697							0.768047	2.69344						
0.644883	2.25389	0.619611	2.15243	0.920369	3.21183							0.769712	2.69048						
0.64679	2.25322	0.621669	2.15261	0.921895	3.20673							0.771378	2.68756						
0.648698	2.25255	0.623727	2.15279	0.923421	3.20167							0.773046	2.68465						
0.650607	2.2519	0.625784	2.15297	0.924949	3.19663							0.774715	2.68177						
0.652517	2.25125	0.627842	2.15315	0.926477	3.19164							0.776387	2.67892						
0.654428	2.25061	0.6299	2.15333	0.928006	3.18668							0.77806	2.67609						
0.65634	2.24997	0.631958	2.1535	0.929535	3.18175							0.779735	2.67328						
0.658253	2.24934	0.634015	2.15368	0.931066	3.17686							0.781411	2.6705						
0.660166	2.24872	0.636073	2.15385	0.932597	3.172							0.783089	2.66774						
0.66208	2.24811	0.63813	2.15402	0.934129	3.16717							0.784769	2.665						
0.663996	2.2475	0.640188	2.15419	0.935662	3.16238							0.786451	2.66229						
0.665912	2.2469	0.642245	2.15436	0.937195	3.15762							0.788134	2.6596						
0.667828	2.24631	0.644303	2.15453	0.93873	3.15289							0.789819	2.65693						
0.669746	2.24572	0.64636	2.15469	0.940265	3.1482							0.791505	2.65429						
0.671665	2.24514	0.648417	2.15486	0.941801	3.14354							0.793194	2.65167						
0.673584	2.24456	0.650474	2.15502	0.943339	3.13891							0.794884	2.64906						
0.675504	2.24399	0.652532	2.15519	0.944877	3.13431							0.796575	2.64648						
0.677425	2.24343	0.654589	2.15535	0.946415	3.12974							0.798268	2.64393						
0.679346	2.24288	0.656646	2.15551	0.947955	3.1252							0.799963	2.64139						
0.681269	2.24233	0.658703	2.15567	0.949496	3.1207							0.80166	2.63887						
0.683192	2.24178	0.66076	2.15583	0.951038	3.11622							0.803358	2.63638						
0.685116	2.24124	0.662817	2.15598	0.95258	3.11177							0.805057	2.6339						
0.687041	2.24071	0.664874	2.15614	0.954124	3.10736							0.806759	2.63144						
0.688966	2.24018	0.66693	2.15629	0.955668	3.10297							0.808462	2.62901						
0.690893	2.23966	0.668987	2.15645	0.957214	3.09862							0.810166	2.62659						
0.69282	2.23914	0.671044	2.1566	0.95876	3.09429							0.811872	2.6242						
0.694747	2.23863	0.6731	2.15675	0.960308	3.09							0.81358	2.62182						
0.696676	2.23813	0.675157	2.1569	0.961856	3.08573							0.815289	2.61947						
0.698605	2.23763	0.677214	2.15705	0.963406	3.08149							0.817	2.61713						
0.700535	2.23713	0.67927	2.1572	0.964956	3.07728							0.818712	2.61481						
0.702465	2.23664	0.681327	2.15735	0.966508	3.07309							0.820426	2.61251						
0.706329	2.23568	0.683383	2.1575	0.96806	3.06894							0.822141	2.61023						
0.708261	2.23521	0.685439	2.15764	0.969613	3.06481							0.823858	2.60797						
0.710195	2.23474	0.687496	2.15779	0.971168	3.06071							0.825577	2.60572						
0.712129	2.23427	0.689552	2.15793	0.972723	3.05664							0.827297	2.60349						
0.714063	2.23381	0.691608	2.15807	0.97428	3.05259							0.829019	2.60128						
0.715999	2.23336	0.693664	2.15821	0.975838	3.04857							0.830742	2.59909						
0.717935	2.23291	0.69572	2.15835	0.977396	3.04458							0.832466	2.59692						
0.719872	2.23246	0.697776	2.15849	0.978956	3.04061							0.834192	2.59476						
0.721809	2.23202	0.699832	2.15863	0.980517	3.03667							0.83592	2.59262						
0.723747	2.23158	0.701888	2.15877	0.982079	3.03276							0.837649	2.5905						
0.725685	2.23115	0.703944	2.15891	0.983641	3.02887							0.839379	2.58839						
0.727625	2.23072	0.706	2.15904	0.985205	3.02501							0.841111	2.5863						
0.729565	2.2303	0.708056	2.15918	0.98677	3.02117							0.842845	2.58423						
0.731505	2.22988	0.710112	2.15931	0.988337	3.01736							0.84458	2.58217						
0.733446	2.22947	0.712167	2.15944	0.989904	3.01357							0.846316	2.58013						
0.735388	2.22906	0.714223	2.15958	0.991472	3.00981							0.848054	2.5781						
0.73733	2.22865	0.716279	2.15971	0.993041	3.00607							0.849793	2.5761						
0.739273	2.22825	0.718334	2.15984	0.994612	3.00236							0.851534	2.5741						
0.741217	2.22785	0.72039	2.15997	0.996184	2.99867							0.853276	2.57212						
0.743161	2.22746	0.722445	2.1601	0.997756	2.995							0.855019	2.57016						
0.745106	2.22707	0.7245	2.16022	0.99933	2.99136							0.856764	2.56821						
0.747051	2.22668	0.726556	2.16035	1.00091	2.98774							0.85851	2.56628						
0.748997	2.2263	0.728611	2.16048									0.860258	2.56436						
0.750944	2.22592	0.730666	2.1606									0.862007	2.56246						
0.752891	2.22554	0.732722	2.16073									0.863758	2.56057						
0.754838	2.22517	0.734777	2.16085									0.865509	2.5587						
0.756787	2.22481	0.736832	2.16097									0.867263	2.55684						
0.758735	2.22444	0.738887	2.16109									0.869017	2.55499						
0.760685	2.22408	0.740942	2.16122									0.870773	2.55316						
0.762635	2.22372	0.742997	2.16134									0.87253	2.55135						
0.764585	2.22337	0.745052	2.16146									0.874289	2.54954						
0.766536	2.22302	0.747107	2.16157									0.876049	2.54775						
0.768487	2.22268	0.749161	2.16169									0.87781	2.54598						
0.770439	2.22233	0.751216	2.16181									0.879573	2.54421						
0.772392	2.22199	0.753271	2.16193									0.881337	2.54246						
0.774345	2.22166	0.755326	2.16204									0.883102	2.54073						
0.776298	2.22132	0.75738	2.16216									0.884869	2.539						
0.778253	2.22099	0.759435	2.16227									0.886636	2.53729						
0.780207	2.22067	0.761489	2.16238									0.888406	2.5356						
0.782162	2.22034	0.763544	2.1625									0.890176	2.53391						
0.784118	2.22002	0.765598	2.16261									0.891948	2.53224						
0.786074	2.21971	0.767653	2.16272									0.893721	2.53058						
0.788031	2.21939	0.769707	2.16283									0.895495	2.52893						
0.789988	2.21908	0.771761	2.16294									0.897271	2.52729						
0.791945	2.21877	0.773815	2.16305									0.899047	2.52567						
0.793903	2.21847	0.77587	2.16316									0.900825	2.52406						
0.795862	2.21817	0.777924	2.16327									0.902605	2.52246						
0.797821	2.21787	0.779978	2.16337									0.904385	2.52087						
0.79978	2.21757	0.782032	2.16348									0.906167	2.5193						
0.80174	2.21728	0.784086	2.16358									0.90795	2.51773						
0.803701	2.21699	0.78614	2.16369									0.909734	2.51618						
0.805661	2.2167	0.788194	2.16379									0.91152	2.51464						
0.807623	2.21641	0.790248	2.1639									0.913306	2.51311						
0.809585	2.21613	0.792301	2.164									0.915094	2.51159						
0.811547	2.21585	0.794355	2.1641									0.916883	2.51008						
0.813509	2.21557	0.796409	2.1642									0.918673	2.50858						
0.815473	2.2153	0.798462	2.16431									0.920465	2.50709						
0.817436	2.21503	0.800516	2.16441									0.922257	2.50562						
0.8194	2.21476	0.80257	2.16451									0.924051	2.50415						
0.821365	2.21449	0.804623	2.1646									0.925846	2.5027						
0.823329	2.21423	0.806677	2.1647									0.927642	2.50125						
0.825295	2.21396	0.80873	2.1648									0.92944	2.49982						
0.82726	2.2137	0.810783	2.1649									0.931238	2.4984						
0.829227	2.21345	0.812837	2.165									0.933038	2.49698						
0.831193	2.21319	0.81489	2.16509									0.934838	2.49558						
0.83316	2.21294	0.816943	2.16519									0.93664	2.49419						
0.835127	2.21269	0.818996	2.16528									0.938443	2.4928						
0.837095	2.21244	0.82105	2.16538									0.940247	2.49143						
0.839063	2.2122	0.823103	2.16547									0.942052	2.49006						
0.841032	2.21195	0.825156	2.16556									0.943859	2.48871						
0.843001	2.21171	0.827209	2.16566									0.945666	2.48737						
0.84497	2.21147	0.829262	2.16575									0.947475	2.48603						
0.84694	2.21124	0.831314	2.16584									0.949284	2.4847						
0.84891	2.211	0.833367	2.16593									0.951095	2.48339						
0.850881	2.21077	0.83542	2.16602									0.952907	2.48208						
0.852852	2.21054	0.837473	2.16611									0.95472	2.48078						
0.854823	2.21031	0.839526	2.1662									0.956534	2.47949						
0.856795	2.21008	0.841578	2.16629									0.958349	2.47821						
0.858767	2.20986	0.843631	2.16638									0.960165	2.47694						
0.860739	2.20964	0.845684	2.16646									0.961982	2.47568						
0.862712	2.20942	0.847736	2.16655									0.963801	2.47443						
0.864685	2.2092	0.849789	2.16664									0.96562	2.47318						
0.866659	2.20898	0.851841	2.16672									0.96744	2.47194						
0.868633	2.20877	0.853893	2.16681									0.969262	2.47072						
0.870607	2.20856	0.855946	2.16689									0.971084	2.4695						
0.872582	2.20835	0.857998	2.16698									0.972907	2.46829						
0.874557	2.20814	0.86005	2.16706									0.974732	2.46708						
0.876532	2.20793	0.862102	2.16714									0.976557	2.46589						
0.878508	2.20773	0.864155	2.16723									0.978384	2.4647						
0.880484	2.20753	0.866207	2.16731									0.980212	2.46352						
0.88246	2.20733	0.868259	2.16739									0.98204	2.46235						
0.884437	2.20713	0.870311	2.16747									0.98387	2.46119						
0.886414	2.20693	0.872363	2.16755									0.9857	2.46004						
0.888391	2.20673	0.874415	2.16763									0.987532	2.45889						
0.890369	2.20654	0.876466	2.16771									0.989364	2.45775						
0.892347	2.20635	0.878518	2.16779									0.991198	2.45662						
0.894325	2.20616	0.88057	2.16787									0.993032	2.4555						
0.896304	2.20597	0.882622	2.16795									0.994868	2.45438						
0.898283	2.20578	0.884674	2.16803									0.996704	2.45327						
0.900262	2.20559	0.886725	2.16811									0.998542	2.45217						
0.902242	2.20541	0.888777	2.16818									1.00038	2.45108						
0.904222	2.20523	0.890828	2.16826																
0.906202	2.20505	0.89288	2.16834																
0.908183	2.20487	0.894931	2.16841																
0.910164	2.20469	0.896983	2.16849																
0.912145	2.20451	0.899034	2.16856																
0.914127	2.20434	0.901085	2.16864																
0.916109	2.20417	0.903137	2.16871																
0.918091	2.20399	0.905188	2.16878																
0.920073	2.20383	0.907239	2.16886																
0.922056	2.20366	0.90929	2.16893																
0.924039	2.20349	0.911341	2.169																
0.926023	2.20332	0.913392	2.16907																
0.928006	2.20316	0.915443	2.16914																
0.92999	2.203	0.917494	2.16922																
0.931974	2.20284	0.919545	2.16929																
0.933959	2.20268	0.921596	2.16936																
0.935944	2.20252	0.923647	2.16943																
0.937929	2.20236	0.925698	2.16949																
0.939914	2.2022	0.927749	2.16956																
0.9419	2.20205	0.929799	2.16963																
0.943886	2.2019	0.93185	2.1697																
0.945872	2.20174	0.9339	2.16977																
0.947858	2.20159	0.935951	2.16983																
0.949845	2.20144	0.938002	2.1699																
0.951832	2.20129	0.940052	2.16997																
0.953819	2.20115	0.942102	2.17003																
0.955807	2.201	0.944153	2.1701																
0.957795	2.20086	0.946203	2.17016																
0.959783	2.20071	0.948253	2.17023																
0.961771	2.20057	0.950304	2.17029																
0.96376	2.20043	0.952354	2.17036																
0.965748	2.20029	0.954404	2.17042																
0.967737	2.20015	0.956454	2.17049																
0.969727	2.20002	0.958504	2.17055																
0.971716	2.19988	0.960554	2.17061																
0.973706	2.19975	0.962604	2.17067																
0.975696	2.19961	0.964654	2.17074																
0.977687	2.19948	0.966704	2.1708																
0.979677	2.19935	0.968754	2.17086																
0.981668	2.19922	0.970804	2.17092																
0.983659	2.19909	0.972853	2.17098																
0.98565	2.19896	0.974903	2.17104																
0.987642	2.19883	0.976953	2.1711																
0.989634	2.1987	0.979002	2.17116																
0.991626	2.19858	0.981052	2.17122																
0.993618	2.19845	0.983102	2.17128																
0.995611	2.19833	0.985151	2.17134																
0.997603	2.19821	0.9872	2.17139																
0.999596	2.19809	0.98925	2.17145																
1.00159	2.19797	0.991299	2.17151																
		0.993349	2.17157																
		0.995398	2.17162																
		0.997447	2.17168																
		0.999496	2.17174																
		1.00155	2.17179																
