Minima		Zeros		Sym0		Asym0		Sym1		Sym2		Sym3		Asym1		Asym2	
8  Points		7  Points		480  Points		493  Points		480  Points		275  Points		140  Points		411  Points		159  Points	
Freq (MHz)	Vph (m/ms)	Freq (MHz)	Vph (m/ms)	Freq (MHz)	Vph (m/ms)	Freq (MHz)	Vph (m/ms)	Freq (MHz)	Vph (m/ms)	Freq (MHz)	Vph (m/ms)	Freq (MHz)	Vph (m/ms)	Freq (MHz)	Vph (m/ms)	Freq (MHz)	Vph (m/ms)
0.333561	3.72792	0.334907	3.72792	0.000889125	7.71771	0.000397294	0.210332	0.00349791	7.71768	0.27953	442.704	0.335738	1617.37	0.139777	440.871	0.419268	1427.96
0.0343535	1.56306	0.0339716	1.56306	0.00807932	7.71737	0.00087995	0.311974	0.0106877	7.71713	0.279642	178.901	0.335811	294.758	0.1401	112.193	0.419348	342.239
0.230777	7.14079	0.231436	7.14079	0.0152679	7.71654	0.00154277	0.411154	0.0178753	7.71609	0.279849	112.172	0.335987	162.236	0.140804	64.5762	0.419527	194.495
0.618704	7.79917	0.617486	7.79917	0.0224534	7.71519	0.00237606	0.507275	0.0250594	7.71457	0.280148	81.7592	0.336266	111.989	0.141883	45.5903	0.419805	135.917
0.910478	8.29435	0.908193	8.29435	0.0296345	7.71333	0.00336825	0.599795	0.0322384	7.71252	0.280539	64.3703	0.336649	85.5664	0.143325	35.443	0.420181	104.512
0.442977	7.50093	0.444755	7.50093	0.0368096	7.71094	0.00450668	0.688319	0.0394109	7.70993	0.281018	53.1236	0.337138	69.2836	0.145117	29.1663	0.420655	84.9449
0.781169	8.07489	0.779532	8.07489	0.043977	7.708	0.00577789	0.772542	0.0465753	7.7068	0.281584	45.2592	0.337734	58.2526	0.147244	24.9261	0.421226	71.591
0.950266	8.36188			0.0511354	7.70451	0.00716852	0.852303	0.0537298	7.70309	0.282232	39.4549	0.33844	50.2925	0.149687	21.8875	0.421893	61.9023
				0.0582827	7.70043	0.00866544	0.927534	0.0608728	7.6988	0.28296	34.9982	0.339259	44.2831	0.152428	19.6159	0.422657	54.5563
				0.0654174	7.69574	0.0102561	0.998244	0.0680024	7.69389	0.283763	31.4709	0.340193	39.5903	0.155448	17.8629	0.423516	48.7985
				0.0725374	7.69043	0.0119287	1.06451	0.0751165	7.68834	0.284638	28.6115	0.341244	35.8279	0.158729	16.4759	0.424469	44.1669
				0.0796406	7.68446	0.0136726	1.12647	0.0822131	7.68212	0.28558	26.248	0.342417	32.7477	0.162251	15.3564	0.425515	40.3628
				0.0867247	7.67778	0.0154779	1.1843	0.0892898	7.67518	0.286585	24.2627	0.343714	30.1823	0.165997	14.4378	0.426653	37.1845
				0.0937875	7.67037	0.0173359	1.2382	0.096344	7.66749	0.287651	22.5724	0.345138	28.0153	0.16995	13.6736	0.427882	34.4909
				0.100826	7.66217	0.019239	1.28839	0.103373	7.65899	0.288772	21.1166	0.346691	26.1628	0.174094	13.0302	0.429201	32.1804
				0.107837	7.65312	0.0211803	1.33509	0.110374	7.64963	0.289948	19.8501	0.348377	24.563	0.178413	12.483	0.430608	30.1778
				0.114818	7.64318	0.0231538	1.37853	0.117343	7.63933	0.291174	18.7388	0.350198	23.1694	0.182894	12.0134	0.432102	28.4264
				0.121765	7.63226	0.0251544	1.41893	0.124277	7.62805	0.29245	17.7563	0.352156	21.9461	0.187522	11.6071	0.433682	26.8826
				0.128674	7.6203	0.0271777	1.45652	0.131171	7.61568	0.293774	16.8817	0.354251	20.8652	0.192286	11.253	0.435345	25.5123
				0.135541	7.6072	0.0289563	1.48713	0.13802	7.60215	0.295148	16.0987	0.356485	19.9045	0.197175	10.9425	0.437091	24.2885
				0.142359	7.59287	0.0304823	1.51176	0.144821	7.58734	0.296572	15.3941	0.358859	19.0462	0.202178	10.6685	0.438917	23.1894
				0.149125	7.57719	0.0317499	1.53117	0.151566	7.57115	0.29805	14.7571	0.361371	18.2758	0.207286	10.4255	0.440823	22.1974
				0.155832	7.56006	0.0327555	1.54592	0.158249	7.55345	0.299584	14.179	0.364022	17.5815	0.212489	10.2088	0.442805	21.298
				0.162471	7.54131	0.0334966	1.55646	0.164863	7.53409	0.30118	13.6525	0.36681	16.9532	0.217779	10.0146	0.444863	20.4793
				0.169037	7.52082	0.0339716	1.56306	0.171399	7.51291	0.302845	13.1717	0.369732	16.3829	0.223148	9.83998	0.446995	19.7311
				0.175519	7.49839	0.0346553	1.57237	0.177849	7.48975	0.304587	12.7316	0.372788	15.8634	0.22859	9.68215	0.449198	19.0451
				0.181908	7.47387	0.0353996	1.58225	0.184201	7.46441	0.306415	12.3279	0.375975	15.3888	0.234097	9.53898	0.451472	18.4141
				0.188194	7.44703	0.0364135	1.59531	0.190446	7.43668	0.30834	11.9571	0.379289	14.9542	0.239664	9.40862	0.453813	17.832
				0.194363	7.41766	0.0376984	1.6112	0.196569	7.40634	0.310374	11.6163	0.382727	14.5551	0.245284	9.28948	0.456221	17.2935
				0.200402	7.38555	0.0392556	1.62955	0.202559	7.37317	0.312532	11.3029	0.386286	14.1877	0.250952	9.18022	0.458693	16.7941
				0.206298	7.35044	0.0410862	1.64993	0.208398	7.33692	0.314828	11.0148	0.389962	13.8489	0.256664	9.07969	0.461227	16.3298
				0.212035	7.31211	0.0431911	1.67191	0.214074	7.29736	0.317278	10.7501	0.393752	13.5356	0.262413	8.98687	0.463822	15.8973
				0.217597	7.27033	0.0452995	1.69248	0.218873	7.26002	0.319898	10.5072	0.397652	13.2454	0.268196	8.90091	0.466476	15.4935
				0.222968	7.22489	0.0474106	1.71177	0.222847	7.22597	0.322705	10.2846	0.401658	12.9762	0.274008	8.82104	0.469186	15.1158
				0.228133	7.17562	0.0495235	1.72987	0.226049	7.19622	0.325714	10.0812	0.405766	12.7259	0.279844	8.7466	0.471952	14.7618
				0.233077	7.12241	0.0516378	1.74687	0.228523	7.17166	0.328939	9.89565	0.409974	12.4928	0.285702	8.677	0.474772	14.4295
				0.237788	7.0652	0.0537529	1.76286	0.230308	7.153	0.332392	9.7269	0.414276	12.2753	0.291577	8.61173	0.477643	14.117
				0.242255	7.00403	0.0558685	1.77791	0.231436	7.14079	0.336082	9.57385	0.418669	12.0723	0.297464	8.55035	0.480564	13.8227
				0.246471	6.93902	0.0579841	1.7921	0.233036	7.12288	0.340013	9.43542	0.423151	11.8823	0.303362	8.49242	0.483534	13.5451
				0.250435	6.8704	0.0600996	1.8055	0.234746	7.10292	0.344187	9.31052	0.427717	11.7043	0.309265	8.4376	0.486552	13.283
				0.254147	6.79848	0.0622147	1.81815	0.237024	7.07496	0.348599	9.19806	0.432364	11.5373	0.31517	8.38557	0.489615	13.035
				0.257614	6.72363	0.0643292	1.83011	0.239822	7.03825	0.353243	9.09696	0.43709	11.3805	0.321074	8.33601	0.492723	12.8003
				0.260844	6.64632	0.0664431	1.84144	0.243081	6.99188	0.358107	9.00614	0.441891	11.233	0.326974	8.28869	0.495874	12.5777
				0.263849	6.567	0.0685561	1.85218	0.246728	6.93482	0.363179	8.92456	0.446765	11.0941	0.332865	8.24334	0.499067	12.3665
				0.266645	6.48617	0.0706683	1.86236	0.250676	6.86598	0.368442	8.85125	0.451708	10.9632	0.338745	8.19976	0.502303	12.1658
				0.269247	6.40431	0.0727796	1.87204	0.254372	6.79386	0.373881	8.78526	0.456718	10.8397	0.34461	8.15774	0.505578	11.9749
				0.271671	6.32187	0.0748899	1.88124	0.257824	6.71885	0.379478	8.72576	0.461793	10.723	0.350456	8.1171	0.508895	11.7932
				0.273934	6.23926	0.0769993	1.88999	0.261039	6.64139	0.385217	8.67194	0.46693	10.6127	0.35628	8.07768	0.51225	11.6201
				0.276052	6.15685	0.0791077	1.89833	0.264031	6.56196	0.391083	8.62312	0.472127	10.5083	0.362078	8.03932	0.515646	11.455
				0.27804	6.07496	0.0812151	1.90628	0.266814	6.48105	0.397059	8.57867	0.477382	10.4094	0.367846	8.00186	0.519081	11.2975
				0.279913	5.99387	0.0833215	1.91387	0.269404	6.39914	0.403133	8.53804	0.482693	10.3156	0.373582	7.96519	0.522555	11.147
				0.281683	5.91379	0.085427	1.92112	0.271818	6.31668	0.409292	8.50073	0.488058	10.2267	0.37928	7.92916	0.526069	11.0033
				0.283363	5.83491	0.0875315	1.92805	0.274071	6.23407	0.415523	8.46631	0.493475	10.1422	0.384937	7.89368	0.529624	10.8659
				0.284962	5.75738	0.0896351	1.93468	0.276181	6.15169	0.421816	8.43442	0.498943	10.0619	0.390549	7.85861	0.533219	10.7345
				0.28649	5.68131	0.0917377	1.94103	0.278161	6.06984	0.428162	8.40473	0.50446	9.98552	0.396112	7.82388	0.536857	10.6087
				0.287955	5.60678	0.0938395	1.94711	0.280027	5.98881	0.434551	8.37694	0.510024	9.91285	0.401622	7.78936	0.540538	10.4884
				0.289366	5.53386	0.0959404	1.95295	0.281791	5.9088	0.440976	8.35081	0.515635	9.84365	0.407074	7.75498	0.544263	10.3731
				0.290729	5.46259	0.0980405	1.95856	0.283465	5.83	0.447429	8.32611	0.521291	9.77771	0.412466	7.72066	0.548035	10.2628
				0.292049	5.39298	0.10014	1.96394	0.28506	5.75256	0.453904	8.30265	0.52699	9.71484	0.417791	7.6863	0.551853	10.1571
				0.293332	5.32506	0.102238	1.96912	0.286584	5.67658	0.460394	8.28026	0.532733	9.65488	0.423047	7.65183	0.555721	10.0558
				0.294583	5.25882	0.104336	1.9741	0.288046	5.60215	0.466895	8.25879	0.538517	9.59764	0.428229	7.6172	0.559641	9.95885
				0.295805	5.19424	0.106433	1.97889	0.289453	5.52933	0.473401	8.2381	0.544342	9.543	0.432682	7.58682	0.563613	9.86597
				0.297002	5.13132	0.10853	1.98351	0.290813	5.45817	0.479907	8.21807	0.550207	9.4908	0.436428	7.56076	0.567641	9.77701
				0.298178	5.07003	0.110625	1.98796	0.292131	5.38867	0.486408	8.1986	0.556111	9.44091	0.439491	7.53908	0.571725	9.69183
				0.299336	5.01033	0.112721	1.99225	0.293412	5.32085	0.492901	8.17959	0.562054	9.39323	0.44189	7.52184	0.575869	9.61029
				0.300477	4.9522	0.114815	1.9964	0.29466	5.25471	0.499381	8.16095	0.568034	9.34763	0.443641	7.5091	0.580073	9.53225
				0.301604	4.89561	0.116909	2.0004	0.295881	5.19024	0.505845	8.1426	0.574052	9.304	0.444755	7.50093	0.58434	9.45757
				0.30272	4.84052	0.119002	2.00427	0.297077	5.12742	0.512289	8.12448	0.580106	9.26226	0.446349	7.48914	0.588671	9.38613
				0.303826	4.78688	0.121095	2.00801	0.298252	5.06623	0.518709	8.10651	0.586197	9.22231	0.44807	7.47628	0.593068	9.31781
				0.304923	4.73467	0.123187	2.01162	0.299408	5.00663	0.525102	8.08865	0.592322	9.18407	0.450391	7.45869	0.597531	9.25248
				0.306014	4.68385	0.125279	2.01512	0.300548	4.94861	0.531465	8.07083	0.598483	9.14745	0.453296	7.43631	0.602061	9.19004
				0.307099	4.63437	0.127371	2.01851	0.301675	4.89211	0.537794	8.05301	0.604678	9.11237	0.456759	7.409	0.606658	9.13037
				0.30818	4.5862	0.129461	2.02179	0.30279	4.83711	0.544087	8.03514	0.610907	9.07878	0.460753	7.37663	0.611323	9.07335
				0.309258	4.5393	0.131552	2.02498	0.303895	4.78356	0.550341	8.01719	0.61717	9.04659	0.465242	7.33903	0.616055	9.01887
				0.310333	4.49363	0.133642	2.02806	0.304992	4.73144	0.556553	7.99911	0.623465	9.01574	0.469628	7.30092	0.620853	8.96681
				0.311407	4.44916	0.135732	2.03106	0.306082	4.6807	0.56272	7.98088	0.629793	8.98617	0.473909	7.26229	0.625717	8.91707
				0.312481	4.40585	0.137821	2.03396	0.307167	4.63131	0.56884	7.96246	0.636152	8.95782	0.478085	7.22316	0.630645	8.86953
				0.313554	4.36366	0.13991	2.03679	0.308248	4.58322	0.574909	7.94382	0.642542	8.93063	0.482155	7.18352	0.635635	8.82408
				0.314628	4.32257	0.141998	2.03953	0.309325	4.5364	0.580926	7.92493	0.648962	8.90456	0.486117	7.14339	0.640686	8.78063
				0.315704	4.28253	0.144086	2.04219	0.310401	4.4908	0.586889	7.90579	0.655412	8.87954	0.489972	7.1028	0.645794	8.73905
				0.316782	4.24351	0.146174	2.04478	0.311475	4.44641	0.592794	7.88636	0.66189	8.85552	0.493721	7.06177	0.650957	8.69924
				0.317861	4.20549	0.148262	2.0473	0.312548	4.40317	0.59864	7.86662	0.668396	8.83246	0.497364	7.02032	0.656174	8.66111
				0.318944	4.16843	0.150349	2.04975	0.313622	4.36105	0.603684	7.84917	0.674928	8.81031	0.500903	6.97849	0.66144	8.62456
				0.32003	4.1323	0.152436	2.05214	0.314696	4.32002	0.607947	7.83409	0.681485	8.78902	0.504338	6.93633	0.666752	8.58948
				0.321119	4.09708	0.154523	2.05446	0.315772	4.28005	0.611444	7.82148	0.688067	8.76854	0.507674	6.89386	0.672108	8.55579
				0.322213	4.06273	0.156609	2.05672	0.316849	4.2411	0.614193	7.81141	0.694671	8.74882	0.51091	6.85113	0.677505	8.52339
				0.32331	4.02924	0.158695	2.05893	0.317929	4.20313	0.616203	7.80396	0.701297	8.72984	0.514051	6.80819	0.682938	8.49221
				0.324412	3.99656	0.160781	2.06107	0.319012	4.16613	0.617486	7.79917	0.707943	8.71153	0.517099	6.76508	0.688405	8.46215
				0.325518	3.96469	0.162867	2.06317	0.320098	4.13007	0.619323	7.79224	0.714607	8.69387	0.520056	6.72183	0.693902	8.43314
				0.32663	3.93359	0.164952	2.06521	0.321188	4.0949	0.621312	7.78467	0.721289	8.6768	0.522926	6.6785	0.699426	8.4051
				0.327746	3.90324	0.167037	2.0672	0.322281	4.06061	0.624002	7.77431	0.727985	8.66029	0.525712	6.63513	0.704974	8.37797
				0.328868	3.87362	0.169122	2.06915	0.323379	4.02716	0.627382	7.76107	0.734695	8.6443	0.528417	6.59175	0.710543	8.35168
				0.329995	3.8447	0.171207	2.07105	0.324481	3.99454	0.631433	7.74488	0.741416	8.62879	0.531044	6.54842	0.716129	8.32615
				0.331128	3.81647	0.173291	2.0729	0.325588	3.96271	0.636136	7.72562	0.748146	8.61372	0.533596	6.50515	0.721728	8.30134
				0.33212	3.79241	0.175376	2.07471	0.3267	3.93166	0.641464	7.70317	0.754884	8.59905	0.536077	6.462	0.727339	8.27717
				0.332969	3.77229	0.17746	2.07648	0.327817	3.90136	0.646719	7.68034	0.761627	8.58475	0.53849	6.41899	0.732958	8.25361
				0.333673	3.75592	0.179544	2.07821	0.328939	3.87178	0.651899	7.65713	0.768373	8.57078	0.540837	6.37616	0.738583	8.23059
				0.334232	3.74314	0.181628	2.0799	0.330066	3.84291	0.657003	7.63355	0.775119	8.5571	0.543122	6.33353	0.744209	8.20807
				0.334643	3.73384	0.183711	2.08155	0.331199	3.81472	0.662031	7.60959	0.781864	8.54369	0.545348	6.29114	0.749835	8.18599
				0.334907	3.72792	0.185795	2.08317	0.332338	3.7872	0.666981	7.58525	0.788605	8.53049	0.547517	6.249	0.755457	8.16433
				0.335287	3.71948	0.187878	2.08475	0.333483	3.76032	0.671853	7.56056	0.795339	8.51749	0.549633	6.20713	0.761074	8.14304
				0.3357	3.71037	0.189961	2.08629	0.334633	3.73406	0.676647	7.5355	0.802063	8.50465	0.551697	6.16557	0.765961	8.12475
				0.336264	3.6981	0.192044	2.08781	0.33579	3.70841	0.681362	7.51008	0.808775	8.49193	0.553713	6.12433	0.77012	8.10934
				0.336979	3.68278	0.194127	2.08929	0.336952	3.68335	0.685998	7.48433	0.815473	8.47931	0.555682	6.08342	0.773555	8.09671
				0.337847	3.66455	0.19621	2.09074	0.338121	3.65886	0.690556	7.45823	0.822154	8.46675	0.557608	6.04287	0.776267	8.08678
				0.338869	3.64355	0.198293	2.09216	0.339296	3.63493	0.695034	7.43181	0.828814	8.45422	0.559491	6.00267	0.778258	8.07953
				0.340048	3.61996	0.200375	2.09355	0.340477	3.61154	0.699433	7.40508	0.835452	8.4417	0.561336	5.96286	0.779532	8.07489
				0.341233	3.5969	0.202457	2.09492	0.341665	3.58867	0.703753	7.37804	0.842065	8.42917	0.563142	5.92342	0.781361	8.06826
				0.342425	3.57436	0.204539	2.09625	0.342859	3.56631	0.707995	7.35072	0.84865	8.41659	0.564914	5.88439	0.783347	8.06107
				0.343623	3.55232	0.206622	2.09756	0.344059	3.54444	0.71216	7.32311	0.855204	8.40394	0.566651	5.84575	0.786044	8.05133
				0.344827	3.53076	0.208704	2.09884	0.345266	3.52306	0.716247	7.29525	0.861727	8.39121	0.568356	5.80752	0.789449	8.03907
				0.346038	3.50968	0.210785	2.1001	0.346479	3.50214	0.720258	7.26714	0.868214	8.37837	0.570031	5.76971	0.793555	8.02433
				0.347255	3.48905	0.212867	2.10134	0.347698	3.48168	0.724193	7.2388	0.874666	8.36541	0.571677	5.73231	0.798356	8.00714
				0.348479	3.46887	0.214949	2.10255	0.348924	3.46166	0.728054	7.21024	0.881079	8.35232	0.573296	5.69534	0.803841	7.98752
				0.349709	3.44913	0.21703	2.10374	0.350157	3.44207	0.731841	7.18148	0.887453	8.33909	0.574889	5.65879	0.8093	7.968
				0.350946	3.42981	0.219112	2.1049	0.351396	3.4229	0.735555	7.15254	0.892974	8.32744	0.576458	5.62267	0.81473	7.94854
				0.352188	3.4109	0.221193	2.10605	0.352641	3.40414	0.739198	7.12342	0.897656	8.31741	0.578003	5.58697	0.820128	7.92914
				0.353438	3.39239	0.223274	2.10717	0.353893	3.38577	0.742771	7.09416	0.90151	8.30906	0.579527	5.5517	0.825493	7.90976
				0.354694	3.37427	0.225355	2.10827	0.355151	3.36779	0.746274	7.06475	0.904546	8.30241	0.58103	5.51685	0.830824	7.89039
				0.355956	3.35653	0.227436	2.10936	0.356415	3.35018	0.74971	7.03523	0.906772	8.2975	0.582513	5.48243	0.836117	7.87101
				0.357225	3.33915	0.229517	2.11042	0.357686	3.33294	0.75308	7.0056	0.908193	8.29435	0.583977	5.44844	0.841371	7.85161
				0.3585	3.32214	0.231598	2.11146	0.358964	3.31605	0.756385	6.97588	0.910233	8.2898	0.585424	5.41487	0.846585	7.83217
				0.359781	3.30547	0.233679	2.11249	0.360248	3.29951	0.759626	6.94609	0.912445	8.28484	0.586854	5.38172	0.851756	7.81267
				0.361069	3.28915	0.23576	2.1135	0.361537	3.28331	0.762805	6.91623	0.915445	8.27807	0.588268	5.34898	0.856884	7.79311
				0.362363	3.27316	0.23784	2.11449	0.362834	3.26744	0.765923	6.88634	0.919224	8.26944	0.589667	5.31667	0.861967	7.77346
				0.363663	3.25749	0.239921	2.11546	0.364136	3.25188	0.768982	6.8564	0.923773	8.25894	0.591053	5.28476	0.867003	7.75373
				0.36497	3.24213	0.242001	2.11642	0.365445	3.23664	0.771983	6.82646	0.92908	8.24653	0.592425	5.25327	0.871991	7.7339
				0.366282	3.22709	0.244081	2.11736	0.36676	3.2217	0.774928	6.7965	0.93513	8.23215	0.593784	5.22218	0.876929	7.71396
				0.367601	3.21234	0.246162	2.11829	0.368081	3.20706	0.777818	6.76656	0.941138	8.21764	0.595131	5.19149	0.881818	7.6939
				0.368926	3.19788	0.248242	2.1192	0.369409	3.19271	0.780655	6.73663	0.947105	8.20301	0.596468	5.1612	0.886655	7.67372
				0.370258	3.18371	0.250322	2.12009	0.370742	3.17864	0.78344	6.70674	0.953031	8.18826	0.597793	5.1313	0.89144	7.65342
				0.371595	3.16981	0.252402	2.12097	0.372082	3.16484	0.786174	6.67689	0.958918	8.17341	0.599109	5.10179	0.896172	7.63299
				0.372938	3.15619	0.254482	2.12184	0.373427	3.15131	0.788858	6.64709	0.964765	8.15846	0.600416	5.07267	0.900849	7.61242
				0.374288	3.14283	0.256562	2.12269	0.374779	3.13804	0.791495	6.61736	0.970573	8.14341	0.601713	5.04393	0.905473	7.59172
				0.375643	3.12972	0.258642	2.12353	0.376136	3.12503	0.794085	6.5877	0.976342	8.12828	0.603002	5.01557	0.910041	7.57088
				0.377004	3.11687	0.260722	2.12436	0.377499	3.11227	0.79663	6.55813	0.982074	8.11307	0.604284	4.98757	0.914554	7.54991
				0.378371	3.10426	0.262802	2.12517	0.378869	3.09975	0.799132	6.52864	0.987768	8.09778	0.605558	4.95995	0.919011	7.52879
				0.379744	3.09189	0.264881	2.12597	0.380244	3.08746	0.80159	6.49926	0.993425	8.08242	0.606825	4.93268	0.923412	7.50754
				0.381123	3.07975	0.266961	2.12676	0.381625	3.07541	0.804008	6.46998	0.999044	8.06699	0.608086	4.90578	0.927756	7.48616
				0.382508	3.06784	0.269041	2.12753	0.383011	3.06358	0.806385	6.44082	1.00463	8.05149	0.609341	4.87923	0.932045	7.46465
				0.383898	3.05616	0.27112	2.1283	0.384404	3.05197	0.808723	6.41178			0.61059	4.85303	0.936277	7.443
				0.385294	3.04469	0.2732	2.12905	0.385801	3.04058	0.811023	6.38287			0.611834	4.82717	0.940453	7.42123
				0.386695	3.03343	0.275279	2.12979	0.387205	3.0294	0.813287	6.3541			0.613073	4.80165	0.944573	7.39934
				0.388102	3.02238	0.277358	2.13052	0.388614	3.01842	0.815515	6.32546			0.614307	4.77646	0.948637	7.37733
				0.389515	3.01153	0.279438	2.13124	0.390029	3.00764	0.817709	6.29697			0.615538	4.7516	0.952646	7.35522
				0.390933	3.00087	0.281517	2.13195	0.391449	2.99706	0.81987	6.26863			0.616764	4.72707	0.956599	7.33299
				0.392357	2.99042	0.283596	2.13265	0.392874	2.98667	0.821998	6.24045			0.617987	4.70286	0.960498	7.31067
				0.393785	2.98014	0.285675	2.13334	0.394305	2.97646	0.824094	6.21243			0.619206	4.67897	0.964343	7.28825
				0.39522	2.97006	0.287754	2.13401	0.395741	2.96644	0.826161	6.18457			0.620422	4.65538	0.968134	7.26574
				0.396659	2.96015	0.289833	2.13468	0.397183	2.9566	0.828198	6.15687			0.621636	4.63211	0.971872	7.24314
				0.398104	2.95042	0.291912	2.13534	0.39863	2.94693	0.830206	6.12935			0.622847	4.60913	0.975557	7.22047
				0.399554	2.94086	0.293991	2.13599	0.400082	2.93743	0.832187	6.102			0.624056	4.58645	0.979191	7.19773
				0.40101	2.93147	0.29607	2.13663	0.401539	2.9281	0.834141	6.07483			0.625262	4.56407	0.982774	7.17493
				0.40247	2.92224	0.298149	2.13727	0.403001	2.91893	0.836069	6.04783			0.626467	4.54197	0.986306	7.15207
				0.403936	2.91317	0.300228	2.13789	0.404468	2.90992	0.837972	6.02102			0.62767	4.52016	0.989789	7.12916
				0.405406	2.90426	0.302307	2.1385	0.405941	2.90107	0.839851	5.99439			0.628872	4.49863	0.993222	7.1062
				0.406881	2.89551	0.304386	2.13911	0.407418	2.89237	0.841706	5.96795			0.630073	4.47738	0.996608	7.08321
				0.408362	2.8869	0.306464	2.13971	0.4089	2.88382	0.843539	5.94169			0.631272	4.4564	0.999946	7.06018
				0.409847	2.87844	0.308543	2.1403	0.410387	2.87541	0.845349	5.91562			0.63247	4.43568	1.00324	7.03713
				0.411337	2.87013	0.310622	2.14088	0.411879	2.86715	0.847138	5.88974			0.633668	4.41524		
				0.412832	2.86195	0.3127	2.14146	0.413376	2.85902	0.848907	5.86405			0.634865	4.39505		
				0.414332	2.85392	0.314779	2.14202	0.414877	2.85104	0.850655	5.83855			0.636062	4.37511		
				0.415837	2.84602	0.316857	2.14258	0.416384	2.84318	0.852384	5.81324			0.637259	4.35543		
				0.417346	2.83825	0.318936	2.14314	0.417895	2.83546	0.854095	5.78813			0.638455	4.33599		
				0.41886	2.83061	0.321014	2.14368	0.41941	2.82787	0.855787	5.76321			0.639651	4.31681		
				0.420378	2.82309	0.323092	2.14422	0.42093	2.8204	0.857462	5.73848			0.640848	4.29786		
				0.421901	2.8157	0.325171	2.14475	0.422455	2.81305	0.85912	5.71395			0.642045	4.27915		
				0.423428	2.80843	0.327249	2.14528	0.423984	2.80583	0.860761	5.68961			0.643242	4.26067		
				0.42496	2.80128	0.329327	2.1458	0.425517	2.79872	0.862387	5.66546			0.64444	4.24242		
				0.426496	2.79425	0.331406	2.14631	0.427055	2.79173	0.863997	5.64151			0.645638	4.2244		
				0.428037	2.78733	0.333484	2.14681	0.428597	2.78485	0.865592	5.61775			0.646837	4.2066		
				0.429582	2.78052	0.335562	2.14731	0.430144	2.77808	0.867173	5.59419			0.648036	4.18902		
				0.431131	2.77382	0.33764	2.14781	0.431695	2.77142	0.868741	5.57081			0.649237	4.17165		
				0.432685	2.76723	0.339718	2.14829	0.43325	2.76486	0.870294	5.54763			0.650439	4.1545		
				0.434243	2.76074	0.341797	2.14877	0.434809	2.75841	0.871835	5.52464			0.651642	4.13756		
				0.435805	2.75435	0.343875	2.14925	0.436372	2.75206	0.873363	5.50185			0.652845	4.12083		
				0.437371	2.74807	0.345953	2.14972	0.43794	2.74582	0.87488	5.47924			0.65405	4.1043		
				0.438941	2.74188	0.348031	2.15018	0.439511	2.73966	0.876384	5.45682			0.655257	4.08797		
				0.440515	2.7358	0.350109	2.15064	0.441087	2.73361	0.877877	5.43459			0.656465	4.07184		
				0.442093	2.7298	0.352187	2.1511	0.442667	2.72765	0.879359	5.41255			0.657674	4.0559		
				0.443675	2.7239	0.354265	2.15154	0.44425	2.72178	0.880831	5.39069			0.658885	4.04015		
				0.445261	2.71809	0.356342	2.15199	0.445838	2.716	0.882293	5.36902			0.660097	4.02459		
				0.446851	2.71237	0.35842	2.15242	0.447429	2.71032	0.883744	5.34754			0.661311	4.00922		
				0.448445	2.70674	0.360498	2.15286	0.449024	2.70471	0.885186	5.32624			0.662527	3.99403		
				0.450043	2.70119	0.362576	2.15328	0.450623	2.6992	0.886619	5.30512			0.663745	3.97902		
				0.451644	2.69573	0.364654	2.15371	0.452226	2.69376	0.888043	5.28418			0.664964	3.96419		
				0.453249	2.69035	0.366732	2.15413	0.453833	2.68841	0.889459	5.26342			0.666185	3.94953		
				0.454858	2.68505	0.368809	2.15454	0.455443	2.68314	0.890866	5.24284			0.667408	3.93505		
				0.456471	2.67983	0.370887	2.15495	0.457057	2.67795	0.892266	5.22244			0.668633	3.92074		
				0.458087	2.67469	0.372965	2.15535	0.458674	2.67284	0.893657	5.20222			0.669861	3.90659		
				0.459707	2.66962	0.375042	2.15575	0.460295	2.6678	0.895041	5.18217			0.67109	3.89261		
				0.46133	2.66463	0.37712	2.15615	0.46192	2.66284	0.896418	5.1623			0.672321	3.87879		
				0.462957	2.65971	0.379198	2.15654	0.463548	2.65795	0.897789	5.1426			0.673555	3.86513		
				0.464587	2.65487	0.381275	2.15692	0.465179	2.65313	0.899152	5.12307			0.67479	3.85163		
				0.466221	2.6501	0.383353	2.15731	0.466814	2.64838	0.900509	5.10371			0.676028	3.83828		
				0.467858	2.64539	0.38543	2.15768	0.468453	2.6437	0.90186	5.08451			0.677268	3.82508		
				0.469499	2.64076	0.387508	2.15806	0.470095	2.63909	0.903205	5.06549			0.67851	3.81204		
				0.471142	2.63619	0.389585	2.15843	0.47174	2.63455	0.904545	5.04663			0.679755	3.79915		
				0.47279	2.63169	0.391663	2.1588	0.473388	2.63007	0.905879	5.02794			0.681002	3.7864		
				0.47444	2.62725	0.39374	2.15916	0.47504	2.62565	0.907207	5.00941			0.682251	3.7738		
				0.476094	2.62287	0.395818	2.15952	0.476695	2.6213	0.908531	4.99104			0.683503	3.76134		
				0.477751	2.61856	0.397895	2.15987	0.478353	2.61701	0.909849	4.97283			0.684757	3.74902		
				0.479411	2.61431	0.399972	2.16022	0.480014	2.61278	0.911163	4.95478			0.686014	3.73684		
				0.481075	2.61012	0.40205	2.16057	0.481679	2.60861	0.912473	4.93689			0.687273	3.72479		
				0.482741	2.60599	0.404127	2.16091	0.483346	2.6045	0.913778	4.91915			0.688534	3.71288		
				0.484411	2.60191	0.406204	2.16125	0.485017	2.60045	0.915079	4.90157			0.689798	3.7011		
				0.486083	2.5979	0.408282	2.16159	0.486691	2.59645	0.916375	4.88414			0.691065	3.68945		
				0.487759	2.59394	0.410359	2.16193	0.488368	2.59251	0.917669	4.86687			0.692334	3.67793		
				0.489438	2.59003	0.412436	2.16226	0.490047	2.58863	0.918958	4.84974			0.693606	3.66654		
				0.491119	2.58618	0.414513	2.16258	0.49173	2.5848	0.920244	4.83277			0.69488	3.65528		
				0.492804	2.58238	0.416591	2.16291	0.493416	2.58102	0.921527	4.81594			0.696157	3.64413		
				0.494491	2.57863	0.418668	2.16323	0.495104	2.57729	0.922806	4.79925			0.697436	3.63311		
				0.496182	2.57494	0.420745	2.16354	0.496796	2.57361	0.924082	4.78272			0.698718	3.62221		
				0.497875	2.57129	0.422822	2.16386	0.49849	2.56998	0.925356	4.76633			0.700003	3.61143		
				0.499571	2.5677	0.424899	2.16417	0.500187	2.56641	0.926626	4.75007			0.70129	3.60076		
				0.50127	2.56415	0.426976	2.16448	0.501887	2.56288	0.927894	4.73396			0.70258	3.59021		
				0.502972	2.56065	0.429053	2.16478	0.50359	2.5594	0.92916	4.71799			0.703873	3.57977		
				0.504676	2.5572	0.431131	2.16508	0.505296	2.55596	0.930423	4.70216			0.705168	3.56944		
				0.506384	2.55379	0.433208	2.16538	0.507004	2.55257	0.931683	4.68647			0.706466	3.55923		
				0.508094	2.55043	0.435285	2.16568	0.508715	2.54923	0.932942	4.67091			0.707767	3.54912		
				0.509806	2.54712	0.437362	2.16597	0.510428	2.54593	0.934198	4.65548			0.70907	3.53912		
				0.511521	2.54385	0.439439	2.16626	0.512144	2.54267	0.935453	4.64019			0.710376	3.52923		
				0.513239	2.54062	0.441516	2.16655	0.513863	2.53946	0.936706	4.62503			0.711685	3.51944		
				0.51496	2.53743	0.443593	2.16684	0.515584	2.53629	0.937957	4.61			0.712996	3.50975		
				0.516683	2.53429	0.44567	2.16712	0.517308	2.53316	0.939206	4.5951			0.714311	3.50017		
				0.518408	2.53118	0.447747	2.1674	0.519035	2.53007	0.940454	4.58032			0.715627	3.49069		
				0.520136	2.52812	0.449823	2.16768	0.520764	2.52702	0.9417	4.56567			0.716947	3.4813		
				0.521867	2.5251	0.4519	2.16795	0.522495	2.52401	0.942945	4.55115			0.718269	3.47202		
				0.5236	2.52211	0.453977	2.16822	0.524229	2.52104	0.944189	4.53675			0.719595	3.46283		
				0.525335	2.51917	0.456054	2.16849	0.525965	2.51811	0.945431	4.52248			0.720922	3.45373		
				0.527073	2.51626	0.458131	2.16876	0.527704	2.51521	0.946673	4.50832			0.722253	3.44473		
				0.528813	2.51339	0.460208	2.16903	0.529445	2.51235	0.947913	4.49429			0.723586	3.43582		
				0.530556	2.51055	0.462285	2.16929	0.531189	2.50953	0.949153	4.48038			0.724922	3.427		
				0.532301	2.50775	0.464361	2.16955	0.532935	2.50675	0.950391	4.46658			0.726261	3.41828		
				0.534048	2.50499	0.466438	2.16981	0.534683	2.504	0.951629	4.4529			0.727602	3.40964		
				0.535798	2.50226	0.468515	2.17006	0.536434	2.50128	0.952867	4.43933			0.728947	3.40109		
				0.53755	2.49957	0.470592	2.17032	0.538186	2.4986	0.954103	4.42588			0.730294	3.39263		
				0.539304	2.49691	0.472668	2.17057	0.539941	2.49595	0.955339	4.41255			0.731643	3.38425		
				0.541061	2.49428	0.474745	2.17082	0.541699	2.49334	0.956575	4.39932			0.732996	3.37596		
				0.54282	2.49169	0.476822	2.17106	0.543458	2.49075	0.95781	4.38621			0.734351	3.36775		
				0.54458	2.48912	0.478899	2.17131	0.54522	2.4882	0.959045	4.3732			0.735709	3.35962		
				0.546344	2.48659	0.480975	2.17155	0.546984	2.48568	0.960279	4.36031			0.737069	3.35157		
				0.548109	2.48409	0.483052	2.17179	0.54875	2.48319	0.961513	4.34752			0.738433	3.34361		
				0.549876	2.48162	0.485129	2.17203	0.550518	2.48074	0.962748	4.33484			0.739799	3.33572		
				0.551646	2.47919	0.487205	2.17226	0.552288	2.47831	0.963982	4.32226			0.741168	3.32791		
				0.553417	2.47678	0.489282	2.1725	0.554061	2.47591	0.965215	4.30979			0.742539	3.32018		
				0.555191	2.4744	0.491358	2.17273	0.555835	2.47354	0.966449	4.29742			0.743913	3.31252		
				0.556967	2.47205	0.493435	2.17296	0.557612	2.4712	0.967683	4.28516			0.74529	3.30494		
				0.558745	2.46972	0.495511	2.17319	0.55939	2.46889	0.968917	4.27299			0.74667	3.29744		
				0.560524	2.46743	0.497588	2.17341	0.561171	2.4666	0.970152	4.26093			0.748052	3.29		
				0.562306	2.46516	0.499665	2.17364	0.562953	2.46435	0.971386	4.24896			0.749437	3.28264		
				0.56409	2.46292	0.501741	2.17386	0.564738	2.46212	0.972621	4.2371			0.750825	3.27536		
				0.565876	2.46071	0.503818	2.17408	0.566524	2.45991	0.973856	4.22533			0.752215	3.26814		
				0.567663	2.45852	0.505894	2.1743	0.568313	2.45774	0.975091	4.21365			0.753608	3.26099		
				0.569453	2.45636	0.507971	2.17452	0.570103	2.45559	0.976327	4.20208			0.755004	3.25391		
				0.571245	2.45423	0.510047	2.17473	0.571895	2.45346	0.977563	4.19059			0.756402	3.2469		
				0.573038	2.45212	0.512124	2.17495	0.573689	2.45136	0.9788	4.1792			0.757803	3.23996		
				0.574834	2.45003	0.5142	2.17516	0.575485	2.44928	0.980037	4.1679			0.759207	3.23308		
				0.576631	2.44797	0.516276	2.17537	0.577283	2.44723	0.981275	4.1567			0.760613	3.22627		
				0.57843	2.44593	0.518353	2.17558	0.579083	2.4452	0.982513	4.14558			0.762022	3.21952		
				0.580231	2.44392	0.520429	2.17578	0.580885	2.4432	0.983752	4.13455			0.763434	3.21284		
				0.582033	2.44193	0.522506	2.17599	0.582688	2.44121	0.984991	4.12362			0.764848	3.20622		
				0.583838	2.43996	0.524582	2.17619	0.584493	2.43926	0.986231	4.11277			0.766265	3.19966		
				0.585644	2.43802	0.526658	2.17639	0.5863	2.43732	0.987472	4.102			0.767684	3.19316		
				0.587452	2.4361	0.528735	2.17659	0.588109	2.43541	0.988714	4.09133			0.769106	3.18673		
				0.589262	2.4342	0.530811	2.17679	0.589919	2.43351	0.989957	4.08074			0.770531	3.18035		
				0.591073	2.43232	0.532887	2.17699	0.591731	2.43164	0.9912	4.07023			0.771958	3.17404		
				0.592887	2.43046	0.534964	2.17718	0.593545	2.42979	0.992444	4.05981			0.773388	3.16778		
				0.594702	2.42863	0.53704	2.17738	0.59536	2.42797	0.993689	4.04947			0.77482	3.16159		
				0.596518	2.42681	0.539116	2.17757	0.597178	2.42616	0.994935	4.03921			0.776255	3.15544		
				0.598336	2.42502	0.541192	2.17776	0.598997	2.42437	0.996182	4.02903			0.777693	3.14936		
				0.600156	2.42324	0.543269	2.17795	0.600817	2.4226	0.99743	4.01893			0.779133	3.14333		
				0.601978	2.42149	0.545345	2.17814	0.602639	2.42086	0.998679	4.00892			0.780575	3.13736		
				0.603801	2.41975	0.547421	2.17833	0.604463	2.41913	0.999929	3.99898			0.782021	3.13144		
				0.605626	2.41804	0.549497	2.17851	0.606288	2.41742	1.00118	3.98912			0.783468	3.12558		
				0.607452	2.41634	0.551574	2.17869	0.608115	2.41573					0.784918	3.11977		
				0.60928	2.41466	0.55365	2.17888	0.609944	2.41406					0.786371	3.11401		
				0.61111	2.413	0.555726	2.17906	0.611774	2.41241					0.787826	3.1083		
				0.612941	2.41136	0.557802	2.17924	0.613605	2.41077					0.789284	3.10265		
				0.614773	2.40974	0.559878	2.17942	0.615439	2.40916					0.790744	3.09705		
				0.616607	2.40814	0.561955	2.17959	0.617273	2.40756					0.792207	3.09149		
				0.618443	2.40655	0.564031	2.17977	0.61911	2.40598					0.793672	3.08599		
				0.62028	2.40498	0.566107	2.17994	0.620947	2.40441					0.795139	3.08054		
				0.622119	2.40342	0.568183	2.18012	0.622786	2.40286					0.796609	3.07513		
				0.623959	2.40189	0.570259	2.18029	0.624627	2.40133					0.798082	3.06978		
				0.625801	2.40037	0.572335	2.18046	0.626469	2.39982					0.799557	3.06447		
				0.627644	2.39886	0.574411	2.18063	0.628313	2.39832					0.801034	3.05921		
				0.629488	2.39738	0.576487	2.18079	0.630158	2.39684					0.802514	3.05399		
				0.631334	2.39591	0.578563	2.18096	0.632004	2.39538					0.803996	3.04882		
				0.633181	2.39445	0.580639	2.18113	0.633852	2.39392					0.80548	3.0437		
				0.63503	2.39301	0.582715	2.18129	0.635701	2.39249					0.806967	3.03862		
				0.63688	2.39158	0.584791	2.18145	0.637551	2.39107					0.808457	3.03358		
				0.638731	2.39017	0.586867	2.18162	0.639403	2.38967					0.809948	3.02859		
				0.640584	2.38878	0.588943	2.18178	0.641257	2.38828					0.811442	3.02364		
				0.642438	2.3874	0.591019	2.18194	0.643111	2.3869					0.812939	3.01874		
				0.644294	2.38603	0.593095	2.18209	0.644967	2.38554					0.814437	3.01388		
				0.646151	2.38468	0.595171	2.18225	0.646825	2.38419					0.815938	3.00906		
				0.648009	2.38334	0.597247	2.18241	0.648683	2.38286					0.817442	3.00428		
				0.649868	2.38202	0.599323	2.18256	0.650543	2.38154					0.818947	2.99954		
				0.651729	2.38071	0.601399	2.18272	0.652404	2.38024					0.820455	2.99484		
				0.653591	2.37941	0.603475	2.18287	0.654267	2.37895					0.821966	2.99019		
				0.655454	2.37813	0.605551	2.18302	0.65613	2.37767					0.823478	2.98557		
				0.657319	2.37686	0.607627	2.18317	0.657995	2.3764					0.824993	2.98099		
				0.659184	2.3756	0.609703	2.18332	0.659862	2.37515					0.82651	2.97646		
				0.661051	2.37436	0.611778	2.18347	0.661729	2.37391					0.828029	2.97196		
				0.66292	2.37313	0.613854	2.18362	0.663598	2.37268					0.829551	2.96749		
				0.664789	2.37191	0.61593	2.18377	0.665468	2.37147					0.831075	2.96307		
				0.66666	2.3707	0.618006	2.18391	0.667339	2.37027					0.832601	2.95868		
				0.668532	2.36951	0.620082	2.18406	0.669211	2.36908					0.834129	2.95433		
				0.670405	2.36833	0.622158	2.1842	0.671084	2.3679					0.83566	2.95002		
				0.672279	2.36716	0.624234	2.18434	0.672959	2.36674					0.837192	2.94574		
				0.674154	2.366	0.626309	2.18448	0.674835	2.36558					0.838727	2.9415		
				0.676031	2.36485	0.628385	2.18463	0.676712	2.36444					0.840264	2.93729		
				0.677908	2.36372	0.630461	2.18477	0.67859	2.36331					0.841803	2.93312		
				0.679787	2.36259	0.632537	2.1849	0.680469	2.36219					0.843345	2.92898		
				0.681667	2.36148	0.634612	2.18504	0.68235	2.36108					0.844888	2.92488		
				0.683548	2.36038	0.636688	2.18518	0.684231	2.35998					0.846434	2.92081		
				0.685431	2.35929	0.638764	2.18532	0.686114	2.35889					0.847982	2.91677		
				0.687314	2.35821	0.64084	2.18545	0.687997	2.35782					0.849532	2.91277		
				0.689198	2.35714	0.642915	2.18559	0.689882	2.35675					0.851084	2.9088		
				0.691084	2.35608	0.644991	2.18572	0.691768	2.3557					0.852638	2.90486		
				0.69297	2.35503	0.647067	2.18585	0.693655	2.35465					0.854194	2.90095		
				0.694858	2.35399	0.649142	2.18598	0.695543	2.35362					0.855753	2.89708		
				0.696747	2.35296	0.651218	2.18611	0.697432	2.35259					0.857313	2.89323		
				0.698636	2.35194	0.653294	2.18624	0.699322	2.35158					0.858876	2.88942		
				0.700527	2.35094	0.655369	2.18637	0.701213	2.35057					0.86044	2.88564		
				0.702419	2.34994	0.657445	2.1865	0.703106	2.34958					0.862007	2.88189		
				0.704312	2.34895	0.659521	2.18663	0.704999	2.34859					0.863575	2.87817		
				0.706206	2.34797	0.661596	2.18676	0.706893	2.34761					0.865146	2.87448		
				0.708101	2.347	0.663672	2.18688	0.708788	2.34665					0.866719	2.87082		
				0.709996	2.34604	0.665747	2.18701	0.710685	2.34569					0.868293	2.86718		
				0.711893	2.34508	0.667823	2.18713	0.712582	2.34474					0.86987	2.86358		
				0.713791	2.34414	0.669899	2.18726	0.71448	2.3438					0.871449	2.86001		
				0.71569	2.34321	0.671974	2.18738	0.716379	2.34287					0.87303	2.85646		
				0.71759	2.34228	0.67405	2.1875	0.718279	2.34195					0.874612	2.85294		
				0.71949	2.34137	0.676125	2.18762	0.72018	2.34104					0.876197	2.84945		
				0.721392	2.34046	0.678201	2.18774	0.722082	2.34013					0.877784	2.84599		
				0.723295	2.33956	0.680276	2.18786	0.723985	2.33924					0.879372	2.84255		
				0.725198	2.33867	0.682352	2.18798	0.725889	2.33835					0.880963	2.83914		
				0.727103	2.33779	0.684427	2.1881	0.727794	2.33747					0.882555	2.83576		
				0.729008	2.33691	0.686503	2.18822	0.7297	2.3366					0.884149	2.8324		
				0.730915	2.33605	0.688578	2.18833	0.731607	2.33574					0.885746	2.82907		
				0.732822	2.33519	0.690654	2.18845	0.733514	2.33488					0.887344	2.82577		
				0.73473	2.33434	0.692729	2.18856	0.735423	2.33403					0.888944	2.82249		
				0.736639	2.3335	0.694805	2.18868	0.737332	2.33319					0.890546	2.81924		
				0.738549	2.33266	0.69688	2.18879	0.739242	2.33236					0.89215	2.81601		
				0.74046	2.33184	0.698956	2.18891	0.741153	2.33154					0.893756	2.8128		
				0.742372	2.33102	0.701031	2.18902	0.743065	2.33072					0.895363	2.80962		
				0.744284	2.33021	0.703107	2.18913	0.744978	2.32991					0.896973	2.80647		
				0.746198	2.3294	0.705182	2.18924	0.746892	2.32911					0.898584	2.80334		
				0.748112	2.3286	0.707257	2.18935	0.748807	2.32832					0.900197	2.80023		
				0.750027	2.32782	0.709333	2.18946	0.750722	2.32753					0.901812	2.79715		
				0.751943	2.32703	0.711408	2.18957	0.752638	2.32675					0.903429	2.79409		
				0.75386	2.32626	0.713483	2.18968	0.754556	2.32598					0.905047	2.79105		
				0.755778	2.32549	0.715559	2.18979	0.756473	2.32521					0.906668	2.78804		
				0.757696	2.32473	0.717634	2.18989	0.758392	2.32445					0.90829	2.78505		
				0.759615	2.32397	0.71971	2.19	0.760312	2.3237					0.909914	2.78208		
				0.761535	2.32322	0.721785	2.19011	0.762232	2.32296					0.91154	2.77913		
				0.763456	2.32248	0.72386	2.19021	0.764153	2.32222					0.913167	2.77621		
				0.765378	2.32175	0.725936	2.19032	0.766075	2.32148					0.914797	2.77331		
				0.7673	2.32102	0.728011	2.19042	0.767998	2.32076					0.916428	2.77043		
				0.769224	2.3203	0.730086	2.19052	0.769922	2.32004					0.91806	2.76757		
				0.771148	2.31958	0.732161	2.19063	0.771846	2.31933					0.919695	2.76473		
				0.773073	2.31888	0.734237	2.19073	0.773771	2.31862					0.921331	2.76191		
				0.774998	2.31817	0.736312	2.19083	0.775697	2.31792					0.922969	2.75912		
				0.776924	2.31748	0.738387	2.19093	0.777624	2.31723					0.924609	2.75634		
				0.778852	2.31679	0.740463	2.19103	0.779551	2.31654					0.92625	2.75359		
				0.780779	2.3161	0.742538	2.19113	0.781479	2.31586					0.927893	2.75085		
				0.782708	2.31542	0.744613	2.19123	0.783408	2.31518					0.929538	2.74814		
				0.784637	2.31475	0.746688	2.19133	0.785338	2.31451					0.931185	2.74544		
				0.786567	2.31408	0.748763	2.19143	0.787268	2.31384					0.932833	2.74277		
				0.788498	2.31342	0.750839	2.19153	0.789199	2.31319					0.934483	2.74011		
				0.79043	2.31277	0.752914	2.19162	0.791131	2.31253					0.936134	2.73748		
				0.792362	2.31212	0.754989	2.19172	0.793063	2.31189					0.937787	2.73486		
				0.794295	2.31148	0.757064	2.19182	0.794996	2.31124					0.939442	2.73226		
				0.796229	2.31084	0.759139	2.19191	0.79693	2.31061					0.941098	2.72968		
				0.798163	2.3102	0.761215	2.19201	0.798865	2.30998					0.942756	2.72712		
				0.800098	2.30958	0.76329	2.1921	0.8008	2.30935					0.944416	2.72458		
				0.802034	2.30896	0.765365	2.1922	0.802736	2.30873					0.946077	2.72206		
				0.80397	2.30834	0.76744	2.19229	0.804673	2.30812					0.94774	2.71955		
				0.805908	2.30773	0.769515	2.19238	0.806611	2.30751					0.949404	2.71706		
				0.807845	2.30712	0.77159	2.19247	0.808549	2.3069					0.95107	2.71459		
				0.809784	2.30652	0.773665	2.19257	0.810487	2.3063					0.952738	2.71214		
				0.811723	2.30592	0.77574	2.19266	0.812427	2.30571					0.954407	2.7097		
				0.813663	2.30533	0.777815	2.19275	0.814367	2.30512					0.956078	2.70729		
				0.815603	2.30475	0.779891	2.19284	0.816307	2.30454					0.95775	2.70489		
				0.817544	2.30417	0.781966	2.19293	0.818249	2.30396					0.959424	2.7025		
				0.819486	2.30359	0.784041	2.19302	0.820191	2.30338					0.9611	2.70013		
				0.821429	2.30302	0.786116	2.19311	0.822134	2.30281					0.962776	2.69778		
				0.823372	2.30245	0.788191	2.19319	0.824077	2.30225					0.964455	2.69545		
				0.825315	2.30189	0.790266	2.19328	0.826021	2.30169					0.966135	2.69313		
				0.82726	2.30133	0.792341	2.19337	0.827965	2.30113					0.967816	2.69083		
				0.829205	2.30078	0.794416	2.19346	0.829911	2.30058					0.969499	2.68855		
				0.83115	2.30023	0.796491	2.19354	0.831856	2.30003					0.971184	2.68628		
				0.833097	2.29969	0.798566	2.19363	0.833803	2.29949					0.97287	2.68402		
				0.835043	2.29915	0.800641	2.19371	0.83575	2.29895					0.974557	2.68179		
				0.836991	2.29861	0.802716	2.1938	0.837698	2.29842					0.976246	2.67956		
				0.838939	2.29808	0.804791	2.19388	0.839646	2.29789					0.977937	2.67736		
				0.840888	2.29756	0.806866	2.19397	0.841595	2.29737					0.979628	2.67517		
				0.842837	2.29704	0.808941	2.19405	0.843544	2.29685					0.981322	2.67299		
				0.844786	2.29652	0.811016	2.19413	0.845494	2.29633					0.983017	2.67083		
				0.846737	2.29601	0.813091	2.19422	0.847445	2.29582					0.984713	2.66868		
				0.848688	2.2955	0.815165	2.1943	0.849396	2.29531					0.986411	2.66655		
				0.85064	2.29499	0.81724	2.19438	0.851348	2.29481					0.98811	2.66443		
				0.852592	2.29449	0.819315	2.19446	0.8533	2.29431					0.98981	2.66233		
				0.854544	2.29399	0.82139	2.19454	0.855253	2.29382					0.991512	2.66024		
				0.856498	2.2935	0.823465	2.19462	0.857206	2.29332					0.993215	2.65816		
				0.858452	2.29301	0.82554	2.1947	0.859161	2.29284					0.99492	2.6561		
				0.860406	2.29253	0.827615	2.19478	0.861115	2.29235					0.996626	2.65406		
				0.862361	2.29205	0.82969	2.19486	0.86307	2.29187					0.998334	2.65202		
				0.864316	2.29157	0.831765	2.19494	0.865026	2.2914					1.00004	2.65		
				0.866273	2.2911	0.833839	2.19502	0.866982	2.29093								
				0.868229	2.29063	0.835914	2.1951	0.868939	2.29046								
				0.870186	2.29016	0.837989	2.19518	0.870897	2.28999								
				0.872144	2.2897	0.840064	2.19525	0.872854	2.28953								
				0.874102	2.28924	0.842139	2.19533	0.874813	2.28908								
				0.876061	2.28879	0.844213	2.19541	0.876772	2.28862								
				0.87802	2.28833	0.846288	2.19548	0.878731	2.28817								
				0.87998	2.28789	0.848363	2.19556	0.880691	2.28773								
				0.88194	2.28744	0.850438	2.19564	0.882652	2.28728								
				0.883901	2.287	0.852513	2.19571	0.884613	2.28684								
				0.885863	2.28656	0.854587	2.19578	0.886574	2.28641								
				0.887825	2.28613	0.856662	2.19586	0.888536	2.28597								
				0.889787	2.2857	0.858737	2.19593	0.890499	2.28554								
				0.89175	2.28527	0.860812	2.19601	0.892462	2.28512								
				0.893713	2.28485	0.862886	2.19608	0.894426	2.2847								
				0.895677	2.28443	0.864961	2.19615	0.89639	2.28428								
				0.897641	2.28401	0.867036	2.19622	0.898354	2.28386								
				0.899606	2.2836	0.86911	2.1963	0.900319	2.28345								
				0.901572	2.28319	0.871185	2.19637	0.902285	2.28304								
				0.903537	2.28278	0.87326	2.19644	0.904251	2.28263								
				0.905504	2.28237	0.875334	2.19651	0.906217	2.28223								
				0.907471	2.28197	0.877409	2.19658	0.908184	2.28183								
				0.909438	2.28157	0.879484	2.19665	0.910152	2.28143								
				0.911406	2.28118	0.881558	2.19672	0.91212	2.28104								
				0.913374	2.28079	0.883633	2.19679	0.914088	2.28064								
				0.915342	2.2804	0.885708	2.19686	0.916057	2.28026								
				0.917312	2.28001	0.887782	2.19693	0.918026	2.27987								
				0.919281	2.27963	0.889857	2.197	0.919996	2.27949								
				0.921251	2.27925	0.891932	2.19707	0.921966	2.27911								
				0.923222	2.27887	0.894006	2.19713	0.923937	2.27873								
				0.925193	2.27849	0.896081	2.1972	0.925908	2.27836								
				0.927164	2.27812	0.898155	2.19727	0.927879	2.27799								
				0.929136	2.27775	0.90023	2.19733	0.929851	2.27762								
				0.931108	2.27738	0.902304	2.1974	0.931824	2.27725								
				0.933081	2.27702	0.904379	2.19747	0.933797	2.27689								
				0.935054	2.27666	0.906454	2.19753	0.93577	2.27653								
				0.937028	2.2763	0.908528	2.1976	0.937744	2.27617								
				0.939002	2.27595	0.910603	2.19766	0.939718	2.27582								
				0.940976	2.27559	0.912677	2.19773	0.941692	2.27546								
				0.942951	2.27524	0.914752	2.19779	0.943668	2.27511								
				0.944926	2.27489	0.916826	2.19786	0.945643	2.27477								
				0.946902	2.27455	0.918901	2.19792	0.947619	2.27442								
				0.948878	2.2742	0.920975	2.19799	0.949595	2.27408								
				0.950855	2.27386	0.92305	2.19805	0.951572	2.27374								
				0.952831	2.27353	0.925124	2.19811	0.953549	2.2734								
				0.954809	2.27319	0.927199	2.19817	0.955526	2.27307								
				0.956787	2.27286	0.929273	2.19824	0.957504	2.27274								
				0.958765	2.27253	0.931347	2.1983	0.959483	2.27241								
				0.960743	2.2722	0.933422	2.19836	0.961461	2.27208								
				0.962722	2.27187	0.935496	2.19842	0.96344	2.27176								
				0.964702	2.27155	0.937571	2.19848	0.96542	2.27143								
				0.966681	2.27123	0.939645	2.19855	0.9674	2.27111								
				0.968662	2.27091	0.941719	2.19861	0.96938	2.2708								
				0.970642	2.27059	0.943794	2.19867	0.971361	2.27048								
				0.972623	2.27028	0.945868	2.19873	0.973342	2.27017								
				0.974604	2.26997	0.947943	2.19879	0.975323	2.26986								
				0.976586	2.26966	0.950017	2.19885	0.977305	2.26955								
				0.978568	2.26935	0.952091	2.19891	0.979287	2.26924								
				0.980551	2.26905	0.954166	2.19896	0.98127	2.26894								
				0.982533	2.26874	0.95624	2.19902	0.983253	2.26863								
				0.984517	2.26844	0.958314	2.19908	0.985236	2.26833								
				0.9865	2.26814	0.960389	2.19914	0.98722	2.26804								
				0.988484	2.26785	0.962463	2.1992	0.989204	2.26774								
				0.990468	2.26755	0.964537	2.19926	0.991188	2.26745								
				0.992453	2.26726	0.966612	2.19931	0.993173	2.26715								
				0.994438	2.26697	0.968686	2.19937	0.995158	2.26686								
				0.996423	2.26668	0.97076	2.19943	0.997144	2.26658								
				0.998409	2.2664	0.972834	2.19948	0.99913	2.26629								
				1.0004	2.26611	0.974909	2.19954	1.00112	2.26601								
						0.976983	2.1996										
						0.979057	2.19965										
						0.981131	2.19971										
						0.983206	2.19976										
						0.98528	2.19982										
						0.987354	2.19987										
						0.989428	2.19993										
						0.991503	2.19998										
						0.993577	2.20004										
						0.995651	2.20009										
						0.997725	2.20015										
						0.999799	2.2002										
						1.00187	2.20025										
