Sym0		Asym0		Sym1		Sym2		Sym3		Sym4		Asym1		Asym3		Asym4	
484  Points		494  Points		484  Points		303  Points		159  Points		145  Points		421  Points		186  Points		144  Points	
Freq (MHz)	Vph (m/ms)	Freq (MHz)	Vph (m/ms)	Freq (MHz)	Vph (m/ms)	Freq (MHz)	Vph (m/ms)	Freq (MHz)	Vph (m/ms)	Freq (MHz)	Vph (m/ms)	Freq (MHz)	Vph (m/ms)	Freq (MHz)	Vph (m/ms)	Freq (MHz)	Vph (m/ms)
0.00240364	6.82739	0.000401507	0.198929	0.00187795	6.82746	0.279535	301.364	0.333245	2342.22	0.559025	1120.44	0.139788	320.545	0.419285	570.867	0.666492	1034.85
0.00876411	6.82694	0.00085291	0.289118	0.00823853	6.82702	0.279616	150.391	0.333312	310.354	0.559086	390.797	0.140083	102.415	0.419379	251.703	0.666511	422.982
0.015123	6.82616	0.00146528	0.37748	0.0145976	6.82624	0.279751	100.235	0.33348	166.269	0.559206	236.718	0.14068	61.1788	0.419545	161.496	0.666545	265.827
0.0214791	6.82494	0.00223144	0.463586	0.0209539	6.82507	0.279939	75.1988	0.33375	113.622	0.559384	169.818	0.141574	43.8149	0.419783	118.934	0.666594	193.826
0.0278311	6.82329	0.00314278	0.547034	0.0273063	6.82344	0.28018	60.1974	0.334122	86.3576	0.55962	132.432	0.142758	34.293	0.420093	94.1648	0.66666	152.525
0.0341779	6.82121	0.00418957	0.62748	0.0336536	6.8214	0.280472	50.2095	0.334598	69.6969	0.559915	108.565	0.144222	28.3089	0.420475	77.9676	0.666743	125.741
0.040518	6.81866	0.00536165	0.70469	0.0399944	6.81889	0.280816	43.0849	0.335176	58.4699	0.560269	92.0116	0.145955	24.2198	0.420929	66.5537	0.666843	106.965
0.0468503	6.81566	0.00664848	0.778491	0.0455136	6.81633	0.281209	37.7491	0.335858	50.3978	0.56068	79.8598	0.147945	21.2627	0.421453	58.0807	0.666961	93.0741
0.0531733	6.81218	0.00803955	0.848778	0.0502132	6.81388	0.281652	33.6055	0.336645	44.3196	0.56115	70.5627	0.150179	19.0349	0.422049	51.5446	0.667097	82.382
0.0594856	6.80822	0.00952459	0.915509	0.0540951	6.81163	0.282142	30.2961	0.337536	39.582	0.561677	63.222	0.152643	17.3038	0.422714	46.3516	0.667252	73.8986
0.0657855	6.80375	0.0110938	0.978698	0.0571618	6.80974	0.282679	27.5932	0.338534	35.7887	0.562261	57.2807	0.155324	15.9257	0.423449	42.1283	0.667428	67.0041
0.0720716	6.79875	0.012738	1.0384	0.0594148	6.80827	0.283262	25.3451	0.339638	32.686	0.562903	52.3749	0.158208	14.8069	0.424253	38.6278	0.667625	61.2911
0.078342	6.79321	0.0144484	1.09469	0.060856	6.80729	0.28389	23.4466	0.340848	30.1033	0.563602	48.2566	0.161282	13.884	0.425126	35.6804	0.667843	56.4801
0.0845948	6.78708	0.0162173	1.14769	0.0629265	6.80584	0.284562	21.8229	0.342166	27.9221	0.564357	44.7513	0.164533	13.1121	0.426066	33.1659	0.668085	52.3738
0.090828	6.78034	0.0180373	1.19753	0.0651755	6.80421	0.285279	20.4189	0.343592	26.0573	0.565169	41.7325	0.167948	12.4592	0.427073	30.9963	0.66835	48.8282
0.0970396	6.77297	0.019902	1.24436	0.0682312	6.80187	0.286039	19.1934	0.345125	24.4463	0.566037	39.1062	0.171515	11.9013	0.428146	29.106	0.668639	45.7362
0.103227	6.76491	0.0218055	1.28833	0.0720909	6.79874	0.286844	18.1149	0.346767	23.0419	0.56696	36.8011	0.175225	11.4204	0.429284	27.445	0.668955	43.0164
0.109388	6.75614	0.0237427	1.32959	0.0767504	6.79467	0.287694	17.159	0.348515	21.808	0.567939	34.7624	0.179066	11.0026	0.430487	25.9747	0.669297	40.6056
0.115519	6.7466	0.0257089	1.3683	0.0822044	6.7895	0.288589	16.3062	0.350372	20.7164	0.568972	32.9468	0.183028	10.6371	0.431753	24.6646	0.669666	38.4544
0.121618	6.73624	0.0277	1.40463	0.0884454	6.783	0.289531	15.5413	0.352335	19.7448	0.57006	31.32	0.187103	10.3153	0.433082	23.4902	0.670064	36.5232
0.127681	6.725	0.0297126	1.43871	0.0946655	6.77587	0.290522	14.8518	0.354404	18.8752	0.571202	29.8545	0.191282	10.0305	0.434472	22.432	0.670492	34.7802
0.133704	6.71283	0.0317434	1.4707	0.100862	6.76808	0.291565	14.2274	0.356578	18.0932	0.572397	28.5278	0.195556	9.77699	0.435922	21.4739	0.670949	33.1995
0.139683	6.69965	0.0335258	1.49697	0.107034	6.75959	0.292662	13.6599	0.358857	17.3868	0.573645	27.3213	0.19992	9.55027	0.437432	20.6027	0.671438	31.7595
0.145615	6.68538	0.0350535	1.51826	0.113177	6.75035	0.293817	13.1423	0.361238	16.7463	0.574945	26.2198	0.204365	9.34662	0.439001	19.8074	0.671959	30.4425
0.151493	6.66994	0.0363216	1.53513	0.119288	6.7403	0.295034	12.6688	0.363721	16.1632	0.576298	25.2103	0.208885	9.16291	0.440626	19.0787	0.672512	29.2337
0.157312	6.65325	0.0373271	1.54802	0.125365	6.72941	0.296318	12.2345	0.366303	15.6308	0.577701	24.282	0.213474	8.99655	0.442308	18.4089	0.6731	28.1203
0.163067	6.63519	0.0380681	1.55726	0.131404	6.7176	0.297675	11.8352	0.368983	15.1432	0.579156	23.4258	0.218127	8.84534	0.444045	17.7913	0.673722	27.0918
0.168751	6.61567	0.0385428	1.56306	0.137401	6.70482	0.29911	11.4675	0.37176	14.6952	0.580661	22.6337	0.222839	8.70742	0.445836	17.2202	0.674379	26.1389
0.174357	6.59456	0.0392261	1.57127	0.143351	6.69097	0.300631	11.1283	0.374631	14.2827	0.582216	21.899	0.227604	8.5812	0.44768	16.6908	0.675073	25.2538
0.179877	6.57175	0.0399698	1.58	0.14925	6.676	0.302246	10.8151	0.377594	13.9019	0.58382	21.2159	0.232418	8.46532	0.449576	16.1988	0.675803	24.4297
0.185302	6.5471	0.0409829	1.59157	0.155093	6.65979	0.303962	10.5256	0.380648	13.5495	0.585473	20.5792	0.237276	8.35862	0.451522	15.7405	0.676572	23.6606
0.190624	6.52048	0.0422664	1.60573	0.160873	6.64227	0.305789	10.2579	0.38379	13.2228	0.587173	19.9845	0.242174	8.26007	0.453518	15.3127	0.677379	22.9413
0.195832	6.49176	0.0438218	1.62216	0.166585	6.62332	0.307736	10.0104	0.387017	12.9193	0.588921	19.4279	0.247109	8.16879	0.455562	14.9126	0.678225	22.2673
0.200918	6.46081	0.0456501	1.64054	0.172222	6.60283	0.309814	9.78148	0.390328	12.6368	0.590716	18.906	0.252076	8.08401	0.457654	14.5377	0.679111	21.6346
0.205871	6.4275	0.0477524	1.66049	0.177775	6.58069	0.312032	9.57	0.393721	12.3734	0.592557	18.4158	0.257072	8.00505	0.459791	14.1858	0.680037	21.0397
0.21068	6.39172	0.0498583	1.67931	0.183238	6.55675	0.3144	9.37474	0.397193	12.1274	0.594444	17.9546	0.262094	7.93132	0.461975	13.8549	0.681006	20.4793
0.215335	6.35337	0.0519671	1.69709	0.1886	6.53091	0.316928	9.19468	0.400743	11.8974	0.596376	17.5199	0.267138	7.86229	0.464202	13.5433	0.682016	19.9507
0.219827	6.31238	0.0540782	1.71388	0.193853	6.50301	0.319624	9.02886	0.404367	11.6818	0.598352	17.1096	0.272201	7.79749	0.466473	13.2494	0.683069	19.4514
0.224147	6.26872	0.0561909	1.72976	0.198987	6.47293	0.322498	8.87641	0.408064	11.4797	0.600372	16.7219	0.277281	7.73652	0.468786	12.9718	0.684166	18.9791
0.228288	6.22239	0.0583049	1.74479	0.203992	6.44053	0.325553	8.73648	0.411832	11.2898	0.602435	16.355	0.282373	7.67899	0.47114	12.7093	0.685306	18.5317
0.232244	6.17343	0.0604197	1.75904	0.208857	6.40571	0.328796	8.60827	0.415669	11.1112	0.604541	16.0072	0.287477	7.62459	0.473535	12.4607	0.686492	18.1076
0.236011	6.12196	0.062535	1.77254	0.213573	6.36835	0.332227	8.49099	0.419572	10.943	0.606689	15.6774	0.292587	7.573	0.47597	12.2251	0.687723	17.7049
0.239588	6.06809	0.0646504	1.78535	0.218128	6.32838	0.335848	8.38387	0.423541	10.7844	0.608878	15.364	0.297703	7.52396	0.478444	12.0014	0.689	17.3223
0.242976	6.01204	0.0667659	1.79752	0.222515	6.28574	0.339654	8.28616	0.427572	10.6347	0.611108	15.0661	0.30282	7.47724	0.480957	11.7889	0.690323	16.9584
0.246178	5.95401	0.0688811	1.80909	0.226725	6.24043	0.343641	8.19712	0.431664	10.4934	0.613378	14.7825	0.307938	7.4326	0.483507	11.5868	0.691694	16.6118
0.2492	5.89428	0.070996	1.8201	0.230752	6.19247	0.347802	8.116	0.435815	10.3596	0.615688	14.5123	0.313051	7.38985	0.486095	11.3944	0.693112	16.2816
0.252049	5.83311	0.0731103	1.83058	0.234592	6.14194	0.352129	8.04212	0.440024	10.2331	0.618036	14.2546	0.317503	7.35399	0.48872	11.2111	0.694579	15.9666
0.254733	5.7708	0.0752241	1.84057	0.238242	6.08897	0.356611	7.9748	0.444288	10.1131	0.620423	14.0086	0.321293	7.32436	0.491382	11.0363	0.696095	15.6659
0.257263	5.70764	0.0773371	1.85009	0.241702	6.03373	0.361238	7.9134	0.448607	9.99934	0.622848	13.7736	0.324424	7.30047	0.49408	10.8694	0.69766	15.3787
0.259649	5.64391	0.0794494	1.85919	0.244975	5.97643	0.365999	7.85732	0.452978	9.89136	0.625311	13.5489	0.326895	7.28194	0.496814	10.7101	0.699275	15.1041
0.261902	5.57988	0.0815609	1.86787	0.248065	5.91732	0.370882	7.80601	0.457401	9.78878	0.62781	13.3339	0.328711	7.26851	0.499584	10.5577	0.70094	14.8414
0.264033	5.51579	0.0836715	1.87618	0.250979	5.85667	0.375875	7.75896	0.461873	9.69125	0.630345	13.128	0.329872	7.26	0.502391	10.412	0.702656	14.5899
0.266052	5.45186	0.0857813	1.88412	0.253725	5.79476	0.380968	7.7157	0.466393	9.59846	0.632916	12.9306	0.33154	7.24787	0.505234	10.2726	0.704423	14.349
0.26797	5.3883	0.0878901	1.89173	0.256313	5.73189	0.38615	7.67582	0.470961	9.51011	0.635523	12.7414	0.333351	7.23483	0.508113	10.1391	0.706242	14.1181
0.269798	5.32528	0.0899981	1.89902	0.258752	5.66835	0.391412	7.63893	0.475574	9.42592	0.638164	12.5597	0.33581	7.21732	0.51103	10.0112	0.708112	13.8966
0.271543	5.26293	0.0921051	1.90601	0.261055	5.6044	0.396743	7.60469	0.480232	9.34566	0.64084	12.3853	0.338915	7.19554	0.513983	9.88854	0.710034	13.6842
0.273214	5.2014	0.0942112	1.91271	0.263231	5.5403	0.402135	7.57281	0.484933	9.26909	0.64355	12.2176	0.34266	7.16969	0.516975	9.77096	0.712008	13.4802
0.274819	5.14077	0.0963164	1.91915	0.265292	5.47629	0.40758	7.543	0.489676	9.19599	0.646293	12.0565	0.347038	7.14	0.520006	9.65816	0.714034	13.2842
0.276365	5.08114	0.0984208	1.92534	0.267248	5.41257	0.413071	7.51504	0.494461	9.12617	0.649069	11.9014	0.352039	7.10668	0.523076	9.54992	0.716114	13.0959
0.277859	5.02256	0.100524	1.93129	0.269109	5.34932	0.417887	7.49199	0.499286	9.05944	0.651879	11.7521	0.357015	7.07408	0.526186	9.44603	0.718245	12.9148
0.279305	4.96509	0.102627	1.93701	0.270884	5.2867	0.422012	7.47323	0.504151	8.99564	0.65472	11.6084	0.361962	7.04209	0.529338	9.34628	0.72043	12.7407
0.28071	4.90877	0.104729	1.94252	0.272583	5.22484	0.425436	7.45827	0.509054	8.93459	0.657594	11.4699	0.366878	7.01065	0.532531	9.2505	0.722667	12.5731
0.282079	4.85362	0.10683	1.94783	0.274212	5.16386	0.42815	7.44676	0.513995	8.87617	0.6605	11.3363	0.371759	6.97966	0.535768	9.1585	0.724957	12.4117
0.283414	4.79966	0.10893	1.95295	0.27578	5.10384	0.430149	7.43848	0.518973	8.82022	0.663437	11.2075	0.376603	6.94905	0.53905	9.07014	0.727299	12.2563
0.284721	4.74689	0.111029	1.95788	0.277293	5.04485	0.431429	7.43325	0.523988	8.76662	0.666406	11.0832	0.381407	6.91875	0.542377	8.98526	0.729694	12.1066
0.286002	4.69532	0.113128	1.96265	0.278757	4.98695	0.433272	7.42583	0.529037	8.71526	0.669405	10.9632	0.386169	6.8887	0.545751	8.90372	0.732141	11.9623
0.287261	4.64494	0.115226	1.96724	0.280177	4.93019	0.435277	7.4179	0.534122	8.66601	0.672436	10.8474	0.390885	6.85884	0.549172	8.8254	0.734639	11.8231
0.288501	4.59575	0.117323	1.97169	0.281559	4.87458	0.438008	7.4073	0.539241	8.61877	0.675498	10.7354	0.395553	6.8291	0.552643	8.75016	0.73719	11.6889
0.289723	4.54773	0.11942	1.97598	0.282907	4.82016	0.441465	7.39421	0.544393	8.57346	0.67859	10.6272	0.40017	6.79944	0.556164	8.67789	0.739791	11.5594
0.290931	4.50086	0.121516	1.98014	0.284224	4.76694	0.445652	7.37879	0.549579	8.52996	0.681713	10.5226	0.404733	6.7698	0.559735	8.60848	0.742443	11.4343
0.292126	4.45513	0.123611	1.98415	0.285515	4.71491	0.450569	7.36124	0.554797	8.48821	0.684867	10.4214	0.409239	6.74014	0.563359	8.54181	0.745146	11.3136
0.29331	4.41051	0.125705	1.98804	0.286782	4.66408	0.456215	7.34173	0.560047	8.44811	0.688051	10.3235	0.413687	6.71042	0.567036	8.4778	0.747898	11.197
0.294484	4.36699	0.127799	1.99181	0.288029	4.61443	0.461861	7.32281	0.565329	8.40959	0.691267	10.2287	0.418073	6.6806	0.570766	8.41633	0.7507	11.0844
0.295651	4.32454	0.129893	1.99546	0.289258	4.56597	0.467505	7.30438	0.570641	8.37258	0.694513	10.137	0.422395	6.65066	0.57455	8.35731	0.75355	10.9755
0.296811	4.28314	0.131986	1.999	0.290471	4.51866	0.473141	7.28638	0.575984	8.337	0.69779	10.0482	0.426651	6.62054	0.578389	8.30065	0.756449	10.8702
0.297966	4.24276	0.134078	2.00244	0.29167	4.47249	0.478768	7.26875	0.581357	8.3028	0.701098	9.96216	0.430839	6.59024	0.582282	8.24626	0.759394	10.7683
0.299116	4.20338	0.13617	2.00577	0.292858	4.42746	0.484383	7.25141	0.58676	8.26992	0.704438	9.87884	0.434956	6.55973	0.586229	8.19405	0.762386	10.6698
0.300264	4.16497	0.138261	2.009	0.294036	4.38352	0.489981	7.23432	0.592191	8.23829	0.707809	9.79809	0.439001	6.529	0.590231	8.14392	0.765424	10.5744
0.301409	4.12752	0.140352	2.01215	0.295205	4.34066	0.495562	7.21743	0.597651	8.20785	0.711212	9.71984	0.442972	6.49802	0.594286	8.09581	0.768506	10.4821
0.302552	4.09098	0.142443	2.0152	0.296368	4.29886	0.501121	7.20069	0.603138	8.17856	0.714648	9.644	0.446868	6.46679	0.598395	8.04961	0.771633	10.3926
0.303695	4.05534	0.144533	2.01816	0.297525	4.2581	0.506657	7.18405	0.608652	8.15037	0.718116	9.57047	0.450689	6.43531	0.602556	8.00525	0.774802	10.306
0.304838	4.02058	0.146622	2.02105	0.298677	4.21834	0.512166	7.16749	0.614193	8.12322	0.721617	9.49919	0.454431	6.40356	0.606768	7.96265	0.778014	10.2221
0.305981	3.98667	0.148711	2.02385	0.299825	4.17956	0.517648	7.15096	0.61976	8.09707	0.725152	9.43007	0.458097	6.37156	0.61103	7.92172	0.781267	10.1407
0.307125	3.95358	0.1508	2.02658	0.300971	4.14174	0.523099	7.13444	0.625352	8.07187	0.728722	9.36304	0.461684	6.33931	0.61534	7.88239	0.784561	10.0617
0.308271	3.9213	0.152888	2.02924	0.302115	4.10485	0.528518	7.1179	0.630968	8.04758	0.732326	9.29804	0.465193	6.30681	0.619135	7.84937	0.787894	9.98516
0.309419	3.88981	0.154976	2.03182	0.303258	4.06887	0.533902	7.1013	0.636607	8.02416	0.735965	9.235	0.468625	6.27408	0.622397	7.82208	0.791265	9.91086
0.310569	3.85907	0.157064	2.03434	0.3044	4.03378	0.539249	7.08463	0.64227	8.00156	0.739641	9.17387	0.471978	6.24113	0.625113	7.80011	0.794673	9.83874
0.311723	3.82907	0.159151	2.0368	0.305543	3.99954	0.544558	7.06787	0.647954	7.97975	0.743353	9.11458	0.475255	6.20797	0.627271	7.7831	0.798118	9.7687
0.312879	3.79978	0.161238	2.03919	0.306687	3.96615	0.549827	7.05099	0.653658	7.95868	0.747102	9.05709	0.478455	6.17463	0.628865	7.77079	0.801598	9.70067
0.31389	3.77484	0.163324	2.04152	0.307832	3.93356	0.555054	7.03398	0.659382	7.93833	0.75089	9.00134	0.48158	6.14112	0.629888	7.763	0.805112	9.63457
0.314753	3.75398	0.16541	2.0438	0.308979	3.90177	0.560238	7.01682	0.665125	7.91864	0.754717	8.94729	0.484632	6.10747	0.631362	7.75192	0.808659	9.57032
0.315469	3.73701	0.167496	2.04602	0.310129	3.87074	0.565376	6.99949	0.670144	7.90201	0.758584	8.89488	0.487611	6.0737	0.632968	7.74002	0.812239	9.50785
0.316036	3.72376	0.169582	2.04818	0.311281	3.84046	0.570468	6.98199	0.674432	7.8882	0.762492	8.84408	0.490519	6.03983	0.635162	7.7241	0.81585	9.44708
0.316454	3.71412	0.171667	2.0503	0.312436	3.81091	0.575511	6.96431	0.677984	7.87701	0.766441	8.79485	0.493358	6.00588	0.637949	7.70437	0.819491	9.38796
0.316721	3.708	0.173752	2.05236	0.313595	3.78206	0.580506	6.94643	0.680796	7.86832	0.770433	8.74714	0.496129	5.97189	0.641337	7.68109	0.823162	9.33042
0.317106	3.69925	0.175837	2.05438	0.314757	3.75389	0.58545	6.92835	0.682867	7.86201	0.774469	8.70092	0.498835	5.93787	0.645337	7.65456	0.82686	9.27441
0.317526	3.68981	0.177922	2.05635	0.315923	3.72639	0.590342	6.91005	0.684192	7.85801	0.778549	8.65616	0.501477	5.90384	0.649957	7.6251	0.830586	9.21985
0.318096	3.67711	0.180006	2.05828	0.317093	3.69954	0.595181	6.89154	0.686099	7.8523	0.782675	8.61282	0.504058	5.86984	0.654608	7.59663	0.834339	9.1667
0.31882	3.66125	0.18209	2.06016	0.318268	3.67332	0.599967	6.87281	0.688174	7.84616	0.786848	8.57086	0.506579	5.83588	0.659288	7.5691	0.838117	9.11491
0.319697	3.64237	0.184174	2.062	0.319448	3.64771	0.604698	6.85385	0.690997	7.83792	0.791069	8.53027	0.509042	5.80198	0.663994	7.54244	0.84192	9.06442
0.32073	3.62065	0.186257	2.0638	0.320632	3.62269	0.609373	6.83467	0.694572	7.82765	0.795339	8.491	0.51145	5.76817	0.668723	7.51661	0.845747	9.01519
0.321919	3.59625	0.188341	2.06556	0.321821	3.59825	0.613992	6.81526	0.6989	7.81547	0.799658	8.45304	0.513804	5.73447	0.673473	7.49155	0.849597	8.96717
0.323114	3.57242	0.190424	2.06728	0.323015	3.57437	0.618554	6.79562	0.703984	7.80148	0.804029	8.41635	0.516107	5.70089	0.678242	7.46722	0.85347	8.92033
0.324314	3.54912	0.192507	2.06896	0.324215	3.55103	0.623059	6.77576	0.709824	7.78582	0.808452	8.38091	0.518361	5.66746	0.683028	7.44355	0.857364	8.87461
0.32552	3.52636	0.194589	2.07062	0.32542	3.52822	0.627505	6.75566	0.715671	7.77054	0.812928	8.34669	0.520567	5.63418	0.687828	7.42052	0.861279	8.82998
0.32673	3.50411	0.196672	2.07223	0.32663	3.50593	0.631894	6.73534	0.721522	7.75561	0.817459	8.31368	0.522727	5.60109	0.69264	7.39807	0.865215	8.7864
0.327947	3.48236	0.198754	2.07381	0.327846	3.48414	0.636223	6.7148	0.727375	7.741	0.822044	8.28185	0.524844	5.56818	0.697462	7.37616	0.86917	8.74384
0.329169	3.4611	0.200836	2.07536	0.329068	3.46283	0.640493	6.69405	0.733229	7.72669	0.826687	8.25116	0.526919	5.53548	0.702291	7.35477	0.873145	8.70227
0.330397	3.4403	0.202918	2.07688	0.330295	3.442	0.644703	6.67307	0.739082	7.71264	0.831386	8.22162	0.528955	5.503	0.707125	7.33384	0.877139	8.66164
0.33163	3.41997	0.205	2.07837	0.331528	3.42163	0.648855	6.65189	0.744931	7.69882	0.835529	8.19677	0.530951	5.47074	0.711963	7.31334	0.881152	8.62194
0.33287	3.40008	0.207082	2.07983	0.332767	3.40171	0.652946	6.63051	0.750774	7.68522	0.839096	8.17625	0.532912	5.43873	0.716801	7.29324	0.885182	8.58312
0.334115	3.38063	0.209163	2.08126	0.334012	3.38222	0.656979	6.60893	0.756611	7.67179	0.842071	8.15973	0.534837	5.40696	0.721639	7.27352	0.88923	8.54518
0.335367	3.3616	0.211245	2.08266	0.335263	3.36316	0.660952	6.58716	0.762437	7.65852	0.844438	8.14695	0.536728	5.37546	0.726474	7.25413	0.893295	8.50807
0.336624	3.34298	0.213326	2.08403	0.33652	3.34451	0.664866	6.56521	0.768252	7.64538	0.846189	8.13771	0.538588	5.34422	0.731304	7.23504	0.897377	8.47177
0.337887	3.32477	0.215407	2.08538	0.337783	3.32626	0.668721	6.54308	0.774054	7.63235	0.847313	8.13187	0.540418	5.31325	0.736127	7.21624	0.901476	8.43626
0.339157	3.30694	0.217488	2.08671	0.339051	3.3084	0.672518	6.52079	0.77984	7.6194	0.848934	8.12356	0.542218	5.28256	0.740942	7.1977	0.905592	8.40153
0.340432	3.28949	0.219568	2.088	0.340326	3.29092	0.676257	6.49833	0.785607	7.60651	0.850704	8.11466	0.54399	5.25215	0.745746	7.17939	0.909724	8.36754
0.341713	3.27241	0.221649	2.08928	0.341607	3.27381	0.679938	6.47573	0.791356	7.59366	0.853124	8.10276	0.545736	5.22203	0.750538	7.16129	0.913338	8.33851
0.343001	3.2557	0.223729	2.09053	0.342894	3.25706	0.683562	6.45298	0.797082	7.58084	0.856205	8.08806	0.547457	5.19221	0.755316	7.14338	0.916429	8.31419
0.344294	3.23933	0.22581	2.09176	0.344187	3.24067	0.68713	6.43011	0.802785	7.56802	0.859961	8.07078	0.549153	5.16268	0.760078	7.12563	0.918991	8.29437
0.345594	3.2233	0.22789	2.09296	0.345486	3.22461	0.690641	6.40711	0.808463	7.55518	0.864411	8.05119	0.550827	5.13345	0.764823	7.10803	0.921021	8.27888
0.3469	3.2076	0.22997	2.09415	0.346791	3.20889	0.694098	6.384	0.814114	7.54232	0.869575	8.02961	0.552479	5.10452	0.769549	7.09056	0.922517	8.26759
0.348211	3.19223	0.23205	2.09531	0.348103	3.19349	0.6975	6.36078	0.819736	7.52942	0.874801	8.00896	0.55411	5.0759	0.774255	7.07319	0.923475	8.26041
0.349529	3.17717	0.234129	2.09645	0.34942	3.17841	0.700848	6.33747	0.825329	7.51647	0.880088	7.98922	0.555721	5.04758	0.778939	7.05593	0.924854	8.25015
0.350853	3.16242	0.236209	2.09757	0.350743	3.16363	0.704144	6.31407	0.830892	7.50346	0.885435	7.97035	0.557313	5.01956	0.7836	7.03874	0.926354	8.23908
0.352182	3.14797	0.238289	2.09868	0.352072	3.14916	0.707388	6.2906	0.836423	7.49039	0.890843	7.95233	0.558887	4.99185	0.788236	7.02162	0.928398	8.22416
0.353518	3.13381	0.240368	2.09976	0.353408	3.13497	0.71058	6.26707	0.841922	7.47725	0.896309	7.93513	0.560445	4.96444	0.792846	7.00455	0.930988	8.20551
0.35486	3.11994	0.242447	2.10083	0.354749	3.12108	0.713722	6.24348	0.847388	7.46403	0.901833	7.91872	0.561985	4.93735	0.797428	6.98752	0.934129	8.18327
0.356208	3.10634	0.244527	2.10188	0.356096	3.10746	0.716815	6.21984	0.852821	7.45074	0.907414	7.90307	0.563511	4.91055	0.801982	6.97052	0.937824	8.15762
0.357561	3.09302	0.246606	2.10291	0.357449	3.09411	0.71986	6.19617	0.858221	7.43737	0.91305	7.88815	0.565021	4.88406	0.806506	6.95353	0.94208	8.12876
0.35892	3.07995	0.248685	2.10392	0.358808	3.08102	0.722857	6.17246	0.863587	7.42394	0.91874	7.87392	0.566518	4.85787	0.810999	6.93655	0.946351	8.10049
0.360286	3.06715	0.250764	2.10491	0.360173	3.06819	0.725807	6.14874	0.86892	7.41043	0.924481	7.86036	0.568001	4.83199	0.81546	6.91956	0.950638	8.0728
0.361657	3.05459	0.252842	2.10589	0.361543	3.05562	0.728713	6.12501	0.87422	7.39686	0.930272	7.84743	0.569471	4.8064	0.819888	6.90256	0.954941	8.04569
0.363034	3.04228	0.254921	2.10686	0.36292	3.04329	0.731573	6.10127	0.879488	7.38322	0.93611	7.83511	0.57093	4.78112	0.824282	6.88554	0.959259	8.01912
0.364416	3.03021	0.257	2.10781	0.364302	3.0312	0.73439	6.07754	0.884723	7.36953	0.941995	7.82335	0.572377	4.75613	0.82864	6.8685	0.963594	7.9931
0.365805	3.01837	0.259078	2.10874	0.36569	3.01934	0.737164	6.05382	0.889926	7.35579	0.947923	7.81213	0.573813	4.73143	0.832963	6.85142	0.967943	7.9676
0.367199	3.00676	0.261157	2.10966	0.367083	3.00771	0.739897	6.03013	0.895098	7.342	0.953892	7.80143	0.575239	4.70703	0.83725	6.8343	0.972309	7.94262
0.368599	2.99537	0.263235	2.11056	0.368483	2.9963	0.742589	6.00646	0.900239	7.32816	0.959901	7.7912	0.576656	4.68292	0.841499	6.81714	0.976689	7.91814
0.370004	2.98419	0.265313	2.11145	0.369887	2.98511	0.745242	5.98283	0.90535	7.31429	0.965947	7.78143	0.578063	4.65909	0.845709	6.79993	0.981085	7.89415
0.371415	2.97323	0.267392	2.11233	0.371298	2.97413	0.747855	5.95924	0.910431	7.30039	0.972028	7.77208	0.579461	4.63555	0.849882	6.78266	0.985496	7.87064
0.372831	2.96247	0.26947	2.11319	0.372714	2.96335	0.750431	5.93569	0.915483	7.28647	0.978142	7.76314	0.580851	4.61229	0.854015	6.76534	0.989922	7.8476
0.374253	2.95192	0.271548	2.11404	0.374135	2.95278	0.75297	5.91221	0.920506	7.27252	0.984286	7.75456	0.582233	4.58932	0.858108	6.74797	0.994363	7.825
0.37568	2.94156	0.273626	2.11488	0.375562	2.94241	0.755473	5.88878	0.925501	7.25855	0.99046	7.74634	0.583608	4.56662	0.862162	6.73053	0.998818	7.80285
0.377113	2.93139	0.275703	2.11571	0.376995	2.93223	0.757941	5.86542	0.930467	7.24456	0.996661	7.73845	0.584976	4.54419	0.866175	6.71303	1.00329	7.78113
0.378551	2.92141	0.277781	2.11652	0.378432	2.92223	0.760375	5.84213	0.935406	7.23056	1.00289	7.73087	0.586337	4.52204	0.870147	6.69547		
0.379995	2.91162	0.279859	2.11732	0.379875	2.91242	0.762775	5.81892	0.940317	7.21655			0.587692	4.50015	0.874078	6.67784		
0.381444	2.902	0.281937	2.11811	0.381324	2.90279	0.765143	5.79579	0.945201	7.20253			0.589041	4.47853	0.877968	6.66016		
0.382898	2.89256	0.284014	2.11888	0.382777	2.89333	0.76748	5.77275	0.950057	7.1885			0.590385	4.45717	0.881817	6.64241		
0.384357	2.88329	0.286092	2.11965	0.384236	2.88405	0.769785	5.7498	0.954886	7.17446			0.591724	4.43608	0.885625	6.6246		
0.385821	2.87419	0.288169	2.1204	0.3857	2.87493	0.772061	5.72694	0.959688	7.16041			0.593057	4.41523	0.889391	6.60673		
0.387291	2.86525	0.290247	2.12115	0.387169	2.86598	0.774308	5.70418	0.964462	7.14636			0.594386	4.39465	0.893116	6.5888		
0.388765	2.85647	0.292324	2.12188	0.388643	2.85719	0.776526	5.68153	0.96921	7.1323			0.595711	4.37431	0.8968	6.57081		
0.390245	2.84784	0.294401	2.1226	0.390122	2.84855	0.778716	5.65898	0.97393	7.11823			0.597032	4.35422	0.900443	6.55277		
0.391729	2.83937	0.296478	2.12332	0.391607	2.84007	0.78088	5.63654	0.978622	7.10415			0.598349	4.33437	0.904045	6.53468		
0.393219	2.83105	0.298555	2.12402	0.393096	2.83173	0.783018	5.61421	0.983287	7.09006			0.599663	4.31477	0.907607	6.51654		
0.394713	2.82287	0.300632	2.12471	0.39459	2.82354	0.78513	5.592	0.987923	7.07595			0.600973	4.2954	0.911128	6.49835		
0.396213	2.81484	0.302709	2.1254	0.396088	2.8155	0.787217	5.5699	0.992532	7.06183			0.602281	4.27627	0.914609	6.48011		
0.397717	2.80695	0.304786	2.12607	0.397592	2.80759	0.78928	5.54793	0.997112	7.0477			0.603586	4.25737	0.918051	6.46184		
0.399225	2.79919	0.306863	2.12674	0.399101	2.79982	0.79132	5.52608	1.00166	7.03355			0.604888	4.2387	0.921453	6.44353		
0.400739	2.79156	0.30894	2.12739	0.400614	2.79219	0.793337	5.50435					0.606188	4.22026	0.924816	6.42519		
0.402257	2.78407	0.311017	2.12804	0.402132	2.78469	0.795332	5.48275					0.607486	4.20204	0.92814	6.40681		
0.40378	2.77671	0.313093	2.12868	0.403654	2.77731	0.797305	5.46128					0.608782	4.18404	0.931427	6.38841		
0.405307	2.76946	0.31517	2.12931	0.405181	2.77006	0.799258	5.43993					0.610076	4.16626	0.934676	6.36999		
0.406839	2.76235	0.317247	2.12993	0.406713	2.76293	0.80119	5.41872					0.611369	4.14869	0.937887	6.35155		
0.408376	2.75535	0.319323	2.13055	0.408249	2.75592	0.803102	5.39764					0.61266	4.13133	0.941062	6.33309		
0.409917	2.74847	0.3214	2.13116	0.409789	2.74903	0.804995	5.3767					0.61395	4.11418	0.944201	6.31462		
0.411462	2.7417	0.323476	2.13175	0.411334	2.74226	0.80687	5.35589					0.615239	4.09724	0.947304	6.29614		
0.413012	2.73505	0.325552	2.13234	0.412884	2.7356	0.808726	5.33522					0.616528	4.0805	0.950372	6.27766		
0.414566	2.72851	0.327629	2.13293	0.414438	2.72904	0.810565	5.31468					0.617815	4.06396	0.953405	6.25917		
0.416125	2.72207	0.329705	2.1335	0.415996	2.7226	0.812386	5.29428					0.619102	4.04762	0.956404	6.24069		
0.417687	2.71574	0.331781	2.13407	0.417558	2.71626	0.814191	5.27402					0.620388	4.03147	0.95937	6.22221		
0.419254	2.70952	0.333857	2.13464	0.419124	2.71003	0.81598	5.2539					0.621674	4.01552	0.962302	6.20374		
0.420825	2.70339	0.335933	2.13519	0.420695	2.70389	0.817753	5.23392					0.62296	3.99975	0.965202	6.18529		
0.4224	2.69737	0.33801	2.13574	0.42227	2.69786	0.819511	5.21407					0.624246	3.98417	0.96807	6.16685		
0.423979	2.69144	0.340086	2.13628	0.423849	2.69192	0.821254	5.19437					0.625531	3.96878	0.970907	6.14843		
0.425563	2.6856	0.342162	2.13681	0.425432	2.68608	0.822982	5.17481					0.626817	3.95357	0.973712	6.13003		
0.42715	2.67986	0.344238	2.13734	0.427019	2.68034	0.824697	5.15539					0.628103	3.93853	0.976488	6.11165		
0.428741	2.67422	0.346313	2.13786	0.42861	2.67468	0.826398	5.13611					0.62939	3.92368	0.979234	6.0933		
0.430337	2.66866	0.348389	2.13838	0.430205	2.66911	0.828086	5.11697					0.630676	3.90899	0.98195	6.07499		
0.431936	2.66319	0.350465	2.13889	0.431803	2.66364	0.82976	5.09797					0.631964	3.89448	0.984637	6.0567		
0.433539	2.6578	0.352541	2.13939	0.433406	2.65824	0.831423	5.07911					0.633252	3.88014	0.987297	6.03845		
0.435145	2.6525	0.354617	2.13989	0.435012	2.65294	0.833074	5.06039					0.63454	3.86597	0.989928	6.02024		
0.436756	2.64729	0.356692	2.14038	0.436623	2.64771	0.834712	5.04181					0.635829	3.85196	0.992533	6.00207		
0.43837	2.64215	0.358768	2.14087	0.438237	2.64257	0.83634	5.02337					0.63712	3.83811	0.99511	5.98395		
0.439988	2.63709	0.360844	2.14135	0.439854	2.63751	0.837956	5.00507					0.638411	3.82442	0.997662	5.96587		
0.44161	2.63211	0.362919	2.14182	0.441476	2.63252	0.839562	4.98691					0.639703	3.81089	1.00019	5.94783		
0.443235	2.62721	0.364995	2.14229	0.443101	2.62761	0.841157	4.96889					0.640996	3.79752				
0.444864	2.62238	0.36707	2.14276	0.444729	2.62278	0.842742	4.951					0.642291	3.7843				
0.446496	2.61763	0.369146	2.14322	0.446361	2.61802	0.844318	4.93325					0.643586	3.77123				
0.448132	2.61295	0.371221	2.14367	0.447997	2.61333	0.845884	4.91564					0.644883	3.75831				
0.449772	2.60834	0.373296	2.14412	0.449636	2.60872	0.847441	4.89817					0.646181	3.74554				
0.451415	2.6038	0.375372	2.14456	0.451279	2.60417	0.848989	4.88083					0.647481	3.73291				
0.453061	2.59932	0.377447	2.145	0.452925	2.59969	0.850528	4.86363					0.648782	3.72043				
0.45471	2.59492	0.379522	2.14544	0.454574	2.59528	0.852059	4.84657					0.650084	3.70809				
0.456363	2.59058	0.381598	2.14587	0.456227	2.59093	0.853582	4.82963					0.651389	3.69589				
0.45802	2.5863	0.383673	2.14629	0.457883	2.58665	0.855097	4.81283					0.652694	3.68382				
0.459679	2.58209	0.385748	2.14671	0.459542	2.58243	0.856604	4.79617					0.654002	3.67189				
0.461342	2.57794	0.387823	2.14713	0.461205	2.57828	0.858104	4.77963					0.655311	3.66009				
0.463008	2.57385	0.389898	2.14754	0.46287	2.57418	0.859597	4.76323					0.656621	3.64843				
0.464677	2.56981	0.391973	2.14794	0.464539	2.57015	0.861082	4.74695					0.657934	3.63689				
0.46635	2.56584	0.394048	2.14835	0.466212	2.56617	0.862562	4.73081					0.659248	3.62549				
0.468025	2.56193	0.396123	2.14874	0.467887	2.56225	0.864034	4.71479					0.660564	3.61421				
0.469704	2.55807	0.398198	2.14914	0.469565	2.55839	0.865501	4.69891					0.661882	3.60305				
0.471386	2.55427	0.400273	2.14953	0.471247	2.55458	0.866961	4.68315					0.663202	3.59202				
0.47307	2.55052	0.402348	2.14991	0.472931	2.55083	0.868416	4.66751					0.664524	3.58111				
0.474758	2.54683	0.404423	2.1503	0.474618	2.54713	0.869865	4.652					0.665848	3.57031				
0.476449	2.54319	0.406498	2.15067	0.476309	2.54348	0.871308	4.63662					0.667174	3.55964				
0.478142	2.5396	0.408572	2.15105	0.478002	2.53989	0.872746	4.62136					0.668502	3.54908				
0.479839	2.53606	0.410647	2.15142	0.479698	2.53635	0.874179	4.60622					0.669832	3.53864				
0.481538	2.53257	0.412722	2.15178	0.481397	2.53285	0.875607	4.59121					0.671164	3.52831				
0.48324	2.52913	0.414797	2.15215	0.483099	2.52941	0.87703	4.57631					0.672498	3.51809				
0.484945	2.52573	0.416871	2.15251	0.484804	2.52601	0.878448	4.56154					0.673834	3.50799				
0.486653	2.52239	0.418946	2.15286	0.486512	2.52266	0.879863	4.54688					0.675173	3.49799				
0.488364	2.51909	0.421021	2.15321	0.488222	2.51936	0.881272	4.53235					0.676514	3.4881				
0.490077	2.51584	0.423095	2.15356	0.489935	2.5161	0.882678	4.51793					0.677856	3.47831				
0.491793	2.51263	0.42517	2.15391	0.491651	2.51289	0.88408	4.50362					0.679201	3.46863				
0.493512	2.50946	0.427244	2.15425	0.493369	2.50972	0.885477	4.48944					0.680549	3.45905				
0.495233	2.50634	0.429319	2.15459	0.49509	2.5066	0.886871	4.47536					0.681898	3.44958				
0.496957	2.50326	0.431393	2.15492	0.496814	2.50352	0.888262	4.46141					0.68325	3.4402				
0.498683	2.50023	0.433468	2.15525	0.498541	2.50048	0.889649	4.44756					0.684604	3.43093				
0.500413	2.49723	0.435542	2.15558	0.50027	2.49748	0.891033	4.43383					0.685961	3.42175				
0.502144	2.49428	0.437617	2.15591	0.502001	2.49452	0.892413	4.4202					0.68732	3.41266				
0.503878	2.49136	0.439691	2.15623	0.503735	2.4916	0.893791	4.40669					0.688681	3.40368				
0.505615	2.48848	0.441765	2.15655	0.505472	2.48872	0.895165	4.39329					0.690044	3.39478				
0.507354	2.48564	0.44384	2.15686	0.507211	2.48588	0.896537	4.37999					0.69141	3.38598				
0.509096	2.48284	0.445914	2.15718	0.508952	2.48307	0.897906	4.3668					0.692778	3.37727				
0.51084	2.48008	0.447988	2.15749	0.510696	2.48031	0.899272	4.35372					0.694149	3.36865				
0.512586	2.47735	0.450062	2.1578	0.512442	2.47758	0.900636	4.34074					0.695522	3.36012				
0.514335	2.47466	0.452137	2.1581	0.514191	2.47488	0.901998	4.32787					0.696897	3.35168				
0.516087	2.47201	0.454211	2.1584	0.515942	2.47223	0.903357	4.3151					0.698275	3.34333				
0.51784	2.46939	0.456285	2.1587	0.517695	2.4696	0.904714	4.30244					0.699655	3.33506				
0.519596	2.4668	0.458359	2.159	0.519451	2.46701	0.906069	4.28988					0.701037	3.32687				
0.521354	2.46425	0.460433	2.15929	0.521209	2.46446	0.907422	4.27741					0.702422	3.31877				
0.523114	2.46173	0.462507	2.15958	0.522969	2.46193	0.908774	4.26505					0.70381	3.31075				
0.524877	2.45924	0.464581	2.15987	0.524731	2.45944	0.910123	4.25279					0.7052	3.30281				
0.526642	2.45678	0.466655	2.16015	0.526496	2.45698	0.911471	4.24062					0.706592	3.29496				
0.528409	2.45436	0.468729	2.16044	0.528263	2.45456	0.912817	4.22856					0.707986	3.28718				
0.530178	2.45197	0.470803	2.16072	0.530032	2.45216	0.914161	4.21659					0.709384	3.27948				
0.531949	2.4496	0.472877	2.161	0.531803	2.4498	0.915504	4.20471					0.710783	3.27186				
0.533723	2.44727	0.474951	2.16127	0.533576	2.44746	0.916846	4.19293					0.712185	3.26431				
0.535499	2.44497	0.477025	2.16154	0.535352	2.44516	0.918187	4.18125					0.71359	3.25684				
0.537276	2.44269	0.479099	2.16182	0.537129	2.44288	0.919526	4.16965					0.714997	3.24944				
0.539056	2.44045	0.481173	2.16208	0.538909	2.44063	0.920864	4.15815					0.716406	3.24212				
0.540838	2.43823	0.483247	2.16235	0.540691	2.43841	0.922201	4.14675					0.717818	3.23487				
0.542622	2.43604	0.485321	2.16261	0.542474	2.43622	0.923537	4.13543					0.719232	3.22769				
0.544408	2.43388	0.487394	2.16288	0.54426	2.43405	0.924872	4.1242					0.720649	3.22058				
0.546196	2.43174	0.489468	2.16313	0.546048	2.43192	0.926206	4.11306					0.722068	3.21355				
0.547985	2.42963	0.491542	2.16339	0.547837	2.4298	0.92754	4.10201					0.72349	3.20658				
0.549777	2.42755	0.493616	2.16365	0.549629	2.42772	0.928873	4.09105					0.724914	3.19968				
0.551571	2.42549	0.495689	2.1639	0.551423	2.42566	0.930205	4.08017					0.72634	3.19284				
0.553367	2.42346	0.497763	2.16415	0.553218	2.42362	0.931536	4.06938					0.727769	3.18608				
0.555164	2.42145	0.499837	2.1644	0.555016	2.42161	0.932867	4.05868					0.729201	3.17937				
0.556964	2.41946	0.50191	2.16464	0.556815	2.41963	0.934197	4.04806					0.730635	3.17274				
0.558765	2.41751	0.503984	2.16489	0.558616	2.41767	0.935527	4.03752					0.732071	3.16617				
0.560568	2.41557	0.506058	2.16513	0.560419	2.41573	0.936857	4.02707					0.73351	3.15966				
0.562373	2.41366	0.508131	2.16537	0.562224	2.41381	0.938186	4.01669					0.734951	3.15321				
0.56418	2.41177	0.510205	2.16561	0.564031	2.41192	0.939515	4.0064					0.736395	3.14682				
0.565989	2.4099	0.512278	2.16584	0.565839	2.41005	0.940844	3.99619					0.737841	3.1405				
0.567799	2.40806	0.514352	2.16608	0.567649	2.40821	0.942173	3.98606					0.73929	3.13424				
0.569611	2.40623	0.516425	2.16631	0.569461	2.40638	0.943501	3.97601					0.740741	3.12803				
0.571425	2.40443	0.518499	2.16654	0.571275	2.40458	0.94483	3.96603					0.742194	3.12189				
0.573241	2.40265	0.520572	2.16677	0.573091	2.4028	0.946158	3.95614					0.74365	3.1158				
0.575058	2.4009	0.522646	2.167	0.574908	2.40104	0.947486	3.94632					0.745108	3.10977				
0.576877	2.39916	0.524719	2.16722	0.576727	2.3993	0.948815	3.93658					0.746569	3.1038				
0.578698	2.39744	0.526793	2.16744	0.578547	2.39758	0.950143	3.92691					0.748032	3.09788				
0.58052	2.39574	0.528866	2.16766	0.580369	2.39588	0.951472	3.91732					0.749497	3.09202				
0.582344	2.39407	0.530939	2.16788	0.582193	2.3942	0.952801	3.9078					0.750965	3.08621				
0.58417	2.39241	0.533013	2.1681	0.584019	2.39254	0.95413	3.89835					0.752435	3.08046				
0.585997	2.39077	0.535086	2.16832	0.585846	2.3909	0.955459	3.88898					0.753908	3.07476				
0.587826	2.38915	0.537159	2.16853	0.587675	2.38928	0.956789	3.87968					0.755383	3.06911				
0.589657	2.38755	0.539232	2.16874	0.589505	2.38768	0.958119	3.87045					0.75686	3.06352				
0.591489	2.38596	0.541306	2.16896	0.591337	2.38609	0.95945	3.86129					0.75834	3.05798				
0.593322	2.3844	0.543379	2.16917	0.593171	2.38453	0.96078	3.8522					0.759822	3.05249				
0.595157	2.38285	0.545452	2.16937	0.595006	2.38298	0.962112	3.84318					0.761306	3.04704				
0.596994	2.38132	0.547525	2.16958	0.596842	2.38145	0.963443	3.83423					0.762793	3.04165				
0.598832	2.37981	0.549598	2.16978	0.59868	2.37994	0.964776	3.82535					0.764282	3.03631				
0.600672	2.37832	0.551672	2.16999	0.60052	2.37844	0.966108	3.81654					0.765774	3.03102				
0.602513	2.37684	0.553745	2.17019	0.602361	2.37696	0.967442	3.80779					0.767268	3.02577				
0.604356	2.37538	0.555818	2.17039	0.604204	2.3755	0.968776	3.79911					0.768764	3.02057				
0.6062	2.37393	0.557891	2.17059	0.606048	2.37405	0.97011	3.79049					0.770262	3.01542				
0.608046	2.3725	0.559964	2.17078	0.607893	2.37262	0.971445	3.78194					0.771763	3.01032				
0.609893	2.37109	0.562037	2.17098	0.60974	2.37121	0.972781	3.77346					0.773266	3.00526				
0.611741	2.36969	0.56411	2.17117	0.611589	2.36981	0.974118	3.76503					0.774771	3.00024				
0.613591	2.36831	0.566183	2.17136	0.613438	2.36843	0.975455	3.75667					0.776279	2.99528				
0.615443	2.36695	0.568256	2.17155	0.61529	2.36706	0.976793	3.74838					0.777789	2.99035				
0.617295	2.36559	0.570329	2.17174	0.617142	2.36571	0.978132	3.74014					0.779301	2.98547				
0.619149	2.36426	0.572402	2.17193	0.618996	2.36437	0.979472	3.73197					0.780816	2.98064				
0.621005	2.36294	0.574475	2.17212	0.620851	2.36305	0.980812	3.72386					0.782332	2.97584				
0.622862	2.36163	0.576548	2.1723	0.622708	2.36174	0.982154	3.71581					0.783851	2.97109				
0.62472	2.36034	0.578621	2.17249	0.624566	2.36044	0.983496	3.70782					0.785373	2.96638				
0.626579	2.35906	0.580694	2.17267	0.626425	2.35916	0.984839	3.69988					0.786896	2.96171				
0.62844	2.35779	0.582767	2.17285	0.628286	2.3579	0.986183	3.69201					0.788422	2.95708				
0.630302	2.35654	0.584839	2.17303	0.630148	2.35664	0.987528	3.6842					0.78995	2.9525				
0.632165	2.3553	0.586912	2.17321	0.632011	2.35541	0.988874	3.67644					0.79148	2.94795				
0.63403	2.35408	0.588985	2.17339	0.633876	2.35418	0.990221	3.66874					0.793012	2.94344				
0.635896	2.35287	0.591058	2.17356	0.635742	2.35297	0.991569	3.66109					0.794547	2.93898				
0.637763	2.35167	0.593131	2.17374	0.637609	2.35177	0.992918	3.65351					0.796083	2.93455				
0.639631	2.35048	0.595203	2.17391	0.639477	2.35058	0.994268	3.64598					0.797622	2.93016				
0.641501	2.34931	0.597276	2.17408	0.641346	2.34941	0.995619	3.6385					0.799163	2.9258				
0.643372	2.34815	0.599349	2.17425	0.643217	2.34825	0.996972	3.63108					0.800707	2.92149				
0.645244	2.347	0.601422	2.17442	0.645089	2.3471	0.998325	3.62371					0.802252	2.91721				
0.647117	2.34587	0.603494	2.17459	0.646962	2.34596	0.999679	3.61639					0.8038	2.91297				
0.648992	2.34474	0.605567	2.17476	0.648837	2.34483	1.00103	3.60913					0.805349	2.90876				
0.650867	2.34363	0.60764	2.17493	0.650712	2.34372							0.806901	2.90459				
0.652744	2.34253	0.609712	2.17509	0.652589	2.34262							0.808455	2.90046				
0.654622	2.34144	0.611785	2.17526	0.654467	2.34153							0.810011	2.89636				
0.656502	2.34036	0.613857	2.17542	0.656346	2.34045							0.811569	2.8923				
0.658382	2.3393	0.61593	2.17558	0.658226	2.33938							0.81313	2.88827				
0.660263	2.33824	0.618003	2.17574	0.660108	2.33833							0.814692	2.88427				
0.662146	2.3372	0.620075	2.1759	0.66199	2.33728							0.816256	2.88031				
0.66403	2.33616	0.622148	2.17606	0.663874	2.33625							0.817823	2.87638				
0.665914	2.33514	0.62422	2.17622	0.665759	2.33522							0.819391	2.87248				
0.6678	2.33413	0.626293	2.17637	0.667644	2.33421							0.820962	2.86862				
0.669687	2.33312	0.628365	2.17653	0.669531	2.33321							0.822535	2.86479				
0.671575	2.33213	0.630438	2.17668	0.671419	2.33221							0.824109	2.86099				
0.673464	2.33115	0.63251	2.17683	0.673308	2.33123							0.825686	2.85722				
0.675355	2.33018	0.634582	2.17699	0.675198	2.33026							0.827265	2.85349				
0.677246	2.32922	0.636655	2.17714	0.67709	2.32929							0.828846	2.84978				
0.679138	2.32826	0.638727	2.17729	0.678982	2.32834							0.830429	2.84611				
0.681032	2.32732	0.6408	2.17743	0.680875	2.3274							0.832013	2.84246				
0.682926	2.32639	0.642872	2.17758	0.682769	2.32646							0.8336	2.83885				
0.684821	2.32546	0.644944	2.17773	0.684665	2.32554							0.835189	2.83526				
0.686718	2.32455	0.647017	2.17788	0.686561	2.32462							0.83678	2.8317				
0.688615	2.32364	0.649089	2.17802	0.688458	2.32372							0.838372	2.82818				
0.690513	2.32275	0.651161	2.17816	0.690356	2.32282							0.839967	2.82468				
0.692413	2.32186	0.653234	2.17831	0.692256	2.32193							0.841564	2.82121				
0.694313	2.32098	0.655306	2.17845	0.694156	2.32105							0.843162	2.81777				
0.696214	2.32011	0.657378	2.17859	0.696057	2.32018							0.844763	2.81435				
0.698117	2.31925	0.65945	2.17873	0.697959	2.31932							0.846365	2.81097				
0.70002	2.31839	0.661522	2.17887	0.699862	2.31846							0.84797	2.80761				
0.701924	2.31755	0.663595	2.17901	0.701766	2.31762							0.849576	2.80427				
0.703829	2.31671	0.665667	2.17915	0.703671	2.31678							0.851184	2.80097				
0.705735	2.31588	0.667739	2.17928	0.705577	2.31595							0.852794	2.79769				
0.707642	2.31506	0.669811	2.17942	0.707484	2.31513							0.854406	2.79444				
0.70955	2.31425	0.671883	2.17955	0.709392	2.31432							0.85602	2.79121				
0.711459	2.31345	0.673955	2.17969	0.711301	2.31351							0.857635	2.78801				
0.713368	2.31265	0.676028	2.17982	0.71321	2.31272							0.859253	2.78483				
0.715279	2.31186	0.6781	2.17995	0.715121	2.31193							0.860872	2.78168				
0.71719	2.31108	0.680172	2.18008	0.717032	2.31114							0.862493	2.77855				
0.719102	2.3103	0.682244	2.18022	0.718944	2.31037							0.864116	2.77545				
0.721016	2.30954	0.684316	2.18034	0.720857	2.3096							0.865741	2.77237				
0.72293	2.30878	0.686388	2.18047	0.722772	2.30884							0.867368	2.76932				
0.724845	2.30803	0.68846	2.1806	0.724686	2.30809							0.868996	2.76629				
0.72676	2.30728	0.690532	2.18073	0.726602	2.30734							0.870626	2.76328				
0.728677	2.30654	0.692604	2.18086	0.728519	2.30661							0.872259	2.7603				
0.730594	2.30581	0.694676	2.18098	0.730436	2.30587							0.873892	2.75734				
0.732513	2.30509	0.696748	2.18111	0.732354	2.30515							0.875528	2.75441				
0.734432	2.30437	0.69882	2.18123	0.734273	2.30443							0.877165	2.75149				
0.736352	2.30366	0.700892	2.18135	0.736193	2.30372							0.878804	2.7486				
0.738272	2.30296	0.702963	2.18148	0.738114	2.30302							0.880445	2.74573				
0.740194	2.30226	0.705035	2.1816	0.740035	2.30232							0.882088	2.74288				
0.742116	2.30157	0.707107	2.18172	0.741957	2.30163							0.883732	2.74006				
0.744039	2.30089	0.709179	2.18184	0.74388	2.30094							0.885378	2.73726				
0.745963	2.30021	0.711251	2.18196	0.745804	2.30026							0.887026	2.73447				
0.747888	2.29954	0.713323	2.18208	0.747729	2.29959							0.888676	2.73171				
0.749813	2.29887	0.715394	2.1822	0.749654	2.29893							0.890327	2.72897				
0.75174	2.29821	0.717466	2.18232	0.75158	2.29827							0.89198	2.72625				
0.753667	2.29756	0.719538	2.18243	0.753507	2.29761							0.893634	2.72356				
0.755594	2.29691	0.72161	2.18255	0.755435	2.29697							0.895291	2.72088				
0.757523	2.29627	0.723681	2.18266	0.757363	2.29632							0.896949	2.71822				
0.759452	2.29564	0.725753	2.18278	0.759293	2.29569							0.898608	2.71558				
0.761382	2.29501	0.727825	2.18289	0.761222	2.29506							0.90027	2.71296				
0.763313	2.29438	0.729897	2.18301	0.763153	2.29443							0.901932	2.71036				
0.765244	2.29376	0.731968	2.18312	0.765084	2.29382							0.903597	2.70778				
0.767176	2.29315	0.73404	2.18323	0.767017	2.2932							0.905263	2.70522				
0.769109	2.29254	0.736112	2.18334	0.768949	2.29259							0.906931	2.70268				
0.771043	2.29194	0.738183	2.18345	0.770883	2.29199							0.9086	2.70016				
0.772977	2.29135	0.740255	2.18356	0.772817	2.2914							0.910271	2.69766				
0.774912	2.29076	0.742326	2.18367	0.774752	2.2908							0.911944	2.69517				
0.776848	2.29017	0.744398	2.18378	0.776688	2.29022							0.913618	2.69271				
0.778784	2.28959	0.74647	2.18389	0.778624	2.28964							0.915294	2.69026				
0.780721	2.28902	0.748541	2.184	0.780561	2.28906							0.916971	2.68783				
0.782659	2.28845	0.750613	2.1841	0.782499	2.28849							0.91865	2.68542				
0.784597	2.28788	0.752684	2.18421	0.784437	2.28793							0.920331	2.68302				
0.786536	2.28732	0.754756	2.18431	0.786376	2.28737							0.922013	2.68064				
0.788476	2.28677	0.756827	2.18442	0.788316	2.28681							0.923697	2.67828				
0.790417	2.28622	0.758899	2.18452	0.790256	2.28626							0.925382	2.67594				
0.792358	2.28567	0.76097	2.18463	0.792197	2.28572							0.927069	2.67362				
0.794299	2.28513	0.763042	2.18473	0.794139	2.28517							0.928757	2.67131				
0.796242	2.28459	0.765113	2.18483	0.796081	2.28464							0.930447	2.66901				
0.798185	2.28406	0.767184	2.18494	0.798024	2.28411							0.932138	2.66674				
0.800128	2.28354	0.769256	2.18504	0.799968	2.28358							0.933831	2.66448				
0.802073	2.28302	0.771327	2.18514	0.801912	2.28306							0.935525	2.66224				
0.804017	2.2825	0.773399	2.18524	0.803857	2.28254							0.937221	2.66001				
0.805963	2.28199	0.77547	2.18534	0.805802	2.28203							0.938918	2.6578				
0.807909	2.28148	0.777541	2.18544	0.807748	2.28152							0.940617	2.6556				
0.809856	2.28097	0.779613	2.18554	0.809695	2.28101							0.942317	2.65342				
0.811803	2.28047	0.781684	2.18563	0.811642	2.28051							0.944019	2.65126				
0.813751	2.27998	0.783755	2.18573	0.81359	2.28002							0.945722	2.64911				
0.8157	2.27949	0.785826	2.18583	0.815539	2.27953							0.947426	2.64698				
0.817649	2.279	0.787898	2.18592	0.817488	2.27904							0.949132	2.64486				
0.819599	2.27852	0.789969	2.18602	0.819437	2.27856							0.95084	2.64276				
0.821549	2.27804	0.79204	2.18612	0.821388	2.27808							0.952549	2.64067				
0.8235	2.27757	0.794111	2.18621	0.823339	2.2776							0.954259	2.63859				
0.825451	2.2771	0.796183	2.1863	0.82529	2.27713							0.955971	2.63654				
0.827403	2.27663	0.798254	2.1864	0.827242	2.27667							0.957684	2.63449				
0.829356	2.27617	0.800325	2.18649	0.829195	2.2762							0.959398	2.63246				
0.831309	2.27571	0.802396	2.18658	0.831148	2.27575							0.961114	2.63044				
0.833263	2.27525	0.804467	2.18668	0.833101	2.27529							0.962832	2.62844				
0.835217	2.2748	0.806538	2.18677	0.835056	2.27484							0.96455	2.62645				
0.837172	2.27436	0.80861	2.18686	0.837011	2.27439							0.96627	2.62448				
0.839128	2.27391	0.810681	2.18695	0.838966	2.27395							0.967992	2.62252				
0.841084	2.27347	0.812752	2.18704	0.840922	2.27351							0.969715	2.62057				
0.84304	2.27304	0.814823	2.18713	0.842878	2.27307							0.971439	2.61864				
0.844997	2.2726	0.816894	2.18722	0.844835	2.27264							0.973164	2.61672				
0.846955	2.27218	0.818965	2.18731	0.846793	2.27221							0.974891	2.61481				
0.848913	2.27175	0.821036	2.1874	0.848751	2.27179							0.97662	2.61292				
0.850871	2.27133	0.823107	2.18748	0.85071	2.27136							0.978349	2.61103				
0.852831	2.27091	0.825178	2.18757	0.852669	2.27095							0.98008	2.60917				
0.85479	2.2705	0.827249	2.18766	0.854628	2.27053							0.981812	2.60731				
0.856751	2.27008	0.82932	2.18774	0.856588	2.27012							0.983546	2.60547				
0.858711	2.26968	0.831391	2.18783	0.858549	2.26971							0.98528	2.60364				
0.860672	2.26927	0.833462	2.18792	0.86051	2.26931							0.987016	2.60182				
0.862634	2.26887	0.835533	2.188	0.862472	2.2689							0.988754	2.60001				
0.864596	2.26847	0.837604	2.18809	0.864434	2.26851							0.990493	2.59822				
0.866559	2.26808	0.839675	2.18817	0.866397	2.26811							0.992233	2.59644				
0.868522	2.26769	0.841745	2.18825	0.86836	2.26772							0.993974	2.59467				
0.870486	2.2673	0.843816	2.18834	0.870324	2.26733							0.995716	2.59291				
0.87245	2.26691	0.845887	2.18842	0.872288	2.26695							0.99746	2.59116				
0.874415	2.26653	0.847958	2.1885	0.874253	2.26656							0.999205	2.58943				
0.87638	2.26615	0.850029	2.18858	0.876218	2.26618							1.00095	2.58771				
0.878346	2.26578	0.8521	2.18866	0.878183	2.26581												
0.880312	2.2654	0.85417	2.18875	0.880149	2.26543												
0.882279	2.26503	0.856241	2.18883	0.882116	2.26506												
0.884246	2.26467	0.858312	2.18891	0.884083	2.2647												
0.886213	2.2643	0.860383	2.18899	0.88605	2.26433												
0.888181	2.26394	0.862453	2.18907	0.888018	2.26397												
0.89015	2.26358	0.864524	2.18914	0.889987	2.26361												
0.892119	2.26323	0.866595	2.18922	0.891956	2.26326												
0.894088	2.26288	0.868666	2.1893	0.893925	2.26291												
0.896058	2.26253	0.870736	2.18938	0.895895	2.26256												
0.898028	2.26218	0.872807	2.18946	0.897865	2.26221												
0.899999	2.26184	0.874878	2.18953	0.899836	2.26186												
0.90197	2.26149	0.876948	2.18961	0.901807	2.26152												
0.903941	2.26116	0.879019	2.18969	0.903778	2.26118												
0.905913	2.26082	0.881089	2.18976	0.90575	2.26085												
0.907886	2.26049	0.88316	2.18984	0.907723	2.26051												
0.909859	2.26016	0.885231	2.18991	0.909696	2.26018												
0.911832	2.25983	0.887301	2.18999	0.911669	2.25985												
0.913806	2.2595	0.889372	2.19006	0.913643	2.25953												
0.91578	2.25918	0.891442	2.19014	0.915617	2.2592												
0.917755	2.25886	0.893513	2.19021	0.917591	2.25888												
0.91973	2.25854	0.895583	2.19028	0.919566	2.25857												
0.921705	2.25822	0.897654	2.19035	0.921542	2.25825												
0.923681	2.25791	0.899724	2.19043	0.923518	2.25794												
0.925657	2.2576	0.901795	2.1905	0.925494	2.25762												
0.927634	2.25729	0.903865	2.19057	0.92747	2.25732												
0.929611	2.25698	0.905936	2.19064	0.929447	2.25701												
0.931588	2.25668	0.908006	2.19071	0.931425	2.25671												
0.933566	2.25638	0.910076	2.19078	0.933403	2.2564												
0.935544	2.25608	0.912147	2.19085	0.935381	2.2561												
0.937523	2.25578	0.914217	2.19092	0.937359	2.25581												
0.939502	2.25549	0.916288	2.19099	0.939338	2.25551												
0.941481	2.2552	0.918358	2.19106	0.941318	2.25522												
0.943461	2.25491	0.920428	2.19113	0.943297	2.25493												
0.945441	2.25462	0.922499	2.1912	0.945278	2.25464												
0.947422	2.25433	0.924569	2.19127	0.947258	2.25436												
0.949403	2.25405	0.926639	2.19134	0.949239	2.25407												
0.951384	2.25377	0.928709	2.1914	0.95122	2.25379												
0.953366	2.25349	0.93078	2.19147	0.953202	2.25351												
0.955348	2.25321	0.93285	2.19154	0.955184	2.25323												
0.95733	2.25294	0.93492	2.1916	0.957166	2.25296												
0.959313	2.25266	0.93699	2.19167	0.959149	2.25269												
0.961296	2.25239	0.939061	2.19174	0.961132	2.25241												
0.963279	2.25212	0.941131	2.1918	0.963116	2.25215												
0.965263	2.25186	0.943201	2.19187	0.965099	2.25188												
0.967248	2.25159	0.945271	2.19193	0.967084	2.25161												
0.969232	2.25133	0.947341	2.192	0.969068	2.25135												
0.971217	2.25107	0.949411	2.19206	0.971053	2.25109												
0.973202	2.25081	0.951482	2.19212	0.973038	2.25083												
0.975188	2.25055	0.953552	2.19219	0.975024	2.25057												
0.977174	2.2503	0.955622	2.19225	0.97701	2.25032												
0.97916	2.25004	0.957692	2.19232	0.978996	2.25006												
0.981147	2.24979	0.959762	2.19238	0.980983	2.24981												
0.983134	2.24954	0.961832	2.19244	0.98297	2.24956												
0.985121	2.24929	0.963902	2.1925	0.984957	2.24931												
0.987109	2.24905	0.965972	2.19256	0.986944	2.24907												
0.989097	2.2488	0.968042	2.19263	0.988933	2.24882												
0.991085	2.24856	0.970112	2.19269	0.990921	2.24858												
0.993074	2.24832	0.972182	2.19275	0.992909	2.24834												
0.995063	2.24808	0.974252	2.19281	0.994898	2.2481												
0.997052	2.24784	0.976322	2.19287	0.996888	2.24786												
0.999042	2.24761	0.978392	2.19293	0.998877	2.24763												
1.00103	2.24737	0.980462	2.19299	1.00087	2.24739												
		0.982532	2.19305														
		0.984602	2.19311														
		0.986671	2.19317														
		0.988741	2.19323														
		0.990811	2.19329														
		0.992881	2.19334														
		0.994951	2.1934														
		0.997021	2.19346														
		0.99909	2.19352														
		1.00116	2.19357														
