Sym0		Asym0		Sym1		Sym2		Sym3		Sym4		Asym1		Asym2		Asym3		Asym4	
482  Points		493  Points		482  Points		291  Points		150  Points		139  Points		417  Points		174  Points		174  Points		136  Points	
Freq (MHz)	Vph (m/ms)	Freq (MHz)	Vph (m/ms)	Freq (MHz)	Vph (m/ms)	Freq (MHz)	Vph (m/ms)	Freq (MHz)	Vph (m/ms)	Freq (MHz)	Vph (m/ms)	Freq (MHz)	Vph (m/ms)	Freq (MHz)	Vph (m/ms)	Freq (MHz)	Vph (m/ms)	Freq (MHz)	Vph (m/ms)
0.00337884	7.18766	0.000702093	0.269348	0.0056027	7.18759	0.279512	955.893	0.334241	529.587	0.559023	1460.09	0.139806	269.603	0.419287	586.452	0.419282	661.205	0.668439	972.572
0.0100749	7.18721	0.00128378	0.362821	0.0122983	7.18699	0.279569	228.387	0.334361	213.946	0.559083	425.299	0.140161	96.6456	0.419392	254.694	0.41938	267.835	0.668457	412.887
0.0167691	7.18631	0.00202876	0.453859	0.0189916	7.18592	0.279696	129.741	0.334583	134.127	0.55921	248.952	0.140848	59.1314	0.41958	162.732	0.41956	167.991	0.66849	262.083
0.0234601	7.18494	0.00292783	0.542018	0.0256811	7.18438	0.279892	90.6535	0.334907	97.7483	0.559403	176.026	0.141861	42.8112	0.41985	119.614	0.419823	122.426	0.668539	191.978
0.0301465	7.18309	0.00397033	0.626886	0.0323657	7.18237	0.280157	69.7048	0.335335	76.9486	0.559663	136.183	0.143192	33.7291	0.420202	94.6031	0.420168	96.3489	0.668603	151.471
0.036827	7.18076	0.00514507	0.708189	0.039044	7.17988	0.280488	56.6542	0.335868	63.4957	0.559988	111.079	0.144828	27.975	0.420636	78.2807	0.420595	79.4686	0.668683	125.087
0.0435003	7.17796	0.00644031	0.785709	0.0457145	7.17691	0.280885	47.7487	0.336506	54.0892	0.560379	93.8181	0.146757	24.0241	0.421151	66.7951	0.421103	67.6549	0.668781	106.537
0.0501647	7.17464	0.00784442	0.859333	0.0523758	7.17343	0.281346	41.2878	0.33725	47.1481	0.560836	81.2249	0.148964	21.1584	0.421748	58.2781	0.421693	58.9287	0.668896	92.7843
0.056819	7.17081	0.00934619	0.929026	0.0590262	7.16942	0.281869	36.3891	0.338103	41.8202	0.561359	71.6345	0.151435	18.9955	0.422425	51.7138	0.422363	52.223	0.669031	82.1819
0.0634612	7.16643	0.0109346	0.99479	0.0656642	7.16486	0.282451	32.5492	0.339066	37.6055	0.561947	64.0897	0.154153	17.3131	0.423182	46.5024	0.423113	46.9116	0.669185	73.7593
0.0700899	7.1615	0.0125998	1.05671	0.0722879	7.15974	0.283091	29.4599	0.34014	34.1915	0.562599	58.001	0.157103	15.9731	0.424018	42.2669	0.423942	42.6027	0.66936	66.9076
0.0767031	7.15599	0.0143321	1.11488	0.0788956	7.15402	0.283786	26.922	0.341326	31.3725	0.563317	52.9855	0.16027	14.885	0.424932	38.7584	0.424849	39.0387	0.669557	61.2254
0.0832989	7.14985	0.0161232	1.16945	0.0854851	7.14768	0.284535	24.8009	0.342627	29.008	0.564098	48.7839	0.163638	13.9875	0.425923	35.806	0.425834	36.0435	0.669777	56.4373
0.0898751	7.14308	0.0179653	1.22058	0.0920542	7.14067	0.285335	23.0027	0.344043	26.9982	0.564943	45.2139	0.167194	13.2372	0.426992	33.2885	0.426896	33.4921	0.670021	52.3482
0.0964294	7.13561	0.0198514	1.26843	0.0986008	7.13298	0.286185	21.4594	0.345576	25.2709	0.565852	42.1441	0.170923	12.6028	0.428136	31.1175	0.428033	31.2939	0.670291	48.8158
0.102959	7.12742	0.0217755	1.31319	0.105122	7.12453	0.287084	20.1211	0.347226	23.7719	0.566824	39.4771	0.174812	12.061	0.429354	29.2269	0.429246	29.3812	0.670587	45.7342
0.109462	7.11846	0.0237321	1.35506	0.111615	7.1153	0.288031	18.95	0.348994	22.4603	0.567859	37.1392	0.178849	11.5942	0.430646	27.5665	0.430531	27.7025	0.670911	43.0225
0.115935	7.10867	0.0257165	1.39419	0.118077	7.10522	0.289024	17.9171	0.350881	21.3043	0.568955	35.0737	0.183023	11.189	0.432011	26.0974	0.43189	26.2181	0.671263	40.6184
0.122374	7.098	0.0277244	1.43078	0.124504	7.09424	0.290065	16.9997	0.352887	20.279	0.570113	33.2362	0.187324	10.8348	0.433447	24.789	0.433319	24.8968	0.671646	38.4725
0.128776	7.08637	0.0297523	1.46499	0.130893	7.08229	0.291154	16.18	0.355012	19.3643	0.571332	31.5914	0.19174	10.5232	0.434953	23.6167	0.434819	23.7136	0.672059	36.5458
0.135136	7.07372	0.0315333	1.493	0.137239	7.06928	0.292291	15.4437	0.357255	18.5442	0.572611	30.1109	0.196264	10.2475	0.436528	22.5609	0.436388	22.6483	0.672504	34.8066
0.141451	7.05997	0.0330603	1.51563	0.143537	7.05514	0.29348	14.7789	0.359615	17.8056	0.573951	28.7717	0.200887	10.0022	0.43817	21.6054	0.438025	21.6847	0.672983	33.229
0.147716	7.04502	0.0343282	1.53352	0.148984	7.04182	0.294723	14.1764	0.362091	17.1376	0.575349	27.5548	0.2056	9.78307	0.439879	20.737	0.439728	20.8092	0.673495	31.7918
0.153924	7.02877	0.0353339	1.54717	0.153592	7.02968	0.296024	13.6282	0.364683	16.5313	0.576806	26.4446	0.210396	9.5863	0.441653	19.9446	0.441496	20.0106	0.674042	30.4772
0.160069	7.01112	0.0360748	1.55693	0.157377	7.01906	0.297386	13.1278	0.367388	15.9791	0.578322	25.4279	0.215268	9.4089	0.44349	19.219	0.443328	19.2795	0.674626	29.2705
0.166146	6.99195	0.0365498	1.56306	0.160353	7.01027	0.298816	12.6698	0.370204	15.4745	0.579894	24.4937	0.220211	9.24831	0.445389	18.5522	0.445222	18.6079	0.675246	28.1591
0.172146	6.97112	0.0372332	1.57171	0.16253	7.00358	0.300319	12.2497	0.37313	15.0121	0.581523	23.6325	0.225217	9.1024	0.44735	17.9377	0.447177	17.9891	0.675905	27.1324
0.178061	6.94849	0.0379772	1.58091	0.163919	6.99919	0.301903	11.8635	0.376163	14.5874	0.583209	22.8363	0.230282	8.96935	0.449369	17.3698	0.449192	17.4174	0.676602	26.1812
0.183882	6.92392	0.0389906	1.59309	0.165908	6.99273	0.303577	11.5079	0.379301	14.1961	0.584949	22.0983	0.2354	8.84762	0.451447	16.8435	0.451265	16.8876	0.677339	25.2977
0.1896	6.89723	0.0402748	1.60796	0.168062	6.98552	0.305348	11.1802	0.382541	13.835	0.586744	21.4124	0.240566	8.73587	0.453582	16.3546	0.453394	16.3957	0.678117	24.4751
0.195202	6.86826	0.0418309	1.62518	0.170973	6.97535	0.307228	10.8779	0.385881	13.5009	0.588593	20.7736	0.245775	8.63296	0.455771	15.8995	0.455579	15.9377	0.678937	23.7074
0.20068	6.83685	0.0436602	1.64438	0.174628	6.96189	0.309228	10.5991	0.389318	13.1911	0.590495	20.1772	0.251024	8.5379	0.458015	15.4748	0.457818	15.5105	0.679798	22.9896
0.206019	6.80282	0.0457636	1.66517	0.179003	6.94468	0.311358	10.3418	0.392849	12.9034	0.592449	19.6194	0.256307	8.44983	0.46031	15.0777	0.460109	15.1111	0.680704	22.317
0.211208	6.76601	0.0478707	1.68472	0.184067	6.92309	0.313632	10.1047	0.396472	12.6357	0.594456	19.0966	0.261621	8.368	0.462658	14.7058	0.462452	14.7371	0.681653	21.6858
0.216235	6.72628	0.0499804	1.70313	0.189781	6.89634	0.316061	9.88617	0.400184	12.3862	0.596513	18.6058	0.266963	8.29174	0.465054	14.3568	0.464844	14.3862	0.682648	21.0922
0.221087	6.68351	0.0520924	1.72047	0.19538	6.86729	0.318659	9.68516	0.403982	12.1533	0.59862	18.1443	0.272327	8.22049	0.4675	14.0288	0.467286	14.0565	0.683688	20.5333
0.225753	6.63762	0.0542058	1.73683	0.200853	6.8358	0.321435	9.50052	0.407863	11.9355	0.600776	17.7095	0.277712	8.15372	0.469992	13.72	0.469774	13.7461	0.684776	20.0061
0.230223	6.58856	0.0563203	1.75227	0.206188	6.80168	0.324401	9.33123	0.411826	11.7316	0.602982	17.2994	0.283114	8.09098	0.472531	13.4289	0.472309	13.4535	0.685911	19.5083
0.234488	6.53635	0.0584355	1.76686	0.211372	6.76478	0.327566	9.17633	0.415866	11.5404	0.605235	16.912	0.288528	8.03186	0.475115	13.154	0.474889	13.1773	0.687094	19.0375
0.238543	6.48107	0.060551	1.78066	0.216393	6.72496	0.330935	9.03491	0.419982	11.3609	0.607535	16.5455	0.293953	7.97601	0.477742	12.8942	0.477512	12.9161	0.688327	18.5917
0.242385	6.42285	0.0626666	1.79373	0.221239	6.68209	0.334513	8.90606	0.424171	11.1922	0.609882	16.1984	0.299385	7.92311	0.480412	12.6482	0.480179	12.669	0.68961	18.1691
0.246012	6.36191	0.0647819	1.80611	0.225899	6.63609	0.338301	8.78889	0.428431	11.0333	0.612274	15.8693	0.304821	7.87285	0.483124	12.415	0.482887	12.4348	0.690943	17.7681
0.249428	6.29849	0.066897	1.81786	0.230363	6.58693	0.342296	8.68252	0.432759	10.8836	0.614711	15.5568	0.310258	7.82498	0.485877	12.1938	0.485637	12.2126	0.692329	17.3871
0.252638	6.23291	0.0690115	1.82901	0.234622	6.53462	0.346494	8.58608	0.437153	10.7425	0.617193	15.2598	0.315693	7.77925	0.48867	11.9837	0.488427	12.0015	0.693767	17.0249
0.25565	6.1655	0.0711254	1.83961	0.23867	6.47924	0.350886	8.49871	0.441612	10.6091	0.619718	14.9772	0.321123	7.73546	0.491503	11.784	0.491256	11.8009	0.695258	16.6801
0.258474	6.09662	0.0732385	1.8497	0.242505	6.42094	0.355463	8.41957	0.446132	10.4831	0.622285	14.7081	0.326546	7.69341	0.494375	11.5938	0.494124	11.6099	0.696803	16.3517
0.261122	6.02662	0.0753509	1.85929	0.246125	6.35991	0.360214	8.34787	0.450713	10.3638	0.624895	14.4515	0.331957	7.65292	0.497284	11.4127	0.49703	11.4281	0.698403	16.0385
0.263605	5.95587	0.0774624	1.86844	0.249535	6.29642	0.365125	8.28285	0.455351	10.2508	0.627546	14.2067	0.337354	7.61381	0.500232	11.24	0.499975	11.2547	0.700058	15.7398
0.265938	5.88469	0.079573	1.87716	0.252738	6.23077	0.370184	8.2238	0.460045	10.1438	0.630237	13.9729	0.342735	7.57595	0.503218	11.0752	0.502958	11.0892	0.701769	15.4545
0.268132	5.81339	0.0816827	1.88549	0.255744	6.16331	0.375377	8.17006	0.464794	10.0422	0.632969	13.7495	0.348096	7.53918	0.506241	10.9179	0.505978	10.9313	0.703537	15.1819
0.270201	5.74226	0.0837915	1.89345	0.258562	6.09438	0.380691	8.12103	0.469596	9.94571	0.63574	13.5357	0.353435	7.50339	0.509302	10.7676	0.509035	10.7803	0.705362	14.9213
0.272157	5.67152	0.0858994	1.90106	0.261204	6.02436	0.386113	8.07618	0.474448	9.85404	0.638549	13.3311	0.358747	7.46845	0.512401	10.6238	0.512131	10.636	0.707245	14.672
0.274011	5.6014	0.0880063	1.90834	0.263682	5.95359	0.391631	8.03501	0.47935	9.76686	0.641397	13.135	0.363353	7.43861	0.515538	10.4863	0.515264	10.498	0.709186	14.4333
0.275774	5.53208	0.0901123	1.91531	0.26601	5.8824	0.397233	7.99709	0.484301	9.68389	0.644282	12.9471	0.367261	7.41356	0.518713	10.3546	0.518436	10.3658	0.711186	14.2046
0.277455	5.4637	0.0922174	1.92199	0.2682	5.8111	0.40291	7.96203	0.489298	9.60488	0.647204	12.7668	0.370478	7.39309	0.521927	10.2285	0.521646	10.2393	0.713245	13.9855
0.279064	5.39637	0.0943215	1.9284	0.270265	5.73998	0.408651	7.92949	0.494341	9.52958	0.650162	12.5937	0.373012	7.37704	0.525181	10.1078	0.524897	10.118	0.715364	13.7754
0.280609	5.33021	0.0964248	1.93455	0.272218	5.66926	0.414447	7.89915	0.499428	9.45778	0.653156	12.4274	0.37487	7.36531	0.528475	9.99199	0.528188	10.0018	0.717543	13.5738
0.282097	5.26528	0.0985272	1.94046	0.274069	5.59917	0.420291	7.87076	0.504558	9.38927	0.656186	12.2676	0.376056	7.35784	0.531811	9.88099	0.53152	9.89044	0.719782	13.3804
0.283533	5.20165	0.100629	1.94614	0.275829	5.52987	0.426174	7.84407	0.509731	9.32387	0.65925	12.1139	0.377758	7.34713	0.535189	9.77456	0.534894	9.78362	0.722081	13.1946
0.284925	5.13934	0.102729	1.9516	0.277508	5.46152	0.43209	7.81887	0.514944	9.2614	0.662349	11.9659	0.379603	7.33553	0.538611	9.67246	0.538312	9.68115	0.724441	13.0161
0.286278	5.07839	0.104829	1.95685	0.279115	5.39423	0.438032	7.79498	0.520198	9.2017	0.665481	11.8235	0.382103	7.31984	0.542078	9.57453	0.541775	9.58286	0.726861	12.8446
0.287595	5.01881	0.106929	1.96192	0.280658	5.32811	0.443995	7.77223	0.525491	9.14462	0.668648	11.6863	0.385251	7.3001	0.545591	9.48056	0.545284	9.48856	0.729342	12.6797
0.288882	4.96062	0.109027	1.9668	0.282143	5.26322	0.449973	7.75046	0.530823	9.09002	0.671847	11.5541	0.389034	7.27637	0.549152	9.39041	0.548841	9.39809	0.731884	12.521
0.290142	4.90379	0.111125	1.9715	0.283579	5.19963	0.455961	7.72956	0.536192	9.03776	0.67508	11.4266	0.393439	7.24868	0.552762	9.30391	0.552446	9.31128	0.734486	12.3684
0.291378	4.84834	0.113222	1.97604	0.284969	5.13736	0.461955	7.70941	0.541598	8.98774	0.678345	11.3036	0.398446	7.21704	0.556422	9.22092	0.556103	9.22799	0.737148	12.2215
0.292594	4.79424	0.115318	1.98043	0.286321	5.07646	0.46795	7.68989	0.54704	8.93983	0.681642	11.1849	0.403399	7.1855	0.560135	9.14131	0.559811	9.14809	0.73987	12.08
0.293791	4.74148	0.117414	1.98466	0.287637	5.01692	0.473942	7.67092	0.552518	8.89393	0.684972	11.0703	0.408296	7.15399	0.563901	9.06494	0.563572	9.07144	0.742651	11.9437
0.294973	4.69003	0.119509	1.98876	0.288923	4.95877	0.479928	7.65241	0.558031	8.84995	0.688334	10.9596	0.413131	7.12244	0.567722	8.99169	0.567388	8.99792	0.745492	11.8124
0.296142	4.63988	0.121603	1.99271	0.290182	4.90199	0.485905	7.63429	0.563578	8.80778	0.691728	10.8527	0.417903	7.09082	0.571599	8.92144	0.57126	8.92742	0.748391	11.6858
0.297299	4.59099	0.123697	1.99654	0.291418	4.84658	0.491102	7.61875	0.569159	8.76735	0.695154	10.7493	0.422608	7.05906	0.575532	8.85408	0.575189	8.85982	0.751349	11.5638
0.298446	4.54334	0.12579	2.00025	0.292633	4.79253	0.495522	7.60567	0.574774	8.72856	0.698611	10.6493	0.427244	7.02713	0.579524	8.78951	0.579176	8.79501	0.754363	11.4461
0.299585	4.4969	0.127883	2.00384	0.29383	4.73981	0.49917	7.59494	0.580421	8.69135	0.702101	10.5526	0.431807	6.99498	0.583575	8.72762	0.583221	8.73288	0.757435	11.3325
0.300717	4.45163	0.129975	2.00732	0.295011	4.6884	0.502049	7.58651	0.586101	8.65564	0.705622	10.4591	0.436294	6.96259	0.587684	8.6683	0.587325	8.67334	0.760562	11.2228
0.301844	4.40752	0.132067	2.01069	0.296179	4.63829	0.504162	7.58033	0.591812	8.62136	0.709176	10.3686	0.440703	6.92991	0.591854	8.61145	0.591489	8.61629	0.763745	11.1169
0.302966	4.36453	0.134158	2.01396	0.297336	4.58944	0.505514	7.57638	0.597554	8.58844	0.712762	10.281	0.445032	6.89693	0.596082	8.55698	0.595713	8.56161	0.766982	11.0147
0.304085	4.32263	0.136249	2.01713	0.298483	4.54183	0.507454	7.57073	0.603328	8.55684	0.71638	10.1961	0.449278	6.86364	0.60037	8.50478	0.599996	8.50922	0.770272	10.9159
0.305202	4.2818	0.138339	2.02021	0.299622	4.49543	0.50956	7.56459	0.609131	8.52647	0.720032	10.114	0.45344	6.83	0.604717	8.45477	0.604338	8.45902	0.773614	10.8204
0.306317	4.24199	0.140429	2.02321	0.300754	4.4502	0.512418	7.55627	0.614964	8.4973	0.723716	10.0344	0.457515	6.79602	0.609122	8.40684	0.608737	8.41092	0.777008	10.728
0.307431	4.20319	0.142519	2.02611	0.30188	4.40613	0.516025	7.54577	0.620825	8.46927	0.727434	9.95734	0.461504	6.76168	0.613584	8.36091	0.613194	8.36482	0.780452	10.6387
0.308545	4.16536	0.144608	2.02894	0.303002	4.36317	0.520372	7.53309	0.626715	8.44231	0.731186	9.88266	0.465404	6.727	0.618101	8.31688	0.617707	8.32063	0.783945	10.5523
0.30966	4.12848	0.146696	2.03169	0.304121	4.32131	0.525449	7.51823	0.632633	8.41639	0.734973	9.8103	0.469215	6.69197	0.622673	8.27466	0.622274	8.27826	0.787486	10.4687
0.310775	4.09252	0.148785	2.03436	0.305238	4.2805	0.531246	7.50117	0.638577	8.39146	0.738794	9.74018	0.472937	6.6566	0.627297	8.23417	0.626894	8.23762	0.791073	10.3877
0.311893	4.05745	0.150873	2.03696	0.306352	4.24073	0.537008	7.48407	0.644547	8.36747	0.742651	9.67222	0.47657	6.62091	0.631973	8.19531	0.631565	8.19862	0.794706	10.3093
0.313012	4.02325	0.15296	2.03949	0.307467	4.20196	0.542732	7.46689	0.650542	8.34437	0.746545	9.60637	0.480114	6.58491	0.636696	8.158	0.636284	8.16118	0.798384	10.2333
0.314134	3.98989	0.155048	2.04195	0.308581	4.16416	0.548417	7.44961	0.656561	8.32212	0.750475	9.54254	0.48357	6.54862	0.641466	8.12215	0.64105	8.12521	0.802104	10.1597
0.315259	3.95735	0.157134	2.04435	0.309695	4.12731	0.55406	7.43221	0.662603	8.30068	0.754443	9.48068	0.486938	6.51207	0.64628	8.0877	0.645861	8.09063	0.805866	10.0883
0.316387	3.9256	0.159221	2.04669	0.310811	4.09138	0.559659	7.41465	0.668668	8.28	0.75845	9.42073	0.49022	6.47528	0.651135	8.05454	0.650712	8.05737	0.809669	10.019
0.317519	3.89462	0.161308	2.04897	0.311929	4.05634	0.565213	7.39692	0.674753	8.26006	0.762496	9.36263	0.493417	6.43828	0.656029	8.02262	0.655603	8.02535	0.813511	9.95184
0.318655	3.86439	0.163394	2.05119	0.313048	4.02217	0.570718	7.379	0.680857	8.2408	0.766582	9.30634	0.496532	6.4011	0.66096	7.99186	0.66053	7.99448	0.81739	9.88662
0.319795	3.83488	0.165479	2.05336	0.31417	3.98884	0.576175	7.36088	0.68698	8.22219	0.77071	9.2518	0.499565	6.36376	0.665923	7.96218	0.665491	7.96471	0.821307	9.82328
0.320939	3.80608	0.167565	2.05548	0.315295	3.95632	0.58158	7.34253	0.69312	8.20419	0.774879	9.19897	0.502518	6.32631	0.670918	7.93352	0.66984	7.93961	0.825258	9.76177
0.32194	3.78154	0.16965	2.05754	0.316423	3.9246	0.586932	7.32395	0.699276	8.18676	0.779092	9.1478	0.505395	6.28876	0.675293	7.90932	0.673564	7.91879	0.829244	9.70199
0.322796	3.76102	0.171735	2.05956	0.317555	3.89364	0.592229	7.30513	0.705445	8.16988	0.783349	9.09826	0.508196	6.25115	0.679039	7.88924	0.676655	7.90196	0.833263	9.64388
0.323506	3.74433	0.17382	2.06152	0.318691	3.86343	0.597471	7.28605	0.711627	8.15349	0.787651	9.05029	0.510925	6.21351	0.682146	7.87299	0.679106	7.88889	0.837313	9.58738
0.324069	3.7313	0.175904	2.06344	0.319831	3.83395	0.602655	7.2667	0.717819	8.13757	0.792	9.00387	0.513584	6.17587	0.684609	7.86035	0.680911	7.8794	0.841394	9.53241
0.324483	3.72181	0.177989	2.06532	0.320976	3.80517	0.607781	7.24709	0.72402	8.12209	0.796396	8.95895	0.516176	6.13825	0.686422	7.85119	0.682068	7.87339	0.845504	9.47893
0.324749	3.71578	0.180073	2.06716	0.322125	3.77707	0.612846	7.2272	0.730229	8.107	0.80084	8.9155	0.518702	6.1007	0.687585	7.84537	0.683733	7.86482	0.849643	9.42686
0.325131	3.70717	0.182157	2.06895	0.323279	3.74964	0.617851	7.20704	0.736443	8.09228	0.805335	8.8735	0.521165	6.06323	0.689257	7.83708	0.685546	7.8556	0.853808	9.37615
0.325548	3.69789	0.18424	2.0707	0.324438	3.72285	0.622793	7.18659	0.742659	8.0779	0.80988	8.8329	0.523568	6.02587	0.691077	7.82815	0.688015	7.84322	0.858	9.32676
0.326115	3.68539	0.186324	2.07242	0.325602	3.69669	0.627673	7.16585	0.748878	8.06381	0.814477	8.79369	0.525913	5.98865	0.693556	7.81617	0.691145	7.82783	0.862217	9.27862
0.326834	3.66978	0.188407	2.0741	0.326771	3.67113	0.632489	7.14484	0.754296	8.05176	0.819128	8.75582	0.528203	5.95158	0.696696	7.80124	0.694938	7.80957	0.866458	9.2317
0.327706	3.6512	0.19049	2.07574	0.327946	3.64617	0.63724	7.12354	0.758913	8.04163	0.823833	8.71928	0.530439	5.91468	0.700501	7.78352	0.699397	7.78862	0.870722	9.18595
0.328734	3.62981	0.192573	2.07735	0.329126	3.62177	0.641927	7.10195	0.762729	8.03335	0.828594	8.68403	0.532625	5.87799	0.704973	7.76318	0.704528	7.76518	0.875009	9.14132
0.329918	3.60579	0.194656	2.07892	0.330312	3.59794	0.646547	7.08009	0.765745	8.02686	0.833411	8.65006	0.534762	5.84151	0.710115	7.74038	0.709668	7.74234	0.879317	9.09778
0.331108	3.58232	0.196739	2.08046	0.331504	3.57464	0.651101	7.05795	0.767962	8.02211	0.838286	8.61733	0.536853	5.80527	0.715264	7.71812	0.714817	7.72003	0.883647	9.05528
0.332304	3.55937	0.198821	2.08197	0.332702	3.55187	0.655589	7.03555	0.76938	8.01909	0.843221	8.58582	0.538899	5.76927	0.720418	7.69637	0.719971	7.69823	0.887996	9.01379
0.333505	3.53695	0.200903	2.08345	0.333905	3.52961	0.66001	7.01287	0.771417	8.01475	0.848215	8.55551	0.540903	5.73354	0.725575	7.67507	0.725127	7.6769	0.892365	8.97328
0.334713	3.51502	0.202985	2.08489	0.335115	3.50785	0.664364	6.98994	0.773631	8.01006	0.853271	8.52638	0.542867	5.69808	0.730733	7.65419	0.730285	7.65598	0.896753	8.9337
0.335926	3.49358	0.205067	2.08631	0.33633	3.48657	0.668652	6.96675	0.77664	8.00372	0.858388	8.49839	0.544792	5.6629	0.735888	7.63369	0.735441	7.63546	0.901159	8.89504
0.337146	3.47262	0.207149	2.0877	0.337552	3.46576	0.672872	6.94332	0.780442	7.99573	0.863568	8.47154	0.54668	5.62803	0.74104	7.61355	0.740593	7.61528	0.905584	8.85726
0.338371	3.45212	0.209231	2.08907	0.33878	3.44541	0.677025	6.91966	0.785033	7.98614	0.868812	8.44578	0.548534	5.59346	0.746185	7.59372	0.745739	7.59543	0.910026	8.82033
0.339603	3.43206	0.211312	2.0904	0.340014	3.4255	0.681112	6.89576	0.790409	7.97496	0.87412	8.42111	0.550354	5.5592	0.751322	7.57418	0.750877	7.57587	0.914485	8.78422
0.340841	3.41244	0.213394	2.09172	0.341254	3.40602	0.685133	6.87165	0.796563	7.9622	0.879492	8.39749	0.552143	5.52527	0.756448	7.5549	0.756004	7.55656	0.918961	8.74892
0.342085	3.39325	0.215475	2.093	0.3425	3.38696	0.689087	6.84733	0.802698	7.9495	0.88493	8.37491	0.553901	5.49166	0.761562	7.53585	0.761119	7.53749	0.923454	8.71439
0.343336	3.37446	0.217556	2.09426	0.343752	3.36831	0.692976	6.82281	0.808813	7.93683	0.890432	8.35332	0.555631	5.45839	0.766661	7.517	0.766219	7.51863	0.927963	8.68062
0.344592	3.35608	0.219637	2.0955	0.345011	3.35006	0.696801	6.7981	0.814906	7.92416	0.895998	8.33271	0.557333	5.42546	0.771743	7.49834	0.771303	7.49995	0.932488	8.64758
0.345855	3.33809	0.221718	2.09672	0.346276	3.3322	0.700561	6.77322	0.820973	7.91149	0.900902	8.31553	0.559009	5.39286	0.776807	7.47982	0.776368	7.48142	0.937029	8.61526
0.347124	3.32048	0.223799	2.09791	0.347547	3.31471	0.704257	6.74817	0.827014	7.89878	0.90512	8.30143	0.560661	5.36061	0.78185	7.46145	0.781413	7.46304	0.941586	8.58363
0.348399	3.30324	0.225879	2.09908	0.348824	3.29759	0.707891	6.72297	0.833025	7.88602	0.908635	8.29015	0.562289	5.32871	0.786871	7.44319	0.786436	7.44477	0.946159	8.55267
0.349681	3.28635	0.22796	2.10023	0.350108	3.28083	0.711463	6.69763	0.839007	7.8732	0.91143	8.28146	0.563895	5.29716	0.791868	7.42502	0.791436	7.42659	0.950748	8.52238
0.350968	3.26982	0.23004	2.10136	0.351397	3.26441	0.714974	6.67215	0.844956	7.86031	0.913495	8.27521	0.565479	5.26595	0.79684	7.40693	0.79641	7.40849	0.955352	8.49272
0.352262	3.25364	0.232121	2.10247	0.352693	3.24833	0.718424	6.64657	0.850872	7.84732	0.914821	8.27126	0.567044	5.2351	0.801784	7.3889	0.801356	7.39046	0.959972	8.46369
0.353562	3.23778	0.234201	2.10356	0.353995	3.23259	0.721815	6.62087	0.856753	7.83425	0.916732	8.26566	0.568589	5.2046	0.8067	7.37091	0.806274	7.37247	0.964011	8.43889
0.354868	3.22225	0.236281	2.10463	0.355303	3.21716	0.725148	6.59508	0.862599	7.82107	0.918818	8.25968	0.570116	5.17445	0.811585	7.35295	0.811162	7.3545	0.967463	8.41811
0.35618	3.20703	0.238361	2.10568	0.356618	3.20205	0.728424	6.56921	0.868409	7.80779	0.921666	8.25172	0.571625	5.14465	0.816438	7.335	0.816018	7.33656	0.970324	8.40116
0.357499	3.19212	0.240441	2.10672	0.357938	3.18724	0.731644	6.54327	0.874182	7.79441	0.925288	8.24191	0.573119	5.11519	0.821258	7.31705	0.820841	7.31861	0.97259	8.38792
0.358823	3.17752	0.242521	2.10774	0.359264	3.17273	0.734809	6.51727	0.879918	7.78091	0.929698	8.23045	0.574597	5.08609	0.826043	7.2991	0.825629	7.30065	0.974259	8.37827
0.360154	3.1632	0.2446	2.10874	0.360597	3.15851	0.73792	6.49122	0.885617	7.76732	0.934911	8.21754	0.576059	5.05733	0.830792	7.28112	0.830381	7.28268	0.975328	8.37213
0.36149	3.14917	0.24668	2.10972	0.361936	3.14457	0.740978	6.46513	0.89128	7.75362	0.940946	8.20341	0.577508	5.02892	0.835504	7.2631	0.835096	7.26467	0.976866	8.36336
0.362833	3.13542	0.24876	2.11068	0.36328	3.13091	0.743984	6.43902	0.896905	7.73983	0.947035	8.18997	0.578944	5.00085	0.840177	7.24505	0.839773	7.24662	0.97854	8.35389
0.364181	3.12194	0.250839	2.11164	0.364631	3.11752	0.74694	6.41289	0.902494	7.72594	0.953175	8.17718	0.580367	4.97312	0.844811	7.22695	0.84441	7.22852	0.980819	8.34112
0.365536	3.10872	0.252919	2.11257	0.365987	3.10439	0.749847	6.38676	0.908047	7.71197	0.959365	8.16503	0.581778	4.94572	0.849404	7.20879	0.849007	7.21037	0.983707	8.32516
0.366896	3.09576	0.254998	2.11349	0.367349	3.09151	0.752705	6.36063	0.913565	7.69792	0.965603	8.15346	0.583178	4.91867	0.853956	7.19056	0.853563	7.19215	0.987208	8.30613
0.368263	3.08305	0.257077	2.1144	0.368718	3.07888	0.755516	6.33451	0.919047	7.68379	0.971885	8.14245	0.584567	4.89194	0.858466	7.17227	0.858076	7.17386	0.991324	8.28418
0.369635	3.07059	0.259156	2.11529	0.370092	3.0665	0.758282	6.30842	0.924495	7.6696	0.97821	8.13196	0.585946	4.86554	0.862932	7.1539	0.862547	7.15549	0.996062	8.25947
0.371013	3.05836	0.261235	2.11617	0.371472	3.05435	0.761002	6.28236	0.929909	7.65534	0.984575	8.12196	0.587316	4.83948	0.867355	7.13545	0.866973	7.13705	1.00082	8.23526
0.372396	3.04637	0.263314	2.11703	0.372857	3.04244	0.763679	6.25633	0.93529	7.64103	0.990977	8.11243	0.588676	4.81373	0.871733	7.11692	0.871355	7.11853		
0.373786	3.03461	0.265393	2.11788	0.374248	3.03075	0.766313	6.23036	0.940638	7.62667	0.997416	8.10333	0.590028	4.7883	0.876066	7.0983	0.875692	7.09992		
0.375181	3.02307	0.267472	2.11872	0.375645	3.01928	0.768906	6.20444	0.945954	7.61226	1.00389	8.09464	0.591372	4.7632	0.880354	7.07959	0.879983	7.08122		
0.376582	3.01174	0.269551	2.11954	0.377048	3.00803	0.771459	6.17859	0.951237	7.59782			0.592708	4.7384	0.884595	7.0608	0.884229	7.06243		
0.377988	3.00063	0.27163	2.12035	0.378456	2.99699	0.773972	6.1528	0.956489	7.58333			0.594037	4.71391	0.88879	7.04191	0.888428	7.04356		
0.3794	2.98973	0.273708	2.12115	0.37987	2.98615	0.776447	6.1271	0.961709	7.56881			0.59536	4.68973	0.892938	7.02294	0.89258	7.02459		
0.380817	2.97903	0.275787	2.12194	0.381289	2.97552	0.778884	6.10147	0.966898	7.55425			0.596676	4.66586	0.89704	7.00387	0.896686	7.00553		
0.38224	2.96852	0.277865	2.12271	0.382714	2.96507	0.781285	6.07594	0.972056	7.53967			0.597986	4.64228	0.901094	6.98472	0.900744	6.98639		
0.383668	2.95821	0.279944	2.12348	0.384144	2.95483	0.783651	6.0505	0.977183	7.52506			0.59929	4.619	0.905102	6.96548	0.904756	6.96715		
0.385102	2.94808	0.282022	2.12423	0.385579	2.94476	0.785983	6.02516	0.982279	7.51041			0.600589	4.59601	0.909062	6.94615	0.90872	6.94783		
0.386541	2.93814	0.2841	2.12497	0.38702	2.93488	0.788281	5.99992	0.987344	7.49574			0.601884	4.5733	0.912976	6.92674	0.912638	6.92843		
0.387985	2.92838	0.286179	2.1257	0.388466	2.92518	0.790547	5.9748	0.992378	7.48104			0.603173	4.55089	0.916842	6.90725	0.916509	6.90895		
0.389435	2.9188	0.288257	2.12642	0.389918	2.91566	0.792782	5.94979	0.99738	7.46631			0.604459	4.52875	0.920662	6.88769	0.920332	6.88939		
0.39089	2.90939	0.290335	2.12713	0.391374	2.9063	0.794985	5.9249	1.00235	7.45155			0.60574	4.50689	0.924435	6.86804	0.92411	6.86975		
0.39235	2.90014	0.292413	2.12783	0.392836	2.89711	0.797159	5.90013					0.607018	4.48531	0.928163	6.84833	0.927841	6.85004		
0.393815	2.89106	0.294491	2.12852	0.394303	2.88808	0.799304	5.87549					0.608293	4.46399	0.931844	6.82855	0.931526	6.83027		
0.395285	2.88214	0.296569	2.1292	0.395774	2.87921	0.801421	5.85098					0.609564	4.44294	0.93548	6.80871	0.935166	6.81043		
0.39676	2.87338	0.298647	2.12988	0.397251	2.8705	0.803511	5.82661					0.610832	4.42216	0.93907	6.7888	0.93876	6.79053		
0.39824	2.86477	0.300725	2.13054	0.398733	2.86194	0.805574	5.80237					0.612098	4.40163	0.942616	6.76885	0.94231	6.77058		
0.399726	2.85631	0.302803	2.13119	0.40022	2.85353	0.807612	5.77827					0.613361	4.38136	0.946118	6.74884	0.945816	6.75058		
0.401216	2.848	0.30488	2.13184	0.401712	2.84527	0.809624	5.75431					0.614622	4.36134	0.949576	6.72879	0.949278	6.73053		
0.402711	2.83983	0.306958	2.13247	0.403208	2.83714	0.811613	5.73049					0.615881	4.34157	0.952991	6.7087	0.952696	6.71044		
0.40421	2.8318	0.309036	2.1331	0.404709	2.82916	0.813577	5.70682					0.617138	4.32205	0.956363	6.68857	0.956072	6.69031		
0.405715	2.8239	0.311113	2.13372	0.406215	2.82131	0.815519	5.6833					0.618393	4.30276	0.959693	6.66841	0.959406	6.67016		
0.407224	2.81615	0.313191	2.13433	0.407726	2.8136	0.817439	5.65993					0.619647	4.28372	0.962982	6.64822	0.962698	6.64997		
0.408738	2.80852	0.315268	2.13493	0.409242	2.80602	0.819337	5.63671					0.6209	4.26491	0.96623	6.62801	0.96595	6.62976		
0.410256	2.80102	0.317346	2.13553	0.410762	2.79856	0.821214	5.61364					0.622152	4.24633	0.969437	6.60778	0.969161	6.60953		
0.41178	2.79365	0.319423	2.13611	0.412286	2.79123	0.823071	5.59073					0.623403	4.22798	0.972605	6.58753	0.972332	6.58929		
0.413307	2.7864	0.321501	2.13669	0.413815	2.78402	0.824908	5.56797					0.624653	4.20986	0.975734	6.56728	0.975464	6.56904		
0.414839	2.77927	0.323578	2.13726	0.415349	2.77693	0.826726	5.54536					0.625902	4.19196	0.978824	6.54703	0.978558	6.54879		
0.416376	2.77226	0.325655	2.13783	0.416887	2.76996	0.828525	5.52292					0.627151	4.17427	0.981877	6.52677	0.981613	6.52853		
0.417917	2.76537	0.327733	2.13839	0.41843	2.76311	0.830307	5.50063					0.628399	4.1568	0.984892	6.50652	0.984632	6.50828		
0.419463	2.75859	0.32981	2.13894	0.419977	2.75636	0.832071	5.4785					0.629648	4.13955	0.987871	6.48628	0.987614	6.48803		
0.421012	2.75192	0.331887	2.13948	0.421528	2.74973	0.833818	5.45654					0.630896	4.1225	0.990814	6.46604	0.99056	6.4678		
0.422566	2.74536	0.333964	2.14002	0.423083	2.7432	0.835549	5.43473					0.632144	4.10567	0.993722	6.44583	0.993471	6.44758		
0.424125	2.7389	0.336041	2.14055	0.424643	2.73678	0.837263	5.41308					0.633392	4.08903	0.996595	6.42563	0.996347	6.42738		
0.425687	2.73255	0.338118	2.14107	0.426207	2.73047	0.838963	5.39159					0.634641	4.07259	0.999434	6.40546	0.999189	6.40721		
0.427254	2.72631	0.340195	2.14159	0.427775	2.72425	0.840647	5.37026					0.63589	4.05636	1.00224	6.38531	1.002	6.38706		
0.428825	2.72016	0.342272	2.1421	0.429347	2.71814	0.842317	5.34909					0.63714	4.04032						
0.4304	2.71411	0.344349	2.1426	0.430924	2.71212	0.843973	5.32808					0.63839	4.02447						
0.431979	2.70815	0.346426	2.1431	0.432504	2.7062	0.845615	5.30723					0.63964	4.0088						
0.433562	2.70229	0.348503	2.1436	0.434088	2.70037	0.847244	5.28654					0.640892	3.99333						
0.435149	2.69653	0.35058	2.14408	0.435677	2.69463	0.84886	5.26601					0.642144	3.97804						
0.43674	2.69085	0.352657	2.14456	0.437269	2.68898	0.850464	5.24564					0.643398	3.96293						
0.438334	2.68526	0.354733	2.14504	0.438865	2.68342	0.852056	5.22543					0.644652	3.948						
0.439933	2.67976	0.35681	2.14551	0.440465	2.67795	0.853636	5.20538					0.645907	3.93324						
0.441536	2.67434	0.358887	2.14597	0.442069	2.67256	0.855205	5.18548					0.647164	3.91866						
0.443142	2.66901	0.360963	2.14643	0.443676	2.66726	0.856763	5.16575					0.648421	3.90425						
0.444752	2.66376	0.36304	2.14689	0.445287	2.66203	0.85831	5.14617					0.64968	3.89001						
0.446365	2.65859	0.365117	2.14734	0.446902	2.65689	0.859847	5.12674					0.650941	3.87594						
0.447983	2.6535	0.367193	2.14778	0.448521	2.65182	0.861374	5.10747					0.652203	3.86202						
0.449604	2.64848	0.36927	2.14822	0.450143	2.64683	0.862891	5.08836					0.653466	3.84827						
0.451228	2.64354	0.371346	2.14865	0.451769	2.64192	0.8644	5.0694					0.654731	3.83468						
0.452857	2.63868	0.373423	2.14908	0.453398	2.63708	0.865899	5.0506					0.655997	3.82125						
0.454488	2.63389	0.375499	2.14951	0.455031	2.63231	0.867389	5.03195					0.657265	3.80797						
0.456123	2.62917	0.377575	2.14993	0.456667	2.62762	0.868871	5.01344					0.658535	3.79484						
0.457762	2.62452	0.379652	2.15034	0.458307	2.62299	0.870345	4.9951					0.659807	3.78186						
0.459404	2.61994	0.381728	2.15075	0.45995	2.61843	0.871811	4.9769					0.66108	3.76903						
0.46105	2.61543	0.383804	2.15116	0.461597	2.61394	0.873269	4.95885					0.662355	3.75635						
0.462698	2.61098	0.385881	2.15156	0.463247	2.60952	0.87472	4.94094					0.663632	3.74381						
0.46435	2.6066	0.387957	2.15196	0.4649	2.60516	0.876163	4.92319					0.664911	3.73141						
0.466006	2.60228	0.390033	2.15235	0.466556	2.60086	0.8776	4.90558					0.666192	3.71916						
0.467665	2.59802	0.392109	2.15274	0.468216	2.59663	0.87903	4.88812					0.667475	3.70704						
0.469326	2.59383	0.394185	2.15312	0.469879	2.59245	0.880454	4.8708					0.66876	3.69505						
0.470991	2.5897	0.396261	2.15351	0.471545	2.58834	0.881871	4.85362					0.670047	3.6832						
0.47266	2.58563	0.398338	2.15388	0.473214	2.58429	0.883283	4.83659					0.671336	3.67149						
0.474331	2.58161	0.400414	2.15426	0.474887	2.58029	0.884688	4.8197					0.672627	3.6599						
0.476005	2.57765	0.40249	2.15462	0.476562	2.57635	0.886089	4.80295					0.673921	3.64844						
0.477683	2.57375	0.404566	2.15499	0.478241	2.57247	0.887483	4.78633					0.675216	3.63711						
0.479363	2.56991	0.406642	2.15535	0.479922	2.56864	0.888873	4.76986					0.676514	3.6259						
0.481047	2.56611	0.408718	2.15571	0.481607	2.56487	0.890257	4.75352					0.677814	3.61482						
0.482733	2.56237	0.410794	2.15606	0.483294	2.56114	0.891636	4.73732					0.679116	3.60386						
0.484423	2.55869	0.41287	2.15641	0.484985	2.55748	0.893011	4.72126					0.680421	3.59302						
0.486115	2.55505	0.414945	2.15676	0.486678	2.55386	0.894382	4.70532					0.681728	3.58229						
0.48781	2.55147	0.417021	2.1571	0.488374	2.55029	0.895748	4.68952					0.683037	3.57169						
0.489509	2.54793	0.419097	2.15744	0.490073	2.54677	0.89711	4.67386					0.684349	3.5612						
0.491209	2.54445	0.421173	2.15778	0.491775	2.5433	0.898467	4.65832					0.685662	3.55082						
0.492913	2.54101	0.423249	2.15811	0.49348	2.53988	0.899821	4.64291					0.686979	3.54055						
0.49462	2.53762	0.425325	2.15844	0.495187	2.5365	0.901172	4.62763					0.688297	3.53039						
0.496329	2.53427	0.4274	2.15877	0.496897	2.53317	0.902518	4.61248					0.689619	3.52035						
0.498041	2.53098	0.429476	2.1591	0.49861	2.52989	0.903862	4.59745					0.690942	3.51041						
0.499756	2.52772	0.431552	2.15942	0.500325	2.52665	0.905202	4.58255					0.692268	3.50057						
0.501473	2.52451	0.433627	2.15973	0.502044	2.52345	0.906539	4.56778					0.693596	3.49085						
0.503193	2.52134	0.435703	2.16005	0.503764	2.5203	0.907873	4.55312					0.694927	3.48122						
0.504915	2.51822	0.437779	2.16036	0.505488	2.51719	0.909203	4.53859					0.69626	3.47169						
0.50664	2.51513	0.439854	2.16067	0.507214	2.51412	0.910532	4.52418					0.697596	3.46227						
0.508368	2.51209	0.44193	2.16097	0.508942	2.51109	0.911857	4.50989					0.698935	3.45295						
0.510098	2.50909	0.444005	2.16128	0.510674	2.5081	0.91318	4.49571					0.700275	3.44372						
0.511831	2.50613	0.446081	2.16158	0.512407	2.50515	0.914501	4.48166					0.701619	3.43459						
0.513566	2.50321	0.448156	2.16187	0.514143	2.50224	0.915819	4.46772					0.702965	3.42555						
0.515304	2.50032	0.450232	2.16217	0.515882	2.49937	0.917135	4.4539					0.704313	3.41661						
0.517044	2.49747	0.452307	2.16246	0.517623	2.49654	0.918449	4.44019					0.705664	3.40776						
0.518787	2.49466	0.454383	2.16275	0.519366	2.49374	0.919761	4.42659					0.707017	3.39901						
0.520532	2.49189	0.456458	2.16303	0.521112	2.49098	0.921071	4.41311					0.708373	3.39034						
0.522279	2.48915	0.458534	2.16332	0.52286	2.48825	0.92238	4.39974					0.709732	3.38176						
0.524029	2.48645	0.460609	2.1636	0.52461	2.48556	0.923686	4.38648					0.711093	3.37327						
0.525781	2.48378	0.462684	2.16388	0.526363	2.48291	0.924991	4.37332					0.712457	3.36487						
0.527535	2.48115	0.46476	2.16415	0.528118	2.48028	0.926295	4.36028					0.713823	3.35655						
0.529291	2.47855	0.466835	2.16443	0.529875	2.4777	0.927597	4.34734					0.715192	3.34832						
0.53105	2.47598	0.46891	2.1647	0.531635	2.47514	0.928898	4.33451					0.716563	3.34017						
0.532811	2.47345	0.470986	2.16497	0.533397	2.47262	0.930197	4.32179					0.717937	3.3321						
0.534575	2.47095	0.473061	2.16523	0.535161	2.47013	0.931495	4.30916					0.719313	3.32412						
0.53634	2.46848	0.475136	2.1655	0.536927	2.46767	0.932793	4.29665					0.720692	3.31621						
0.538108	2.46604	0.477211	2.16576	0.538695	2.46524	0.934089	4.28423					0.722074	3.30839						
0.539877	2.46363	0.479286	2.16602	0.540466	2.46284	0.935384	4.27192					0.723458	3.30064						
0.541649	2.46125	0.481362	2.16627	0.542238	2.46047	0.936678	4.2597					0.724845	3.29297						
0.543423	2.4589	0.483437	2.16653	0.544013	2.45813	0.937972	4.24759					0.726234	3.28537						
0.545199	2.45658	0.485512	2.16678	0.54579	2.45582	0.939265	4.23557					0.727626	3.27786						
0.546977	2.45429	0.487587	2.16703	0.547568	2.45354	0.940557	4.22365					0.729021	3.27041						
0.548758	2.45203	0.489662	2.16728	0.549349	2.45128	0.941848	4.21183					0.730418	3.26304						
0.55054	2.44979	0.491737	2.16753	0.551132	2.44906	0.943139	4.2001					0.731818	3.25574						
0.552324	2.44759	0.493812	2.16777	0.552917	2.44686	0.94443	4.18847					0.73322	3.24851						
0.55411	2.44541	0.495887	2.16801	0.554704	2.44469	0.94572	4.17693					0.734625	3.24136						
0.555899	2.44325	0.497962	2.16825	0.556493	2.44254	0.947009	4.16549					0.736032	3.23427						
0.557689	2.44112	0.500037	2.16849	0.558284	2.44042	0.948299	4.15414					0.737442	3.22725						
0.559481	2.43902	0.502112	2.16873	0.560076	2.43833	0.949588	4.14288					0.738854	3.22031						
0.561275	2.43694	0.504187	2.16896	0.561871	2.43626	0.950877	4.1317					0.740269	3.21342						
0.563071	2.43489	0.506262	2.16919	0.563668	2.43421	0.952166	4.12062					0.741687	3.20661						
0.564868	2.43286	0.508337	2.16942	0.565466	2.43219	0.953454	4.10963					0.743107	3.19986						
0.566668	2.43086	0.510412	2.16965	0.567266	2.4302	0.954743	4.09872					0.744529	3.19317						
0.56847	2.42888	0.512487	2.16988	0.569068	2.42823	0.956032	4.08791					0.745954	3.18655						
0.570273	2.42692	0.514562	2.1701	0.570872	2.42628	0.957321	4.07717					0.747382	3.17999						
0.572078	2.42499	0.516637	2.17032	0.572678	2.42435	0.958609	4.06653					0.748812	3.1735						
0.573885	2.42308	0.518712	2.17055	0.574485	2.42245	0.959898	4.05596					0.750245	3.16707						
0.575694	2.42119	0.520787	2.17076	0.576295	2.42057	0.961188	4.04549					0.75168	3.16069						
0.577504	2.41933	0.522861	2.17098	0.578106	2.41871	0.962477	4.03509					0.753118	3.15438						
0.579316	2.41748	0.524936	2.1712	0.579918	2.41687	0.963767	4.02478					0.754558	3.14813						
0.58113	2.41566	0.527011	2.17141	0.581733	2.41506	0.965057	4.01454					0.756001	3.14193						
0.582946	2.41386	0.529086	2.17162	0.583549	2.41327	0.966347	4.00439					0.757446	3.1358						
0.584763	2.41208	0.53116	2.17183	0.585367	2.41149	0.967638	3.99432					0.758894	3.12972						
0.586582	2.41032	0.533235	2.17204	0.587187	2.40974	0.968929	3.98432					0.760344	3.1237						
0.588403	2.40858	0.53531	2.17225	0.589008	2.40801	0.970221	3.97441					0.761797	3.11773						
0.590225	2.40686	0.537385	2.17245	0.590831	2.40629	0.971513	3.96457					0.763252	3.11182						
0.592049	2.40516	0.539459	2.17266	0.592655	2.4046	0.972806	3.95481					0.764709	3.10597						
0.593875	2.40348	0.541534	2.17286	0.594482	2.40292	0.974099	3.94512					0.766169	3.10017						
0.595702	2.40182	0.543609	2.17306	0.596309	2.40127	0.975393	3.93551					0.767632	3.09442						
0.597531	2.40017	0.545683	2.17326	0.598139	2.39963	0.976687	3.92598					0.769097	3.08872						
0.599361	2.39855	0.547758	2.17346	0.599969	2.39801	0.977983	3.91652					0.770564	3.08308						
0.601193	2.39694	0.549832	2.17365	0.601802	2.39641	0.979279	3.90713					0.772034	3.07749						
0.603027	2.39536	0.551907	2.17385	0.603636	2.39483	0.980575	3.89781					0.773506	3.07195						
0.604862	2.39379	0.553982	2.17404	0.605471	2.39327	0.981873	3.88857					0.774981	3.06646						
0.606698	2.39223	0.556056	2.17423	0.607308	2.39172	0.983171	3.8794					0.776458	3.06102						
0.608536	2.3907	0.558131	2.17442	0.609147	2.39019	0.98447	3.87029					0.777937	3.05563						
0.610376	2.38918	0.560205	2.17461	0.610987	2.38868	0.985769	3.86126					0.779419	3.05028						
0.612217	2.38768	0.56228	2.1748	0.612829	2.38718	0.98707	3.8523					0.780904	3.04499						
0.614059	2.38619	0.564354	2.17499	0.614672	2.3857	0.988372	3.8434					0.78239	3.03974						
0.615903	2.38473	0.566429	2.17517	0.616516	2.38424	0.989674	3.83457					0.783879	3.03454						
0.617749	2.38327	0.568503	2.17535	0.618362	2.38279	0.990978	3.82581					0.78537	3.02939						
0.619596	2.38184	0.570578	2.17554	0.620209	2.38136	0.992282	3.81712					0.786864	3.02428						
0.621444	2.38042	0.572652	2.17572	0.622058	2.37995	0.993587	3.80849					0.78836	3.01922						
0.623293	2.37901	0.574727	2.17589	0.623908	2.37855	0.994894	3.79993					0.789858	3.0142						
0.625144	2.37762	0.576801	2.17607	0.625759	2.37716	0.996201	3.79143					0.791359	3.00923						
0.626997	2.37625	0.578875	2.17625	0.627612	2.37579	0.99751	3.78299					0.792862	3.0043						
0.628851	2.37489	0.58095	2.17642	0.629467	2.37444	0.998819	3.77462					0.794367	2.99942						
0.630706	2.37354	0.583024	2.1766	0.631322	2.3731	1.00013	3.76632					0.795875	2.99458						
0.632562	2.37221	0.585098	2.17677	0.633179	2.37177							0.797385	2.98978						
0.63442	2.37089	0.587173	2.17694	0.635037	2.37046							0.798897	2.98502						
0.636279	2.36959	0.589247	2.17711	0.636897	2.36916							0.800411	2.9803						
0.63814	2.3683	0.591321	2.17728	0.638758	2.36788							0.801928	2.97563						
0.640001	2.36703	0.593396	2.17745	0.64062	2.36661							0.803447	2.97099						
0.641864	2.36576	0.59547	2.17762	0.642483	2.36535							0.804968	2.9664						
0.643729	2.36452	0.597544	2.17778	0.644348	2.3641							0.806492	2.96184						
0.645594	2.36328	0.599618	2.17795	0.646214	2.36287							0.808017	2.95733						
0.647461	2.36206	0.601693	2.17811	0.648081	2.36165							0.809545	2.95285						
0.649329	2.36085	0.603767	2.17827	0.64995	2.36045							0.811076	2.94841						
0.651198	2.35965	0.605841	2.17843	0.65182	2.35926							0.812608	2.94401						
0.653069	2.35847	0.607915	2.17859	0.65369	2.35808							0.814142	2.93965						
0.654941	2.3573	0.609989	2.17875	0.655563	2.35691							0.815679	2.93532						
0.656814	2.35614	0.612063	2.17891	0.657436	2.35575							0.817218	2.93103						
0.658688	2.35499	0.614138	2.17906	0.65931	2.35461							0.818759	2.92678						
0.660563	2.35385	0.616212	2.17922	0.661186	2.35348							0.820302	2.92256						
0.662439	2.35273	0.618286	2.17937	0.663063	2.35236							0.821848	2.91838						
0.664317	2.35161	0.62036	2.17953	0.664941	2.35125							0.823395	2.91423						
0.666196	2.35051	0.622434	2.17968	0.66682	2.35015							0.824945	2.91012						
0.668076	2.34942	0.624508	2.17983	0.6687	2.34906							0.826497	2.90605						
0.669957	2.34834	0.626582	2.17998	0.670582	2.34799							0.828051	2.902						
0.671839	2.34727	0.628656	2.18013	0.672464	2.34692							0.829607	2.89799						
0.673722	2.34622	0.63073	2.18028	0.674348	2.34587							0.831165	2.89402						
0.675607	2.34517	0.632804	2.18042	0.676233	2.34482							0.832725	2.89007						
0.677492	2.34413	0.634878	2.18057	0.678119	2.34379							0.834288	2.88616						
0.679379	2.34311	0.636952	2.18071	0.680005	2.34277							0.835852	2.88229						
0.681266	2.34209	0.639026	2.18086	0.681893	2.34176							0.837419	2.87844						
0.683155	2.34109	0.6411	2.181	0.683783	2.34075							0.838987	2.87463						
0.685045	2.34009	0.643174	2.18114	0.685673	2.33976							0.840558	2.87084						
0.686936	2.33911	0.645248	2.18128	0.687564	2.33878							0.84213	2.86709						
0.688828	2.33813	0.647322	2.18142	0.689456	2.33781							0.843705	2.86337						
0.69072	2.33716	0.649396	2.18156	0.691349	2.33684							0.845282	2.85968						
0.692614	2.33621	0.65147	2.1817	0.693244	2.33589							0.84686	2.85602						
0.694509	2.33526	0.653543	2.18184	0.695139	2.33495							0.848441	2.85238						
0.696405	2.33432	0.655617	2.18198	0.697035	2.33401							0.850024	2.84878						
0.698302	2.33339	0.657691	2.18211	0.698932	2.33309							0.851609	2.84521						
0.7002	2.33247	0.659765	2.18225	0.700831	2.33217							0.853195	2.84166						
0.702099	2.33156	0.661839	2.18238	0.70273	2.33126							0.854784	2.83815						
0.703999	2.33066	0.663913	2.18251	0.70463	2.33036							0.856374	2.83466						
0.7059	2.32977	0.665986	2.18265	0.706531	2.32947							0.857967	2.8312						
0.707801	2.32888	0.66806	2.18278	0.708433	2.32859							0.859562	2.82777						
0.709704	2.32801	0.670134	2.18291	0.710336	2.32772							0.861158	2.82436						
0.711608	2.32714	0.672208	2.18304	0.71224	2.32685							0.862756	2.82099						
0.713513	2.32628	0.674281	2.18317	0.714145	2.326							0.864357	2.81764						
0.715418	2.32543	0.676355	2.18329	0.716051	2.32515							0.865959	2.81431						
0.717325	2.32459	0.678429	2.18342	0.717958	2.32431							0.867563	2.81101						
0.719232	2.32375	0.680503	2.18355	0.719866	2.32348							0.869169	2.80774						
0.72114	2.32292	0.682576	2.18367	0.721774	2.32265							0.870777	2.80449						
0.72305	2.32211	0.68465	2.1838	0.723684	2.32184							0.872386	2.80127						
0.72496	2.32129	0.686724	2.18392	0.725594	2.32103							0.873998	2.79808						
0.726871	2.32049	0.688797	2.18405	0.727506	2.32023							0.875612	2.7949						
0.728783	2.31969	0.690871	2.18417	0.729418	2.31943							0.877227	2.79176						
0.730695	2.31891	0.692945	2.18429	0.731331	2.31865							0.878844	2.78864						
0.732609	2.31812	0.695018	2.18441	0.733245	2.31787							0.880463	2.78554						
0.734523	2.31735	0.697092	2.18453	0.735159	2.3171							0.882084	2.78246						
0.736439	2.31658	0.699165	2.18465	0.737075	2.31633							0.883707	2.77941						
0.738355	2.31582	0.701239	2.18477	0.738991	2.31557							0.885331	2.77639						
0.740272	2.31507	0.703312	2.18489	0.740909	2.31482							0.886957	2.77338						
0.74219	2.31433	0.705386	2.18501	0.742827	2.31408							0.888585	2.7704						
0.744108	2.31359	0.70746	2.18512	0.744746	2.31334							0.890215	2.76745						
0.746028	2.31286	0.709533	2.18524	0.746665	2.31261							0.891847	2.76451						
0.747948	2.31213	0.711607	2.18535	0.748586	2.31189							0.89348	2.7616						
0.749869	2.31141	0.71368	2.18547	0.750507	2.31117							0.895115	2.75871						
0.751791	2.3107	0.715754	2.18558	0.75243	2.31046							0.896752	2.75584						
0.753714	2.30999	0.717827	2.1857	0.754352	2.30976							0.898391	2.75299						
0.755637	2.3093	0.7199	2.18581	0.756276	2.30906							0.900031	2.75017						
0.757561	2.3086	0.721974	2.18592	0.758201	2.30837							0.901673	2.74736						
0.759486	2.30792	0.724047	2.18603	0.760126	2.30769							0.903317	2.74458						
0.761412	2.30724	0.726121	2.18614	0.762052	2.30701							0.904962	2.74182						
0.763339	2.30656	0.728194	2.18625	0.763979	2.30634							0.90661	2.73908						
0.765266	2.30589	0.730268	2.18636	0.765906	2.30567							0.908259	2.73636						
0.767194	2.30523	0.732341	2.18647	0.767835	2.30501							0.909909	2.73366						
0.769123	2.30458	0.734414	2.18658	0.769764	2.30436							0.911561	2.73098						
0.771053	2.30393	0.736488	2.18668	0.771694	2.30371							0.913215	2.72832						
0.772983	2.30328	0.738561	2.18679	0.773624	2.30307							0.914871	2.72568						
0.774914	2.30264	0.740634	2.1869	0.775555	2.30243							0.916528	2.72305						
0.776846	2.30201	0.742708	2.187	0.777487	2.3018							0.918187	2.72045						
0.778778	2.30138	0.744781	2.18711	0.77942	2.30118							0.919848	2.71787						
0.780711	2.30076	0.746854	2.18721	0.781354	2.30056							0.92151	2.71531						
0.782645	2.30014	0.748928	2.18732	0.783288	2.29994							0.923174	2.71276						
0.78458	2.29953	0.751001	2.18742	0.785223	2.29933							0.924839	2.71024						
0.786515	2.29893	0.753074	2.18752	0.787158	2.29873							0.926506	2.70773						
0.788451	2.29833	0.755147	2.18762	0.789094	2.29813							0.928175	2.70524						
0.790388	2.29773	0.757221	2.18772	0.791031	2.29754							0.929845	2.70277						
0.792325	2.29714	0.759294	2.18782	0.792969	2.29695							0.931517	2.70031						
0.794263	2.29656	0.761367	2.18792	0.794907	2.29637							0.93319	2.69788						
0.796202	2.29598	0.76344	2.18802	0.796846	2.29579							0.934865	2.69546						
0.798141	2.2954	0.765513	2.18812	0.798786	2.29521							0.936542	2.69306						
0.800081	2.29483	0.767587	2.18822	0.800726	2.29465							0.93822	2.69068						
0.802022	2.29427	0.76966	2.18832	0.802667	2.29408							0.939899	2.68831						
0.803963	2.29371	0.771733	2.18842	0.804608	2.29353							0.94158	2.68596						
0.805906	2.29316	0.773806	2.18851	0.806551	2.29297							0.943263	2.68363						
0.807848	2.2926	0.775879	2.18861	0.808493	2.29242							0.944947	2.68131						
0.809791	2.29206	0.777952	2.1887	0.810437	2.29188							0.946633	2.67901						
0.811735	2.29152	0.780025	2.1888	0.812381	2.29134							0.94832	2.67673						
0.81368	2.29098	0.782098	2.18889	0.814326	2.29081							0.950009	2.67446						
0.815625	2.29045	0.784172	2.18899	0.816271	2.29028							0.951699	2.67221						
0.817571	2.28992	0.786245	2.18908	0.818217	2.28975							0.953391	2.66998						
0.819517	2.2894	0.788318	2.18918	0.820164	2.28923							0.955084	2.66776						
0.821464	2.28888	0.790391	2.18927	0.822111	2.28871							0.956779	2.66556						
0.823412	2.28837	0.792464	2.18936	0.824059	2.2882							0.958475	2.66337						
0.82536	2.28786	0.794537	2.18945	0.826007	2.28769							0.960173	2.6612						
0.827309	2.28735	0.79661	2.18954	0.827956	2.28719							0.961872	2.65904						
0.829258	2.28685	0.798683	2.18963	0.829906	2.28669							0.963573	2.6569						
0.831208	2.28636	0.800756	2.18972	0.831856	2.28619							0.965275	2.65477						
0.833159	2.28586	0.802829	2.18981	0.833807	2.2857							0.966978	2.65266						
0.83511	2.28537	0.804902	2.1899	0.835758	2.28521							0.968683	2.65056						
0.837062	2.28489	0.806975	2.18999	0.83771	2.28473							0.970389	2.64848						
0.839014	2.28441	0.809048	2.19008	0.839663	2.28425							0.972097	2.64641						
0.840967	2.28393	0.81112	2.19017	0.841616	2.28378							0.973806	2.64435						
0.842921	2.28346	0.813193	2.19025	0.84357	2.2833							0.975516	2.64231						
0.844875	2.28299	0.815266	2.19034	0.845524	2.28284							0.977228	2.64029						
0.846829	2.28253	0.817339	2.19043	0.847479	2.28237							0.978942	2.63827						
0.848784	2.28207	0.819412	2.19051	0.849434	2.28191							0.980656	2.63628						
0.85074	2.28161	0.821485	2.1906	0.85139	2.28146							0.982372	2.63429						
0.852696	2.28116	0.823558	2.19068	0.853346	2.28101							0.98409	2.63232						
0.854653	2.28071	0.825631	2.19077	0.855303	2.28056							0.985808	2.63036						
0.856611	2.28026	0.827703	2.19085	0.857261	2.28011							0.987529	2.62842						
0.858568	2.27982	0.829776	2.19093	0.859219	2.27967							0.98925	2.62649						
0.860527	2.27938	0.831849	2.19102	0.861177	2.27923							0.990973	2.62457						
0.862486	2.27894	0.833922	2.1911	0.863136	2.2788							0.992697	2.62266						
0.864445	2.27851	0.835995	2.19118	0.865096	2.27837							0.994422	2.62077						
0.866405	2.27808	0.838067	2.19126	0.867056	2.27794							0.996149	2.61889						
0.868366	2.27766	0.84014	2.19134	0.869017	2.27752							0.997877	2.61702						
0.870327	2.27724	0.842213	2.19142	0.870978	2.2771							0.999607	2.61517						
0.872288	2.27682	0.844286	2.19151	0.87294	2.27668							1.00134	2.61333						
0.87425	2.2764	0.846358	2.19159	0.874902	2.27627														
0.876213	2.27599	0.848431	2.19166	0.876865	2.27586														
0.878176	2.27558	0.850504	2.19174	0.878828	2.27545														
0.880139	2.27518	0.852576	2.19182	0.880791	2.27505														
0.882103	2.27478	0.854649	2.1919	0.882756	2.27464														
0.884068	2.27438	0.856722	2.19198	0.88472	2.27425														
0.886033	2.27398	0.858794	2.19206	0.886685	2.27385														
0.887998	2.27359	0.860867	2.19213	0.888651	2.27346														
0.889964	2.2732	0.86294	2.19221	0.890617	2.27307														
0.891931	2.27282	0.865012	2.19229	0.892584	2.27269														
0.893898	2.27243	0.867085	2.19236	0.894551	2.27231														
0.895865	2.27205	0.869157	2.19244	0.896518	2.27193														
0.897833	2.27168	0.87123	2.19251	0.898486	2.27155														
0.899801	2.2713	0.873303	2.19259	0.900455	2.27118														
0.90177	2.27093	0.875375	2.19266	0.902424	2.27081														
0.903739	2.27056	0.877448	2.19274	0.904393	2.27044														
0.905709	2.2702	0.87952	2.19281	0.906363	2.27008														
0.907679	2.26983	0.881593	2.19288	0.908333	2.26971														
0.909649	2.26947	0.883665	2.19296	0.910304	2.26936														
0.91162	2.26912	0.885738	2.19303	0.912275	2.269														
0.913592	2.26876	0.88781	2.1931	0.914247	2.26865														
0.915564	2.26841	0.889883	2.19317	0.916219	2.2683														
0.917536	2.26806	0.891955	2.19325	0.918191	2.26795														
0.919509	2.26772	0.894028	2.19332	0.920164	2.2676														
0.921482	2.26737	0.8961	2.19339	0.922137	2.26726														
0.923456	2.26703	0.898173	2.19346	0.924111	2.26692														
0.92543	2.26669	0.900245	2.19353	0.926086	2.26658														
0.927404	2.26636	0.902317	2.1936	0.92806	2.26625														
0.929379	2.26602	0.90439	2.19367	0.930035	2.26591														
0.931355	2.26569	0.906462	2.19374	0.932011	2.26559														
0.93333	2.26537	0.908535	2.19381	0.933987	2.26526														
0.935307	2.26504	0.910607	2.19387	0.935963	2.26493														
0.937283	2.26472	0.912679	2.19394	0.93794	2.26461														
0.93926	2.2644	0.914752	2.19401	0.939917	2.26429														
0.941237	2.26408	0.916824	2.19408	0.941894	2.26397														
0.943215	2.26376	0.918896	2.19414	0.943872	2.26366														
0.945193	2.26345	0.920969	2.19421	0.94585	2.26334														
0.947172	2.26314	0.923041	2.19428	0.947829	2.26303														
0.949151	2.26283	0.925113	2.19434	0.949808	2.26273														
0.95113	2.26252	0.927185	2.19441	0.951788	2.26242														
0.95311	2.26222	0.929258	2.19448	0.953768	2.26212														
0.95509	2.26192	0.93133	2.19454	0.955748	2.26182														
0.957071	2.26162	0.933402	2.19461	0.957729	2.26152														
0.959052	2.26132	0.935474	2.19467	0.95971	2.26122														
0.961033	2.26102	0.937547	2.19473	0.961691	2.26092														
0.963015	2.26073	0.939619	2.1948	0.963673	2.26063														
0.964997	2.26044	0.941691	2.19486	0.965655	2.26034														
0.966979	2.26015	0.943763	2.19492	0.967637	2.26005														
0.968962	2.25986	0.945835	2.19499	0.96962	2.25977														
0.970945	2.25958	0.947908	2.19505	0.971604	2.25948														
0.972929	2.2593	0.94998	2.19511	0.973587	2.2592														
0.974912	2.25901	0.952052	2.19518	0.975571	2.25892														
0.976897	2.25874	0.954124	2.19524	0.977556	2.25864														
0.978881	2.25846	0.956196	2.1953	0.97954	2.25837														
0.980866	2.25818	0.958268	2.19536	0.981525	2.25809														
0.982852	2.25791	0.96034	2.19542	0.983511	2.25782														
0.984837	2.25764	0.962412	2.19548	0.985497	2.25755														
0.986823	2.25737	0.964484	2.19554	0.987483	2.25728														
0.98881	2.25711	0.966556	2.1956	0.989469	2.25702														
0.990796	2.25684	0.968628	2.19566	0.991456	2.25675														
0.992783	2.25658	0.9707	2.19572	0.993443	2.25649														
0.994771	2.25632	0.972772	2.19578	0.995431	2.25623														
0.996758	2.25606	0.974845	2.19584	0.997419	2.25597														
0.998747	2.2558	0.976917	2.1959	0.999407	2.25572														
1.00073	2.25555	0.978989	2.19596	1.0014	2.25546														
		0.98106	2.19602																
		0.983132	2.19607																
		0.985204	2.19613																
		0.987276	2.19619																
		0.989348	2.19625																
		0.99142	2.1963																
		0.993492	2.19636																
		0.995564	2.19642																
		0.997636	2.19647																
		0.999708	2.19653																
		1.00178	2.19658																
