Sym0		Asym0		Sym1		Sym2		Sym3		Sym4		Asym1		Asym2		Asym3		Asym4	
490  Points		497  Points		346  Points		196  Points		169  Points		134  Points		437  Points		242  Points		174  Points		144  Points	
Freq (MHz)	Vph (m/ms)	Freq (MHz)	Vph (m/ms)	Freq (MHz)	Vph (m/ms)	Freq (MHz)	Vph (m/ms)	Freq (MHz)	Vph (m/ms)	Freq (MHz)	Vph (m/ms)	Freq (MHz)	Vph (m/ms)	Freq (MHz)	Vph (m/ms)	Freq (MHz)	Vph (m/ms)	Freq (MHz)	Vph (m/ms)
0.000367197	5.69203	0.000513209	0.205316	0.279512	319.679	0.330522	478.71	0.55902	1608.6	0.838528	1773.92	0.139757	986.64	0.419271	732.711	0.660996	720.629	0.698771	6585.53
0.00567072	5.69232	0.000962375	0.280469	0.279526	154.772	0.330648	203.835	0.559052	437.028	0.83855	597.09	0.139898	130.339	0.41932	278.819	0.661022	357.513	0.698797	673.343
0.0109732	5.69178	0.00154617	0.354381	0.279548	102.109	0.330875	129.56	0.559121	252.892	0.838593	358.973	0.140256	69.9519	0.419412	172.2	0.661064	237.738	0.698864	354.844
0.0162738	5.69094	0.00225959	0.426765	0.279581	76.1918	0.331203	95.0224	0.559228	177.95	0.838658	256.644	0.140828	47.9539	0.419548	124.595	0.661123	178.088	0.698972	240.926
0.0215715	5.68976	0.00309676	0.49736	0.279624	60.773	0.331631	75.0768	0.559371	137.293	0.838744	199.726	0.14161	36.6065	0.419728	97.6339	0.661199	142.376	0.699121	182.401
0.0268656	5.68826	0.00405121	0.565962	0.27968	50.5492	0.332158	62.0981	0.559551	111.776	0.838851	163.481	0.142596	29.7068	0.419951	80.2859	0.661293	118.602	0.699311	146.773
0.0321548	5.6864	0.00511603	0.632407	0.279748	43.2744	0.332782	52.9856	0.559769	94.2738	0.83898	138.38	0.143782	25.0849	0.420217	68.1907	0.661404	101.638	0.699542	122.807
0.0374383	5.68421	0.00628396	0.696556	0.279831	37.8343	0.333503	46.2409	0.560023	81.5244	0.839131	119.969	0.14516	21.7843	0.420527	59.2786	0.661533	88.9263	0.699814	105.585
0.0427151	5.68166	0.00754769	0.75832	0.27993	33.6134	0.334319	41.051	0.560313	71.8251	0.839302	105.889	0.146722	19.3177	0.42088	52.441	0.66168	79.0461	0.700126	92.6134
0.0479841	5.67875	0.00889997	0.817646	0.280046	30.2438	0.335229	36.937	0.560641	64.1996	0.839495	94.7731	0.148461	17.4108	0.421275	47.0306	0.661846	71.147	0.700479	82.4931
0.0532443	5.67548	0.0103334	0.874485	0.280181	27.4921	0.33623	33.5982	0.561005	58.0482	0.83971	85.7753	0.150367	15.8974	0.421714	42.644	0.662029	64.688	0.700872	74.3784
0.0584943	5.67182	0.0118413	0.928853	0.280337	25.2033	0.337321	30.8363	0.561405	52.9819	0.839946	78.3433	0.152432	14.6706	0.422194	39.0167	0.662232	59.3085	0.701304	67.7278
0.0637332	5.66776	0.0134168	0.98076	0.280516	23.2702	0.338501	28.5154	0.561842	48.7378	0.840203	72.1016	0.154648	13.6591	0.422717	35.9681	0.662455	54.7592	0.701776	62.1786
0.0689596	5.66331	0.0150537	1.03025	0.280719	21.6164	0.339767	26.5391	0.562316	45.1313	0.840482	66.7858	0.157005	12.8129	0.423282	33.3707	0.662697	50.8621	0.702287	57.479
0.0741722	5.65844	0.0167461	1.07738	0.28095	20.1859	0.341117	24.8371	0.562825	42.0293	0.840781	62.2044	0.159497	12.0965	0.423889	31.1318	0.662959	47.4865	0.702837	53.4483
0.0793696	5.65313	0.0184886	1.12222	0.281209	18.9369	0.34255	23.357	0.56337	39.3334	0.841102	58.2153	0.162113	11.4835	0.424537	29.1825	0.663241	44.5347	0.703425	49.9537
0.0845503	5.64737	0.0202759	1.16483	0.281499	17.8373	0.344065	22.0589	0.563951	36.9692	0.841444	54.7109	0.164848	10.9542	0.425226	27.4705	0.663544	41.9318	0.704051	46.8954
0.0897127	5.64113	0.0221036	1.20532	0.281822	16.8623	0.345658	20.9119	0.564568	34.8793	0.841807	51.6082	0.167692	10.4936	0.425955	25.9554	0.663869	39.6196	0.704715	44.1968
0.0948552	5.6344	0.0239673	1.24375	0.282181	15.9922	0.347329	19.8918	0.565221	33.019	0.842191	48.8419	0.17064	10.0898	0.426725	24.6054	0.664215	37.5523	0.705417	41.7985
0.0999759	5.62715	0.025863	1.28023	0.282577	15.2115	0.349076	18.9791	0.565908	31.3527	0.842597	46.3604	0.173685	9.73358	0.427535	23.3953	0.664584	35.693	0.706155	39.6531
0.105073	5.61935	0.0277874	1.31485	0.283013	14.5073	0.350896	18.1583	0.566631	29.8519	0.843023	44.1221	0.176819	9.41752	0.428385	22.3046	0.664975	34.012	0.70693	37.723
0.110144	5.61099	0.029737	1.34769	0.283491	13.8695	0.352789	17.4165	0.567389	28.4933	0.84347	42.0929	0.180038	9.13561	0.429274	21.3168	0.665388	32.4852	0.707741	35.9776
0.115188	5.60202	0.0317091	1.37884	0.284015	13.2893	0.354753	16.7433	0.568182	27.2577	0.843938	40.245	0.183335	8.88296	0.430201	20.4182	0.665826	31.0922	0.708588	34.3918
0.120201	5.59242	0.0337011	1.4084	0.284586	12.7598	0.356786	16.13	0.56901	26.1295	0.844427	38.5553	0.186705	8.65553	0.431168	19.5975	0.666287	29.8165	0.709471	32.9449
0.125181	5.58215	0.0357106	1.43645	0.285208	12.2749	0.358887	15.5692	0.569871	25.0954	0.844936	37.0044	0.190144	8.44997	0.432172	18.8451	0.666772	28.644	0.710388	31.6195
0.130125	5.57117	0.0377354	1.46307	0.285883	11.8296	0.361054	15.0547	0.570767	24.1442	0.845467	35.576	0.193646	8.26346	0.433214	18.153	0.667282	27.5627	0.711341	30.4012
0.135031	5.55944	0.0397739	1.48834	0.286615	11.4196	0.363285	14.5813	0.571698	23.2666	0.846018	34.2562	0.197208	8.09365	0.434293	17.5144	0.667817	26.5625	0.712328	29.2775
0.139895	5.54692	0.0415598	1.50931	0.287407	11.0413	0.36558	14.1444	0.572661	22.4544	0.846589	33.0332	0.200824	7.93852	0.435409	16.9236	0.668378	25.6348	0.713349	28.2381
0.144714	5.53357	0.0430887	1.52647	0.288263	10.6915	0.367937	13.7403	0.573659	21.7007	0.847181	31.8967	0.204492	7.79636	0.436562	16.3754	0.668964	24.7721	0.714403	27.274
0.149483	5.51932	0.0443569	1.54017	0.289186	10.3675	0.370354	13.3656	0.574689	20.9996	0.847793	30.838	0.208207	7.66571	0.43775	15.8655	0.669577	23.9679	0.715491	26.3773
0.1542	5.50413	0.045362	1.5507	0.29018	10.0669	0.372831	13.0173	0.575753	20.3458	0.848426	29.8494	0.211966	7.54528	0.438975	15.3902	0.670216	23.2165	0.716612	25.5413
0.15886	5.48796	0.0461023	1.55828	0.29125	9.78765	0.375366	12.6929	0.57685	19.7348	0.849079	28.9243	0.215765	7.43398	0.440234	14.9461	0.670882	22.513	0.717766	24.7602
0.163458	5.47073	0.0465765	1.56306	0.2924	9.52798	0.377957	12.3901	0.577979	19.1626	0.849753	28.0567	0.219603	7.33087	0.441528	14.5304	0.671576	21.853	0.718952	24.0289
0.167991	5.45239	0.047259	1.56984	0.293635	9.28629	0.380604	12.1071	0.579141	18.6258	0.850446	27.2416	0.222975	7.24701	0.442856	14.1406	0.672297	21.2328	0.72017	23.3427
0.172452	5.43289	0.0480017	1.57708	0.29496	9.06119	0.383306	11.8421	0.580335	18.1212	0.85116	26.4744	0.225869	7.17957	0.444219	13.7743	0.673046	20.6488	0.721421	22.6978
0.176836	5.41217	0.0490132	1.58672	0.296378	8.85143	0.386061	11.5935	0.58156	17.6461	0.851893	25.7509	0.228274	7.12639	0.445615	13.4296	0.673824	20.0982	0.722702	22.0906
0.181139	5.39016	0.0502944	1.59858	0.297897	8.65593	0.388868	11.3599	0.582818	17.1981	0.852647	25.0677	0.230184	7.0859	0.447044	13.1047	0.67463	19.5782	0.724016	21.5179
0.185355	5.36683	0.0518467	1.61244	0.29952	8.47369	0.391725	11.1402	0.584106	16.7749	0.85342	24.4215	0.231592	7.05697	0.448506	12.798	0.675465	19.0863	0.72536	20.977
0.189479	5.34211	0.0536712	1.62808	0.301253	8.30384	0.394633	10.9332	0.585426	16.3747	0.854213	23.8094	0.232496	7.03882	0.450001	12.5081	0.676329	18.6205	0.726735	20.4653
0.193505	5.31597	0.055769	1.64521	0.303101	8.14558	0.39759	10.738	0.586777	15.9956	0.855026	23.2288	0.233796	7.01319	0.451528	12.2338	0.677223	18.1788	0.72814	19.9807
0.197427	5.28837	0.0578705	1.66154	0.305067	7.99817	0.400594	10.5536	0.588159	15.6361	0.855858	22.6775	0.235213	6.98596	0.453087	11.9737	0.678146	17.7595	0.729576	19.521
0.201241	5.25929	0.0599752	1.67711	0.307157	7.86095	0.403646	10.3792	0.589571	15.2948	0.85671	22.1531	0.237144	6.94992	0.454677	11.727	0.679099	17.3608	0.731042	19.0845
0.204943	5.22872	0.0620824	1.69195	0.309375	7.7333	0.406743	10.2141	0.591013	14.9704	0.857582	21.654	0.239595	6.90591	0.456299	11.4927	0.680083	16.9815	0.732538	18.6694
0.208528	5.19665	0.0641918	1.70612	0.311722	7.61463	0.409885	10.0577	0.592485	14.6617	0.858472	21.1782	0.242569	6.85489	0.457952	11.2699	0.681097	16.6202	0.734064	18.2744
0.211993	5.16312	0.0663029	1.71964	0.314201	7.5044	0.413071	9.90935	0.593987	14.3676	0.859382	20.7244	0.246072	6.79791	0.459636	11.0578	0.682141	16.2756	0.735619	17.898
0.215336	5.12816	0.0684154	1.73257	0.316471	7.41482	0.416301	9.76848	0.595518	14.0872	0.860312	20.2909	0.250109	6.73605	0.461351	10.8557	0.683216	15.9468	0.737204	17.5389
0.218554	5.09183	0.0705289	1.74492	0.318485	7.34295	0.419572	9.63461	0.597078	13.8195	0.86126	19.8765	0.254161	6.67762	0.463097	10.663	0.684322	15.6326	0.738818	17.1962
0.221647	5.05419	0.0726432	1.75673	0.320207	7.28649	0.422885	9.50728	0.598668	13.5638	0.862227	19.4799	0.258227	6.62234	0.464873	10.4791	0.68546	15.3323	0.74046	16.8686
0.224616	5.01534	0.0747579	1.76804	0.321604	7.24368	0.426238	9.38606	0.600286	13.3193	0.863214	19.1002	0.262304	6.56992	0.46668	10.3034	0.686628	15.0449	0.742132	16.5553
0.227462	4.97538	0.076873	1.77886	0.322651	7.2132	0.429631	9.27058	0.601933	13.0853	0.864219	18.7361	0.266392	6.52014	0.468517	10.1355	0.687828	14.7697	0.743833	16.2554
0.230187	4.93443	0.0789882	1.78923	0.323329	7.19413	0.433063	9.16047	0.603608	12.8613	0.865243	18.3869	0.270486	6.47276	0.470384	9.97486	0.689059	14.5059	0.745562	15.968
0.232796	4.89262	0.0811034	1.79918	0.324317	7.16728	0.436533	9.0554	0.605312	12.6465	0.866286	18.0517	0.274587	6.42759	0.472282	9.82107	0.690321	14.2529	0.747319	15.6925
0.23529	4.85008	0.0832183	1.80871	0.325406	7.13886	0.44004	8.95508	0.607043	12.4405	0.867347	17.7296	0.278692	6.38444	0.47421	9.67374	0.691615	14.0101	0.749105	15.4282
0.237677	4.80696	0.0853329	1.81786	0.326914	7.10144	0.443584	8.85922	0.608802	12.2428	0.868427	17.4199	0.282799	6.34314	0.476169	9.53253	0.692941	13.777	0.750919	15.1744
0.23996	4.76338	0.0874473	1.82664	0.328864	7.05607	0.447163	8.76757	0.610589	12.0529	0.869525	17.1219	0.286907	6.30354	0.478159	9.39709	0.694298	13.5529	0.752761	14.9305
0.242146	4.71949	0.089561	1.83508	0.331284	7.00398	0.450778	8.67989	0.612404	11.8704	0.870642	16.8351	0.291013	6.26551	0.48018	9.26712	0.695688	13.3374	0.754631	14.696
0.244241	4.67541	0.0916742	1.8432	0.334208	6.94656	0.454428	8.59595	0.614245	11.6949	0.871776	16.5587	0.295117	6.22891	0.482232	9.14233	0.697108	13.1302	0.756529	14.4704
0.24625	4.63128	0.0937868	1.851	0.337672	6.88522	0.458111	8.51555	0.616114	11.526	0.87293	16.2923	0.299216	6.19363	0.484315	9.02245	0.698561	12.9306	0.758455	14.2533
0.24818	4.5872	0.0958987	1.8585	0.341246	6.82838	0.461828	8.43849	0.61801	11.3634	0.874101	16.0353	0.303308	6.15955	0.48643	8.90725	0.700044	12.7384	0.760409	14.0441
0.250037	4.54328	0.0980099	1.86573	0.344925	6.77567	0.465577	8.3646	0.619933	11.2068	0.87529	15.7873	0.307393	6.12658	0.488577	8.79649	0.70156	12.5531	0.762391	13.8425
0.251827	4.49963	0.10012	1.87269	0.348701	6.72674	0.469359	8.29371	0.621882	11.0558	0.876497	15.5478	0.311468	6.09462	0.490756	8.68996	0.703107	12.3745	0.7644	13.6481
0.253555	4.45632	0.10223	1.8794	0.352568	6.68126	0.473172	8.22566	0.623858	10.9103	0.877723	15.3164	0.315531	6.06358	0.492968	8.58745	0.704685	12.2022	0.766437	13.4605
0.255227	4.41343	0.104339	1.88587	0.35652	6.63893	0.477016	8.16032	0.625861	10.7698	0.878965	15.0927	0.319581	6.03339	0.495213	8.48879	0.706294	12.0359	0.768501	13.2795
0.256847	4.37102	0.106447	1.89211	0.360549	6.59946	0.48089	8.09753	0.62789	10.6342	0.880226	14.8764	0.323617	6.00398	0.497492	8.3938	0.707935	11.8753	0.770593	13.1047
0.258421	4.32916	0.108554	1.89813	0.364649	6.56259	0.484794	8.03718	0.629946	10.5033	0.881504	14.667	0.327636	5.97526	0.499806	8.30232	0.709606	11.7202	0.772712	12.9358
0.259952	4.2879	0.110661	1.90395	0.368814	6.52809	0.488728	7.97915	0.632028	10.3768	0.8828	14.4643	0.331638	5.94719	0.502153	8.21419	0.711309	11.5702	0.774859	12.7725
0.261446	4.24726	0.112766	1.90956	0.373037	6.49571	0.492691	7.92332	0.634137	10.2546	0.884114	14.2681	0.33562	5.91969	0.504536	8.12928	0.713042	11.4253	0.777033	12.6146
0.262905	4.20728	0.114871	1.91499	0.377313	6.46527	0.496682	7.86959	0.636271	10.1364	0.885445	14.0779	0.33958	5.89271	0.506955	8.04745	0.714805	11.2851	0.779235	12.4618
0.264334	4.168	0.116975	1.92024	0.381635	6.43657	0.500701	7.81787	0.638432	10.0221	0.886793	13.8935	0.343518	5.8662	0.50941	7.96857	0.716599	11.1494	0.781464	12.314
0.265735	4.12943	0.119078	1.92532	0.385998	6.40945	0.504747	7.76804	0.64062	9.91143	0.888159	13.7147	0.347432	5.84011	0.511902	7.89252	0.718423	11.018	0.78372	12.1709
0.267111	4.09158	0.121181	1.93023	0.390398	6.38375	0.508821	7.72004	0.642834	9.80435	0.889541	13.5412	0.351319	5.81439	0.514431	7.81919	0.720276	10.8908	0.786004	12.0323
0.268466	4.05447	0.123282	1.93499	0.39483	6.35933	0.512921	7.67378	0.645074	9.70068	0.890941	13.3729	0.355178	5.789	0.516999	7.74848	0.722159	10.7676	0.788315	11.8979
0.269801	4.0181	0.125383	1.9396	0.399289	6.33607	0.516516	7.63481	0.647341	9.60026	0.892358	13.2094	0.359009	5.76391	0.519267	7.68892	0.724071	10.6482	0.790653	11.7678
0.27112	3.98247	0.127483	1.94407	0.403771	6.31384	0.519595	7.60256	0.649635	9.50297	0.893792	13.0507	0.362809	5.73906	0.521224	7.6396	0.726012	10.5324	0.793019	11.6415
0.272423	3.94759	0.129582	1.9484	0.408272	6.29255	0.522153	7.57653	0.651955	9.40868	0.895244	12.8964	0.366576	5.71444	0.522859	7.59981	0.727982	10.4202	0.795412	11.5191
0.273713	3.91345	0.131681	1.9526	0.412789	6.2721	0.524182	7.55635	0.654303	9.31728	0.896712	12.7465	0.37031	5.69	0.524162	7.56896	0.72998	10.3113	0.797833	11.4003
0.274992	3.88005	0.133779	1.95667	0.417317	6.2524	0.525677	7.54173	0.656677	9.22865	0.898197	12.6007	0.374008	5.66572	0.525126	7.54662	0.732006	10.2056	0.80028	11.2851
0.276261	3.84737	0.135876	1.96063	0.421855	6.23337	0.526636	7.53248	0.659079	9.14269	0.899698	12.4589	0.37767	5.64156	0.525745	7.53248	0.734059	10.103	0.802756	11.1732
0.277521	3.81542	0.137972	1.96447	0.426398	6.21494	0.528017	7.5193	0.661508	9.0593	0.901217	12.321	0.381294	5.61751	0.52664	7.51234	0.73614	10.0033	0.805258	11.0645
0.278774	3.78418	0.140068	1.9682	0.430945	6.19705	0.52952	7.50515	0.663964	8.97839	0.902752	12.1867	0.384878	5.59354	0.527617	7.49073	0.738248	9.90656	0.807788	10.959
0.279862	3.75753	0.142163	1.97182	0.435491	6.17964	0.53157	7.48619	0.666449	8.89986	0.904304	12.056	0.388422	5.56963	0.528954	7.46177	0.740383	9.81252	0.810346	10.8565
0.280786	3.73522	0.144257	1.97534	0.440036	6.16265	0.534171	7.46267	0.668962	8.82363	0.905872	11.9288	0.391924	5.54576	0.530659	7.42586	0.742544	9.72112	0.812931	10.7568
0.281548	3.71706	0.146351	1.97877	0.444575	6.14603	0.537329	7.43489	0.671503	8.74963	0.907457	11.8048	0.395384	5.52192	0.53274	7.38348	0.74473	9.63226	0.815543	10.66
0.28215	3.70288	0.148444	1.9821	0.449108	6.12974	0.541049	7.4032	0.674074	8.67777	0.909058	11.684	0.3988	5.49808	0.535211	7.33518	0.746942	9.54584	0.818183	10.5658
0.282592	3.69256	0.150536	1.98534	0.453632	6.11374	0.545341	7.36799	0.676673	8.60799	0.910676	11.5663	0.402171	5.47424	0.538084	7.28158	0.749179	9.46177	0.820851	10.4742
0.282874	3.68599	0.152628	1.98849	0.458145	6.09799	0.549655	7.33396	0.679302	8.54021	0.91231	11.4516	0.405496	5.45038	0.540999	7.22987	0.751441	9.37996	0.823546	10.3852
0.28328	3.67662	0.15472	1.99157	0.462645	6.08246	0.553992	7.30106	0.681961	8.47437	0.913961	11.3397	0.408775	5.4265	0.543954	7.17996	0.753727	9.30033	0.826269	10.2985
0.283721	3.66651	0.15681	1.99456	0.46713	6.06711	0.55835	7.26925	0.68465	8.41042	0.915628	11.2305	0.412007	5.40259	0.54695	7.1318	0.756037	9.22281	0.829019	10.2142
0.284321	3.65289	0.158901	1.99747	0.471598	6.05191	0.562731	7.23848	0.68737	8.34828	0.917311	11.1241	0.415192	5.37864	0.549987	7.08533	0.758371	9.14731	0.831796	10.1321
0.285078	3.63589	0.16099	2.00031	0.476048	6.03684	0.567132	7.2087	0.690121	8.28791	0.919011	11.0202	0.418329	5.35465	0.553065	7.04047	0.760727	9.07377	0.834602	10.0522
0.285994	3.61565	0.16308	2.00308	0.480479	6.02188	0.571554	7.17988	0.692904	8.22926	0.920727	10.9188	0.421418	5.33061	0.556182	6.99717	0.763107	9.00211	0.837434	9.97437
0.287067	3.59235	0.165168	2.00579	0.484888	6.00699	0.575996	7.15197	0.69572	8.17227	0.922459	10.8197	0.424459	5.30654	0.55934	6.95537	0.765508	8.93226	0.840295	9.89859
0.288299	3.56618	0.167256	2.00842	0.489275	5.99217	0.580457	7.12493	0.698568	8.1169	0.924207	10.7231	0.427451	5.28242	0.562537	6.91501	0.767932	8.86418	0.843183	9.82478
0.289531	3.54062	0.169344	2.01099	0.493637	5.97739	0.584937	7.09874	0.70145	8.06309	0.925971	10.6286	0.430395	5.25825	0.565772	6.87603	0.770377	8.79779	0.846098	9.75287
0.290764	3.51564	0.171431	2.0135	0.497974	5.96264	0.589435	7.07335	0.704366	8.01082	0.927751	10.5364	0.43329	5.23405	0.569046	6.83838	0.772844	8.73304	0.849041	9.68281
0.291998	3.49123	0.173518	2.01595	0.502284	5.9479	0.59395	7.04873	0.706935	7.96647	0.929548	10.4463	0.436138	5.20982	0.572357	6.80201	0.775331	8.66987	0.852012	9.61453
0.293234	3.46738	0.175604	2.01834	0.506567	5.93315	0.598483	7.02484	0.709146	7.92955	0.93136	10.3582	0.438938	5.18555	0.575704	6.76686	0.777839	8.60822	0.85501	9.54797
0.294472	3.44408	0.17769	2.02068	0.510821	5.91839	0.603031	7.00166	0.71099	7.8996	0.933189	10.2721	0.441691	5.16127	0.579086	6.73289	0.780367	8.54806	0.858035	9.48309
0.295713	3.42131	0.179776	2.02296	0.515045	5.9036	0.607594	6.97914	0.712457	7.8763	0.935033	10.1879	0.444398	5.13696	0.582503	6.70003	0.782915	8.48933	0.861088	9.41983
0.296957	3.39906	0.181861	2.02519	0.519238	5.88877	0.612172	6.95727	0.713541	7.85938	0.936894	10.1056	0.447058	5.11265	0.585953	6.66826	0.785482	8.43198	0.864168	9.35815
0.298204	3.37732	0.183946	2.02737	0.523399	5.8739	0.616764	6.93601	0.714238	7.84864	0.93877	10.0251	0.449673	5.08835	0.589435	6.63751	0.788068	8.37597	0.867275	9.29799
0.299454	3.35607	0.18603	2.0295	0.527527	5.85897	0.621368	6.91533	0.715242	7.83333	0.940662	9.94632	0.452244	5.06405	0.592948	6.60774	0.790673	8.32126	0.87041	9.2393
0.300709	3.3353	0.188114	2.03159	0.531622	5.84398	0.625984	6.89521	0.716339	7.81685	0.942571	9.86927	0.454771	5.03976	0.596491	6.57891	0.793297	8.26781	0.873572	9.18206
0.301967	3.315	0.190198	2.03363	0.535683	5.82891	0.63061	6.8756	0.717837	7.79471	0.944495	9.79388	0.457255	5.01551	0.600062	6.55098	0.79594	8.21557	0.87676	9.1262
0.303229	3.29516	0.192281	2.03563	0.539708	5.81378	0.635246	6.8565	0.719746	7.76716	0.946435	9.72009	0.459697	4.99129	0.603659	6.52389	0.7986	8.16451	0.879976	9.0717
0.304496	3.27576	0.194364	2.03758	0.543698	5.79856	0.639891	6.83787	0.722073	7.73451	0.948391	9.64786	0.462099	4.96712	0.607282	6.49762	0.800932	8.12095	0.883219	9.0185
0.305768	3.25679	0.196446	2.03949	0.547652	5.78326	0.644544	6.81969	0.72483	7.6971	0.950363	9.57715	0.464461	4.943	0.610929	6.47213	0.802932	8.08449	0.886488	8.96658
0.307044	3.23825	0.198529	2.04136	0.551569	5.76787	0.649202	6.80193	0.728031	7.65535	0.952351	9.50791	0.466784	4.91895	0.614599	6.44736	0.804592	8.05479	0.889784	8.9159
0.308325	3.22012	0.200611	2.0432	0.555448	5.7524	0.653866	6.78457	0.731272	7.61483	0.954355	9.44011	0.469069	4.89497	0.618289	6.4233	0.805909	8.03159	0.893106	8.86641
0.309611	3.20239	0.202692	2.04499	0.55929	5.73683	0.658534	6.76758	0.734554	7.57551	0.956374	9.3737	0.471317	4.87107	0.622	6.3999	0.806881	8.01469	0.896455	8.81809
0.310902	3.18505	0.204773	2.04675	0.563093	5.72117	0.663204	6.75093	0.737878	7.53736	0.95841	9.30864	0.47353	4.84727	0.625728	6.37713	0.807504	8.00395	0.89983	8.77091
0.312198	3.16809	0.206854	2.04847	0.566858	5.70541	0.667876	6.73462	0.741244	7.50037	0.960461	9.24491	0.475709	4.82357	0.629473	6.35495	0.8084	7.9886	0.903231	8.72482
0.3135	3.1515	0.208935	2.05016	0.570585	5.68956	0.672548	6.71861	0.744654	7.4645	0.962529	9.18246	0.477854	4.79997	0.633233	6.33334	0.809377	7.97204	0.906658	8.67981
0.314806	3.13527	0.211016	2.05182	0.574272	5.67362	0.677218	6.70288	0.748108	7.42974	0.964612	9.12126	0.479967	4.77649	0.637007	6.31227	0.810709	7.94972	0.91011	8.63583
0.316119	3.11939	0.213096	2.05344	0.57792	5.65758	0.681886	6.68741	0.751608	7.39606	0.966711	9.06128	0.482049	4.75314	0.640793	6.2917	0.8124	7.92184	0.913588	8.59287
0.317436	3.10386	0.215176	2.05504	0.581528	5.64145	0.68655	6.67218	0.755153	7.36343	0.968826	9.00249	0.4841	4.72992	0.64459	6.2716	0.814452	7.88862	0.917091	8.55089
0.318759	3.08866	0.217255	2.0566	0.585097	5.62523	0.691208	6.65717	0.758744	7.33184	0.970958	8.94485	0.486123	4.70683	0.648396	6.25196	0.816872	7.85032	0.92062	8.50986
0.320088	3.07378	0.219335	2.05813	0.588627	5.60893	0.695859	6.64236	0.762383	7.30127	0.973105	8.88834	0.488118	4.68389	0.65221	6.23275	0.819664	7.80724	0.924173	8.46976
0.321422	3.05923	0.221414	2.05963	0.592117	5.59253	0.700502	6.62774	0.76607	7.2717	0.975268	8.83293	0.490085	4.6611	0.656031	6.21393	0.822472	7.76508	0.927751	8.43056
0.322762	3.04498	0.223493	2.06111	0.595567	5.57605	0.705135	6.61328	0.769806	7.2431	0.977447	8.77859	0.492027	4.63846	0.659857	6.1955	0.825297	7.72381	0.931353	8.39224
0.324108	3.03103	0.225571	2.06256	0.598978	5.55949	0.709758	6.59897	0.773591	7.21546	0.979643	8.7253	0.493943	4.61599	0.663687	6.17741	0.828138	7.6834	0.934979	8.35478
0.325459	3.01737	0.22765	2.06398	0.60235	5.54285	0.714368	6.58479	0.777426	7.18876	0.981854	8.67302	0.495836	4.59368	0.667519	6.15967	0.830995	7.64383	0.938159	8.32281
0.326816	3.00401	0.229728	2.06537	0.605682	5.52614	0.718964	6.57073	0.781311	7.16298	0.984082	8.62174	0.497705	4.57153	0.671352	6.14223	0.833868	7.60508	0.940883	8.29604
0.328178	2.99092	0.231806	2.06674	0.608975	5.50935	0.723546	6.55677	0.785247	7.13809	0.986325	8.57144	0.499552	4.54957	0.675185	6.12509	0.836756	7.56713	0.943146	8.27424
0.329547	2.9781	0.233884	2.06809	0.61223	5.4925	0.728111	6.5429	0.789234	7.11408	0.988585	8.52208	0.501378	4.52777	0.679017	6.10823	0.839661	7.52996	0.944942	8.25721
0.33092	2.96554	0.235961	2.06941	0.615446	5.47558	0.73266	6.52911	0.793272	7.09093	0.990862	8.47364	0.503183	4.50616	0.682847	6.09162	0.842582	7.49354	0.946265	8.2448
0.3323	2.95325	0.238039	2.07071	0.618623	5.4586	0.73719	6.51539	0.797361	7.06861	0.992859	8.43217	0.504969	4.48473	0.686672	6.07525	0.845518	7.45786	0.947114	8.23691
0.333685	2.94121	0.240116	2.07198	0.621763	5.44157	0.741702	6.50173	0.801502	7.04711	0.994571	8.39736	0.506735	4.46349	0.690493	6.05911	0.848471	7.4229	0.948336	8.22564
0.335076	2.92941	0.242193	2.07324	0.624865	5.42449	0.746194	6.48812	0.805694	7.02641	0.995994	8.36893	0.508484	4.44244	0.694308	6.04318	0.851439	7.38864	0.949667	8.21348
0.336472	2.91785	0.24427	2.07447	0.627931	5.40737	0.750666	6.47455	0.809936	7.00648	0.997123	8.34668	0.510215	4.42157	0.698115	6.02744	0.854423	7.35507	0.951482	8.1971
0.337875	2.90653	0.246346	2.07568	0.630959	5.3902	0.755117	6.46101	0.81423	6.9873	0.997956	8.33045	0.51193	4.40089	0.701914	6.01188	0.857422	7.32216	0.953786	8.17662
0.339282	2.89543	0.248423	2.07687	0.633951	5.37299	0.759546	6.44751	0.818573	6.96886	0.99849	8.32011	0.513628	4.38041	0.705704	5.99649	0.860438	7.28991	0.956582	8.15223
0.340696	2.88455	0.250499	2.07805	0.636907	5.35576	0.763954	6.43404	0.822966	6.95112	0.999259	8.30534	0.515312	4.36012	0.709484	5.98125	0.863469	7.2583	0.959878	8.12411
0.342114	2.8739	0.252575	2.0792	0.639828	5.33849	0.768339	6.4206	0.827407	6.93407	1.0001	8.28938	0.51698	4.34003	0.713252	5.96616	0.866516	7.22731	0.963681	8.09248
0.343539	2.86345	0.254651	2.08033	0.642714	5.3212	0.772703	6.40718	0.831897	6.91768			0.518635	4.32013	0.717008	5.9512	0.86958	7.19693	0.967506	8.06152
0.344968	2.85321	0.256727	2.08145	0.645565	5.3039	0.777044	6.39378	0.836433	6.90192			0.520277	4.30043	0.720751	5.93636	0.872658	7.16715	0.971351	8.03122
0.346404	2.84317	0.258802	2.08254	0.648383	5.28658	0.781363	6.3804	0.841015	6.88679			0.521905	4.28092	0.72448	5.92163	0.875753	7.13795	0.975218	8.00155
0.347845	2.83333	0.260877	2.08362	0.651167	5.26925	0.785659	6.36704	0.845641	6.87224			0.523521	4.26161	0.728194	5.907	0.878864	7.10932	0.979105	7.9725
0.349291	2.82368	0.262953	2.08468	0.653919	5.25192	0.789934	6.35371	0.850311	6.85826			0.525126	4.2425	0.731892	5.89246	0.881991	7.08124	0.983013	7.94405
0.350742	2.81422	0.265028	2.08573	0.656638	5.23459	0.794187	6.3404	0.855023	6.84483			0.52672	4.22358	0.735573	5.87801	0.885133	7.0537	0.98694	7.91618
0.352199	2.80494	0.267103	2.08676	0.659326	5.21727	0.798418	6.32712	0.859775	6.83192			0.528302	4.20486	0.739237	5.86363	0.888292	7.0267	0.990887	7.88889
0.353661	2.79584	0.269177	2.08777	0.661982	5.19996	0.802628	6.31387	0.864567	6.81951			0.529875	4.18633	0.742883	5.84933	0.891466	7.00022	0.994853	7.86214
0.355128	2.78691	0.271252	2.08877	0.664608	5.18266	0.806817	6.30064	0.869397	6.80757			0.531438	4.168	0.74651	5.83508	0.894656	6.97425	0.998838	7.83594
0.356601	2.77816	0.273326	2.08975	0.667205	5.16537	0.810986	6.28745	0.874262	6.79609			0.532991	4.14986	0.750118	5.82089	0.897863	6.94877	1.00284	7.81025
0.358079	2.76957	0.275401	2.09071	0.669772	5.14811	0.815134	6.27429	0.879163	6.78505			0.534536	4.13191	0.753705	5.80674	0.901084	6.92378		
0.359562	2.76114	0.277475	2.09167	0.67231	5.13088	0.819263	6.26117	0.884097	6.77441			0.536072	4.11416	0.757272	5.79264	0.904322	6.89927		
0.36105	2.75287	0.279549	2.0926	0.67482	5.11367	0.823372	6.24809	0.889062	6.76417			0.537601	4.0966	0.760817	5.77858	0.907575	6.87522		
0.362543	2.74476	0.281623	2.09353	0.677303	5.0965	0.827463	6.23504	0.894058	6.7543			0.539121	4.07922	0.764341	5.76455	0.910844	6.85163		
0.364041	2.73679	0.283697	2.09444	0.679758	5.07937	0.831534	6.22204	0.899083	6.74479			0.540635	4.06204	0.767842	5.75054	0.914129	6.82848		
0.365544	2.72898	0.28577	2.09533	0.682188	5.06228	0.835587	6.20908	0.904134	6.73561			0.542141	4.04504	0.77132	5.73657	0.917429	6.80576		
0.367052	2.72131	0.287844	2.09622	0.684591	5.04523	0.839622	6.19617	0.909212	6.72674			0.543641	4.02823	0.774775	5.72261	0.920744	6.78347		
0.368565	2.71378	0.289917	2.09709	0.686969	5.02823	0.843639	6.1833	0.914314	6.71818			0.545135	4.0116	0.778206	5.70867	0.924074	6.76159		
0.370083	2.70639	0.291991	2.09795	0.689323	5.01129	0.847639	6.17047	0.919439	6.7099			0.546623	3.99516	0.781614	5.69474	0.927419	6.74011		
0.371605	2.69913	0.294064	2.09879	0.691652	4.99439	0.851621	6.1577	0.924585	6.70189			0.548105	3.9789	0.784996	5.68082	0.930779	6.71904		
0.373133	2.69201	0.296137	2.09963	0.693958	4.97755	0.855585	6.14497	0.929752	6.69413			0.549582	3.96281	0.788355	5.66692	0.934153	6.69834		
0.374665	2.68501	0.29821	2.10045	0.69624	4.96077	0.859533	6.13228	0.934937	6.68661			0.551053	3.94691	0.791688	5.65302	0.937541	6.67803		
0.376202	2.67815	0.300283	2.10126	0.6985	4.94406	0.863463	6.11965	0.94014	6.67932			0.55252	3.93118	0.794996	5.63912	0.940944	6.65807		
0.377743	2.6714	0.302355	2.10206	0.700739	4.92741	0.867377	6.10706	0.94536	6.67223			0.553983	3.91563	0.798279	5.62523	0.94436	6.63848		
0.379289	2.66478	0.304428	2.10285	0.702955	4.91082	0.871274	6.09452	0.950594	6.66535			0.555441	3.90025	0.801536	5.61134	0.947789	6.61924		
0.38084	2.65827	0.3065	2.10362	0.705151	4.89431	0.875154	6.08202	0.955842	6.65865			0.556895	3.88505	0.804767	5.59746	0.951232	6.60033		
0.382395	2.65188	0.308573	2.10439	0.707327	4.87786	0.879017	6.06957	0.961103	6.65212			0.558346	3.87001	0.807973	5.58357	0.954687	6.58176		
0.383954	2.6456	0.310645	2.10515	0.709482	4.86149	0.882863	6.05716	0.966375	6.64575			0.559793	3.85515	0.811153	5.56968	0.958155	6.56351		
0.385518	2.63943	0.312717	2.10589	0.711618	4.84519	0.886693	6.04479	0.971657	6.63954			0.561236	3.84045	0.814307	5.5558	0.961635	6.54557		
0.387087	2.63337	0.314789	2.10663	0.713735	4.82897	0.890505	6.03247	0.976948	6.63346			0.562677	3.82591	0.817435	5.54191	0.965126	6.52793		
0.388659	2.62742	0.316861	2.10736	0.715833	4.81283	0.8943	6.02018	0.982247	6.62751			0.564114	3.81154	0.820537	5.52802	0.968629	6.5106		
0.390236	2.62156	0.318933	2.10807	0.717913	4.79677	0.898078	6.00793	0.987552	6.62168			0.565549	3.79733	0.823613	5.51414	0.972142	6.49355		
0.391817	2.61581	0.321005	2.10878	0.719976	4.78079	0.901839	5.99572	0.992862	6.61595			0.566981	3.78328	0.826664	5.50025	0.975665	6.47677		
0.393403	2.61016	0.323077	2.10948	0.722021	4.76489	0.905582	5.98354	0.998176	6.61032			0.568411	3.76939	0.829689	5.48637	0.979199	6.46027		
0.394992	2.60461	0.325148	2.11017	0.72405	4.74908	0.909308	5.9714	1.00349	6.60478			0.569839	3.75565	0.832688	5.47249	0.982741	6.44404		
0.396586	2.59915	0.32722	2.11085	0.726062	4.73335	0.913016	5.95929					0.571265	3.74207	0.835662	5.45861	0.986293	6.42805		
0.398184	2.59378	0.329291	2.11152	0.728059	4.71771	0.916706	5.94721					0.572689	3.72864	0.83861	5.44473	0.989853	6.41232		
0.399786	2.58851	0.331362	2.11218	0.730039	4.70216	0.920378	5.93516					0.574111	3.71536	0.841534	5.43086	0.99342	6.39682		
0.401392	2.58332	0.333433	2.11284	0.732005	4.68669	0.924032	5.92313					0.575531	3.70223	0.844432	5.41699	0.996995	6.38155		
0.403002	2.57822	0.335505	2.11348	0.733956	4.67132	0.927667	5.91113					0.576951	3.68925	0.847306	5.40313	1.00058	6.36651		
0.404615	2.57321	0.337576	2.11412	0.735892	4.65603	0.931284	5.89915					0.578369	3.67642	0.850155	5.38928				
0.406233	2.56828	0.339647	2.11475	0.737814	4.64084	0.934882	5.8872					0.579786	3.66373	0.85298	5.37544				
0.407854	2.56343	0.341717	2.11537	0.739723	4.62573	0.938461	5.87527					0.581201	3.65118	0.855781	5.36161				
0.40948	2.55866	0.343788	2.11599	0.741618	4.61072	0.942021	5.86335					0.582617	3.63877	0.858558	5.3478				
0.411109	2.55397	0.345859	2.1166	0.7435	4.5958	0.945561	5.85146					0.584031	3.6265	0.861312	5.33399				
0.412741	2.54936	0.347929	2.1172	0.74537	4.58098	0.949082	5.83958					0.585444	3.61437	0.864042	5.32021				
0.414378	2.54482	0.35	2.11779	0.747227	4.56624	0.952584	5.82771					0.586858	3.60237	0.86675	5.30644				
0.416018	2.54036	0.35207	2.11837	0.749072	4.5516	0.956065	5.81586					0.58827	3.59051	0.869435	5.29268				
0.417662	2.53597	0.354141	2.11895	0.750905	4.53706	0.959527	5.80402					0.589683	3.57878	0.872097	5.27895				
0.419309	2.53165	0.356211	2.11952	0.752727	4.52261	0.962968	5.7922					0.591095	3.56718	0.874738	5.26524				
0.42096	2.5274	0.358281	2.12009	0.754538	4.50825	0.966389	5.78038					0.592507	3.55571	0.877357	5.25155				
0.422614	2.52322	0.360351	2.12065	0.756338	4.49399	0.96979	5.76858					0.593919	3.54436	0.879954	5.23789				
0.424272	2.5191	0.362421	2.1212	0.758127	4.47982	0.97317	5.75678					0.595331	3.53315	0.882531	5.22425				
0.425933	2.51505	0.364491	2.12174	0.759906	4.46575	0.97653	5.74499					0.596743	3.52205	0.885086	5.21064				
0.427598	2.51107	0.366561	2.12228	0.761675	4.45177	0.979869	5.73321					0.598156	3.51108	0.887621	5.19706				
0.429266	2.50715	0.368631	2.12282	0.763434	4.43788	0.983188	5.72144					0.599569	3.50023	0.890136	5.18351				
0.430937	2.50328	0.370701	2.12334	0.765184	4.42409	0.986485	5.70967					0.600982	3.4895	0.892632	5.16999				
0.432611	2.49948	0.372771	2.12386	0.766924	4.4104	0.989761	5.69791					0.602396	3.47889	0.895107	5.15651				
0.434289	2.49574	0.37484	2.12438	0.768656	4.3968	0.993017	5.68615					0.60381	3.4684	0.897564	5.14305				
0.43597	2.49206	0.37691	2.12489	0.770378	4.38329	0.996252	5.6744					0.605225	3.45802	0.900002	5.12964				
0.437654	2.48843	0.378979	2.12539	0.772092	4.36987	0.999465	5.66265					0.60664	3.44775	0.902421	5.11626				
0.439342	2.48486	0.381049	2.12589	0.773798	4.35656	1.00266	5.65091					0.608057	3.4376	0.904822	5.10291				
0.441032	2.48135	0.383118	2.12638	0.775495	4.34333							0.609474	3.42756	0.907205	5.08961				
0.442726	2.47789	0.385187	2.12687	0.777185	4.3302							0.610892	3.41762	0.909571	5.07635				
0.444422	2.47448	0.387256	2.12735	0.778867	4.31716							0.612311	3.4078	0.911919	5.06313				
0.446122	2.47112	0.389326	2.12782	0.780541	4.30421							0.613731	3.39808	0.91425	5.04995				
0.447824	2.46782	0.391395	2.12829	0.782208	4.29135							0.615151	3.38847	0.916565	5.03681				
0.44953	2.46456	0.393464	2.12876	0.783868	4.27859							0.616573	3.37896	0.918863	5.02372				
0.451238	2.46136	0.395533	2.12922	0.785521	4.26592							0.617996	3.36955	0.921145	5.01067				
0.452949	2.4582	0.397602	2.12968	0.787168	4.25334							0.619421	3.36025	0.923411	4.99767				
0.454664	2.45509	0.39967	2.13013	0.788808	4.24085							0.620846	3.35104	0.925662	4.98472				
0.456381	2.45202	0.401739	2.13057	0.790441	4.22845							0.622273	3.34194	0.927897	4.97181				
0.4581	2.449	0.403808	2.13102	0.792069	4.21615							0.623701	3.33293	0.930118	4.95895				
0.459823	2.44603	0.405876	2.13145	0.79369	4.20393							0.62513	3.32402	0.932324	4.94614				
0.461548	2.4431	0.407945	2.13188	0.795306	4.1918							0.626561	3.3152	0.934515	4.93338				
0.463276	2.44021	0.410014	2.13231	0.796915	4.17976							0.627993	3.30648	0.936692	4.92067				
0.465007	2.43737	0.412082	2.13274	0.79852	4.16781							0.629427	3.29785	0.938855	4.90802				
0.46674	2.43456	0.41415	2.13315	0.800119	4.15594							0.630862	3.28932	0.941005	4.89541				
0.468476	2.4318	0.416219	2.13357	0.801712	4.14416							0.632299	3.28087	0.943141	4.88286				
0.470215	2.42908	0.418287	2.13398	0.803301	4.13247							0.633737	3.27251	0.945264	4.87036				
0.471956	2.42639	0.420355	2.13439	0.804885	4.12087							0.635177	3.26424	0.947374	4.85791				
0.473699	2.42375	0.422423	2.13479	0.806464	4.10935							0.636618	3.25606	0.949472	4.84551				
0.475446	2.42114	0.424491	2.13519	0.808038	4.09792							0.638061	3.24796	0.951557	4.83317				
0.477194	2.41857	0.426559	2.13558	0.809608	4.08657							0.639506	3.23995	0.953629	4.82089				
0.478945	2.41604	0.428628	2.13597	0.811173	4.07531							0.640952	3.23202	0.95569	4.80865				
0.480699	2.41354	0.430695	2.13636	0.812735	4.06413							0.642401	3.22418	0.957739	4.79648				
0.482455	2.41108	0.432763	2.13674	0.814292	4.05303							0.643851	3.21641	0.959776	4.78436				
0.484213	2.40865	0.434831	2.13712	0.815845	4.04202							0.645302	3.20873	0.961802	4.77229				
0.485974	2.40626	0.436899	2.13749	0.817394	4.03109							0.646756	3.20113	0.963817	4.76028				
0.487737	2.4039	0.438967	2.13786	0.81894	4.02024							0.648211	3.1936	0.965821	4.74833				
0.489502	2.40157	0.441034	2.13823	0.820482	4.00947							0.649668	3.18616	0.967814	4.73643				
0.49127	2.39927	0.443102	2.13859	0.82202	3.99878							0.651127	3.17879	0.969796	4.72459				
0.49304	2.39701	0.445169	2.13896	0.823555	3.98817							0.652587	3.17149	0.971768	4.71281				
0.494812	2.39478	0.447237	2.13931	0.825087	3.97764							0.65405	3.16427	0.97373	4.70108				
0.496587	2.39258	0.449304	2.13967	0.826615	3.96719							0.655515	3.15713	0.975682	4.68941				
0.498363	2.39041	0.451372	2.14002	0.82814	3.95682							0.656981	3.15005	0.977624	4.6778				
0.500142	2.38827	0.453439	2.14036	0.829663	3.94652							0.658449	3.14305	0.979556	4.66624				
0.501923	2.38615	0.455506	2.14071	0.831182	3.93631							0.65992	3.13612	0.981479	4.65474				
0.503706	2.38407	0.457574	2.14105	0.832699	3.92617							0.661392	3.12927	0.983393	4.6433				
0.505491	2.38202	0.459641	2.14138	0.834213	3.9161							0.662866	3.12248	0.985298	4.63192				
0.507278	2.37999	0.461708	2.14172	0.835725	3.90611							0.664342	3.11576	0.987193	4.62059				
0.509068	2.37799	0.463775	2.14205	0.837233	3.8962							0.66582	3.1091	0.98908	4.60932				
0.510859	2.37602	0.465842	2.14238	0.83874	3.88636							0.667301	3.10252	0.990958	4.59811				
0.512652	2.37407	0.467909	2.1427	0.840244	3.87659							0.668783	3.096	0.992828	4.58696				
0.514448	2.37215	0.469976	2.14302	0.841746	3.8669							0.670267	3.08954	0.994689	4.57586				
0.516245	2.37025	0.472043	2.14334	0.843246	3.85728							0.671753	3.08315	0.996543	4.56482				
0.518044	2.36838	0.47411	2.14366	0.844743	3.84773							0.673241	3.07682	0.998388	4.55384				
0.519846	2.36654	0.476177	2.14397	0.846239	3.83826							0.674731	3.07056	1.00023	4.54291				
0.521649	2.36472	0.478243	2.14428	0.847733	3.82885							0.676224	3.06436						
0.523454	2.36292	0.48031	2.14459	0.849224	3.81952							0.677718	3.05822						
0.525261	2.36115	0.482377	2.1449	0.850714	3.81025							0.679214	3.05214						
0.52707	2.3594	0.484443	2.1452	0.852203	3.80105							0.680713	3.04612						
0.52888	2.35767	0.48651	2.1455	0.853689	3.79193							0.682213	3.04016						
0.530693	2.35596	0.488576	2.14579	0.855175	3.78287							0.683716	3.03425						
0.532507	2.35428	0.490643	2.14609	0.856658	3.77388							0.68522	3.02841						
0.534323	2.35262	0.492709	2.14638	0.85814	3.76496							0.686727	3.02262						
0.536141	2.35098	0.494776	2.14667	0.859621	3.7561							0.688236	3.01689						
0.537961	2.34936	0.496842	2.14696	0.861101	3.74731							0.689746	3.01122						
0.539782	2.34776	0.498908	2.14724	0.862579	3.73858							0.691259	3.0056						
0.541605	2.34618	0.500975	2.14752	0.864056	3.72992							0.692774	3.00003						
0.54343	2.34462	0.503041	2.1478	0.865532	3.72133							0.694291	2.99452						
0.545256	2.34308	0.505107	2.14808	0.867007	3.7128							0.695811	2.98906						
0.547084	2.34157	0.507173	2.14835	0.868481	3.70433							0.697332	2.98365						
0.548914	2.34007	0.509239	2.14862	0.869954	3.69592							0.698855	2.9783						
0.550746	2.33858	0.511305	2.14889	0.871426	3.68758							0.700381	2.97299						
0.552579	2.33712	0.513371	2.14916	0.872897	3.6793							0.701908	2.96774						
0.554413	2.33568	0.515437	2.14942	0.874367	3.67108							0.703438	2.96254						
0.556249	2.33425	0.517503	2.14969	0.875837	3.66292							0.704969	2.95738						
0.558087	2.33284	0.519569	2.14995	0.877306	3.65482							0.706503	2.95228						
0.559927	2.33145	0.521635	2.15021	0.878774	3.64679							0.708039	2.94722						
0.561767	2.33008	0.5237	2.15046	0.880242	3.63881							0.709577	2.94221						
0.56361	2.32872	0.525766	2.15072	0.881709	3.63089							0.711117	2.93725						
0.565454	2.32738	0.527832	2.15097	0.883176	3.62303							0.712659	2.93234						
0.567299	2.32605	0.529897	2.15122	0.884642	3.61523							0.714203	2.92747						
0.569146	2.32475	0.531963	2.15147	0.886108	3.60748							0.71575	2.92264						
0.570995	2.32345	0.534028	2.15171	0.887573	3.59979							0.717298	2.91787						
0.572844	2.32218	0.536094	2.15196	0.889038	3.59216							0.718848	2.91313						
0.574696	2.32092	0.538159	2.1522	0.890503	3.58458							0.720401	2.90844						
0.576548	2.31967	0.540225	2.15244	0.891967	3.57706							0.721955	2.9038						
0.578402	2.31844	0.54229	2.15268	0.893432	3.5696							0.723512	2.89919						
0.580258	2.31722	0.544356	2.15291	0.894896	3.56219							0.725071	2.89463						
0.582115	2.31602	0.546421	2.15315	0.89636	3.55483							0.726631	2.89011						
0.583973	2.31483	0.548486	2.15338	0.897824	3.54753							0.728194	2.88563						
0.585833	2.31366	0.550551	2.15361	0.899288	3.54028							0.729759	2.8812						
0.587694	2.3125	0.552616	2.15384	0.900752	3.53309							0.731326	2.8768						
0.589556	2.31135	0.554682	2.15407	0.902215	3.52594							0.732895	2.87245						
0.59142	2.31022	0.556747	2.15429	0.903679	3.51885							0.734466	2.86813						
0.593285	2.3091	0.558812	2.15451	0.905143	3.51181							0.736038	2.86385						
0.595151	2.308	0.560877	2.15473	0.906607	3.50482							0.737613	2.85961						
0.597018	2.30691	0.562942	2.15495	0.908071	3.49788							0.73919	2.85541						
0.598887	2.30583	0.565007	2.15517	0.909536	3.49099							0.740769	2.85125						
0.600757	2.30476	0.567071	2.15539	0.911	3.48416							0.74235	2.84713						
0.602628	2.3037	0.569136	2.1556	0.912465	3.47737							0.743933	2.84304						
0.604501	2.30266	0.571201	2.15582	0.91393	3.47063							0.745518	2.83899						
0.606375	2.30163	0.573266	2.15603	0.915395	3.46394							0.747106	2.83497						
0.60825	2.30061	0.575331	2.15624	0.916861	3.45729							0.748695	2.83099						
0.610126	2.2996	0.577395	2.15645	0.918327	3.4507							0.750286	2.82705						
0.612003	2.29861	0.57946	2.15665	0.919793	3.44415							0.751878	2.82314						
0.613882	2.29762	0.581525	2.15686	0.92126	3.43765							0.753473	2.81927						
0.615762	2.29665	0.583589	2.15706	0.922727	3.43119							0.75507	2.81543						
0.617643	2.29569	0.585654	2.15726	0.924194	3.42479							0.756669	2.81162						
0.619525	2.29473	0.587718	2.15746	0.925662	3.41842							0.75827	2.80785						
0.621408	2.29379	0.589783	2.15766	0.927131	3.41211							0.759873	2.80411						
0.623292	2.29286	0.591847	2.15786	0.9286	3.40583							0.761478	2.8004						
0.625178	2.29194	0.593911	2.15806	0.930069	3.39961							0.763084	2.79673						
0.627064	2.29104	0.595976	2.15825	0.931539	3.39342							0.764693	2.79309						
0.628952	2.29014	0.59804	2.15844	0.93301	3.38728							0.766303	2.78948						
0.63084	2.28925	0.600104	2.15863	0.934481	3.38119							0.767916	2.7859						
0.63273	2.28837	0.602168	2.15882	0.935953	3.37514							0.76953	2.78235						
0.634621	2.2875	0.604233	2.15901	0.937425	3.36913							0.771146	2.77883						
0.636513	2.28664	0.606297	2.1592	0.938898	3.36316							0.772764	2.77535						
0.638406	2.28579	0.608361	2.15939	0.940372	3.35723							0.774384	2.77189						
0.6403	2.28495	0.610425	2.15957	0.941846	3.35135							0.776006	2.76846						
0.642195	2.28412	0.612489	2.15975	0.943321	3.34551							0.77763	2.76506						
0.644091	2.28329	0.614553	2.15994	0.944797	3.3397							0.779256	2.76169						
0.645988	2.28248	0.616617	2.16012	0.946274	3.33394							0.780883	2.75835						
0.647886	2.28168	0.618681	2.1603	0.947751	3.32822							0.782512	2.75504						
0.649785	2.28088	0.620745	2.16047	0.949229	3.32254							0.784144	2.75176						
0.651685	2.28009	0.622809	2.16065	0.950708	3.3169							0.785777	2.7485						
0.653586	2.27931	0.624872	2.16083	0.952188	3.3113							0.787412	2.74528						
0.655488	2.27854	0.626936	2.161	0.953668	3.30574							0.789048	2.74208						
0.657391	2.27778	0.629	2.16117	0.955149	3.30022							0.790687	2.7389						
0.659295	2.27703	0.631064	2.16134	0.956631	3.29473							0.792327	2.73575						
0.6612	2.27628	0.633127	2.16152	0.958114	3.28928							0.793969	2.73263						
0.663106	2.27554	0.635191	2.16168	0.959598	3.28387							0.795613	2.72954						
0.665013	2.27481	0.637254	2.16185	0.961083	3.2785							0.797259	2.72647						
0.66692	2.27409	0.639318	2.16202	0.962568	3.27317							0.798907	2.72343						
0.668829	2.27338	0.641381	2.16219	0.964055	3.26787							0.800556	2.72041						
0.670738	2.27267	0.643445	2.16235	0.965542	3.26261							0.802207	2.71742						
0.672649	2.27197	0.645508	2.16251	0.967031	3.25738							0.80386	2.71445						
0.67456	2.27128	0.647572	2.16268	0.96852	3.25219							0.805515	2.71151						
0.676472	2.27059	0.649635	2.16284	0.97001	3.24703							0.807171	2.70859						
0.678385	2.26992	0.651698	2.163	0.971501	3.24192							0.808829	2.70569						
0.680299	2.26925	0.653762	2.16316	0.972994	3.23683							0.810489	2.70282						
0.682214	2.26858	0.655825	2.16331	0.974487	3.23178							0.812151	2.69997						
0.684129	2.26793	0.657888	2.16347	0.975981	3.22677							0.813814	2.69715						
0.686046	2.26728	0.659951	2.16363	0.977476	3.22179							0.815479	2.69435						
0.687963	2.26663	0.662015	2.16378	0.978972	3.21684							0.817146	2.69157						
0.689881	2.266	0.664078	2.16393	0.980469	3.21193							0.818814	2.68881						
0.6918	2.26537	0.666141	2.16409	0.981968	3.20705							0.820484	2.68608						
0.69372	2.26474	0.668204	2.16424	0.983467	3.2022							0.822156	2.68337						
0.69564	2.26413	0.670267	2.16439	0.984967	3.19738							0.823829	2.68068						
0.697561	2.26352	0.67233	2.16454	0.986469	3.1926							0.825505	2.67801						
0.699484	2.26291	0.674393	2.16469	0.987971	3.18785							0.827181	2.67536						
0.701406	2.26231	0.676456	2.16483	0.989475	3.18313							0.82886	2.67274						
0.70333	2.26172	0.678518	2.16498	0.990979	3.17845							0.83054	2.67013						
0.705255	2.26114	0.680581	2.16513	0.992485	3.17379							0.832222	2.66755						
0.70718	2.26056	0.682644	2.16527	0.993992	3.16917							0.833905	2.66499						
0.709106	2.25998	0.684707	2.16541	0.995499	3.16457							0.83559	2.66244						
0.711033	2.25941	0.686769	2.16556	0.997008	3.16001							0.837277	2.65992						
0.71296	2.25885	0.688832	2.1657	0.998519	3.15548							0.838965	2.65742						
0.714888	2.25829	0.690895	2.16584	1.00003	3.15098							0.840655	2.65494						
0.716817	2.25774	0.692957	2.16598									0.842347	2.65247						
0.718747	2.2572	0.69502	2.16612									0.84404	2.65003						
0.720677	2.25666	0.697083	2.16626									0.845734	2.64761						
0.722609	2.25612	0.699145	2.16639									0.847431	2.6452						
0.72454	2.25559	0.701207	2.16653									0.849128	2.64281						
0.726473	2.25507	0.70327	2.16666									0.850828	2.64045						
0.728406	2.25455	0.705332	2.1668									0.852529	2.6381						
0.73034	2.25403	0.707395	2.16693									0.854231	2.63577						
0.732275	2.25352	0.709457	2.16706									0.855935	2.63345						
0.73421	2.25302	0.711519	2.1672									0.857641	2.63116						
0.736146	2.25252	0.713582	2.16733									0.859348	2.62888						
0.738083	2.25203	0.715644	2.16746									0.861056	2.62662						
0.74002	2.25154	0.717706	2.16759									0.862766	2.62438						
0.741958	2.25105	0.719768	2.16771									0.864478	2.62216						
0.743897	2.25057	0.72183	2.16784									0.866191	2.61995						
0.745836	2.2501	0.723892	2.16797									0.867906	2.61776						
0.747776	2.24963	0.725954	2.16809									0.869622	2.61558						
0.749717	2.24916	0.728016	2.16822									0.87134	2.61343						
0.751658	2.2487	0.730078	2.16834									0.873059	2.61129						
0.7536	2.24824	0.73214	2.16847									0.874779	2.60916						
0.755542	2.24779	0.734202	2.16859									0.876501	2.60705						
0.757486	2.24734	0.736264	2.16871									0.878225	2.60496						
0.759429	2.2469	0.738326	2.16883									0.87995	2.60288						
0.761374	2.24646	0.740388	2.16895									0.881676	2.60082						
0.763319	2.24602	0.74245	2.16907									0.883404	2.59878						
0.765264	2.24559	0.744511	2.16919									0.885133	2.59674						
0.76721	2.24516	0.746573	2.16931									0.886864	2.59473						
0.769157	2.24474	0.748635	2.16943									0.888596	2.59273						
0.771105	2.24432	0.750696	2.16955									0.890329	2.59074						
0.773053	2.2439	0.752758	2.16966									0.892064	2.58877						
0.775001	2.24349	0.754819	2.16978									0.8938	2.58682						
0.77695	2.24309	0.756881	2.16989									0.895538	2.58488						
0.7789	2.24268	0.758943	2.17									0.897277	2.58295						
0.78085	2.24228	0.761004	2.17012									0.899017	2.58104						
0.782801	2.24189	0.763065	2.17023									0.900759	2.57914						
0.784752	2.24149	0.765127	2.17034									0.902502	2.57726						
0.786704	2.24111	0.767188	2.17045									0.904246	2.57538						
0.788657	2.24072	0.769249	2.17056									0.905992	2.57353						
0.79061	2.24034	0.771311	2.17067									0.907739	2.57169						
0.792563	2.23996	0.773372	2.17078									0.909488	2.56986						
0.794517	2.23959	0.775433	2.17089									0.911238	2.56804						
0.796472	2.23921	0.777494	2.171									0.912989	2.56624						
0.798427	2.23885	0.779556	2.17111									0.914741	2.56445						
0.800383	2.23848	0.781617	2.17121									0.916495	2.56267						
0.802339	2.23812	0.783678	2.17132									0.91825	2.5609						
0.804295	2.23776	0.785739	2.17142									0.920006	2.55915						
0.806253	2.23741	0.7878	2.17153									0.921764	2.55741						
0.80821	2.23706	0.789861	2.17163									0.923523	2.55569						
0.810169	2.23671	0.791922	2.17173									0.925283	2.55397						
0.812127	2.23637	0.793983	2.17184									0.927045	2.55227						
0.816046	2.23569	0.796044	2.17194									0.928808	2.55058						
0.818006	2.23535	0.798105	2.17204									0.930572	2.54891						
0.819967	2.23502	0.800165	2.17214									0.932337	2.54724						
0.821928	2.23469	0.802226	2.17224									0.934103	2.54559						
0.82389	2.23436	0.804287	2.17234									0.935871	2.54395						
0.825852	2.23404	0.806348	2.17244									0.93764	2.54232						
0.827815	2.23372	0.808408	2.17254									0.93941	2.5407						
0.829778	2.2334	0.810469	2.17264									0.941182	2.53909						
0.831741	2.23308	0.81253	2.17273									0.942955	2.53749						
0.833705	2.23277	0.81459	2.17283									0.944728	2.53591						
0.83567	2.23246	0.816651	2.17293									0.946504	2.53434						
0.837635	2.23216	0.818711	2.17302									0.94828	2.53277						
0.8396	2.23185	0.820772	2.17312									0.950057	2.53122						
0.841566	2.23155	0.822832	2.17321									0.951836	2.52968						
0.843532	2.23125	0.824893	2.17331									0.953616	2.52815						
0.845499	2.23096	0.826953	2.1734									0.955397	2.52663						
0.847466	2.23066	0.829013	2.17349									0.957179	2.52513						
0.849433	2.23037	0.831074	2.17358									0.958963	2.52363						
0.851401	2.23008	0.833134	2.17368									0.960747	2.52214						
0.85337	2.2298	0.835194	2.17377									0.962533	2.52066						
0.855339	2.22952	0.837255	2.17386									0.96432	2.5192						
0.857308	2.22923	0.839315	2.17395									0.966108	2.51774						
0.859278	2.22896	0.841375	2.17404									0.967897	2.51629						
0.861248	2.22868	0.843435	2.17413									0.969687	2.51485						
0.863218	2.22841	0.845495	2.17422									0.971479	2.51343						
0.865189	2.22814	0.847555	2.1743									0.973271	2.51201						
0.867161	2.22787	0.849615	2.17439									0.975065	2.5106						
0.869132	2.2276	0.851675	2.17448									0.97686	2.5092						
0.871105	2.22734	0.853735	2.17457									0.978656	2.50782						
0.873077	2.22707	0.855795	2.17465									0.980453	2.50644						
0.87505	2.22682	0.857855	2.17474									0.982251	2.50507						
0.877023	2.22656	0.859915	2.17482									0.98405	2.50371						
0.878997	2.2263	0.861975	2.17491									0.98585	2.50235						
0.880971	2.22605	0.864034	2.17499									0.987652	2.50101						
0.882946	2.2258	0.866094	2.17508									0.989454	2.49968						
0.884921	2.22555	0.868154	2.17516									0.991258	2.49835						
0.886896	2.2253	0.870214	2.17524									0.993062	2.49704						
0.888872	2.22506	0.872273	2.17532									0.994868	2.49573						
0.890848	2.22482	0.874333	2.17541									0.996674	2.49443						
0.892824	2.22458	0.876393	2.17549									0.998482	2.49315						
0.894801	2.22434	0.878452	2.17557									1.00029	2.49186						
0.896778	2.2241	0.880512	2.17565																
0.898755	2.22387	0.882571	2.17573																
0.900733	2.22364	0.884631	2.17581																
0.902712	2.22341	0.88669	2.17589																
0.90469	2.22318	0.888749	2.17597																
0.906669	2.22295	0.890809	2.17604																
0.908648	2.22273	0.892868	2.17612																
0.910628	2.2225	0.894928	2.1762																
0.912608	2.22228	0.896987	2.17628																
0.914588	2.22206	0.899046	2.17635																
0.916569	2.22185	0.901105	2.17643																
0.91855	2.22163	0.903164	2.1765																
0.920531	2.22142	0.905224	2.17658																
0.922513	2.22121	0.907283	2.17665																
0.924495	2.221	0.909342	2.17673																
0.926478	2.22079	0.911401	2.1768																
0.92846	2.22058	0.91346	2.17688																
0.930443	2.22038	0.915519	2.17695																
0.932427	2.22017	0.917578	2.17702																
0.93441	2.21997	0.919637	2.1771																
0.936394	2.21977	0.921696	2.17717																
0.938379	2.21957	0.923754	2.17724																
0.940363	2.21938	0.925813	2.17731																
0.942348	2.21918	0.927872	2.17738																
0.944333	2.21899	0.929931	2.17745																
0.946319	2.21879	0.931989	2.17752																
0.948305	2.2186	0.934048	2.17759																
0.950291	2.21842	0.936107	2.17766																
0.952277	2.21823	0.938165	2.17773																
0.954264	2.21804	0.940224	2.1778																
0.956251	2.21786	0.942283	2.17787																
0.958239	2.21768	0.944341	2.17793																
0.960226	2.21749	0.9464	2.178																
0.962214	2.21731	0.948458	2.17807																
0.964203	2.21714	0.950517	2.17814																
0.966191	2.21696	0.952575	2.1782																
0.96818	2.21678	0.954633	2.17827																
0.970169	2.21661	0.956692	2.17833																
0.972158	2.21644	0.95875	2.1784																
0.974148	2.21626	0.960808	2.17846																
0.976138	2.21609	0.962866	2.17853																
0.978128	2.21593	0.964925	2.17859																
0.980119	2.21576	0.966983	2.17866																
0.98211	2.21559	0.969041	2.17872																
0.984101	2.21543	0.971099	2.17878																
0.986092	2.21526	0.973157	2.17885																
0.988084	2.2151	0.975215	2.17891																
0.990076	2.21494	0.977273	2.17897																
0.992068	2.21478	0.979331	2.17903																
0.99406	2.21462	0.981389	2.1791																
0.996053	2.21447	0.983447	2.17916																
0.998046	2.21431	0.985505	2.17922																
1.00004	2.21416	0.987563	2.17928																
		0.989621	2.17934																
		0.991678	2.1794																
		0.993736	2.17946																
		0.995794	2.17952																
		0.997852	2.17958																
		0.999909	2.17964																
		1.00197	2.17969																
