Sym0		Asym0		Sym1		Sym2		Sym3		Sym4		Asym1		Asym2		Asym3		Asym4	
501  Points		503  Points		399  Points		256  Points		199  Points		176  Points		458  Points		322  Points		222  Points		166  Points	
Freq (MHz)	Vph (m/ms)	Freq (MHz)	Vph (m/ms)	Freq (MHz)	Vph (m/ms)	Freq (MHz)	Vph (m/ms)	Freq (MHz)	Vph (m/ms)	Freq (MHz)	Vph (m/ms)	Freq (MHz)	Vph (m/ms)	Freq (MHz)	Vph (m/ms)	Freq (MHz)	Vph (m/ms)	Freq (MHz)	Vph (m/ms)
0.00190554	4.64107	0.000345627	0.152321	0.279506	651.325	0.328404	501.905	0.559018	2445.8	0.838528	1211.41	0.139755	1214.81	0.419272	481.718	0.656758	4699.7	0.698773	2188.14
0.00622925	4.64081	0.000685567	0.214188	0.279481	205.376	0.328526	207.14	0.559033	481.818	0.838541	516.379	0.139849	133.605	0.419303	232.68	0.656769	612.978	0.698795	558.571
0.0105519	4.6403	0.001138	0.27538	0.279432	121.888	0.328749	130.575	0.559069	267.247	0.838565	328.131	0.140092	70.8097	0.419356	153.399	0.656798	327.885	0.698844	320.169
0.0148729	4.63956	0.00170008	0.335709	0.279358	86.6437	0.329072	95.3997	0.559125	184.917	0.838599	240.474	0.140484	48.274	0.419431	114.428	0.656845	223.81	0.69892	224.413
0.0191915	4.63857	0.00236861	0.395042	0.279263	67.1965	0.329492	75.2077	0.559202	141.379	0.838643	189.782	0.141021	36.7069	0.419527	91.2581	0.656909	169.897	0.699022	172.763
0.0235069	4.63732	0.00313962	0.453208	0.279147	54.8681	0.330009	62.1159	0.559299	114.445	0.838698	156.746	0.141703	29.6852	0.419645	75.901	0.656991	136.924	0.699151	140.453
0.0278184	4.63581	0.00400898	0.510098	0.279014	46.3532	0.330618	52.9457	0.559416	96.1406	0.838763	133.511	0.142524	24.9814	0.419785	64.9767	0.65709	114.677	0.699307	118.336
0.0321252	4.63403	0.00497216	0.565601	0.278866	40.1188	0.331319	46.1692	0.559555	82.8917	0.838838	116.278	0.143482	21.6188	0.419946	56.8091	0.657207	98.6559	0.699489	102.246
0.0364267	4.632	0.00602444	0.619631	0.278706	35.3567	0.332107	40.961	0.559713	72.8592	0.838924	102.989	0.144572	19.1015	0.420129	50.4724	0.657342	86.5686	0.699698	90.0175
0.040722	4.62969	0.00716088	0.67211	0.278538	31.6004	0.332979	36.8357	0.559892	64.9993	0.839021	92.4292	0.145789	17.1511	0.420333	45.4138	0.657494	77.1254	0.699933	80.4095
0.0450103	4.6271	0.00837665	0.722997	0.278364	28.5617	0.333932	33.4895	0.560092	58.6759	0.839128	83.8361	0.147128	15.5989	0.420559	41.2826	0.657664	69.5448	0.700195	72.6622
0.0492908	4.62424	0.00966689	0.772257	0.278189	26.0531	0.334964	30.7223	0.560311	53.4791	0.839245	76.7076	0.148585	14.337	0.420807	37.8457	0.657851	63.3256	0.700483	66.2835
0.0535627	4.62109	0.0110266	0.819859	0.278016	23.9473	0.336071	28.3972	0.560552	49.1328	0.839373	70.6987	0.150153	13.2933	0.421077	34.9421	0.658056	58.1317	0.700798	60.9406
0.057825	4.61764	0.0124512	0.865804	0.277847	22.1548	0.337249	26.417	0.560812	45.4445	0.839511	65.5652	0.151827	12.4173	0.421368	32.4568	0.658278	53.7292	0.70114	56.4008
0.0620769	4.6139	0.0139361	0.910095	0.277687	20.6108	0.338497	24.7113	0.561093	42.2755	0.83966	61.1288	0.153603	11.673	0.42168	30.306	0.658518	49.9502	0.701508	52.496
0.0663173	4.60985	0.0154769	0.952745	0.277538	19.2674	0.33981	23.2273	0.561395	39.5237	0.839819	57.2567	0.155474	11.034	0.422014	28.4265	0.658775	46.6714	0.701902	49.102
0.0705453	4.60548	0.0170693	0.993779	0.277404	18.0882	0.341187	21.9251	0.561716	37.1121	0.839989	53.8478	0.157436	10.4803	0.42237	26.7704	0.65905	43.7998	0.702323	46.1251
0.0747599	4.60078	0.0187095	1.03323	0.277288	17.0451	0.342624	20.7737	0.562058	34.9813	0.84017	50.8239	0.159484	9.99657	0.422747	25.3003	0.659342	41.2642	0.70277	43.4932
0.07896	4.59575	0.0203937	1.07112	0.277193	16.1162	0.344119	19.7488	0.562421	33.0854	0.84036	48.1232	0.161613	9.57105	0.423145	23.9866	0.659652	39.009	0.703244	41.1498
0.0831444	4.59037	0.0221183	1.10751	0.27712	15.284	0.345671	18.831	0.562803	31.3876	0.840562	45.6966	0.163817	9.19432	0.423565	22.806	0.65998	36.9903	0.703744	39.0501
0.0873118	4.58462	0.0238801	1.14243	0.277074	14.5346	0.347277	18.0046	0.563206	29.8586	0.840773	43.5046	0.166094	8.85886	0.424007	21.7392	0.660324	35.1729	0.704271	37.1583
0.0914611	4.57851	0.025676	1.17593	0.277057	13.8565	0.348934	17.257	0.563629	28.4745	0.840996	41.5147	0.168438	8.55859	0.42447	20.7707	0.660687	33.5283	0.704823	35.4451
0.095591	4.57201	0.0275031	1.20806	0.277071	13.2402	0.350641	16.5775	0.564072	27.2159	0.841229	39.7003	0.170846	8.28855	0.424954	19.8877	0.661066	32.033	0.705402	33.8865
0.0997	4.56511	0.0293586	1.23886	0.277119	12.6781	0.352397	15.9576	0.564536	26.0665	0.841472	38.0392	0.173314	8.04464	0.42546	19.0795	0.661463	30.6677	0.706008	32.4626
0.103787	4.55779	0.0312403	1.2684	0.277203	12.1634	0.354199	15.3899	0.565019	25.0128	0.841726	36.5129	0.175838	7.82345	0.425987	18.337	0.661878	29.4162	0.706639	31.1569
0.107849	4.55004	0.0331458	1.29671	0.277326	11.6909	0.356046	14.8683	0.565523	24.0434	0.841991	35.1055	0.178414	7.62211	0.426535	17.6526	0.66231	28.265	0.707297	29.9553
0.111887	4.54184	0.035073	1.32385	0.27749	11.2557	0.357937	14.3875	0.566047	23.1487	0.842266	33.8039	0.18104	7.43822	0.427105	17.0199	0.662759	27.2026	0.707981	28.8461
0.115897	4.53317	0.0370199	1.34987	0.277697	10.854	0.359871	13.943	0.566591	22.3205	0.842552	32.5965	0.183366	7.29059	0.427696	16.4333	0.663225	26.2191	0.708691	27.819
0.119877	4.52401	0.0389848	1.37481	0.277951	10.4821	0.361845	13.5311	0.567155	21.5517	0.842849	31.4735	0.185375	7.17308	0.428309	15.8881	0.663709	25.3061	0.709428	26.8653
0.123827	4.51435	0.040966	1.39872	0.278253	10.1373	0.363859	13.1483	0.567739	20.8362	0.843156	30.4264	0.187054	7.08122	0.428943	15.3801	0.66421	24.4564	0.71019	25.9777
0.127744	4.50416	0.042962	1.42164	0.278605	9.81696	0.365912	12.7918	0.568343	20.1687	0.843473	29.4478	0.188392	7.01176	0.429598	14.9056	0.664728	23.6637	0.710979	25.1494
0.131626	4.49341	0.0449714	1.44363	0.279011	9.51877	0.368003	12.4591	0.568967	19.5447	0.843802	28.5312	0.189382	6.96237	0.430275	14.4616	0.665263	22.9225	0.711793	24.3749
0.135471	4.4821	0.0469929	1.46472	0.279472	9.24078	0.37013	12.1479	0.569611	18.96	0.844141	27.6709	0.190018	6.93149	0.430974	14.0453	0.665816	22.2279	0.712634	23.6491
0.139276	4.47019	0.0490254	1.48494	0.279992	8.98128	0.372294	11.8564	0.570275	18.4111	0.84449	26.862	0.190935	6.88804	0.431693	13.6541	0.666385	21.5759	0.7135	22.9678
0.143039	4.45767	0.0510679	1.50436	0.280573	8.73874	0.374492	11.5827	0.570959	17.8949	0.844851	26.1	0.191937	6.84206	0.432435	13.2861	0.666972	20.9625	0.714392	22.3269
0.146757	4.4445	0.052855	1.52063	0.281216	8.51179	0.376725	11.3254	0.571663	17.4086	0.845222	25.3809	0.193307	6.78149	0.433197	12.9391	0.667575	20.3845	0.715311	21.723
0.150428	4.43067	0.0543835	1.53406	0.281926	8.29922	0.378991	11.0831	0.572387	16.9498	0.845604	24.7013	0.195051	6.708	0.433982	12.6116	0.668195	19.8391	0.716255	21.1532
0.15405	4.41615	0.0556504	1.54486	0.282704	8.09998	0.381289	10.8546	0.57313	16.5161	0.845996	24.058	0.197177	6.62345	0.434788	12.3019	0.668833	19.3235	0.717225	20.6146
0.157619	4.40092	0.0566541	1.55321	0.283554	7.91308	0.38362	10.6387	0.573894	16.1057	0.8464	23.4482	0.199693	6.52986	0.435615	12.0088	0.669487	18.8354	0.718221	20.1049
0.161133	4.38496	0.0573932	1.55924	0.284477	7.73767	0.385981	10.4346	0.574677	15.7167	0.846814	22.8694	0.202607	6.42929	0.436465	11.7309	0.670157	18.3726	0.719242	19.6217
0.164589	4.36826	0.0578666	1.56306	0.285477	7.57295	0.388373	10.2413	0.575481	15.3476	0.847239	22.3192	0.205549	6.33533	0.437336	11.4671	0.670845	17.9334	0.72029	19.1632
0.167984	4.35078	0.0585477	1.56849	0.286413	7.43759	0.390796	10.0581	0.576304	14.997	0.847674	21.7958	0.208516	6.24738	0.438229	11.2165	0.671549	17.516	0.721363	18.7275
0.171316	4.33253	0.0592888	1.57431	0.287259	7.32787	0.393247	9.88419	0.577147	14.6634	0.848121	21.2971	0.211507	6.1649	0.439144	10.9782	0.67227	17.1188	0.722461	18.3131
0.174582	4.31349	0.0602977	1.58209	0.287994	7.24089	0.395728	9.71893	0.57801	14.3457	0.848578	20.8214	0.21452	6.0874	0.440081	10.7512	0.673007	16.7404	0.723585	17.9184
0.177779	4.29364	0.0615757	1.59172	0.288598	7.17443	0.398236	9.56175	0.578893	14.0429	0.849046	20.3673	0.217553	6.01445	0.441041	10.5348	0.673761	16.3795	0.724735	17.5422
0.180905	4.273	0.0631236	1.60305	0.289054	7.12683	0.400773	9.4121	0.579795	13.7539	0.849525	19.9333	0.220604	5.94566	0.442022	10.3284	0.674531	16.0351	0.725911	17.1831
0.183959	4.25156	0.0649429	1.61593	0.289352	7.09692	0.403337	9.26949	0.580718	13.4779	0.850015	19.5181	0.223672	5.88068	0.443027	10.1313	0.675317	15.7059	0.727112	16.8401
0.186937	4.22932	0.0670343	1.63018	0.289788	7.05465	0.405927	9.13345	0.58166	13.2141	0.850515	19.1205	0.226756	5.81921	0.444053	9.94297	0.67612	15.391	0.728338	16.5122
0.189839	4.20631	0.0691296	1.64389	0.290273	7.00968	0.408544	9.00358	0.582623	12.9616	0.851027	18.7395	0.229853	5.76096	0.445103	9.7628	0.676938	15.0897	0.72959	16.1984
0.192663	4.18254	0.071228	1.65708	0.290951	6.95009	0.411186	8.8795	0.583605	12.7198	0.85155	18.374	0.232963	5.70567	0.446175	9.59034	0.677773	14.8009	0.730867	15.8979
0.195408	4.15804	0.0733294	1.66977	0.291839	6.87726	0.413854	8.76084	0.584607	12.4881	0.852083	18.0232	0.236084	5.65311	0.447271	9.42514	0.678624	14.5239	0.732169	15.6099
0.198075	4.13284	0.0754332	1.68199	0.292957	6.79284	0.416547	8.6473	0.58563	12.2658	0.852627	17.6862	0.239215	5.60308	0.44839	9.26678	0.67949	14.2582	0.733497	15.3336
0.200662	4.10698	0.0775393	1.69377	0.294334	6.69865	0.419264	8.53856	0.586672	12.0524	0.853183	17.3622	0.242355	5.55538	0.449532	9.11488	0.680373	14.0029	0.73485	15.0684
0.20317	4.0805	0.0796471	1.70511	0.296001	6.5967	0.422006	8.43435	0.587734	11.8475	0.853749	17.0504	0.245502	5.50984	0.450698	8.96908	0.681271	13.7576	0.736228	14.8137
0.2056	4.05345	0.0817565	1.71604	0.297761	6.50095	0.424771	8.33442	0.588817	11.6505	0.854326	16.7503	0.248654	5.4663	0.451888	8.82906	0.682185	13.5217	0.737631	14.5688
0.207953	4.0259	0.0838673	1.72658	0.299616	6.41103	0.427559	8.23853	0.58992	11.461	0.854915	16.4611	0.251812	5.42461	0.453102	8.6945	0.683114	13.2946	0.739059	14.3332
0.210231	3.99789	0.0859792	1.73674	0.301565	6.32661	0.430371	8.14645	0.591043	11.2787	0.855514	16.1823	0.254973	5.38464	0.45434	8.56514	0.684059	13.0759	0.740512	14.1065
0.212436	3.96949	0.0880919	1.74655	0.303608	6.24737	0.433205	8.05799	0.592186	11.1031	0.856124	15.9134	0.258137	5.34626	0.455603	8.44069	0.685019	12.8651	0.741991	13.8882
0.21457	3.94077	0.0902053	1.75601	0.305745	6.17299	0.436062	7.97295	0.593349	10.9339	0.856746	15.6539	0.261303	5.30937	0.456891	8.32092	0.685995	12.6619	0.743494	13.6778
0.216636	3.91177	0.0923193	1.76515	0.307974	6.1032	0.43894	7.89115	0.594533	10.7708	0.857378	15.4032	0.264468	5.27386	0.458203	8.20559	0.686985	12.4658	0.745022	13.475
0.218637	3.88258	0.0944335	1.77397	0.310295	6.0377	0.44184	7.81243	0.595738	10.6135	0.858022	15.161	0.267633	5.23962	0.459542	8.0945	0.687991	12.2765	0.746574	13.2793
0.220576	3.85325	0.0965481	1.7825	0.312704	5.97623	0.444761	7.73663	0.596963	10.4617	0.858676	14.9269	0.270796	5.20657	0.460905	7.98744	0.689012	12.0936	0.748152	13.0904
0.222455	3.82385	0.0986627	1.79074	0.315199	5.91854	0.447703	7.66361	0.598209	10.3151	0.859342	14.7003	0.273957	5.17464	0.462295	7.88422	0.690048	11.9169	0.749754	12.908
0.224279	3.79444	0.100777	1.7987	0.317778	5.86437	0.450666	7.59322	0.599475	10.1735	0.860019	14.4811	0.277113	5.14374	0.463711	7.78468	0.691098	11.7461	0.751381	12.7318
0.226051	3.76506	0.102892	1.8064	0.320438	5.8135	0.453265	7.53394	0.600763	10.0366	0.860707	14.2689	0.280264	5.1138	0.465154	7.68864	0.692164	11.5808	0.753032	12.5615
0.227555	3.73954	0.105006	1.81385	0.323174	5.76569	0.455492	7.48485	0.602072	9.90433	0.861406	14.0632	0.28341	5.08475	0.466432	7.60768	0.693243	11.4208	0.754708	12.3967
0.228809	3.71787	0.10712	1.82106	0.325985	5.72073	0.457342	7.44523	0.603401	9.77636	0.862116	13.8639	0.286548	5.05653	0.467539	7.5406	0.694338	11.2659	0.756408	12.2374
0.229828	3.70002	0.109234	1.82804	0.328865	5.67843	0.45881	7.41451	0.604753	9.65255	0.862838	13.6707	0.289679	5.02909	0.468465	7.48644	0.695447	11.1159	0.758132	12.0831
0.230623	3.68596	0.111347	1.83479	0.331811	5.63859	0.459892	7.39225	0.606125	9.53269	0.863571	13.4833	0.292801	5.00238	0.469205	7.44442	0.69657	10.9705	0.75988	11.9338
0.231201	3.67565	0.11346	1.84134	0.334819	5.60103	0.460586	7.37815	0.607519	9.41664	0.864314	13.3014	0.295913	4.97633	0.469753	7.41398	0.697708	10.8295	0.761653	11.7891
0.231569	3.66907	0.115572	1.84768	0.337885	5.56557	0.461585	7.35807	0.608935	9.30422	0.86507	13.1248	0.299014	4.95091	0.470106	7.39469	0.69886	10.6927	0.76345	11.649
0.232093	3.65964	0.117683	1.85382	0.341005	5.53206	0.462674	7.33651	0.610373	9.19529	0.865836	12.9534	0.302103	4.92608	0.470615	7.36723	0.700026	10.56	0.76527	11.5131
0.232659	3.64941	0.119794	1.85978	0.344175	5.50035	0.464158	7.30761	0.611833	9.0897	0.866614	12.7868	0.30518	4.90178	0.471173	7.33773	0.701206	10.4312	0.767115	11.3813
0.233422	3.63556	0.121905	1.86556	0.347391	5.4703	0.466042	7.27175	0.613316	8.98733	0.867402	12.6249	0.308244	4.87798	0.471936	7.29819	0.702399	10.3061	0.768983	11.2534
0.234374	3.61814	0.124014	1.87116	0.35065	5.44178	0.46833	7.22937	0.614821	8.88804	0.868203	12.4674	0.311293	4.85466	0.472911	7.24911	0.703607	10.1846	0.770875	11.1294
0.235509	3.59724	0.126123	1.8766	0.353947	5.41467	0.471026	7.18099	0.616349	8.79171	0.869014	12.3143	0.314326	4.83176	0.474105	7.19111	0.704829	10.0666	0.77279	11.009
0.23682	3.57294	0.128231	1.88188	0.35728	5.38884	0.474138	7.12719	0.6179	8.69823	0.869837	12.1654	0.317344	4.80927	0.475526	7.12492	0.706064	9.95177	0.774729	10.892
0.238297	3.5454	0.130339	1.88701	0.360645	5.36421	0.477267	7.07515	0.619474	8.6075	0.870671	12.0204	0.320344	4.78715	0.477183	7.05131	0.707313	9.84015	0.776691	10.7784
0.239749	3.51823	0.132445	1.89199	0.364038	5.34067	0.480414	7.02478	0.621071	8.51941	0.871516	11.8793	0.323327	4.76537	0.478869	6.98013	0.708575	9.73158	0.778676	10.668
0.241178	3.49146	0.134551	1.89682	0.367457	5.31814	0.483579	6.97602	0.622693	8.43386	0.872373	11.7418	0.326291	4.74391	0.480584	6.91127	0.709851	9.62593	0.780685	10.5607
0.242586	3.46511	0.136656	1.90152	0.370898	5.29652	0.486761	6.92879	0.624338	8.35077	0.873241	11.608	0.329235	4.72275	0.48233	6.84466	0.71114	9.5231	0.782716	10.4564
0.243975	3.43918	0.138761	1.90609	0.374359	5.27575	0.48996	6.88304	0.626008	8.27005	0.874121	11.4775	0.33216	4.70186	0.484105	6.78021	0.712443	9.42297	0.784771	10.355
0.245348	3.4137	0.140864	1.91054	0.377837	5.25575	0.493175	6.8387	0.627703	8.19161	0.875011	11.3503	0.335064	4.68122	0.48591	6.71783	0.713759	9.32546	0.786848	10.2563
0.246706	3.38866	0.142967	1.91486	0.381329	5.23647	0.496406	6.79571	0.629423	8.11538	0.875914	11.2264	0.337945	4.66082	0.487746	6.65746	0.715088	9.23047	0.788948	10.1603
0.248051	3.36408	0.145069	1.91906	0.384833	5.21783	0.499654	6.75402	0.631168	8.04128	0.876827	11.1055	0.340805	4.64063	0.489612	6.59901	0.71643	9.1379	0.79107	10.0668
0.249384	3.33997	0.14717	1.92315	0.388347	5.19978	0.502917	6.71358	0.632938	7.96924	0.877753	10.9875	0.343642	4.62064	0.491509	6.54243	0.717786	9.04767	0.793215	9.97587
0.250708	3.31631	0.14927	1.92714	0.391868	5.18228	0.506195	6.67433	0.634735	7.8992	0.878689	10.8724	0.346455	4.60083	0.493437	6.48763	0.719154	8.95969	0.795382	9.88726
0.252023	3.29313	0.151369	1.93101	0.395395	5.16528	0.509488	6.63623	0.636322	7.83974	0.879637	10.7601	0.349244	4.58118	0.495396	6.43457	0.720536	8.8739	0.797571	9.80097
0.253331	3.2704	0.153468	1.93479	0.398925	5.14872	0.512796	6.59923	0.637691	7.79018	0.880597	10.6505	0.352009	4.5617	0.497386	6.38317	0.72193	8.79021	0.799782	9.71689
0.254633	3.24815	0.155566	1.93847	0.402456	5.13258	0.516118	6.56329	0.638835	7.74996	0.881568	10.5434	0.354748	4.54235	0.499407	6.33338	0.723337	8.70855	0.802015	9.63495
0.255931	3.22635	0.157663	1.94205	0.405987	5.11682	0.519455	6.52836	0.639746	7.71864	0.882551	10.4389	0.357462	4.52314	0.501459	6.28514	0.724757	8.62886	0.80427	9.55509
0.257224	3.20501	0.159759	1.94555	0.409516	5.10139	0.522804	6.49442	0.64042	7.69588	0.883545	10.3367	0.36015	4.50405	0.503543	6.2384	0.72619	8.55106	0.806546	9.47723
0.258514	3.18412	0.161855	1.94895	0.413042	5.08628	0.526167	6.46141	0.640854	7.68143	0.88455	10.2369	0.362811	4.48507	0.505657	6.19311	0.727636	8.47511	0.808844	9.4013
0.259803	3.16369	0.163949	1.95227	0.416563	5.07145	0.529543	6.4293	0.641479	7.66082	0.885568	10.1393	0.365445	4.4662	0.507802	6.14921	0.729095	8.40093	0.811162	9.32725
0.26109	3.14369	0.166043	1.95551	0.420077	5.05687	0.532931	6.39806	0.642163	7.63863	0.886596	10.044	0.368053	4.44743	0.509978	6.10667	0.730566	8.32847	0.813502	9.255
0.262376	3.12413	0.168137	1.95867	0.423583	5.04252	0.53633	6.36765	0.643098	7.60879	0.887637	9.95073	0.370633	4.42875	0.512185	6.06542	0.73205	8.25768	0.815863	9.18451
0.263663	3.10501	0.170229	1.96176	0.42708	5.02838	0.539742	6.33804	0.64429	7.57163	0.888689	9.85954	0.373186	4.41015	0.514421	6.02543	0.733546	8.1885	0.818245	9.11571
0.26495	3.0863	0.172321	1.96477	0.430566	5.01442	0.543164	6.3092	0.645746	7.52751	0.889753	9.77035	0.375712	4.39164	0.516688	5.98665	0.735055	8.12089	0.820647	9.04855
0.266238	3.06801	0.174412	1.9677	0.434041	5.00063	0.546597	6.2811	0.647475	7.4769	0.890828	9.68309	0.378209	4.37321	0.518985	5.94903	0.736577	8.05479	0.823069	8.98298
0.267528	3.05013	0.176502	1.97057	0.437503	4.98699	0.55004	6.25371	0.649486	7.42029	0.891915	9.59771	0.380679	4.35486	0.521311	5.91255	0.737914	7.99839	0.825512	8.91894
0.26882	3.03265	0.178592	1.97338	0.440952	4.97348	0.553492	6.227	0.651526	7.3652	0.893014	9.51414	0.383122	4.33658	0.523666	5.87716	0.739061	7.95117	0.827975	8.8564
0.270115	3.01556	0.180681	1.97611	0.444385	4.96008	0.556953	6.20094	0.653597	7.31161	0.894124	9.43235	0.385536	4.31837	0.526049	5.84281	0.740014	7.91271	0.830458	8.79531
0.271413	2.99886	0.182769	1.97879	0.447803	4.94679	0.560423	6.17551	0.655699	7.25946	0.895246	9.35226	0.387923	4.30023	0.52846	5.80947	0.740772	7.88267	0.83296	8.73561
0.272714	2.98253	0.184856	1.9814	0.451205	4.93358	0.5639	6.15068	0.657832	7.20871	0.89638	9.27385	0.390283	4.28216	0.530899	5.77711	0.74133	7.86078	0.835482	8.67728
0.274019	2.96658	0.186943	1.98396	0.454588	4.92046	0.567385	6.12643	0.659997	7.15934	0.897526	9.19705	0.392616	4.26416	0.533365	5.74569	0.741689	7.84686	0.838024	8.62026
0.275328	2.95098	0.18903	1.98646	0.457954	4.9074	0.570876	6.10274	0.662195	7.11131	0.898684	9.12182	0.394921	4.24623	0.535857	5.71518	0.742205	7.82698	0.840584	8.56452
0.276641	2.93574	0.191115	1.9889	0.4613	4.89439	0.574373	6.07957	0.664425	7.06458	0.899853	9.04813	0.3972	4.22838	0.538375	5.68553	0.742768	7.80552	0.843164	8.51001
0.277958	2.92084	0.1932	1.99129	0.464627	4.88143	0.577876	6.05691	0.666689	7.01911	0.901034	8.97591	0.399452	4.21059	0.540917	5.65672	0.743537	7.77661	0.845762	8.45672
0.27928	2.90627	0.195285	1.99363	0.467933	4.86851	0.581383	6.03474	0.668987	6.97489	0.902227	8.90515	0.401678	4.19288	0.543484	5.62872	0.744512	7.74049	0.848379	8.40459
0.280607	2.89204	0.197368	1.99592	0.471218	4.85562	0.584894	6.01303	0.671319	6.93187	0.903433	8.83579	0.403879	4.17525	0.546074	5.6015	0.745699	7.69743	0.851015	8.35359
0.281939	2.87813	0.199451	1.99816	0.474482	4.84276	0.588408	5.99176	0.673687	6.89003	0.90465	8.7678	0.406054	4.15769	0.548687	5.57502	0.747099	7.64779	0.853668	8.3037
0.283276	2.86453	0.201534	2.00035	0.477723	4.82991	0.591924	5.97092	0.67609	6.84935	0.905879	8.70114	0.408205	4.14021	0.551322	5.54927	0.748719	7.59196	0.85634	8.25487
0.284618	2.85124	0.203616	2.0025	0.480942	4.81708	0.595442	5.95048	0.67853	6.80978	0.90712	8.63578	0.410331	4.12281	0.553979	5.52419	0.75035	7.5373	0.859029	8.20709
0.285965	2.83825	0.205697	2.0046	0.484137	4.80425	0.598961	5.93043	0.681006	6.77132	0.908373	8.57168	0.412433	4.1055	0.556655	5.49979	0.751995	7.48378	0.861387	8.16627
0.287318	2.82555	0.207778	2.00666	0.487309	4.79142	0.60248	5.91075	0.68352	6.73394	0.909638	8.50881	0.414512	4.08828	0.559351	5.47601	0.753652	7.43137	0.863408	8.13207
0.288677	2.81313	0.209859	2.00868	0.490456	4.7786	0.605998	5.89141	0.686072	6.6976	0.910916	8.44714	0.416568	4.07115	0.561917	5.45141	0.755322	7.38003	0.865086	8.10419
0.290041	2.801	0.211938	2.01065	0.49358	4.76577	0.609515	5.87241	0.688662	6.66229	0.912205	8.38664	0.418601	4.0541	0.564797	5.43027	0.757005	7.32975	0.866417	8.08239
0.291411	2.78913	0.214018	2.01259	0.496678	4.75293	0.61303	5.85373	0.691291	6.62798	0.913507	8.32728	0.420613	4.03716	0.567546	5.40826	0.7587	7.28049	0.867398	8.06651
0.292786	2.77753	0.216096	2.01449	0.499752	4.74008	0.616541	5.83535	0.69396	6.59466	0.914651	8.27646	0.422603	4.02031	0.570311	5.38678	0.760408	7.23222	0.868028	8.05641
0.294168	2.76618	0.218175	2.01635	0.5028	4.72722	0.620049	5.81725	0.696668	6.56229	0.915634	8.23379	0.424573	4.00356	0.573091	5.36582	0.76213	7.18492	0.868934	8.04197
0.295555	2.75509	0.220252	2.01817	0.505823	4.71434	0.623552	5.79942	0.699417	6.53087	0.916452	8.19895	0.426523	3.98692	0.575885	5.34535	0.763864	7.13857	0.869921	8.02638
0.296948	2.74424	0.222329	2.01996	0.508821	4.70145	0.62705	5.78186	0.702206	6.50037	0.917102	8.17168	0.428453	3.97038	0.578692	5.32535	0.765611	7.09314	0.871267	8.00538
0.298347	2.73364	0.224406	2.02172	0.511792	4.68855	0.630542	5.76453	0.705037	6.47076	0.917582	8.15178	0.430364	3.95396	0.581512	5.30581	0.767371	7.0486	0.872974	7.97911
0.299752	2.72326	0.226482	2.02344	0.514738	4.67562	0.634028	5.74744	0.707909	6.44203	0.91789	8.13912	0.432257	3.93764	0.584343	5.2867	0.769144	7.00494	0.875047	7.94778
0.301163	2.71311	0.228558	2.02513	0.517657	4.66268	0.637505	5.73056	0.710822	6.41416	0.918334	8.12101	0.434132	3.92144	0.587184	5.268	0.770931	6.96213	0.877491	7.91163
0.30258	2.70319	0.230634	2.02678	0.520551	4.64973	0.640975	5.7139	0.713778	6.38713	0.918818	8.10145	0.43599	3.90535	0.590036	5.2497	0.77273	6.92016	0.88031	7.87093
0.304002	2.69348	0.232708	2.02841	0.523418	4.63675	0.644436	5.69743	0.716775	6.36092	0.919478	8.07506	0.437831	3.88939	0.592895	5.23177	0.774543	6.879	0.883145	7.83104
0.305431	2.68398	0.234783	2.03	0.52626	4.62376	0.647887	5.68115	0.719815	6.33551	0.920318	8.04201	0.439656	3.87354	0.595763	5.21421	0.776369	6.83863	0.885996	7.79195
0.306865	2.67469	0.236857	2.03157	0.529075	4.61075	0.651329	5.66505	0.722896	6.31088	0.92134	8.00254	0.441466	3.85782	0.598638	5.19699	0.778208	6.79903	0.888862	7.75362
0.308306	2.66559	0.23893	2.03311	0.531865	4.59773	0.654761	5.64912	0.72602	6.28702	0.922547	7.95691	0.44326	3.84222	0.601519	5.1801	0.780061	6.76019	0.891744	7.71605
0.309752	2.65669	0.241004	2.03462	0.534628	4.58469	0.658182	5.63335	0.729186	6.2639	0.923945	7.90544	0.445041	3.82674	0.604405	5.16353	0.781928	6.72209	0.89464	7.6792
0.311204	2.64799	0.243076	2.0361	0.537366	4.57164	0.661591	5.61773	0.732394	6.2415	0.925355	7.85489	0.446807	3.8114	0.607295	5.14725	0.783807	6.68471	0.897551	7.64306
0.312662	2.63947	0.245149	2.03756	0.540078	4.55858	0.664989	5.60226	0.735643	6.21981	0.926778	7.80524	0.44856	3.79618	0.61019	5.13126	0.785701	6.64803	0.900476	7.60761
0.314125	2.63113	0.247221	2.03899	0.542764	4.54551	0.668375	5.58694	0.738934	6.1988	0.928213	7.75646	0.4503	3.7811	0.613087	5.11554	0.787608	6.61204	0.903416	7.57284
0.315595	2.62297	0.249292	2.0404	0.545425	4.53243	0.671749	5.57175	0.742266	6.17846	0.929662	7.70855	0.452028	3.76614	0.615986	5.10009	0.789529	6.57673	0.906369	7.53872
0.317069	2.61498	0.251363	2.04178	0.548061	4.51935	0.675111	5.55669	0.745638	6.15877	0.931123	7.66148	0.453744	3.75132	0.618886	5.08487	0.791464	6.54207	0.909336	7.50524
0.31855	2.60715	0.253434	2.04314	0.550672	4.50626	0.678461	5.54177	0.749051	6.13971	0.932598	7.61523	0.455449	3.73663	0.621787	5.0699	0.793412	6.50806	0.912317	7.47238
0.320036	2.5995	0.255504	2.04447	0.553258	4.49316	0.681798	5.52696	0.752503	6.12126	0.934085	7.56979	0.457143	3.72208	0.624688	5.05515	0.795375	6.47467	0.91531	7.44012
0.321528	2.592	0.257574	2.04578	0.55582	4.48007	0.685122	5.51228	0.755995	6.1034	0.935586	7.52513	0.458826	3.70766	0.627587	5.04061	0.797351	6.44191	0.918316	7.40845
0.323026	2.58466	0.259644	2.04707	0.558358	4.46698	0.688434	5.49771	0.759524	6.08612	0.9371	7.48125	0.460499	3.69337	0.630485	5.02627	0.799342	6.40974	0.921335	7.37735
0.324529	2.57747	0.261713	2.04834	0.560872	4.45389	0.691733	5.48326	0.763091	6.06939	0.938627	7.43811	0.462163	3.67922	0.63338	5.01212	0.801346	6.37816	0.924366	7.34681
0.326037	2.57043	0.263782	2.04959	0.563362	4.44081	0.69502	5.46892	0.766695	6.05319	0.940168	7.39572	0.463818	3.66521	0.636273	4.99816	0.803365	6.34716	0.927409	7.31682
0.327551	2.56353	0.265851	2.05082	0.565829	4.42774	0.698294	5.4547	0.770335	6.03752	0.941722	7.35405	0.465464	3.65134	0.639162	4.98437	0.805398	6.31673	0.930464	7.28735
0.32907	2.55678	0.267919	2.05202	0.568273	4.41468	0.701556	5.44058	0.77401	6.02234	0.94329	7.31308	0.467102	3.6376	0.642046	4.97075	0.807446	6.28684	0.93353	7.2584
0.330594	2.55016	0.269987	2.05321	0.570694	4.40163	0.704806	5.42658	0.777719	6.00765	0.944871	7.27281	0.468731	3.62399	0.644925	4.95728	0.809507	6.2575	0.936607	7.22995
0.332124	2.54368	0.272055	2.05438	0.573094	4.3886	0.708044	5.41268	0.781461	5.99343	0.946467	7.23322	0.470353	3.61053	0.647799	4.94396	0.811583	6.22869	0.939695	7.20199
0.333659	2.53733	0.274122	2.05553	0.575471	4.37558	0.71127	5.39888	0.785236	5.97965	0.948076	7.1943	0.471968	3.5972	0.650666	4.93079	0.813673	6.2004	0.942793	7.1745
0.335199	2.53111	0.276189	2.05666	0.577826	4.36259	0.714484	5.3852	0.789042	5.9663	0.9497	7.15602	0.473576	3.584	0.653527	4.91774	0.815778	6.17261	0.945901	7.14748
0.336744	2.52501	0.278256	2.05777	0.580161	4.34962	0.717687	5.37162	0.792879	5.95337	0.951338	7.11839	0.475178	3.57094	0.65638	4.90483	0.817898	6.14533	0.949019	7.12091
0.338294	2.51903	0.280322	2.05887	0.582475	4.33667	0.720878	5.35814	0.796745	5.94084	0.95299	7.08139	0.476773	3.55802	0.659225	4.89203	0.820031	6.11853	0.952146	7.09477
0.339849	2.51318	0.282388	2.05995	0.584768	4.32375	0.724058	5.34477	0.800639	5.92869	0.954657	7.045	0.478362	3.54523	0.662062	4.87935	0.822179	6.0922	0.955282	7.06906
0.34141	2.50744	0.284454	2.06101	0.587041	4.31087	0.727228	5.33149	0.80456	5.91691	0.956339	7.00922	0.479946	3.53257	0.66489	4.86677	0.824342	6.06635	0.958427	7.04377
0.342975	2.50182	0.28652	2.06205	0.589295	4.29801	0.730387	5.31833	0.808508	5.90548	0.958035	6.97403	0.481525	3.52005	0.667709	4.8543	0.826519	6.04095	0.961579	7.01888
0.344545	2.4963	0.288585	2.06308	0.591529	4.28519	0.733535	5.30526	0.812481	5.89438	0.959746	6.93942	0.483098	3.50767	0.670517	4.84192	0.828711	6.016	0.96474	6.99438
0.346119	2.4909	0.29065	2.0641	0.593745	4.2724	0.736673	5.29229	0.816479	5.88361	0.961473	6.90539	0.484667	3.49541	0.673316	4.82964	0.830917	5.9915	0.967908	6.97027
0.347699	2.4856	0.292714	2.06509	0.595941	4.25965	0.739801	5.27942	0.820499	5.87315	0.963215	6.87191	0.486231	3.48329	0.676104	4.81744	0.833138	5.96742	0.971083	6.94653
0.349283	2.4804	0.294779	2.06608	0.59812	4.24694	0.742919	5.26666	0.824542	5.86299	0.964973	6.83899	0.487791	3.47129	0.67888	4.80532	0.835373	5.94376	0.974265	6.92314
0.350872	2.47531	0.296843	2.06705	0.600282	4.23427	0.749125	5.24141	0.828606	5.85311	0.966746	6.80662	0.489347	3.45943	0.681646	4.79328	0.837622	5.92052	0.977453	6.90011
0.352465	2.47031	0.298906	2.068	0.602425	4.22165	0.752213	5.22894	0.83269	5.8435	0.968536	6.77478	0.490899	3.44769	0.684399	4.78132	0.839886	5.89768	0.980646	6.87742
0.354063	2.46541	0.30097	2.06894	0.604552	4.20908	0.755292	5.21655	0.836793	5.83415	0.970341	6.74346	0.492448	3.43609	0.68714	4.76942	0.842164	5.87524	0.983845	6.85507
0.355666	2.46061	0.303033	2.06987	0.606663	4.19655	0.758362	5.20427	0.840914	5.82505	0.972164	6.71266	0.493994	3.42461	0.689868	4.7576	0.844456	5.85318	0.987049	6.83303
0.357272	2.45589	0.305096	2.07078	0.608757	4.18407	0.761422	5.19207	0.845053	5.81618	0.974003	6.68237	0.495536	3.41325	0.692584	4.74583	0.846763	5.83151	0.990256	6.8113
0.358884	2.45127	0.307159	2.07168	0.610835	4.17164	0.764473	5.17996	0.849207	5.80753	0.975859	6.65258	0.497075	3.40202	0.695287	4.73413	0.849083	5.81021	0.993468	6.78988
0.360499	2.44674	0.309222	2.07257	0.612899	4.15926	0.767514	5.16795	0.853377	5.7991	0.977732	6.62328	0.498612	3.39092	0.697976	4.72248	0.851417	5.78927	0.996683	6.76875
0.362119	2.44229	0.311284	2.07344	0.614947	4.14694	0.770546	5.15602	0.857561	5.79087	0.979624	6.59447	0.500147	3.37994	0.700652	4.71089	0.853765	5.76869	0.999901	6.74791
0.363743	2.43792	0.313346	2.0743	0.61698	4.13468	0.773569	5.14418	0.861758	5.78283	0.981533	6.56614	0.501679	3.36908	0.703313	4.69934	0.856127	5.74846	1.00312	6.72734
0.365372	2.43364	0.315408	2.07515	0.618999	4.12247	0.776583	5.13242	0.865968	5.77497	0.98346	6.53829	0.503208	3.35834	0.705961	4.68785	0.858502	5.72857		
0.367004	2.42943	0.317469	2.07599	0.621004	4.11032	0.779588	5.12074	0.870189	5.76728	0.985407	6.5109	0.504736	3.34772	0.708595	4.67641	0.86089	5.70902		
0.368641	2.42531	0.31953	2.07682	0.622996	4.09823	0.782583	5.10915	0.87442	5.75976	0.987372	6.48397	0.506262	3.33722	0.711214	4.66501	0.863292	5.68979		
0.370281	2.42126	0.321592	2.07763	0.624974	4.0862	0.785569	5.09764	0.87866	5.75239	0.989357	6.4575	0.507787	3.32684	0.713818	4.65365	0.865707	5.67088		
0.371926	2.41729	0.323652	2.07843	0.626939	4.07423	0.788545	5.0862	0.882909	5.74516	0.991362	6.43147	0.50931	3.31657	0.716408	4.64234	0.868135	5.65229		
0.373574	2.41339	0.325713	2.07923	0.628892	4.06232	0.791512	5.07484	0.887165	5.73807	0.993388	6.40589	0.510831	3.30642	0.718983	4.63106	0.870575	5.634		
0.375227	2.40956	0.327773	2.08001	0.630833	4.05048	0.79447	5.06356	0.891427	5.7311	0.995435	6.38076	0.512352	3.29638	0.721543	4.61983	0.873028	5.61601		
0.376883	2.4058	0.329834	2.08078	0.632761	4.0387	0.797418	5.05234	0.895694	5.72424	0.997503	6.35606	0.513871	3.28645	0.724088	4.60863	0.875493	5.59832		
0.378543	2.40211	0.331893	2.08154	0.634678	4.02699	0.800356	5.0412	0.899966	5.7175	0.999594	6.33179	0.515389	3.27664	0.726618	4.59747	0.87797	5.58091		
0.380207	2.39849	0.333953	2.08229	0.636584	4.01535	0.803285	5.03013	0.904241	5.71085	1.00171	6.30795	0.516907	3.26694	0.729132	4.58634	0.880458	5.56378		
0.381874	2.39493	0.336013	2.08303	0.638479	4.00377	0.806203	5.01912	0.908517	5.7043			0.518424	3.25734	0.731632	4.57525	0.882959	5.54692		
0.383546	2.39144	0.338072	2.08376	0.640363	3.99226	0.809112	5.00818	0.912795	5.69782			0.51994	3.24786	0.734117	4.5642	0.88547	5.53033		
0.38522	2.38801	0.340131	2.08448	0.642237	3.98082	0.812011	4.9973	0.917072	5.69142			0.521456	3.23848	0.736586	4.55318	0.887993	5.51399		
0.386899	2.38464	0.34219	2.0852	0.644101	3.96945	0.814899	4.98649	0.921347	5.68508			0.522971	3.2292	0.73904	4.54219	0.890526	5.49792		
0.388581	2.38133	0.344249	2.0859	0.645954	3.95814	0.817777	4.97573	0.92562	5.6788			0.524486	3.22003	0.741479	4.53123	0.89307	5.48209		
0.390266	2.37808	0.346307	2.08659	0.647799	3.94691	0.820645	4.96504	0.929888	5.67256			0.526001	3.21097	0.743903	4.52031	0.895623	5.4665		
0.391955	2.37489	0.348365	2.08728	0.649634	3.93575	0.823503	4.9544	0.93415	5.66636			0.527516	3.202	0.746312	4.50941	0.898187	5.45115		
0.393647	2.37176	0.350424	2.08795	0.651459	3.92466	0.826349	4.94381	0.938405	5.66018			0.529031	3.19314	0.748706	4.49855	0.90076	5.43602		
0.395343	2.36868	0.352481	2.08862	0.653277	3.91364	0.829185	4.93328	0.942652	5.65402			0.530546	3.18438	0.751085	4.48772	0.903342	5.42112		
0.397042	2.36565	0.354539	2.08928	0.655085	3.90269	0.83201	4.9228	0.946888	5.64787			0.532061	3.17571	0.753449	4.47693	0.905933	5.40644		
0.398744	2.36268	0.356597	2.08993	0.656886	3.89182	0.834824	4.91237	0.951112	5.64171			0.533577	3.16715	0.755798	4.46616	0.908532	5.39198		
0.400449	2.35976	0.358654	2.09057	0.658678	3.88101	0.837627	4.90199	0.955323	5.63554			0.535092	3.15868	0.758133	4.45543	0.91114	5.37772		
0.402158	2.35688	0.360711	2.0912	0.660463	3.87028	0.840419	4.89166	0.959517	5.62934			0.536609	3.1503	0.760454	4.44473	0.913755	5.36366		
0.40387	2.35406	0.362768	2.09183	0.662239	3.85962	0.8432	4.88137	0.963694	5.62311			0.538125	3.14202	0.76276	4.43406	0.916377	5.34979		
0.405585	2.35129	0.364825	2.09245	0.664009	3.84903	0.845969	4.87112	0.967851	5.61683			0.539643	3.13383	0.765052	4.42343	0.919007	5.33612		
0.407303	2.34856	0.366881	2.09306	0.665771	3.83852	0.848726	4.86092	0.971987	5.6105			0.541161	3.12573	0.767329	4.41283	0.921644	5.32264		
0.409024	2.34589	0.368938	2.09366	0.667527	3.82808	0.851472	4.85077	0.976098	5.60409			0.542679	3.11773	0.769593	4.40226	0.924286	5.30933		
0.410748	2.34325	0.370994	2.09426	0.669276	3.81771	0.854206	4.84065	0.980183	5.5976			0.544199	3.10981	0.771843	4.39172	0.926935	5.2962		
0.412475	2.34067	0.37305	2.09485	0.671018	3.80741	0.856928	4.83057	0.98424	5.59102			0.545719	3.10198	0.77408	4.38122	0.929589	5.28324		
0.414205	2.33812	0.375106	2.09543	0.672754	3.79719	0.859638	4.82053	0.988266	5.58433			0.54724	3.09424	0.776303	4.37076	0.932249	5.27045		
0.415938	2.33562	0.377162	2.096	0.674484	3.78703	0.862337	4.81053	0.992258	5.57753			0.548762	3.08659	0.778513	4.36033	0.934913	5.25782		
0.417674	2.33316	0.379217	2.09657	0.676207	3.77696	0.865023	4.80056	0.996214	5.57059			0.550285	3.07902	0.780709	4.34993	0.937582	5.24534		
0.419413	2.33074	0.381272	2.09713	0.677925	3.76695	0.867697	4.79063	1.00013	5.56352			0.551809	3.07153	0.782893	4.33957	0.940255	5.23302		
0.421154	2.32836	0.383328	2.09768	0.679638	3.75701	0.870358	4.78074					0.553334	3.06413	0.785064	4.32924	0.942931	5.22084		
0.422898	2.32602	0.385383	2.09823	0.681345	3.74715	0.873008	4.77087					0.55486	3.05681	0.787222	4.31896	0.945611	5.20881		
0.424645	2.32373	0.387437	2.09877	0.683047	3.73736	0.875645	4.76104					0.556388	3.04957	0.789368	4.30871	0.948294	5.19692		
0.426395	2.32146	0.389492	2.09931	0.684743	3.72764	0.878269	4.75124					0.557916	3.04242	0.791502	4.2985	0.950979	5.18516		
0.428147	2.31924	0.391547	2.09984	0.686435	3.71799	0.880882	4.74148					0.559446	3.03534	0.793624	4.28832	0.953667	5.17353		
0.429902	2.31705	0.393601	2.10036	0.688122	3.70841	0.883481	4.73174					0.560978	3.02834	0.795735	4.27819	0.956356	5.16203		
0.431659	2.3149	0.395655	2.10088	0.689804	3.69891	0.886068	4.72203					0.56251	3.02141	0.797833	4.26809	0.959046	5.15065		
0.433419	2.31278	0.397709	2.10139	0.691482	3.68947	0.888643	4.71235					0.564044	3.01457	0.799921	4.25803	0.961738	5.13939		
0.435182	2.3107	0.399763	2.10189	0.693155	3.6801	0.891204	4.70271					0.565579	3.00779	0.801997	4.24802	0.96443	5.12824		
0.436947	2.30865	0.401817	2.10239	0.694824	3.67081	0.893754	4.69308					0.567116	3.0011	0.804062	4.23804	0.967123	5.11721		
0.438715	2.30664	0.40387	2.10288	0.696489	3.66158	0.89629	4.68349					0.568654	2.99447	0.806116	4.2281	0.969816	5.10628		
0.440485	2.30465	0.405924	2.10337	0.69815	3.65242	0.898814	4.67392					0.570194	2.98792	0.80816	4.21821	0.972508	5.09546		
0.442257	2.3027	0.407977	2.10386	0.699807	3.64334	0.901326	4.66439					0.571735	2.98144	0.810193	4.20836	0.9752	5.08474		
0.444032	2.30078	0.41003	2.10433	0.701461	3.63432	0.903824	4.65487					0.573278	2.97503	0.812216	4.19855	0.97789	5.07412		
0.445809	2.29889	0.412083	2.1048	0.703111	3.62536	0.906311	4.64539					0.574822	2.96869	0.81423	4.18878	0.980579	5.06359		
0.447589	2.29703	0.414136	2.10527	0.704758	3.61648	0.908784	4.63593					0.576368	2.96242	0.816233	4.17906	0.983266	5.05316		
0.44937	2.2952	0.416188	2.10573	0.706401	3.60766	0.911245	4.62649					0.577915	2.95622	0.818227	4.16938	0.985951	5.04281		
0.451155	2.2934	0.418241	2.10619	0.708041	3.59891	0.913694	4.61708					0.579465	2.95008	0.820211	4.15974	0.988634	5.03255		
0.452941	2.29163	0.420293	2.10664	0.709677	3.59023	0.91613	4.6077					0.581016	2.94401	0.822186	4.15014	0.991314	5.02237		
0.454729	2.28988	0.422345	2.10708	0.711311	3.58162	0.918554	4.59834					0.582568	2.93801	0.824152	4.1406	0.993991	5.01228		
0.45652	2.28816	0.424397	2.10753	0.712942	3.57307	0.920965	4.58901					0.584122	2.93207	0.826109	4.13109	0.996665	5.00226		
0.458313	2.28647	0.426449	2.10796	0.71457	3.56458	0.923364	4.5797					0.585678	2.9262	0.828058	4.12163	0.999335	4.99231		
0.460108	2.28481	0.428501	2.10839	0.716196	3.55616	0.925751	4.57042					0.587236	2.92039	0.829997	4.11222	1.002	4.98244		
0.461905	2.28317	0.430553	2.10882	0.717818	3.54781	0.928126	4.56117					0.588796	2.91464	0.831929	4.10285				
0.463704	2.28155	0.432604	2.10924	0.719439	3.53951	0.930488	4.55193					0.590357	2.90895	0.833853	4.09352				
0.465506	2.27997	0.434655	2.10966	0.721057	3.53129	0.932839	4.54273					0.59192	2.90332	0.835768	4.08425				
0.467309	2.2784	0.436707	2.11008	0.722672	3.52312	0.935178	4.53355					0.593485	2.89776	0.837676	4.07502				
0.469115	2.27686	0.438758	2.11049	0.724285	3.51502	0.937505	4.52439					0.595051	2.89225	0.839575	4.06583				
0.470922	2.27534	0.440809	2.11089	0.725896	3.50698	0.93982	4.51526					0.59662	2.8868	0.841468	4.05669				
0.472731	2.27385	0.442859	2.11129	0.727505	3.49901	0.942123	4.50616					0.59819	2.88141	0.843353	4.0476				
0.474542	2.27238	0.44491	2.11169	0.729112	3.49109	0.944415	4.49708					0.599763	2.87607	0.845231	4.03855				
0.476356	2.27093	0.44696	2.11208	0.730717	3.48324	0.946696	4.48803					0.601337	2.8708	0.847102	4.02955				
0.478171	2.2695	0.449011	2.11247	0.732321	3.47545	0.948965	4.47901					0.602913	2.86557	0.848966	4.0206				
0.479988	2.2681	0.451061	2.11285	0.733922	3.46771	0.951224	4.47001					0.604491	2.86041	0.850823	4.0117				
0.481807	2.26671	0.453111	2.11323	0.735522	3.46004	0.953471	4.46104					0.60607	2.85529	0.852674	4.00284				
0.483627	2.26535	0.455161	2.11361	0.73712	3.45243	0.955707	4.45209					0.607652	2.85023	0.854519	3.99403				
0.48545	2.264	0.457211	2.11398	0.738716	3.44487	0.957932	4.44317					0.609235	2.84523	0.856357	3.98527				
0.487274	2.26268	0.45926	2.11435	0.740311	3.43737	0.960146	4.43428					0.610821	2.84027	0.858189	3.97655				
0.4891	2.26138	0.46131	2.11472	0.741905	3.42994	0.96235	4.42542					0.612408	2.83537	0.860014	3.96788				
0.490928	2.26009	0.463359	2.11508	0.743497	3.42255	0.964544	4.41658					0.613998	2.83052	0.861835	3.95926				
0.492757	2.25882	0.465409	2.11543	0.745088	3.41523	0.966727	4.40778					0.615589	2.82572	0.863649	3.95068				
0.494589	2.25758	0.467458	2.11579	0.746678	3.40796	0.9689	4.399					0.617182	2.82097	0.865458	3.94216				
0.496422	2.25635	0.469507	2.11614	0.748266	3.40075	0.971063	4.39024					0.618777	2.81626	0.867261	3.93367				
0.498256	2.25514	0.471556	2.11649	0.749854	3.3936	0.973216	4.38152					0.620374	2.81161	0.869059	3.92524				
0.500092	2.25394	0.473605	2.11683	0.75144	3.3865	0.975359	4.37283					0.621973	2.80701	0.870851	3.91686				
0.50193	2.25277	0.475653	2.11717	0.753026	3.37945	0.977492	4.36416					0.623574	2.80245	0.872639	3.90852				
0.50377	2.25161	0.477702	2.11751	0.75461	3.37246	0.979616	4.35553					0.625177	2.79794	0.874421	3.90022				
0.505611	2.25046	0.47975	2.11784	0.756193	3.36552	0.981731	4.34692					0.626782	2.79347	0.876199	3.89198				
0.507454	2.24934	0.481798	2.11817	0.757776	3.35864	0.983836	4.33835					0.628389	2.78905	0.877971	3.88378				
0.509298	2.24823	0.483846	2.1185	0.759358	3.35181	0.985932	4.3298					0.629998	2.78468	0.879739	3.87563				
0.511144	2.24714	0.485894	2.11882	0.760939	3.34503	0.988019	4.32129					0.631608	2.78034	0.881503	3.86752				
0.512991	2.24606	0.487942	2.11914	0.762519	3.33831	0.990097	4.3128					0.633221	2.77606	0.883262	3.85946				
0.51484	2.24499	0.48999	2.11946	0.764099	3.33164	0.992167	4.30435					0.634836	2.77182	0.885017	3.85145				
0.51669	2.24395	0.492038	2.11977	0.765678	3.32501	0.994228	4.29592					0.636453	2.76762	0.886767	3.84349				
0.518542	2.24291	0.494085	2.12008	0.767257	3.31844	0.99628	4.28753					0.638071	2.76346	0.888513	3.83557				
0.520395	2.24189	0.496133	2.12039	0.768835	3.31192	0.998324	4.27917					0.639692	2.75934	0.890255	3.82769				
0.52225	2.24089	0.49818	2.1207	0.770413	3.30545	1.00036	4.27084					0.641314	2.75527	0.891994	3.81986				
0.524106	2.2399	0.500227	2.121	0.77199	3.29903							0.642939	2.75123	0.893728	3.81208				
0.525964	2.23892	0.502274	2.1213	0.773567	3.29266							0.644565	2.74724	0.895458	3.80434				
0.527823	2.23796	0.504321	2.1216	0.775143	3.28634							0.646193	2.74329	0.897185	3.79665				
0.529683	2.23701	0.506368	2.12189	0.776719	3.28006							0.647824	2.73937	0.898908	3.789				
0.533408	2.23515	0.508414	2.12218	0.778295	3.27384							0.649456	2.7355	0.900628	3.7814				
0.535272	2.23424	0.510461	2.12247	0.77987	3.26766							0.65109	2.73166	0.902344	3.77384				
0.537138	2.23334	0.512507	2.12275	0.781446	3.26152							0.652726	2.72786	0.904057	3.76633				
0.539005	2.23246	0.514554	2.12304	0.783021	3.25544							0.654365	2.7241	0.905767	3.75886				
0.540873	2.23159	0.5166	2.12332	0.784596	3.2494							0.656005	2.72038	0.907473	3.75144				
0.542743	2.23072	0.518646	2.12359	0.786171	3.24341							0.657647	2.71669	0.909176	3.74406				
0.544614	2.22987	0.520692	2.12387	0.787746	3.23746							0.659291	2.71304	0.910876	3.73672				
0.546486	2.22904	0.522738	2.12414	0.789321	3.23156							0.660937	2.70943	0.912573	3.72943				
0.548359	2.22821	0.524784	2.12441	0.790896	3.2257							0.662584	2.70585	0.914267	3.72218				
0.550234	2.22739	0.526829	2.12468	0.792471	3.21989							0.664234	2.7023	0.915959	3.71498				
0.552109	2.22659	0.528875	2.12494	0.794045	3.21412							0.665886	2.69879	0.917647	3.70781				
0.553986	2.2258	0.53092	2.12521	0.795621	3.2084							0.667539	2.69532	0.919333	3.70069				
0.555865	2.22501	0.532965	2.12547	0.797196	3.20272							0.669195	2.69187	0.921016	3.69362				
0.557744	2.22424	0.53501	2.12572	0.798771	3.19708							0.670852	2.68846	0.922697	3.68658				
0.559624	2.22348	0.537055	2.12598	0.800346	3.19148							0.672511	2.68509	0.924374	3.67959				
0.561506	2.22273	0.5391	2.12623	0.801922	3.18593							0.674172	2.68175	0.92605	3.67264				
0.563389	2.22198	0.541145	2.12648	0.803498	3.18042							0.675835	2.67843	0.927723	3.66573				
0.565273	2.22125	0.54319	2.12673	0.805074	3.17495							0.6775	2.67515	0.929394	3.65886				
0.567158	2.22053	0.545234	2.12698	0.80665	3.16952							0.679167	2.67191	0.931062	3.65203				
0.569044	2.21982	0.547279	2.12722	0.808227	3.16413							0.680836	2.66869	0.932729	3.64525				
0.570931	2.21911	0.549323	2.12746	0.809804	3.15878							0.682506	2.6655	0.934393	3.6385				
0.572819	2.21842	0.551367	2.1277	0.811381	3.15348							0.684179	2.66235	0.936055	3.6318				
0.574709	2.21773	0.553412	2.12794	0.812959	3.14821							0.685853	2.65922	0.937714	3.62513				
0.576599	2.21706	0.555456	2.12818	0.814537	3.14298							0.687529	2.65612	0.939372	3.61851				
0.578491	2.21639	0.557499	2.12841	0.816115	3.13779							0.689207	2.65306	0.941028	3.61192				
0.580383	2.21573	0.559543	2.12864	0.817694	3.13264							0.690887	2.65002	0.942682	3.60538				
0.582277	2.21508	0.561587	2.12887	0.819274	3.12752							0.692569	2.64701	0.944334	3.59887				
0.584171	2.21444	0.563631	2.1291	0.820853	3.12245							0.694252	2.64403	0.945984	3.59241				
0.586067	2.21381	0.565674	2.12932	0.822434	3.11741							0.695937	2.64108	0.947633	3.58598				
0.587963	2.21318	0.567717	2.12954	0.824014	3.11241							0.697624	2.63815	0.94928	3.57959				
0.589861	2.21256	0.569761	2.12977	0.825596	3.10745							0.699313	2.63525	0.950925	3.57324				
0.591759	2.21196	0.571804	2.12999	0.827178	3.10252							0.701004	2.63238	0.952568	3.56693				
0.593658	2.21135	0.573847	2.1302	0.82876	3.09763							0.702697	2.62954	0.95421	3.56065				
0.595559	2.21076	0.57589	2.13042	0.830343	3.09278							0.704391	2.62672	0.95585	3.55442				
0.59746	2.21017	0.577932	2.13063	0.831926	3.08796							0.706087	2.62393	0.957489	3.54822				
0.599362	2.2096	0.579975	2.13084	0.833511	3.08318							0.707785	2.62116	0.959126	3.54206				
0.601265	2.20902	0.582018	2.13105	0.835095	3.07843							0.709484	2.61842	0.960762	3.53593				
0.60317	2.20846	0.58406	2.13126	0.836681	3.07372							0.711186	2.61571	0.962397	3.52984				
0.605075	2.2079	0.586103	2.13147	0.838267	3.06904							0.712889	2.61302	0.96403	3.52379				
0.60698	2.20735	0.588145	2.13167	0.839854	3.0644							0.714594	2.61035	0.965662	3.51778				
0.608887	2.20681	0.590187	2.13187	0.841441	3.05979							0.7163	2.60771	0.967292	3.5118				
0.610795	2.20627	0.592229	2.13207	0.843029	3.05521							0.718009	2.60509	0.968921	3.50585				
0.612703	2.20574	0.594271	2.13227	0.844618	3.05067							0.719719	2.6025	0.970549	3.49994				
0.614613	2.20522	0.596313	2.13247	0.846208	3.04616							0.721431	2.59993	0.972176	3.49407				
0.616523	2.20471	0.598355	2.13267	0.847798	3.04168							0.723144	2.59739	0.973802	3.48823				
0.618434	2.2042	0.600396	2.13286	0.849389	3.03724							0.72486	2.59486	0.975427	3.48243				
0.620346	2.20369	0.602438	2.13305	0.850981	3.03283							0.726577	2.59236	0.977051	3.47666				
0.622258	2.20319	0.604479	2.13324	0.852573	3.02845							0.728295	2.58989	0.978673	3.47093				
0.624172	2.2027	0.606521	2.13343	0.854167	3.0241							0.730015	2.58743	0.980295	3.46523				
0.626086	2.20222	0.608562	2.13362	0.855761	3.01978							0.731737	2.585	0.981915	3.45957				
0.628001	2.20174	0.610603	2.13381	0.857356	3.0155							0.733461	2.58259	0.983535	3.45394				
0.629917	2.20127	0.612644	2.13399	0.858951	3.01124							0.735186	2.5802	0.985154	3.44834				
0.631834	2.2008	0.614685	2.13418	0.860548	3.00702							0.736913	2.57783	0.986772	3.44277				
0.633752	2.20034	0.616726	2.13436	0.862145	3.00282							0.738642	2.57548	0.988389	3.43724				
0.63567	2.19988	0.618766	2.13454	0.863744	2.99866							0.740372	2.57316	0.990005	3.43174				
0.637589	2.19943	0.620807	2.13471	0.865343	2.99452							0.742104	2.57085	0.991621	3.42628				
0.639509	2.19898	0.622847	2.13489	0.866943	2.99042							0.743838	2.56857	0.993235	3.42084				
0.641429	2.19854	0.624888	2.13507	0.868544	2.98634							0.745573	2.5663	0.994849	3.41544				
0.64335	2.19811	0.626928	2.13524	0.870145	2.9823							0.74731	2.56406	0.996463	3.41007				
0.645272	2.19768	0.628968	2.13541	0.871748	2.97828							0.749048	2.56183	0.998075	3.40474				
0.647195	2.19726	0.631008	2.13558	0.873352	2.97429							0.750788	2.55963	0.999687	3.39943				
0.649118	2.19684	0.633048	2.13575	0.874956	2.97033							0.75253	2.55744	1.0013	3.39416				
0.651043	2.19643	0.635088	2.13592	0.876561	2.9664							0.754273	2.55527						
0.652967	2.19602	0.637128	2.13609	0.878168	2.96249							0.756018	2.55313						
0.654893	2.19561	0.639168	2.13625	0.879775	2.95862							0.757764	2.551						
0.656819	2.19521	0.641207	2.13642	0.881383	2.95477							0.759512	2.54889						
0.658746	2.19482	0.643247	2.13658	0.882992	2.95094							0.761261	2.54679						
0.660674	2.19443	0.645286	2.13674	0.884602	2.94715							0.763012	2.54472						
0.662602	2.19404	0.647326	2.1369	0.886213	2.94338							0.764765	2.54266						
0.664531	2.19366	0.649365	2.13706	0.887825	2.93964							0.766519	2.54063						
0.666461	2.19329	0.651404	2.13722	0.889438	2.93592							0.768275	2.53861						
0.668391	2.19292	0.653443	2.13737	0.891052	2.93223							0.770032	2.5366						
0.670322	2.19255	0.655482	2.13753	0.892667	2.92856							0.77179	2.53462						
0.672253	2.19219	0.65752	2.13768	0.894283	2.92493							0.77355	2.53265						
0.674185	2.19183	0.659559	2.13784	0.8959	2.92131							0.775312	2.5307						
0.676118	2.19147	0.661598	2.13799	0.897518	2.91772							0.777075	2.52876						
0.678052	2.19112	0.663636	2.13814	0.899137	2.91416							0.77884	2.52684						
0.679986	2.19078	0.665675	2.13829	0.900757	2.91062							0.780606	2.52494						
0.68192	2.19044	0.667713	2.13843	0.902378	2.90711							0.782373	2.52305						
0.683856	2.1901	0.669751	2.13858	0.904	2.90362							0.784143	2.52118						
0.685791	2.18976	0.671789	2.13872	0.905623	2.90015							0.785913	2.51933						
0.687728	2.18943	0.673827	2.13887	0.907247	2.89671							0.787685	2.51749						
0.689665	2.18911	0.675865	2.13901	0.908872	2.89329							0.789458	2.51567						
0.691603	2.18878	0.677903	2.13915	0.910498	2.8899							0.791233	2.51386						
0.693541	2.18847	0.679941	2.13929	0.912125	2.88652							0.793009	2.51207						
0.695479	2.18815	0.681978	2.13943	0.913753	2.88318							0.794787	2.51029						
0.697419	2.18784	0.684016	2.13957	0.915382	2.87985							0.796566	2.50853						
0.699359	2.18753	0.686053	2.13971	0.917012	2.87655							0.798346	2.50678						
0.701299	2.18723	0.68809	2.13984	0.918644	2.87327							0.800128	2.50504						
0.70324	2.18692	0.690128	2.13998	0.920276	2.87001							0.801912	2.50333						
0.705182	2.18663	0.692165	2.14011	0.92191	2.86677							0.803696	2.50162						
0.707124	2.18633	0.694202	2.14025	0.923544	2.86356							0.805482	2.49993						
0.709066	2.18604	0.696239	2.14038	0.92518	2.86037							0.80727	2.49825						
0.71101	2.18575	0.698275	2.14051	0.926816	2.8572							0.809059	2.49659						
0.712953	2.18547	0.700312	2.14064	0.928454	2.85405							0.810849	2.49494						
0.714898	2.18519	0.702349	2.14077	0.930093	2.85092							0.81264	2.49331						
0.716842	2.18491	0.704385	2.14089	0.931732	2.84781							0.814433	2.49168						
0.718788	2.18464	0.706422	2.14102	0.933373	2.84473							0.816227	2.49008						
0.720733	2.18436	0.708458	2.14115	0.935015	2.84166							0.818023	2.48848						
0.722679	2.1841	0.710494	2.14127	0.936658	2.83862							0.819819	2.4869						
0.724626	2.18383	0.712531	2.1414	0.938303	2.8356							0.821618	2.48533						
0.726574	2.18357	0.714567	2.14152	0.939948	2.83259							0.823417	2.48377						
0.728521	2.18331	0.716603	2.14164	0.941594	2.82961							0.825218	2.48223						
0.73047	2.18305	0.718639	2.14176	0.943241	2.82665							0.82702	2.4807						
0.732418	2.1828	0.720674	2.14188	0.94489	2.8237							0.828823	2.47918						
0.734367	2.18254	0.72271	2.142	0.94654	2.82078							0.830628	2.47767						
0.736317	2.1823	0.724746	2.14212	0.94819	2.81787							0.832434	2.47617						
0.738267	2.18205	0.726781	2.14223	0.949842	2.81499							0.834241	2.47469						
0.740218	2.18181	0.728817	2.14235	0.951495	2.81212							0.83605	2.47322						
0.742169	2.18157	0.730852	2.14247	0.953149	2.80927							0.837859	2.47176						
0.74412	2.18133	0.732887	2.14258	0.954804	2.80644							0.83967	2.47031						
0.746072	2.1811	0.734922	2.14269	0.95646	2.80363							0.841482	2.46888						
0.748025	2.18086	0.736957	2.14281	0.958117	2.80084							0.843296	2.46745						
0.749978	2.18063	0.738992	2.14292	0.959775	2.79807							0.845111	2.46604						
0.751931	2.18041	0.741027	2.14303	0.961435	2.79531							0.846927	2.46464						
0.753885	2.18018	0.743062	2.14314	0.963095	2.79258							0.848744	2.46325						
0.755839	2.17996	0.745097	2.14325	0.964757	2.78986							0.850562	2.46187						
0.757793	2.17974	0.747131	2.14336	0.96642	2.78716							0.852382	2.4605						
0.759748	2.17952	0.749166	2.14346	0.968083	2.78447							0.854203	2.45914						
0.761704	2.17931	0.7512	2.14357	0.969748	2.78181							0.856025	2.4578						
0.76366	2.17909	0.753234	2.14368	0.971414	2.77916							0.857848	2.45646						
0.765616	2.17888	0.755269	2.14378	0.973081	2.77653							0.859672	2.45513						
0.767573	2.17867	0.757303	2.14388	0.97475	2.77391							0.861498	2.45382						
0.76953	2.17847	0.759337	2.14399	0.976419	2.77132							0.863324	2.45251						
0.771487	2.17826	0.761371	2.14409	0.978089	2.76874							0.865152	2.45122						
0.773445	2.17806	0.763405	2.14419	0.979761	2.76617							0.866981	2.44993						
0.775403	2.17786	0.765438	2.14429	0.981433	2.76362							0.868811	2.44866						
0.777362	2.17767	0.767472	2.14439	0.983107	2.76109							0.870643	2.44739						
0.779321	2.17747	0.769506	2.14449	0.984782	2.75858							0.872475	2.44614						
0.781281	2.17728	0.771539	2.14459	0.986458	2.75608							0.874309	2.44489						
0.783241	2.17709	0.773573	2.14469	0.988135	2.7536							0.876144	2.44366						
0.785201	2.1769	0.775606	2.14479	0.989813	2.75113							0.87798	2.44243						
0.787161	2.17671	0.777639	2.14488	0.991492	2.74868							0.879817	2.44121						
0.789122	2.17653	0.779672	2.14498	0.993172	2.74624							0.881655	2.44						
0.791084	2.17634	0.781705	2.14507	0.994853	2.74383							0.883494	2.43881						
0.793045	2.17616	0.783738	2.14517	0.996536	2.74142							0.885334	2.43762						
0.795008	2.17598	0.785771	2.14526	0.998219	2.73903							0.887176	2.43644						
0.79697	2.17581	0.787804	2.14535	0.999904	2.73666							0.889018	2.43527						
0.798933	2.17563	0.789837	2.14545	1.00159	2.7343							0.890862	2.4341						
0.800896	2.17546	0.791869	2.14554									0.892707	2.43295						
0.802859	2.17529	0.793902	2.14563									0.894552	2.43181						
0.804823	2.17512	0.795934	2.14572									0.896399	2.43067						
0.806787	2.17495	0.797967	2.14581									0.898247	2.42954						
0.808752	2.17478	0.799999	2.1459									0.900096	2.42842						
0.810717	2.17462	0.802031	2.14598									0.901946	2.42731						
0.812682	2.17445	0.804063	2.14607									0.903797	2.42621						
0.814648	2.17429	0.806095	2.14616									0.905649	2.42512						
0.816614	2.17413	0.808127	2.14624									0.907502	2.42403						
0.81858	2.17398	0.810159	2.14633									0.909356	2.42296						
0.820546	2.17382	0.812191	2.14641									0.911212	2.42189						
0.822513	2.17367	0.814222	2.1465									0.913068	2.42083						
0.82448	2.17351	0.816254	2.14658									0.914925	2.41977						
0.826448	2.17336	0.818286	2.14666									0.916783	2.41873						
0.828416	2.17321	0.820317	2.14675									0.918643	2.41769						
0.830384	2.17306	0.822348	2.14683									0.920503	2.41666						
0.832352	2.17292	0.82438	2.14691									0.922364	2.41564						
0.834321	2.17277	0.826411	2.14699									0.924226	2.41462						
0.83629	2.17263	0.828442	2.14707									0.92609	2.41362						
0.83826	2.17249	0.830473	2.14715									0.927954	2.41262						
0.840229	2.17234	0.832504	2.14723									0.929819	2.41162						
0.842199	2.17221	0.834534	2.1473									0.931685	2.41064						
0.84417	2.17207	0.836565	2.14738									0.933552	2.40966						
0.84614	2.17193	0.838596	2.14746									0.93542	2.40869						
0.848111	2.1718	0.840626	2.14753									0.937289	2.40773						
0.850082	2.17166	0.842657	2.14761									0.939159	2.40677						
0.852054	2.17153	0.844687	2.14768									0.94103	2.40582						
0.854025	2.1714	0.846718	2.14776									0.942902	2.40488						
0.855997	2.17127	0.848748	2.14783									0.944775	2.40394						
0.85797	2.17114	0.850778	2.14791									0.946649	2.40301						
0.859942	2.17101	0.852808	2.14798									0.948523	2.40209						
0.861915	2.17089	0.854838	2.14805									0.950399	2.40117						
0.863888	2.17076	0.856868	2.14812									0.952276	2.40027						
0.865861	2.17064	0.858898	2.14819									0.954153	2.39936						
0.867835	2.17052	0.860928	2.14826									0.956031	2.39847						
0.869809	2.1704	0.862957	2.14833									0.95791	2.39758						
0.871783	2.17028	0.864987	2.1484									0.959791	2.39669						
0.873758	2.17016	0.867016	2.14847									0.961672	2.39582						
0.875732	2.17004	0.869046	2.14854									0.963554	2.39495						
0.877707	2.16993	0.871075	2.14861									0.965436	2.39408						
0.879682	2.16981	0.873104	2.14868									0.96732	2.39322						
0.881658	2.1697	0.875134	2.14874									0.969204	2.39237						
0.883634	2.16959	0.877163	2.14881									0.97109	2.39153						
0.88561	2.16948	0.879192	2.14888									0.972976	2.39069						
0.887586	2.16937	0.881221	2.14894									0.974863	2.38985						
0.889562	2.16926	0.883249	2.14901									0.976751	2.38902						
0.891539	2.16915	0.885278	2.14907									0.97864	2.3882						
0.893516	2.16904	0.887307	2.14913									0.98053	2.38738						
0.895493	2.16894	0.889336	2.1492									0.98242	2.38657						
0.89747	2.16883	0.891364	2.14926									0.984312	2.38577						
0.899448	2.16873	0.893393	2.14932									0.986204	2.38497						
0.901426	2.16863	0.895421	2.14939									0.988097	2.38418						
0.903404	2.16852	0.897449	2.14945									0.989991	2.38339						
0.905383	2.16842	0.899478	2.14951									0.991886	2.3826						
0.907361	2.16832	0.901506	2.14957									0.993781	2.38183						
0.90934	2.16822	0.903534	2.14963									0.995678	2.38105						
0.911319	2.16813	0.905562	2.14969									0.997575	2.38029						
0.913298	2.16803	0.90759	2.14975									0.999473	2.37953						
0.915278	2.16793	0.909618	2.14981									1.00137	2.37877						
0.917257	2.16784	0.911645	2.14987																
0.919237	2.16775	0.913673	2.14992																
0.921217	2.16765	0.915701	2.14998																
0.923198	2.16756	0.917728	2.15004																
0.925178	2.16747	0.919756	2.1501																
0.927159	2.16738	0.921783	2.15015																
0.92914	2.16729	0.92381	2.15021																
0.931121	2.1672	0.925838	2.15026																
0.933103	2.16711	0.927865	2.15032																
0.935084	2.16703	0.929892	2.15037																
0.937066	2.16694	0.931919	2.15043																
0.939048	2.16685	0.933946	2.15048																
0.94103	2.16677	0.935973	2.15054																
0.943013	2.16669	0.937999	2.15059																
0.944995	2.1666	0.940026	2.15064																
0.946978	2.16652	0.942053	2.15069																
0.948961	2.16644	0.944079	2.15075																
0.950944	2.16636	0.946106	2.1508																
0.952928	2.16628	0.948132	2.15085																
0.954911	2.1662	0.950159	2.1509																
0.956895	2.16612	0.952185	2.15095																
0.958879	2.16605	0.954211	2.151																
0.960863	2.16597	0.956237	2.15105																
0.962848	2.16589	0.958263	2.1511																
0.964832	2.16582	0.960289	2.15115																
0.966817	2.16575	0.962315	2.1512																
0.968802	2.16567	0.964341	2.15124																
0.970787	2.1656	0.966367	2.15129																
0.972772	2.16553	0.968393	2.15134																
0.974757	2.16545	0.970418	2.15139																
0.976743	2.16538	0.972444	2.15143																
0.978729	2.16531	0.974469	2.15148																
0.980715	2.16524	0.976495	2.15152																
0.982701	2.16518	0.97852	2.15157																
0.984687	2.16511	0.980545	2.15162																
0.986673	2.16504	0.98257	2.15166																
0.98866	2.16497	0.984596	2.15171																
0.990647	2.16491	0.986621	2.15175																
0.992634	2.16484	0.988646	2.15179																
0.994621	2.16478	0.990671	2.15184																
0.996608	2.16471	0.992695	2.15188																
0.998595	2.16465	0.99472	2.15192																
1.00058	2.16458	0.996745	2.15197																
		0.99877	2.15201																
		1.00079	2.15205																
