Sym0		Asym0		Sym1		Sym2		Sym3		Asym1		Asym2		Asym3		Asym4	
489  Points		496  Points		339  Points		188  Points		164  Points		434  Points		231  Points		168  Points		140  Points	
Freq (MHz)	Vph (m/ms)	Freq (MHz)	Vph (m/ms)	Freq (MHz)	Vph (m/ms)	Freq (MHz)	Vph (m/ms)	Freq (MHz)	Vph (m/ms)	Freq (MHz)	Vph (m/ms)	Freq (MHz)	Vph (m/ms)	Freq (MHz)	Vph (m/ms)	Freq (MHz)	Vph (m/ms)
0.000190502	5.88963	0.000485509	0.203128	0.279509	1244.14	0.330979	385.964	0.559019	1731.16	0.139824	193.547	0.419264	1893.01	0.661874	1198.88	0.698771	13642.9
0.00567697	5.88872	0.000933115	0.280901	0.279521	241.726	0.331123	185.064	0.559054	445.599	0.140118	84.7084	0.4193	363.604	0.661893	446.088	0.698796	710.943
0.0111626	5.88825	0.00151998	0.357344	0.27955	133.881	0.331368	121.785	0.559129	255.741	0.140641	54.3895	0.419384	201.156	0.661928	274.037	0.698865	365.017
0.0166461	5.88737	0.00224084	0.432157	0.279595	92.5888	0.331715	90.8155	0.559244	179.36	0.14139	40.1959	0.419516	139.071	0.66198	197.773	0.698979	245.574
0.0221267	5.88614	0.00308925	0.505032	0.279657	70.7735	0.332161	72.456	0.559399	138.134	0.142358	31.9962	0.419696	106.299	0.662048	154.726	0.699136	185.055
0.0276035	5.88457	0.00405846	0.57578	0.279737	57.2864	0.332707	60.3166	0.559596	112.337	0.14354	26.6758	0.419925	86.051	0.662135	127.076	0.699338	148.489
0.0330752	5.88264	0.00514085	0.64419	0.279836	48.1245	0.333352	51.7008	0.559832	94.6768	0.144928	22.9586	0.420201	72.3033	0.662238	107.817	0.699584	124.009
0.0385411	5.88035	0.00632881	0.710142	0.279954	41.496	0.334094	45.2738	0.560109	81.83	0.146515	20.2248	0.420526	62.3616	0.662359	93.6337	0.699874	106.476
0.0439999	5.8777	0.00761435	0.773524	0.280092	36.4788	0.334932	40.2994	0.560426	72.0668	0.148291	18.1373	0.420897	54.8398	0.662499	82.754	0.700207	93.3015
0.0494505	5.87465	0.00898972	0.83428	0.280252	32.55	0.335866	36.3381	0.560782	64.3973	0.150247	16.4967	0.421317	48.952	0.662656	74.1448	0.700583	83.0422
0.0548918	5.87123	0.0104473	0.892386	0.280435	29.3908	0.336893	33.1115	0.561179	58.2144	0.152374	15.1776	0.421783	44.2193	0.662833	67.1629	0.701002	74.8281
0.0603226	5.86739	0.0119797	0.947848	0.280642	26.796	0.338013	30.4346	0.561616	53.1252	0.154662	14.0973	0.422296	40.3334	0.663028	61.3874	0.701463	68.1041
0.0657416	5.86315	0.0135799	1.00069	0.280875	24.6273	0.339223	28.1796	0.562092	48.8638	0.157103	13.1989	0.422856	37.0867	0.663243	56.5308	0.701967	62.4995
0.0711475	5.85847	0.0152413	1.05097	0.281134	22.7885	0.340523	26.2555	0.562608	45.2441	0.159687	12.442	0.423462	34.3342	0.663478	52.3904	0.702512	57.7569
0.0765389	5.85335	0.0169578	1.09874	0.281423	21.21	0.341911	24.5957	0.563164	42.132	0.162405	11.7974	0.424114	31.9719	0.663734	48.819	0.703099	53.6924
0.0819142	5.84777	0.0187237	1.14409	0.281742	19.8408	0.343385	23.1501	0.563758	39.4282	0.165249	11.243	0.424811	29.9228	0.66401	45.7071	0.703727	50.1707
0.0872719	5.8417	0.0205337	1.18711	0.282092	18.6424	0.344944	21.8808	0.564392	37.0578	0.16821	10.7623	0.425554	28.1291	0.664308	42.9717	0.704395	47.0904
0.0926102	5.83512	0.022383	1.22788	0.282478	17.5851	0.346586	20.7582	0.565065	34.9631	0.171281	10.3423	0.426342	26.5463	0.664628	40.5486	0.705103	44.3739
0.0979273	5.82801	0.0242672	1.26651	0.282899	16.6458	0.348309	19.7588	0.565776	33.099	0.174455	9.9729	0.427173	25.1397	0.66497	38.3874	0.70585	41.9606
0.103221	5.82035	0.0261824	1.3031	0.283358	15.8063	0.350113	18.8641	0.566526	31.4298	0.177725	9.64606	0.428049	23.8818	0.665335	36.4481	0.706637	39.8029
0.10849	5.8121	0.028125	1.33775	0.283857	15.0519	0.351995	18.0589	0.567314	29.9266	0.181084	9.3553	0.428968	22.7504	0.665723	34.6984	0.707463	37.8624
0.113731	5.80323	0.0300917	1.37056	0.284399	14.3707	0.353953	17.331	0.56814	28.5662	0.184527	9.09534	0.42993	21.7278	0.666136	33.112	0.708327	36.1081
0.118943	5.7937	0.0320797	1.40163	0.284986	13.7529	0.355987	16.6701	0.569004	27.3294	0.188046	8.86187	0.430935	20.7993	0.666573	31.6671	0.709228	34.5148
0.124121	5.78348	0.0340864	1.43105	0.285622	13.1905	0.358095	16.0678	0.569905	26.2002	0.191638	8.65128	0.431982	19.9526	0.667035	30.3459	0.710168	33.0615
0.129264	5.77253	0.0361094	1.45891	0.286307	12.6767	0.360275	15.5169	0.570844	25.1655	0.195297	8.46061	0.43307	19.1775	0.667522	29.1332	0.711144	31.7306
0.134369	5.76081	0.0381466	1.48531	0.287046	12.2059	0.362526	15.0115	0.57182	24.214	0.199018	8.28732	0.4342	18.4657	0.668035	28.0164	0.712156	30.5076
0.139432	5.74826	0.0399321	1.50719	0.287843	11.7733	0.364846	14.5464	0.572832	23.3362	0.202798	8.1293	0.43537	17.8098	0.668575	26.9846	0.713205	29.3799
0.14445	5.73483	0.0414609	1.52505	0.288699	11.3749	0.367234	14.1172	0.573882	22.524	0.20663	7.98473	0.43658	17.2036	0.669142	26.0287	0.71429	28.337
0.149418	5.72047	0.0427291	1.5393	0.28962	11.0071	0.369689	13.7201	0.574967	21.7705	0.210513	7.85206	0.437829	16.6418	0.669736	25.1407	0.715409	27.3698
0.154332	5.70513	0.0437344	1.55024	0.290609	10.667	0.372209	13.352	0.576088	21.0697	0.214441	7.72996	0.439117	16.1199	0.670358	24.3137	0.716564	26.4704
0.159189	5.68874	0.0444748	1.5581	0.29167	10.3519	0.374792	13.0098	0.577246	20.4163	0.218412	7.61727	0.440444	15.6339	0.671009	23.5417	0.717754	25.6322
0.163983	5.67123	0.0449492	1.56306	0.292808	10.0596	0.377438	12.6912	0.578438	19.8058	0.222422	7.513	0.441809	15.1803	0.671688	22.8196	0.718977	24.8491
0.168709	5.65255	0.0456318	1.57009	0.294028	9.78824	0.380144	12.3939	0.579666	19.2343	0.226468	7.41627	0.443211	14.7561	0.672396	22.1428	0.720235	24.116
0.173363	5.63263	0.0463748	1.57759	0.295335	9.53598	0.382911	12.1161	0.580928	18.6981	0.230547	7.32631	0.444651	14.3587	0.673134	21.5072	0.721526	23.4283
0.177937	5.61139	0.0473865	1.58757	0.296734	9.30135	0.385735	11.8559	0.582226	18.1942	0.234126	7.25291	0.446126	13.9855	0.673902	20.9093	0.722851	22.7821
0.182427	5.58877	0.0486682	1.59983	0.298232	9.08302	0.388617	11.612	0.583557	17.7199	0.237194	7.19371	0.447638	13.6347	0.6747	20.3459	0.724208	22.1738
0.186826	5.56471	0.0502211	1.61415	0.299832	8.8798	0.391555	11.3829	0.584922	17.2727	0.239741	7.14691	0.449185	13.3043	0.675529	19.8143	0.725598	21.6002
0.191128	5.53914	0.0520464	1.63028	0.301543	8.69065	0.394547	11.1674	0.586321	16.8504	0.241762	7.11122	0.450767	12.9926	0.676389	19.3117	0.727021	21.0585
0.195328	5.51201	0.0541451	1.64792	0.303368	8.51462	0.397593	10.9645	0.587753	16.4511	0.243251	7.08567	0.452384	12.6982	0.677281	18.8361	0.728475	20.5461
0.199418	5.48328	0.0562475	1.6647	0.305314	8.35086	0.400691	10.7731	0.589219	16.073	0.244206	7.06962	0.454035	12.4197	0.678205	18.3854	0.729961	20.0609
0.203394	5.45291	0.058353	1.68067	0.307386	8.1986	0.40384	10.5924	0.590717	15.7144	0.24558	7.04695	0.455719	12.156	0.67916	17.9578	0.731479	19.6007
0.20725	5.42088	0.060461	1.69588	0.309588	8.05712	0.407039	10.4217	0.592248	15.3741	0.247076	7.02283	0.457438	11.9059	0.680148	17.5515	0.733028	19.1638
0.210981	5.38719	0.0625712	1.71037	0.311925	7.92577	0.410288	10.2601	0.59381	15.0507	0.249115	6.99086	0.459189	11.6686	0.681169	17.1651	0.734609	18.7484
0.214584	5.35185	0.0646829	1.72419	0.314401	7.80393	0.413584	10.107	0.595405	14.7429	0.2517	6.95175	0.460973	11.443	0.682222	16.7973	0.73622	18.3531
0.218054	5.31491	0.066796	1.73736	0.317017	7.691	0.416926	9.96189	0.597031	14.4498	0.254834	6.90631	0.46279	11.2284	0.683309	16.4468	0.737862	17.9765
0.221391	5.27642	0.0689099	1.74994	0.319776	7.58644	0.420315	9.82416	0.598689	14.1704	0.258522	6.85541	0.464638	11.024	0.68443	16.1124	0.739534	17.6174
0.224593	5.23645	0.0710245	1.76195	0.322676	7.4897	0.423748	9.69332	0.600377	13.9038	0.262767	6.79996	0.466519	10.8293	0.685584	15.7932	0.741236	17.2745
0.22766	5.19511	0.0731396	1.77343	0.325319	7.41137	0.427225	9.56892	0.602096	13.6491	0.267023	6.74742	0.468432	10.6435	0.686772	15.4882	0.742969	16.9469
0.230594	5.15252	0.0752548	1.78441	0.327655	7.34873	0.430745	9.45055	0.603846	13.4056	0.271289	6.69753	0.470377	10.4661	0.687994	15.1964	0.744731	16.6336
0.233398	5.1088	0.07737	1.79491	0.329645	7.29965	0.434307	9.33782	0.605626	13.1727	0.275562	6.65005	0.472353	10.2966	0.68925	14.9172	0.746524	16.3338
0.236074	5.06411	0.0794851	1.80497	0.331253	7.2625	0.437911	9.23038	0.607435	12.9496	0.27984	6.60479	0.47436	10.1346	0.690541	14.6497	0.748345	16.0465
0.238628	5.0186	0.0816	1.8146	0.332457	7.23608	0.441554	9.12792	0.609275	12.7358	0.284121	6.56156	0.4764	9.97948	0.691866	14.3933	0.750196	15.7711
0.241066	4.97243	0.0837145	1.82383	0.333235	7.21957	0.445236	9.03012	0.611144	12.5309	0.288404	6.52018	0.478471	9.83099	0.693226	14.1474	0.752077	15.5069
0.243392	4.92575	0.0858285	1.83269	0.334367	7.19635	0.448957	8.93672	0.613042	12.3342	0.292687	6.48049	0.480573	9.68872	0.69462	13.9113	0.753987	15.2533
0.245614	4.87872	0.0879419	1.84119	0.335612	7.17179	0.452716	8.84746	0.614969	12.1453	0.296967	6.44237	0.482707	9.55232	0.69605	13.6846	0.755925	15.0096
0.247737	4.83149	0.0900547	1.84935	0.337331	7.13949	0.456512	8.7621	0.616925	11.9638	0.301243	6.40566	0.484874	9.42148	0.697514	13.4667	0.757893	14.7753
0.24977	4.7842	0.0921668	1.85719	0.339547	7.10039	0.460344	8.68043	0.618909	11.7892	0.305513	6.37026	0.487072	9.29591	0.699013	13.2572	0.759889	14.55
0.251718	4.73698	0.0942782	1.86472	0.342287	7.05556	0.464212	8.60223	0.620922	11.6213	0.309776	6.33604	0.489303	9.17534	0.700547	13.0556	0.761915	14.3331
0.253589	4.68995	0.0963889	1.87197	0.345581	7.00621	0.468114	8.52732	0.622963	11.4597	0.314028	6.30291	0.491567	9.05951	0.702116	12.8615	0.763969	14.1242
0.255388	4.64321	0.0984987	1.87895	0.349463	6.95355	0.472051	8.45552	0.625032	11.304	0.318269	6.27077	0.493864	8.9482	0.70372	12.6746	0.766051	13.9228
0.257122	4.59687	0.100608	1.88567	0.353445	6.90478	0.476021	8.38667	0.627129	11.154	0.322497	6.23953	0.496195	8.84118	0.705359	12.4944	0.768162	13.7287
0.258796	4.55101	0.102716	1.89214	0.35752	6.85955	0.480024	8.32062	0.629253	11.0093	0.32671	6.20911	0.498559	8.73824	0.707032	12.3208	0.770301	13.5415
0.260417	4.50568	0.104823	1.89838	0.361682	6.81752	0.48406	8.25722	0.631405	10.8698	0.330906	6.17944	0.500959	8.63922	0.70874	12.1532	0.772469	13.3607
0.261989	4.46097	0.10693	1.9044	0.365922	6.7784	0.488127	8.19633	0.633585	10.7351	0.335083	6.15044	0.503393	8.54391	0.710483	11.9915	0.774665	13.1862
0.263517	4.41692	0.109036	1.91021	0.370233	6.74192	0.492225	8.13783	0.635792	10.6051	0.33924	6.12204	0.505862	8.45217	0.71226	11.8354	0.776889	13.0176
0.265005	4.37356	0.111141	1.91581	0.37461	6.7078	0.496354	8.08161	0.638026	10.4795	0.343375	6.09419	0.508368	8.36384	0.714071	11.6846	0.779142	12.8547
0.266458	4.33094	0.113245	1.92123	0.379044	6.67583	0.500513	8.02755	0.640288	10.3582	0.347485	6.06682	0.51091	8.27877	0.715917	11.5389	0.781423	12.6972
0.267879	4.28908	0.115348	1.92646	0.38353	6.64579	0.504702	7.97555	0.642577	10.2408	0.35157	6.03988	0.51349	8.19682	0.717796	11.398	0.783732	12.5448
0.269271	4.24801	0.117451	1.93152	0.388062	6.61749	0.50892	7.92552	0.644893	10.1274	0.355627	6.01333	0.516108	8.11788	0.719709	11.2618	0.786069	12.3973
0.270638	4.20772	0.119552	1.93641	0.392635	6.59075	0.513166	7.87735	0.647236	10.0176	0.359654	5.98711	0.518764	8.04181	0.721655	11.13	0.788434	12.2545
0.271982	4.16824	0.121653	1.94114	0.397242	6.56541	0.517441	7.83097	0.649607	9.91137	0.363651	5.96118	0.52146	7.96851	0.723635	11.0024	0.790827	12.1163
0.273306	4.12957	0.123753	1.94573	0.40188	6.54133	0.521743	7.78629	0.652004	9.80852	0.367614	5.9355	0.524195	7.89786	0.725647	10.8789	0.793249	11.9823
0.274613	4.09172	0.125852	1.95017	0.406543	6.51838	0.526072	7.74324	0.654429	9.70892	0.371543	5.91003	0.526971	7.82977	0.727692	10.7592	0.795698	11.8525
0.275904	4.05467	0.127951	1.95447	0.411228	6.49645	0.530429	7.70174	0.656882	9.61244	0.375436	5.88474	0.529788	7.76414	0.729769	10.6433	0.798176	11.7267
0.277182	4.01842	0.130049	1.95864	0.41593	6.47542	0.534247	7.66679	0.659362	9.51895	0.37929	5.85959	0.532276	7.70888	0.731878	10.531	0.800682	11.6046
0.278448	3.98298	0.132146	1.96268	0.420645	6.4552	0.537517	7.63786	0.661869	9.42833	0.383106	5.83455	0.534422	7.66315	0.734018	10.4221	0.803216	11.4863
0.279704	3.94832	0.134243	1.96661	0.425371	6.43571	0.540231	7.61451	0.664405	9.34048	0.38688	5.80959	0.536215	7.62627	0.73619	10.3164	0.805778	11.3714
0.280951	3.91444	0.136338	1.97041	0.430104	6.41685	0.542385	7.59641	0.666968	9.25529	0.390611	5.7847	0.537643	7.59768	0.738392	10.2139	0.808368	11.2599
0.28219	3.88133	0.138433	1.97411	0.43484	6.39858	0.543972	7.5833	0.66956	9.17266	0.394299	5.75984	0.5387	7.57699	0.740625	10.1145	0.810987	11.1517
0.283424	3.84898	0.140528	1.9777	0.439577	6.3808	0.544989	7.57499	0.672179	9.0925	0.397942	5.73499	0.539379	7.56389	0.742888	10.0179	0.813634	11.0465
0.284653	3.81736	0.142622	1.98119	0.444313	6.36348	0.546454	7.56317	0.674828	9.01472	0.401538	5.71014	0.540359	7.54524	0.74518	9.92413	0.816309	10.9444
0.285878	3.78648	0.144715	1.98459	0.449043	6.34655	0.54805	7.55048	0.677506	8.93923	0.405086	5.68528	0.54143	7.52523	0.747501	9.83304	0.819012	10.8452
0.286942	3.76014	0.146808	1.98789	0.453767	6.32996	0.550224	7.53347	0.680213	8.86595	0.408585	5.66037	0.542895	7.49843	0.749851	9.74452	0.821744	10.7487
0.287848	3.73811	0.1489	1.99109	0.458482	6.31367	0.552983	7.51237	0.682949	8.79482	0.412035	5.63543	0.544762	7.4652	0.752229	9.65848	0.824504	10.655
0.288597	3.72019	0.150991	1.99422	0.463185	6.29764	0.556331	7.48745	0.685716	8.72575	0.415434	5.61043	0.547042	7.42601	0.754635	9.57483	0.827293	10.5638
0.289189	3.70619	0.153082	1.99726	0.467875	6.28183	0.560275	7.45903	0.688512	8.65868	0.418782	5.58536	0.549747	7.38137	0.757068	9.49348	0.83011	10.4752
0.289623	3.696	0.155173	2.00022	0.472549	6.2662	0.564823	7.42745	0.69134	8.59355	0.422078	5.56023	0.552891	7.33187	0.759528	9.41434	0.832955	10.389
0.289902	3.68953	0.157263	2.0031	0.477207	6.25073	0.569393	7.39692	0.694199	8.5303	0.425322	5.53503	0.556078	7.28413	0.762015	9.33732	0.835829	10.305
0.290302	3.68028	0.159352	2.00591	0.481845	6.23538	0.573986	7.36742	0.69709	8.46886	0.428513	5.50975	0.559307	7.2381	0.764527	9.26236	0.838731	10.2234
0.290736	3.67031	0.161441	2.00864	0.486462	6.22014	0.5786	7.33888	0.700012	8.40919	0.431651	5.4844	0.562579	7.19371	0.767064	9.18938	0.841662	10.1439
0.291327	3.65688	0.163529	2.01131	0.491056	6.20497	0.583236	7.31128	0.702968	8.35122	0.434737	5.45898	0.565893	7.15089	0.769626	9.1183	0.844622	10.0666
0.292075	3.64011	0.165617	2.01392	0.495627	6.18985	0.587892	7.28457	0.705957	8.29492	0.437769	5.43349	0.569249	7.10959	0.772213	9.04906	0.84761	9.99123
0.292979	3.62016	0.167705	2.01646	0.500173	6.17477	0.592569	7.25871	0.70898	8.24023	0.440748	5.40793	0.572645	7.06974	0.774824	8.98159	0.850627	9.91787
0.294041	3.59719	0.169792	2.01893	0.504691	6.1597	0.597264	7.23367	0.712037	8.18711	0.443675	5.38232	0.576082	7.03129	0.777458	8.91583	0.853673	9.84641
0.295261	3.5714	0.171879	2.02135	0.509181	6.14463	0.601978	7.20941	0.71513	8.13552	0.446551	5.35665	0.579558	6.99418	0.780115	8.85172	0.856747	9.77681
0.296482	3.5462	0.173965	2.02371	0.513642	6.12955	0.60671	7.1859	0.718259	8.08541	0.449374	5.33094	0.583072	6.95835	0.782794	8.78921	0.85985	9.70899
0.297705	3.52159	0.176051	2.02602	0.518072	6.11443	0.611458	7.1631	0.721424	8.03675	0.452147	5.3052	0.586623	6.92375	0.785496	8.72824	0.862981	9.6429
0.298931	3.49755	0.178136	2.02827	0.52247	6.09927	0.616223	7.14098	0.724212	7.99549	0.454869	5.27943	0.59021	6.89032	0.788219	8.66875	0.866141	9.57849
0.30016	3.47406	0.180221	2.03047	0.526836	6.08406	0.621004	7.11951	0.726612	7.96116	0.457542	5.25364	0.593832	6.85801	0.790964	8.61071	0.86933	9.51571
0.301392	3.4511	0.182306	2.03262	0.531167	6.06878	0.625799	7.09866	0.728612	7.93333	0.460167	5.22785	0.597488	6.82677	0.793729	8.55405	0.872547	9.45451
0.302628	3.42867	0.18439	2.03473	0.535464	6.05343	0.630607	7.07839	0.730205	7.91168	0.462744	5.20207	0.601176	6.79656	0.796515	8.49874	0.875793	9.39483
0.303867	3.40675	0.186475	2.03678	0.539724	6.03801	0.635428	7.05868	0.731381	7.89596	0.465275	5.1763	0.604895	6.76732	0.799321	8.44473	0.879067	9.33664
0.30511	3.38533	0.188558	2.0388	0.543949	6.02249	0.64026	7.03951	0.732137	7.88599	0.46776	5.15056	0.608643	6.73901	0.802147	8.39197	0.88237	9.27989
0.306358	3.36439	0.190642	2.04076	0.548135	6.00688	0.645103	7.02083	0.733227	7.87177	0.470201	5.12487	0.612419	6.71158	0.804992	8.34044	0.885701	9.22454
0.30761	3.34392	0.192725	2.04269	0.552284	5.99117	0.649955	7.00263	0.734417	7.85648	0.472599	5.09922	0.616221	6.68499	0.807855	8.29009	0.889061	9.17054
0.308866	3.32392	0.194807	2.04457	0.556394	5.97536	0.654815	6.98487	0.736043	7.83594	0.474955	5.07364	0.620048	6.6592	0.810738	8.24088	0.892448	9.11785
0.310127	3.30436	0.19689	2.04642	0.560464	5.95944	0.659681	6.96754	0.738114	7.8104	0.477271	5.04813	0.623898	6.63416	0.813639	8.19277	0.895864	9.06645
0.311393	3.28523	0.198972	2.04823	0.564494	5.94342	0.664554	6.9506	0.740638	7.78013	0.479546	5.0227	0.627769	6.60985	0.816181	8.15173	0.899308	9.01629
0.312664	3.26653	0.201054	2.05	0.568484	5.92728	0.66943	6.93404	0.743629	7.7455	0.481784	4.99737	0.631661	6.58621	0.81836	8.11738	0.902779	8.96733
0.31394	3.24825	0.203135	2.05173	0.572433	5.91103	0.67431	6.91782	0.747102	7.70687	0.483984	4.97214	0.63557	6.56322	0.820168	8.08939	0.906279	8.91954
0.315222	3.23036	0.205217	2.05343	0.57634	5.89467	0.67919	6.90192	0.750618	7.66943	0.486149	4.94703	0.639497	6.54083	0.821603	8.06754	0.909806	8.87289
0.316508	3.21287	0.207298	2.05509	0.580206	5.8782	0.684071	6.88632	0.754178	7.63315	0.488279	4.92204	0.643438	6.51902	0.822661	8.05161	0.91336	8.82735
0.3178	3.19576	0.209379	2.05672	0.58403	5.86161	0.688951	6.87099	0.757784	7.59799	0.490375	4.89718	0.647393	6.49776	0.823339	8.04149	0.916942	8.78288
0.319097	3.17902	0.211459	2.05832	0.587812	5.84491	0.693827	6.85592	0.761435	7.56394	0.492439	4.87246	0.65136	6.477	0.824315	8.02702	0.920551	8.73946
0.3204	3.16265	0.213539	2.05989	0.591551	5.8281	0.698699	6.84108	0.765134	7.53098	0.494473	4.84788	0.655337	6.45673	0.825378	8.01142	0.924187	8.69705
0.321708	3.14662	0.215619	2.06143	0.595248	5.81118	0.703565	6.82646	0.76888	7.49909	0.496476	4.82346	0.659323	6.43692	0.826828	7.99039	0.92785	8.65563
0.323022	3.13094	0.217699	2.06294	0.598902	5.79415	0.708424	6.81202	0.772675	7.46824	0.49845	4.7992	0.663316	6.41753	0.828666	7.96411	0.931539	8.61517
0.324342	3.11559	0.219779	2.06442	0.602514	5.77702	0.713273	6.79775	0.776519	7.43841	0.500397	4.77511	0.667315	6.39854	0.830899	7.9328	0.935255	8.57564
0.325667	3.10057	0.221858	2.06587	0.606083	5.75978	0.718113	6.78363	0.780414	7.40958	0.502317	4.75119	0.671318	6.37993	0.833529	7.8967	0.938997	8.53701
0.326998	3.08587	0.223938	2.0673	0.60961	5.74245	0.72294	6.76965	0.784358	7.38174	0.504212	4.72745	0.675324	6.36167	0.836564	7.85611	0.942764	8.49927
0.328334	3.07148	0.226016	2.06869	0.613094	5.72503	0.727754	6.75579	0.788355	7.35485	0.506082	4.70389	0.679332	6.34374	0.839615	7.81637	0.946557	8.46239
0.329676	3.05739	0.228095	2.07007	0.616536	5.70751	0.732553	6.74203	0.792403	7.32892	0.507928	4.68052	0.683339	6.32613	0.842682	7.77746	0.950376	8.42634
0.331024	3.04359	0.230174	2.07142	0.619935	5.68991	0.737336	6.72836	0.796503	7.3039	0.509752	4.65734	0.687345	6.3088	0.845765	7.73937	0.954219	8.3911
0.332378	3.03008	0.232252	2.07274	0.623293	5.67222	0.742102	6.71476	0.800656	7.27979	0.511554	4.63436	0.691348	6.29174	0.848865	7.70207	0.957589	8.36103
0.333737	3.01685	0.23433	2.07404	0.62661	5.65446	0.74685	6.70122	0.804862	7.25656	0.513335	4.61157	0.695348	6.27493	0.851981	7.66554	0.960476	8.33587
0.335102	3.00389	0.236408	2.07532	0.629885	5.63663	0.751578	6.68774	0.809121	7.23419	0.515096	4.58898	0.699342	6.25835	0.855113	7.62976	0.962873	8.31537
0.336473	2.99119	0.238486	2.07658	0.633119	5.61872	0.756285	6.67429	0.813433	7.21266	0.516838	4.5666	0.703329	6.24199	0.858261	7.59472	0.964775	8.29936
0.33785	2.97876	0.240564	2.07781	0.636313	5.60076	0.760971	6.66088	0.817798	7.19195	0.518562	4.54442	0.707309	6.22583	0.861425	7.56038	0.966178	8.2877
0.339232	2.96658	0.242641	2.07902	0.639467	5.58274	0.765635	6.64749	0.822215	7.17203	0.520268	4.52244	0.71128	6.20985	0.864605	7.52675	0.967077	8.28029
0.34062	2.95464	0.244718	2.08022	0.642581	5.56466	0.770276	6.63412	0.826686	7.15289	0.521958	4.50068	0.71524	6.19405	0.867802	7.49379	0.968371	8.2697
0.342013	2.94294	0.246796	2.08139	0.645656	5.54654	0.774894	6.62077	0.831207	7.1345	0.523631	4.47912	0.71919	6.1784	0.871014	7.4615	0.969781	8.25827
0.343412	2.93148	0.248873	2.08254	0.648692	5.52837	0.779488	6.60742	0.835781	7.11684	0.525289	4.45778	0.723127	6.1629	0.874242	7.42985	0.971703	8.24288
0.344817	2.92025	0.250949	2.08368	0.65169	5.51017	0.784059	6.59409	0.840404	7.09989	0.526932	4.43664	0.727051	6.14752	0.877486	7.39883	0.974143	8.22364
0.346227	2.90923	0.253026	2.08479	0.654651	5.49194	0.788605	6.58076	0.845077	7.08361	0.528561	4.41572	0.73096	6.13227	0.880746	7.36843	0.977104	8.20073
0.347643	2.89844	0.255103	2.08589	0.657574	5.47368	0.793127	6.56743	0.849799	7.06799	0.530177	4.39501	0.734854	6.11713	0.884022	7.33864	0.980594	8.17431
0.349065	2.88786	0.257179	2.08697	0.660461	5.4554	0.797625	6.55411	0.854567	7.05299	0.53178	4.37451	0.738732	6.10208	0.887313	7.30943	0.98462	8.14462
0.350491	2.87748	0.259255	2.08803	0.663312	5.43711	0.802099	6.5408	0.859382	7.03861	0.53337	4.35422	0.742593	6.08713	0.890621	7.2808	0.988668	8.11556
0.351924	2.86731	0.261331	2.08907	0.666127	5.4188	0.806549	6.5275	0.864242	7.0248	0.534949	4.33415	0.746435	6.07225	0.893945	7.25274	0.992738	8.08712
0.353361	2.85733	0.263407	2.0901	0.668908	5.40049	0.810975	6.5142	0.869144	7.01156	0.536517	4.31428	0.750259	6.05744	0.897285	7.22522	0.996829	8.05928
0.354805	2.84755	0.265483	2.09111	0.671655	5.38219	0.815379	6.50092	0.874089	6.99884	0.538074	4.29463	0.754063	6.0427	0.900641	7.19824	1.00094	8.03202
0.356253	2.83795	0.267558	2.09211	0.674369	5.36388	0.819759	6.48765	0.879074	6.98663	0.539621	4.27518	0.757846	6.02801	0.904013	7.17178		
0.357707	2.82854	0.269634	2.09309	0.67705	5.34559	0.824117	6.4744	0.884098	6.97491	0.541158	4.25594	0.761608	6.01337	0.907401	7.14584		
0.359166	2.81931	0.271709	2.09405	0.679698	5.32731	0.828453	6.46117	0.889158	6.96365	0.542686	4.23691	0.765348	5.99877	0.910805	7.12041		
0.36063	2.81025	0.273784	2.095	0.682315	5.30906	0.832767	6.44796	0.894255	6.95283	0.544205	4.21809	0.769065	5.9842	0.914225	7.09546		
0.3621	2.80136	0.27586	2.09594	0.684901	5.29082	0.837059	6.43478	0.899385	6.94243	0.545715	4.19947	0.772759	5.96967	0.91766	7.07099		
0.363575	2.79264	0.277935	2.09686	0.687457	5.27262	0.841331	6.42162	0.904547	6.93242	0.547218	4.18106	0.776429	5.95516	0.921112	7.04699		
0.365055	2.78409	0.280009	2.09777	0.689983	5.25445	0.845582	6.4085	0.90974	6.92279	0.548713	4.16285	0.780075	5.94067	0.924579	7.02346		
0.36654	2.77569	0.282084	2.09866	0.69248	5.23631	0.849813	6.3954	0.914962	6.91351	0.550201	4.14484	0.783696	5.92619	0.928061	7.00036		
0.36803	2.76745	0.284159	2.09955	0.694949	5.21822	0.854024	6.38234	0.920212	6.90457	0.551682	4.12703	0.787291	5.91173	0.931559	6.97771		
0.369525	2.75936	0.286233	2.10041	0.69739	5.20016	0.858216	6.36932	0.925487	6.89594	0.553156	4.10942	0.79086	5.89727	0.935072	6.95548		
0.371025	2.75142	0.288308	2.10127	0.699804	5.18216	0.862388	6.35633	0.930787	6.88762	0.554625	4.092	0.794403	5.88282	0.9386	6.93367		
0.37253	2.74362	0.290382	2.10211	0.702191	5.16421	0.86654	6.34338	0.93611	6.87958	0.556087	4.07478	0.797919	5.86837	0.942143	6.91227		
0.374039	2.73597	0.292456	2.10295	0.704553	5.14632	0.870674	6.33046	0.941455	6.8718	0.557544	4.05776	0.801409	5.85392	0.9457	6.89126		
0.375554	2.72845	0.29453	2.10377	0.706889	5.12848	0.87479	6.31759	0.946819	6.86428	0.558996	4.04092	0.804871	5.83947	0.949272	6.87065		
0.377073	2.72107	0.296604	2.10457	0.709201	5.1107	0.878886	6.30475	0.952203	6.85699	0.560443	4.02427	0.808306	5.82502	0.952858	6.8504		
0.378598	2.71382	0.298678	2.10537	0.711488	5.09299	0.882964	6.29195	0.957603	6.84992	0.561885	4.00782	0.811713	5.81055	0.956457	6.83053		
0.380127	2.70671	0.300752	2.10616	0.713752	5.07535	0.887024	6.27919	0.96302	6.84306	0.563322	3.99154	0.815091	5.79609	0.960071	6.81102		
0.38166	2.69972	0.302826	2.10693	0.715993	5.05777	0.891065	6.26647	0.968451	6.8364	0.564756	3.97546	0.818442	5.78161	0.963697	6.79185		
0.383198	2.69285	0.304899	2.1077	0.718211	5.04027	0.895087	6.25378	0.973896	6.82992	0.566185	3.95955	0.821765	5.76713	0.967336	6.77302		
0.384741	2.68611	0.306973	2.10845	0.720407	5.02284	0.899091	6.24113	0.979353	6.8236	0.567611	3.94383	0.82506	5.75263	0.970987	6.75453		
0.386289	2.67948	0.309046	2.10919	0.722582	5.00549	0.903077	6.22851	0.984821	6.81744	0.569033	3.92828	0.828326	5.73813	0.974651	6.73635		
0.38784	2.67297	0.31112	2.10993	0.724736	4.98822	0.907044	6.21593	0.990299	6.81143	0.570452	3.91291	0.831564	5.72362	0.978326	6.71849		
0.389397	2.66657	0.313193	2.11065	0.72687	4.97103	0.910992	6.20338	0.995785	6.80555	0.571869	3.89771	0.834774	5.7091	0.982012	6.70093		
0.390957	2.66029	0.315266	2.11137	0.728984	4.95392	0.914921	6.19086	1.00128	6.79979	0.573282	3.88269	0.837956	5.69458	0.985709	6.68366		
0.392522	2.65411	0.317339	2.11207	0.731078	4.93689	0.918832	6.17837			0.574693	3.86784	0.841109	5.68004	0.989416	6.66668		
0.394092	2.64804	0.319412	2.11277	0.733154	4.91996	0.922723	6.1659			0.576101	3.85315	0.844234	5.6655	0.993132	6.64997		
0.395665	2.64207	0.321485	2.11345	0.735211	4.9031	0.926595	6.15347			0.577507	3.83864	0.847332	5.65096	0.996858	6.63354		
0.397243	2.63621	0.323557	2.11413	0.73725	4.88634	0.930447	6.14105			0.578911	3.82428	0.850402	5.63641	1.00059	6.61736		
0.398826	2.63044	0.32563	2.1148	0.739272	4.86967	0.93428	6.12866			0.580313	3.8101	0.853444	5.62186				
0.400412	2.62478	0.327703	2.11546	0.741276	4.85309	0.938093	6.1163			0.581713	3.79607	0.856459	5.6073				
0.402002	2.61921	0.329775	2.11611	0.743264	4.8366	0.941886	6.10395			0.583111	3.7822	0.859447	5.59275				
0.403597	2.61373	0.331848	2.11675	0.745236	4.82021	0.945659	6.09161			0.584509	3.76849	0.862408	5.5782				
0.405195	2.60834	0.33392	2.11739	0.747192	4.80391	0.949411	6.0793			0.585905	3.75493	0.865342	5.56365				
0.406798	2.60305	0.335992	2.11802	0.749132	4.78771	0.953143	6.067			0.587299	3.74153	0.86825	5.5491				
0.408404	2.59784	0.338065	2.11864	0.751058	4.7716	0.956853	6.05471			0.588693	3.72828	0.871132	5.53456				
0.410015	2.59272	0.340137	2.11925	0.752969	4.75559	0.960543	6.04244			0.590086	3.71518	0.873987	5.52003				
0.411629	2.58768	0.342209	2.11985	0.754865	4.73968	0.964212	6.03017			0.591478	3.70223	0.876818	5.50551				
0.413247	2.58272	0.344281	2.12045	0.756748	4.72387	0.967859	6.01792			0.592869	3.68942	0.879623	5.491				
0.414869	2.57785	0.346353	2.12104	0.758617	4.70815	0.971485	6.00567			0.59426	3.67676	0.882403	5.47651				
0.416494	2.57305	0.348425	2.12162	0.760473	4.69254	0.975088	5.99343			0.595651	3.66424	0.885159	5.46203				
0.418124	2.56834	0.350496	2.1222	0.762316	4.67702	0.97867	5.98119			0.597041	3.65186	0.88789	5.44756				
0.419757	2.5637	0.352568	2.12277	0.764146	4.6616	0.98223	5.96896			0.598431	3.63962	0.890598	5.43312				
0.421394	2.55913	0.35464	2.12333	0.765964	4.64629	0.985768	5.95673			0.59982	3.62752	0.893282	5.41869				
0.423034	2.55464	0.356711	2.12388	0.767771	4.63107	0.989284	5.94451			0.60121	3.61555	0.895943	5.40429				
0.424678	2.55022	0.358783	2.12443	0.769566	4.61596	0.992777	5.93229			0.6026	3.60371	0.898581	5.38991				
0.426325	2.54586	0.360854	2.12497	0.771349	4.60094	0.996247	5.92007			0.60399	3.59201	0.901196	5.37556				
0.427976	2.54158	0.362925	2.12551	0.773122	4.58603	0.999695	5.90784			0.60538	3.58044	0.90379	5.36123				
0.42963	2.53737	0.364997	2.12604	0.774884	4.57122	1.00312	5.89563			0.606771	3.569	0.906361	5.34693				
0.431288	2.53322	0.367068	2.12656	0.776635	4.5565					0.608162	3.55769	0.908911	5.33267				
0.432949	2.52914	0.369139	2.12708	0.778376	4.54189					0.609553	3.5465	0.91144	5.31843				
0.434614	2.52512	0.37121	2.12759	0.780108	4.52738					0.610945	3.53543	0.913949	5.30423				
0.436282	2.52116	0.373281	2.1281	0.781829	4.51297					0.612338	3.52449	0.916437	5.29007				
0.437953	2.51726	0.375352	2.1286	0.783542	4.49866					0.613731	3.51367	0.918904	5.27594				
0.439627	2.51343	0.377423	2.12909	0.785245	4.48445					0.615126	3.50296	0.921352	5.26185				
0.441305	2.50965	0.379494	2.12958	0.786939	4.47035					0.616521	3.49238	0.923781	5.24779				
0.442986	2.50593	0.381565	2.13007	0.788625	4.45634					0.617917	3.48191	0.926191	5.23378				
0.44467	2.50227	0.383635	2.13055	0.790303	4.44243					0.619313	3.47155	0.928582	5.21981				
0.446357	2.49866	0.385706	2.13102	0.791972	4.42861					0.620711	3.46131	0.930954	5.20588				
0.448047	2.49511	0.387777	2.13149	0.793633	4.4149					0.62211	3.45118	0.933309	5.192				
0.44974	2.49161	0.389847	2.13195	0.795287	4.40129					0.62351	3.44116	0.935645	5.17816				
0.451436	2.48816	0.391918	2.13241	0.796933	4.38777					0.624911	3.43125	0.937965	5.16436				
0.453135	2.48477	0.393988	2.13286	0.798571	4.37436					0.626314	3.42145	0.940267	5.15062				
0.454837	2.48143	0.396059	2.13331	0.800203	4.36104					0.627718	3.41175	0.942552	5.13692				
0.456542	2.47813	0.398129	2.13375	0.801827	4.34781					0.629123	3.40216	0.944821	5.12327				
0.45825	2.47489	0.400199	2.13419	0.803445	4.33469					0.630529	3.39267	0.947074	5.10967				
0.459961	2.47169	0.402269	2.13463	0.805056	4.32166					0.631937	3.38329	0.949311	5.09612				
0.461675	2.46854	0.40434	2.13506	0.806661	4.30872					0.633346	3.374	0.951532	5.08263				
0.463391	2.46543	0.40641	2.13548	0.80826	4.29588					0.634756	3.36481	0.953738	5.06918				
0.465111	2.46238	0.40848	2.1359	0.809853	4.28314					0.636169	3.35573	0.955929	5.05579				
0.466832	2.45936	0.41055	2.13632	0.81144	4.27049					0.637582	3.34674	0.958104	5.04245				
0.468557	2.45639	0.41262	2.13673	0.813021	4.25793					0.638998	3.33784	0.960266	5.02916				
0.470285	2.45346	0.41469	2.13714	0.814597	4.24547					0.640414	3.32904	0.962413	5.01593				
0.472015	2.45058	0.416759	2.13754	0.816167	4.2331					0.641833	3.32033	0.964546	5.00276				
0.473747	2.44773	0.418829	2.13794	0.817732	4.22082					0.643253	3.31172	0.966666	4.98964				
0.475483	2.44493	0.420899	2.13834	0.819292	4.20863					0.644675	3.30319	0.968772	4.97658				
0.47722	2.44216	0.422969	2.13873	0.820848	4.19654					0.646098	3.29476	0.970864	4.96357				
0.478961	2.43944	0.425038	2.13911	0.822398	4.18453					0.647524	3.28641	0.972944	4.95062				
0.480704	2.43675	0.427108	2.1395	0.823944	4.17262					0.648951	3.27815	0.975011	4.93773				
0.482449	2.43411	0.429178	2.13988	0.825485	4.16079					0.65038	3.26998	0.977065	4.9249				
0.484197	2.43149	0.431247	2.14025	0.827022	4.14906					0.65181	3.2619	0.979107	4.91212				
0.485947	2.42892	0.433316	2.14063	0.828555	4.13741					0.653243	3.25389	0.981137	4.89941				
0.4877	2.42638	0.435386	2.141	0.830084	4.12585					0.654677	3.24597	0.983155	4.88675				
0.489455	2.42388	0.437455	2.14136	0.831609	4.11437					0.656114	3.23814	0.985162	4.87415				
0.491213	2.42141	0.439525	2.14172	0.83313	4.10298					0.657552	3.23038	0.987157	4.86161				
0.492973	2.41898	0.441594	2.14208	0.834647	4.09168					0.658992	3.2227	0.98914	4.84913				
0.494735	2.41657	0.443663	2.14243	0.836161	4.08047					0.660434	3.21511	0.991113	4.83671				
0.4965	2.41421	0.445732	2.14279	0.837671	4.06933					0.661878	3.20759	0.993075	4.82435				
0.498266	2.41187	0.447801	2.14313	0.839178	4.05829					0.663324	3.20015	0.995026	4.81204				
0.500035	2.40957	0.44987	2.14348	0.840682	4.04732					0.664772	3.19278	0.996967	4.7998				
0.501807	2.40729	0.451939	2.14382	0.842182	4.03644					0.666222	3.18549	0.998898	4.78762				
0.50358	2.40505	0.454008	2.14416	0.84368	4.02564					0.667673	3.17827	1.00082	4.7755				
0.505356	2.40284	0.456077	2.14449	0.845175	4.01492					0.669127	3.17113						
0.507134	2.40066	0.458146	2.14483	0.846666	4.00429					0.670583	3.16406						
0.508914	2.39851	0.460215	2.14515	0.848155	3.99373					0.672041	3.15706						
0.510696	2.39638	0.462284	2.14548	0.849642	3.98326					0.673501	3.15013						
0.51248	2.39429	0.464353	2.1458	0.851126	3.97286					0.674963	3.14327						
0.514266	2.39222	0.466421	2.14612	0.852607	3.96254					0.676428	3.13648						
0.516055	2.39018	0.46849	2.14644	0.854086	3.9523					0.677894	3.12976						
0.517845	2.38817	0.470559	2.14675	0.855563	3.94214					0.679362	3.1231						
0.519637	2.38618	0.472627	2.14706	0.857037	3.93205					0.680833	3.11652						
0.521432	2.38422	0.474696	2.14737	0.85851	3.92204					0.682305	3.10999						
0.523228	2.38229	0.476764	2.14768	0.85998	3.91211					0.68378	3.10353						
0.525026	2.38038	0.478833	2.14798	0.861449	3.90225					0.685256	3.09714						
0.526827	2.37849	0.480901	2.14828	0.862916	3.89247					0.686735	3.09081						
0.528629	2.37663	0.48297	2.14858	0.86438	3.88276					0.688216	3.08454						
0.530433	2.37479	0.485038	2.14887	0.865844	3.87312					0.689699	3.07833						
0.532239	2.37298	0.487106	2.14917	0.867305	3.86356					0.691185	3.07219						
0.534047	2.37119	0.489175	2.14945	0.868765	3.85406					0.692672	3.0661						
0.535856	2.36942	0.491243	2.14974	0.870224	3.84464					0.694162	3.06007						
0.537668	2.36768	0.493311	2.15003	0.871681	3.83529					0.695653	3.0541						
0.539481	2.36596	0.495379	2.15031	0.873136	3.82601					0.697147	3.04819						
0.541296	2.36426	0.497447	2.15059	0.874591	3.81681					0.698643	3.04234						
0.543113	2.36258	0.499515	2.15087	0.876044	3.80767					0.700141	3.03654						
0.544931	2.36092	0.501583	2.15114	0.877496	3.79859					0.701641	3.0308						
0.546752	2.35928	0.503652	2.15141	0.878947	3.78959					0.703143	3.02512						
0.548574	2.35767	0.505719	2.15168	0.880397	3.78066					0.704648	3.01949						
0.550397	2.35607	0.507787	2.15195	0.881846	3.77179					0.706155	3.01391						
0.552223	2.35449	0.509855	2.15222	0.883294	3.76298					0.707663	3.00839						
0.55405	2.35294	0.511923	2.15248	0.884741	3.75425					0.709174	3.00292						
0.555879	2.3514	0.513991	2.15274	0.886187	3.74558					0.710688	2.9975						
0.557709	2.34988	0.516059	2.153	0.887633	3.73697					0.712203	2.99213						
0.559541	2.34838	0.518126	2.15326	0.889078	3.72843					0.71372	2.98682						
0.561375	2.3469	0.520194	2.15351	0.890522	3.71995					0.71524	2.98155						
0.56321	2.34544	0.522262	2.15376	0.891966	3.71154					0.716761	2.97633						
0.565046	2.34399	0.524329	2.15401	0.893409	3.70318					0.718285	2.97117						
0.566885	2.34256	0.526397	2.15426	0.894851	3.69489					0.719811	2.96605						
0.568725	2.34115	0.528464	2.15451	0.896293	3.68667					0.721339	2.96098						
0.570566	2.33976	0.530532	2.15475	0.897735	3.6785					0.722869	2.95595						
0.572409	2.33838	0.532599	2.155	0.899176	3.67039					0.724402	2.95098						
0.574253	2.33702	0.534667	2.15524	0.900617	3.66234					0.725936	2.94605						
0.576099	2.33568	0.536734	2.15547	0.902057	3.65436					0.727473	2.94116						
0.577946	2.33435	0.538802	2.15571	0.903498	3.64643					0.729012	2.93632						
0.579795	2.33304	0.540869	2.15595	0.904938	3.63856					0.730552	2.93153						
0.581645	2.33174	0.542936	2.15618	0.906378	3.63075					0.732095	2.92678						
0.583497	2.33046	0.545003	2.15641	0.907818	3.62299					0.73364	2.92207						
0.58535	2.32919	0.547071	2.15664	0.909258	3.6153					0.735187	2.9174						
0.587205	2.32794	0.549138	2.15686	0.910697	3.60766					0.736737	2.91278						
0.589061	2.3267	0.551205	2.15709	0.912137	3.60007					0.738288	2.9082						
0.590918	2.32548	0.553272	2.15731	0.913577	3.59255					0.739841	2.90367						
0.592776	2.32427	0.555339	2.15754	0.915017	3.58507					0.741397	2.89917						
0.594636	2.32308	0.557406	2.15776	0.916457	3.57765					0.742955	2.89471						
0.596498	2.3219	0.559473	2.15797	0.917897	3.57029					0.744514	2.8903						
0.59836	2.32073	0.56154	2.15819	0.919337	3.56298					0.746076	2.88592						
0.600224	2.31958	0.563607	2.15841	0.920777	3.55572					0.74764	2.88159						
0.60209	2.31844	0.565674	2.15862	0.922218	3.54852					0.749206	2.87729						
0.603956	2.31732	0.567741	2.15883	0.923658	3.54137					0.750774	2.87303						
0.605824	2.3162	0.569808	2.15904	0.925099	3.53427					0.752344	2.86881						
0.607693	2.3151	0.571874	2.15925	0.926541	3.52722					0.753916	2.86463						
0.609563	2.31401	0.573941	2.15946	0.927983	3.52022					0.75549	2.86048						
0.611435	2.31294	0.576008	2.15966	0.929425	3.51327					0.757066	2.85637						
0.613308	2.31187	0.578075	2.15987	0.930867	3.50638					0.758644	2.8523						
0.615182	2.31082	0.580141	2.16007	0.93231	3.49953					0.760224	2.84827						
0.617057	2.30978	0.582208	2.16027	0.933753	3.49273					0.761806	2.84427						
0.618933	2.30876	0.584274	2.16047	0.935197	3.48599					0.76339	2.8403						
0.620811	2.30774	0.586341	2.16067	0.936641	3.47929					0.764977	2.83637						
0.62269	2.30673	0.588408	2.16086	0.938086	3.47263					0.766565	2.83247						
0.62457	2.30574	0.590474	2.16106	0.939531	3.46603					0.768155	2.82861						
0.626451	2.30476	0.592541	2.16125	0.940977	3.45947					0.769747	2.82478						
0.628333	2.30379	0.594607	2.16144	0.942424	3.45296					0.771341	2.82099						
0.630217	2.30282	0.596673	2.16163	0.943871	3.4465					0.772937	2.81722						
0.632101	2.30187	0.59874	2.16182	0.945318	3.44008					0.774535	2.8135						
0.633987	2.30093	0.600806	2.16201	0.946767	3.43371					0.776135	2.8098						
0.635873	2.3	0.602872	2.1622	0.948216	3.42739					0.777737	2.80613						
0.637761	2.29908	0.604939	2.16238	0.949665	3.4211					0.779341	2.8025						
0.63965	2.29818	0.607005	2.16256	0.951116	3.41487					0.780947	2.7989						
0.64154	2.29728	0.609071	2.16275	0.952567	3.40868					0.782555	2.79532						
0.643431	2.29639	0.611137	2.16293	0.954019	3.40253					0.784164	2.79178						
0.645323	2.29551	0.613203	2.16311	0.955471	3.39642					0.785776	2.78827						
0.647217	2.29464	0.615269	2.16329	0.956925	3.39036					0.78739	2.78479						
0.649111	2.29377	0.617335	2.16346	0.958379	3.38434					0.789005	2.78134						
0.651006	2.29292	0.619401	2.16364	0.959834	3.37836					0.790622	2.77792						
0.652902	2.29208	0.621467	2.16381	0.961289	3.37243					0.792242	2.77452						
0.654799	2.29125	0.623533	2.16399	0.962746	3.36653					0.793863	2.77116						
0.656698	2.29042	0.625599	2.16416	0.964203	3.36068					0.795486	2.76782						
0.658597	2.2896	0.627665	2.16433	0.965662	3.35487					0.79711	2.76451						
0.660497	2.2888	0.629731	2.1645	0.967121	3.3491					0.798737	2.76123						
0.662398	2.288	0.631797	2.16467	0.968581	3.34337					0.800365	2.75798						
0.664301	2.28721	0.633863	2.16484	0.970042	3.33768					0.801996	2.75475						
0.666204	2.28643	0.635929	2.165	0.971504	3.33202					0.803628	2.75155						
0.668108	2.28565	0.637994	2.16517	0.972967	3.32641					0.805262	2.74838						
0.670013	2.28489	0.64006	2.16533	0.974431	3.32084					0.806898	2.74523						
0.671919	2.28413	0.642126	2.16549	0.975896	3.3153					0.808536	2.74211						
0.673826	2.28338	0.644191	2.16566	0.977361	3.30981					0.810175	2.73902						
0.675733	2.28264	0.646257	2.16582	0.978828	3.30435					0.811816	2.73595						
0.677642	2.2819	0.648323	2.16598	0.980296	3.29893					0.813459	2.73291						
0.679552	2.28118	0.650388	2.16613	0.981765	3.29354					0.815104	2.72989						
0.681462	2.28046	0.652454	2.16629	0.983234	3.2882					0.816751	2.72689						
0.683374	2.27975	0.654519	2.16645	0.984705	3.28289					0.818399	2.72392						
0.685286	2.27904	0.656585	2.1666	0.986177	3.27761					0.820049	2.72098						
0.687199	2.27835	0.65865	2.16676	0.98765	3.27238					0.821701	2.71806						
0.689113	2.27766	0.660715	2.16691	0.989124	3.26717					0.823355	2.71516						
0.691028	2.27697	0.662781	2.16706	0.990599	3.26201					0.82501	2.71228						
0.692944	2.2763	0.664846	2.16721	0.992075	3.25688					0.826668	2.70943						
0.69486	2.27563	0.666912	2.16736	0.993552	3.25178					0.828326	2.70661						
0.696778	2.27497	0.668977	2.16751	0.99503	3.24672					0.829987	2.7038						
0.698696	2.27431	0.671042	2.16766	0.99651	3.24169					0.831649	2.70102						
0.700615	2.27366	0.673107	2.16781	0.99799	3.2367					0.833313	2.69826						
0.702535	2.27302	0.675172	2.16795	0.999472	3.23174					0.834979	2.69552						
0.704456	2.27238	0.677238	2.1681	1.00095	3.22681					0.836646	2.6928						
0.706377	2.27176	0.679303	2.16824							0.838315	2.69011						
0.708299	2.27113	0.681368	2.16838							0.839986	2.68743						
0.710223	2.27052	0.683433	2.16853							0.841659	2.68478						
0.712146	2.2699	0.685498	2.16867							0.843333	2.68215						
0.714071	2.2693	0.687563	2.16881							0.845008	2.67954						
0.715996	2.2687	0.689628	2.16895							0.846686	2.67695						
0.717923	2.26811	0.691693	2.16908							0.848365	2.67438						
0.71985	2.26752	0.693758	2.16922							0.850045	2.67183						
0.721777	2.26694	0.695823	2.16936							0.851728	2.6693						
0.723706	2.26637	0.697888	2.16949							0.853411	2.66679						
0.725635	2.2658	0.699952	2.16963							0.855097	2.6643						
0.727565	2.26523	0.702017	2.16976							0.856784	2.66183						
0.729495	2.26467	0.704082	2.1699							0.858473	2.65938						
0.731427	2.26412	0.706147	2.17003							0.860163	2.65695						
0.733359	2.26357	0.708211	2.17016							0.861855	2.65453						
0.735291	2.26303	0.710276	2.17029							0.863548	2.65214						
0.737225	2.26249	0.712341	2.17042							0.865243	2.64976						
0.739159	2.26196	0.714405	2.17055							0.86694	2.6474						
0.741094	2.26144	0.71647	2.17068							0.868638	2.64506						
0.74303	2.26091	0.718534	2.17081							0.870337	2.64274						
0.744966	2.2604	0.720599	2.17093							0.872039	2.64044						
0.746903	2.25989	0.722663	2.17106							0.873741	2.63815						
0.74884	2.25938	0.724728	2.17118							0.875445	2.63588						
0.750779	2.25888	0.726792	2.17131							0.877151	2.63363						
0.752717	2.25838	0.728857	2.17143							0.878858	2.63139						
0.754657	2.25789	0.730921	2.17155							0.880567	2.62918						
0.756597	2.2574	0.732985	2.17167							0.882277	2.62697						
0.758538	2.25692	0.73505	2.1718							0.883989	2.62479						
0.76048	2.25644	0.737114	2.17192							0.885702	2.62262						
0.762422	2.25597	0.739178	2.17204							0.887417	2.62047						
0.764364	2.2555	0.741243	2.17215							0.889133	2.61833						
0.766308	2.25503	0.743307	2.17227							0.890851	2.61621						
0.768252	2.25457	0.745371	2.17239							0.89257	2.61411						
0.770197	2.25411	0.747435	2.17251							0.89429	2.61202						
0.772142	2.25366	0.749499	2.17262							0.896012	2.60995						
0.774088	2.25321	0.751563	2.17274							0.897736	2.60789						
0.776034	2.25277	0.753627	2.17285							0.89946	2.60585						
0.777981	2.25233	0.755691	2.17297							0.901187	2.60382						
0.779929	2.25189	0.757755	2.17308							0.902914	2.60181						
0.781877	2.25146	0.759819	2.17319							0.904643	2.59981						
0.783826	2.25104	0.761883	2.1733							0.906374	2.59783						
0.785775	2.25061	0.763947	2.17341							0.908106	2.59586						
0.787725	2.25019	0.766011	2.17353							0.909839	2.59391						
0.789676	2.24978	0.768075	2.17363							0.911573	2.59197						
0.791627	2.24936	0.770139	2.17374							0.913309	2.59004						
0.793578	2.24896	0.772203	2.17385							0.915047	2.58813						
0.795531	2.24855	0.774266	2.17396							0.916785	2.58623						
0.797483	2.24815	0.77633	2.17407							0.918526	2.58435						
0.799437	2.24775	0.778394	2.17417							0.920267	2.58248						
0.801391	2.24736	0.780457	2.17428							0.92201	2.58062						
0.803345	2.24697	0.782521	2.17439							0.923754	2.57878						
0.8053	2.24658	0.784585	2.17449							0.925499	2.57695						
0.807255	2.2462	0.786648	2.17459							0.927246	2.57513						
0.809212	2.24582	0.788712	2.1747							0.928994	2.57333						
0.811168	2.24544	0.790775	2.1748							0.930743	2.57154						
0.813125	2.24507	0.792839	2.1749							0.932494	2.56976						
0.815083	2.2447	0.794902	2.175							0.934246	2.56799						
0.817041	2.24434	0.796966	2.1751							0.935999	2.56624						
0.818999	2.24397	0.799029	2.17521							0.937754	2.5645						
0.820958	2.24361	0.801093	2.17531							0.939509	2.56277						
0.822918	2.24326	0.803156	2.1754							0.941267	2.56106						
0.824878	2.2429	0.805219	2.1755							0.943025	2.55935						
0.826839	2.24255	0.807283	2.1756							0.944785	2.55766						
0.8288	2.24221	0.809346	2.1757							0.946545	2.55598						
0.830761	2.24186	0.811409	2.1758							0.948308	2.55431						
0.832723	2.24152	0.813472	2.17589							0.950071	2.55266						
0.834686	2.24118	0.815536	2.17599							0.951836	2.55101						
0.836649	2.24085	0.817599	2.17608							0.953601	2.54938						
0.838612	2.24052	0.819662	2.17618							0.955368	2.54776						
0.840576	2.24019	0.821725	2.17627							0.957137	2.54615						
0.842541	2.23986	0.823788	2.17637							0.958906	2.54455						
0.844506	2.23954	0.825851	2.17646							0.960677	2.54296						
0.846471	2.23922	0.827914	2.17655							0.962449	2.54138						
0.848437	2.2389	0.829977	2.17664							0.964222	2.53981						
0.850403	2.23858	0.83204	2.17674							0.965996	2.53826						
0.85237	2.23827	0.834103	2.17683							0.967772	2.53671						
0.854337	2.23796	0.836166	2.17692							0.969548	2.53518						
0.856305	2.23765	0.838229	2.17701							0.971326	2.53365						
0.858273	2.23735	0.840292	2.1771							0.973105	2.53214						
0.860241	2.23705	0.842354	2.17719							0.974885	2.53064						
0.86221	2.23675	0.844417	2.17727							0.976667	2.52915						
0.864179	2.23645	0.84648	2.17736							0.978449	2.52766						
0.868119	2.23587	0.848543	2.17745							0.980233	2.52619						
0.87009	2.23558	0.850605	2.17754							0.982017	2.52473						
0.872061	2.23529	0.852668	2.17762							0.983803	2.52327						
0.874032	2.23501	0.854731	2.17771							0.98559	2.52183						
0.876004	2.23473	0.856793	2.17779							0.987378	2.5204						
0.877977	2.23445	0.858856	2.17788							0.989168	2.51898						
0.879949	2.23417	0.860919	2.17796							0.990958	2.51756						
0.881922	2.23389	0.862981	2.17805							0.992749	2.51616						
0.883896	2.23362	0.865044	2.17813							0.994542	2.51476						
0.88587	2.23335	0.867106	2.17822							0.996336	2.51338						
0.887844	2.23308	0.869169	2.1783							0.998131	2.512						
0.889819	2.23282	0.871231	2.17838							0.999926	2.51063						
0.891794	2.23255	0.873293	2.17846							1.00172	2.50927						
0.893769	2.23229	0.875356	2.17854														
0.895745	2.23203	0.877418	2.17862														
0.897721	2.23178	0.87948	2.17871														
0.899698	2.23152	0.881543	2.17879														
0.901675	2.23127	0.883605	2.17886														
0.903652	2.23102	0.885667	2.17894														
0.90563	2.23077	0.887729	2.17902														
0.907608	2.23052	0.889792	2.1791														
0.909587	2.23028	0.891854	2.17918														
0.911566	2.23004	0.893916	2.17926														
0.913545	2.2298	0.895978	2.17933														
0.915524	2.22956	0.89804	2.17941														
0.917504	2.22932	0.900102	2.17949														
0.919485	2.22909	0.902164	2.17956														
0.921465	2.22885	0.904226	2.17964														
0.923446	2.22862	0.906288	2.17971														
0.925428	2.2284	0.90835	2.17979														
0.927409	2.22817	0.910412	2.17986														
0.929391	2.22794	0.912474	2.17994														
0.931374	2.22772	0.914536	2.18001														
0.933356	2.2275	0.916597	2.18008														
0.935339	2.22728	0.918659	2.18015														
0.937323	2.22706	0.920721	2.18023														
0.939306	2.22684	0.922783	2.1803														
0.941291	2.22663	0.924844	2.18037														
0.943275	2.22642	0.926906	2.18044														
0.94526	2.22621	0.928968	2.18051														
0.947245	2.226	0.931029	2.18058														
0.94923	2.22579	0.933091	2.18065														
0.951216	2.22558	0.935153	2.18072														
0.953202	2.22538	0.937214	2.18079														
0.955188	2.22517	0.939276	2.18086														
0.957174	2.22497	0.941337	2.18093														
0.959161	2.22477	0.943398	2.181														
0.961149	2.22458	0.94546	2.18107														
0.963136	2.22438	0.947521	2.18113														
0.965124	2.22418	0.949583	2.1812														
0.967112	2.22399	0.951644	2.18127														
0.969101	2.2238	0.953705	2.18133														
0.971089	2.22361	0.955767	2.1814														
0.973078	2.22342	0.957828	2.18146														
0.975068	2.22323	0.959889	2.18153														
0.977057	2.22305	0.96195	2.1816														
0.979047	2.22286	0.964012	2.18166														
0.981038	2.22268	0.966073	2.18172														
0.983028	2.2225	0.968134	2.18179														
0.985019	2.22232	0.970195	2.18185														
0.98701	2.22214	0.972256	2.18192														
0.989001	2.22196	0.974317	2.18198														
0.990993	2.22178	0.976378	2.18204														
0.992985	2.22161	0.978439	2.1821														
0.994977	2.22144	0.9805	2.18217														
0.996969	2.22126	0.982561	2.18223														
0.998962	2.22109	0.984622	2.18229														
1.00096	2.22092	0.986683	2.18235														
		0.988744	2.18241														
		0.990804	2.18247														
		0.992865	2.18253														
		0.994926	2.18259														
		0.996987	2.18265														
		0.999048	2.18271														
		1.00111	2.18277														
