Sym0		Asym0		Sym1		Sym2		Sym3		Sym4		Asym1		Asym2		Asym3		Asym4	
491  Points		499  Points		355  Points		205  Points		174  Points		142  Points		440  Points		256  Points		182  Points		147  Points	
Freq (MHz)	Vph (m/ms)	Freq (MHz)	Vph (m/ms)	Freq (MHz)	Vph (m/ms)	Freq (MHz)	Vph (m/ms)	Freq (MHz)	Vph (m/ms)	Freq (MHz)	Vph (m/ms)	Freq (MHz)	Vph (m/ms)	Freq (MHz)	Vph (m/ms)	Freq (MHz)	Vph (m/ms)	Freq (MHz)	Vph (m/ms)
0.00446018	5.49208	5.7352e-005	0.0675787	0.279509	352.097	0.330088	470.081	0.559022	1068.75	0.838532	1093.97	0.139799	225.196	0.419263	3624.13	0.66012	1386	0.698774	1967.63
0.0095764	5.49166	0.000251945	0.141513	0.279512	161.986	0.330215	202.104	0.559058	384.296	0.838557	493.792	0.140036	90.2015	0.419287	400.32	0.660137	468.857	0.698808	543.046
0.014691	5.49092	0.000582597	0.214817	0.279517	105.191	0.330443	128.799	0.559127	234.292	0.838602	318.873	0.140475	56.5478	0.419351	211.892	0.660172	282.165	0.69888	315.02
0.019803	5.48987	0.00104643	0.287185	0.279525	77.8855	0.330772	94.5799	0.55923	168.537	0.838666	235.475	0.141112	41.3107	0.419454	144.104	0.660223	201.819	0.69899	221.886
0.0249116	5.48848	0.00163975	0.358379	0.279538	61.8361	0.331201	74.7805	0.559367	131.621	0.838749	186.667	0.141944	32.6491	0.419596	109.2	0.660292	157.098	0.699138	171.277
0.030016	5.48679	0.00235772	0.428121	0.279556	51.2728	0.331727	61.8817	0.559537	107.987	0.838851	154.628	0.142966	27.0807	0.419777	87.9268	0.660378	128.61	0.699325	139.485
0.035115	5.48476	0.00319496	0.496201	0.27958	43.7938	0.332351	52.8181	0.55974	91.5621	0.838972	131.983	0.144172	23.2125	0.419997	73.608	0.660482	108.875	0.699549	117.664
0.0402078	5.4824	0.00414529	0.562414	0.279613	38.221	0.333069	46.1056	0.559977	79.4866	0.839113	115.13	0.145555	20.3782	0.420255	63.3148	0.660603	94.3969	0.699811	101.761
0.0452934	5.4797	0.00520226	0.62661	0.279657	33.9085	0.333881	40.9381	0.560248	70.2362	0.839272	102.1	0.147108	18.2191	0.420553	55.5607	0.660742	83.3235	0.700111	89.6578
0.0503709	5.47666	0.00635923	0.688681	0.279713	30.4728	0.334785	36.8404	0.560551	62.9245	0.839451	91.7257	0.148823	16.5248	0.420889	49.5108	0.660899	74.5807	0.700448	80.1392
0.055439	5.47326	0.00760932	0.748535	0.279783	27.6717	0.335778	33.5137	0.560888	57.0008	0.839649	83.27	0.150693	15.1637	0.421263	44.6602	0.661075	67.5032	0.700822	72.4582
0.0604966	5.46948	0.00894563	0.806108	0.27987	25.3448	0.336859	30.761	0.561258	52.1049	0.839866	76.2465	0.15271	14.0495	0.421676	40.6853	0.661269	61.6572	0.701233	66.1305
0.0655428	5.46534	0.0103616	0.861382	0.279976	23.3816	0.338025	28.4472	0.561662	47.9913	0.840102	70.32	0.154866	13.123	0.422127	37.3695	0.661481	56.7473	0.701681	60.8281
0.0705762	5.4608	0.0118505	0.914343	0.280102	21.7035	0.339274	26.4763	0.562098	44.487	0.840357	65.2525	0.157153	12.3423	0.422615	34.5621	0.661713	52.5657	0.702166	56.3212
0.0755955	5.45586	0.0134063	0.965012	0.280252	20.253	0.340604	24.7786	0.562567	41.4665	0.840631	60.8702	0.159563	11.6772	0.423142	32.1551	0.661964	48.9618	0.702687	52.4437
0.0805993	5.45049	0.015023	1.01342	0.280428	18.9872	0.342014	23.3017	0.563069	38.8364	0.840924	57.043	0.162089	11.1049	0.423705	30.069	0.662235	45.824	0.703243	49.073
0.0855864	5.44469	0.016695	1.05961	0.280631	17.8735	0.3435	22.0061	0.563603	36.526	0.841236	53.6721	0.164724	10.6083	0.424306	28.2442	0.662526	43.0676	0.703835	46.1161
0.090555	5.43843	0.018417	1.10364	0.280865	16.8864	0.345062	20.861	0.56417	34.4808	0.841567	50.6806	0.167462	10.1741	0.424944	26.6348	0.662837	40.6272	0.704463	43.5016
0.0955036	5.4317	0.0201843	1.14559	0.281132	16.0058	0.346697	19.8422	0.56477	32.6578	0.841917	48.008	0.170295	9.79196	0.425619	25.2052	0.663169	38.4517	0.705126	41.1737
0.10043	5.42448	0.0219923	1.18551	0.281434	15.2159	0.348403	18.9304	0.565401	31.0229	0.842286	45.6061	0.173218	9.45357	0.42633	23.9271	0.663521	36.5004	0.705823	39.0879
0.105334	5.41673	0.0238369	1.2235	0.281773	14.5036	0.350179	18.1101	0.566065	29.5488	0.842673	43.4359	0.176224	9.15229	0.427077	22.778	0.663895	34.7404	0.706555	37.2086
0.110211	5.40843	0.0257144	1.25963	0.282153	13.8586	0.352023	17.3686	0.566761	28.213	0.84308	41.4655	0.17931	8.8827	0.42786	21.7395	0.664291	33.1452	0.707321	35.5068
0.115061	5.39956	0.0276213	1.29398	0.282575	13.272	0.353933	16.6953	0.567489	26.9971	0.843505	39.6686	0.182468	8.64038	0.428679	20.7966	0.664709	31.6927	0.708121	33.9587
0.119881	5.39009	0.0295544	1.32664	0.283042	12.7366	0.355907	16.0817	0.568248	25.8859	0.843948	38.0234	0.185695	8.42163	0.429533	19.9368	0.665149	30.3648	0.708955	32.5446
0.124669	5.37998	0.0315109	1.35768	0.283558	12.2463	0.357944	15.5204	0.569039	24.8665	0.844411	36.5116	0.188986	8.2234	0.430421	19.15	0.665611	29.1462	0.709821	31.2479
0.129422	5.3692	0.0334882	1.38719	0.284124	11.7961	0.360043	15.0052	0.569861	23.9282	0.844892	35.1177	0.192336	8.04311	0.431345	18.4272	0.666097	28.0242	0.710721	30.0548
0.134137	5.35771	0.035484	1.41524	0.284744	11.3816	0.362202	14.5309	0.570714	23.0618	0.845391	33.8284	0.195742	7.87857	0.432303	17.7612	0.666606	26.9877	0.711653	28.9535
0.138811	5.34548	0.0374962	1.44191	0.285421	10.9991	0.36442	14.0931	0.571599	22.2595	0.84591	32.6325	0.1992	7.72793	0.433294	17.1456	0.667139	26.0275	0.712618	27.9339
0.143441	5.33246	0.0395228	1.46728	0.286159	10.6453	0.366695	13.6879	0.572514	21.5146	0.846446	31.5203	0.202705	7.58961	0.434319	16.5751	0.667695	25.1356	0.713614	26.9873
0.148024	5.31861	0.0415623	1.49141	0.286959	10.3174	0.369026	13.312	0.573459	20.8211	0.847001	30.4834	0.206256	7.46223	0.435378	16.045	0.668276	24.305	0.714643	26.1063
0.152555	5.30389	0.0433487	1.51148	0.287827	10.0132	0.371412	12.9624	0.574436	20.1741	0.847575	29.5144	0.209847	7.34461	0.43647	15.5512	0.668881	23.5297	0.715703	25.2845
0.157032	5.28824	0.0448776	1.52791	0.288765	9.73048	0.373851	12.6366	0.575442	19.5691	0.848166	28.6069	0.213009	7.24926	0.437594	15.0904	0.669512	22.8045	0.716794	24.5161
0.16145	5.27162	0.0461457	1.54106	0.289779	9.46739	0.376343	12.3325	0.576479	19.0023	0.848776	27.7553	0.215726	7.17277	0.43875	14.6593	0.670167	22.1247	0.717916	23.7962
0.165805	5.25398	0.0471506	1.55118	0.29087	9.22234	0.378886	12.048	0.577545	18.4702	0.849405	26.9546	0.217986	7.11258	0.439939	14.2552	0.670848	21.4862	0.719069	23.1204
0.170093	5.23527	0.0478907	1.55846	0.292045	8.99391	0.38148	11.7814	0.578641	17.9698	0.850051	26.2005	0.219782	7.06684	0.44116	13.8759	0.671555	20.8856	0.720252	22.4849
0.174308	5.21545	0.0483649	1.56306	0.293308	8.78084	0.384123	11.5312	0.579767	17.4985	0.850715	25.489	0.221108	7.0342	0.442412	13.5191	0.672288	20.3196	0.721466	21.8862
0.178446	5.19446	0.0490472	1.56958	0.294662	8.582	0.386814	11.2961	0.580922	17.0538	0.851398	24.8167	0.221958	7.01373	0.443695	13.183	0.673046	19.7854	0.722709	21.3213
0.182502	5.17226	0.0497896	1.57655	0.296112	8.39641	0.389552	11.0747	0.582106	16.6336	0.852099	24.1804	0.223183	6.98486	0.445009	12.8658	0.673832	19.2804	0.723983	20.7875
0.186472	5.14882	0.0508007	1.58584	0.297664	8.22315	0.392336	10.866	0.583319	16.236	0.852817	23.5774	0.224518	6.95422	0.446354	12.5662	0.674644	18.8024	0.725286	20.2823
0.190351	5.12408	0.0520814	1.59729	0.29932	8.06141	0.395165	10.6691	0.58456	15.8593	0.853553	23.0052	0.226339	6.91372	0.447729	12.2828	0.675482	18.3493	0.726618	19.8036
0.194133	5.09805	0.053633	1.61068	0.301086	7.91048	0.398039	10.483	0.58583	15.5019	0.854308	22.4615	0.228651	6.86434	0.449135	12.0143	0.676348	17.9193	0.727979	19.3494
0.197815	5.07068	0.0554567	1.62581	0.302965	7.76966	0.400956	10.3069	0.587129	15.1625	0.855079	21.9442	0.23146	6.80723	0.45057	11.7596	0.677241	17.5107	0.72937	18.9178
0.201393	5.04198	0.0575535	1.64242	0.304961	7.63834	0.403916	10.1401	0.588456	14.8397	0.855869	21.4516	0.234771	6.74358	0.452036	11.5178	0.678162	17.1221	0.730789	18.5074
0.204863	5.01195	0.059654	1.65827	0.307077	7.51595	0.406918	9.98202	0.58981	14.5324	0.856677	20.9819	0.238591	6.67467	0.453531	11.2879	0.67911	16.752	0.732237	18.1166
0.208223	4.98061	0.0617578	1.67341	0.309021	7.41615	0.40996	9.83194	0.591193	14.2396	0.857501	20.5335	0.24243	6.60979	0.455055	11.0691	0.680086	16.3991	0.733714	17.7441
0.211469	4.94799	0.0638641	1.68788	0.310752	7.33585	0.413043	9.68936	0.592603	13.9602	0.858344	20.1051	0.246286	6.54859	0.456609	10.8608	0.68109	16.0625	0.735219	17.3887
0.214601	4.91414	0.0659727	1.7017	0.312236	7.27262	0.416164	9.55379	0.59404	13.6935	0.859204	19.6955	0.250158	6.49074	0.458192	10.6622	0.682122	15.7409	0.736752	17.0493
0.217618	4.87913	0.0680831	1.71492	0.313443	7.22457	0.419325	9.42475	0.595505	13.4387	0.860081	19.3033	0.254043	6.43595	0.459805	10.4726	0.683182	15.4336	0.738313	16.7248
0.22052	4.84303	0.0701949	1.72757	0.314349	7.19031	0.422523	9.30185	0.596997	13.1949	0.860976	18.9276	0.25794	6.38398	0.461446	10.2916	0.68427	15.1395	0.739902	16.4144
0.223309	4.80594	0.0723078	1.73969	0.314937	7.16885	0.425758	9.18468	0.598515	12.9616	0.861888	18.5673	0.261846	6.33459	0.463117	10.1186	0.685386	14.8579	0.741518	16.1171
0.225985	4.76794	0.0744217	1.75129	0.315794	7.13862	0.42903	9.0729	0.600061	12.738	0.862817	18.2216	0.26576	6.28756	0.464817	9.95316	0.686531	14.5881	0.743163	15.8322
0.228553	4.72916	0.0765361	1.7624	0.316741	7.10657	0.432337	8.96618	0.601633	12.5237	0.863763	17.8896	0.26968	6.2427	0.466546	9.79477	0.687704	14.3293	0.744835	15.559
0.231016	4.6897	0.0786509	1.77306	0.318055	7.06431	0.435679	8.86421	0.603231	12.3181	0.864726	17.5705	0.273605	6.19984	0.468304	9.64307	0.688906	14.081	0.746534	15.2968
0.233377	4.64969	0.080766	1.78329	0.319758	7.01299	0.439056	8.76673	0.604856	12.1207	0.865707	17.2636	0.277532	6.15881	0.470092	9.49766	0.690136	13.8425	0.748261	15.045
0.235641	4.60924	0.0828811	1.7931	0.321879	6.95396	0.442466	8.67347	0.606507	11.931	0.866704	16.9682	0.281461	6.11947	0.471909	9.35822	0.691394	13.6134	0.750015	14.8029
0.237814	4.56848	0.0849961	1.80253	0.324452	6.88872	0.44591	8.5842	0.608184	11.7487	0.867719	16.6838	0.285389	6.08168	0.473756	9.22441	0.692681	13.393	0.751797	14.5702
0.2399	4.52753	0.087111	1.81158	0.327516	6.81888	0.449386	8.49868	0.609888	11.5733	0.86875	16.4096	0.289315	6.04532	0.475632	9.09594	0.693996	13.181	0.753605	14.3462
0.241906	4.48649	0.0892254	1.82028	0.330694	6.75402	0.452894	8.41672	0.611617	11.4044	0.869798	16.1453	0.293238	6.01027	0.477539	8.97253	0.69534	12.9769	0.755441	14.1305
0.243835	4.44546	0.0913395	1.82866	0.333981	6.69379	0.456433	8.33812	0.613371	11.2419	0.870863	15.8903	0.297155	5.97644	0.479475	8.85392	0.696712	12.7803	0.757303	13.9227
0.245695	4.40455	0.0934531	1.83671	0.337373	6.63783	0.460003	8.26271	0.615152	11.0852	0.871944	15.644	0.301066	5.94371	0.481443	8.73989	0.698112	12.5908	0.759193	13.7224
0.24749	4.36384	0.0955661	1.84447	0.340865	6.5858	0.463604	8.19032	0.616958	10.9342	0.873042	15.4062	0.304968	5.91201	0.483441	8.6302	0.699541	12.408	0.761109	13.5292
0.249225	4.32341	0.0976785	1.85193	0.34445	6.53738	0.467234	8.12079	0.61879	10.7885	0.874157	15.1764	0.308861	5.88125	0.485471	8.52464	0.700997	12.2317	0.763052	13.3428
0.250906	4.28334	0.0997903	1.85913	0.348122	6.49227	0.470894	8.05398	0.620647	10.6479	0.875288	14.9541	0.312742	5.85134	0.487532	8.42304	0.702482	12.0616	0.765023	13.1628
0.252537	4.24368	0.101901	1.86607	0.351875	6.45019	0.474583	7.98975	0.622529	10.5122	0.876436	14.7391	0.31661	5.82223	0.489625	8.32519	0.703994	11.8972	0.767019	12.9889
0.254122	4.20449	0.104012	1.87276	0.355703	6.41087	0.4783	7.92797	0.624437	10.3811	0.8776	14.531	0.320465	5.79384	0.491751	8.23094	0.705534	11.7384	0.769043	12.8209
0.255666	4.16582	0.106121	1.87922	0.3596	6.37408	0.482044	7.86853	0.626371	10.2544	0.878781	14.3295	0.324303	5.76611	0.493909	8.14012	0.707102	11.5849	0.771093	12.6584
0.257172	4.1277	0.10823	1.88545	0.363561	6.33958	0.485817	7.8113	0.62833	10.1319	0.879977	14.1343	0.328124	5.73898	0.496101	8.05259	0.708697	11.4365	0.77317	12.5013
0.258645	4.09018	0.110338	1.89148	0.367578	6.30717	0.489616	7.7562	0.630314	10.0135	0.88119	13.9451	0.331927	5.7124	0.498326	7.96821	0.71032	11.2929	0.775273	12.3493
0.260088	4.05327	0.112445	1.8973	0.371647	6.27665	0.493442	7.70311	0.632324	9.89888	0.88242	13.7616	0.335709	5.68631	0.500586	7.88685	0.711969	11.1539	0.777404	12.2021
0.261503	4.017	0.114551	1.90292	0.375763	6.24785	0.497294	7.65195	0.634359	9.78798	0.883665	13.5837	0.339469	5.66067	0.50288	7.80838	0.713645	11.0193	0.77956	12.0596
0.262894	3.98139	0.116657	1.90836	0.379921	6.22061	0.500672	7.60887	0.63642	9.68062	0.884927	13.411	0.343207	5.63544	0.50521	7.73268	0.715348	10.8889	0.781744	11.9216
0.264263	3.94644	0.118762	1.91363	0.384115	6.19478	0.503566	7.57321	0.638507	9.57664	0.886204	13.2434	0.346919	5.61057	0.507269	7.6689	0.717078	10.7626	0.783954	11.7878
0.265613	3.91217	0.120866	1.91872	0.388341	6.17023	0.505971	7.54443	0.640619	9.4759	0.887498	13.0806	0.350606	5.58603	0.509046	7.61607	0.718833	10.6402	0.78619	11.6581
0.266946	3.87858	0.122969	1.92366	0.392595	6.14683	0.507878	7.52211	0.642758	9.37829	0.888807	12.9224	0.354266	5.56177	0.51053	7.57343	0.720615	10.5215	0.788454	11.5323
0.268264	3.84567	0.125071	1.92844	0.396873	6.12447	0.509285	7.50595	0.644922	9.28366	0.890133	12.7687	0.357896	5.53777	0.511714	7.54037	0.722422	10.4063	0.790744	11.4103
0.269569	3.81344	0.127173	1.93307	0.401172	6.10305	0.510186	7.49571	0.647112	9.19191	0.891474	12.6193	0.361497	5.51399	0.51259	7.51642	0.724254	10.2945	0.79306	11.292
0.270862	3.78188	0.129273	1.93757	0.405487	6.08249	0.511485	7.48114	0.649329	9.10293	0.892831	12.474	0.365066	5.49041	0.513153	7.50125	0.726112	10.186	0.795403	11.177
0.271981	3.75494	0.131373	1.94192	0.409816	6.06269	0.512899	7.4655	0.651573	9.01661	0.894204	12.3327	0.368603	5.46699	0.513965	7.47966	0.727995	10.0807	0.797772	11.0655
0.27293	3.73237	0.133473	1.94615	0.414155	6.04358	0.514828	7.44453	0.653843	8.93285	0.895593	12.1951	0.372106	5.44372	0.514853	7.45648	0.729902	9.97836	0.800169	10.9571
0.273711	3.71399	0.135571	1.95025	0.418501	6.02508	0.517275	7.41852	0.65614	8.85156	0.896998	12.0612	0.375573	5.42057	0.516069	7.42541	0.731833	9.87893	0.802591	10.8518
0.274327	3.69963	0.137669	1.95424	0.422851	6.00714	0.520246	7.3878	0.658464	8.77266	0.898418	11.9308	0.379005	5.39752	0.517618	7.38688	0.733789	9.7823	0.805041	10.7495
0.274778	3.68916	0.139766	1.95811	0.427204	5.9897	0.523748	7.35275	0.660816	8.69605	0.899854	11.8039	0.382399	5.37454	0.519512	7.34139	0.735768	9.68835	0.807517	10.6501
0.275067	3.68251	0.141862	1.96187	0.431556	5.9727	0.527788	7.31381	0.663195	8.62165	0.901305	11.6802	0.385755	5.35163	0.521759	7.28951	0.73777	9.59698	0.810019	10.5534
0.275482	3.67301	0.143958	1.96552	0.435906	5.95609	0.53185	7.27616	0.665603	8.5494	0.902772	11.5596	0.389072	5.32877	0.524374	7.23191	0.739796	9.50809	0.812549	10.4594
0.275932	3.66276	0.146053	1.96908	0.44025	5.93984	0.535935	7.23977	0.668039	8.47922	0.904255	11.4421	0.392349	5.30594	0.527028	7.1763	0.741844	9.4216	0.815104	10.368
0.276543	3.64895	0.148147	1.97254	0.444588	5.92389	0.540042	7.20457	0.670504	8.41104	0.905752	11.3275	0.395585	5.28313	0.52972	7.12259	0.743915	9.33741	0.817687	10.279
0.277314	3.6317	0.15024	1.9759	0.448916	5.90822	0.544171	7.17052	0.672998	8.34479	0.907266	11.2157	0.398779	5.26034	0.532451	7.07074	0.746008	9.25545	0.820295	10.1924
0.278245	3.61116	0.152333	1.97917	0.453234	5.89278	0.54832	7.13757	0.675522	8.28043	0.908795	11.1067	0.401931	5.23755	0.535221	7.02066	0.748123	9.17562	0.822931	10.1082
0.279335	3.5875	0.154426	1.98236	0.457538	5.87756	0.55249	7.10567	0.678075	8.21788	0.910339	11.0003	0.40504	5.21476	0.53803	6.97229	0.750259	9.09786	0.825593	10.0261
0.280583	3.56093	0.156517	1.98547	0.461829	5.86251	0.55668	7.07478	0.680659	8.15709	0.911899	10.8965	0.408107	5.19195	0.540877	6.92558	0.752416	9.02209	0.828281	9.94622
0.28183	3.53495	0.158609	1.98849	0.466103	5.84761	0.560889	7.04487	0.683275	8.09801	0.913474	10.7951	0.411129	5.16914	0.543764	6.88045	0.754594	8.94824	0.830996	9.86841
0.283076	3.50957	0.160699	1.99144	0.470361	5.83284	0.565118	7.01588	0.685921	8.04059	0.915065	10.6962	0.414108	5.14631	0.546688	6.83686	0.756793	8.87625	0.833738	9.79262
0.284321	3.48476	0.162789	1.99432	0.474599	5.81817	0.569365	6.98778	0.6886	7.98478	0.91667	10.5995	0.417043	5.12346	0.549651	6.79474	0.759013	8.80605	0.836506	9.71878
0.285567	3.46051	0.164879	1.99712	0.478817	5.80359	0.57363	6.96053	0.69096	7.93743	0.918292	10.5051	0.419934	5.1006	0.552651	6.75404	0.761252	8.73757	0.8393	9.64682
0.286814	3.43681	0.166968	1.99985	0.483013	5.78908	0.577912	6.9341	0.692993	7.89798	0.919928	10.4128	0.422782	5.07772	0.555689	6.7147	0.76351	8.67078	0.84212	9.57668
0.288062	3.41366	0.169056	2.00252	0.487186	5.77462	0.582212	6.90846	0.694687	7.86598	0.92158	10.3226	0.425585	5.05483	0.558763	6.67668	0.765789	8.6056	0.844967	9.50831
0.289312	3.39103	0.171144	2.00512	0.491336	5.76019	0.586527	6.88356	0.696036	7.84108	0.923246	10.2345	0.428345	5.03192	0.561873	6.63992	0.768086	8.54198	0.84784	9.44166
0.290564	3.36892	0.173231	2.00766	0.49546	5.74578	0.590858	6.85938	0.697033	7.82298	0.924929	10.1483	0.431062	5.00901	0.565018	6.60437	0.770402	8.47987	0.85074	9.37666
0.291819	3.3473	0.175318	2.01014	0.499558	5.73138	0.595203	6.83589	0.697673	7.8115	0.926626	10.0641	0.433735	4.9861	0.568198	6.56999	0.772737	8.41923	0.853665	9.31326
0.293076	3.32618	0.177405	2.01257	0.503629	5.71697	0.599563	6.81306	0.698597	7.79512	0.928338	9.98167	0.436367	4.96319	0.571411	6.53672	0.77509	8.36	0.856616	9.25142
0.294337	3.30554	0.179491	2.01493	0.507672	5.70255	0.603936	6.79085	0.699605	7.77749	0.930066	9.90106	0.438957	4.94029	0.574656	6.50452	0.777461	8.30215	0.859594	9.19109
0.295601	3.28536	0.181576	2.01725	0.511685	5.68811	0.608321	6.76924	0.700983	7.75381	0.931809	9.82219	0.441505	4.91741	0.577933	6.47335	0.77985	8.24563	0.862597	9.13223
0.296869	3.26564	0.183661	2.01951	0.515669	5.67363	0.612718	6.74821	0.702738	7.72432	0.933567	9.74502	0.444013	4.89455	0.581241	6.44315	0.782257	8.19039	0.865626	9.07478
0.298141	3.24636	0.185746	2.02172	0.519622	5.65911	0.617125	6.72771	0.704878	7.68935	0.93534	9.66949	0.446481	4.87172	0.584578	6.4139	0.784681	8.1364	0.86868	9.01872
0.299417	3.22751	0.18783	2.02388	0.523544	5.64455	0.621542	6.70774	0.707415	7.64927	0.937129	9.59555	0.44891	4.84893	0.587943	6.38555	0.786808	8.09034	0.87176	8.96398
0.300698	3.20908	0.189914	2.026	0.527433	5.62993	0.625968	6.68825	0.710359	7.6045	0.938932	9.52317	0.451301	4.82619	0.591335	6.35805	0.788631	8.05178	0.874866	8.91055
0.301983	3.19107	0.191998	2.02807	0.53129	5.61525	0.630401	6.66923	0.713342	7.56101	0.940751	9.4523	0.453654	4.8035	0.594753	6.33137	0.790145	8.02038	0.877996	8.85838
0.303273	3.17346	0.194081	2.03009	0.535114	5.60052	0.634842	6.65065	0.716362	7.51877	0.942585	9.38288	0.455971	4.78086	0.598195	6.30548	0.791347	7.99585	0.881152	8.80743
0.304567	3.15623	0.196163	2.03207	0.538903	5.58571	0.639288	6.63249	0.719421	7.47776	0.944434	9.3149	0.458252	4.7583	0.60166	6.28033	0.792233	7.97798	0.884333	8.75766
0.305867	3.13939	0.198246	2.03401	0.542659	5.57084	0.643738	6.61472	0.72252	7.43794	0.946298	9.2483	0.460499	4.73582	0.605148	6.25589	0.792802	7.96662	0.887538	8.70905
0.307172	3.12291	0.200328	2.03591	0.546379	5.55589	0.648191	6.59732	0.72566	7.39929	0.948177	9.18305	0.462712	4.71341	0.608655	6.23213	0.79362	7.95039	0.890769	8.66156
0.308481	3.1068	0.202409	2.03777	0.550065	5.54087	0.652647	6.58028	0.72884	7.36178	0.950072	9.11911	0.464893	4.6911	0.612182	6.20901	0.794512	7.93288	0.894023	8.61516
0.309797	3.09104	0.204491	2.03959	0.553714	5.52578	0.657104	6.56355	0.732063	7.32539	0.951981	9.05645	0.467042	4.66889	0.615727	6.1865	0.795728	7.90928	0.897302	8.56982
0.311117	3.07563	0.206572	2.04138	0.557328	5.51061	0.66156	6.54714	0.735328	7.2901	0.953906	8.99504	0.46916	4.64679	0.619288	6.16457	0.797272	7.8798	0.900606	8.5255
0.312443	3.06054	0.208652	2.04313	0.560906	5.49536	0.666015	6.53101	0.738636	7.25588	0.955846	8.93483	0.471248	4.62479	0.622864	6.1432	0.799147	7.84467	0.903933	8.48219
0.313774	3.04578	0.210733	2.04484	0.564448	5.48004	0.670467	6.51514	0.741989	7.22271	0.957801	8.87581	0.473308	4.60292	0.626454	6.12234	0.801358	7.80418	0.907283	8.43984
0.315111	3.03134	0.212813	2.04653	0.567953	5.46464	0.674915	6.49952	0.745386	7.19057	0.959772	8.81794	0.475339	4.58117	0.630057	6.10199	0.80391	7.75863	0.910658	8.39844
0.316453	3.01721	0.214892	2.04817	0.571422	5.44916	0.679358	6.48412	0.748829	7.15943	0.961758	8.76119	0.477344	4.55955	0.63367	6.0821	0.806479	7.71406	0.914055	8.35796
0.317801	3.00338	0.216972	2.04979	0.574854	5.43362	0.683793	6.46893	0.752319	7.12929	0.963759	8.70553	0.479323	4.53806	0.637293	6.06266	0.809063	7.67042	0.917476	8.31837
0.319154	2.98985	0.219051	2.05138	0.57825	5.418	0.688221	6.45394	0.755855	7.10011	0.965776	8.65094	0.481277	4.51672	0.640925	6.04364	0.811663	7.62769	0.920476	8.28458
0.320513	2.9766	0.22113	2.05293	0.581609	5.40231	0.69264	6.43911	0.759438	7.07188	0.967808	8.59739	0.483206	4.49552	0.644564	6.02502	0.814279	7.58586	0.923046	8.25629
0.321878	2.96363	0.223208	2.05446	0.584931	5.38655	0.697048	6.42445	0.76307	7.04458	0.969855	8.54486	0.485113	4.47447	0.648208	6.00678	0.81691	7.54489	0.925181	8.23324
0.323248	2.95093	0.225287	2.05596	0.588216	5.37073	0.701445	6.40993	0.76675	7.01818	0.971918	8.49331	0.486997	4.45358	0.651858	5.98889	0.819558	7.50476	0.926875	8.21523
0.324624	2.9385	0.227365	2.05743	0.591466	5.35484	0.705829	6.39554	0.770478	6.99268	0.973996	8.44273	0.488859	4.43284	0.65551	5.97133	0.822221	7.46545	0.928124	8.20211
0.326005	2.92633	0.229443	2.05887	0.594679	5.3389	0.7102	6.38127	0.774256	6.96805	0.975819	8.39943	0.490701	4.41226	0.659165	5.95409	0.824899	7.42694	0.928925	8.19376
0.327393	2.9144	0.23152	2.06029	0.597856	5.3229	0.714555	6.3671	0.778083	6.94426	0.977383	8.36307	0.492523	4.39185	0.662821	5.93715	0.827593	7.38921	0.930078	8.18184
0.328785	2.90273	0.233598	2.06168	0.600997	5.30684	0.718895	6.35303	0.78196	6.92131	0.978683	8.33338	0.494326	4.37161	0.666477	5.92049	0.830303	7.35224	0.931334	8.16898
0.330184	2.89129	0.235675	2.06305	0.604103	5.29074	0.723218	6.33904	0.785886	6.89917	0.979715	8.31014	0.49611	4.35153	0.670131	5.90409	0.833028	7.31602	0.933047	8.15165
0.331588	2.88009	0.237751	2.06439	0.607173	5.27459	0.727523	6.32513	0.789862	6.87781	0.980476	8.29319	0.497877	4.33163	0.673783	5.88793	0.835768	7.28051	0.93522	8.12998
0.332998	2.86912	0.239828	2.06571	0.610208	5.2584	0.731811	6.31128	0.793887	6.85723	0.980964	8.2824	0.499627	4.3119	0.677432	5.872	0.838524	7.24571	0.93786	8.10417
0.334413	2.85837	0.241904	2.06701	0.613209	5.24217	0.73608	6.29749	0.797961	6.83739	0.981668	8.26697	0.50136	4.29235	0.681076	5.8563	0.841296	7.21161	0.940971	8.0744
0.335834	2.84783	0.243981	2.06829	0.616175	5.2259	0.740329	6.28376	0.802084	6.81829	0.982434	8.25031	0.503078	4.27297	0.684714	5.84079	0.844083	7.17817	0.944561	8.04092
0.33726	2.83751	0.246057	2.06954	0.619107	5.2096	0.744559	6.27008	0.806254	6.79988	0.983479	8.22782	0.504781	4.25378	0.688346	5.82547	0.846886	7.14539	0.948171	8.00814
0.338692	2.82739	0.248132	2.07077	0.622006	5.19328	0.748769	6.25645	0.810472	6.78217	0.984807	8.19966	0.50647	4.23476	0.691971	5.81033	0.849705	7.11325	0.951802	7.97604
0.34013	2.81748	0.250208	2.07198	0.624872	5.17694	0.752959	6.24286	0.814737	6.76511	0.98642	8.16604	0.508145	4.21592	0.695586	5.79535	0.852539	7.08174	0.955453	7.94461
0.341572	2.80776	0.252283	2.07317	0.627705	5.16058	0.757129	6.2293	0.819048	6.7487	0.988323	8.12717	0.509807	4.19727	0.699193	5.78053	0.855388	7.05085	0.959124	7.91383
0.343021	2.79823	0.254358	2.07434	0.630506	5.1442	0.761278	6.21579	0.823404	6.7329	0.990523	8.08333	0.511456	4.17879	0.702789	5.76585	0.858254	7.02055	0.962815	7.88367
0.344474	2.7889	0.256433	2.07549	0.633276	5.12782	0.765406	6.20232	0.827804	6.7177	0.992738	8.04027	0.513094	4.1605	0.706374	5.75129	0.861135	6.99084	0.966524	7.85413
0.345933	2.77974	0.258508	2.07663	0.636014	5.11143	0.769515	6.18889	0.832247	6.70307	0.99497	7.99799	0.51472	4.14239	0.709946	5.73687	0.864032	6.9617	0.970253	7.82518
0.347398	2.77076	0.260583	2.07774	0.638721	5.09503	0.773603	6.17549	0.836731	6.68899	0.997218	7.95647	0.516335	4.12446	0.713506	5.72255	0.866944	6.93312	0.974	7.79682
0.348867	2.76196	0.262657	2.07884	0.641398	5.07864	0.777671	6.16214	0.841256	6.67545	0.999482	7.9157	0.517939	4.10671	0.717052	5.70833	0.869873	6.90509	0.977765	7.76901
0.350342	2.75333	0.264731	2.07992	0.644046	5.06226	0.78172	6.14882	0.84582	6.66241	1.00176	7.87565	0.519533	4.08915	0.720584	5.69422	0.872817	6.87759	0.981548	7.74176
0.351822	2.74486	0.266805	2.08098	0.646664	5.04589	0.785749	6.13555	0.850422	6.64985			0.521118	4.07176	0.724101	5.68018	0.875777	6.85062	0.985348	7.71504
0.353307	2.73656	0.268879	2.08203	0.649253	5.02953	0.789759	6.12232	0.85506	6.63777			0.522694	4.05456	0.727602	5.66623	0.878752	6.82416	0.989166	7.68884
0.354798	2.72841	0.270953	2.08306	0.651815	5.01319	0.79375	6.10914	0.859734	6.62612			0.524261	4.03753	0.731086	5.65236	0.881743	6.79821	0.993	7.66314
0.356293	2.72042	0.273027	2.08407	0.654349	4.99688	0.797723	6.096	0.864441	6.6149			0.52582	4.02069	0.734553	5.63855	0.884751	6.77274	0.99685	7.63794
0.357794	2.71258	0.2751	2.08507	0.656856	4.98058	0.801678	6.08291	0.86918	6.60409			0.52737	4.00402	0.738002	5.6248	0.887773	6.74775	1.00072	7.61321
0.359299	2.70489	0.277173	2.08605	0.659336	4.96432	0.805614	6.06988	0.873951	6.59365			0.528914	3.98753	0.741433	5.6111	0.890812	6.72324		
0.36081	2.69734	0.279246	2.08702	0.661791	4.94809	0.809534	6.05689	0.878751	6.58359			0.53045	3.97121	0.744845	5.59745	0.893866	6.69918		
0.362325	2.68993	0.281319	2.08797	0.66422	4.9319	0.813436	6.04395	0.883579	6.57387			0.531979	3.95507	0.748238	5.58385	0.896935	6.67557		
0.363846	2.68267	0.283392	2.08891	0.666624	4.91574	0.817321	6.03107	0.888433	6.56449			0.533501	3.93911	0.75161	5.57029	0.90002	6.6524		
0.365371	2.67553	0.285465	2.08984	0.669004	4.89963	0.82119	6.01824	0.893313	6.55541			0.535018	3.92332	0.754963	5.55677	0.90312	6.62966		
0.366901	2.66853	0.287537	2.09075	0.67136	4.88356	0.825042	6.00547	0.898217	6.54664			0.536528	3.9077	0.758294	5.54328	0.906235	6.60734		
0.368435	2.66165	0.289609	2.09165	0.673693	4.86754	0.828878	5.99275	0.903143	6.53815			0.538034	3.89225	0.761605	5.52981	0.909366	6.58543		
0.369975	2.65491	0.291682	2.09253	0.676003	4.85157	0.832699	5.98009	0.908091	6.52992			0.539533	3.87696	0.764893	5.51637	0.912511	6.56392		
0.371519	2.64828	0.293754	2.09341	0.67829	4.83565	0.836503	5.96748	0.913059	6.52195			0.541028	3.86185	0.76816	5.50296	0.915671	6.5428		
0.373068	2.64177	0.295826	2.09427	0.680556	4.81979	0.840292	5.95493	0.918045	6.51421			0.542518	3.8469	0.771405	5.48956	0.918845	6.52206		
0.374621	2.63539	0.297897	2.09511	0.682801	4.80399	0.844066	5.94244	0.923049	6.5067			0.544004	3.83212	0.774627	5.47618	0.922034	6.5017		
0.376179	2.62911	0.299969	2.09595	0.685025	4.78825	0.847824	5.93	0.928069	6.49941			0.545485	3.8175	0.777827	5.46282	0.925237	6.4817		
0.377741	2.62295	0.302041	2.09677	0.687228	4.77257	0.851567	5.91762	0.933104	6.49231			0.546962	3.80304	0.781003	5.44947	0.928454	6.46205		
0.379308	2.6169	0.304112	2.09759	0.689412	4.75696	0.855294	5.90528	0.938153	6.4854			0.548436	3.78874	0.784157	5.43614	0.931684	6.44276		
0.380879	2.61096	0.306183	2.09839	0.691576	4.74141	0.859006	5.89301	0.943215	6.47866			0.549906	3.7746	0.787287	5.42281	0.934928	6.4238		
0.382454	2.60512	0.308254	2.09918	0.693722	4.72593	0.862703	5.88078	0.948288	6.47209			0.551372	3.76062	0.790394	5.40949	0.938184	6.40517		
0.384034	2.59939	0.310326	2.09996	0.695849	4.71052	0.866385	5.86861	0.953372	6.46567			0.552836	3.74679	0.793477	5.39619	0.941453	6.38687		
0.385619	2.59375	0.312396	2.10073	0.697958	4.69519	0.870051	5.85648	0.958465	6.45939			0.554296	3.73312	0.796537	5.38289	0.944735	6.36887		
0.387207	2.58822	0.314467	2.10149	0.700049	4.67993	0.873702	5.8444	0.963565	6.45325			0.555754	3.7196	0.799573	5.3696	0.948028	6.35118		
0.388799	2.58278	0.316538	2.10224	0.702124	4.66474	0.877338	5.83237	0.968673	6.44722			0.55721	3.70623	0.802586	5.35632	0.951333	6.33379		
0.390396	2.57743	0.318609	2.10297	0.704181	4.64963	0.880958	5.82039	0.973785	6.44131			0.558663	3.69301	0.805575	5.34304	0.954649	6.31668		
0.391997	2.57218	0.320679	2.1037	0.706223	4.6346	0.884562	5.80844	0.978903	6.4355			0.560114	3.67993	0.80854	5.32978	0.957976	6.29986		
0.393602	2.56701	0.322749	2.10442	0.708248	4.61964	0.88815	5.79654	0.984023	6.42978			0.561562	3.667	0.811482	5.31652	0.961313	6.28331		
0.395211	2.56194	0.32482	2.10513	0.710258	4.60477	0.891722	5.78468	0.989145	6.42414			0.563009	3.65422	0.814401	5.30327	0.964661	6.26702		
0.396824	2.55695	0.32689	2.10583	0.712253	4.58998	0.895279	5.77286	0.994267	6.41857			0.564454	3.64158	0.817296	5.29003	0.968017	6.25099		
0.39844	2.55205	0.32896	2.10653	0.714233	4.57527	0.898819	5.76108	0.999389	6.41306			0.565898	3.62908	0.820168	5.27679	0.971383	6.23521		
0.400061	2.54723	0.33103	2.10721	0.716199	4.56064	0.902342	5.74933	1.00451	6.4076			0.56734	3.61672	0.823017	5.26357	0.974757	6.21968		
0.401686	2.54249	0.333099	2.10788	0.718151	4.5461	0.905849	5.73761					0.568781	3.6045	0.825843	5.25036	0.978139	6.20437		
0.403314	2.53783	0.335169	2.10855	0.720089	4.53164	0.90934	5.72593					0.570221	3.59241	0.828646	5.23716	0.981529	6.1893		
0.404946	2.53325	0.337239	2.10921	0.722013	4.51727	0.912813	5.71428					0.57166	3.58046	0.831426	5.22397	0.984926	6.17444		
0.406582	2.52875	0.339308	2.10985	0.723925	4.50298	0.916269	5.70265					0.573097	3.56864	0.834185	5.2108	0.98833	6.1598		
0.408222	2.52432	0.341378	2.1105	0.725824	4.48878	0.919709	5.69106					0.574534	3.55695	0.836921	5.19764	0.991739	6.14537		
0.409865	2.51996	0.343447	2.11113	0.727711	4.47466	0.92313	5.67949					0.575971	3.54539	0.839635	5.18449	0.995154	6.13113		
0.411512	2.51567	0.345516	2.11175	0.729586	4.46064	0.926534	5.66794					0.577407	3.53396	0.842327	5.17137	0.998574	6.11709		
0.413162	2.51146	0.347585	2.11237	0.731449	4.4467	0.929921	5.65642					0.578842	3.52266	0.844998	5.15826	1.002	6.10323		
0.414816	2.50731	0.349654	2.11298	0.7333	4.43284	0.93329	5.64492					0.580277	3.51148	0.847647	5.14517				
0.416474	2.50323	0.351723	2.11358	0.735141	4.41908	0.93664	5.63344					0.581712	3.50043	0.850275	5.1321				
0.418135	2.49922	0.353792	2.11418	0.736971	4.40541	0.939973	5.62198					0.583146	3.4895	0.852883	5.11905				
0.419799	2.49527	0.355861	2.11477	0.73879	4.39182	0.943287	5.61054					0.584581	3.47869	0.855471	5.10603				
0.421467	2.49139	0.35793	2.11535	0.740598	4.37832	0.946583	5.59911					0.586015	3.468	0.858038	5.09303				
0.423138	2.48757	0.359998	2.11592	0.742397	4.36491	0.94986	5.5877					0.58745	3.45742	0.860585	5.08005				
0.424813	2.48381	0.362067	2.11649	0.744186	4.35159	0.953119	5.57631					0.588885	3.44697	0.863113	5.06711				
0.426491	2.48011	0.364135	2.11705	0.745965	4.33836	0.956359	5.56493					0.59032	3.43663	0.865621	5.05419				
0.428172	2.47647	0.366203	2.11761	0.747735	4.32522	0.95958	5.55357					0.591755	3.4264	0.86811	5.0413				
0.429856	2.47288	0.368272	2.11815	0.749497	4.31217	0.962782	5.54221					0.593191	3.41628	0.870581	5.02844				
0.431543	2.46935	0.37034	2.11869	0.751249	4.29921	0.965965	5.53087					0.594628	3.40628	0.873033	5.01561				
0.433234	2.46588	0.372408	2.11923	0.752992	4.28633	0.969129	5.51955					0.596065	3.39638	0.875466	5.00281				
0.434928	2.46246	0.374476	2.11976	0.754728	4.27354	0.972274	5.50823					0.597502	3.38659	0.877882	4.99005				
0.436624	2.4591	0.376544	2.12028	0.756455	4.26085	0.9754	5.49692					0.59894	3.37691	0.880281	4.97733				
0.438324	2.45578	0.378611	2.1208	0.758174	4.24824	0.978507	5.48563					0.600379	3.36734	0.882662	4.96463				
0.440027	2.45252	0.380679	2.12131	0.759886	4.23571	0.981595	5.47435					0.601819	3.35787	0.885026	4.95198				
0.441733	2.44931	0.382747	2.12182	0.76159	4.22328	0.984663	5.46307					0.60326	3.3485	0.887373	4.93937				
0.443442	2.44615	0.384814	2.12232	0.763287	4.21093	0.987712	5.45181					0.604701	3.33923	0.889704	4.92679				
0.445153	2.44304	0.386882	2.12281	0.764977	4.19867	0.990743	5.44056					0.606144	3.33006	0.892019	4.91425				
0.446868	2.43997	0.388949	2.1233	0.766659	4.1865	0.993754	5.42931					0.607588	3.32099	0.894318	4.90176				
0.448585	2.43695	0.391017	2.12379	0.768335	4.17441	0.996745	5.41808					0.609032	3.31202	0.896602	4.88931				
0.450305	2.43398	0.393084	2.12426	0.770005	4.16241	0.999718	5.40686					0.610478	3.30315	0.89887	4.8769				
0.452028	2.43105	0.395151	2.12474	0.771668	4.1505	1.00267	5.39564					0.611925	3.29437	0.901123	4.86453				
0.453754	2.42816	0.397218	2.12521	0.773325	4.13867							0.613373	3.28569	0.903361	4.85221				
0.455483	2.42532	0.399285	2.12567	0.774976	4.12693							0.614822	3.2771	0.905585	4.83993				
0.457214	2.42252	0.401352	2.12613	0.776621	4.11527							0.616273	3.2686	0.907794	4.8277				
0.458948	2.41976	0.403419	2.12658	0.77826	4.1037							0.617725	3.26019	0.90999	4.81552				
0.460685	2.41704	0.405486	2.12703	0.779894	4.09221							0.619178	3.25187	0.912172	4.80338				
0.462424	2.41437	0.407553	2.12747	0.781522	4.0808							0.620633	3.24363	0.91434	4.79129				
0.464166	2.41173	0.40962	2.12791	0.783145	4.06948							0.622089	3.23549	0.916495	4.77925				
0.46591	2.40913	0.411686	2.12835	0.784763	4.05824							0.623547	3.22743	0.918637	4.76726				
0.467657	2.40657	0.413753	2.12878	0.786376	4.04708							0.625006	3.21946	0.920767	4.75532				
0.469406	2.40404	0.415819	2.1292	0.787984	4.03601							0.626467	3.21157	0.922883	4.74343				
0.471158	2.40156	0.417886	2.12962	0.789587	4.02501							0.627929	3.20376	0.924988	4.73159				
0.472912	2.39911	0.419952	2.13004	0.791186	4.0141							0.629393	3.19604	0.927081	4.7198				
0.474669	2.39669	0.422018	2.13045	0.792781	4.00326							0.630858	3.1884	0.929161	4.70806				
0.476428	2.39431	0.424085	2.13086	0.794371	3.99251							0.632325	3.18083	0.93123	4.69637				
0.47819	2.39196	0.426151	2.13127	0.795957	3.98184							0.633794	3.17335	0.933288	4.68473				
0.479954	2.38965	0.428217	2.13167	0.797539	3.97124							0.635264	3.16594	0.935334	4.67315				
0.48172	2.38737	0.430283	2.13206	0.799117	3.96072							0.636736	3.15861	0.93737	4.66162				
0.483489	2.38512	0.432349	2.13246	0.800692	3.95028							0.63821	3.15136	0.939394	4.65014				
0.485259	2.3829	0.434415	2.13284	0.802262	3.93992							0.639686	3.14418	0.941408	4.63872				
0.487032	2.38072	0.436481	2.13323	0.803829	3.92964							0.641163	3.13707	0.943412	4.62735				
0.488808	2.37856	0.438546	2.13361	0.805393	3.91943							0.642642	3.13004	0.945405	4.61603				
0.490585	2.37644	0.440612	2.13399	0.806953	3.9093							0.644123	3.12308	0.947389	4.60477				
0.492365	2.37434	0.442678	2.13436	0.80851	3.89924							0.645606	3.11619	0.949362	4.59356				
0.494147	2.37228	0.444743	2.13473	0.810064	3.88926							0.64709	3.10938	0.951326	4.5824				
0.495931	2.37024	0.446809	2.1351	0.811614	3.87935							0.648576	3.10263	0.953281	4.5713				
0.497717	2.36823	0.448874	2.13546	0.813162	3.86952							0.650065	3.09595	0.955226	4.56026				
0.499505	2.36625	0.45094	2.13582	0.814707	3.85975							0.651555	3.08934	0.957162	4.54926				
0.501295	2.3643	0.453005	2.13617	0.816249	3.85007							0.653047	3.08279	0.959089	4.53833				
0.503088	2.36237	0.45507	2.13652	0.817789	3.84045							0.654541	3.07632	0.961007	4.52744				
0.504882	2.36047	0.457136	2.13687	0.819325	3.83091							0.656037	3.0699	0.962917	4.51661				
0.506678	2.35859	0.459201	2.13722	0.82086	3.82143							0.657534	3.06356	0.964818	4.50584				
0.508477	2.35674	0.461266	2.13756	0.822392	3.81203							0.659034	3.05727	0.96671	4.49512				
0.510277	2.35492	0.463331	2.1379	0.823921	3.8027							0.660536	3.05105	0.968595	4.48446				
0.512079	2.35312	0.465396	2.13824	0.825449	3.79344							0.662039	3.04489	0.970472	4.47385				
0.513884	2.35134	0.467461	2.13857	0.826974	3.78424							0.663545	3.03879	0.97234	4.46329				
0.51569	2.34959	0.469526	2.1389	0.828497	3.77512							0.665052	3.03276	0.974202	4.45279				
0.517498	2.34786	0.47159	2.13923	0.830018	3.76606							0.666562	3.02678	0.976055	4.44234				
0.519308	2.34615	0.473655	2.13955	0.831538	3.75707							0.668073	3.02086	0.977901	4.43195				
0.521119	2.34447	0.47572	2.13987	0.833055	3.74815							0.669587	3.01501	0.97974	4.42161				
0.522933	2.34281	0.477785	2.14019	0.83457	3.73929							0.671102	3.0092	0.981571	4.41133				
0.524748	2.34117	0.479849	2.1405	0.836084	3.7305							0.672619	3.00346	0.983395	4.4011				
0.526565	2.33955	0.481914	2.14081	0.837596	3.72178							0.674139	2.99777	0.985213	4.39093				
0.528384	2.33795	0.483978	2.14112	0.839107	3.71312							0.67566	2.99214	0.987024	4.38081				
0.530205	2.33638	0.486043	2.14143	0.840616	3.70452							0.677184	2.98657	0.988828	4.37074				
0.532027	2.33482	0.488107	2.14173	0.842124	3.69599							0.678709	2.98105	0.990625	4.36073				
0.533851	2.33329	0.490171	2.14204	0.84363	3.68752							0.680237	2.97558	0.992416	4.35077				
0.535677	2.33177	0.492236	2.14233	0.845135	3.67912							0.681766	2.97016	0.994201	4.34086				
0.537505	2.33028	0.4943	2.14263	0.846639	3.67078							0.683298	2.9648	0.99598	4.33101				
0.539334	2.3288	0.496364	2.14292	0.848141	3.66249							0.684831	2.95949	0.997752	4.32121				
0.541165	2.32734	0.498428	2.14321	0.849642	3.65428							0.686367	2.95423	0.999519	4.31146				
0.542997	2.32591	0.500492	2.1435	0.851143	3.64612							0.687904	2.94902	1.00128	4.30177				
0.544831	2.32449	0.502556	2.14379	0.852642	3.63802							0.689444	2.94387						
0.546667	2.32308	0.50462	2.14407	0.85414	3.62998							0.690986	2.93876						
0.548504	2.3217	0.506684	2.14435	0.855637	3.622							0.692529	2.9337						
0.550343	2.32033	0.508748	2.14463	0.857134	3.61408							0.694075	2.92869						
0.552184	2.31898	0.510812	2.1449	0.858629	3.60622							0.695623	2.92373						
0.554026	2.31765	0.512875	2.14518	0.860124	3.59842							0.697173	2.91881						
0.555869	2.31633	0.514939	2.14545	0.861618	3.59067							0.698725	2.91394						
0.557714	2.31503	0.517003	2.14572	0.863112	3.58299							0.700278	2.90912						
0.559561	2.31375	0.519066	2.14598	0.864604	3.57536							0.701834	2.90434						
0.561409	2.31248	0.52113	2.14625	0.866096	3.56778							0.703392	2.89961						
0.563258	2.31123	0.523193	2.14651	0.867588	3.56026							0.704952	2.89492						
0.565109	2.30999	0.525257	2.14677	0.869079	3.5528							0.706514	2.89027						
0.566961	2.30877	0.52732	2.14703	0.87057	3.54539							0.708078	2.88567						
0.568815	2.30757	0.529383	2.14728	0.87206	3.53803							0.709644	2.88112						
0.57067	2.30637	0.531447	2.14753	0.87355	3.53073							0.711212	2.8766						
0.572527	2.3052	0.53351	2.14779	0.87504	3.52348							0.712782	2.87213						
0.574385	2.30404	0.535573	2.14803	0.876529	3.51629							0.714354	2.8677						
0.576244	2.30289	0.537636	2.14828	0.878018	3.50914							0.715928	2.86331						
0.578105	2.30175	0.539699	2.14853	0.879507	3.50205							0.717504	2.85896						
0.579967	2.30063	0.541762	2.14877	0.880995	3.49501							0.719083	2.85465						
0.58183	2.29952	0.543825	2.14901	0.882484	3.48803							0.720663	2.85038						
0.583695	2.29843	0.545888	2.14925	0.883972	3.48109							0.722245	2.84615						
0.585561	2.29735	0.547951	2.14949	0.885461	3.47421							0.723829	2.84195						
0.587428	2.29628	0.550014	2.14972	0.886949	3.46737							0.725415	2.8378						
0.589297	2.29523	0.552077	2.14996	0.888437	3.46058							0.727003	2.83368						
0.591166	2.29418	0.55414	2.15019	0.889925	3.45385							0.728593	2.82961						
0.593038	2.29315	0.556202	2.15042	0.891414	3.44716							0.730185	2.82557						
0.59491	2.29214	0.558265	2.15064	0.892902	3.44052							0.731779	2.82156						
0.596783	2.29113	0.560328	2.15087	0.89439	3.43392							0.733375	2.81759						
0.598658	2.29014	0.56239	2.15109	0.895879	3.42738							0.734973	2.81366						
0.600534	2.28915	0.564453	2.15132	0.897368	3.42088							0.736572	2.80976						
0.602411	2.28818	0.566515	2.15154	0.898857	3.41443							0.738174	2.8059						
0.60429	2.28722	0.568577	2.15176	0.900346	3.40803							0.739778	2.80207						
0.606169	2.28627	0.57064	2.15197	0.901836	3.40167							0.741384	2.79828						
0.60805	2.28534	0.572702	2.15219	0.903326	3.39536							0.742991	2.79452						
0.609932	2.28441	0.574764	2.1524	0.904816	3.38909							0.744601	2.79079						
0.611815	2.28349	0.576827	2.15261	0.906306	3.38286							0.746212	2.7871						
0.613699	2.28259	0.578889	2.15282	0.907797	3.37669							0.747825	2.78344						
0.615584	2.28169	0.580951	2.15303	0.909288	3.37055							0.749441	2.77981						
0.61747	2.28081	0.583013	2.15324	0.910779	3.36446							0.751058	2.77622						
0.619358	2.27994	0.585075	2.15345	0.912271	3.35841							0.752677	2.77265						
0.621246	2.27907	0.587137	2.15365	0.913764	3.35241							0.754298	2.76912						
0.623136	2.27822	0.589199	2.15385	0.915257	3.34645							0.755921	2.76562						
0.625027	2.27737	0.591261	2.15405	0.91675	3.34053							0.757545	2.76215						
0.626918	2.27654	0.593323	2.15425	0.918244	3.33465							0.759172	2.75871						
0.628811	2.27571	0.595385	2.15445	0.919739	3.32882							0.760801	2.7553						
0.630705	2.27489	0.597446	2.15465	0.921234	3.32302							0.762431	2.75191						
0.6326	2.27409	0.599508	2.15484	0.922729	3.31727							0.764063	2.74856						
0.634496	2.27329	0.60157	2.15504	0.924225	3.31155							0.765697	2.74524						
0.636393	2.2725	0.603631	2.15523	0.925722	3.30588							0.767333	2.74195						
0.638291	2.27172	0.605693	2.15542	0.927219	3.30025							0.768971	2.73868						
0.64019	2.27095	0.607754	2.15561	0.928717	3.29465							0.77061	2.73544						
0.64209	2.27018	0.609816	2.1558	0.930216	3.2891							0.772252	2.73223						
0.64399	2.26943	0.611877	2.15598	0.931716	3.28358							0.773895	2.72905						
0.645892	2.26868	0.613939	2.15617	0.933216	3.27811							0.77554	2.7259						
0.647795	2.26794	0.616	2.15635	0.934716	3.27267							0.777187	2.72277						
0.649699	2.26721	0.618062	2.15653	0.936218	3.26727							0.778835	2.71967						
0.651603	2.26649	0.620123	2.15671	0.93772	3.2619							0.780486	2.71659						
0.653509	2.26577	0.622184	2.15689	0.939223	3.25658							0.782138	2.71354						
0.655416	2.26507	0.624245	2.15707	0.940727	3.25129							0.783792	2.71052						
0.657323	2.26437	0.626306	2.15725	0.942231	3.24604							0.785447	2.70752						
0.659232	2.26368	0.628367	2.15743	0.943737	3.24082							0.787105	2.70455						
0.661141	2.26299	0.630428	2.1576	0.945243	3.23564							0.788764	2.7016						
0.663051	2.26232	0.632489	2.15777	0.94675	3.23049							0.790425	2.69868						
0.664962	2.26165	0.63455	2.15795	0.948258	3.22539							0.792088	2.69578						
0.666874	2.26099	0.636611	2.15812	0.949766	3.22031							0.793752	2.6929						
0.668787	2.26033	0.638672	2.15829	0.951276	3.21527							0.795418	2.69005						
0.670701	2.25968	0.640733	2.15845	0.952786	3.21027							0.797086	2.68723						
0.672615	2.25904	0.642794	2.15862	0.954298	3.2053							0.798756	2.68443						
0.674531	2.25841	0.644855	2.15879	0.95581	3.20036							0.800427	2.68165						
0.676447	2.25778	0.646915	2.15895	0.957323	3.19546							0.8021	2.67889						
0.678364	2.25716	0.648976	2.15912	0.958837	3.19059							0.803775	2.67615						
0.680282	2.25655	0.651037	2.15928	0.960352	3.18576							0.805452	2.67344						
0.6822	2.25594	0.653097	2.15944	0.961868	3.18095							0.80713	2.67075						
0.68412	2.25534	0.655158	2.1596	0.963385	3.17618							0.808809	2.66809						
0.68604	2.25474	0.657218	2.15976	0.964903	3.17145							0.810491	2.66544						
0.687961	2.25416	0.659279	2.15992	0.966421	3.16674							0.812174	2.66282						
0.689883	2.25357	0.661339	2.16007	0.967941	3.16207							0.813859	2.66021						
0.691806	2.253	0.663399	2.16023	0.969462	3.15742							0.815545	2.65763						
0.693729	2.25243	0.66546	2.16038	0.970984	3.15281							0.817233	2.65507						
0.695654	2.25186	0.66752	2.16054	0.972506	3.14823							0.818923	2.65253						
0.697579	2.2513	0.66958	2.16069	0.97403	3.14368							0.820614	2.65001						
0.699504	2.25075	0.67164	2.16084	0.975555	3.13917							0.822307	2.64752						
0.701431	2.2502	0.673701	2.16099	0.977081	3.13468							0.824001	2.64504						
0.703358	2.24966	0.675761	2.16114	0.978607	3.13022							0.825697	2.64258						
0.705286	2.24913	0.677821	2.16129	0.980135	3.12579							0.827395	2.64014						
0.707215	2.2486	0.679881	2.16144	0.981664	3.12139							0.829094	2.63772						
0.709144	2.24807	0.681941	2.16158	0.983194	3.11702							0.830795	2.63532						
0.711075	2.24755	0.684001	2.16173	0.984725	3.11268							0.832498	2.63294						
0.713006	2.24704	0.686061	2.16187	0.986257	3.10837							0.834202	2.63058						
0.714937	2.24653	0.68812	2.16202	0.98779	3.10409							0.835907	2.62823						
0.71687	2.24603	0.69018	2.16216	0.989325	3.09983							0.837614	2.62591						
0.718802	2.24553	0.69224	2.1623	0.99086	3.09561							0.839323	2.6236						
0.720736	2.24503	0.6943	2.16244	0.992396	3.09141							0.841033	2.62131						
0.722671	2.24455	0.696359	2.16258	0.993934	3.08724							0.842745	2.61904						
0.724606	2.24406	0.698419	2.16272	0.995472	3.0831							0.844458	2.61679						
0.726541	2.24358	0.700479	2.16286	0.997012	3.07898							0.846173	2.61455						
0.728478	2.24311	0.702538	2.16299	0.998553	3.07489							0.847889	2.61234						
0.730415	2.24264	0.704598	2.16313	1.00009	3.07083							0.849607	2.61014						
0.732353	2.24218	0.706657	2.16326									0.851326	2.60795						
0.734291	2.24172	0.708717	2.1634									0.853047	2.60579						
0.73623	2.24126	0.710776	2.16353									0.854769	2.60364						
0.73817	2.24081	0.712835	2.16366									0.856493	2.60151						
0.74011	2.24036	0.714895	2.1638									0.858218	2.59939						
0.742051	2.23992	0.716954	2.16393									0.859945	2.59729						
0.743993	2.23948	0.719013	2.16406									0.861673	2.59521						
0.745935	2.23905	0.721072	2.16418									0.863402	2.59314						
0.747878	2.23862	0.723132	2.16431									0.865134	2.59109						
0.749821	2.2382	0.725191	2.16444									0.866866	2.58905						
0.751765	2.23778	0.72725	2.16457									0.8686	2.58703						
0.75371	2.23736	0.729309	2.16469									0.870335	2.58503						
0.755655	2.23695	0.731368	2.16482									0.872072	2.58304						
0.757601	2.23654	0.733427	2.16494									0.87381	2.58106						
0.761494	2.23573	0.735486	2.16506									0.87555	2.5791						
0.763442	2.23534	0.737544	2.16519									0.87729	2.57716						
0.76539	2.23495	0.739603	2.16531									0.879033	2.57523						
0.767339	2.23456	0.741662	2.16543									0.880776	2.57331						
0.769288	2.23417	0.743721	2.16555									0.882522	2.57141						
0.771238	2.23379	0.745779	2.16567									0.884268	2.56953						
0.773188	2.23341	0.747838	2.16579									0.886016	2.56765						
0.775139	2.23304	0.749897	2.1659									0.887765	2.56579						
0.77709	2.23267	0.751955	2.16602									0.889516	2.56395						
0.779043	2.2323	0.754014	2.16614									0.891267	2.56212						
0.780995	2.23194	0.756072	2.16625									0.893021	2.5603						
0.782948	2.23158	0.758131	2.16637									0.894775	2.5585						
0.784902	2.23122	0.760189	2.16648									0.896531	2.55671						
0.786856	2.23087	0.762248	2.1666									0.898288	2.55493						
0.788811	2.23052	0.764306	2.16671									0.900047	2.55316						
0.790766	2.23017	0.766364	2.16682									0.901806	2.55141						
0.792722	2.22983	0.768422	2.16693									0.903568	2.54968						
0.794678	2.22948	0.770481	2.16704									0.90533	2.54795						
0.796635	2.22915	0.772539	2.16715									0.907094	2.54624						
0.798592	2.22881	0.774597	2.16726									0.908859	2.54454						
0.800549	2.22848	0.776655	2.16737									0.910625	2.54285						
0.802508	2.22816	0.778713	2.16748									0.912392	2.54117						
0.804466	2.22783	0.780771	2.16758									0.914161	2.53951						
0.806426	2.22751	0.782829	2.16769									0.915931	2.53786						
0.808385	2.22719	0.784887	2.1678									0.917703	2.53622						
0.810346	2.22687	0.786945	2.1679									0.919475	2.53459						
0.812306	2.22656	0.789003	2.16801									0.921249	2.53297						
0.814267	2.22625	0.791061	2.16811									0.923024	2.53137						
0.816229	2.22594	0.793118	2.16821									0.9248	2.52978						
0.818191	2.22564	0.795176	2.16832									0.926578	2.5282						
0.820153	2.22534	0.797234	2.16842									0.928356	2.52663						
0.822116	2.22504	0.799291	2.16852									0.930136	2.52507						
0.82408	2.22474	0.801349	2.16862									0.931917	2.52352						
0.826044	2.22445	0.803407	2.16872									0.9337	2.52198						
0.828008	2.22416	0.805464	2.16882									0.935483	2.52046						
0.829973	2.22387	0.807522	2.16892									0.937268	2.51894						
0.831938	2.22359	0.809579	2.16902									0.939054	2.51744						
0.833904	2.2233	0.811636	2.16911									0.940841	2.51595						
0.83587	2.22302	0.813694	2.16921									0.942629	2.51446						
0.837836	2.22275	0.815751	2.16931									0.944418	2.51299						
0.839803	2.22247	0.817808	2.1694									0.946209	2.51153						
0.841771	2.2222	0.819866	2.1695									0.948	2.51008						
0.843738	2.22193	0.821923	2.16959									0.949793	2.50864						
0.845707	2.22166	0.82398	2.16969									0.951587	2.5072						
0.847675	2.2214	0.826037	2.16978									0.953382	2.50578						
0.849644	2.22113	0.828094	2.16987									0.955179	2.50437						
0.851614	2.22087	0.830151	2.16997									0.956976	2.50297						
0.853584	2.22061	0.832208	2.17006									0.958775	2.50158						
0.855554	2.22036	0.834265	2.17015									0.960574	2.5002						
0.857525	2.2201	0.836322	2.17024									0.962375	2.49882						
0.859496	2.21985	0.838379	2.17033									0.964177	2.49746						
0.861467	2.2196	0.840436	2.17042									0.96598	2.49611						
0.863439	2.21936	0.842493	2.17051									0.967784	2.49476						
0.865411	2.21911	0.84455	2.1706									0.969589	2.49343						
0.867384	2.21887	0.846607	2.17069									0.971395	2.4921						
0.869357	2.21863	0.848663	2.17078									0.973202	2.49078						
0.87133	2.21839	0.85072	2.17086									0.975011	2.48947						
0.873304	2.21815	0.852777	2.17095									0.97682	2.48818						
0.875278	2.21792	0.854833	2.17104									0.978631	2.48689						
0.877253	2.21769	0.85689	2.17112									0.980442	2.4856						
0.879228	2.21746	0.858946	2.17121									0.982255	2.48433						
0.881203	2.21723	0.861003	2.17129									0.984068	2.48307						
0.883179	2.217	0.863059	2.17138									0.985883	2.48181						
0.885155	2.21678	0.865116	2.17146									0.987699	2.48056						
0.887131	2.21655	0.867172	2.17154									0.989516	2.47933						
0.889108	2.21633	0.869228	2.17162									0.991333	2.4781						
0.891085	2.21612	0.871284	2.17171									0.993152	2.47687						
0.893062	2.2159	0.873341	2.17179									0.994972	2.47566						
0.89504	2.21568	0.875397	2.17187									0.996793	2.47445						
0.897018	2.21547	0.877453	2.17195									0.998615	2.47326						
0.898997	2.21526	0.879509	2.17203									1.00044	2.47207						
0.900976	2.21505	0.881565	2.17211																
0.902955	2.21484	0.883621	2.17219																
0.904934	2.21464	0.885677	2.17227																
0.906914	2.21443	0.887733	2.17235																
0.908894	2.21423	0.889789	2.17243																
0.910875	2.21403	0.891845	2.1725																
0.912855	2.21383	0.893901	2.17258																
0.914837	2.21363	0.895957	2.17266																
0.916818	2.21344	0.898013	2.17273																
0.9188	2.21325	0.900068	2.17281																
0.920782	2.21305	0.902124	2.17288																
0.922764	2.21286	0.90418	2.17296																
0.924747	2.21267	0.906235	2.17303																
0.92673	2.21249	0.908291	2.17311																
0.928714	2.2123	0.910347	2.17318																
0.930697	2.21212	0.912402	2.17326																
0.932681	2.21193	0.914457	2.17333																
0.934666	2.21175	0.916513	2.1734																
0.93665	2.21157	0.918568	2.17347																
0.938635	2.2114	0.920624	2.17354																
0.94062	2.21122	0.922679	2.17362																
0.942606	2.21104	0.924734	2.17369																
0.944592	2.21087	0.92679	2.17376																
0.946578	2.2107	0.928845	2.17383																
0.948564	2.21053	0.9309	2.1739																
0.950551	2.21036	0.932955	2.17397																
0.952538	2.21019	0.93501	2.17403																
0.954525	2.21002	0.937065	2.1741																
0.956513	2.20986	0.93912	2.17417																
0.9585	2.20969	0.941175	2.17424																
0.960488	2.20953	0.94323	2.17431																
0.962477	2.20937	0.945285	2.17437																
0.964465	2.20921	0.94734	2.17444																
0.966454	2.20905	0.949395	2.17451																
0.968444	2.20889	0.951449	2.17457																
0.970433	2.20874	0.953504	2.17464																
0.972423	2.20858	0.955559	2.1747																
0.974413	2.20843	0.957614	2.17477																
0.976403	2.20828	0.959668	2.17483																
0.978394	2.20813	0.961723	2.1749																
0.980384	2.20798	0.963777	2.17496																
0.982375	2.20783	0.965832	2.17502																
0.984367	2.20768	0.967886	2.17509																
0.986358	2.20753	0.969941	2.17515																
0.98835	2.20739	0.971995	2.17521																
0.990342	2.20725	0.97405	2.17527																
0.992334	2.2071	0.976104	2.17533																
0.994327	2.20696	0.978158	2.1754																
0.99632	2.20682	0.980213	2.17546																
0.998313	2.20668	0.982267	2.17552																
1.00031	2.20654	0.984321	2.17558																
		0.986375	2.17564																
		0.988429	2.1757																
		0.990483	2.17576																
		0.992537	2.17582																
		0.994591	2.17587																
		0.996645	2.17593																
		0.998699	2.17599																
		1.00075	2.17605																
