Minima		Zeros		Sym0		Asym0		Sym1		Sym2		Sym3		Asym1		Asym2	
8  Points		7  Points		481  Points		493  Points		481  Points		280  Points		143  Points		413  Points		163  Points	
Freq (MHz)	Vph (m/ms)	Freq (MHz)	Vph (m/ms)	Freq (MHz)	Vph (m/ms)	Freq (MHz)	Vph (m/ms)	Freq (MHz)	Vph (m/ms)	Freq (MHz)	Vph (m/ms)	Freq (MHz)	Vph (m/ms)	Freq (MHz)	Vph (m/ms)	Freq (MHz)	Vph (m/ms)
0.330246	3.72381	0.331735	3.72381	0.00221896	7.5421	0.000237818	0.161064	0.00200141	7.54221	0.27953	422.411	0.335232	788.213	0.139813	265.705	0.419288	618.055
0.0343535	1.56306	0.0347834	1.56306	0.0092455	7.54178	0.000629218	0.261278	0.00902797	7.5418	0.279635	175.491	0.335329	247.111	0.140205	96.1695	0.419402	260.483
0.214199	7.1027	0.215632	7.1027	0.0162703	7.54091	0.00120074	0.35951	0.0160528	7.54094	0.279826	110.816	0.335529	146.603	0.14096	58.9894	0.41961	165.085
0.582233	7.72644	0.583167	7.72644	0.0232918	7.53951	0.00194403	0.455102	0.0230744	7.53957	0.280102	81.0283	0.335832	104.283	0.142072	42.7764	0.419911	120.89
0.86406	8.20407	0.861876	8.20407	0.0303087	7.53763	0.00284892	0.547519	0.0300915	7.53769	0.280461	63.9076	0.336239	80.9806	0.14353	33.7482	0.420304	95.4114
0.423083	7.45671	0.422851	7.45671	0.0373196	7.53522	0.00390383	0.636319	0.0371026	7.5353	0.280901	52.7986	0.336751	66.2402	0.145321	28.029	0.42079	78.8458
0.744698	8.00178	0.745731	8.00178	0.0443228	7.53229	0.00509623	0.72116	0.0441061	7.53239	0.28142	45.0133	0.33737	56.0837	0.14743	24.1042	0.421368	67.2191
0.857429	8.19283			0.0513169	7.52881	0.00641335	0.801828	0.0511005	7.52892	0.282015	39.258	0.338098	48.6671	0.149839	21.2597	0.422037	58.614
				0.0583002	7.52478	0.00784233	0.878191	0.0580842	7.52491	0.282683	34.8333	0.338938	43.0186	0.152533	19.115	0.422796	51.9919
				0.0652709	7.52015	0.00937085	0.950217	0.0650553	7.52031	0.283421	31.3275	0.339891	38.5777	0.155492	17.4486	0.423645	46.7411
				0.0722272	7.51493	0.0109872	1.01795	0.072012	7.5151	0.284225	28.4831	0.340961	34.9981	0.158699	16.1228	0.424583	42.478
				0.079167	7.50906	0.0126804	1.08147	0.0789524	7.50926	0.285092	26.1303	0.342149	32.0545	0.162137	15.0478	0.425608	38.95
				0.0860881	7.50252	0.0144406	1.14093	0.085874	7.50273	0.286019	24.1528	0.343457	29.594	0.165789	14.1621	0.426721	35.9837
				0.0929882	7.49527	0.0162585	1.19648	0.0927749	7.49551	0.287003	22.4682	0.34489	27.509	0.169639	13.4227	0.427919	33.4562
				0.0998647	7.48727	0.0181262	1.24834	0.0996522	7.48753	0.288042	21.0165	0.346448	25.7218	0.173671	12.7982	0.429202	31.2781
				0.106715	7.47845	0.0200365	1.2967	0.106503	7.47874	0.289131	19.7532	0.348133	24.1747	0.177872	12.2656	0.430568	29.3827
				0.113535	7.46878	0.021983	1.34176	0.113325	7.46909	0.290271	18.6443	0.349948	22.824	0.182227	11.8074	0.432017	27.7191
				0.120323	7.45818	0.0239602	1.38376	0.120113	7.45853	0.29146	17.6636	0.351893	21.6362	0.186725	11.41	0.433546	26.2481
				0.127074	7.44659	0.0259634	1.42288	0.126865	7.44696	0.292698	16.7906	0.35397	20.5847	0.191355	11.0631	0.435154	24.9388
				0.133784	7.43392	0.0279882	1.45934	0.133577	7.43433	0.293984	16.0088	0.356179	19.6485	0.196104	10.7582	0.43684	23.7664
				0.140448	7.42008	0.0297677	1.48908	0.140242	7.42052	0.295321	15.3051	0.358519	18.8108	0.200964	10.4887	0.438603	22.7111
				0.147061	7.40497	0.0312939	1.51304	0.146857	7.40546	0.296711	14.6688	0.360991	18.0578	0.205925	10.2492	0.44044	21.7566
				0.153618	7.38849	0.0325617	1.53195	0.153416	7.38902	0.298157	14.0913	0.363594	17.3781	0.210979	10.0354	0.44235	20.8895
				0.160111	7.37051	0.0335673	1.54634	0.159911	7.37109	0.299665	13.5652	0.366326	16.7622	0.216118	9.84359	0.444332	20.0988
				0.166533	7.35088	0.0343084	1.55661	0.166336	7.35151	0.30124	13.0846	0.369186	16.2023	0.221334	9.67077	0.446383	19.375
				0.172877	7.32946	0.0347834	1.56306	0.172682	7.33015	0.30289	12.6446	0.37217	15.6917	0.22662	9.51444	0.448503	18.7104
				0.179133	7.30608	0.0354669	1.57215	0.17894	7.30684	0.304622	12.2408	0.375278	15.2247	0.231971	9.37246	0.450689	18.0982
				0.18529	7.28056	0.0362112	1.58181	0.185101	7.28139	0.306446	11.8697	0.378507	14.7964	0.23738	9.24306	0.45294	17.5326
				0.191339	7.25271	0.0372249	1.59457	0.191153	7.25361	0.308375	11.5284	0.381852	14.4026	0.242841	9.12469	0.455254	17.0087
				0.197266	7.22233	0.0385096	1.61013	0.197084	7.22331	0.310418	11.2142	0.385312	14.0397	0.24835	9.01605	0.457629	16.5224
				0.203059	7.18919	0.0400664	1.62811	0.202145	7.19467	0.312592	10.925	0.388883	13.7046	0.253902	8.91601	0.460064	16.0697
				0.208704	7.1531	0.0418966	1.64811	0.206371	7.16851	0.314908	10.6588	0.392562	13.3944	0.259491	8.8236	0.462556	15.6475
				0.214186	7.11383	0.044001	1.66969	0.209801	7.14559	0.317382	10.4142	0.396346	13.1069	0.265113	8.73795	0.465105	15.253
				0.219491	7.07121	0.046109	1.68994	0.212469	7.12662	0.32003	10.1895	0.40023	12.8397	0.270765	8.65835	0.467709	14.8837
				0.224604	7.02507	0.0482197	1.70894	0.214405	7.11217	0.322865	9.98365	0.404212	12.5911	0.276442	8.58413	0.470365	14.5372
				0.229512	6.9753	0.0503324	1.72679	0.215632	7.1027	0.325901	9.79533	0.408288	12.3594	0.28214	8.51472	0.473074	14.2117
				0.234201	6.92182	0.0524464	1.74359	0.217379	7.08877	0.32915	9.6235	0.412455	12.1431	0.287855	8.44963	0.475832	13.9053
				0.238663	6.86465	0.0545613	1.7594	0.219255	7.07321	0.332622	9.46711	0.41671	11.9408	0.293585	8.38839	0.478638	13.6166
				0.242889	6.80388	0.0566768	1.77431	0.221768	7.05133	0.336322	9.32513	0.42105	11.7514	0.299324	8.33062	0.481492	13.3441
				0.246876	6.73966	0.0587924	1.78838	0.224879	7.02244	0.340253	9.19656	0.425471	11.5738	0.305071	8.27595	0.484391	13.0865
				0.250624	6.67226	0.0609079	1.80167	0.228536	6.98567	0.344414	9.08036	0.429971	11.4071	0.310821	8.22408	0.487335	12.8428
				0.254135	6.602	0.0630231	1.81424	0.232674	6.93993	0.348801	8.97554	0.434546	11.2504	0.316571	8.1747	0.490323	12.6119
				0.257419	6.52926	0.0651379	1.82614	0.237212	6.88398	0.353404	8.88108	0.439194	11.103	0.322318	8.12756	0.493353	12.3928
				0.260483	6.45445	0.0672519	1.83741	0.241517	6.82438	0.358214	8.796	0.443912	10.964	0.328058	8.08243	0.496424	12.1848
				0.263341	6.37802	0.0693653	1.84811	0.245583	6.76128	0.363216	8.71935	0.448698	10.8329	0.333789	8.03909	0.499536	11.9871
				0.266006	6.30041	0.0714778	1.85826	0.24941	6.6949	0.368397	8.65025	0.45355	10.7092	0.339507	7.99734	0.502689	11.7989
				0.268495	6.22205	0.0735895	1.86792	0.252999	6.62555	0.37374	8.58784	0.458464	10.5922	0.345208	7.95701	0.50588	11.6197
				0.270821	6.14332	0.0757002	1.8771	0.256357	6.55358	0.379231	8.53137	0.463439	10.4815	0.35089	7.91793	0.509111	11.4489
				0.273001	6.06459	0.0778099	1.88585	0.259492	6.47941	0.384854	8.48012	0.468473	10.3767	0.356548	7.87995	0.512381	11.286
				0.275048	5.98618	0.0799188	1.89419	0.262417	6.40347	0.390594	8.43346	0.473564	10.2774	0.36218	7.84292	0.51569	11.1304
				0.276978	5.90836	0.0820266	1.90214	0.265145	6.3262	0.396438	8.39084	0.478709	10.1831	0.367782	7.80672	0.519037	10.9819
				0.278801	5.83136	0.0841336	1.90974	0.26769	6.24804	0.402372	8.35175	0.483907	10.0937	0.37335	7.77122	0.522424	10.8398
				0.28053	5.75537	0.0862394	1.917	0.270068	6.16939	0.408385	8.31574	0.489157	10.0087	0.378881	7.73632	0.525851	10.704
				0.282176	5.68056	0.0883445	1.92394	0.272295	6.09062	0.414466	8.28244	0.494457	9.92783	0.384371	7.70189	0.529318	10.574
				0.283749	5.60705	0.0904485	1.93059	0.274385	6.01208	0.420605	8.25149	0.499805	9.85092	0.389816	7.66785	0.532826	10.4496
				0.285256	5.53493	0.0925516	1.93697	0.276351	5.93403	0.426793	8.22259	0.505199	9.7777	0.395213	7.6341	0.536376	10.3305
				0.286705	5.46427	0.0946539	1.94307	0.278208	5.85674	0.433022	8.19549	0.51064	9.70794	0.400558	7.60055	0.53997	10.2164
				0.288104	5.39513	0.0967553	1.94894	0.279968	5.7804	0.439284	8.16994	0.516124	9.64143	0.405846	7.56712	0.543609	10.1071
				0.289459	5.32754	0.0988559	1.95457	0.28164	5.70518	0.445573	8.14575	0.521652	9.578	0.410406	7.53802	0.547293	10.0023
				0.290774	5.26152	0.100956	1.95998	0.283236	5.63123	0.451882	8.12273	0.527223	9.51746	0.414255	7.51321	0.551025	9.90191
				0.292054	5.19707	0.103055	1.96518	0.284764	5.55864	0.458205	8.10073	0.532834	9.45965	0.41741	7.49266	0.554807	9.8057
				0.293304	5.1342	0.105153	1.97019	0.286232	5.48749	0.464538	8.0796	0.538486	9.40443	0.419887	7.47639	0.55864	9.71349
				0.294528	5.07289	0.10725	1.97501	0.287647	5.41784	0.470875	8.05922	0.544177	9.35166	0.421697	7.4644	0.562526	9.62512
				0.295729	5.01312	0.109347	1.97966	0.289015	5.34973	0.477212	8.03948	0.549907	9.3012	0.422851	7.45671	0.566466	9.54045
				0.29691	4.95488	0.111443	1.98414	0.290342	5.28319	0.483544	8.02027	0.555674	9.25294	0.424503	7.44565	0.570463	9.45934
				0.298074	4.89814	0.113539	1.98846	0.291634	5.21822	0.489867	8.0015	0.561479	9.20677	0.42629	7.4336	0.574518	9.38164
				0.299222	4.84287	0.115634	1.99264	0.292894	5.15483	0.496178	7.98309	0.567321	9.16258	0.428704	7.41718	0.578633	9.30723
				0.300358	4.78904	0.117728	1.99667	0.294126	5.09301	0.502473	7.96498	0.573199	9.12027	0.431731	7.39632	0.582809	9.23599
				0.301483	4.73661	0.119822	2.00057	0.295334	5.03273	0.508748	7.94708	0.579112	9.07975	0.435353	7.37095	0.587048	9.1678
				0.302598	4.68555	0.121915	2.00434	0.296521	4.97399	0.515001	7.92935	0.58506	9.04095	0.439543	7.34099	0.591349	9.10254
				0.303706	4.63583	0.124007	2.00798	0.29769	4.91676	0.521227	7.91172	0.591042	9.00376	0.444272	7.30628	0.595716	9.04009
				0.304808	4.58741	0.1261	2.01151	0.298843	4.861	0.527425	7.89415	0.597059	8.96813	0.448914	7.2712	0.600146	8.98036
				0.305905	4.54025	0.128191	2.01493	0.299983	4.8067	0.53359	7.87659	0.603109	8.93397	0.453465	7.23572	0.604642	8.92323
				0.306998	4.49432	0.130282	2.01824	0.301112	4.75381	0.53972	7.85899	0.609191	8.90122	0.457922	7.19982	0.609202	8.86858
				0.308088	4.44959	0.132373	2.02145	0.30223	4.7023	0.545813	7.84133	0.615306	8.86982	0.462285	7.16347	0.613826	8.81632
				0.309176	4.40601	0.134463	2.02457	0.30334	4.65214	0.551865	7.82356	0.621452	8.8397	0.46655	7.12667	0.618514	8.76634
				0.310263	4.36357	0.136553	2.02759	0.304444	4.60329	0.557874	7.80565	0.62763	8.8108	0.470716	7.08941	0.623263	8.71853
				0.31135	4.32221	0.138642	2.03053	0.305542	4.55572	0.563838	7.78757	0.633838	8.78307	0.474782	7.0517	0.628074	8.67279
				0.312436	4.28192	0.140732	2.03338	0.306636	4.50939	0.568996	7.77167	0.640075	8.75646	0.478748	7.01355	0.632943	8.62901
				0.313524	4.24266	0.14282	2.03614	0.307727	4.46426	0.573363	7.75798	0.646342	8.7309	0.482612	6.97496	0.63787	8.5871
				0.314614	4.20439	0.144909	2.03884	0.308816	4.42031	0.576953	7.74657	0.652637	8.70636	0.486376	6.93596	0.642851	8.54696
				0.315705	4.16709	0.146997	2.04145	0.309903	4.37749	0.579778	7.73748	0.658959	8.68278	0.490039	6.89657	0.647884	8.50848
				0.316799	4.13073	0.149084	2.044	0.31099	4.33578	0.581847	7.73075	0.665307	8.66011	0.493603	6.85682	0.652967	8.47158
				0.317895	4.09528	0.151172	2.04648	0.312077	4.29514	0.583167	7.72644	0.67168	8.63831	0.497069	6.81673	0.658097	8.43616
				0.318995	4.06071	0.153259	2.04889	0.313164	4.25554	0.58506	7.7202	0.678078	8.61733	0.500437	6.77635	0.663272	8.40214
				0.320099	4.027	0.155345	2.05123	0.314253	4.21695	0.587111	7.7134	0.684498	8.59713	0.503711	6.7357	0.668487	8.36942
				0.321206	3.99411	0.157432	2.05352	0.315344	4.17933	0.589888	7.70408	0.69094	8.57767	0.506892	6.69482	0.67374	8.33793
				0.322318	3.96203	0.159518	2.05575	0.316437	4.14266	0.593381	7.69221	0.697403	8.5589	0.509982	6.65376	0.679028	8.30758
				0.323434	3.93073	0.161604	2.05792	0.317532	4.10691	0.597576	7.6777	0.703884	8.54078	0.512984	6.61255	0.684347	8.27831
				0.324555	3.90019	0.16369	2.06004	0.318631	4.07205	0.602455	7.66047	0.710383	8.52328	0.515901	6.57123	0.689696	8.25002
				0.325681	3.87039	0.165775	2.06211	0.319733	4.03806	0.607996	7.64041	0.716897	8.50635	0.518735	6.52984	0.695069	8.22266
				0.326811	3.84129	0.16786	2.06412	0.320839	4.0049	0.613474	7.62003	0.723425	8.48996	0.52149	6.48841	0.700466	8.19616
				0.327947	3.81289	0.169945	2.06609	0.32195	3.97256	0.618887	7.59932	0.729966	8.47406	0.524167	6.44699	0.705882	8.17046
				0.328941	3.78869	0.17203	2.06801	0.323064	3.94101	0.624234	7.57828	0.736517	8.45862	0.526771	6.40561	0.711314	8.1455
				0.329792	3.76844	0.174115	2.06989	0.324183	3.91022	0.629513	7.5569	0.743076	8.4436	0.529304	6.36431	0.71676	8.12121
				0.330498	3.75197	0.176199	2.07172	0.325307	3.88017	0.634724	7.53518	0.749642	8.42898	0.531768	6.32311	0.722216	8.09755
				0.331058	3.73912	0.178283	2.07351	0.326436	3.85084	0.639865	7.51311	0.756212	8.4147	0.534168	6.28204	0.72768	8.07446
				0.33147	3.72976	0.180367	2.07526	0.327571	3.82221	0.644935	7.49069	0.762785	8.40074	0.536505	6.24114	0.732445	8.05478
				0.331735	3.72381	0.182451	2.07697	0.32871	3.79426	0.649934	7.46794	0.769357	8.38706	0.538783	6.20044	0.73651	8.03829
				0.332115	3.71532	0.184534	2.07864	0.329855	3.76697	0.654859	7.44484	0.775926	8.37363	0.541003	6.15995	0.73987	8.02485
				0.33253	3.70615	0.186618	2.08028	0.331006	3.74031	0.659712	7.42139	0.782491	8.36041	0.54317	6.11969	0.742528	8.01433
				0.333094	3.69382	0.188701	2.08188	0.332162	3.71427	0.664491	7.39762	0.789049	8.34738	0.545285	6.0797	0.744481	8.00666
				0.33381	3.67841	0.190784	2.08345	0.333324	3.68884	0.669195	7.37351	0.795597	8.33451	0.54735	6.03999	0.745731	8.00178
				0.334679	3.66008	0.192867	2.08498	0.334493	3.66399	0.673825	7.34908	0.802133	8.32175	0.549369	6.00057	0.747528	7.99479
				0.335703	3.63896	0.19495	2.08648	0.335667	3.6397	0.67838	7.32433	0.808653	8.30909	0.551343	5.96147	0.74948	7.98725
				0.336884	3.61524	0.197033	2.08795	0.336847	3.61597	0.68286	7.29927	0.815157	8.29648	0.553275	5.92269	0.752134	7.97706
				0.33807	3.59206	0.199115	2.08939	0.338033	3.59277	0.687265	7.27392	0.82164	8.28392	0.555166	5.88425	0.755488	7.96429
				0.339263	3.5694	0.201197	2.0908	0.339226	3.57009	0.691595	7.24828	0.828102	8.27136	0.557019	5.84616	0.75954	7.94901
				0.340462	3.54724	0.20328	2.09218	0.340425	3.54792	0.695851	7.22235	0.834538	8.2588	0.558836	5.80843	0.764286	7.93128
				0.341667	3.52558	0.205362	2.09353	0.34163	3.52624	0.700032	7.19617	0.840947	8.24619	0.560618	5.77106	0.769721	7.91119
				0.342879	3.50439	0.207444	2.09486	0.342841	3.50504	0.70414	7.16972	0.846508	8.23515	0.562367	5.73407	0.775141	7.89134
				0.344097	3.48366	0.209525	2.09616	0.344059	3.4843	0.708175	7.14304	0.851229	8.2257	0.564085	5.69747	0.780545	7.87168
				0.345321	3.46339	0.211607	2.09744	0.345283	3.46401	0.712137	7.11613	0.85512	8.21785	0.565774	5.66125	0.785929	7.85221
				0.346551	3.44355	0.213689	2.09869	0.346513	3.44416	0.716027	7.089	0.858188	8.21162	0.567434	5.62542	0.791293	7.83288
				0.347788	3.42414	0.21577	2.09992	0.34775	3.42474	0.719846	7.06167	0.860438	8.20702	0.569068	5.58998	0.796633	7.81368
				0.349031	3.40515	0.217852	2.10112	0.348993	3.40573	0.723595	7.03416	0.861876	8.20407	0.570677	5.55494	0.801948	7.79458
				0.350281	3.38656	0.219933	2.1023	0.350242	3.38713	0.727274	7.00647	0.863939	8.19982	0.572261	5.5203	0.807235	7.77555
				0.351537	3.36836	0.222014	2.10346	0.351498	3.36892	0.730886	6.97863	0.866178	8.19518	0.573823	5.48606	0.812493	7.75659
				0.3528	3.35054	0.224095	2.1046	0.35276	3.35109	0.734431	6.95064	0.869215	8.18885	0.575363	5.45222	0.81772	7.73767
				0.354068	3.3331	0.226176	2.10572	0.354029	3.33364	0.73791	6.92252	0.873043	8.18081	0.576883	5.41878	0.822914	7.71877
				0.355343	3.31602	0.228257	2.10682	0.355304	3.31654	0.741324	6.89429	0.877653	8.17102	0.578383	5.38574	0.828074	7.69987
				0.356625	3.29929	0.230338	2.1079	0.356585	3.2998	0.744675	6.86596	0.883034	8.15943	0.579865	5.3531	0.833197	7.68097
				0.357913	3.28291	0.232418	2.10896	0.357873	3.28341	0.747963	6.83755	0.889171	8.14601	0.58133	5.32085	0.838282	7.66204
				0.359206	3.26686	0.234499	2.11	0.359166	3.26735	0.751191	6.80906	0.895268	8.13246	0.582778	5.28901	0.843327	7.64306
				0.360507	3.25114	0.236579	2.11102	0.360466	3.25162	0.754359	6.78051	0.901324	8.11876	0.584211	5.25755	0.848332	7.62404
				0.361813	3.23573	0.23866	2.11202	0.361773	3.2362	0.757469	6.75192	0.90734	8.10493	0.585629	5.22649	0.853294	7.60496
				0.363126	3.22063	0.24074	2.11301	0.363085	3.2211	0.760521	6.7233	0.913315	8.09096	0.587032	5.19582	0.858212	7.5858
				0.364445	3.20584	0.24282	2.11398	0.364404	3.20629	0.763519	6.69465	0.91925	8.07687	0.588423	5.16553	0.863085	7.56656
				0.36577	3.19134	0.2449	2.11494	0.365728	3.19178	0.766462	6.666	0.925144	8.06266	0.589801	5.13562	0.867912	7.54723
				0.367101	3.17713	0.24698	2.11588	0.367059	3.17756	0.769352	6.63736	0.930999	8.04833	0.591168	5.1061	0.872691	7.52781
				0.368438	3.16319	0.24906	2.1168	0.368396	3.16362	0.772191	6.60872	0.936814	8.0339	0.592523	5.07694	0.877423	7.50828
				0.369781	3.14953	0.25114	2.11771	0.369739	3.14995	0.774979	6.58012	0.942591	8.01936	0.593868	5.04817	0.882105	7.48864
				0.37113	3.13613	0.25322	2.1186	0.371088	3.13655	0.777718	6.55155	0.94833	8.00474	0.595202	5.01976	0.886738	7.46889
				0.372485	3.123	0.2553	2.11948	0.372443	3.1234	0.78041	6.52303	0.954031	7.99002	0.596528	4.99171	0.891319	7.44902
				0.373846	3.11011	0.25738	2.12035	0.373804	3.11051	0.783056	6.49457	0.959695	7.97523	0.597844	4.96403	0.89585	7.42904
				0.375213	3.09748	0.259459	2.1212	0.375171	3.09786	0.785656	6.46617	0.965323	7.96036	0.599153	4.9367	0.900329	7.40894
				0.376586	3.08508	0.261539	2.12204	0.376543	3.08546	0.788213	6.43784	0.970914	7.94543	0.600453	4.90973	0.904755	7.38872
				0.377964	3.07292	0.263618	2.12286	0.377922	3.07329	0.790727	6.4096	0.97647	7.93043	0.601746	4.8831	0.909129	7.36837
				0.379349	3.06099	0.265698	2.12367	0.379306	3.06135	0.793199	6.38145	0.981991	7.91537	0.603032	4.85682	0.91345	7.34791
				0.380739	3.04928	0.267777	2.12447	0.380696	3.04964	0.795632	6.35339	0.987476	7.90026	0.604312	4.83087	0.917718	7.32732
				0.382134	3.03779	0.269857	2.12526	0.382091	3.03814	0.798025	6.32544	0.992927	7.88509	0.605586	4.80526	0.921933	7.30662
				0.383536	3.02651	0.271936	2.12603	0.383492	3.02686	0.80038	6.29761	0.998342	7.86986	0.606854	4.77999	0.926095	7.28581
				0.384943	3.01545	0.274015	2.1268	0.384899	3.01579	0.802699	6.26988	1.00372	7.85459	0.608116	4.75504	0.930203	7.26488
				0.386355	3.00458	0.276094	2.12755	0.386311	3.00492	0.804981	6.24229			0.609374	4.73041	0.934259	7.24385
				0.387773	2.99392	0.278173	2.12829	0.387729	2.99424	0.807229	6.21482			0.610627	4.7061	0.938262	7.22271
				0.389196	2.98345	0.280252	2.12902	0.389152	2.98377	0.809444	6.18748			0.611876	4.6821	0.942212	7.20147
				0.390625	2.97316	0.282331	2.12974	0.390581	2.97348	0.811625	6.16029			0.613121	4.65842	0.946111	7.18013
				0.392059	2.96307	0.28441	2.13045	0.392015	2.96338	0.813775	6.13323			0.614362	4.63504	0.949957	7.1587
				0.393499	2.95315	0.286489	2.13115	0.393454	2.95346	0.815894	6.10633			0.6156	4.61196	0.953752	7.13719
				0.394944	2.94341	0.288568	2.13184	0.394899	2.94371	0.817984	6.07957			0.616834	4.58917	0.957496	7.1156
				0.396394	2.93385	0.290647	2.13252	0.396349	2.93414	0.820044	6.05297			0.618066	4.56668	0.96119	7.09393
				0.397849	2.92445	0.292725	2.13319	0.397804	2.92474	0.822077	6.02653			0.619295	4.54448	0.964834	7.0722
				0.399309	2.91522	0.294804	2.13385	0.399264	2.91551	0.824082	6.00024			0.620522	4.52256	0.968429	7.0504
				0.400775	2.90615	0.296883	2.1345	0.400729	2.90643	0.826061	5.97412			0.621746	4.50092	0.971975	7.02854
				0.402245	2.89724	0.298961	2.13514	0.4022	2.89752	0.828014	5.94817			0.622969	4.47956	0.975473	7.00663
				0.403721	2.88849	0.30104	2.13577	0.403675	2.88876	0.829943	5.92239			0.62419	4.45847	0.978924	6.98467
				0.405201	2.87988	0.303118	2.1364	0.405155	2.88015	0.831847	5.89677			0.625409	4.43764	0.982328	6.96267
				0.406686	2.87142	0.305197	2.13701	0.40664	2.87168	0.833728	5.87133			0.626627	4.41708	0.985686	6.94064
				0.408177	2.86311	0.307275	2.13762	0.40813	2.86337	0.835587	5.84606			0.627843	4.39679	0.988999	6.91858
				0.409672	2.85494	0.309353	2.13822	0.409625	2.85519	0.837424	5.82097			0.629059	4.37674	0.992267	6.89649
				0.411172	2.84691	0.311432	2.13881	0.411125	2.84715	0.83924	5.79606			0.630274	4.35695	0.995491	6.87439
				0.412676	2.83901	0.31351	2.13939	0.412629	2.83925	0.841035	5.77132			0.631489	4.33741	0.998673	6.85227
				0.414185	2.83125	0.315588	2.13997	0.414139	2.83148	0.842811	5.74676			0.632702	4.31811	1.00181	6.83015
				0.415699	2.82361	0.317666	2.14054	0.415652	2.82385	0.844567	5.72238			0.633916	4.29906		
				0.417218	2.8161	0.319744	2.1411	0.417171	2.81633	0.846305	5.69819			0.635129	4.28024		
				0.418741	2.80872	0.321823	2.14165	0.418694	2.80895	0.848024	5.67417			0.636342	4.26166		
				0.420268	2.80146	0.323901	2.1422	0.420221	2.80168	0.849726	5.65033			0.637555	4.24331		
				0.4218	2.79432	0.325979	2.14274	0.421753	2.79454	0.851412	5.62668			0.638768	4.22518		
				0.423337	2.78729	0.328057	2.14327	0.423289	2.78751	0.85308	5.60321			0.639982	4.20728		
				0.424878	2.78038	0.330135	2.1438	0.42483	2.78059	0.854733	5.57992			0.641196	4.1896		
				0.426423	2.77358	0.332213	2.14432	0.426375	2.77379	0.856371	5.55681			0.64241	4.17214		
				0.427972	2.76689	0.33429	2.14483	0.427924	2.7671	0.857994	5.53389			0.643625	4.15489		
				0.429526	2.76031	0.336368	2.14534	0.429478	2.76052	0.859602	5.51114			0.644841	4.13785		
				0.431084	2.75384	0.338446	2.14584	0.431036	2.75404	0.861197	5.48858			0.646058	4.12102		
				0.432646	2.74746	0.340524	2.14634	0.432598	2.74766	0.862778	5.4662			0.647275	4.10439		
				0.434213	2.74119	0.342602	2.14683	0.434164	2.74138	0.864346	5.444			0.648494	4.08797		
				0.435783	2.73502	0.344679	2.14731	0.435734	2.73521	0.865902	5.42198			0.649713	4.07174		
				0.437358	2.72894	0.346757	2.14779	0.437309	2.72913	0.867445	5.40014			0.650934	4.05571		
				0.438936	2.72296	0.348835	2.14826	0.438887	2.72315	0.868976	5.37848			0.652156	4.03987		
				0.440519	2.71708	0.350912	2.14872	0.440469	2.71726	0.870497	5.357			0.653379	4.02422		
				0.442105	2.71128	0.35299	2.14918	0.442056	2.71146	0.872006	5.33569			0.654604	4.00876		
				0.443695	2.70557	0.355068	2.14964	0.443646	2.70575	0.873504	5.31456			0.65583	3.99348		
				0.445289	2.69996	0.357145	2.15009	0.44524	2.70013	0.874992	5.29361			0.657058	3.97839		
				0.446887	2.69442	0.359223	2.15053	0.446838	2.69459	0.87647	5.27283			0.658287	3.96347		
				0.448489	2.68898	0.3613	2.15097	0.44844	2.68914	0.877939	5.25222			0.659517	3.94873		
				0.450095	2.68361	0.363377	2.15141	0.450045	2.68378	0.879398	5.23179			0.66075	3.93416		
				0.451704	2.67833	0.365455	2.15184	0.451654	2.67849	0.880848	5.21153			0.661984	3.91977		
				0.453317	2.67312	0.367532	2.15226	0.453267	2.67328	0.88229	5.19145			0.66322	3.90554		
				0.454934	2.668	0.36961	2.15268	0.454884	2.66816	0.883723	5.17153			0.664458	3.89148		
				0.456554	2.66295	0.371687	2.1531	0.456504	2.66311	0.885148	5.15178			0.665698	3.87758		
				0.458178	2.65798	0.373764	2.15351	0.458127	2.65813	0.886565	5.1322			0.666939	3.86384		
				0.459805	2.65308	0.375842	2.15391	0.459755	2.65323	0.887975	5.11278			0.668183	3.85027		
				0.461436	2.64825	0.377919	2.15432	0.461385	2.6484	0.889378	5.09353			0.669428	3.83685		
				0.46307	2.6435	0.379996	2.15471	0.463019	2.64364	0.890773	5.07445			0.670676	3.82358		
				0.464708	2.63881	0.382073	2.15511	0.464657	2.63895	0.892161	5.05552			0.671926	3.81046		
				0.466349	2.63419	0.38415	2.1555	0.466298	2.63433	0.893544	5.03676			0.673178	3.7975		
				0.467993	2.62964	0.386228	2.15588	0.467942	2.62978	0.894919	5.01816			0.674432	3.78468		
				0.469641	2.62516	0.388305	2.15626	0.46959	2.6253	0.896289	4.99972			0.675688	3.77201		
				0.471292	2.62074	0.390382	2.15664	0.471241	2.62087	0.897653	4.98144			0.676947	3.75948		
				0.472946	2.61638	0.392459	2.15701	0.472895	2.61652	0.899011	4.96332			0.678208	3.7471		
				0.474604	2.61209	0.394536	2.15738	0.474553	2.61222	0.900364	4.94535			0.679471	3.73485		
				0.476265	2.60786	0.396613	2.15774	0.476213	2.60799	0.901711	4.92753			0.680736	3.72274		
				0.477929	2.60368	0.39869	2.1581	0.477877	2.60381	0.903053	4.90987			0.682004	3.71077		
				0.479596	2.59957	0.400767	2.15846	0.479544	2.5997	0.904391	4.89236			0.683274	3.69893		
				0.481266	2.59552	0.402844	2.15881	0.481214	2.59564	0.905724	4.875			0.684546	3.68722		
				0.482939	2.59152	0.404921	2.15916	0.482887	2.59164	0.907052	4.85779			0.685821	3.67564		
				0.484616	2.58758	0.406998	2.15951	0.484564	2.5877	0.908376	4.84073			0.687099	3.66419		
				0.486295	2.58369	0.409075	2.15985	0.486243	2.58381	0.909696	4.82381			0.688379	3.65286		
				0.487977	2.57986	0.411151	2.16019	0.487925	2.57998	0.911012	4.80704			0.689661	3.64166		
				0.489662	2.57608	0.413228	2.16053	0.48961	2.5762	0.912325	4.79041			0.690946	3.63059		
				0.491351	2.57235	0.415305	2.16086	0.491298	2.57247	0.913633	4.77393			0.692233	3.61963		
				0.493042	2.56868	0.417382	2.16119	0.492989	2.56879	0.914938	4.75759			0.693523	3.60879		
				0.494736	2.56505	0.419459	2.16151	0.494683	2.56516	0.91624	4.74138			0.694815	3.59807		
				0.496432	2.56147	0.421535	2.16184	0.49638	2.56159	0.917538	4.72532			0.69611	3.58747		
				0.498132	2.55795	0.423612	2.16216	0.498079	2.55806	0.918834	4.7094			0.697408	3.57698		
				0.499834	2.55447	0.425689	2.16247	0.499782	2.55458	0.920126	4.69361			0.698708	3.56661		
				0.50154	2.55104	0.427766	2.16278	0.501487	2.55114	0.921416	4.67795			0.70001	3.55634		
				0.503248	2.54765	0.429842	2.16309	0.503195	2.54775	0.922703	4.66243			0.701315	3.54619		
				0.504958	2.54431	0.431919	2.1634	0.504905	2.54441	0.923987	4.64704			0.702623	3.53614		
				0.506671	2.54101	0.433996	2.16371	0.506618	2.54111	0.925269	4.63179			0.703934	3.5262		
				0.508387	2.53776	0.436072	2.16401	0.508334	2.53786	0.926549	4.61666			0.705247	3.51637		
				0.510106	2.53455	0.438149	2.16431	0.510053	2.53465	0.927826	4.60167			0.706563	3.50664		
				0.511827	2.53138	0.440225	2.1646	0.511774	2.53148	0.929102	4.5868			0.707881	3.49701		
				0.513551	2.52826	0.442302	2.16489	0.513497	2.52836	0.930375	4.57205			0.709202	3.48749		
				0.515277	2.52518	0.444378	2.16518	0.515223	2.52527	0.931646	4.55743			0.710526	3.47806		
				0.517006	2.52213	0.446455	2.16547	0.516952	2.52223	0.932916	4.54294			0.711852	3.46873		
				0.518737	2.51913	0.448532	2.16576	0.518683	2.51922	0.934184	4.52857			0.713181	3.4595		
				0.520471	2.51616	0.450608	2.16604	0.520417	2.51625	0.935451	4.51432			0.714513	3.45037		
				0.522207	2.51324	0.452684	2.16632	0.522153	2.51333	0.936716	4.50019			0.715847	3.44133		
				0.523946	2.51035	0.454761	2.16659	0.523892	2.51044	0.937979	4.48618			0.717184	3.43238		
				0.525687	2.5075	0.456837	2.16687	0.525633	2.50758	0.939242	4.47229			0.718524	3.42353		
				0.52743	2.50468	0.458914	2.16714	0.527376	2.50477	0.940503	4.45851			0.719866	3.41477		
				0.529176	2.5019	0.46099	2.16741	0.529122	2.50199	0.941763	4.44485			0.721211	3.40609		
				0.530924	2.49916	0.463067	2.16768	0.53087	2.49924	0.943021	4.43131			0.722559	3.39751		
				0.532674	2.49645	0.465143	2.16794	0.53262	2.49653	0.944279	4.41788			0.723909	3.38901		
				0.534427	2.49377	0.467219	2.1682	0.534373	2.49386	0.945536	4.40456			0.725262	3.3806		
				0.536182	2.49113	0.469296	2.16846	0.536128	2.49121	0.946793	4.39135			0.726618	3.37227		
				0.537939	2.48853	0.471372	2.16872	0.537885	2.48861	0.948048	4.37826			0.727976	3.36403		
				0.539699	2.48595	0.473448	2.16898	0.539644	2.48603	0.949303	4.36527			0.729338	3.35587		
				0.541461	2.48341	0.475524	2.16923	0.541406	2.48349	0.950557	4.35239			0.730701	3.3478		
				0.543225	2.4809	0.477601	2.16948	0.54317	2.48097	0.951811	4.33962			0.732068	3.3398		
				0.54499	2.47842	0.479677	2.16973	0.544936	2.47849	0.953064	4.32695			0.733437	3.33189		
				0.546759	2.47597	0.481753	2.16997	0.546704	2.47604	0.954317	4.31439			0.734809	3.32405		
				0.548529	2.47355	0.483829	2.17022	0.548474	2.47362	0.955569	4.30193			0.736183	3.31629		
				0.550301	2.47116	0.485905	2.17046	0.550246	2.47123	0.956821	4.28957			0.737561	3.30861		
				0.552076	2.4688	0.487982	2.1707	0.552021	2.46887	0.958073	4.27732			0.738941	3.301		
				0.553852	2.46646	0.490058	2.17094	0.553797	2.46654	0.959325	4.26517			0.740323	3.29347		
				0.555631	2.46416	0.492134	2.17117	0.555576	2.46423	0.960576	4.25312			0.741708	3.28601		
				0.557412	2.46189	0.49421	2.17141	0.557356	2.46196	0.961828	4.24116			0.743096	3.27863		
				0.559194	2.45964	0.496286	2.17164	0.559139	2.45971	0.96308	4.2293			0.744487	3.27131		
				0.560979	2.45742	0.498362	2.17187	0.560924	2.45748	0.964331	4.21755			0.74588	3.26407		
				0.562765	2.45522	0.500438	2.1721	0.56271	2.45529	0.965583	4.20588			0.747275	3.2569		
				0.564554	2.45305	0.502514	2.17232	0.564499	2.45312	0.966835	4.19431			0.748674	3.2498		
				0.566344	2.45091	0.504591	2.17255	0.566289	2.45098	0.968087	4.18284			0.750075	3.24277		
				0.568137	2.44879	0.506667	2.17277	0.568081	2.44886	0.969339	4.17146			0.751479	3.2358		
				0.569931	2.4467	0.508743	2.17299	0.569875	2.44677	0.970592	4.16017			0.752885	3.2289		
				0.571727	2.44464	0.510819	2.17321	0.571672	2.4447	0.971845	4.14897			0.754294	3.22207		
				0.573525	2.44259	0.512895	2.17343	0.57347	2.44266	0.973098	4.13786			0.755705	3.21531		
				0.575325	2.44057	0.514971	2.17364	0.575269	2.44064	0.974352	4.12684			0.75712	3.2086		
				0.577127	2.43858	0.517046	2.17386	0.577071	2.43864	0.975606	4.11591			0.758536	3.20196		
				0.57893	2.43661	0.519122	2.17407	0.578874	2.43667	0.97686	4.10507			0.759956	3.19539		
				0.580736	2.43466	0.521198	2.17428	0.58068	2.43472	0.978116	4.09431			0.761378	3.18887		
				0.582543	2.43273	0.523274	2.17449	0.582487	2.43279	0.979371	4.08364			0.762802	3.18242		
				0.584351	2.43083	0.52535	2.17469	0.584295	2.43089	0.980628	4.07306			0.764229	3.17603		
				0.586162	2.42895	0.527426	2.1749	0.586106	2.429	0.981885	4.06256			0.765659	3.1697		
				0.587974	2.42708	0.529502	2.1751	0.587918	2.42714	0.983142	4.05214			0.767091	3.16343		
				0.589788	2.42525	0.531578	2.1753	0.589732	2.4253	0.984401	4.04181			0.768526	3.15721		
				0.591604	2.42343	0.533654	2.1755	0.591548	2.42348	0.98566	4.03155			0.769963	3.15106		
				0.593421	2.42163	0.535729	2.1757	0.593365	2.42168	0.98692	4.02138			0.771403	3.14496		
				0.595241	2.41985	0.537805	2.1759	0.595184	2.41991	0.98818	4.01129			0.772846	3.13892		
				0.597061	2.4181	0.539881	2.1761	0.597005	2.41815	0.989442	4.00128			0.77429	3.13293		
				0.598884	2.41636	0.541957	2.17629	0.598827	2.41641	0.990704	3.99135			0.775738	3.127		
				0.600707	2.41464	0.544033	2.17648	0.600651	2.41469	0.991967	3.98149			0.777188	3.12112		
				0.602533	2.41294	0.546108	2.17667	0.602477	2.41299	0.993232	3.97171			0.77864	3.1153		
				0.60436	2.41126	0.548184	2.17686	0.604304	2.41131	0.994497	3.96201			0.780095	3.10953		
				0.606189	2.4096	0.55026	2.17705	0.606132	2.40965	0.995763	3.95238			0.781553	3.10381		
				0.608019	2.40796	0.552336	2.17724	0.607963	2.40801	0.99703	3.94283			0.783013	3.09814		
				0.609851	2.40633	0.554411	2.17742	0.609794	2.40638	0.998298	3.93335			0.784475	3.09253		
				0.611685	2.40473	0.556487	2.17761	0.611628	2.40478	0.999567	3.92395			0.78594	3.08697		
				0.61352	2.40314	0.558563	2.17779	0.613463	2.40319	1.00084	3.91462			0.787407	3.08145		
				0.615356	2.40157	0.560638	2.17797	0.615299	2.40162					0.788877	3.07599		
				0.617194	2.40002	0.562714	2.17815	0.617137	2.40006					0.790349	3.07057		
				0.619033	2.39848	0.56479	2.17833	0.618976	2.39853					0.791824	3.06521		
				0.620874	2.39696	0.566865	2.17851	0.620817	2.397					0.793301	3.05989		
				0.622717	2.39545	0.568941	2.17868	0.62266	2.3955					0.79478	3.05462		
				0.62456	2.39397	0.571016	2.17886	0.624503	2.39401					0.796262	3.04939		
				0.626406	2.3925	0.573092	2.17903	0.626348	2.39254					0.797746	3.04422		
				0.628252	2.39104	0.575168	2.1792	0.628195	2.39109					0.799233	3.03908		
				0.6301	2.3896	0.577243	2.17937	0.630043	2.38964					0.800722	3.034		
				0.63195	2.38818	0.579319	2.17954	0.631892	2.38822					0.802213	3.02896		
				0.633801	2.38677	0.581394	2.17971	0.633743	2.38681					0.803707	3.02396		
				0.635653	2.38537	0.58347	2.17988	0.635595	2.38542					0.805203	3.019		
				0.637506	2.38399	0.585545	2.18004	0.637449	2.38404					0.806701	3.01409		
				0.639361	2.38263	0.587621	2.18021	0.639304	2.38267					0.808202	3.00922		
				0.641218	2.38128	0.589696	2.18037	0.64116	2.38132					0.809705	3.0044		
				0.643075	2.37994	0.591772	2.18053	0.643017	2.37998					0.81121	2.99961		
				0.644934	2.37862	0.593847	2.18069	0.644876	2.37866					0.812718	2.99487		
				0.646794	2.37731	0.595923	2.18085	0.646737	2.37735					0.814228	2.99017		
				0.648656	2.37602	0.597998	2.18101	0.648598	2.37606					0.81574	2.98551		
				0.650518	2.37473	0.600074	2.18117	0.650461	2.37477					0.817255	2.98089		
				0.652382	2.37347	0.602149	2.18133	0.652325	2.37351					0.818772	2.9763		
				0.654248	2.37221	0.604224	2.18148	0.65419	2.37225					0.820291	2.97176		
				0.656114	2.37097	0.6063	2.18164	0.656056	2.37101					0.821812	2.96726		
				0.657982	2.36974	0.608375	2.18179	0.657924	2.36978					0.823336	2.96279		
				0.659851	2.36852	0.610451	2.18194	0.659793	2.36856					0.824861	2.95836		
				0.661721	2.36732	0.612526	2.18209	0.661663	2.36736					0.826389	2.95397		
				0.663592	2.36613	0.614601	2.18224	0.663535	2.36617					0.82792	2.94962		
				0.665465	2.36495	0.616677	2.18239	0.665407	2.36499					0.829452	2.9453		
				0.667339	2.36378	0.618752	2.18254	0.667281	2.36382					0.830987	2.94102		
				0.669214	2.36263	0.620827	2.18269	0.669156	2.36266					0.832524	2.93678		
				0.67109	2.36148	0.622902	2.18283	0.671032	2.36152					0.834063	2.93257		
				0.672967	2.36035	0.624978	2.18298	0.672909	2.36038					0.835604	2.92839		
				0.674846	2.35923	0.627053	2.18312	0.674788	2.35926					0.837147	2.92425		
				0.676725	2.35812	0.629128	2.18327	0.676667	2.35815					0.838692	2.92015		
				0.678606	2.35702	0.631204	2.18341	0.678548	2.35705					0.84024	2.91608		
				0.680488	2.35593	0.633279	2.18355	0.68043	2.35597					0.84179	2.91204		
				0.682371	2.35486	0.635354	2.18369	0.682312	2.35489					0.843342	2.90804		
				0.684255	2.35379	0.637429	2.18383	0.684196	2.35382					0.844896	2.90406		
				0.68614	2.35273	0.639504	2.18397	0.686081	2.35277					0.846452	2.90013		
				0.688026	2.35169	0.64158	2.18411	0.687968	2.35172					0.84801	2.89622		
				0.689913	2.35065	0.643655	2.18424	0.689855	2.35068					0.84957	2.89234		
				0.691802	2.34963	0.64573	2.18438	0.691743	2.34966					0.851132	2.8885		
				0.693691	2.34861	0.647805	2.18451	0.693633	2.34864					0.852697	2.88469		
				0.695581	2.34761	0.64988	2.18465	0.695523	2.34764					0.854263	2.88091		
				0.697473	2.34661	0.651955	2.18478	0.697414	2.34664					0.855832	2.87716		
				0.699365	2.34563	0.654031	2.18491	0.699307	2.34566					0.857402	2.87344		
				0.701259	2.34465	0.656106	2.18504	0.7012	2.34468					0.858975	2.86975		
				0.703154	2.34369	0.658181	2.18517	0.703095	2.34371					0.860549	2.86609		
				0.705049	2.34273	0.660256	2.1853	0.70499	2.34276					0.862126	2.86245		
				0.706946	2.34178	0.662331	2.18543	0.706887	2.34181					0.863705	2.85885		
				0.708843	2.34084	0.664406	2.18556	0.708784	2.34087					0.865285	2.85528		
				0.710742	2.33991	0.666481	2.18569	0.710683	2.33994					0.866868	2.85173		
				0.712641	2.33899	0.668556	2.18581	0.712582	2.33902					0.868452	2.84822		
				0.714542	2.33808	0.670631	2.18594	0.714483	2.33811					0.870039	2.84473		
				0.716443	2.33717	0.672706	2.18607	0.716384	2.3372					0.871627	2.84127		
				0.718345	2.33628	0.674781	2.18619	0.718286	2.33631					0.873218	2.83783		
				0.720249	2.33539	0.676856	2.18631	0.72019	2.33542					0.87481	2.83442		
				0.722153	2.33451	0.678931	2.18643	0.722094	2.33454					0.876404	2.83104		
				0.724058	2.33365	0.681006	2.18656	0.723999	2.33367					0.878001	2.82769		
				0.725964	2.33278	0.683081	2.18668	0.725905	2.33281					0.879599	2.82436		
				0.727871	2.33193	0.685156	2.1868	0.727812	2.33196					0.881199	2.82106		
				0.729779	2.33108	0.687231	2.18692	0.72972	2.33111					0.882801	2.81778		
				0.731688	2.33025	0.689306	2.18704	0.731629	2.33027					0.884405	2.81453		
				0.733598	2.32942	0.691381	2.18715	0.733538	2.32944					0.88601	2.81131		
				0.735508	2.32859	0.693456	2.18727	0.735449	2.32862					0.887618	2.80811		
				0.73742	2.32778	0.695531	2.18739	0.73736	2.3278					0.889227	2.80493		
				0.739332	2.32697	0.697606	2.1875	0.739273	2.327					0.890839	2.80178		
				0.741245	2.32617	0.699681	2.18762	0.741186	2.3262					0.892452	2.79865		
				0.743159	2.32538	0.701755	2.18773	0.7431	2.3254					0.894067	2.79555		
				0.745074	2.3246	0.70383	2.18785	0.745015	2.32462					0.895684	2.79247		
				0.74699	2.32382	0.705905	2.18796	0.746931	2.32384					0.897302	2.78941		
				0.748906	2.32305	0.70798	2.18807	0.748847	2.32307					0.898923	2.78638		
				0.750824	2.32228	0.710055	2.18818	0.750764	2.32231					0.900545	2.78337		
				0.752742	2.32153	0.71213	2.18829	0.752683	2.32155					0.902169	2.78038		
				0.754661	2.32078	0.714204	2.1884	0.754602	2.3208					0.903795	2.77742		
				0.756581	2.32003	0.716279	2.18851	0.756522	2.32006					0.905422	2.77448		
				0.758502	2.3193	0.718354	2.18862	0.758442	2.31932					0.907052	2.77156		
				0.760423	2.31857	0.720429	2.18873	0.760364	2.31859					0.908683	2.76866		
				0.762345	2.31784	0.722504	2.18884	0.762286	2.31787					0.910316	2.76578		
				0.764269	2.31713	0.724578	2.18895	0.764209	2.31715					0.91195	2.76293		
				0.766192	2.31642	0.726653	2.18905	0.766133	2.31644					0.913587	2.76009		
				0.768117	2.31571	0.728728	2.18916	0.768057	2.31573					0.915225	2.75728		
				0.770042	2.31501	0.730803	2.18926	0.769983	2.31503					0.916865	2.75449		
				0.771969	2.31432	0.732877	2.18937	0.771909	2.31434					0.918506	2.75172		
				0.773896	2.31364	0.734952	2.18947	0.773836	2.31366					0.920149	2.74897		
				0.775823	2.31296	0.737027	2.18957	0.775764	2.31298					0.921794	2.74624		
				0.777752	2.31228	0.739101	2.18968	0.777692	2.3123					0.923441	2.74353		
				0.779681	2.31162	0.741176	2.18978	0.779621	2.31164					0.925089	2.74084		
				0.781611	2.31095	0.743251	2.18988	0.781551	2.31097					0.926739	2.73817		
				0.783541	2.3103	0.745325	2.18998	0.783482	2.31032					0.928391	2.73552		
				0.785473	2.30965	0.7474	2.19008	0.785413	2.30967					0.930044	2.73289		
				0.787405	2.309	0.749475	2.19018	0.787345	2.30902					0.931699	2.73028		
				0.789338	2.30836	0.751549	2.19028	0.789278	2.30838					0.933356	2.72768		
				0.791271	2.30773	0.753624	2.19038	0.791211	2.30775					0.935014	2.72511		
				0.793205	2.3071	0.755699	2.19048	0.793145	2.30712					0.936674	2.72255		
				0.79514	2.30648	0.757773	2.19058	0.79508	2.3065					0.938335	2.72002		
				0.797076	2.30586	0.759848	2.19067	0.797016	2.30588					0.939998	2.7175		
				0.799012	2.30525	0.761922	2.19077	0.798952	2.30527					0.941663	2.715		
				0.800949	2.30464	0.763997	2.19087	0.800889	2.30466					0.943329	2.71252		
				0.802887	2.30404	0.766071	2.19096	0.802827	2.30406					0.944997	2.71005		
				0.804825	2.30345	0.768146	2.19106	0.804765	2.30347					0.946666	2.70761		
				0.806764	2.30286	0.770221	2.19115	0.806704	2.30287					0.948337	2.70518		
				0.808704	2.30227	0.772295	2.19124	0.808644	2.30229					0.95001	2.70276		
				0.810644	2.30169	0.77437	2.19134	0.810584	2.30171					0.951684	2.70037		
				0.812585	2.30111	0.776444	2.19143	0.812525	2.30113					0.95336	2.69799		
				0.814527	2.30054	0.778519	2.19152	0.814467	2.30056					0.955037	2.69563		
				0.816469	2.29997	0.780593	2.19161	0.816409	2.29999					0.956716	2.69329		
				0.818412	2.29941	0.782668	2.1917	0.818352	2.29943					0.958396	2.69096		
				0.820356	2.29886	0.784742	2.1918	0.820295	2.29887					0.960078	2.68865		
				0.8223	2.2983	0.786816	2.19189	0.82224	2.29832					0.961761	2.68635		
				0.824245	2.29776	0.788891	2.19198	0.824184	2.29777					0.963446	2.68407		
				0.82619	2.29721	0.790965	2.19206	0.82613	2.29723					0.965132	2.68181		
				0.828136	2.29667	0.79304	2.19215	0.828076	2.29669					0.96682	2.67956		
				0.830083	2.29614	0.795114	2.19224	0.830023	2.29616					0.968509	2.67733		
				0.83203	2.29561	0.797189	2.19233	0.83197	2.29563					0.9702	2.67511		
				0.833978	2.29508	0.799263	2.19242	0.833918	2.2951					0.971892	2.67291		
				0.835927	2.29456	0.801337	2.1925	0.835866	2.29458					0.973586	2.67073		
				0.837876	2.29405	0.803412	2.19259	0.837815	2.29406					0.975281	2.66856		
				0.839825	2.29353	0.805486	2.19268	0.839765	2.29355					0.976978	2.6664		
				0.841776	2.29303	0.807561	2.19276	0.841715	2.29304					0.978676	2.66426		
				0.843727	2.29252	0.809635	2.19285	0.843666	2.29254					0.980375	2.66214		
				0.845678	2.29202	0.811709	2.19293	0.845618	2.29204					0.982076	2.66003		
				0.84763	2.29153	0.813784	2.19301	0.84757	2.29154					0.983778	2.65793		
				0.849583	2.29103	0.815858	2.1931	0.849522	2.29105					0.985482	2.65585		
				0.851536	2.29055	0.817932	2.19318	0.851475	2.29056					0.987187	2.65378		
				0.853489	2.29006	0.820006	2.19326	0.853429	2.29008					0.988894	2.65173		
				0.855444	2.28958	0.822081	2.19335	0.855383	2.2896					0.990602	2.64969		
				0.857399	2.28911	0.824155	2.19343	0.857338	2.28912					0.992311	2.64766		
				0.859354	2.28863	0.826229	2.19351	0.859293	2.28865					0.994022	2.64565		
				0.86131	2.28817	0.828304	2.19359	0.861249	2.28818					0.995734	2.64365		
				0.863266	2.2877	0.830378	2.19367	0.863206	2.28771					0.997447	2.64166		
				0.865223	2.28724	0.832452	2.19375	0.865163	2.28725					0.999162	2.63969		
				0.867181	2.28678	0.834526	2.19383	0.867121	2.2868					1.00088	2.63773		
				0.869139	2.28633	0.836601	2.19391	0.869079	2.28634								
				0.871098	2.28588	0.838675	2.19399	0.871037	2.28589								
				0.873057	2.28543	0.840749	2.19407	0.872996	2.28545								
				0.875017	2.28499	0.842823	2.19415	0.874956	2.285								
				0.876977	2.28455	0.844897	2.19422	0.876916	2.28456								
				0.878938	2.28411	0.846972	2.1943	0.878877	2.28413								
				0.880899	2.28368	0.849046	2.19438	0.880838	2.28369								
				0.882861	2.28325	0.85112	2.19445	0.8828	2.28327								
				0.884823	2.28283	0.853194	2.19453	0.884762	2.28284								
				0.886786	2.2824	0.855268	2.19461	0.886725	2.28242								
				0.888749	2.28198	0.857342	2.19468	0.888688	2.282								
				0.890713	2.28157	0.859416	2.19476	0.890652	2.28158								
				0.892677	2.28116	0.86149	2.19483	0.892616	2.28117								
				0.894642	2.28075	0.863565	2.1949	0.894581	2.28076								
				0.896607	2.28034	0.865639	2.19498	0.896546	2.28035								
				0.898573	2.27994	0.867713	2.19505	0.898512	2.27995								
				0.900539	2.27954	0.869787	2.19512	0.900478	2.27955								
				0.902506	2.27914	0.871861	2.1952	0.902445	2.27915								
				0.904473	2.27875	0.873935	2.19527	0.904412	2.27876								
				0.90644	2.27836	0.876009	2.19534	0.906379	2.27837								
				0.908408	2.27797	0.878083	2.19541	0.908348	2.27798								
				0.910377	2.27758	0.880157	2.19548	0.910316	2.2776								
				0.912346	2.2772	0.882231	2.19556	0.912285	2.27721								
				0.914316	2.27682	0.884305	2.19563	0.914255	2.27683								
				0.916285	2.27645	0.886379	2.1957	0.916224	2.27646								
				0.918256	2.27607	0.888453	2.19577	0.918195	2.27608								
				0.920227	2.2757	0.890527	2.19584	0.920166	2.27571								
				0.922198	2.27534	0.892601	2.19591	0.922137	2.27535								
				0.92417	2.27497	0.894675	2.19597	0.924109	2.27498								
				0.926142	2.27461	0.896749	2.19604	0.926081	2.27462								
				0.928114	2.27425	0.898823	2.19611	0.928053	2.27426								
				0.930088	2.27389	0.900897	2.19618	0.930026	2.2739								
				0.932061	2.27354	0.902971	2.19625	0.932	2.27355								
				0.934035	2.27319	0.905045	2.19631	0.933974	2.2732								
				0.936009	2.27284	0.907119	2.19638	0.935948	2.27285								
				0.937984	2.27249	0.909192	2.19645	0.937923	2.2725								
				0.939959	2.27215	0.911266	2.19651	0.939898	2.27216								
				0.941935	2.27181	0.91334	2.19658	0.941874	2.27182								
				0.943911	2.27147	0.915414	2.19664	0.94385	2.27148								
				0.945887	2.27113	0.917488	2.19671	0.945826	2.27114								
				0.947864	2.2708	0.919562	2.19677	0.947803	2.27081								
				0.949841	2.27047	0.921636	2.19684	0.94978	2.27048								
				0.951819	2.27014	0.923709	2.1969	0.951758	2.27015								
				0.953797	2.26981	0.925783	2.19697	0.953736	2.26982								
				0.955775	2.26949	0.927857	2.19703	0.955714	2.2695								
				0.957754	2.26917	0.929931	2.19709	0.957693	2.26918								
				0.959733	2.26885	0.932005	2.19716	0.959672	2.26886								
				0.961713	2.26853	0.934078	2.19722	0.961652	2.26854								
				0.963693	2.26822	0.936152	2.19728	0.963632	2.26823								
				0.965674	2.26791	0.938226	2.19734	0.965612	2.26792								
				0.967654	2.2676	0.9403	2.19741	0.967593	2.26761								
				0.969636	2.26729	0.942373	2.19747	0.969574	2.2673								
				0.971617	2.26699	0.944447	2.19753	0.971556	2.26699								
				0.973599	2.26668	0.946521	2.19759	0.973538	2.26669								
				0.975581	2.26638	0.948595	2.19765	0.97552	2.26639								
				0.977564	2.26608	0.950668	2.19771	0.977503	2.26609								
				0.979547	2.26579	0.952742	2.19777	0.979486	2.2658								
				0.981531	2.26549	0.954816	2.19783	0.981469	2.2655								
				0.983514	2.2652	0.956889	2.19789	0.983453	2.26521								
				0.985499	2.26491	0.958963	2.19795	0.985437	2.26492								
				0.987483	2.26462	0.961037	2.19801	0.987422	2.26463								
				0.989468	2.26433	0.96311	2.19807	0.989407	2.26434								
				0.991453	2.26405	0.965184	2.19813	0.991392	2.26406								
				0.993439	2.26377	0.967258	2.19819	0.993377	2.26378								
				0.995425	2.26349	0.969331	2.19824	0.995363	2.2635								
				0.997411	2.26321	0.971405	2.1983	0.99735	2.26322								
				0.999398	2.26293	0.973478	2.19836	0.999336	2.26294								
				1.00138	2.26266	0.975552	2.19842	1.00132	2.26267								
						0.977626	2.19847										
						0.979699	2.19853										
						0.981773	2.19859										
						0.983846	2.19864										
						0.98592	2.1987										
						0.987993	2.19875										
						0.990067	2.19881										
						0.992141	2.19887										
						0.994214	2.19892										
						0.996288	2.19897										
						0.998361	2.19903										
						1.00043	2.19908										
