Sym0		Asym0		Sym1		Sym2		Sym3		Sym4		Asym1		Asym2		Asym3	
466  Points		496  Points		226  Points		193  Points		180  Points		125  Points		329  Points		205  Points		168  Points	
Freq (MHz)	Vph (m/ms)	Freq (MHz)	Vph (m/ms)	Freq (MHz)	Vph (m/ms)	Freq (MHz)	Vph (m/ms)	Freq (MHz)	Vph (m/ms)	Freq (MHz)	Vph (m/ms)	Freq (MHz)	Vph (m/ms)	Freq (MHz)	Vph (m/ms)	Freq (MHz)	Vph (m/ms)
0.00350591	5.30913	0.000393382	0.173726	0.279509	3438.51	0.477714	799.826	0.559021	1380.12	0.838536	1008.56	0.139765	452.641	0.419265	1469	0.698771	63634.2
0.00845228	5.30905	0.000780583	0.244232	0.279548	275.966	0.477737	312.457	0.559061	418.225	0.838571	475.619	0.139928	112.802	0.419306	344.511	0.698786	741.279
0.0133982	5.30887	0.00129499	0.313726	0.279656	143.806	0.477779	194.167	0.559144	246.488	0.838631	311.202	0.140286	64.5835	0.419397	195.177	0.69883	372.835
0.0183437	5.30864	0.00193278	0.382013	0.27983	97.2858	0.477842	140.858	0.559269	174.764	0.838717	231.274	0.140837	45.3747	0.419539	136.192	0.698904	249.069
0.0232882	5.30829	0.00268905	0.448837	0.280072	73.547	0.477925	110.527	0.559437	135.397	0.838828	184.026	0.141577	35.0825	0.419731	104.614	0.699006	187.012
0.0282317	5.30788	0.00355851	0.514023	0.280381	59.155	0.478027	90.9533	0.559647	110.525	0.838964	152.82	0.142503	28.6885	0.419973	84.948	0.699138	149.726
0.033174	5.30739	0.00453518	0.577395	0.280756	49.5033	0.47815	77.2775	0.5599	93.3911	0.839125	130.673	0.143609	24.3449	0.420266	71.5276	0.699299	124.849
0.0381147	5.30681	0.00561286	0.638824	0.281198	42.5854	0.478294	67.1842	0.560195	80.8723	0.839312	114.141	0.14489	21.2117	0.420609	61.7881	0.699489	107.073
0.0430537	5.30616	0.0067853	0.698224	0.281706	37.387	0.478458	59.4296	0.560533	71.3272	0.839524	101.331	0.146338	18.8523	0.421001	54.4002	0.699708	93.7375
0.0479908	5.30542	0.00804599	0.755518	0.282279	33.3405	0.478643	53.286	0.560912	63.8103	0.839761	91.1132	0.147947	17.0171	0.421444	48.6057	0.699956	83.3654
0.0529255	5.30459	0.00938846	0.810655	0.282916	30.1031	0.478849	48.2992	0.561334	57.7385	0.840023	82.7742	0.14971	15.5531	0.421936	43.9408	0.700233	75.0684
0.0578579	5.30368	0.0108065	0.863617	0.283619	27.456	0.479076	44.1711	0.561797	52.7326	0.84031	75.8398	0.15162	14.3614	0.422477	40.1058	0.700539	68.2811
0.0627875	5.30269	0.0122939	0.914403	0.284384	25.2525	0.479326	40.698	0.562302	48.5354	0.840622	69.9833	0.153669	13.3752	0.423068	36.8984	0.700874	62.6266
0.0677142	5.30161	0.013845	0.963038	0.285213	23.3909	0.479596	37.7358	0.562847	44.9663	0.84096	64.9718	0.15585	12.5475	0.423707	34.177	0.701238	57.8435
0.0726376	5.30043	0.0154543	1.00955	0.286104	21.7983	0.47989	35.1799	0.563434	41.8948	0.841322	60.6352	0.158156	11.8447	0.424396	31.8397	0.70163	53.7454
0.0775575	5.29917	0.0171165	1.05399	0.287056	20.4212	0.480206	32.9524	0.564062	39.2242	0.841709	56.8459	0.16058	11.2418	0.425132	29.8112	0.702052	50.1953
0.0824735	5.29781	0.0188268	1.0964	0.288068	19.2194	0.480544	30.9941	0.564731	36.8812	0.842121	53.507	0.162784	10.7832	0.425917	28.0346	0.702502	47.0906
0.0873855	5.29635	0.0205807	1.13685	0.28914	18.1619	0.480906	29.2592	0.56544	34.8094	0.842559	50.5427	0.164726	10.4335	0.42675	26.4664	0.702981	44.3527
0.092293	5.2948	0.022374	1.17542	0.290271	17.2249	0.481292	27.7118	0.566188	32.9648	0.843021	47.8936	0.166374	10.1692	0.42763	25.0722	0.703488	41.9205
0.0971959	5.29316	0.0242027	1.21216	0.291459	16.3893	0.481703	26.3233	0.566977	31.3122	0.843507	45.5123	0.167703	9.97458	0.428557	23.8251	0.704024	39.7458
0.102094	5.2914	0.0260635	1.24716	0.292704	15.6399	0.482137	25.0706	0.567805	29.8234	0.844019	43.3601	0.168695	9.83885	0.429531	22.7033	0.704588	37.7899
0.106986	5.28954	0.027953	1.28049	0.294004	14.9644	0.482597	23.935	0.568673	28.4754	0.844555	41.4058	0.169336	9.75507	0.430551	21.6891	0.705181	36.0217
0.111873	5.28758	0.0298683	1.31222	0.295359	14.3528	0.483083	22.9008	0.569579	27.2495	0.845116	39.6234	0.170266	9.63865	0.431618	20.7681	0.705802	34.4155
0.116753	5.2855	0.0318068	1.34243	0.296768	13.7966	0.483594	21.9554	0.570524	26.13	0.845701	37.9913	0.171288	9.51722	0.43273	19.9282	0.70645	32.9502
0.121627	5.28331	0.0337659	1.3712	0.298229	13.2889	0.484133	21.0878	0.571507	25.1038	0.846311	36.4914	0.172695	9.36006	0.433887	19.1595	0.707127	31.6082
0.126494	5.281	0.0357434	1.39859	0.299742	12.8239	0.484698	20.289	0.572528	24.1599	0.846946	35.1083	0.174504	9.17353	0.435089	18.4533	0.707832	30.3747
0.131354	5.27857	0.0377375	1.42468	0.301304	12.3966	0.485291	19.5514	0.573586	23.289	0.847604	33.8291	0.176732	8.96452	0.436335	17.8027	0.708565	29.2372
0.136206	5.27601	0.0397462	1.44953	0.302916	12.0028	0.485912	18.8682	0.574682	22.4829	0.848287	32.6425	0.179402	8.73999	0.437626	17.2015	0.709325	28.185
0.14105	5.27332	0.041768	1.4732	0.304576	11.6389	0.486563	18.2337	0.575815	21.735	0.848995	31.539	0.182535	8.50651	0.438959	16.6444	0.710113	27.209
0.145885	5.2705	0.0438013	1.49577	0.306283	11.3018	0.487242	17.6432	0.576984	21.0392	0.849727	30.5102	0.185738	8.29561	0.440336	16.1268	0.710929	26.3013
0.15071	5.26753	0.0455816	1.51457	0.308035	10.9886	0.487952	17.0922	0.57819	20.3905	0.850482	29.5488	0.189008	8.1044	0.441755	15.645	0.711772	25.4551
0.155526	5.26442	0.0471048	1.52999	0.309599	10.7335	0.488692	16.5772	0.579432	19.7842	0.851262	28.6485	0.19234	7.93047	0.443217	15.1953	0.712642	24.6644
0.160332	5.26116	0.0483679	1.54235	0.310958	10.528	0.489463	16.0947	0.580709	19.2165	0.852066	27.8038	0.195731	7.77174	0.44472	14.7749	0.713539	23.924
0.165126	5.25774	0.0493687	1.55187	0.3121	10.3658	0.490266	15.6419	0.582021	18.6839	0.852893	27.0096	0.199178	7.62646	0.446264	14.3811	0.714464	23.2294
0.169909	5.25416	0.0501056	1.55873	0.313014	10.2423	0.491102	15.2162	0.583368	18.1833	0.853744	26.2617	0.202677	7.49313	0.447848	14.0114	0.715415	22.5764
0.17468	5.25041	0.0505778	1.56306	0.313693	10.1539	0.491971	14.8154	0.584749	17.712	0.85462	25.5562	0.206226	7.37046	0.449473	13.664	0.716393	21.9616
0.179437	5.24648	0.051257	1.56921	0.31413	10.0984	0.492873	14.4375	0.586165	17.2675	0.855518	24.8897	0.209822	7.25731	0.451137	13.3368	0.717398	21.3817
0.18418	5.24237	0.0519962	1.57579	0.314762	10.0202	0.49381	14.0807	0.587614	16.8478	0.856441	24.2589	0.213462	7.1527	0.45284	13.0283	0.718429	20.8339
0.188909	5.23806	0.0530028	1.58456	0.315454	9.93692	0.494782	13.7433	0.589097	16.4509	0.857386	23.6613	0.217143	7.05579	0.454582	12.737	0.719486	20.3156
0.193623	5.23355	0.0542776	1.59537	0.316403	9.82674	0.495789	13.4239	0.590613	16.075	0.858355	23.0942	0.220865	6.96582	0.456362	12.4616	0.72057	19.8247
0.19832	5.22883	0.0558221	1.60806	0.317617	9.69217	0.496833	13.1212	0.592162	15.7185	0.859348	22.5555	0.224623	6.88214	0.458179	12.2008	0.721679	19.359
0.202999	5.22389	0.0576372	1.6224	0.319105	9.53618	0.497914	12.8339	0.593743	15.3801	0.860363	22.0431	0.228417	6.80415	0.460033	11.9536	0.722815	18.9167
0.207661	5.21872	0.0597241	1.63818	0.320878	9.36201	0.499033	12.5611	0.595356	15.0585	0.861402	21.5552	0.232245	6.73135	0.461923	11.719	0.723976	18.4961
0.212303	5.2133	0.0618147	1.65327	0.322948	9.17305	0.50019	12.3017	0.597001	14.7524	0.862463	21.0901	0.236104	6.66326	0.46385	11.4961	0.725163	18.0957
0.216924	5.20764	0.0639085	1.66772	0.325055	8.99486	0.501386	12.0549	0.598677	14.4609	0.863548	20.6462	0.239993	6.59949	0.465812	11.2842	0.726375	17.7141
0.221523	5.20171	0.066005	1.68154	0.327198	8.8266	0.502622	11.8198	0.600384	14.183	0.864655	20.2222	0.243911	6.53967	0.467809	11.0824	0.727612	17.35
0.226099	5.1955	0.0681039	1.69479	0.329377	8.66753	0.503898	11.5958	0.602122	13.9177	0.865785	19.8168	0.247855	6.48347	0.469577	10.9144	0.728875	17.0024
0.230651	5.189	0.0702048	1.70748	0.331591	8.51697	0.505214	11.3821	0.60389	13.6643	0.866938	19.4289	0.251825	6.43059	0.471104	10.7765	0.730162	16.6701
0.235177	5.1822	0.0723073	1.71965	0.333839	8.37431	0.506573	11.178	0.605689	13.422	0.868113	19.0573	0.255819	6.38077	0.472381	10.6661	0.731475	16.3523
0.239675	5.17507	0.0744113	1.73132	0.336121	8.23899	0.50779	11.0077	0.607516	13.1902	0.86931	18.7011	0.259835	6.33377	0.4734	10.581	0.732812	16.0479
0.244145	5.16762	0.0765163	1.74253	0.338436	8.1105	0.508854	10.8677	0.609374	12.9682	0.870529	18.3593	0.263874	6.28936	0.474154	10.5196	0.734173	15.7562
0.248584	5.15982	0.0786223	1.75328	0.340783	7.9884	0.509752	10.7554	0.61126	12.7554	0.871771	18.0312	0.267932	6.24737	0.474638	10.4808	0.735558	15.4765
0.25299	5.15165	0.080729	1.76362	0.343163	7.87227	0.510473	10.6687	0.613175	12.5514	0.873035	17.716	0.27201	6.20759	0.475338	10.4258	0.736968	15.208
0.257362	5.1431	0.0828362	1.77356	0.345576	7.76172	0.51101	10.6062	0.615118	12.3555	0.874321	17.4128	0.276106	6.16988	0.476103	10.3669	0.738402	14.9502
0.261698	5.13415	0.0849438	1.78311	0.348021	7.65641	0.511356	10.5667	0.61709	12.1674	0.875628	17.1212	0.280219	6.13408	0.477149	10.2883	0.739859	14.7023
0.265995	5.12479	0.0870517	1.79231	0.350498	7.55603	0.511858	10.5106	0.619089	11.9866	0.876957	16.8404	0.284349	6.10007	0.478484	10.1913	0.74134	14.464
0.270252	5.115	0.0891596	1.80116	0.353007	7.46028	0.51241	10.4505	0.621116	11.8128	0.878308	16.5699	0.288493	6.0677	0.480113	10.0775	0.742844	14.2346
0.274467	5.10476	0.0912676	1.80968	0.355549	7.36891	0.513168	10.3703	0.62317	11.6455	0.87968	16.3091	0.292652	6.03688	0.482047	9.94854	0.744371	14.0136
0.278638	5.09405	0.0933756	1.81789	0.358124	7.28167	0.514143	10.2712	0.625251	11.4844	0.881074	16.0576	0.296825	6.00749	0.484294	9.80636	0.745922	13.8008
0.282761	5.08286	0.0954834	1.82581	0.360733	7.19834	0.515344	10.1547	0.627358	11.3293	0.882489	15.8148	0.30101	5.97944	0.486573	9.67006	0.747495	13.5955
0.286836	5.07117	0.097591	1.83345	0.363375	7.11872	0.516785	10.0228	0.629216	11.1986	0.883925	15.5804	0.305207	5.95264	0.488881	9.53929	0.749091	13.3975
0.290859	5.05897	0.0996983	1.84082	0.366052	7.04262	0.518481	9.8772	0.630815	11.0905	0.885382	15.3539	0.309415	5.92701	0.491218	9.41376	0.750709	13.2064
0.294829	5.04624	0.101805	1.84793	0.368765	6.96987	0.520223	9.73755	0.632148	11.0032	0.886859	15.135	0.313633	5.90248	0.493584	9.29318	0.75235	13.0218
0.298743	5.03297	0.103912	1.8548	0.371514	6.90032	0.522011	9.60354	0.633209	10.9355	0.888358	14.9233	0.317862	5.87897	0.495979	9.17728	0.754012	12.8435
0.302599	5.01916	0.106018	1.86144	0.3743	6.83381	0.523846	9.47489	0.633993	10.8865	0.889877	14.7185	0.322099	5.85642	0.498401	9.06581	0.755697	12.6711
0.306395	5.00478	0.108124	1.86786	0.377125	6.77023	0.525727	9.35134	0.634497	10.8554	0.891417	14.5202	0.326344	5.83476	0.500851	8.95856	0.757403	12.5044
0.31013	4.98984	0.110229	1.87407	0.37999	6.70943	0.527656	9.23264	0.635223	10.8112	0.892977	14.3281	0.330597	5.81396	0.503328	8.85529	0.759131	12.343
0.3138	4.97433	0.112334	1.88007	0.382896	6.65132	0.529632	9.11856	0.636015	10.7638	0.894557	14.1421	0.334857	5.79394	0.505832	8.75581	0.760881	12.1869
0.317405	4.95825	0.114439	1.88589	0.385844	6.59578	0.531656	9.0089	0.637098	10.7001	0.896157	13.9617	0.339124	5.77467	0.508362	8.65994	0.762651	12.0356
0.320943	4.9416	0.116543	1.89152	0.388835	6.54271	0.533727	8.90343	0.638475	10.6212	0.897777	13.7869	0.343396	5.7561	0.510917	8.56749	0.764442	11.8891
0.324414	4.92439	0.118646	1.89697	0.391872	6.49203	0.535847	8.80198	0.640154	10.5279	0.899418	13.6172	0.347673	5.73818	0.513498	8.47831	0.766255	11.747
0.327381	4.90893	0.120749	1.90226	0.394954	6.44364	0.538014	8.70437	0.64214	10.4214	0.901077	13.4526	0.351955	5.72088	0.516103	8.39223	0.768088	11.6093
0.329869	4.89544	0.122851	1.90738	0.398084	6.39746	0.540229	8.61041	0.644442	10.303	0.902757	13.2928	0.356241	5.70417	0.518733	8.3091	0.769701	11.4927
0.331897	4.88405	0.124953	1.91235	0.401263	6.35341	0.542491	8.51995	0.646769	10.1884	0.904456	13.1375	0.360531	5.688	0.521387	8.22881	0.771089	11.3956
0.333482	4.87491	0.127055	1.91717	0.404491	6.31141	0.544801	8.43284	0.649119	10.0775	0.906174	12.9867	0.364824	5.67235	0.524064	8.1512	0.772245	11.317
0.334637	4.86811	0.129155	1.92186	0.407769	6.2714	0.547159	8.34893	0.651492	9.97017	0.907912	12.8402	0.369119	5.65718	0.526765	8.07617	0.773165	11.2558
0.335371	4.86372	0.131256	1.9264	0.411099	6.23329	0.549564	8.26809	0.653889	9.86617	0.909669	12.6977	0.373416	5.64247	0.529488	8.0036	0.773844	11.2114
0.33642	4.85737	0.133356	1.93082	0.41448	6.19701	0.552016	8.19018	0.65631	9.76541	0.911444	12.5592	0.377715	5.62818	0.532234	7.93337	0.77428	11.1832
0.337552	4.85041	0.135455	1.93511	0.417913	6.1625	0.554515	8.11508	0.658753	9.66774	0.913239	12.4244	0.382014	5.61431	0.535001	7.86539	0.774908	11.143
0.339076	4.84084	0.137554	1.93928	0.421399	6.12968	0.557061	8.04267	0.661218	9.57302	0.915052	12.2932	0.386314	5.60081	0.537791	7.79957	0.775594	11.0998
0.340981	4.82857	0.139652	1.94333	0.424936	6.09849	0.559653	7.97284	0.663706	9.48115	0.916884	12.1656	0.390614	5.58767	0.540601	7.73581	0.77653	11.0417
0.343248	4.8135	0.14175	1.94728	0.428525	6.06885	0.56229	7.90548	0.666216	9.392	0.918734	12.0413	0.394913	5.57487	0.543433	7.67402	0.777721	10.9693
0.345859	4.79552	0.143847	1.95112	0.432166	6.0407	0.564973	7.8405	0.668748	9.30547	0.920602	11.9202	0.399212	5.56239	0.546286	7.61412	0.779171	10.8835
0.348791	4.77449	0.145944	1.95486	0.435857	6.01397	0.5677	7.77778	0.671301	9.22145	0.922245	11.8172	0.403509	5.55021	0.549159	7.55604	0.780886	10.7852
0.351655	4.75308	0.14804	1.9585	0.439597	5.9886	0.570472	7.71725	0.673876	9.13985	0.923657	11.7313	0.407803	5.53831	0.552052	7.4997	0.782871	10.6752
0.354452	4.7313	0.150136	1.96204	0.443386	5.9645	0.573288	7.65881	0.676472	9.06056	0.924831	11.6614	0.412096	5.52667	0.554964	7.44504	0.784875	10.5683
0.357184	4.7092	0.152232	1.96549	0.447221	5.94163	0.576147	7.60238	0.679089	8.98351	0.925765	11.607	0.416385	5.51529	0.557896	7.39198	0.786899	10.4642
0.359852	4.6868	0.154327	1.96886	0.451102	5.91992	0.579048	7.54787	0.681726	8.9086	0.926454	11.5674	0.420671	5.50413	0.560848	7.34047	0.788941	10.363
0.362458	4.66414	0.156422	1.97214	0.455027	5.8993	0.581992	7.49521	0.684385	8.83576	0.926896	11.5422	0.424953	5.49319	0.563818	7.29044	0.791001	10.2645
0.365003	4.64126	0.158516	1.97534	0.458995	5.87971	0.584976	7.44433	0.687063	8.76491	0.927534	11.5063	0.429231	5.48246	0.566807	7.24185	0.79308	10.1685
0.367491	4.61818	0.16061	1.97846	0.463002	5.86109	0.588002	7.39515	0.689762	8.69598	0.928229	11.4676	0.433504	5.47192	0.569815	7.19463	0.795177	10.075
0.369922	4.59493	0.162703	1.98151	0.467048	5.84339	0.591068	7.34761	0.692481	8.6289	0.929177	11.4155	0.437771	5.46155	0.57284	7.14874	0.797291	9.98396
0.372299	4.57155	0.164796	1.98448	0.471131	5.82656	0.594173	7.30164	0.695219	8.5636	0.930383	11.3505	0.442033	5.45136	0.575884	7.10412	0.799424	9.89522
0.374624	4.54807	0.166889	1.98738	0.475249	5.81053	0.597317	7.25719	0.697977	8.50002	0.93185	11.2732	0.446288	5.44132	0.578946	7.06074	0.801574	9.80871
0.376899	4.52451	0.168981	1.99022	0.479399	5.79526	0.600498	7.21418	0.700754	8.4381	0.933583	11.1843	0.450537	5.43142	0.582025	7.01854	0.803742	9.72437
0.379127	4.50091	0.171073	1.99299	0.483581	5.7807	0.603717	7.17257	0.703551	8.37779	0.935588	11.0846	0.454778	5.42165	0.585121	6.97749	0.805927	9.64212
0.381308	4.47728	0.173165	1.99569	0.487791	5.76681	0.606973	7.1323	0.706366	8.31902	0.93761	10.9873	0.459012	5.41201	0.588235	6.93754	0.808129	9.56188
0.383445	4.45365	0.175256	1.99834	0.492029	5.75354	0.610264	7.09331	0.7092	8.26175	0.939649	10.8922	0.463237	5.40248	0.591366	6.89866	0.810348	9.48359
0.385541	4.43005	0.177347	2.00092	0.496293	5.74085	0.61359	7.05557	0.712054	8.20592	0.941706	10.7994	0.467454	5.39306	0.594514	6.86082	0.812584	9.40719
0.387597	4.4065	0.179437	2.00345	0.50058	5.7287	0.616951	7.01901	0.714925	8.15149	0.943778	10.7088	0.471661	5.38373	0.597679	6.82397	0.814837	9.3326
0.389614	4.38301	0.181528	2.00592	0.50489	5.71706	0.620345	6.9836	0.717815	8.09841	0.945868	10.6202	0.475859	5.37449	0.60086	6.78808	0.817106	9.25978
0.391596	4.35961	0.183618	2.00834	0.50922	5.70589	0.623772	6.9493	0.720723	8.04663	0.947974	10.5337	0.480047	5.36533	0.604058	6.75313	0.819392	9.18866
0.393543	4.33631	0.185707	2.0107	0.513569	5.69517	0.627231	6.91605	0.723649	7.99613	0.950096	10.4491	0.484223	5.35623	0.607273	6.71908	0.821693	9.1192
0.395458	4.31313	0.187797	2.01302	0.517935	5.68485	0.630722	6.88382	0.726593	7.94685	0.952235	10.3664	0.488389	5.34721	0.610503	6.68591	0.824011	9.05133
0.397341	4.29008	0.189886	2.01529	0.522318	5.67492	0.634243	6.85256	0.729555	7.89875	0.95439	10.2855	0.492543	5.33823	0.613751	6.65358	0.826345	8.98501
0.399195	4.26717	0.191975	2.01751	0.526715	5.66535	0.637794	6.82226	0.732535	7.85181	0.956561	10.2064	0.496684	5.3293	0.617014	6.62207	0.828694	8.92019
0.401021	4.24441	0.194063	2.01968	0.531125	5.6561	0.641375	6.79286	0.735532	7.80598	0.958747	10.1291	0.500813	5.32042	0.620293	6.59135	0.831059	8.85682
0.40282	4.22183	0.196151	2.02181	0.535548	5.64717	0.644983	6.76433	0.738546	7.76123	0.96095	10.0534	0.504929	5.31157	0.623589	6.56141	0.833439	8.79486
0.404595	4.19942	0.198239	2.02389	0.539981	5.63853	0.64862	6.73665	0.741578	7.71752	0.963168	9.97931	0.509031	5.30274	0.6269	6.53222	0.835835	8.73427
0.406345	4.17719	0.200327	2.02594	0.544424	5.63015	0.652284	6.70977	0.744627	7.67484	0.965401	9.90682	0.513118	5.29394	0.630228	6.50375	0.838246	8.67501
0.408073	4.15515	0.202415	2.02794	0.548877	5.62202	0.655975	6.68368	0.747693	7.63314	0.96765	9.83586	0.517191	5.28516	0.633571	6.47599	0.840673	8.61703
0.409779	4.13332	0.204502	2.02991	0.553336	5.61412	0.659691	6.65834	0.750776	7.5924	0.969914	9.76638	0.521249	5.27639	0.636931	6.44892	0.843114	8.5603
0.411466	4.11169	0.206589	2.03183	0.557803	5.60644	0.663433	6.63372	0.753876	7.55258	0.972194	9.69834	0.52529	5.26762	0.640306	6.42251	0.84557	8.50478
0.413133	4.09027	0.208676	2.03372	0.562275	5.59896	0.667199	6.6098	0.756992	7.51368	0.974488	9.63171	0.529315	5.25885	0.643698	6.39674	0.84804	8.45044
0.414782	4.06906	0.210762	2.03557	0.566752	5.59167	0.670989	6.58655	0.760126	7.47564	0.976797	9.56644	0.533324	5.25007	0.647105	6.37161	0.850526	8.39725
0.416414	4.04807	0.212849	2.03739	0.571233	5.58454	0.674802	6.56395	0.763276	7.43846	0.979121	9.50249	0.537314	5.24129	0.650528	6.34709	0.853025	8.34516
0.41803	4.0273	0.214935	2.03917	0.575718	5.57758	0.678638	6.54198	0.766442	7.40211	0.981459	9.43983	0.541287	5.23249	0.653967	6.32316	0.85554	8.29416
0.41963	4.00676	0.217021	2.04092	0.580204	5.57077	0.682496	6.5206	0.769625	7.36657	0.983812	9.37842	0.545242	5.22367	0.657422	6.29982	0.858068	8.24421
0.421217	3.98644	0.219107	2.04264	0.584693	5.56409	0.686375	6.49981	0.772825	7.33181	0.98618	9.31822	0.549178	5.21483	0.660893	6.27703	0.860611	8.19528
0.422789	3.96635	0.221193	2.04433	0.589182	5.55754	0.690276	6.47958	0.776041	7.29782	0.988561	9.25922	0.553094	5.20596	0.66438	6.2548	0.863167	8.14734
0.424349	3.94649	0.223278	2.04598	0.593672	5.5511	0.694196	6.45988	0.779273	7.26457	0.990957	9.20136	0.55699	5.19706	0.667882	6.23311	0.865738	8.10037
0.425897	3.92686	0.225363	2.04761	0.598162	5.54478	0.698137	6.44071	0.782522	7.23204	0.993367	9.14462	0.560867	5.18812	0.671401	6.21193	0.868323	8.05434
0.427434	3.90746	0.227448	2.04921	0.60265	5.53855	0.702096	6.42204	0.785787	7.20021	0.995791	9.08898	0.564722	5.17915	0.674936	6.19126	0.870921	8.00922
0.42896	3.88829	0.229533	2.05078	0.607137	5.53242	0.706075	6.40385	0.789068	7.16907	0.998228	9.0344	0.568556	5.17013	0.678486	6.17109	0.873533	7.965
0.430475	3.86935	0.231618	2.05232	0.611622	5.52637	0.710071	6.38614	0.792366	7.13861	1.00068	8.98085	0.572368	5.16107	0.682053	6.1514	0.876159	7.92164
0.431982	3.85065	0.233702	2.05384	0.616105	5.5204	0.714085	6.36887	0.795679	7.10879			0.576158	5.15196	0.685635	6.13218	0.878798	7.87913
0.433479	3.83217	0.235787	2.05532	0.620584	5.51449	0.718116	6.35204	0.799009	7.07961			0.579925	5.14281	0.689233	6.11342	0.88145	7.83744
0.434969	3.81392	0.237871	2.05679	0.625059	5.50865	0.722163	6.33563	0.802355	7.05105			0.58367	5.1336	0.692847	6.09511	0.884116	7.79656
0.43645	3.7959	0.239955	2.05823	0.62953	5.50287	0.726227	6.31962	0.805718	7.02309			0.587391	5.12433	0.696477	6.07723	0.886796	7.75646
0.437925	3.77811	0.242039	2.05964	0.633997	5.49715	0.730306	6.30401	0.809096	6.99573			0.591088	5.11501	0.700123	6.05978	0.889488	7.71712
0.439392	3.76055	0.244123	2.06103	0.638458	5.49147	0.7344	6.28877	0.812491	6.96894			0.594761	5.10563	0.703785	6.04274	0.892194	7.67853
0.440854	3.7432	0.246206	2.0624	0.642914	5.48583	0.738509	6.2739	0.815902	6.94272			0.59841	5.0962	0.707462	6.02611	0.894912	7.64066
0.442309	3.72609	0.24829	2.06375	0.647364	5.48023	0.742631	6.25938	0.81933	6.91705			0.602034	5.0867	0.711155	6.00987	0.897644	7.6035
0.443759	3.70919	0.250373	2.06507	0.651807	5.47467	0.746768	6.2452	0.822774	6.89191			0.605632	5.07714	0.714863	5.99401	0.900389	7.56703
0.445204	3.69251	0.252456	2.06638	0.656243	5.46913	0.750917	6.23134	0.826234	6.8673			0.609206	5.06751	0.718587	5.97853	0.903146	7.53123
0.446644	3.67605	0.254539	2.06766	0.660672	5.46362	0.755079	6.21781	0.829711	6.84321			0.612753	5.05782	0.722326	5.96342	0.905917	7.4961
0.44808	3.6598	0.256622	2.06892	0.665094	5.45813	0.759253	6.20458	0.833204	6.81961			0.616275	5.04807	0.726081	5.94865	0.9087	7.4616
0.449512	3.64377	0.258705	2.07016	0.669508	5.45266	0.763439	6.19164	0.836714	6.79651			0.619771	5.03826	0.72985	5.93424	0.911496	7.42773
0.45094	3.62795	0.260788	2.07138	0.673913	5.4472	0.767636	6.17899	0.84024	6.77389			0.62324	5.02838	0.733634	5.92016	0.914304	7.39448
0.452365	3.61233	0.26287	2.07259	0.678309	5.44176	0.771844	6.16662	0.843783	6.75174			0.626683	5.01843	0.737433	5.90641	0.917126	7.36182
0.453787	3.59693	0.264953	2.07377	0.682697	5.43632	0.776062	6.1545	0.847344	6.73006			0.6301	5.00842	0.741247	5.89298	0.919959	7.32975
0.455206	3.58172	0.267035	2.07494	0.687075	5.43089	0.78029	6.14265	0.85092	6.70882			0.633489	4.99835	0.745075	5.87986	0.922806	7.29825
0.456623	3.56672	0.269118	2.07609	0.691443	5.42547	0.784528	6.13104	0.854514	6.68803			0.636852	4.98821	0.748917	5.86704	0.925665	7.26731
0.458037	3.55192	0.2712	2.07722	0.695802	5.42004	0.788774	6.11967	0.858125	6.66767			0.640188	4.97801	0.752773	5.85452	0.928536	7.23692
0.459449	3.53732	0.273282	2.07834	0.70015	5.41461	0.793029	6.10852	0.861754	6.64774			0.643497	4.96775	0.756643	5.84228	0.93142	7.20706
0.46086	3.52291	0.275364	2.07944	0.704487	5.40918	0.797292	6.0976	0.865399	6.62822			0.646778	4.95743	0.760526	5.83032	0.934316	7.17772
0.462269	3.50869	0.277445	2.08052	0.708814	5.40375	0.801563	6.08689	0.869062	6.60911			0.650033	4.94704	0.764422	5.81863	0.937224	7.1489
0.463677	3.49466	0.279527	2.08159	0.713129	5.3983	0.805841	6.07639	0.872743	6.59041			0.653261	4.9366	0.768332	5.80721	0.940145	7.12057
0.465084	3.48082	0.281609	2.08264	0.717433	5.39284	0.810126	6.06608	0.876441	6.57209			0.656461	4.92611	0.772253	5.79603	0.943078	7.09274
0.466489	3.46716	0.28369	2.08368	0.721725	5.38738	0.814418	6.05597	0.880157	6.55417			0.659634	4.91555	0.776187	5.78511	0.946023	7.06538
0.467894	3.45369	0.285772	2.0847	0.726004	5.3819	0.818715	6.04604	0.88389	6.53662			0.662781	4.90495	0.780134	5.77442	0.94898	7.03849
0.469299	3.4404	0.287853	2.0857	0.730272	5.3764	0.823018	6.03628	0.887642	6.51945			0.665901	4.89429	0.784091	5.76396	0.95195	7.01206
0.470703	3.42728	0.289934	2.0867	0.734527	5.37088	0.827327	6.0267	0.891412	6.50264			0.668993	4.88358	0.788061	5.75373	0.954931	6.98608
0.472106	3.41434	0.292015	2.08768	0.73877	5.36535	0.831639	6.01728	0.8952	6.48619			0.672059	4.87282	0.792041	5.74372	0.957925	6.96054
0.47351	3.40157	0.294096	2.08864	0.742999	5.3598	0.835957	6.00801	0.899007	6.47009			0.675099	4.86201	0.796032	5.73392	0.960931	6.93542
0.474914	3.38897	0.296177	2.08959	0.747215	5.35423	0.840278	5.9989	0.902832	6.45434			0.678112	4.85116	0.800033	5.72433	0.963949	6.91073
0.476318	3.37654	0.298258	2.09053	0.751418	5.34864	0.844603	5.98993	0.906675	6.43893			0.681099	4.84026	0.804044	5.71493	0.966979	6.88646
0.477722	3.36428	0.300339	2.09146	0.755606	5.34302	0.848931	5.98111	0.910538	6.42386			0.684059	4.82933	0.808064	5.70572	0.97002	6.86259
0.479127	3.35217	0.30242	2.09237	0.759781	5.33738	0.853262	5.97242	0.914419	6.40911			0.686994	4.81835	0.812094	5.6967	0.973074	6.83911
0.480532	3.34023	0.3045	2.09328	0.763942	5.33171	0.857595	5.96385	0.918319	6.39469			0.689903	4.80734	0.816133	5.68786	0.97614	6.81602
0.481938	3.32845	0.306581	2.09417	0.768089	5.32601	0.86193	5.95542	0.922238	6.38058			0.692787	4.7963	0.82018	5.67919	0.979217	6.79332
0.483345	3.31682	0.308661	2.09504	0.77222	5.32029	0.866267	5.9471	0.926177	6.36679			0.695645	4.78522	0.824235	5.67068	0.982307	6.77099
0.484753	3.30535	0.310742	2.09591	0.776338	5.31455	0.870605	5.93889	0.930134	6.35331			0.698478	4.77411	0.828298	5.66234	0.985408	6.74902
0.486162	3.29403	0.312822	2.09677	0.78044	5.30877	0.874945	5.9308	0.934111	6.34012			0.701286	4.76297	0.832369	5.65415	0.988521	6.72741
0.487572	3.28286	0.314902	2.09761	0.784527	5.30296	0.879285	5.92281	0.938108	6.32723			0.704069	4.75181	0.836446	5.64611	0.991646	6.70615
0.488983	3.27184	0.316983	2.09844	0.788599	5.29713	0.883625	5.91493	0.942124	6.31464			0.706828	4.74062	0.84053	5.63822	0.994782	6.68524
0.490395	3.26096	0.319063	2.09927	0.792655	5.29126	0.887966	5.90714	0.946159	6.30233			0.709563	4.72941	0.844619	5.63047	0.99793	6.66467
0.491809	3.25022	0.321143	2.10008	0.796696	5.28536	0.892306	5.89945	0.950214	6.2903			0.712274	4.71818	0.848715	5.62285	1.00109	6.64443
0.493224	3.23963	0.323223	2.10088	0.800721	5.27943	0.896646	5.89185	0.954289	6.27855			0.714962	4.70693	0.852816	5.61535		
0.494641	3.22917	0.325303	2.10167	0.804731	5.27347	0.900985	5.88434	0.958383	6.26707			0.717626	4.69567	0.856922	5.60799		
0.496059	3.21885	0.327382	2.10245	0.808724	5.26748	0.905322	5.87691	0.962497	6.25586			0.720267	4.68439	0.861033	5.60074		
0.497479	3.20867	0.329462	2.10322	0.812701	5.26145	0.909659	5.86956	0.96663	6.24491			0.722885	4.6731	0.865148	5.59361		
0.4989	3.19861	0.331542	2.10399	0.816661	5.25539	0.913994	5.86229	0.970783	6.23421			0.725481	4.6618	0.869266	5.58658		
0.500324	3.18869	0.333622	2.10474	0.820605	5.2493	0.918327	5.85509	0.974956	6.22377			0.728054	4.6505	0.873389	5.57967		
0.501749	3.1789	0.335701	2.10548	0.824533	5.24318	0.922659	5.84797	0.979148	6.21358			0.730605	4.63918	0.877514	5.57285		
0.503176	3.16924	0.337781	2.10622	0.828444	5.23702	0.926988	5.84092	0.983359	6.20362			0.733135	4.62787	0.881642	5.56613		
0.504605	3.15969	0.33986	2.10695	0.832338	5.23083	0.931315	5.83393	0.98759	6.19391			0.735644	4.61655	0.885773	5.55951		
0.506036	3.15028	0.34194	2.10766	0.836215	5.22461	0.935639	5.82701	0.991841	6.18443			0.738131	4.60524	0.889905	5.55297		
0.507469	3.14098	0.344019	2.10837	0.840076	5.21835	0.939961	5.82016	0.99611	6.17517			0.740597	4.59392	0.894039	5.54652		
0.508905	3.1318	0.346098	2.10907	0.843919	5.21206	0.94428	5.81336	1.0004	6.16614			0.743043	4.58261	0.898175	5.54016		
0.510342	3.12274	0.348178	2.10976	0.847745	5.20573	0.948596	5.80663					0.745469	4.5713	0.902311	5.53387		
0.511781	3.1138	0.350257	2.11045	0.851554	5.19937	0.95291	5.79995					0.747875	4.56	0.906448	5.52766		
0.513223	3.10497	0.352336	2.11112	0.855345	5.19298	0.95722	5.79333					0.750261	4.54871	0.910586	5.52151		
0.514667	3.09625	0.354415	2.11179	0.85912	5.18656	0.961527	5.78677					0.752628	4.53743	0.914723	5.51544		
0.516113	3.08764	0.356494	2.11245	0.862876	5.1801	0.965831	5.78026					0.754976	4.52616	0.91886	5.50943		
0.517561	3.07915	0.358573	2.11311	0.866616	5.17361	0.970131	5.77381					0.757306	4.51491	0.922996	5.50349		
0.519012	3.07076	0.360652	2.11375	0.870337	5.16709	0.974429	5.7674					0.759616	4.50367	0.927131	5.4976		
0.520465	3.06247	0.362731	2.11439	0.874042	5.16054	0.978723	5.76105					0.761909	4.49245	0.931264	5.49177		
0.52192	3.05429	0.36481	2.11502	0.877728	5.15395	0.983014	5.75475					0.764184	4.48124	0.935396	5.486		
0.523378	3.04621	0.366888	2.11565	0.881397	5.14734	0.987301	5.74849					0.766441	4.47006	0.939526	5.48028		
0.524839	3.03824	0.368967	2.11626	0.885048	5.14069	0.991585	5.74228					0.768681	4.45889	0.943654	5.4746		
0.526301	3.03036	0.371046	2.11687	0.888682	5.13401	0.995866	5.73612					0.770904	4.44775	0.947779	5.46897		
0.527766	3.02258	0.373125	2.11748	0.892298	5.1273	1.00014	5.73001					0.77311	4.43663	0.951901	5.46338		
0.529234	3.0149	0.375203	2.11807	0.895896	5.12056							0.7753	4.42553	0.956019	5.45784		
0.530704	3.00731	0.377282	2.11866	0.899477	5.1138							0.777474	4.41446	0.960135	5.45233		
0.532177	2.99982	0.37936	2.11925	0.90304	5.107							0.779632	4.40342	0.964246	5.44686		
0.533652	2.99242	0.381439	2.11983	0.906585	5.10018							0.781774	4.39241	0.968354	5.44142		
0.535129	2.98511	0.383517	2.1204	0.910112	5.09332							0.783901	4.38142	0.972457	5.43602		
0.53661	2.97789	0.385596	2.12096	0.913622	5.08645							0.786013	4.37047	0.976555	5.43064		
0.538092	2.97076	0.387674	2.12152	0.917114	5.07954							0.78811	4.35954	0.980648	5.4253		
0.539578	2.96371	0.389752	2.12208	0.920588	5.07261							0.790193	4.34865	0.984737	5.41998		
0.541065	2.95675	0.391831	2.12263	0.924045	5.06565							0.792261	4.33779	0.988819	5.41468		
0.542556	2.94988	0.393909	2.12317	0.927484	5.05867							0.794316	4.32697	0.992896	5.40941		
0.544049	2.94309	0.395987	2.1237	0.930906	5.05166							0.796356	4.31618	0.996968	5.40416		
0.545545	2.93638	0.398065	2.12424	0.93431	5.04462							0.798384	4.30543	1.00103	5.39893		
0.547043	2.92975	0.400143	2.12476	0.937697	5.03757							0.800398	4.29471				
0.548544	2.9232	0.402221	2.12528	0.941066	5.03049							0.802399	4.28403				
0.550047	2.91673	0.404299	2.1258	0.944418	5.02339							0.804387	4.27339				
0.551553	2.91034	0.406377	2.12631	0.947753	5.01627							0.806364	4.26279				
0.553062	2.90403	0.408455	2.12681	0.95107	5.00912							0.808327	4.25223				
0.554573	2.89778	0.410533	2.12731	0.95437	5.00196							0.810279	4.24171				
0.556087	2.89162	0.412611	2.1278	0.957653	4.99478							0.812219	4.23123				
0.557603	2.88552	0.414689	2.12829	0.960919	4.98757							0.814148	4.22079				
0.559123	2.8795	0.416767	2.12878	0.964168	4.98035							0.816065	4.21039				
0.560644	2.87355	0.418845	2.12926	0.9674	4.97311							0.817972	4.20004				
0.562169	2.86767	0.420922	2.12973	0.970614	4.96585							0.819867	4.18972				
0.563696	2.86186	0.423	2.1302	0.973813	4.95858							0.821752	4.17946				
0.565225	2.85611	0.425078	2.13067	0.976994	4.95129							0.823627	4.16924				
0.566757	2.85043	0.427155	2.13113	0.980158	4.94398							0.825491	4.15906				
0.568292	2.84482	0.429233	2.13159	0.983306	4.93666							0.827346	4.14893				
0.569829	2.83928	0.431311	2.13204	0.986438	4.92932							0.82919	4.13884				
0.571369	2.83379	0.433388	2.13249	0.989553	4.92197							0.831026	4.1288				
0.572912	2.82837	0.435466	2.13293	0.992651	4.91461							0.832851	4.1188				
0.574457	2.82302	0.437543	2.13337	0.995733	4.90723							0.834668	4.10886				
0.576005	2.81772	0.439621	2.13381	0.998799	4.89985							0.836476	4.09896				
0.577555	2.81249	0.441698	2.13424	1.00185	4.89244							0.838275	4.0891				
0.579108	2.80731	0.443775	2.13467									0.840066	4.0793				
0.580663	2.8022	0.445853	2.13509									0.841848	4.06954				
0.582221	2.79714	0.44793	2.13551									0.843622	4.05983				
0.583781	2.79214	0.450008	2.13593									0.845388	4.05017				
0.585344	2.78719	0.452085	2.13634									0.847146	4.04056				
0.58691	2.7823	0.454162	2.13675									0.848897	4.031				
0.588478	2.77747	0.456239	2.13716									0.85064	4.02148				
0.590048	2.77269	0.458317	2.13756									0.852376	4.01202				
0.591621	2.76796	0.460394	2.13796									0.854105	4.0026				
0.593197	2.76329	0.462471	2.13835									0.855827	3.99324				
0.594775	2.75866	0.464548	2.13874									0.857542	3.98392				
0.596355	2.75409	0.466625	2.13913									0.85925	3.97465				
0.597938	2.74957	0.468702	2.13951									0.860952	3.96544				
0.599523	2.7451	0.470779	2.13989									0.862648	3.95627				
0.601111	2.74068	0.472856	2.14027									0.864338	3.94715				
0.602702	2.73631	0.474933	2.14064									0.866021	3.93808				
0.604294	2.73198	0.47701	2.14101									0.867699	3.92907				
0.605889	2.7277	0.479087	2.14138									0.869371	3.9201				
0.607487	2.72347	0.481164	2.14174									0.871037	3.91118				
0.609087	2.71929	0.483241	2.1421									0.872698	3.90231				
0.610689	2.71515	0.485318	2.14246									0.874354	3.8935				
0.612294	2.71105	0.487395	2.14282									0.876004	3.88473				
0.613901	2.707	0.489472	2.14317									0.877649	3.87601				
0.61551	2.70299	0.491548	2.14352									0.87929	3.86734				
0.617122	2.69903	0.493625	2.14386									0.880925	3.85872				
0.618736	2.6951	0.495702	2.14421									0.882556	3.85015				
0.620353	2.69122	0.497779	2.14455									0.884183	3.84164				
0.621971	2.68738	0.499855	2.14489									0.885805	3.83317				
0.623592	2.68358	0.501932	2.14522									0.887423	3.82475				
0.625216	2.67983	0.504009	2.14555									0.889036	3.81638				
0.626841	2.67611	0.506085	2.14588									0.890646	3.80805				
0.628469	2.67243	0.508162	2.14621									0.892251	3.79978				
0.630099	2.66878	0.510239	2.14653									0.893853	3.79156				
0.631732	2.66518	0.512315	2.14685									0.89545	3.78338				
0.633366	2.66162	0.514392	2.14717									0.897045	3.77526				
0.635003	2.65809	0.516468	2.14749									0.898635	3.76718				
0.636642	2.65459	0.518545	2.1478									0.900223	3.75915				
0.638283	2.65114	0.520621	2.14811									0.901806	3.75117				
0.639927	2.64772	0.522698	2.14842									0.903387	3.74324				
0.641572	2.64433	0.524774	2.14873									0.904964	3.73536				
0.64322	2.64098	0.526851	2.14903									0.906539	3.72752				
0.64487	2.63767	0.528927	2.14933									0.90811	3.71973				
0.646522	2.63439	0.531004	2.14963									0.909679	3.71199				
0.648176	2.63114	0.53308	2.14993									0.911244	3.70429				
0.649832	2.62792	0.535156	2.15022									0.912807	3.69665				
0.651491	2.62474	0.537233	2.15052									0.914368	3.68905				
0.653151	2.62159	0.539309	2.15081									0.915925	3.68149				
0.654814	2.61847	0.541385	2.15109									0.917481	3.67399				
0.656479	2.61538	0.543462	2.15138									0.919034	3.66652				
0.658145	2.61233	0.545538	2.15166									0.920584	3.65911				
0.659814	2.6093	0.547614	2.15194									0.922133	3.65174				
0.661485	2.6063	0.54969	2.15222									0.923679	3.64442				
0.663158	2.60334	0.551767	2.1525									0.925223	3.63714				
0.664833	2.6004	0.553843	2.15277									0.926765	3.62991				
0.66651	2.5975	0.555919	2.15305									0.928305	3.62272				
0.668188	2.59462	0.557995	2.15332									0.929843	3.61558				
0.669869	2.59177	0.560071	2.15359									0.93138	3.60848				
0.671552	2.58895	0.562147	2.15385									0.932914	3.60142				
0.673237	2.58615	0.564224	2.15412									0.934447	3.59441				
0.674923	2.58339	0.5663	2.15438									0.935979	3.58745				
0.676612	2.58065	0.568376	2.15464									0.937509	3.58052				
0.678303	2.57793	0.570452	2.1549									0.939037	3.57365				
0.679995	2.57525	0.572528	2.15516									0.940564	3.56681				
0.68169	2.57259	0.574604	2.15541									0.942089	3.56002				
0.683386	2.56995	0.57668	2.15567									0.943613	3.55327				
0.685084	2.56734	0.578756	2.15592									0.945136	3.54656				
0.686784	2.56476	0.580832	2.15617									0.946658	3.53989				
0.688486	2.5622	0.582908	2.15642									0.948179	3.53327				
0.69019	2.55966	0.584984	2.15666									0.949698	3.52669				
0.691895	2.55715	0.58706	2.15691									0.951216	3.52014				
0.693603	2.55467	0.589136	2.15715									0.952734	3.51365				
0.695312	2.5522	0.591211	2.15739									0.95425	3.50719				
0.697023	2.54976	0.593287	2.15763									0.955766	3.50077				
0.698736	2.54735	0.595363	2.15787									0.95728	3.49439				
0.70045	2.54496	0.597439	2.15811									0.958794	3.48805				
0.702167	2.54258	0.599515	2.15834									0.960307	3.48176				
0.703885	2.54024	0.601591	2.15857									0.961819	3.4755				
0.705605	2.53791	0.603666	2.1588									0.963331	3.46928				
0.707326	2.5356	0.605742	2.15903									0.964842	3.4631				
0.709049	2.53332	0.607818	2.15926									0.966352	3.45696				
0.710775	2.53106	0.609894	2.15949									0.967862	3.45086				
0.712501	2.52882	0.61197	2.15971									0.969371	3.4448				
0.71423	2.5266	0.614045	2.15994									0.97088	3.43878				
0.71596	2.5244	0.616121	2.16016									0.972388	3.43279				
0.717692	2.52222	0.618197	2.16038									0.973896	3.42684				
0.719425	2.52006	0.620272	2.1606									0.975403	3.42093				
0.72116	2.51792	0.622348	2.16082									0.976911	3.41506				
0.722897	2.5158	0.624424	2.16103									0.978418	3.40922				
0.724636	2.5137	0.626499	2.16125									0.979924	3.40342				
0.726376	2.51162	0.628575	2.16146									0.981431	3.39766				
0.728117	2.50956	0.630651	2.16167									0.982937	3.39194				
0.729861	2.50751	0.632726	2.16188									0.984443	3.38625				
0.731606	2.50549	0.634802	2.16209									0.985949	3.38059				
0.733352	2.50348	0.636877	2.1623									0.987454	3.37497				
0.7351	2.50149	0.638953	2.16251									0.98896	3.36939				
0.73685	2.49952	0.641028	2.16271									0.990466	3.36384				
0.738601	2.49757	0.643104	2.16291									0.991971	3.35833				
0.740354	2.49563	0.645179	2.16312									0.993477	3.35285				
0.742108	2.49371	0.647255	2.16332									0.994983	3.34741				
0.743864	2.49181	0.649331	2.16352									0.996488	3.342				
0.745621	2.48993	0.651406	2.16372									0.997994	3.33662				
0.74738	2.48806	0.653481	2.16391									0.9995	3.33128				
0.74914	2.48621	0.655557	2.16411									1.00101	3.32597				
0.750902	2.48437	0.657632	2.1643														
0.752666	2.48256	0.659708	2.1645														
0.75443	2.48075	0.661783	2.16469														
0.756197	2.47897	0.663859	2.16488														
0.757964	2.4772	0.665934	2.16507														
0.759734	2.47544	0.668009	2.16526														
0.761504	2.4737	0.670085	2.16545														
0.763276	2.47197	0.67216	2.16563														
0.76505	2.47026	0.674235	2.16582														
0.766825	2.46857	0.676311	2.166														
0.768601	2.46689	0.678386	2.16618														
0.770379	2.46522	0.680461	2.16637														
0.772158	2.46357	0.682537	2.16655														
0.773938	2.46193	0.684612	2.16673														
0.77572	2.46031	0.686687	2.1669														
0.777503	2.4587	0.688762	2.16708														
0.779288	2.4571	0.690838	2.16726														
0.781074	2.45552	0.692913	2.16743														
0.782861	2.45395	0.694988	2.16761														
0.78465	2.4524	0.697063	2.16778														
0.786439	2.45085	0.699138	2.16795														
0.788231	2.44932	0.701214	2.16812														
0.790023	2.44781	0.703289	2.16829														
0.791817	2.4463	0.705364	2.16846														
0.793612	2.44481	0.707439	2.16863														
0.795408	2.44333	0.709514	2.1688														
0.797206	2.44187	0.711589	2.16896														
0.799005	2.44041	0.713664	2.16913														
0.800805	2.43897	0.715739	2.16929														
0.802607	2.43754	0.717815	2.16946														
0.804409	2.43612	0.71989	2.16962														
0.806213	2.43471	0.721965	2.16978														
0.808018	2.43332	0.72404	2.16994														
0.809825	2.43194	0.726115	2.1701														
0.811632	2.43056	0.72819	2.17026														
0.813441	2.4292	0.730265	2.17041														
0.815251	2.42785	0.73234	2.17057														
0.817062	2.42651	0.734415	2.17073														
0.818874	2.42518	0.73649	2.17088														
0.820688	2.42387	0.738565	2.17103														
0.822503	2.42256	0.74064	2.17119														
0.824318	2.42126	0.742715	2.17134														
0.826135	2.41998	0.74479	2.17149														
0.827954	2.4187	0.746864	2.17164														
0.829773	2.41744	0.748939	2.17179														
0.831593	2.41618	0.751014	2.17194														
0.833415	2.41494	0.753089	2.17209														
0.835237	2.4137	0.755164	2.17224														
0.837061	2.41248	0.757239	2.17238														
0.838886	2.41126	0.759314	2.17253														
0.840712	2.41006	0.761389	2.17267														
0.842539	2.40886	0.763464	2.17282														
0.844367	2.40768	0.765538	2.17296														
0.846197	2.4065	0.767613	2.1731														
0.848027	2.40533	0.769688	2.17324														
0.849858	2.40417	0.771763	2.17338														
0.851691	2.40302	0.773838	2.17352														
0.853524	2.40188	0.775912	2.17366														
0.855359	2.40075	0.777987	2.1738														
0.857195	2.39963	0.780062	2.17394														
0.859031	2.39851	0.782137	2.17408														
0.860869	2.39741	0.784211	2.17421														
0.862708	2.39631	0.786286	2.17435														
0.864547	2.39522	0.788361	2.17448														
0.866388	2.39414	0.790436	2.17462														
0.86823	2.39307	0.79251	2.17475														
0.870072	2.39201	0.794585	2.17488														
0.871916	2.39095	0.79666	2.17502														
0.873761	2.3899	0.798734	2.17515														
0.875607	2.38886	0.800809	2.17528														
0.877453	2.38783	0.802884	2.17541														
0.879301	2.38681	0.804958	2.17554														
0.88115	2.38579	0.807033	2.17567														
0.882999	2.38478	0.809107	2.17579														
0.88485	2.38378	0.811182	2.17592														
0.886701	2.38279	0.813257	2.17605														
0.888554	2.38181	0.815331	2.17617														
0.890407	2.38083	0.817406	2.1763														
0.892261	2.37986	0.81948	2.17642														
0.894116	2.37889	0.821555	2.17655														
0.895973	2.37794	0.823629	2.17667														
0.89783	2.37699	0.825704	2.17679														
0.899688	2.37605	0.827778	2.17691														
0.901547	2.37511	0.829853	2.17704														
0.903406	2.37418	0.831927	2.17716														
0.905267	2.37326	0.834002	2.17728														
0.907128	2.37235	0.836076	2.1774														
0.908991	2.37144	0.838151	2.17752														
0.910854	2.37054	0.840225	2.17763														
0.912718	2.36965	0.8423	2.17775														
0.914584	2.36876	0.844374	2.17787														
0.916449	2.36788	0.846449	2.17799														
0.918316	2.367	0.848523	2.1781														
0.920184	2.36613	0.850598	2.17822														
0.922052	2.36527	0.852672	2.17833														
0.923922	2.36442	0.854746	2.17845														
0.925792	2.36357	0.856821	2.17856														
0.927663	2.36272	0.858895	2.17867														
0.929535	2.36189	0.86097	2.17879														
0.931407	2.36105	0.863044	2.1789														
0.933281	2.36023	0.865118	2.17901														
0.935155	2.35941	0.867193	2.17912														
0.93703	2.3586	0.869267	2.17923														
0.938906	2.35779	0.871341	2.17934														
0.940783	2.35699	0.873416	2.17945														
0.94266	2.35619	0.87549	2.17956														
0.944538	2.3554	0.877564	2.17967														
0.946418	2.35462	0.879638	2.17978														
0.948297	2.35384	0.881713	2.17988														
0.950178	2.35306	0.883787	2.17999														
0.952059	2.35229	0.885861	2.1801														
0.953942	2.35153	0.887936	2.1802														
0.955825	2.35077	0.89001	2.18031														
0.957708	2.35002	0.892084	2.18041														
0.959593	2.34928	0.894158	2.18052														
0.961478	2.34853	0.896232	2.18062														
0.963364	2.3478	0.898307	2.18072														
0.965251	2.34707	0.900381	2.18083														
0.967138	2.34634	0.902455	2.18093														
0.969026	2.34562	0.904529	2.18103														
0.970915	2.3449	0.906603	2.18113														
0.972805	2.34419	0.908678	2.18123														
0.974695	2.34349	0.910752	2.18133														
0.976586	2.34278	0.912826	2.18143														
0.978478	2.34209	0.9149	2.18153														
0.980371	2.3414	0.916974	2.18163														
0.982264	2.34071	0.919048	2.18173														
0.984158	2.34003	0.921122	2.18183														
0.986052	2.33935	0.923196	2.18192														
0.987948	2.33868	0.925271	2.18202														
0.989844	2.33801	0.927345	2.18212														
0.99174	2.33735	0.929419	2.18222														
0.993638	2.33669	0.931493	2.18231														
0.995536	2.33603	0.933567	2.18241														
0.997435	2.33538	0.935641	2.1825														
0.999334	2.33474	0.937715	2.1826														
1.00123	2.33409	0.939789	2.18269														
		0.941863	2.18278														
		0.943937	2.18288														
		0.946011	2.18297														
		0.948085	2.18306														
		0.950159	2.18315														
		0.952233	2.18325														
		0.954307	2.18334														
		0.956381	2.18343														
		0.958455	2.18352														
		0.960529	2.18361														
		0.962603	2.1837														
		0.964677	2.18379														
		0.966751	2.18388														
		0.968825	2.18396														
		0.970898	2.18405														
		0.972972	2.18414														
		0.975046	2.18423														
		0.97712	2.18431														
		0.979194	2.1844														
		0.981268	2.18449														
		0.983342	2.18457														
		0.985416	2.18466														
		0.987489	2.18474														
		0.989563	2.18483														
		0.991637	2.18491														
		0.993711	2.18499														
		0.995785	2.18508														
		0.997858	2.18516														
		0.999932	2.18524														
		1.00201	2.18533														
