Sym0		Asym0		Sym1		Sym2		Sym3		Sym4		Asym1		Asym2		Asym3	
466  Points		497  Points		223  Points		191  Points		178  Points		124  Points		328  Points		203  Points		165  Points	
Freq (MHz)	Vph (m/ms)	Freq (MHz)	Vph (m/ms)	Freq (MHz)	Vph (m/ms)	Freq (MHz)	Vph (m/ms)	Freq (MHz)	Vph (m/ms)	Freq (MHz)	Vph (m/ms)	Freq (MHz)	Vph (m/ms)	Freq (MHz)	Vph (m/ms)	Freq (MHz)	Vph (m/ms)
0.00039635	5.37768	6.04103e-005	0.0686273	0.279509	2403.37	0.478761	674.39	0.559022	1207.87	0.838535	1054.85	0.139767	425.661	0.419266	1264.76	0.698786	759.712
0.005407	5.37797	0.000255506	0.141011	0.279552	266.75	0.478787	291.656	0.559066	400.904	0.83857	485.67	0.139938	111.057	0.41931	331.945	0.69883	377.441
0.0104173	5.37783	0.00058386	0.212804	0.279665	141.267	0.478833	186.077	0.559154	240.371	0.838631	315.474	0.140308	64.0166	0.419407	191.083	0.698905	251.116
0.0154273	5.37762	0.00104266	0.28369	0.279847	96.1218	0.478899	136.633	0.559285	171.67	0.838718	233.625	0.140875	45.1027	0.419555	134.19	0.69901	188.164
0.0204364	5.37732	0.0016282	0.353415	0.280099	72.884	0.478986	107.96	0.55946	133.535	0.838831	185.512	0.141637	34.9277	0.419754	103.432	0.699144	150.464
0.0254446	5.37693	0.00233606	0.421766	0.280419	58.7293	0.479094	89.2434	0.559679	109.285	0.83897	153.843	0.142587	28.5927	0.420006	84.1699	0.699308	125.363
0.0304516	5.37645	0.0031608	0.488499	0.280808	49.2087	0.479222	76.066	0.559941	92.5065	0.839134	131.421	0.143721	24.2833	0.420308	70.978	0.699503	107.451
0.0354571	5.3759	0.00409663	0.553439	0.281265	42.3708	0.479372	66.2868	0.560246	80.2107	0.839325	114.712	0.145033	21.1721	0.420663	61.3805	0.699727	94.0283
0.040461	5.37526	0.0051374	0.616451	0.281789	37.2252	0.479542	58.7424	0.560595	70.8146	0.839541	101.781	0.146517	18.8278	0.421068	54.0867	0.699981	83.5962
0.0454628	5.37452	0.00627653	0.677407	0.282381	33.2152	0.479734	52.746	0.560987	63.4022	0.839783	91.4778	0.148164	17.0037	0.421525	48.358	0.700265	75.2564
0.0504625	5.3737	0.00750745	0.736225	0.283039	30.0044	0.479948	47.8662	0.561422	57.4065	0.840051	83.0757	0.149968	15.5483	0.422032	43.7409	0.700579	68.4376
0.0554597	5.37278	0.00882354	0.792848	0.283764	27.3773	0.480184	43.8181	0.5619	52.4578	0.840345	76.0936	0.151921	14.3633	0.42259	39.9418	0.700922	62.7591
0.0604543	5.37178	0.0102184	0.847252	0.284554	25.1892	0.480441	40.4063	0.56242	48.3048	0.840664	70.2	0.154015	13.3825	0.423198	36.762	0.701295	57.9576
0.0654458	5.37068	0.0116856	0.899423	0.285408	23.3399	0.480722	37.4921	0.562983	44.7705	0.841009	65.1593	0.156244	12.5594	0.423857	34.0624	0.701697	53.8448
0.0704339	5.36949	0.0132191	0.949377	0.286326	21.7572	0.481025	34.9744	0.563587	41.727	0.84138	60.7993	0.1586	11.8605	0.424566	31.7427	0.702129	50.2831
0.0754186	5.3682	0.0148132	0.99714	0.287306	20.3883	0.481352	32.7777	0.564234	39.0791	0.841777	56.991	0.161075	11.261	0.425324	29.7285	0.702591	47.1689
0.0803993	5.36682	0.0164624	1.04276	0.288349	19.1933	0.481702	30.8446	0.564922	36.755	0.842199	53.6362	0.163325	10.805	0.426131	27.9639	0.703082	44.4232
0.0853759	5.36533	0.0181617	1.08629	0.289453	18.1417	0.482076	29.1307	0.565651	34.6991	0.842646	50.6588	0.165307	10.4573	0.426988	26.4056	0.703602	41.9845
0.0903479	5.36374	0.0199063	1.12778	0.290617	17.2097	0.482475	27.6009	0.566422	32.8678	0.843119	47.9988	0.166989	10.1946	0.427893	25.02	0.704152	39.8044
0.0953152	5.36204	0.0216918	1.16732	0.29184	16.3785	0.482899	26.2272	0.567233	31.2267	0.843618	45.608	0.168345	10.0011	0.428846	23.7802	0.70473	37.8439
0.100277	5.36024	0.0235141	1.20498	0.293121	15.6329	0.483348	24.9872	0.568085	29.7478	0.844142	43.4479	0.169357	9.86619	0.429847	22.6648	0.705338	36.0718
0.105234	5.35833	0.0253696	1.24082	0.294458	14.9609	0.483823	23.8625	0.568976	28.4085	0.844691	41.4867	0.170011	9.78292	0.430896	21.6562	0.705974	34.4623
0.110184	5.3563	0.0272549	1.27493	0.295852	14.3523	0.484325	22.8378	0.569908	27.1901	0.845265	39.6983	0.17096	9.6672	0.431992	20.7401	0.70664	32.9942
0.115129	5.35415	0.029167	1.30739	0.2973	13.7989	0.484854	21.9005	0.570879	26.0773	0.845865	38.061	0.172002	9.54649	0.433134	19.9046	0.707334	31.6498
0.120066	5.35188	0.0311029	1.33828	0.298802	13.2937	0.48541	21.0402	0.571889	25.057	0.84649	36.5566	0.173437	9.3903	0.434323	19.1398	0.708057	30.4142
0.124997	5.3495	0.0330601	1.36767	0.300357	12.831	0.485994	20.2478	0.572938	24.1184	0.84714	35.1695	0.175281	9.20491	0.435557	18.4372	0.708809	29.2749
0.12992	5.34698	0.0350363	1.39563	0.301962	12.4058	0.486607	19.5158	0.574025	23.2522	0.847814	33.8868	0.177553	8.99721	0.436837	17.7897	0.709589	28.2211
0.134834	5.34432	0.0370295	1.42224	0.303618	12.014	0.48725	18.8377	0.57515	22.4505	0.848514	32.6972	0.180274	8.77411	0.438162	17.1914	0.710397	27.2438
0.139741	5.34154	0.0390377	1.44757	0.305323	11.6519	0.487922	18.2078	0.576313	21.7065	0.849239	31.5909	0.183467	8.54216	0.439531	16.637	0.711233	26.3349
0.144638	5.3386	0.0410593	1.47169	0.307075	11.3164	0.488624	17.6214	0.577514	21.0143	0.849988	30.5596	0.186731	8.33266	0.440944	16.1219	0.712098	25.4876
0.149526	5.33552	0.0430926	1.49466	0.308875	11.0048	0.489358	17.0741	0.578751	20.3688	0.850763	29.5961	0.190062	8.14275	0.442401	15.6423	0.712991	24.696
0.154403	5.33229	0.0448732	1.51378	0.31048	10.751	0.490123	16.5624	0.580025	19.7655	0.851562	28.6939	0.193456	7.97002	0.4439	15.1948	0.713911	23.9549
0.15927	5.3289	0.0463967	1.52947	0.311875	10.5466	0.490921	16.083	0.581336	19.2005	0.852385	27.8474	0.196909	7.81242	0.445442	14.7763	0.714859	23.2595
0.164125	5.32534	0.0476601	1.54202	0.313046	10.3852	0.491752	15.6331	0.582682	18.6705	0.853233	27.0517	0.200418	7.66819	0.447026	14.3843	0.715835	22.606
0.168968	5.32161	0.0486611	1.55169	0.313984	10.2623	0.492616	15.2101	0.584064	18.1722	0.854105	26.3024	0.20398	7.53585	0.448651	14.0163	0.716838	21.9906
0.173799	5.3177	0.0493983	1.55866	0.314681	10.1744	0.493515	14.8117	0.585481	17.7031	0.855002	25.5956	0.207592	7.41409	0.450317	13.6705	0.717868	21.4103
0.178615	5.31361	0.0498706	1.56306	0.315129	10.1192	0.494449	14.4361	0.586933	17.2608	0.855923	24.9279	0.211251	7.30181	0.452023	13.3448	0.718925	20.8621
0.183418	5.30932	0.0505502	1.5693	0.315777	10.0413	0.495419	14.0814	0.588419	16.843	0.856868	24.2961	0.214955	7.19801	0.453769	13.0378	0.72001	20.3436
0.188205	5.30482	0.0512896	1.57598	0.316487	9.95849	0.496425	13.7459	0.58994	16.4479	0.857837	23.6976	0.2187	7.10186	0.455555	12.7478	0.721121	19.8523
0.192976	5.30012	0.0522964	1.58488	0.317461	9.84889	0.497468	13.4284	0.591494	16.0737	0.858829	23.1297	0.222486	7.01261	0.457379	12.4736	0.722259	19.3864
0.19773	5.29519	0.0535718	1.59585	0.318706	9.71503	0.49855	13.1274	0.593081	15.7188	0.859846	22.5902	0.226308	6.92961	0.459241	12.2141	0.723423	18.9439
0.202466	5.29003	0.0551169	1.60871	0.320232	9.55986	0.499669	12.8419	0.594702	15.382	0.860887	22.0772	0.230166	6.85226	0.461141	11.968	0.724614	18.5232
0.207183	5.28463	0.0569327	1.62324	0.322051	9.38663	0.500828	12.5706	0.596355	15.0617	0.861951	21.5886	0.234058	6.78005	0.463077	11.7346	0.725831	18.1227
0.21188	5.27897	0.0590204	1.63922	0.324173	9.19869	0.502026	12.3128	0.598041	14.7571	0.863038	21.123	0.237981	6.71254	0.465051	11.5128	0.727073	17.741
0.216555	5.27304	0.0611119	1.65449	0.326333	9.02148	0.503265	12.0674	0.599758	14.4669	0.864149	20.6786	0.241935	6.6493	0.46706	11.3018	0.728342	17.3769
0.221207	5.26684	0.0632065	1.6691	0.32853	8.85417	0.504546	11.8337	0.601507	14.1901	0.865284	20.2542	0.245916	6.58999	0.469105	11.101	0.729637	17.0293
0.225836	5.26035	0.0653039	1.68308	0.330764	8.69601	0.505868	11.611	0.603287	13.9261	0.866441	19.8484	0.249925	6.53426	0.470915	10.9338	0.730957	16.697
0.230438	5.25355	0.0674037	1.69646	0.333033	8.54633	0.507232	11.3986	0.605099	13.6738	0.867622	19.4601	0.253959	6.48184	0.472479	10.7966	0.732302	16.3791
0.235014	5.24643	0.0695053	1.70927	0.335337	8.4045	0.50864	11.1958	0.606941	13.4326	0.868826	19.0882	0.258016	6.43244	0.473786	10.6867	0.733672	16.0748
0.239561	5.23897	0.0716086	1.72155	0.337676	8.27	0.509902	11.0265	0.608813	13.2018	0.870052	18.7318	0.262097	6.38584	0.474829	10.602	0.735068	15.7832
0.244078	5.23116	0.0737133	1.73333	0.340048	8.14231	0.511005	10.8874	0.610715	12.9808	0.871302	18.3898	0.266199	6.34182	0.475601	10.5409	0.736488	15.5035
0.248563	5.22299	0.0758191	1.74462	0.342454	8.02099	0.511935	10.7759	0.612646	12.769	0.872574	18.0615	0.270321	6.30018	0.476097	10.5024	0.737933	15.2351
0.253014	5.21443	0.0779257	1.75546	0.344894	7.90561	0.512683	10.6898	0.614607	12.5658	0.873868	17.746	0.274462	6.26075	0.476813	10.4476	0.739402	14.9774
0.257429	5.20547	0.080033	1.76587	0.347367	7.79581	0.51324	10.6276	0.616596	12.3709	0.875185	17.4427	0.278621	6.22336	0.477596	10.389	0.740896	14.7296
0.261807	5.1961	0.0821408	1.77587	0.349873	7.69123	0.513599	10.5884	0.618615	12.1836	0.876525	17.151	0.282797	6.18786	0.478667	10.3108	0.742413	14.4914
0.266144	5.18629	0.084249	1.78548	0.352413	7.59157	0.514119	10.5326	0.620661	12.0036	0.877886	16.87	0.286989	6.15412	0.480032	10.2143	0.743955	14.2621
0.27044	5.17602	0.0863573	1.79473	0.354986	7.49655	0.514691	10.473	0.622736	11.8306	0.87927	16.5994	0.291196	6.12202	0.4817	10.101	0.74552	14.0413
0.274691	5.16528	0.0884658	1.80362	0.357593	7.40589	0.515477	10.3933	0.624838	11.6641	0.880675	16.3386	0.295417	6.09145	0.483678	9.97271	0.747109	13.8286
0.278896	5.15406	0.0905742	1.81219	0.360234	7.31936	0.516488	10.2948	0.626967	11.5037	0.882102	16.087	0.299651	6.06229	0.485977	9.83126	0.748721	13.6235
0.283053	5.14233	0.0926826	1.82044	0.36291	7.23674	0.517733	10.1792	0.629124	11.3493	0.883551	15.8442	0.303898	6.03446	0.488308	9.69566	0.750356	13.4256
0.287158	5.13007	0.0947907	1.82838	0.365622	7.15783	0.519227	10.0482	0.631025	11.2193	0.885022	15.6098	0.308156	6.00787	0.490668	9.56557	0.752014	13.2347
0.29121	5.11728	0.0968986	1.83605	0.36837	7.08245	0.520985	9.90366	0.632661	11.1116	0.886514	15.3833	0.312425	5.98243	0.493058	9.44069	0.753695	13.0503
0.295206	5.10395	0.0990063	1.84344	0.371156	7.01043	0.522791	9.76504	0.634025	11.0248	0.888027	15.1644	0.316704	5.95807	0.495478	9.32075	0.755398	12.8721
0.299144	5.09005	0.101114	1.85057	0.37398	6.94161	0.524645	9.63204	0.635111	10.9574	0.889561	14.9527	0.320992	5.93473	0.497926	9.20546	0.757124	12.6999
0.303023	5.07557	0.10322	1.85746	0.376843	6.87584	0.526547	9.50438	0.635913	10.9086	0.891117	14.7479	0.325289	5.91233	0.500403	9.09459	0.758872	12.5333
0.306839	5.06052	0.105327	1.86411	0.379747	6.81301	0.528497	9.38181	0.636428	10.8777	0.892693	14.5496	0.329594	5.89081	0.502907	8.98791	0.760642	12.3722
0.310591	5.04488	0.107433	1.87054	0.382692	6.75298	0.530497	9.26408	0.63717	10.8337	0.894291	14.3576	0.333906	5.87013	0.505439	8.88521	0.762433	12.2162
0.314277	5.02865	0.109539	1.87676	0.385681	6.69564	0.532545	9.15096	0.637981	10.7865	0.895908	14.1716	0.338225	5.85023	0.507997	8.78628	0.764247	12.0651
0.317895	5.01183	0.111644	1.88277	0.388715	6.64088	0.534642	9.04224	0.639088	10.7232	0.897547	13.9913	0.342549	5.83106	0.510582	8.69094	0.766081	11.9188
0.321445	4.99443	0.113748	1.88859	0.391793	6.58861	0.536789	8.93771	0.640498	10.6446	0.899206	13.8165	0.346879	5.81258	0.513193	8.59901	0.767937	11.777
0.324924	4.97645	0.115852	1.89422	0.394919	6.53873	0.538985	8.83718	0.642215	10.5518	0.900885	13.647	0.351214	5.79475	0.515829	8.51032	0.769814	11.6394
0.328332	4.9579	0.117956	1.89967	0.398094	6.49115	0.541229	8.74046	0.644246	10.4458	0.902584	13.4824	0.355553	5.77752	0.518491	8.42473	0.771467	11.523
0.331669	4.9388	0.120059	1.90496	0.401317	6.44579	0.543524	8.6474	0.646601	10.328	0.904303	13.3227	0.359895	5.76087	0.521176	8.34209	0.772888	11.4261
0.334518	4.92172	0.122161	1.91008	0.404591	6.40257	0.545867	8.55783	0.64898	10.214	0.906042	13.1676	0.364241	5.74475	0.523887	8.26225	0.774071	11.3476
0.336903	4.90685	0.124263	1.91505	0.407917	6.3614	0.548259	8.47159	0.651383	10.1036	0.907801	13.0169	0.368589	5.72914	0.526621	8.1851	0.775013	11.2865
0.338845	4.89434	0.126365	1.91987	0.411294	6.32221	0.5507	8.38854	0.653811	9.99681	0.909579	12.8704	0.372939	5.714	0.529378	8.11051	0.775708	11.2421
0.340362	4.88432	0.128465	1.92454	0.414724	6.28492	0.55319	8.30855	0.656262	9.89334	0.911377	12.7281	0.37729	5.69931	0.532158	8.03836	0.776154	11.214
0.341466	4.87687	0.130566	1.92908	0.418207	6.24946	0.555727	8.23148	0.658736	9.7931	0.913194	12.5896	0.381642	5.68504	0.534961	7.96856	0.776798	11.1739
0.342168	4.87208	0.132666	1.93349	0.421742	6.21575	0.558313	8.1572	0.661234	9.69593	0.915031	12.455	0.385994	5.67117	0.537787	7.90099	0.7775	11.1307
0.34317	4.86515	0.134765	1.93777	0.42533	6.18373	0.560946	8.08561	0.663754	9.60171	0.916886	12.3239	0.390347	5.65767	0.540634	7.83557	0.778458	11.0727
0.344251	4.85756	0.136864	1.94194	0.428971	6.15331	0.563626	8.01658	0.666298	9.51033	0.918761	12.1964	0.394698	5.64452	0.543502	7.77219	0.779677	11.0005
0.345707	4.84715	0.138962	1.94598	0.432664	6.12442	0.566353	7.95001	0.668864	9.42166	0.920654	12.0722	0.399049	5.63169	0.546392	7.71078	0.781162	10.9148
0.347524	4.83384	0.14106	1.94992	0.436407	6.09701	0.569126	7.8858	0.671452	9.33559	0.922565	11.9513	0.403397	5.61918	0.549303	7.65126	0.782917	10.8166
0.349687	4.81754	0.143157	1.95375	0.440201	6.07098	0.571944	7.82385	0.674062	9.25203	0.924246	11.8484	0.407744	5.60696	0.552235	7.59355	0.784949	10.7069
0.352175	4.79815	0.145254	1.95748	0.444043	6.04628	0.574808	7.76407	0.676693	9.17088	0.925691	11.7626	0.412087	5.595	0.555186	7.53757	0.787001	10.6002
0.354967	4.77557	0.14735	1.9611	0.447932	6.02283	0.577716	7.70637	0.679347	9.09203	0.926892	11.6928	0.416428	5.58331	0.558158	7.48325	0.789071	10.4963
0.357693	4.75267	0.149446	1.96464	0.451868	6.00058	0.580668	7.65066	0.682021	9.01541	0.927847	11.6384	0.420765	5.57185	0.561149	7.43054	0.791161	10.3953
0.360355	4.72949	0.151542	1.96808	0.455847	5.97944	0.583663	7.59687	0.684717	8.94093	0.928552	11.5989	0.425097	5.56062	0.56416	7.37937	0.79327	10.297
0.362954	4.70605	0.153637	1.97143	0.459869	5.95937	0.5867	7.54491	0.687434	8.86851	0.929005	11.5737	0.429425	5.5496	0.56719	7.32967	0.795397	10.2012
0.365492	4.6824	0.155731	1.9747	0.463932	5.94029	0.58978	7.49471	0.690171	8.79807	0.929657	11.5378	0.433748	5.53877	0.570238	7.2814	0.797543	10.1079
0.367971	4.65856	0.157826	1.97789	0.468033	5.92216	0.5929	7.44621	0.692929	8.72955	0.930368	11.4992	0.438065	5.52813	0.573306	7.2345	0.799707	10.0171
0.370395	4.63457	0.159919	1.981	0.472171	5.9049	0.596061	7.39932	0.695707	8.66286	0.931338	11.4471	0.442376	5.51765	0.576392	7.18892	0.801889	9.92854
0.372763	4.61046	0.162013	1.98404	0.476344	5.88848	0.599262	7.354	0.698505	8.59796	0.932572	11.3822	0.44668	5.50734	0.579496	7.14462	0.804089	9.84224
0.37508	4.58626	0.164106	1.987	0.48055	5.87283	0.602502	7.31018	0.701323	8.53477	0.934072	11.305	0.450976	5.49717	0.582618	7.10153	0.806306	9.7581
0.377346	4.562	0.166198	1.98989	0.484786	5.8579	0.605779	7.26779	0.704161	8.47323	0.935845	11.2163	0.455266	5.48713	0.585758	7.05964	0.808542	9.67605
0.379564	4.5377	0.168291	1.99271	0.489052	5.84366	0.609095	7.22678	0.707018	8.41329	0.937896	11.1167	0.459546	5.47722	0.588916	7.01888	0.810795	9.59602
0.381736	4.5134	0.170383	1.99546	0.493345	5.83005	0.612447	7.1871	0.709895	8.35489	0.939964	11.0195	0.463819	5.46743	0.592091	6.97922	0.813065	9.51793
0.383865	4.48911	0.172474	1.99816	0.497663	5.81703	0.615834	7.1487	0.71279	8.29798	0.942049	10.9247	0.468081	5.45774	0.595283	6.94063	0.815352	9.44172
0.385951	4.46487	0.174565	2.00079	0.502005	5.80457	0.619257	7.11152	0.715705	8.24251	0.944152	10.832	0.472335	5.44814	0.598493	6.90307	0.817656	9.36734
0.387998	4.44068	0.176656	2.00336	0.506369	5.79262	0.622714	7.07552	0.718639	8.18844	0.946272	10.7415	0.476577	5.43863	0.60172	6.8665	0.819977	9.29472
0.390007	4.41657	0.178747	2.00587	0.510752	5.78116	0.626205	7.04065	0.721592	8.13571	0.948409	10.6531	0.480809	5.4292	0.604964	6.83089	0.822314	9.2238
0.391979	4.39257	0.180837	2.00833	0.515155	5.77014	0.629729	7.00686	0.724563	8.08429	0.950562	10.5667	0.48503	5.41984	0.608225	6.79621	0.824668	9.15453
0.393917	4.36868	0.182927	2.01074	0.519575	5.75954	0.633284	6.97413	0.727552	8.03413	0.952732	10.4823	0.489239	5.41054	0.611502	6.76243	0.827038	9.08686
0.395823	4.34491	0.185017	2.01309	0.52401	5.74933	0.636871	6.9424	0.73056	7.98519	0.954919	10.3997	0.493435	5.4013	0.614796	6.72952	0.829424	9.02074
0.397698	4.3213	0.187106	2.01539	0.52846	5.73948	0.640489	6.91164	0.733586	7.93743	0.957122	10.319	0.497619	5.3921	0.618107	6.69746	0.831827	8.95611
0.399543	4.29784	0.189195	2.01765	0.532923	5.72997	0.644136	6.88181	0.73663	7.89082	0.959341	10.2401	0.501789	5.38294	0.621435	6.66622	0.834245	8.89294
0.40136	4.27455	0.191284	2.01985	0.537398	5.72077	0.647813	6.85287	0.739692	7.84532	0.961576	10.1629	0.505944	5.37381	0.624778	6.63576	0.836679	8.83118
0.403151	4.25143	0.193373	2.02202	0.541883	5.71186	0.651518	6.8248	0.742772	7.8009	0.963828	10.0873	0.510086	5.36471	0.628139	6.60608	0.839129	8.77078
0.404917	4.22851	0.195461	2.02413	0.546377	5.70323	0.65525	6.79755	0.74587	7.75753	0.966095	10.0134	0.514212	5.35563	0.631515	6.57715	0.841594	8.71171
0.406659	4.20578	0.197549	2.02621	0.55088	5.69485	0.659009	6.77111	0.748985	7.71517	0.968378	9.94108	0.518323	5.34656	0.634909	6.54894	0.844074	8.65393
0.408378	4.18326	0.199637	2.02824	0.55539	5.6867	0.662795	6.74543	0.752118	7.67379	0.970677	9.87028	0.522417	5.3375	0.638318	6.52144	0.84657	8.59739
0.410077	4.16094	0.201724	2.03023	0.559907	5.67877	0.666606	6.72049	0.755268	7.63337	0.97299	9.80095	0.526495	5.32844	0.641744	6.49462	0.849081	8.54206
0.411755	4.13884	0.203812	2.03218	0.564428	5.67104	0.670442	6.69627	0.758436	7.59387	0.97532	9.73307	0.530556	5.31938	0.645186	6.46846	0.851606	8.48791
0.413414	4.11696	0.205899	2.03409	0.568955	5.6635	0.674302	6.67273	0.761621	7.55528	0.977664	9.66659	0.534598	5.3103	0.648644	6.44295	0.854147	8.43491
0.415055	4.09531	0.207986	2.03597	0.573484	5.65614	0.678186	6.64985	0.764823	7.51757	0.980024	9.60147	0.538623	5.30122	0.652119	6.41807	0.856702	8.38301
0.41668	4.07388	0.210072	2.03781	0.578017	5.64893	0.682093	6.62761	0.768042	7.4807	0.982399	9.53768	0.542628	5.29211	0.65561	6.3938	0.859272	8.3322
0.418288	4.05269	0.212159	2.03962	0.582551	5.64187	0.686022	6.60598	0.771278	7.44466	0.984788	9.47517	0.546615	5.28299	0.659117	6.37012	0.861857	8.28243
0.419881	4.03173	0.214245	2.04139	0.587087	5.63496	0.689973	6.58495	0.774531	7.40943	0.987192	9.41391	0.550581	5.27383	0.662641	6.34703	0.864455	8.23368
0.421459	4.01101	0.216331	2.04313	0.591623	5.62816	0.693944	6.56448	0.777802	7.37499	0.989611	9.35387	0.554527	5.26464	0.666181	6.32449	0.867069	8.18593
0.423025	3.99052	0.218417	2.04483	0.596159	5.62149	0.697936	6.54457	0.781089	7.3413	0.992044	9.29501	0.558452	5.25542	0.669738	6.30251	0.869696	8.13914
0.424577	3.97027	0.220502	2.04651	0.600695	5.61493	0.701948	6.52518	0.784394	7.30836	0.994491	9.2373	0.562356	5.24616	0.67331	6.28106	0.872337	8.09329
0.426118	3.95026	0.222588	2.04815	0.605228	5.60846	0.705979	6.5063	0.787715	7.27614	0.996953	9.18072	0.566238	5.23686	0.676899	6.26013	0.874993	8.04836
0.427647	3.93049	0.224673	2.04977	0.60976	5.60209	0.710029	6.48791	0.791053	7.24463	0.999429	9.12522	0.570097	5.22751	0.680505	6.23971	0.877662	8.00432
0.429166	3.91096	0.226758	2.05136	0.614289	5.5958	0.714097	6.47	0.794408	7.21381	1.00192	9.07079	0.573934	5.21811	0.684126	6.21978	0.880346	7.96114
0.430675	3.89167	0.228843	2.05291	0.618815	5.58959	0.718182	6.45255	0.79778	7.18365			0.577748	5.20866	0.687764	6.20034	0.883043	7.91881
0.432174	3.87261	0.230928	2.05444	0.623337	5.58345	0.722285	6.43554	0.801169	7.15415			0.581538	5.19916	0.691418	6.18136	0.885754	7.87731
0.433665	3.8538	0.233013	2.05595	0.627855	5.57737	0.726403	6.41895	0.804575	7.12528			0.585304	5.1896	0.695089	6.16284	0.888478	7.8366
0.435148	3.83522	0.235097	2.05743	0.632368	5.57135	0.730538	6.40277	0.807998	7.09703			0.589045	5.17998	0.698775	6.14477	0.891216	7.79668
0.436623	3.81688	0.237181	2.05888	0.636876	5.56539	0.734688	6.38699	0.811438	7.0694			0.592762	5.17031	0.702478	6.12713	0.893967	7.75752
0.438091	3.79877	0.239265	2.06031	0.641379	5.55947	0.738852	6.37158	0.814895	7.04235			0.596453	5.16057	0.706197	6.10991	0.896732	7.7191
0.439552	3.78089	0.24135	2.06171	0.645875	5.55359	0.743031	6.35655	0.818369	7.01588			0.600119	5.15077	0.709932	6.09311	0.89951	7.68141
0.441006	3.76325	0.243433	2.06309	0.650364	5.54775	0.747224	6.34187	0.82186	6.98998			0.603759	5.1409	0.713682	6.07671	0.902301	7.64442
0.442456	3.74583	0.245517	2.06445	0.654847	5.54194	0.75143	6.32753	0.825368	6.96463			0.607374	5.13097	0.717449	6.0607	0.905105	7.60813
0.443899	3.72864	0.247601	2.06579	0.659322	5.53616	0.755648	6.31352	0.828894	6.93982			0.610961	5.12097	0.721231	6.04507	0.907923	7.57251
0.445338	3.71168	0.249684	2.0671	0.66379	5.53041	0.759879	6.29983	0.832437	6.91554			0.614522	5.1109	0.725029	6.02981	0.910754	7.53755
0.446772	3.69494	0.251767	2.06839	0.668249	5.52467	0.764122	6.28644	0.835998	6.89178			0.618056	5.10077	0.728842	6.01492	0.913597	7.50322
0.448202	3.67842	0.25385	2.06967	0.672699	5.51896	0.768375	6.27335	0.839576	6.86852			0.621563	5.09057	0.73267	6.00037	0.916454	7.46953
0.449628	3.66212	0.255933	2.07092	0.677141	5.51326	0.77264	6.26054	0.843171	6.84575			0.625043	5.0803	0.736513	5.98617	0.919324	7.43645
0.45105	3.64604	0.258016	2.07215	0.681574	5.50757	0.776914	6.24801	0.846784	6.82347			0.628495	5.06997	0.740371	5.97231	0.922206	7.40396
0.452469	3.63017	0.260099	2.07336	0.685996	5.50188	0.781198	6.23574	0.850415	6.80167			0.63192	5.05957	0.744244	5.95876	0.925101	7.37206
0.453886	3.61452	0.262182	2.07456	0.690409	5.49621	0.785492	6.22373	0.854064	6.78033			0.635317	5.0491	0.748132	5.94554	0.928009	7.34074
0.455299	3.59907	0.264264	2.07573	0.694812	5.49053	0.789794	6.21196	0.857731	6.75944			0.638686	5.03857	0.752033	5.93261	0.93093	7.30997
0.45671	3.58383	0.266347	2.07689	0.699204	5.48486	0.794104	6.20042	0.861417	6.739			0.642028	5.02798	0.755949	5.91999	0.933863	7.27974
0.458119	3.56879	0.268429	2.07803	0.703585	5.47918	0.798423	6.18912	0.86512	6.719			0.645341	5.01732	0.759878	5.90766	0.936809	7.25005
0.459526	3.55396	0.270511	2.07916	0.707955	5.47349	0.802748	6.17803	0.868842	6.69943			0.648627	5.0066	0.76382	5.8956	0.939768	7.22088
0.460931	3.53932	0.272594	2.08026	0.712313	5.4678	0.80708	6.16715	0.872583	6.68028			0.651885	4.99582	0.767776	5.88382	0.942739	7.19222
0.462335	3.52488	0.274676	2.08135	0.71666	5.46211	0.811419	6.15647	0.876342	6.66155			0.655115	4.98498	0.771744	5.87231	0.945723	7.16406
0.463737	3.51064	0.276757	2.08243	0.720994	5.4564	0.815764	6.14599	0.88012	6.64322			0.658317	4.97408	0.775725	5.86105	0.948719	7.13639
0.465139	3.49658	0.278839	2.08348	0.725317	5.45067	0.820114	6.13569	0.883917	6.62528			0.661491	4.96312	0.779719	5.85004	0.951728	7.1092
0.466539	3.48272	0.280921	2.08453	0.729626	5.44494	0.824469	6.12558	0.887733	6.60774			0.664638	4.95212	0.783724	5.83927	0.954749	7.08248
0.467939	3.46904	0.283003	2.08556	0.733923	5.43918	0.828829	6.11564	0.891568	6.59058			0.667757	4.94105	0.78774	5.82873	0.957782	7.05621
0.469338	3.45555	0.285084	2.08657	0.738206	5.43341	0.833192	6.10586	0.895423	6.5738			0.670848	4.92994	0.791768	5.81842	0.960828	7.03039
0.470737	3.44224	0.287166	2.08757	0.742477	5.42762	0.83756	6.09624	0.899297	6.55739			0.673913	4.91878	0.795806	5.80833	0.963886	7.00502
0.472136	3.4291	0.289247	2.08855	0.746733	5.42181	0.841931	6.08678	0.903191	6.54135			0.67695	4.90758	0.799855	5.79846	0.966957	6.98007
0.473535	3.41615	0.291328	2.08952	0.750976	5.41598	0.846304	6.07746	0.907105	6.52566			0.679959	4.89632	0.803914	5.78878	0.970039	6.95554
0.474934	3.40336	0.293409	2.09048	0.755205	5.41012	0.85068	6.06828	0.911038	6.51032			0.682943	4.88503	0.807983	5.77931	0.973134	6.93142
0.476333	3.39075	0.29549	2.09142	0.759419	5.40424	0.855058	6.05924	0.914992	6.49533			0.685899	4.8737	0.812061	5.77002	0.976241	6.90771
0.477733	3.37831	0.297571	2.09236	0.763619	5.39834	0.859438	6.05033	0.918966	6.48067			0.688829	4.86233	0.816148	5.76092	0.97936	6.8844
0.479133	3.36603	0.299652	2.09327	0.767804	5.39241	0.863819	6.04155	0.92296	6.46635			0.691732	4.85092	0.820243	5.752	0.982491	6.86147
0.480534	3.35392	0.301733	2.09418	0.771974	5.38645	0.8682	6.03288	0.926974	6.45236			0.69461	4.83948	0.824346	5.74325	0.985634	6.83892
0.481935	3.34197	0.303814	2.09507	0.776129	5.38046	0.872583	6.02433	0.931009	6.43869			0.697461	4.82801	0.828457	5.73467	0.988789	6.81675
0.483338	3.33018	0.305895	2.09596	0.780269	5.37445	0.876965	6.01589	0.935065	6.42534			0.700288	4.81651	0.832576	5.72625	0.991957	6.79494
0.484741	3.31855	0.307975	2.09683	0.784393	5.3684	0.881347	6.00755	0.939141	6.41229			0.703088	4.80498	0.836701	5.71798	0.995136	6.77348
0.486146	3.30707	0.310056	2.09769	0.788502	5.36233	0.885729	5.99932	0.943237	6.39955			0.705864	4.79343	0.840833	5.70986	0.998327	6.75238
0.487551	3.29574	0.312136	2.09853	0.792594	5.35623	0.89011	5.99119	0.947355	6.38711			0.708615	4.78185	0.844971	5.70188	1.00153	6.73162
0.488958	3.28456	0.314217	2.09937	0.796671	5.35009	0.89449	5.98314	0.951493	6.37497			0.711341	4.77026	0.849114	5.69405		
0.490366	3.27354	0.316297	2.10019	0.800732	5.34392	0.898868	5.97519	0.955652	6.36311			0.714043	4.75865	0.853263	5.68634		
0.491776	3.26265	0.318377	2.10101	0.804776	5.33772	0.903245	5.96733	0.959831	6.35154			0.716721	4.74702	0.857417	5.67876		
0.493187	3.25191	0.320457	2.10181	0.808803	5.33149	0.90762	5.95955	0.964032	6.34025			0.719376	4.73538	0.861575	5.67131		
0.494599	3.24132	0.322538	2.10261	0.812814	5.32522	0.911993	5.95185	0.968253	6.32922			0.722007	4.72373	0.865738	5.66397		
0.496014	3.23086	0.324618	2.10339	0.816809	5.31893	0.916364	5.94423	0.972494	6.31847			0.724615	4.71207	0.869904	5.65675		
0.497429	3.22053	0.326698	2.10417	0.820786	5.31259	0.920732	5.93669	0.976756	6.30797			0.7272	4.7004	0.874073	5.64963		
0.498847	3.21035	0.328778	2.10493	0.824746	5.30623	0.925097	5.92922	0.981039	6.29774			0.729762	4.68872	0.878246	5.64262		
0.500267	3.20029	0.330857	2.10569	0.828689	5.29983	0.92946	5.92182	0.985342	6.28775			0.732302	4.67705	0.882421	5.63571		
0.501688	3.19037	0.332937	2.10644	0.832615	5.2934	0.93382	5.91449	0.989665	6.27802			0.734821	4.66537	0.886598	5.62889		
0.503111	3.18058	0.335017	2.10717	0.836524	5.28693	0.938176	5.90722	0.994008	6.26852			0.737317	4.65369	0.890777	5.62217		
0.504537	3.17091	0.337097	2.1079	0.840415	5.28043	0.94253	5.90002	0.998371	6.25926			0.739793	4.64202	0.894957	5.61553		
0.505964	3.16137	0.339176	2.10862	0.844288	5.27389	0.94688	5.89288	1.00275	6.25022			0.742247	4.63035	0.899139	5.60898		
0.507393	3.15195	0.341256	2.10933	0.848144	5.26732	0.951227	5.88581					0.744681	4.61869	0.903321	5.6025		
0.508825	3.14266	0.343335	2.11003	0.851983	5.26072	0.95557	5.87879					0.747094	4.60703	0.907504	5.59611		
0.510259	3.13348	0.345415	2.11073	0.855803	5.25408	0.95991	5.87183					0.749487	4.59539	0.911686	5.58979		
0.511694	3.12442	0.347494	2.11141	0.859606	5.24741	0.964247	5.86494					0.751861	4.58376	0.915869	5.58353		
0.513133	3.11548	0.349574	2.11209	0.86339	5.24071	0.968579	5.85809					0.754214	4.57214	0.92005	5.57735		
0.514573	3.10665	0.351653	2.11276	0.867157	5.23397	0.972909	5.85131					0.756549	4.56053	0.924231	5.57122		
0.516016	3.09793	0.353732	2.11342	0.870905	5.2272	0.977235	5.84457					0.758865	4.54894	0.92841	5.56516		
0.51746	3.08933	0.355811	2.11408	0.874636	5.2204	0.981557	5.83789					0.761162	4.53737	0.932587	5.55915		
0.518908	3.08083	0.357891	2.11472	0.878348	5.21357	0.985876	5.83127					0.763441	4.52582	0.936763	5.5532		
0.520358	3.07244	0.35997	2.11536	0.882043	5.2067	0.990191	5.82469					0.765703	4.51429	0.940936	5.5473		
0.52181	3.06416	0.362049	2.116	0.885719	5.1998	0.994503	5.81817					0.767946	4.50279	0.945107	5.54145		
0.523264	3.05598	0.364128	2.11662	0.889377	5.19288	0.998812	5.8117					0.770172	4.4913	0.949274	5.53565		
0.524721	3.04791	0.366207	2.11724	0.893017	5.18592	1.00312	5.80528					0.772381	4.47985	0.953438	5.52988		
0.526181	3.03993	0.368286	2.11785	0.896638	5.17893							0.774573	4.46841	0.957599	5.52416		
0.527643	3.03206	0.370365	2.11845	0.900242	5.17191							0.776749	4.45701	0.961756	5.51848		
0.529107	3.02428	0.372443	2.11905	0.903827	5.16486							0.778908	4.44563	0.965908	5.51284		
0.530574	3.0166	0.374522	2.11964	0.907394	5.15778							0.781052	4.43429	0.970056	5.50723		
0.532044	3.00902	0.376601	2.12023	0.910943	5.15068							0.78318	4.42297	0.974199	5.50165		
0.533516	3.00153	0.37868	2.12081	0.914473	5.14354							0.785293	4.41169	0.978338	5.4961		
0.53499	2.99413	0.380758	2.12138	0.917986	5.13638							0.78739	4.40044	0.982471	5.49058		
0.536467	2.98682	0.382837	2.12195	0.92148	5.12919							0.789473	4.38923	0.986598	5.48509		
0.537947	2.97961	0.384915	2.12251	0.924956	5.12198							0.791541	4.37805	0.990719	5.47962		
0.53943	2.97248	0.386994	2.12306	0.928414	5.11474							0.793595	4.36691	0.994835	5.47417		
0.540915	2.96544	0.389073	2.12361	0.931854	5.10748							0.795635	4.3558	0.998944	5.46874		
0.542402	2.95848	0.391151	2.12415	0.935277	5.10019							0.797662	4.34473	1.00305	5.46334		
0.543892	2.95161	0.393229	2.12469	0.938681	5.09288							0.799675	4.33371				
0.545385	2.94482	0.395308	2.12522	0.942067	5.08554							0.801674	4.32272				
0.546881	2.93811	0.397386	2.12574	0.945435	5.07819							0.803661	4.31177				
0.548379	2.93149	0.399464	2.12626	0.948786	5.07081							0.805635	4.30086				
0.549879	2.92494	0.401543	2.12678	0.952119	5.0634							0.807597	4.28999				
0.551383	2.91848	0.403621	2.12729	0.955434	5.05598							0.809546	4.27917				
0.552889	2.91209	0.405699	2.12779	0.958731	5.04854							0.811484	4.26839				
0.554397	2.90577	0.407777	2.12829	0.962011	5.04108							0.81341	4.25766				
0.555909	2.89954	0.409855	2.12879	0.965273	5.0336							0.815324	4.24697				
0.557423	2.89337	0.411933	2.12928	0.968518	5.0261							0.817227	4.23632				
0.558939	2.88728	0.414011	2.12976	0.971746	5.01859							0.819119	4.22572				
0.560458	2.88126	0.416089	2.13024	0.974956	5.01106							0.821001	4.21517				
0.56198	2.87531	0.418167	2.13072	0.978149	5.00351							0.822872	4.20466				
0.563505	2.86943	0.420245	2.13119	0.981325	4.99594							0.824732	4.1942				
0.565032	2.86362	0.422323	2.13165	0.984484	4.98836							0.826583	4.18379				
0.566561	2.85788	0.424401	2.13211	0.987626	4.98077							0.828423	4.17342				
0.568094	2.85221	0.426479	2.13257	0.990751	4.97316							0.830254	4.1631				
0.569629	2.8466	0.428557	2.13302	0.993859	4.96554							0.832076	4.15284				
0.571166	2.84105	0.430635	2.13347	0.99695	4.9579							0.833888	4.14262				
0.572706	2.83557	0.432712	2.13392	1.00002	4.95026							0.835691	4.13245				
0.574249	2.83016	0.43479	2.13436									0.837485	4.12233				
0.575794	2.8248	0.436868	2.13479									0.839271	4.11226				
0.577342	2.81951	0.438946	2.13522									0.841048	4.10224				
0.578893	2.81427	0.441023	2.13565									0.842817	4.09227				
0.580446	2.8091	0.443101	2.13607									0.844578	4.08235				
0.582002	2.80399	0.445178	2.13649									0.846331	4.07249				
0.58356	2.79893	0.447256	2.13691									0.848076	4.06267				
0.585121	2.79393	0.449334	2.13732									0.849814	4.0529				
0.586684	2.78899	0.451411	2.13773									0.851544	4.04319				
0.58825	2.7841	0.453489	2.13813									0.853267	4.03353				
0.589818	2.77927	0.455566	2.13853									0.854983	4.02392				
0.591389	2.77449	0.457643	2.13893									0.856693	4.01436				
0.592963	2.76977	0.459721	2.13932									0.858395	4.00485				
0.594539	2.76509	0.461798	2.13971									0.860091	3.9954				
0.596117	2.76047	0.463875	2.1401									0.861781	3.986				
0.597698	2.7559	0.465953	2.14048									0.863464	3.97665				
0.599281	2.75138	0.46803	2.14086									0.865141	3.96735				
0.600867	2.74692	0.470107	2.14124									0.866813	3.9581				
0.602456	2.7425	0.472185	2.14161									0.868478	3.94891				
0.604046	2.73812	0.474262	2.14198									0.870138	3.93976				
0.60564	2.7338	0.476339	2.14235									0.871793	3.93067				
0.607235	2.72952	0.478416	2.14271									0.873442	3.92163				
0.608833	2.72529	0.480493	2.14307									0.875086	3.91265				
0.610434	2.72111	0.48257	2.14343									0.876725	3.90371				
0.612037	2.71697	0.484648	2.14379									0.878359	3.89483				
0.613642	2.71288	0.486725	2.14414									0.879988	3.886				
0.615249	2.70882	0.488802	2.14448									0.881612	3.87722				
0.616859	2.70482	0.490879	2.14483									0.883232	3.86849				
0.618472	2.70085	0.492956	2.14517									0.884847	3.85982				
0.620086	2.69693	0.495033	2.14551									0.886458	3.85119				
0.621703	2.69305	0.49711	2.14585									0.888065	3.84262				
0.623323	2.68921	0.499187	2.14618									0.889667	3.8341				
0.624944	2.68541	0.501264	2.14651									0.891266	3.82563				
0.626568	2.68166	0.50334	2.14684									0.892861	3.81721				
0.628194	2.67794	0.505417	2.14717									0.894452	3.80884				
0.629823	2.67426	0.507494	2.14749									0.896039	3.80052				
0.631453	2.67062	0.509571	2.14781									0.897623	3.79225				
0.633086	2.66701	0.511648	2.14813									0.899203	3.78403				
0.634721	2.66345	0.513725	2.14844									0.90078	3.77586				
0.636359	2.65992	0.515801	2.14876									0.902353	3.76774				
0.637999	2.65643	0.517878	2.14907									0.903924	3.75967				
0.63964	2.65297	0.519955	2.14938									0.905491	3.75165				
0.641284	2.64955	0.522032	2.14968									0.907056	3.74368				
0.642931	2.64617	0.524108	2.14998									0.908617	3.73576				
0.644579	2.64282	0.526185	2.15028									0.910176	3.72789				
0.646229	2.6395	0.528262	2.15058									0.911732	3.72007				
0.647882	2.63622	0.530338	2.15088									0.913285	3.71229				
0.649537	2.63297	0.532415	2.15117									0.914836	3.70457				
0.651194	2.62976	0.534492	2.15146									0.916384	3.69689				
0.652853	2.62657	0.536568	2.15175									0.91793	3.68926				
0.654514	2.62342	0.538645	2.15204									0.919474	3.68168				
0.656177	2.62031	0.540721	2.15232									0.921015	3.67414				
0.657843	2.61722	0.542798	2.15261									0.922554	3.66666				
0.65951	2.61416	0.544874	2.15289									0.924091	3.65921				
0.661179	2.61114	0.546951	2.15316									0.925626	3.65182				
0.662851	2.60814	0.549027	2.15344									0.92716	3.64447				
0.664524	2.60517	0.551104	2.15371									0.928691	3.63717				
0.6662	2.60224	0.55318	2.15399									0.93022	3.62992				
0.667877	2.59933	0.555257	2.15426									0.931748	3.62271				
0.669557	2.59645	0.557333	2.15452									0.933274	3.61554				
0.671238	2.5936	0.559409	2.15479									0.934798	3.60842				
0.672922	2.59078	0.561486	2.15505									0.936321	3.60135				
0.674607	2.58799	0.563562	2.15532									0.937843	3.59432				
0.676294	2.58522	0.565639	2.15558									0.939363	3.58734				
0.677984	2.58248	0.567715	2.15583									0.940881	3.5804				
0.679675	2.57977	0.569791	2.15609									0.942398	3.5735				
0.681368	2.57708	0.571867	2.15635									0.943914	3.56665				
0.683063	2.57442	0.573944	2.1566									0.945429	3.55984				
0.68476	2.57178	0.57602	2.15685									0.946943	3.55307				
0.686459	2.56917	0.578096	2.1571									0.948455	3.54635				
0.688159	2.56659	0.580172	2.15734									0.949967	3.53967				
0.689862	2.56403	0.582249	2.15759									0.951477	3.53304				
0.691566	2.56149	0.584325	2.15783									0.952987	3.52644				
0.693273	2.55898	0.586401	2.15808									0.954496	3.51989				
0.694981	2.55649	0.588477	2.15832									0.956003	3.51338				
0.69669	2.55403	0.590553	2.15855									0.95751	3.50691				
0.698402	2.55159	0.592629	2.15879									0.959017	3.50048				
0.700116	2.54917	0.594706	2.15903									0.960522	3.49409				
0.701831	2.54678	0.596782	2.15926									0.962027	3.48775				
0.703548	2.54441	0.598858	2.15949									0.963531	3.48144				
0.705267	2.54206	0.600934	2.15972									0.965035	3.47517				
0.706987	2.53973	0.60301	2.15995									0.966538	3.46895				
0.708709	2.53742	0.605086	2.16018									0.968041	3.46276				
0.710433	2.53514	0.607162	2.1604									0.969543	3.45661				
0.712159	2.53288	0.609238	2.16063									0.971044	3.45051				
0.713886	2.53063	0.611314	2.16085									0.972546	3.44444				
0.715615	2.52841	0.61339	2.16107									0.974047	3.43841				
0.717346	2.52621	0.615466	2.16129									0.975547	3.43242				
0.719079	2.52403	0.617542	2.16151									0.977048	3.42646				
0.720813	2.52187	0.619618	2.16173									0.978548	3.42055				
0.722549	2.51973	0.621694	2.16194									0.980047	3.41467				
0.724286	2.51761	0.62377	2.16215									0.981547	3.40883				
0.726025	2.51551	0.625846	2.16237									0.983047	3.40303				
0.727766	2.51343	0.627921	2.16258									0.984546	3.39726				
0.729508	2.51136	0.629997	2.16279									0.986045	3.39153				
0.731252	2.50932	0.632073	2.163									0.987545	3.38584				
0.732998	2.50729	0.634149	2.1632									0.989044	3.38018				
0.734745	2.50528	0.636225	2.16341									0.990543	3.37456				
0.736493	2.50329	0.638301	2.16361									0.992042	3.36897				
0.738244	2.50132	0.640377	2.16381									0.993542	3.36342				
0.739995	2.49937	0.642452	2.16402									0.995041	3.35791				
0.741749	2.49743	0.644528	2.16422									0.996541	3.35243				
0.743504	2.49551	0.646604	2.16441									0.99804	3.34698				
0.74526	2.49361	0.64868	2.16461									0.99954	3.34157				
0.747018	2.49172	0.650755	2.16481									1.00104	3.33619				
0.748778	2.48985	0.652831	2.165														
0.750539	2.488	0.654907	2.1652														
0.752301	2.48616	0.656983	2.16539														
0.754065	2.48434	0.659058	2.16558														
0.75583	2.48254	0.661134	2.16577														
0.757597	2.48075	0.66321	2.16596														
0.759366	2.47898	0.665285	2.16615														
0.761135	2.47722	0.667361	2.16633														
0.762907	2.47548	0.669436	2.16652														
0.764679	2.47375	0.671512	2.1667														
0.766453	2.47204	0.673588	2.16689														
0.768229	2.47035	0.675663	2.16707														
0.770006	2.46866	0.677739	2.16725														
0.771784	2.467	0.679814	2.16743														
0.773564	2.46534	0.68189	2.16761														
0.775345	2.4637	0.683966	2.16778														
0.777127	2.46208	0.686041	2.16796														
0.778911	2.46047	0.688117	2.16814														
0.780696	2.45887	0.690192	2.16831														
0.782483	2.45728	0.692268	2.16848														
0.784271	2.45571	0.694343	2.16866														
0.78606	2.45416	0.696419	2.16883														
0.78785	2.45261	0.698494	2.169														
0.789642	2.45108	0.700569	2.16917														
0.791435	2.44956	0.702645	2.16933														
0.793229	2.44806	0.70472	2.1695														
0.795025	2.44656	0.706796	2.16967														
0.796822	2.44508	0.708871	2.16983														
0.79862	2.44362	0.710947	2.17														
0.80042	2.44216	0.713022	2.17016														
0.802221	2.44072	0.715097	2.17032														
0.804023	2.43928	0.717173	2.17048														
0.805826	2.43786	0.719248	2.17064														
0.80763	2.43645	0.721323	2.1708														
0.809436	2.43506	0.723399	2.17096														
0.811243	2.43367	0.725474	2.17112														
0.813051	2.4323	0.727549	2.17128														
0.81486	2.43094	0.729625	2.17143														
0.816671	2.42958	0.7317	2.17159														
0.818482	2.42824	0.733775	2.17174														
0.820295	2.42691	0.73585	2.17189														
0.822109	2.42559	0.737926	2.17205														
0.823925	2.42429	0.740001	2.1722														
0.825741	2.42299	0.742076	2.17235														
0.827559	2.4217	0.744151	2.1725														
0.829377	2.42042	0.746227	2.17265														
0.831197	2.41916	0.748302	2.17279														
0.833018	2.4179	0.750377	2.17294														
0.83484	2.41665	0.752452	2.17309														
0.836664	2.41542	0.754527	2.17323														
0.838488	2.41419	0.756603	2.17338														
0.840313	2.41297	0.758678	2.17352														
0.84214	2.41177	0.760753	2.17366														
0.843967	2.41057	0.762828	2.17381														
0.845796	2.40938	0.764903	2.17395														
0.847626	2.4082	0.766978	2.17409														
0.849457	2.40703	0.769053	2.17423														
0.851289	2.40587	0.771128	2.17437														
0.853122	2.40472	0.773203	2.17451														
0.854956	2.40358	0.775278	2.17464														
0.856791	2.40244	0.777354	2.17478														
0.858627	2.40132	0.779429	2.17492														
0.860464	2.4002	0.781504	2.17505														
0.862302	2.39909	0.783579	2.17519														
0.864142	2.39799	0.785654	2.17532														
0.865982	2.3969	0.787729	2.17545														
0.867823	2.39582	0.789804	2.17559														
0.869665	2.39475	0.791879	2.17572														
0.871509	2.39368	0.793954	2.17585														
0.873353	2.39263	0.796029	2.17598														
0.875198	2.39158	0.798104	2.17611														
0.877044	2.39054	0.800179	2.17624														
0.878892	2.3895	0.802253	2.17637														
0.88074	2.38848	0.804328	2.1765														
0.882589	2.38746	0.806403	2.17662														
0.884439	2.38645	0.808478	2.17675														
0.88629	2.38545	0.810553	2.17688														
0.888142	2.38445	0.812628	2.177														
0.889995	2.38346	0.814703	2.17713														
0.891849	2.38248	0.816778	2.17725														
0.893704	2.38151	0.818853	2.17737														
0.895559	2.38055	0.820928	2.17749														
0.897416	2.37959	0.823002	2.17762														
0.899274	2.37864	0.825077	2.17774														
0.901132	2.37769	0.827152	2.17786														
0.902991	2.37676	0.829227	2.17798														
0.904852	2.37583	0.831302	2.1781														
0.906713	2.3749	0.833376	2.17822														
0.908575	2.37399	0.835451	2.17834														
0.910438	2.37308	0.837526	2.17845														
0.912302	2.37218	0.839601	2.17857														
0.914166	2.37128	0.841676	2.17869														
0.916032	2.37039	0.84375	2.1788														
0.917898	2.36951	0.845825	2.17892														
0.919765	2.36863	0.8479	2.17903														
0.921634	2.36776	0.849974	2.17915														
0.923503	2.3669	0.852049	2.17926														
0.925372	2.36604	0.854124	2.17937														
0.927243	2.36519	0.856199	2.17949														
0.929115	2.36434	0.858273	2.1796														
0.930987	2.3635	0.860348	2.17971														
0.93286	2.36267	0.862423	2.17982														
0.934734	2.36184	0.864497	2.17993														
0.936609	2.36102	0.866572	2.18004														
0.938484	2.36021	0.868647	2.18015														
0.940361	2.3594	0.870721	2.18026														
0.942238	2.35859	0.872796	2.18037														
0.944116	2.3578	0.874871	2.18047														
0.945995	2.357	0.876945	2.18058														
0.947874	2.35622	0.87902	2.18069														
0.949754	2.35544	0.881094	2.18079														
0.951635	2.35466	0.883169	2.1809														
0.953517	2.35389	0.885243	2.181														
0.9554	2.35313	0.887318	2.18111														
0.957284	2.35237	0.889393	2.18121														
0.959168	2.35161	0.891467	2.18132														
0.961053	2.35086	0.893542	2.18142														
0.962938	2.35012	0.895616	2.18152														
0.964825	2.34938	0.897691	2.18162														
0.966712	2.34865	0.899765	2.18173														
0.9686	2.34792	0.90184	2.18183														
0.970488	2.3472	0.903914	2.18193														
0.972378	2.34648	0.905989	2.18203														
0.974268	2.34577	0.908063	2.18213														
0.976159	2.34506	0.910138	2.18223														
0.97805	2.34436	0.912212	2.18233														
0.979943	2.34366	0.914287	2.18242														
0.981836	2.34296	0.916361	2.18252														
0.983729	2.34228	0.918436	2.18262														
0.985624	2.34159	0.92051	2.18272														
0.987519	2.34091	0.922584	2.18281														
0.989415	2.34024	0.924659	2.18291														
0.991311	2.33957	0.926733	2.183														
0.993208	2.3389	0.928808	2.1831														
0.995106	2.33824	0.930882	2.18319														
0.997004	2.33758	0.932956	2.18329														
0.998904	2.33693	0.935031	2.18338														
1.0008	2.33629	0.937105	2.18348														
		0.939179	2.18357														
		0.941254	2.18366														
		0.943328	2.18375														
		0.945402	2.18385														
		0.947477	2.18394														
		0.949551	2.18403														
		0.951625	2.18412														
		0.9537	2.18421														
		0.955774	2.1843														
		0.957848	2.18439														
		0.959923	2.18448														
		0.961997	2.18457														
		0.964071	2.18465														
		0.966145	2.18474														
		0.96822	2.18483														
		0.970294	2.18492														
		0.972368	2.185														
		0.974442	2.18509														
		0.976516	2.18517														
		0.978591	2.18526														
		0.980665	2.18534														
		0.982739	2.18543														
		0.984813	2.18551														
		0.986887	2.1856														
		0.988961	2.18568														
		0.991036	2.18576														
		0.99311	2.18585														
		0.995184	2.18593														
		0.997258	2.18601														
		0.999332	2.18609														
		1.00141	2.18618														
