Sym0		Asym0		Sym1		Sym2		Sym3		Sym4		Asym1		Asym2		Asym3	
465  Points		496  Points		219  Points		186  Points		173  Points		121  Points		326  Points		198  Points		161  Points	
Freq (MHz)	Vph (m/ms)	Freq (MHz)	Vph (m/ms)	Freq (MHz)	Vph (m/ms)	Freq (MHz)	Vph (m/ms)	Freq (MHz)	Vph (m/ms)	Freq (MHz)	Vph (m/ms)	Freq (MHz)	Vph (m/ms)	Freq (MHz)	Vph (m/ms)	Freq (MHz)	Vph (m/ms)
0.000817252	5.5158	7.15281e-005	0.0756252	0.27951	1812.58	0.480922	556.983	0.559024	1070.93	0.838535	1073.9	0.139774	342.401	0.419267	1111.7	0.698787	753.581
0.00595605	5.51557	0.000281265	0.149807	0.279558	257.444	0.480952	267.92	0.559073	384.588	0.838572	489.669	0.139971	104.463	0.419317	320.374	0.698834	375.923
0.0110946	5.51543	0.000627385	0.223331	0.279681	138.621	0.481004	176.397	0.559168	234.414	0.838635	317.158	0.140376	61.7957	0.41942	187.197	0.698913	250.446
0.0162325	5.51518	0.00110679	0.295861	0.279876	94.8961	0.481077	131.495	0.559309	168.615	0.838726	234.549	0.140986	44.0127	0.419579	132.266	0.699023	187.79
0.0213697	5.51483	0.0017156	0.367162	0.280145	72.1839	0.481172	104.825	0.559496	131.684	0.838845	186.095	0.141798	34.2923	0.419791	102.29	0.699165	150.227
0.0265057	5.51439	0.0024488	0.43695	0.280486	58.2806	0.481289	87.1597	0.559729	108.046	0.83899	154.246	0.142808	28.1856	0.420058	83.4175	0.699339	125.2
0.0316403	5.51385	0.0033007	0.505004	0.280899	48.8999	0.481427	74.5981	0.560008	91.6218	0.839163	131.716	0.144008	24.0078	0.42038	70.4471	0.699544	107.334
0.0367732	5.5132	0.00426514	0.571146	0.281385	42.1483	0.481587	65.2088	0.560332	79.549	0.839363	114.939	0.145393	20.98	0.420755	60.9878	0.69978	93.9409
0.0419042	5.51246	0.00533549	0.635225	0.281942	37.0598	0.48177	57.9259	0.560702	70.3025	0.83959	101.961	0.146955	18.6924	0.421184	53.7862	0.700048	83.5295
0.0470329	5.51162	0.00650482	0.697114	0.28257	33.0899	0.481975	52.1128	0.561117	62.9955	0.839845	91.6252	0.148687	16.9088	0.421667	48.1223	0.700347	75.2047
0.0521592	5.51067	0.00776632	0.756747	0.283268	29.9085	0.482203	47.3659	0.561577	57.0769	0.840126	83.1991	0.150581	15.4837	0.422203	43.5526	0.700678	68.3973
0.0572826	5.50963	0.00911295	0.814058	0.284036	27.3036	0.482454	43.4171	0.562082	52.1865	0.840435	76.199	0.152629	14.3222	0.422792	39.7893	0.70104	62.7276
0.0624029	5.50848	0.010538	0.869028	0.284872	25.1331	0.482729	40.0812	0.562632	48.0786	0.84077	70.2916	0.154823	13.36	0.423435	36.6373	0.701433	57.9331
0.0675197	5.50723	0.0120349	0.921661	0.285776	23.2978	0.483027	37.2262	0.563226	44.5801	0.841133	65.2402	0.157154	12.552	0.42413	33.9598	0.701857	53.8262
0.0726328	5.50586	0.0135975	0.971973	0.286748	21.7267	0.48335	34.7555	0.563865	41.5654	0.841523	60.8715	0.159616	11.8657	0.424877	31.658	0.702313	50.2693
0.0777417	5.50439	0.0152196	1.02	0.287785	20.3675	0.483698	32.5967	0.564547	38.9412	0.841939	57.0564	0.162201	11.2768	0.425677	29.6586	0.702799	47.1591
0.0828462	5.5028	0.016896	1.06579	0.288887	19.1807	0.48407	30.6946	0.565273	36.6368	0.842383	53.6961	0.164548	10.8287	0.426528	27.9064	0.703316	44.417
0.087946	5.5011	0.0186213	1.10942	0.290054	18.1363	0.484469	29.0062	0.566042	34.5974	0.842853	50.7142	0.166615	10.487	0.427431	26.3587	0.703864	41.9814
0.0930406	5.49928	0.0203906	1.15095	0.291283	17.2105	0.484893	27.4977	0.566854	32.7803	0.84335	48.0505	0.168368	10.2289	0.428384	24.9821	0.704443	39.804
0.0981296	5.49734	0.0221996	1.19045	0.292575	16.3849	0.485344	26.142	0.567709	31.1514	0.843874	45.6567	0.169781	10.0387	0.429388	23.7502	0.705053	37.8461
0.103213	5.49528	0.0240444	1.22802	0.293927	15.6443	0.485822	24.9173	0.568606	29.6831	0.844424	43.494	0.170834	9.90615	0.430443	22.6417	0.705693	36.0762
0.108289	5.49309	0.0259209	1.26373	0.295338	14.9767	0.486327	23.8057	0.569545	28.3531	0.845002	41.5307	0.171515	9.82431	0.431547	21.6393	0.706364	34.4687
0.113359	5.49077	0.027826	1.29767	0.296808	14.3722	0.486861	22.7923	0.570526	27.143	0.845605	39.7406	0.172502	9.71059	0.4327	20.7287	0.707065	33.0025
0.118422	5.48831	0.0297566	1.32991	0.298335	13.8226	0.487424	21.865	0.571548	26.0375	0.846235	38.1019	0.173587	9.59197	0.433902	19.8982	0.707796	31.6598
0.123477	5.48571	0.0317098	1.36056	0.299918	13.3209	0.488016	21.0133	0.572611	25.0238	0.846892	36.5962	0.17508	9.43847	0.435153	19.1378	0.708557	30.4259
0.128524	5.48298	0.0336832	1.38967	0.301556	12.8614	0.488638	20.2286	0.573714	24.0911	0.847575	35.2082	0.176999	9.2563	0.436451	18.4394	0.709349	29.2881
0.133562	5.48009	0.0356744	1.41735	0.303246	12.4392	0.489291	19.5034	0.574858	23.2303	0.848284	33.9247	0.179361	9.0522	0.437797	17.7957	0.71017	28.2358
0.138591	5.47705	0.0376815	1.44365	0.30499	12.0502	0.489975	18.8313	0.576041	22.4335	0.84902	32.7344	0.182189	8.83299	0.439189	17.2009	0.711021	27.2599
0.14361	5.47385	0.0397026	1.46866	0.306783	11.6907	0.490692	18.2069	0.577264	21.6939	0.849781	31.6277	0.185506	8.60511	0.440628	16.6497	0.711901	26.3523
0.148618	5.47048	0.041736	1.49244	0.308627	11.3577	0.491441	17.6254	0.578525	21.0058	0.850569	30.596	0.188895	8.3993	0.442113	16.1377	0.712812	25.5063
0.153616	5.46694	0.043517	1.51222	0.310519	11.0485	0.492223	17.0826	0.579825	20.3642	0.851382	29.6322	0.192352	8.21277	0.443643	15.6609	0.713751	24.716
0.158601	5.46323	0.0450411	1.52842	0.312207	10.7967	0.49304	16.575	0.581164	19.7644	0.852221	28.7298	0.195873	8.04313	0.445217	15.2161	0.71472	23.976
0.163575	5.45933	0.046305	1.54138	0.313673	10.5938	0.493891	16.0994	0.58254	19.2028	0.853087	27.8831	0.199453	7.88837	0.446836	14.8001	0.715717	23.2818
0.168535	5.45524	0.0473066	1.55135	0.314904	10.4337	0.494778	15.6529	0.583954	18.6758	0.853977	27.0874	0.203091	7.74678	0.448498	14.4105	0.716744	22.6293
0.173481	5.45094	0.0480442	1.55853	0.31589	10.3118	0.495701	15.2331	0.585404	18.1805	0.854894	26.3381	0.206781	7.61686	0.450204	14.0448	0.717799	22.0151
0.178412	5.44644	0.0485168	1.56306	0.316621	10.2246	0.496661	14.8378	0.586892	17.7141	0.855836	25.6314	0.210522	7.49736	0.451951	13.7011	0.718883	21.4358
0.183327	5.44172	0.0491967	1.56949	0.317092	10.1698	0.497659	14.465	0.588415	17.2743	0.856803	24.9638	0.214311	7.38716	0.453741	13.3775	0.719996	20.8886
0.188226	5.43677	0.0499366	1.57636	0.317773	10.0926	0.498696	14.1129	0.589975	16.859	0.857795	24.3322	0.218144	7.28532	0.455572	13.0724	0.721137	20.3711
0.193107	5.43159	0.0509442	1.58552	0.318519	10.0105	0.499772	13.78	0.59157	16.4661	0.858813	23.7338	0.222019	7.19098	0.457444	12.7843	0.722305	19.8809
0.197969	5.42615	0.0522205	1.59679	0.319541	9.90179	0.500887	13.4649	0.593199	16.0941	0.859856	23.1661	0.225934	7.10343	0.459355	12.512	0.723502	19.4159
0.202812	5.42046	0.0537667	1.61	0.320849	9.76906	0.502044	13.1662	0.594864	15.7414	0.860924	22.6269	0.229887	7.02201	0.461307	12.2541	0.724726	18.9743
0.207633	5.41449	0.0555839	1.62491	0.322451	9.61522	0.503242	12.8829	0.596563	15.4065	0.862016	22.1141	0.233875	6.94614	0.463297	12.0098	0.725979	18.5545
0.212432	5.40824	0.0576732	1.64129	0.32436	9.44349	0.504483	12.6138	0.598296	15.0882	0.863134	21.6259	0.237896	6.87533	0.465325	11.7779	0.727258	18.1549
0.217208	5.40169	0.0597663	1.65692	0.326587	9.25723	0.505766	12.358	0.600062	14.7854	0.864276	21.1606	0.241949	6.80912	0.467392	11.5576	0.728565	17.7741
0.221958	5.39482	0.0618626	1.67185	0.328854	9.08165	0.507093	12.1146	0.601862	14.4969	0.865442	20.7165	0.246032	6.74711	0.469495	11.3482	0.729898	17.4109
0.226682	5.38763	0.0639616	1.68612	0.331159	8.9159	0.508464	11.8829	0.603694	14.2219	0.866633	20.2925	0.250143	6.68894	0.471635	11.1489	0.731259	17.0641
0.231377	5.3801	0.0660629	1.69977	0.333502	8.75926	0.509881	11.662	0.605559	13.9594	0.867848	19.8871	0.254281	6.63429	0.473529	10.9829	0.732646	16.7327
0.236043	5.37221	0.0681661	1.71282	0.335882	8.61105	0.511343	11.4515	0.607456	13.7087	0.869088	19.4992	0.258443	6.58288	0.475165	10.8467	0.73406	16.4157
0.240678	5.36394	0.0702708	1.72532	0.338298	8.47068	0.512852	11.2505	0.609385	13.469	0.870351	19.1277	0.262629	6.53444	0.476533	10.7376	0.7355	16.1122
0.245278	5.35528	0.0723769	1.73729	0.340751	8.33758	0.514205	11.0828	0.611345	13.2397	0.871638	18.7716	0.266838	6.48873	0.477623	10.6536	0.736966	15.8214
0.249844	5.34621	0.074484	1.74875	0.34324	8.21128	0.515387	10.945	0.613336	13.0201	0.872949	18.43	0.271067	6.44555	0.47843	10.5929	0.738458	15.5425
0.254372	5.33671	0.0765918	1.75975	0.345764	8.09132	0.516385	10.8345	0.615357	12.8097	0.874284	18.1021	0.275317	6.4047	0.478949	10.5546	0.739976	15.2749
0.258861	5.32676	0.0787003	1.7703	0.348323	7.97729	0.517186	10.7493	0.617409	12.6079	0.875643	17.7871	0.279585	6.366	0.479698	10.5003	0.741519	15.018
0.263308	5.31635	0.0808091	1.78042	0.350918	7.86882	0.517783	10.6877	0.619491	12.4142	0.877024	17.4843	0.28387	6.32931	0.480516	10.4422	0.743087	14.771
0.267711	5.30545	0.0829183	1.79014	0.353549	7.76557	0.518168	10.6489	0.621603	12.2282	0.878429	17.193	0.288171	6.29446	0.481636	10.3646	0.744681	14.5335
0.272068	5.29405	0.0850275	1.79948	0.356215	7.66723	0.518727	10.5937	0.623743	12.0495	0.879858	16.9125	0.292489	6.26133	0.483063	10.2688	0.746299	14.305
0.276377	5.28212	0.0871369	1.80847	0.358918	7.57353	0.519339	10.5346	0.625913	11.8776	0.881309	16.6424	0.29682	6.2298	0.484805	10.1564	0.747942	14.085
0.280634	5.26965	0.0892461	1.8171	0.361657	7.48419	0.520183	10.4558	0.628111	11.7122	0.882783	16.382	0.301165	6.19976	0.486873	10.0291	0.74961	13.873
0.284838	5.25663	0.0913551	1.82542	0.364434	7.399	0.521266	10.3584	0.630338	11.553	0.88428	16.1309	0.305522	6.1711	0.489275	9.88884	0.751302	13.6686
0.288986	5.24303	0.0934639	1.83342	0.367249	7.31772	0.522602	10.244	0.632592	11.3997	0.885799	15.8885	0.309891	6.14373	0.491708	9.75435	0.753018	13.4715
0.293076	5.22885	0.0955725	1.84114	0.370103	7.24018	0.524204	10.1145	0.63458	11.2706	0.887341	15.6546	0.314271	6.11757	0.494173	9.62534	0.754758	13.2812
0.297105	5.21406	0.0976806	1.84857	0.372997	7.16617	0.526089	9.97158	0.63629	11.1638	0.888906	15.4286	0.318661	6.09253	0.496669	9.50152	0.756521	13.0975
0.301072	5.19866	0.0997884	1.85574	0.375931	7.09555	0.528025	9.83461	0.637716	11.0775	0.890492	15.2101	0.32306	6.06853	0.499194	9.3826	0.758308	12.92
0.304973	5.18265	0.101896	1.86265	0.378908	7.02815	0.530013	9.70325	0.63885	11.0107	0.892101	14.9989	0.327468	6.04552	0.501749	9.26831	0.760118	12.7485
0.308806	5.166	0.104003	1.86933	0.381929	6.96383	0.532052	9.57722	0.639688	10.9623	0.893731	14.7946	0.331883	6.02343	0.504332	9.15842	0.761951	12.5826
0.312571	5.14873	0.106109	1.87578	0.384994	6.90246	0.534143	9.45626	0.640227	10.9316	0.895384	14.5968	0.336306	6.0022	0.506945	9.05269	0.763807	12.4222
0.316265	5.13084	0.108215	1.88201	0.388106	6.84392	0.536286	9.34014	0.641003	10.8879	0.897057	14.4053	0.340734	5.98177	0.509585	8.95091	0.765686	12.2668
0.319887	5.11232	0.11032	1.88803	0.391264	6.7881	0.538481	9.22861	0.64185	10.8411	0.898753	14.2198	0.345169	5.9621	0.512252	8.85289	0.767587	12.1164
0.323435	5.09319	0.112425	1.89385	0.394472	6.73488	0.540728	9.12148	0.643007	10.7782	0.90047	14.04	0.349608	5.94314	0.514947	8.75843	0.76951	11.9708
0.326909	5.07346	0.114529	1.89948	0.397729	6.68417	0.543027	9.01852	0.644479	10.7002	0.902208	13.8657	0.354052	5.92484	0.517668	8.66736	0.771456	11.8296
0.330308	5.05314	0.116633	1.90494	0.401038	6.63587	0.545378	8.91955	0.646273	10.6081	0.903967	13.6966	0.358499	5.90716	0.520415	8.57951	0.773423	11.6927
0.333631	5.03226	0.118736	1.91022	0.404398	6.58988	0.547781	8.82439	0.648396	10.503	0.905747	13.5325	0.362949	5.89007	0.523187	8.49474	0.775154	11.5768
0.336879	5.01083	0.120838	1.91534	0.407811	6.54611	0.550236	8.73286	0.650855	10.3861	0.907547	13.3733	0.367402	5.87353	0.525985	8.4129	0.776644	11.4803
0.340052	4.98889	0.12294	1.9203	0.411278	6.50449	0.552742	8.64481	0.65334	10.273	0.909369	13.2186	0.371857	5.8575	0.528807	8.33385	0.777884	11.4022
0.34315	4.96645	0.125042	1.9251	0.4148	6.46491	0.5553	8.56009	0.65585	10.1636	0.911211	13.0684	0.376313	5.84195	0.531654	8.25747	0.77887	11.3414
0.345789	4.94652	0.127143	1.92977	0.418375	6.42731	0.557909	8.47853	0.658385	10.0576	0.913073	12.9224	0.38077	5.82686	0.534524	8.18363	0.779598	11.2973
0.347995	4.92928	0.129243	1.93429	0.422005	6.39159	0.560569	8.40002	0.660944	9.95505	0.914955	12.7805	0.385227	5.8122	0.537418	8.11222	0.780066	11.2693
0.34979	4.91485	0.131343	1.93869	0.425689	6.35767	0.563279	8.32441	0.663527	9.85565	0.916858	12.6426	0.389684	5.79793	0.540335	8.04313	0.78074	11.2294
0.351189	4.90334	0.133442	1.94295	0.429427	6.32548	0.566039	8.25158	0.666135	9.75932	0.91878	12.5084	0.394139	5.78404	0.543275	7.97627	0.781475	11.1864
0.352208	4.89482	0.135541	1.9471	0.433217	6.29492	0.568849	8.18142	0.668766	9.66593	0.920722	12.3778	0.398593	5.77051	0.546237	7.91154	0.782479	11.1287
0.352855	4.88934	0.137639	1.95113	0.437061	6.26594	0.571707	8.1138	0.67142	9.57536	0.922684	12.2508	0.403045	5.7573	0.549221	7.84884	0.783756	11.0568
0.353779	4.88144	0.139737	1.95504	0.440955	6.23844	0.574614	8.04863	0.674098	9.48749	0.924665	12.127	0.407494	5.7444	0.552226	7.7881	0.785311	10.9716
0.354775	4.87281	0.141834	1.95885	0.444899	6.21235	0.577568	7.98579	0.676799	9.40221	0.926665	12.0066	0.41194	5.7318	0.555253	7.72922	0.787149	10.874
0.356115	4.861	0.143931	1.96256	0.448891	6.18759	0.580569	7.92519	0.679523	9.31942	0.928424	11.9041	0.416382	5.71946	0.558301	7.67215	0.789277	10.7648
0.357788	4.84597	0.146027	1.96616	0.45293	6.1641	0.583617	7.86674	0.682269	9.23903	0.929935	11.8186	0.42082	5.70738	0.561369	7.61679	0.791425	10.6587
0.359777	4.82766	0.148123	1.96967	0.457013	6.1418	0.58671	7.81035	0.685037	9.16094	0.931192	11.7491	0.425253	5.69553	0.564458	7.5631	0.793592	10.5554
0.362065	4.806	0.150219	1.97309	0.46114	6.12062	0.589848	7.75593	0.687828	9.08506	0.932191	11.695	0.429681	5.68391	0.567568	7.51099	0.79578	10.455
0.364631	4.78094	0.152314	1.97642	0.465308	6.1005	0.593031	7.7034	0.69064	9.01131	0.932928	11.6556	0.434102	5.67249	0.570696	7.46041	0.797987	10.3572
0.367137	4.7557	0.154408	1.97967	0.469514	6.08137	0.596256	7.65269	0.693474	8.93962	0.933402	11.6305	0.438517	5.66126	0.573845	7.41131	0.800213	10.262
0.369583	4.7303	0.156502	1.98283	0.473758	6.06317	0.599525	7.60371	0.69633	8.86989	0.934083	11.5948	0.442926	5.6502	0.577013	7.36361	0.802458	10.1693
0.371974	4.70479	0.158596	1.98592	0.478037	6.04584	0.602835	7.5564	0.699207	8.80207	0.934827	11.5563	0.447326	5.63932	0.5802	7.31728	0.804722	10.079
0.37431	4.6792	0.160689	1.98892	0.482349	6.02932	0.606186	7.51069	0.702104	8.73609	0.935842	11.5045	0.451719	5.62858	0.583406	7.27227	0.807005	9.99096
0.376594	4.65356	0.162782	1.99186	0.486692	6.01357	0.609577	7.46652	0.705023	8.67187	0.937132	11.4399	0.456102	5.61798	0.586631	7.22851	0.809307	9.9052
0.378829	4.62789	0.164875	1.99472	0.491063	5.99854	0.613008	7.42382	0.707962	8.60936	0.938701	11.363	0.460477	5.60751	0.589874	7.18598	0.811626	9.82159
0.381016	4.60222	0.166967	1.99752	0.495462	5.98416	0.616477	7.38253	0.710922	8.5485	0.940555	11.2746	0.464842	5.59716	0.593136	7.14462	0.813964	9.74007
0.383157	4.57658	0.169059	2.00025	0.499886	5.97041	0.619984	7.3426	0.713902	8.48923	0.942699	11.1755	0.469196	5.58691	0.596415	7.1044	0.81632	9.66055
0.385255	4.551	0.171151	2.00292	0.504333	5.95723	0.623527	7.30398	0.716903	8.4315	0.944861	11.0788	0.473539	5.57676	0.599713	7.06527	0.818694	9.58298
0.387312	4.52549	0.173242	2.00552	0.508802	5.9446	0.627107	7.2666	0.719923	8.37524	0.947041	10.9844	0.477871	5.5667	0.603029	7.0272	0.821085	9.50729
0.38933	4.50008	0.175333	2.00807	0.513291	5.93246	0.630721	7.23042	0.722963	8.32043	0.949239	10.8921	0.482191	5.55671	0.606363	6.99016	0.823494	9.43341
0.39131	4.47478	0.177423	2.01056	0.517797	5.9208	0.63437	7.1954	0.726023	8.267	0.951454	10.8021	0.486498	5.54679	0.609714	6.9541	0.82592	9.36129
0.393255	4.44961	0.179513	2.01299	0.522321	5.90956	0.638052	7.16149	0.729103	8.21491	0.953687	10.7141	0.490792	5.53693	0.613083	6.919	0.828363	9.29087
0.395166	4.42459	0.181603	2.01537	0.52686	5.89874	0.641767	7.12864	0.732201	8.16413	0.955937	10.6281	0.495072	5.52712	0.61647	6.88483	0.830823	9.22209
0.397046	4.39973	0.183693	2.0177	0.531412	5.88828	0.645514	7.09681	0.73532	8.1146	0.958205	10.5441	0.499337	5.51735	0.619874	6.85155	0.8333	9.15491
0.398894	4.37505	0.185782	2.01998	0.535977	5.87818	0.649292	7.06596	0.738457	8.06629	0.960489	10.462	0.503588	5.50762	0.623296	6.81915	0.835794	9.08927
0.400714	4.35056	0.187871	2.02221	0.540553	5.8684	0.6531	7.03606	0.741614	8.01915	0.96279	10.3817	0.507823	5.49792	0.626734	6.78758	0.838304	9.02512
0.402507	4.32626	0.18996	2.02439	0.545139	5.85893	0.656937	7.00707	0.744789	7.97317	0.965108	10.3032	0.512042	5.48823	0.63019	6.75683	0.84083	8.96243
0.404274	4.30217	0.192049	2.02652	0.549734	5.84973	0.660803	6.97895	0.747984	7.92829	0.967442	10.2264	0.516245	5.47856	0.633664	6.72687	0.843373	8.90113
0.406016	4.27829	0.194137	2.02862	0.554336	5.8408	0.664696	6.95167	0.751197	7.88448	0.969793	10.1513	0.520429	5.4689	0.637154	6.69768	0.845932	8.8412
0.407736	4.25464	0.196225	2.03067	0.558944	5.8321	0.668617	6.92519	0.754429	7.84172	0.972161	10.0778	0.524596	5.45924	0.640662	6.66924	0.848507	8.78259
0.409433	4.23121	0.198313	2.03267	0.563559	5.82363	0.672564	6.89949	0.75768	7.79997	0.974544	10.0058	0.528745	5.44958	0.644187	6.64152	0.851098	8.72527
0.411109	4.20802	0.2004	2.03464	0.568177	5.81537	0.676536	6.87454	0.760949	7.75921	0.976944	9.93543	0.532874	5.4399	0.647729	6.6145	0.853704	8.66918
0.412766	4.18507	0.202488	2.03657	0.572799	5.8073	0.680533	6.8503	0.764237	7.7194	0.979359	9.8665	0.536984	5.43021	0.651288	6.58816	0.856326	8.61431
0.414405	4.16236	0.204575	2.03846	0.577424	5.79941	0.684555	6.82675	0.767543	7.68051	0.98179	9.79902	0.541074	5.42049	0.654864	6.56249	0.858964	8.56061
0.416026	4.1399	0.206662	2.04031	0.582051	5.79168	0.688599	6.80387	0.770868	7.64253	0.984237	9.73293	0.545143	5.41075	0.658458	6.53746	0.861617	8.50804
0.41763	4.11769	0.208748	2.04213	0.586679	5.78411	0.692666	6.78163	0.774212	7.60543	0.986699	9.6682	0.549191	5.40098	0.662068	6.51306	0.864285	8.45659
0.419219	4.09573	0.210835	2.04391	0.591307	5.77668	0.696755	6.76	0.777573	7.56917	0.989176	9.6048	0.553216	5.39118	0.665696	6.48927	0.866968	8.40621
0.420793	4.07402	0.212921	2.04566	0.595935	5.76938	0.700866	6.73896	0.780953	7.53375	0.991669	9.54267	0.55722	5.38133	0.669341	6.46608	0.869666	8.35688
0.422353	4.05257	0.215007	2.04737	0.600562	5.76219	0.704997	6.71849	0.784352	7.49913	0.994177	9.48179	0.5612	5.37144	0.673003	6.44346	0.872379	8.30856
0.4239	4.03138	0.217093	2.04906	0.605187	5.75512	0.709147	6.69857	0.787769	7.4653	0.9967	9.42213	0.565157	5.3615	0.676682	6.42141	0.875107	8.26123
0.425435	4.01044	0.219179	2.05071	0.609809	5.74815	0.713317	6.67918	0.791204	7.43223	0.999238	9.36365	0.56909	5.35151	0.680379	6.3999	0.877849	8.21487
0.426958	3.98976	0.221264	2.05233	0.614429	5.74127	0.717505	6.66029	0.794658	7.39991	1.00179	9.30631	0.572999	5.34147	0.684092	6.37892	0.880606	8.16944
0.428471	3.96933	0.22335	2.05392	0.619045	5.73448	0.721712	6.64189	0.79813	7.36832			0.576883	5.33137	0.687822	6.35847	0.883378	8.12493
0.429973	3.94917	0.225435	2.05549	0.623656	5.72777	0.725935	6.62397	0.80162	7.33743			0.580741	5.32121	0.69157	6.33852	0.886164	8.0813
0.431466	3.92925	0.22752	2.05703	0.628263	5.72112	0.730175	6.60649	0.80513	7.30724			0.584574	5.31099	0.695334	6.31906	0.888964	8.03854
0.43295	3.90959	0.229605	2.05853	0.632865	5.71454	0.734431	6.58945	0.808657	7.27771			0.588381	5.30071	0.699115	6.30008	0.891779	7.99662
0.434425	3.89018	0.23169	2.06002	0.637461	5.70802	0.738703	6.57283	0.812204	7.24885			0.592161	5.29036	0.702914	6.28156	0.894608	7.95552
0.435892	3.87103	0.233774	2.06147	0.64205	5.70155	0.742989	6.55661	0.815769	7.22063			0.595914	5.27994	0.706728	6.26351	0.89745	7.91522
0.437352	3.85212	0.235859	2.06291	0.646633	5.69513	0.747289	6.54078	0.819353	7.19303			0.59964	5.26945	0.71056	6.24589	0.900307	7.8757
0.438806	3.83346	0.237943	2.06431	0.651209	5.68875	0.751602	6.52532	0.822956	7.16605			0.603338	5.2589	0.714408	6.2287	0.903178	7.83694
0.440252	3.81505	0.240027	2.0657	0.655777	5.6824	0.755928	6.51022	0.826578	7.13967			0.607009	5.24827	0.718272	6.21193	0.906062	7.79892
0.441693	3.79688	0.242111	2.06706	0.660337	5.67609	0.760267	6.49547	0.830219	7.11387			0.610651	5.23757	0.722153	6.19557	0.908961	7.76162
0.443129	3.77896	0.244195	2.0684	0.664888	5.66981	0.764617	6.48104	0.83388	7.08864			0.614265	5.22679	0.72605	6.17961	0.911873	7.72503
0.444559	3.76127	0.246278	2.06971	0.669431	5.66355	0.768978	6.46694	0.83756	7.06398			0.61785	5.21595	0.729962	6.16403	0.914798	7.68912
0.445984	3.74382	0.248362	2.07101	0.673964	5.65731	0.77335	6.45314	0.841259	7.03986			0.621406	5.20503	0.733891	6.14883	0.917738	7.65389
0.447406	3.7266	0.250445	2.07228	0.678488	5.65108	0.777732	6.43964	0.844978	7.01628			0.624934	5.19404	0.737835	6.13399	0.920691	7.61931
0.448823	3.70962	0.252529	2.07353	0.683002	5.64487	0.782123	6.42642	0.848717	6.99322			0.628432	5.18298	0.741794	6.1195	0.923657	7.58537
0.450236	3.69286	0.254612	2.07477	0.687505	5.63867	0.786522	6.41347	0.852476	6.97068			0.631901	5.17185	0.745768	6.10536	0.926637	7.55206
0.451647	3.67633	0.256695	2.07598	0.691998	5.63248	0.79093	6.40078	0.856255	6.94864			0.63534	5.16065	0.749757	6.09156	0.92963	7.51936
0.453054	3.66003	0.258778	2.07717	0.696479	5.62629	0.795345	6.38835	0.860054	6.9271			0.63875	5.14938	0.753761	6.07808	0.932636	7.48725
0.454458	3.64395	0.260861	2.07835	0.700949	5.6201	0.799767	6.37615	0.863874	6.90604			0.64213	5.13804	0.757779	6.06491	0.935656	7.45573
0.45586	3.62809	0.262943	2.07951	0.705408	5.61391	0.804196	6.36419	0.867714	6.88546			0.645481	5.12663	0.761811	6.05205	0.938689	7.42477
0.45726	3.61244	0.265026	2.08065	0.709854	5.60772	0.808631	6.35244	0.871576	6.86534			0.648803	5.11516	0.765857	6.03949	0.941735	7.39437
0.458657	3.597	0.267108	2.08177	0.714288	5.60152	0.81307	6.34091	0.875458	6.84568			0.652095	5.10362	0.769915	6.02721	0.944794	7.36452
0.460053	3.58178	0.269191	2.08287	0.71871	5.59531	0.817515	6.32958	0.879361	6.82647			0.655357	5.09203	0.773987	6.01522	0.947866	7.3352
0.461448	3.56677	0.271273	2.08396	0.723118	5.58909	0.821964	6.31845	0.883286	6.8077			0.65859	5.08037	0.778072	6.00349	0.950952	7.30639
0.462841	3.55195	0.273355	2.08503	0.727513	5.58286	0.826416	6.3075	0.887232	6.78936			0.661794	5.06865	0.782168	5.99202	0.95405	7.2781
0.464233	3.53735	0.275438	2.08609	0.731895	5.57661	0.830872	6.29673	0.8912	6.77145			0.664968	5.05688	0.786277	5.98081	0.957161	7.2503
0.465624	3.52294	0.277519	2.08713	0.736263	5.57035	0.835331	6.28613	0.89519	6.75395			0.668113	5.04505	0.790397	5.96984	0.960285	7.22299
0.467015	3.50872	0.279601	2.08816	0.740617	5.56407	0.839791	6.2757	0.899202	6.73686			0.67123	5.03318	0.794528	5.95911	0.963422	7.19615
0.468405	3.4947	0.281683	2.08917	0.744957	5.55777	0.844254	6.26543	0.903236	6.72018			0.674317	5.02125	0.79867	5.94861	0.966572	7.16978
0.469795	3.48088	0.283765	2.09016	0.749282	5.55145	0.848717	6.2553	0.907292	6.70389			0.677376	5.00927	0.802822	5.93833	0.969734	7.14387
0.471184	3.46724	0.285847	2.09115	0.753592	5.54511	0.853182	6.24532	0.911371	6.68798			0.680407	4.99725	0.806984	5.92826	0.97291	7.1184
0.472574	3.45378	0.287928	2.09211	0.757888	5.53874	0.857647	6.23548	0.915473	6.67246			0.683409	4.98519	0.811156	5.91839	0.976097	7.09337
0.473963	3.44051	0.29001	2.09307	0.762168	5.53235	0.862111	6.22576	0.919597	6.65731			0.686384	4.97309	0.815337	5.90873	0.979298	7.06877
0.475353	3.42742	0.292091	2.09401	0.766433	5.52594	0.866576	6.21618	0.923744	6.64253			0.68933	4.96095	0.819526	5.89926	0.982511	7.04459
0.476743	3.41451	0.294172	2.09494	0.770682	5.5195	0.871039	6.20672	0.927914	6.62811			0.692249	4.94878	0.823723	5.88997	0.985737	7.02082
0.478134	3.40177	0.296254	2.09585	0.774915	5.51303	0.875501	6.19737	0.932107	6.61404			0.695141	4.93657	0.827929	5.88086	0.988975	6.99744
0.479526	3.3892	0.298335	2.09676	0.779132	5.50653	0.879962	6.18813	0.936323	6.60032			0.698006	4.92433	0.832141	5.87192	0.992225	6.97447
0.480918	3.37681	0.300416	2.09765	0.783332	5.5	0.884421	6.179	0.940562	6.58694			0.700844	4.91207	0.836361	5.86315	0.995488	6.95187
0.482311	3.36458	0.302497	2.09853	0.787516	5.49344	0.888878	6.16998	0.944824	6.5739			0.703655	4.89978	0.840587	5.85454	0.998764	6.92966
0.483705	3.35251	0.304578	2.09939	0.791684	5.48685	0.893332	6.16105	0.949109	6.56118			0.706441	4.88746	0.844819	5.84608	1.00205	6.90782
0.485101	3.34061	0.306659	2.10025	0.795834	5.48023	0.897783	6.15222	0.953417	6.54878			0.7092	4.87513	0.849056	5.83776		
0.486497	3.32887	0.308739	2.10109	0.799968	5.47358	0.902232	6.14348	0.957748	6.5367			0.711934	4.86278	0.853299	5.82959		
0.487895	3.31729	0.31082	2.10192	0.804084	5.46689	0.906677	6.13483	0.962102	6.52493			0.714643	4.85041	0.857547	5.82156		
0.489294	3.30586	0.312901	2.10275	0.808183	5.46017	0.911119	6.12627	0.966479	6.51345			0.717327	4.83803	0.861799	5.81365		
0.490694	3.29458	0.314981	2.10356	0.812265	5.45342	0.915558	6.11778	0.970879	6.50227			0.719986	4.82564	0.866055	5.80587		
0.492097	3.28346	0.317062	2.10436	0.816328	5.44663	0.919993	6.10938	0.975301	6.49139			0.72262	4.81325	0.870314	5.79821		
0.4935	3.27248	0.319142	2.10515	0.820374	5.43981	0.924424	6.10106	0.979745	6.48078			0.725231	4.80084	0.874576	5.79066		
0.494906	3.26165	0.321223	2.10593	0.824402	5.43296	0.928851	6.09281	0.984212	6.47045			0.727818	4.78843	0.878841	5.78322		
0.496313	3.25096	0.323303	2.1067	0.828412	5.42607	0.933274	6.08464	0.9887	6.46039			0.730381	4.77602	0.883109	5.77589		
0.497721	3.24041	0.325383	2.10746	0.832404	5.41914	0.937694	6.07654	0.993211	6.45059			0.732922	4.76361	0.887378	5.76866		
0.499132	3.23	0.327464	2.10821	0.836377	5.41218	0.942109	6.06852	0.997742	6.44104			0.73544	4.75121	0.891649	5.76153		
0.500545	3.21973	0.329544	2.10895	0.840332	5.40519	0.94652	6.06056	1.0023	6.43175			0.737935	4.73881	0.89592	5.75449		
0.501959	3.20959	0.331624	2.10969	0.844269	5.39816	0.950927	6.05267					0.740409	4.72641	0.900193	5.74754		
0.503376	3.19959	0.333704	2.11041	0.848187	5.39109	0.955331	6.04485					0.74286	4.71402	0.904465	5.74067		
0.504795	3.18972	0.335784	2.11112	0.852086	5.38399	0.95973	6.0371					0.74529	4.70165	0.908738	5.73388		
0.506216	3.17998	0.337864	2.11183	0.855966	5.37686	0.964125	6.02941					0.7477	4.68928	0.91301	5.72716		
0.507639	3.17036	0.339944	2.11253	0.859828	5.36969	0.968517	6.02178					0.750088	4.67693	0.917281	5.72052		
0.509064	3.16087	0.342023	2.11322	0.86367	5.36248	0.972904	6.01423					0.752456	4.6646	0.921551	5.71395		
0.510491	3.1515	0.344103	2.1139	0.867494	5.35524	0.977288	6.00673					0.754804	4.65229	0.92582	5.70745		
0.511921	3.14225	0.346183	2.11457	0.871298	5.34797	0.981668	5.9993					0.757132	4.63999	0.930087	5.70101		
0.513353	3.13312	0.348263	2.11524	0.875084	5.34066	0.986045	5.99193					0.759441	4.62772	0.934351	5.69462		
0.514787	3.12411	0.350342	2.1159	0.87885	5.33332	0.990418	5.98462					0.76173	4.61546	0.938613	5.6883		
0.516224	3.11522	0.352422	2.11655	0.882597	5.32595	0.994788	5.97737					0.764001	4.60324	0.942871	5.68202		
0.517663	3.10644	0.354501	2.11719	0.886325	5.31855	0.999154	5.97018					0.766254	4.59104	0.947127	5.6758		
0.519105	3.09777	0.356581	2.11782	0.890034	5.31111	1.00352	5.96306					0.768488	4.57886	0.951379	5.66963		
0.520549	3.08921	0.35866	2.11845	0.893724	5.30364							0.770704	4.56672	0.955626	5.66349		
0.521995	3.08076	0.36074	2.11907	0.897394	5.29614							0.772903	4.5546	0.95987	5.65741		
0.523444	3.07242	0.362819	2.11968	0.901045	5.2886							0.775085	4.54252	0.964109	5.65136		
0.524896	3.06418	0.364898	2.12029	0.904677	5.28104							0.777249	4.53047	0.968343	5.64534		
0.52635	3.05605	0.366977	2.12089	0.90829	5.27345							0.779398	4.51845	0.972572	5.63937		
0.527807	3.04802	0.369057	2.12148	0.911883	5.26583							0.781529	4.50647	0.976795	5.63342		
0.529266	3.04009	0.371136	2.12207	0.915458	5.25818							0.783645	4.49452	0.981013	5.62751		
0.530728	3.03226	0.373215	2.12265	0.919013	5.2505							0.785745	4.48261	0.985224	5.62162		
0.532192	3.02452	0.375294	2.12322	0.922549	5.2428							0.78783	4.47074	0.98943	5.61576		
0.533659	3.01689	0.377373	2.12379	0.926066	5.23506							0.7899	4.45891	0.993628	5.60992		
0.535129	3.00934	0.379452	2.12435	0.929563	5.2273							0.791955	4.44712	0.997819	5.60411		
0.536601	3.00189	0.381531	2.12491	0.933042	5.21952							0.793995	4.43538	1.002	5.59832		
0.538076	2.99454	0.38361	2.12546	0.936502	5.21171							0.796021	4.42367				
0.539553	2.98727	0.385689	2.126	0.939943	5.20388							0.798034	4.41201				
0.541034	2.98009	0.387767	2.12654	0.943365	5.19602							0.800032	4.40039				
0.542517	2.973	0.389846	2.12707	0.946768	5.18814							0.802017	4.38882				
0.544002	2.966	0.391925	2.1276	0.950152	5.18024							0.803989	4.37729				
0.54549	2.95909	0.394004	2.12812	0.953517	5.17231							0.805948	4.36581				
0.546981	2.95225	0.396082	2.12863	0.956864	5.16437							0.807894	4.35438				
0.548475	2.9455	0.398161	2.12914	0.960193	5.1564							0.809828	4.343				
0.549971	2.93883	0.40024	2.12965	0.963502	5.14842							0.81175	4.33166				
0.55147	2.93224	0.402318	2.13015	0.966794	5.14041							0.81366	4.32037				
0.552972	2.92573	0.404397	2.13064	0.970067	5.13239							0.815559	4.30913				
0.554476	2.9193	0.406475	2.13113	0.973321	5.12435							0.817446	4.29795				
0.555983	2.91295	0.408554	2.13162	0.976558	5.11629							0.819322	4.28681				
0.557493	2.90667	0.410632	2.1321	0.979776	5.10822							0.821187	4.27573				
0.559006	2.90047	0.412711	2.13257	0.982976	5.10013							0.823041	4.26469				
0.560521	2.89434	0.414789	2.13304	0.986158	5.09202							0.824885	4.25371				
0.562038	2.88828	0.416867	2.13351	0.989323	5.08391							0.826719	4.24278				
0.563559	2.88229	0.418946	2.13397	0.992469	5.07577							0.828543	4.23191				
0.565082	2.87638	0.421024	2.13443	0.995598	5.06763							0.830357	4.22109				
0.566608	2.87053	0.423102	2.13488	0.99871	5.05947							0.832162	4.21032				
0.568136	2.86475	0.425181	2.13533	1.0018	5.0513							0.833957	4.19961				
0.569667	2.85904	0.427259	2.13577									0.835743	4.18895				
0.571201	2.85339	0.429337	2.13621									0.83752	4.17834				
0.572738	2.84782	0.431415	2.13664									0.839289	4.16779				
0.574277	2.8423	0.433493	2.13708									0.841049	4.1573				
0.575818	2.83685	0.435571	2.1375									0.8428	4.14686				
0.577363	2.83146	0.437649	2.13792									0.844544	4.13648				
0.57891	2.82613	0.439727	2.13834									0.84628	4.12615				
0.580459	2.82087	0.441805	2.13876									0.848008	4.11588				
0.582012	2.81566	0.443883	2.13917									0.849728	4.10566				
0.583566	2.81052	0.445961	2.13958									0.851441	4.0955				
0.585124	2.80543	0.448039	2.13998									0.853147	4.0854				
0.586684	2.8004	0.450117	2.14038									0.854846	4.07535				
0.588246	2.79543	0.452195	2.14078									0.856537	4.06536				
0.589811	2.79051	0.454273	2.14117									0.858223	4.05542				
0.591379	2.78565	0.456351	2.14156									0.859901	4.04554				
0.592949	2.78084	0.458428	2.14194									0.861574	4.03572				
0.594522	2.77608	0.460506	2.14233									0.86324	4.02596				
0.596097	2.77138	0.462584	2.1427									0.8649	4.01625				
0.597675	2.76673	0.464662	2.14308									0.866554	4.00659				
0.599256	2.76214	0.466739	2.14345									0.868202	3.997				
0.600838	2.75759	0.468817	2.14382									0.869845	3.98746				
0.602424	2.75309	0.470895	2.14419									0.871483	3.97797				
0.604011	2.74865	0.472972	2.14455									0.873115	3.96854				
0.605602	2.74425	0.47505	2.14491									0.874741	3.95917				
0.607194	2.7399	0.477127	2.14526									0.876363	3.94986				
0.60879	2.73559	0.479205	2.14562									0.87798	3.9406				
0.610387	2.73134	0.481283	2.14597									0.879592	3.93139				
0.611987	2.72713	0.48336	2.14631									0.8812	3.92224				
0.61359	2.72296	0.485438	2.14666									0.882802	3.91315				
0.615194	2.71884	0.487515	2.147									0.884401	3.90411				
0.616802	2.71477	0.489592	2.14734									0.885995	3.89513				
0.618411	2.71074	0.49167	2.14767									0.887585	3.8862				
0.620023	2.70675	0.493747	2.148									0.889171	3.87733				
0.621638	2.7028	0.495825	2.14833									0.890753	3.86851				
0.623254	2.6989	0.497902	2.14866									0.892332	3.85975				
0.624873	2.69504	0.499979	2.14899									0.893906	3.85104				
0.626494	2.69122	0.502057	2.14931									0.895477	3.84238				
0.628118	2.68743	0.504134	2.14963									0.897044	3.83378				
0.629744	2.68369	0.506211	2.14994									0.898608	3.82524				
0.631372	2.67999	0.508289	2.15026									0.900169	3.81674				
0.633003	2.67633	0.510366	2.15057									0.901727	3.8083				
0.634635	2.6727	0.512443	2.15088									0.903281	3.79991				
0.63627	2.66911	0.51452	2.15118									0.904832	3.79158				
0.637908	2.66556	0.516597	2.15149									0.906381	3.7833				
0.639547	2.66205	0.518675	2.15179									0.907926	3.77507				
0.641189	2.65857	0.520752	2.15209									0.909469	3.76689				
0.642833	2.65513	0.522829	2.15238									0.91101	3.75876				
0.644479	2.65173	0.524906	2.15268									0.912547	3.75069				
0.646127	2.64836	0.526983	2.15297									0.914082	3.74267				
0.647777	2.64502	0.52906	2.15326									0.915615	3.7347				
0.64943	2.64172	0.531137	2.15355									0.917146	3.72678				
0.651085	2.63845	0.533214	2.15383									0.918674	3.71891				
0.652741	2.63521	0.535291	2.15411									0.9202	3.71109				
0.6544	2.63201	0.537368	2.15439									0.921724	3.70332				
0.656062	2.62884	0.539445	2.15467									0.923246	3.6956				
0.657725	2.6257	0.541522	2.15495									0.924766	3.68793				
0.65939	2.6226	0.543599	2.15522									0.926284	3.68031				
0.661057	2.61952	0.545676	2.1555									0.9278	3.67274				
0.662727	2.61648	0.547753	2.15577									0.929315	3.66522				
0.664398	2.61346	0.54983	2.15604									0.930828	3.65774				
0.666072	2.61048	0.551907	2.1563									0.932339	3.65032				
0.667747	2.60752	0.553984	2.15657									0.933849	3.64294				
0.669424	2.6046	0.556061	2.15683									0.935357	3.63561				
0.671104	2.6017	0.558137	2.15709									0.936864	3.62833				
0.672785	2.59883	0.560214	2.15735									0.938369	3.62109				
0.674469	2.59599	0.562291	2.1576									0.939873	3.6139				
0.676154	2.59318	0.564368	2.15786									0.941376	3.60676				
0.677842	2.5904	0.566445	2.15811									0.942878	3.59966				
0.679531	2.58764	0.568521	2.15836									0.944379	3.59261				
0.681222	2.58491	0.570598	2.15861									0.945878	3.58561				
0.682916	2.5822	0.572675	2.15886									0.947377	3.57865				
0.684611	2.57953	0.574752	2.1591									0.948874	3.57174				
0.686308	2.57687	0.576828	2.15935									0.950371	3.56487				
0.688007	2.57425	0.578905	2.15959									0.951867	3.55805				
0.689707	2.57165	0.580982	2.15983									0.953362	3.55127				
0.69141	2.56907	0.583058	2.16007									0.954856	3.54453				
0.693115	2.56652	0.585135	2.1603									0.956349	3.53784				
0.694821	2.56399	0.587212	2.16054									0.957842	3.53119				
0.696529	2.56149	0.589288	2.16077									0.959334	3.52458				
0.698239	2.55901	0.591365	2.161									0.960825	3.51802				
0.699951	2.55655	0.593441	2.16123									0.962316	3.5115				
0.701664	2.55412	0.595518	2.16146									0.963806	3.50502				
0.70338	2.55171	0.597595	2.16169									0.965296	3.49859				
0.705097	2.54932	0.599671	2.16191									0.966786	3.49219				
0.706816	2.54696	0.601748	2.16214									0.968275	3.48584				
0.708536	2.54461	0.603824	2.16236									0.969764	3.47953				
0.710259	2.54229	0.605901	2.16258									0.971252	3.47326				
0.711983	2.53999	0.607977	2.1628									0.97274	3.46703				
0.713709	2.53772	0.610054	2.16302									0.974228	3.46084				
0.715436	2.53546	0.61213	2.16323									0.975716	3.45469				
0.717166	2.53322	0.614207	2.16345									0.977203	3.44858				
0.718897	2.53101	0.616283	2.16366									0.97869	3.44251				
0.720629	2.52881	0.618359	2.16387									0.980177	3.43648				
0.722364	2.52664	0.620436	2.16408									0.981664	3.43049				
0.7241	2.52448	0.622512	2.16429									0.983151	3.42453				
0.725837	2.52235	0.624589	2.1645									0.984638	3.41862				
0.727577	2.52023	0.626665	2.16471									0.986125	3.41274				
0.729318	2.51814	0.628741	2.16491									0.987613	3.4069				
0.73106	2.51606	0.630818	2.16512									0.9891	3.4011				
0.732804	2.514	0.632894	2.16532									0.990587	3.39534				
0.73455	2.51196	0.63497	2.16552									0.992074	3.38961				
0.736297	2.50994	0.637047	2.16572									0.993562	3.38392				
0.738046	2.50794	0.639123	2.16592									0.995049	3.37827				
0.739797	2.50595	0.641199	2.16611									0.996537	3.37265				
0.741549	2.50398	0.643276	2.16631									0.998025	3.36707				
0.743302	2.50203	0.645352	2.1665									0.999513	3.36152				
0.745057	2.5001	0.647428	2.1667									1.001	3.35601				
0.746814	2.49818	0.649504	2.16689														
0.748572	2.49629	0.65158	2.16708														
0.750332	2.4944	0.653657	2.16727														
0.752093	2.49254	0.655733	2.16746														
0.753856	2.49069	0.657809	2.16764														
0.75562	2.48886	0.659885	2.16783														
0.757386	2.48704	0.661961	2.16802														
0.759153	2.48524	0.664038	2.1682														
0.760922	2.48346	0.666114	2.16838														
0.762692	2.48169	0.66819	2.16856														
0.764463	2.47993	0.670266	2.16874														
0.766236	2.47819	0.672342	2.16892														
0.768011	2.47647	0.674418	2.1691														
0.769786	2.47476	0.676494	2.16928														
0.771563	2.47307	0.67857	2.16945														
0.773342	2.47139	0.680646	2.16963														
0.775122	2.46972	0.682722	2.1698														
0.776903	2.46807	0.684799	2.16997														
0.778686	2.46643	0.686875	2.17014														
0.78047	2.46481	0.688951	2.17032														
0.782256	2.4632	0.691027	2.17048														
0.784042	2.46161	0.693103	2.17065														
0.785831	2.46003	0.695179	2.17082														
0.78762	2.45846	0.697255	2.17099														
0.789411	2.4569	0.69933	2.17115														
0.791203	2.45536	0.701406	2.17132														
0.792996	2.45383	0.703482	2.17148														
0.794791	2.45231	0.705558	2.17164														
0.796587	2.45081	0.707634	2.1718														
0.798384	2.44932	0.70971	2.17196														
0.800183	2.44784	0.711786	2.17212														
0.801983	2.44637	0.713862	2.17228														
0.803784	2.44492	0.715938	2.17244														
0.805586	2.44347	0.718014	2.1726														
0.80739	2.44204	0.72009	2.17275														
0.809194	2.44062	0.722165	2.17291														
0.811	2.43922	0.724241	2.17306														
0.812808	2.43782	0.726317	2.17322														
0.814616	2.43644	0.728393	2.17337														
0.816426	2.43506	0.730469	2.17352														
0.818237	2.4337	0.732545	2.17367														
0.820049	2.43235	0.73462	2.17382														
0.821862	2.43101	0.736696	2.17397														
0.823676	2.42968	0.738772	2.17412														
0.825492	2.42836	0.740848	2.17426														
0.827309	2.42706	0.742923	2.17441														
0.829126	2.42576	0.744999	2.17456														
0.830945	2.42447	0.747075	2.1747														
0.832766	2.4232	0.749151	2.17484														
0.834587	2.42193	0.751226	2.17499														
0.83641	2.42067	0.753302	2.17513														
0.838233	2.41943	0.755378	2.17527														
0.840058	2.41819	0.757453	2.17541														
0.841884	2.41697	0.759529	2.17555														
0.84371	2.41575	0.761605	2.17569														
0.845538	2.41454	0.76368	2.17583														
0.847368	2.41334	0.765756	2.17597														
0.849198	2.41216	0.767832	2.1761														
0.851029	2.41098	0.769907	2.17624														
0.852861	2.40981	0.771983	2.17637														
0.854695	2.40865	0.774058	2.17651														
0.856529	2.40749	0.776134	2.17664														
0.858364	2.40635	0.77821	2.17678														
0.860201	2.40522	0.780285	2.17691														
0.862039	2.40409	0.782361	2.17704														
0.863877	2.40298	0.784436	2.17717														
0.865717	2.40187	0.786512	2.1773														
0.867557	2.40077	0.788587	2.17743														
0.869399	2.39968	0.790663	2.17756														
0.871242	2.3986	0.792739	2.17769														
0.873085	2.39752	0.794814	2.17782														
0.87493	2.39646	0.79689	2.17794														
0.876775	2.3954	0.798965	2.17807														
0.878622	2.39435	0.801041	2.1782														
0.88047	2.39331	0.803116	2.17832														
0.882318	2.39227	0.805191	2.17844														
0.884168	2.39125	0.807267	2.17857														
0.886018	2.39023	0.809342	2.17869														
0.88787	2.38922	0.811418	2.17881														
0.889722	2.38822	0.813493	2.17894														
0.891575	2.38722	0.815569	2.17906														
0.89343	2.38623	0.817644	2.17918														
0.895285	2.38525	0.81972	2.1793														
0.897141	2.38428	0.821795	2.17942														
0.898998	2.38331	0.82387	2.17954														
0.900856	2.38235	0.825946	2.17965														
0.902715	2.3814	0.828021	2.17977														
0.904574	2.38046	0.830096	2.17989														
0.906435	2.37952	0.832172	2.18														
0.908297	2.37859	0.834247	2.18012														
0.910159	2.37767	0.836322	2.18023														
0.912022	2.37675	0.838398	2.18035														
0.913887	2.37584	0.840473	2.18046														
0.915752	2.37493	0.842548	2.18058														
0.917618	2.37404	0.844624	2.18069														
0.919484	2.37315	0.846699	2.1808														
0.921352	2.37226	0.848774	2.18091														
0.923221	2.37138	0.85085	2.18102														
0.92509	2.37051	0.852925	2.18113														
0.92696	2.36965	0.855	2.18124														
0.928831	2.36879	0.857075	2.18135														
0.930703	2.36794	0.859151	2.18146														
0.932576	2.36709	0.861226	2.18157														
0.934449	2.36625	0.863301	2.18168														
0.936324	2.36542	0.865376	2.18179														
0.938199	2.36459	0.867452	2.18189														
0.940075	2.36376	0.869527	2.182														
0.941952	2.36295	0.871602	2.1821														
0.943829	2.36214	0.873677	2.18221														
0.945708	2.36133	0.875752	2.18231														
0.947587	2.36053	0.877828	2.18242														
0.949467	2.35974	0.879903	2.18252														
0.951348	2.35895	0.881978	2.18263														
0.953229	2.35817	0.884053	2.18273														
0.955111	2.35739	0.886128	2.18283														
0.956995	2.35662	0.888203	2.18293														
0.958878	2.35585	0.890278	2.18303														
0.960763	2.35509	0.892354	2.18313														
0.962648	2.35434	0.894429	2.18324														
0.964534	2.35359	0.896504	2.18333														
0.966421	2.35284	0.898579	2.18343														
0.968309	2.3521	0.900654	2.18353														
0.970197	2.35137	0.902729	2.18363														
0.972086	2.35064	0.904804	2.18373														
0.973976	2.34991	0.906879	2.18383														
0.975867	2.3492	0.908954	2.18392														
0.977758	2.34848	0.911029	2.18402														
0.97965	2.34777	0.913104	2.18412														
0.981543	2.34707	0.915179	2.18421														
0.983436	2.34637	0.917254	2.18431														
0.98533	2.34567	0.919329	2.1844														
0.987225	2.34498	0.921404	2.1845														
0.98912	2.3443	0.923479	2.18459														
0.991017	2.34361	0.925554	2.18468														
0.992914	2.34294	0.927629	2.18478														
0.994811	2.34227	0.929704	2.18487														
0.996709	2.3416	0.931779	2.18496														
0.998608	2.34094	0.933854	2.18505														
1.00051	2.34028	0.935929	2.18515														
		0.938004	2.18524														
		0.940079	2.18533														
		0.942154	2.18542														
		0.944229	2.18551														
		0.946304	2.1856														
		0.948379	2.18569														
		0.950454	2.18577														
		0.952529	2.18586														
		0.954603	2.18595														
		0.956678	2.18604														
		0.958753	2.18612														
		0.960828	2.18621														
		0.962903	2.1863														
		0.964978	2.18638														
		0.967053	2.18647														
		0.969127	2.18655														
		0.971202	2.18664														
		0.973277	2.18672														
		0.975352	2.18681														
		0.977427	2.18689														
		0.979502	2.18697														
		0.981576	2.18706														
		0.983651	2.18714														
		0.985726	2.18722														
		0.987801	2.1873														
		0.989875	2.18738														
		0.99195	2.18747														
		0.994025	2.18755														
		0.9961	2.18763														
		0.998174	2.18771														
		1.00025	2.18779														
