Sym0		Asym0		Sym1		Sym2		Sym3		Sym4		Asym1		Asym2		Asym3	
465  Points		497  Points		221  Points		188  Points		175  Points		122  Points		327  Points		200  Points		164  Points	
Freq (MHz)	Vph (m/ms)	Freq (MHz)	Vph (m/ms)	Freq (MHz)	Vph (m/ms)	Freq (MHz)	Vph (m/ms)	Freq (MHz)	Vph (m/ms)	Freq (MHz)	Vph (m/ms)	Freq (MHz)	Vph (m/ms)	Freq (MHz)	Vph (m/ms)	Freq (MHz)	Vph (m/ms)
0.0015228	5.45277	1.28875e-005	0.031949	0.279509	2268.16	0.479924	603.76	0.559023	1188.09	0.838536	1016.72	0.139771	376.077	0.419267	1101.59	0.698771	27326.1
0.00660306	5.45272	0.000140801	0.105463	0.279554	264.999	0.479952	277.977	0.559068	398.703	0.838573	477.428	0.139955	107.381	0.419316	319.528	0.698788	729.982
0.0116831	5.4526	0.000404796	0.178578	0.279671	140.777	0.480002	180.568	0.559158	239.58	0.838636	311.977	0.140344	62.7925	0.419417	186.907	0.698835	369.957
0.0167624	5.45234	0.000802563	0.250921	0.27986	95.8976	0.480072	133.726	0.559294	171.268	0.838727	231.703	0.140935	44.5046	0.419572	132.12	0.698913	247.784
0.0218409	5.45199	0.00133071	0.322194	0.280119	72.758	0.480163	106.191	0.559474	133.294	0.838844	184.3	0.141723	34.5798	0.41978	102.201	0.699021	186.289
0.0269184	5.45156	0.00198506	0.392161	0.28045	58.6505	0.480275	88.0695	0.559699	109.125	0.838987	153.01	0.142705	28.3701	0.420041	83.3568	0.699161	149.264
0.0319945	5.45102	0.00276038	0.460559	0.280851	49.1565	0.480409	75.2395	0.559969	92.3936	0.839157	130.814	0.143875	24.1327	0.420356	70.4022	0.699332	124.531
0.0370689	5.45041	0.00365099	0.5272	0.281322	42.3353	0.480564	65.68	0.560284	80.1277	0.839354	114.251	0.145227	21.0671	0.420723	60.9525	0.699533	106.841
0.0421416	5.4497	0.0046507	0.591923	0.281863	37.2009	0.480741	58.2826	0.560642	70.7517	0.839577	101.419	0.146752	18.7538	0.421142	53.7571	0.699765	93.5623
0.0472121	5.44889	0.00575276	0.654568	0.282473	33.199	0.48094	52.3892	0.561046	63.3537	0.839827	91.1864	0.148445	16.9518	0.421614	48.0973	0.700027	83.2293
0.0522801	5.44799	0.00695059	0.715057	0.283152	29.9944	0.481162	47.584	0.561493	57.3686	0.840103	82.8366	0.150298	15.5129	0.422138	43.5304	0.700321	74.9605
0.0573454	5.44699	0.00823734	0.773312	0.283899	27.372	0.481406	43.5916	0.561985	52.428	0.840406	75.8942	0.152302	14.3407	0.422715	39.769	0.700644	68.1944
0.0624078	5.44589	0.00960625	0.829289	0.284713	25.1879	0.481673	40.2224	0.56252	48.2814	0.840735	70.0316	0.15445	13.37	0.423343	36.6184	0.700999	62.5562
0.0674668	5.44469	0.0110508	0.882975	0.285593	23.3418	0.481963	37.3414	0.563098	44.7523	0.841091	65.0155	0.156735	12.5552	0.424023	33.9418	0.701384	57.786
0.0725223	5.44339	0.0125647	0.934379	0.286539	21.762	0.482277	34.85	0.56372	41.713	0.841473	60.6753	0.159148	11.8631	0.424753	31.6406	0.701799	53.6983
0.0775738	5.44198	0.0141418	0.98352	0.287549	20.3955	0.482614	32.6746	0.564384	39.0687	0.841881	56.8832	0.161682	11.2694	0.425535	29.6416	0.702245	50.1568
0.0826211	5.44047	0.0157766	1.03044	0.288624	19.2027	0.482977	30.7589	0.565092	36.7476	0.842316	53.542	0.163985	10.8177	0.426368	27.8896	0.702721	47.0592
0.0876639	5.43885	0.0174635	1.07519	0.28976	18.1531	0.483364	29.0593	0.565842	34.6943	0.842777	50.5761	0.166013	10.4733	0.42725	26.3419	0.703227	44.3274
0.0927017	5.43712	0.0191977	1.11784	0.290959	17.2229	0.483776	27.5414	0.566633	32.8654	0.843264	47.9257	0.167733	10.213	0.428183	24.9653	0.703764	41.9005
0.0977343	5.43528	0.0209745	1.15846	0.292218	16.3933	0.484214	26.1779	0.567467	31.2263	0.843777	45.5432	0.16912	10.0213	0.429165	23.7333	0.70433	39.7303
0.102761	5.43331	0.0227897	1.19711	0.293536	15.6493	0.484679	24.9464	0.568342	29.7493	0.844317	43.3903	0.170154	9.88769	0.430196	22.6246	0.704927	37.7785
0.107782	5.43123	0.0246395	1.23389	0.294913	14.9787	0.485171	23.829	0.569258	28.4116	0.844882	41.4354	0.170823	9.8052	0.431276	21.622	0.705553	36.0138
0.112796	5.42902	0.0265201	1.26886	0.296347	14.3715	0.48569	22.8107	0.570215	27.1948	0.845473	39.6526	0.171792	9.69057	0.432404	20.7111	0.706209	34.4108
0.117804	5.42669	0.0284284	1.30212	0.297837	13.8193	0.486236	21.879	0.571213	26.0834	0.846091	38.0202	0.172857	9.571	0.43358	19.8803	0.706895	32.9485
0.122804	5.42423	0.0303614	1.33374	0.299382	13.3154	0.486812	21.0235	0.57225	25.0644	0.846734	36.5201	0.174324	9.41627	0.434804	19.1196	0.70761	31.6091
0.127797	5.42163	0.0323164	1.36381	0.300981	12.8539	0.487416	20.2354	0.573328	24.127	0.847402	35.137	0.176209	9.23263	0.436074	18.4207	0.708355	30.3781
0.132781	5.41889	0.0342912	1.3924	0.302632	12.4298	0.488051	19.5072	0.574444	23.2619	0.848097	33.8578	0.17853	9.0269	0.43739	17.7767	0.709129	29.2429
0.137756	5.416	0.0362833	1.41958	0.304334	12.039	0.488715	18.8325	0.5756	22.4613	0.848817	32.6713	0.181309	8.80591	0.438753	17.1815	0.709932	28.1928
0.142722	5.41297	0.0382909	1.44544	0.306086	11.6779	0.489411	18.2057	0.576794	21.7183	0.849563	31.5679	0.184569	8.57617	0.440161	16.6299	0.710765	27.2188
0.147678	5.40978	0.0403123	1.47004	0.307888	11.3434	0.490139	17.622	0.578026	21.027	0.850334	30.5393	0.187901	8.36868	0.441614	16.1174	0.711626	26.3129
0.152624	5.40643	0.0423457	1.49345	0.309736	11.0328	0.490898	17.0773	0.579297	20.3824	0.85113	29.5782	0.1913	8.18061	0.443111	15.6403	0.712516	25.4685
0.157559	5.40291	0.0441265	1.51294	0.311386	10.7798	0.491691	16.5678	0.580605	19.78	0.851952	28.6782	0.194762	8.00957	0.444653	15.195	0.713435	24.6794
0.162482	5.39922	0.0456502	1.5289	0.312819	10.576	0.492518	16.0905	0.58195	19.2159	0.852799	27.8338	0.198285	7.85351	0.446237	14.7786	0.714383	23.9406
0.167392	5.39535	0.0469139	1.54167	0.314022	10.4152	0.493378	15.6425	0.583331	18.6867	0.853671	27.04	0.201864	7.71072	0.447865	14.3885	0.715359	23.2474
0.172289	5.39129	0.0479153	1.5515	0.314986	10.2927	0.494274	15.2213	0.584749	18.1892	0.854568	26.2925	0.205495	7.5797	0.449534	14.0224	0.716363	22.5959
0.177172	5.38703	0.0486528	1.55859	0.315701	10.2051	0.495206	14.8247	0.586204	17.7209	0.85549	25.5874	0.209177	7.45917	0.451246	13.6783	0.717395	21.9825
0.18204	5.38257	0.0491252	1.56306	0.316161	10.1501	0.496174	14.4506	0.587693	17.2792	0.856437	24.9212	0.212907	7.34802	0.452998	13.3543	0.718455	21.4039
0.186892	5.37789	0.0498049	1.5694	0.316827	10.0725	0.49718	14.0973	0.589218	16.8622	0.857409	24.291	0.216681	7.24529	0.454791	13.0487	0.719544	20.8574
0.191728	5.37299	0.0505446	1.57619	0.317556	9.98994	0.498223	13.7633	0.590778	16.4677	0.858405	23.6938	0.220496	7.15014	0.456624	12.7602	0.720659	20.3404
0.196546	5.36786	0.0515519	1.58523	0.318556	9.88074	0.499305	13.4471	0.592372	16.0942	0.859426	23.1272	0.224352	7.06181	0.458497	12.4874	0.721803	19.8506
0.201345	5.36248	0.0528278	1.59636	0.319835	9.74736	0.500427	13.1474	0.594	15.74	0.860471	22.589	0.228245	6.97967	0.460408	12.2292	0.722973	19.3861
0.206125	5.35684	0.0543735	1.60941	0.321402	9.59278	0.501588	12.8631	0.595662	15.4037	0.861541	22.0771	0.232174	6.90313	0.462358	11.9844	0.724171	18.9449
0.210883	5.35095	0.0561901	1.62415	0.323268	9.42021	0.50279	12.593	0.597358	15.0841	0.862635	21.5897	0.236136	6.83168	0.464345	11.7521	0.725396	18.5254
0.215619	5.34477	0.0582787	1.64035	0.325447	9.23302	0.504034	12.3363	0.599086	14.7801	0.863753	21.125	0.24013	6.76488	0.46637	11.5314	0.726648	18.1261
0.220332	5.33829	0.0603711	1.65582	0.327664	9.05654	0.505321	12.0921	0.600847	14.4904	0.864895	20.6817	0.244154	6.70232	0.468431	11.3216	0.727926	17.7456
0.225019	5.33151	0.0624666	1.6706	0.329919	8.88994	0.50665	11.8595	0.602641	14.2143	0.866061	20.2583	0.248206	6.64363	0.470529	11.1218	0.729231	17.3826
0.22968	5.32441	0.0645649	1.68474	0.332211	8.73247	0.508022	11.6378	0.604466	13.9508	0.867251	19.8534	0.252284	6.5885	0.472385	10.9554	0.730562	17.036
0.234313	5.31697	0.0666654	1.69826	0.33454	8.58346	0.509439	11.4264	0.606323	13.6991	0.868464	19.466	0.256388	6.53663	0.473989	10.819	0.731919	16.7047
0.238917	5.30918	0.068768	1.71121	0.336904	8.44232	0.510901	11.2246	0.608211	13.4584	0.869701	19.095	0.260516	6.48775	0.475329	10.7097	0.733303	16.3878
0.243488	5.30102	0.0708721	1.72361	0.339304	8.30847	0.512212	11.0562	0.610129	13.2281	0.870961	18.7393	0.264666	6.44164	0.476398	10.6254	0.734712	16.0844
0.248027	5.29248	0.0729775	1.73549	0.341739	8.18144	0.513357	10.9178	0.612079	13.0077	0.872245	18.3981	0.268837	6.39808	0.47719	10.5647	0.736146	15.7936
0.25253	5.28353	0.075084	1.74688	0.344208	8.06076	0.514323	10.8068	0.614058	12.7964	0.873552	18.0706	0.273029	6.35688	0.477698	10.5263	0.737606	15.5148
0.256996	5.27416	0.0771913	1.7578	0.346712	7.94602	0.5151	10.7212	0.616067	12.5937	0.874882	17.7559	0.277239	6.31785	0.478432	10.4718	0.739091	15.2473
0.261423	5.26435	0.0792993	1.76829	0.34925	7.83686	0.515678	10.6594	0.618106	12.3992	0.876235	17.4533	0.281466	6.28084	0.479235	10.4135	0.740602	14.9903
0.265809	5.25409	0.0814076	1.77836	0.351823	7.73293	0.516051	10.6203	0.620174	12.2125	0.877611	17.1622	0.285711	6.2457	0.480332	10.3358	0.742137	14.7433
0.27015	5.24335	0.0835164	1.78803	0.354431	7.63391	0.516592	10.5649	0.622271	12.033	0.879009	16.882	0.289971	6.2123	0.481732	10.2398	0.743696	14.5058
0.274446	5.23211	0.0856252	1.79733	0.357073	7.53953	0.517186	10.5056	0.624396	11.8604	0.88043	16.612	0.294246	6.18052	0.483441	10.1271	0.74528	14.2773
0.278694	5.22037	0.0877342	1.80627	0.359751	7.44952	0.518003	10.4263	0.626549	11.6943	0.881874	16.3518	0.298534	6.15024	0.485468	9.99949	0.746888	14.0572
0.282891	5.20809	0.0898431	1.81488	0.362465	7.36365	0.519052	10.3285	0.628731	11.5345	0.88334	16.1008	0.302836	6.12136	0.487824	9.85882	0.748521	13.8451
0.287035	5.19527	0.0919518	1.82316	0.365215	7.28169	0.520346	10.2135	0.630939	11.3805	0.884828	15.8586	0.307149	6.09378	0.490211	9.72397	0.750177	13.6407
0.291124	5.18189	0.0940603	1.83114	0.368003	7.20346	0.521897	10.0833	0.632886	11.2508	0.886338	15.6248	0.311474	6.06743	0.492629	9.59461	0.751857	13.4435
0.295154	5.16793	0.0961686	1.83883	0.370829	7.12877	0.523724	9.93966	0.634562	11.1435	0.88787	15.3989	0.315809	6.04221	0.495077	9.47044	0.75356	13.2531
0.299125	5.15339	0.0982765	1.84625	0.373694	7.05745	0.5256	9.80194	0.635959	11.0569	0.889424	15.1805	0.320153	6.01806	0.497555	9.35117	0.755286	13.0693
0.303034	5.13825	0.100384	1.8534	0.3766	6.98934	0.527525	9.66984	0.637071	10.9898	0.890999	14.9694	0.324507	5.9949	0.500061	9.23655	0.757036	12.8918
0.306878	5.12251	0.102491	1.8603	0.379547	6.92431	0.529501	9.54307	0.637892	10.9411	0.892596	14.7651	0.328868	5.97267	0.502597	9.12633	0.758808	12.7201
0.310656	5.10616	0.104598	1.86697	0.382537	6.86222	0.531527	9.42138	0.63842	10.9103	0.894214	14.5673	0.333237	5.95132	0.50516	9.02027	0.760603	12.5542
0.314366	5.08921	0.106704	1.87341	0.385571	6.80295	0.533603	9.30453	0.63918	10.8665	0.895854	14.3758	0.337613	5.93078	0.507752	8.91817	0.76242	12.3936
0.318006	5.07164	0.10881	1.87963	0.388651	6.74638	0.53573	9.19228	0.64001	10.8194	0.897515	14.1903	0.341995	5.91101	0.51037	8.81983	0.76426	12.2381
0.321575	5.05347	0.110915	1.88565	0.391778	6.69242	0.537908	9.08441	0.641144	10.7563	0.899196	14.0105	0.346382	5.89196	0.513015	8.72506	0.766121	12.0876
0.325072	5.03471	0.11302	1.89147	0.394952	6.64095	0.540136	8.98074	0.642587	10.678	0.900899	13.8362	0.350774	5.87358	0.515686	8.63368	0.768005	11.9418
0.328496	5.01536	0.115124	1.8971	0.398176	6.59189	0.542416	8.88106	0.644345	10.5854	0.902622	13.6671	0.35517	5.85584	0.518383	8.54554	0.76991	11.8004
0.331846	4.99545	0.117227	1.90256	0.40145	6.54513	0.544746	8.78519	0.646426	10.4798	0.904366	13.503	0.35957	5.83869	0.521106	8.46047	0.771836	11.6634
0.335122	4.97499	0.119331	1.90784	0.404775	6.50061	0.547126	8.69297	0.648836	10.3624	0.90613	13.3437	0.363973	5.8221	0.523853	8.37834	0.773532	11.5474
0.338324	4.95401	0.121433	1.91296	0.408153	6.45822	0.549558	8.60423	0.651272	10.2488	0.907914	13.1891	0.368378	5.80604	0.526624	8.299	0.774991	11.4508
0.341054	4.93531	0.123535	1.91792	0.411583	6.41788	0.552039	8.51881	0.653732	10.1388	0.909719	13.0388	0.372785	5.79047	0.52942	8.22234	0.776206	11.3726
0.343338	4.91909	0.125637	1.92274	0.415067	6.37953	0.554571	8.43658	0.656217	10.0324	0.911544	12.8928	0.377194	5.77536	0.53224	8.14822	0.777172	11.3118
0.345196	4.90549	0.127737	1.92741	0.418605	6.34307	0.557152	8.3574	0.658726	9.92934	0.913388	12.7508	0.381603	5.7607	0.535082	8.07654	0.777885	11.2676
0.346646	4.89462	0.129838	1.93194	0.422196	6.30842	0.559783	8.28112	0.661259	9.82947	0.915252	12.6128	0.386012	5.74644	0.537948	8.00718	0.778343	11.2395
0.347701	4.88656	0.131938	1.93634	0.425841	6.27552	0.562462	8.20764	0.663815	9.73268	0.917136	12.4786	0.390421	5.73256	0.540836	7.94006	0.779003	11.1996
0.348372	4.88137	0.134037	1.94061	0.429539	6.24428	0.56519	8.13682	0.666395	9.63884	0.919039	12.3479	0.394829	5.71905	0.543746	7.87506	0.779724	11.1565
0.34933	4.87389	0.136136	1.94477	0.433289	6.21463	0.567967	8.06857	0.668998	9.54782	0.920962	12.2208	0.399236	5.70587	0.546677	7.81211	0.780707	11.0987
0.350362	4.8657	0.138234	1.9488	0.437091	6.18649	0.57079	8.00276	0.671624	9.45951	0.922903	12.097	0.40364	5.69301	0.549631	7.75111	0.781958	11.0268
0.351751	4.85449	0.140332	1.95273	0.440944	6.15979	0.573661	7.9393	0.674272	9.37381	0.924864	11.9764	0.408042	5.68046	0.552605	7.69199	0.783481	10.9415
0.353486	4.84019	0.142429	1.95655	0.444845	6.13445	0.576579	7.87809	0.676943	9.2906	0.926588	11.8739	0.412441	5.66818	0.5556	7.63467	0.785282	10.8437
0.355548	4.82273	0.144526	1.96026	0.448795	6.11041	0.579542	7.81904	0.679636	9.2098	0.928068	11.7883	0.416837	5.65616	0.558616	7.57908	0.787366	10.7344
0.357921	4.80203	0.146622	1.96388	0.45279	6.08758	0.58255	7.76205	0.682351	9.1313	0.929301	11.7188	0.421228	5.64439	0.561652	7.52514	0.789471	10.6281
0.360583	4.77801	0.148718	1.9674	0.45683	6.06591	0.585602	7.70705	0.685088	9.05502	0.93028	11.6646	0.425615	5.63285	0.564707	7.4728	0.791595	10.5247
0.363181	4.75375	0.150814	1.97083	0.460913	6.04533	0.588699	7.65395	0.687846	8.98089	0.931003	11.6251	0.429997	5.62152	0.567783	7.42199	0.793739	10.424
0.365718	4.72928	0.152909	1.97417	0.465036	6.02578	0.591838	7.60267	0.690626	8.9088	0.931467	11.6001	0.434373	5.6104	0.570877	7.37265	0.795901	10.3261
0.368195	4.70464	0.155003	1.97743	0.469198	6.00718	0.59502	7.55315	0.693426	8.8387	0.932135	11.5643	0.438743	5.59946	0.573991	7.32473	0.798083	10.2307
0.370616	4.67986	0.157097	1.9806	0.473396	5.98949	0.598243	7.5053	0.696248	8.77051	0.932864	11.5258	0.443106	5.58869	0.577124	7.27817	0.800283	10.1378
0.372981	4.65496	0.159191	1.9837	0.47763	5.97265	0.601507	7.45906	0.69909	8.70416	0.933859	11.4739	0.447462	5.57808	0.580276	7.23293	0.802502	10.0474
0.375294	4.62999	0.161285	1.98672	0.481896	5.9566	0.604811	7.41437	0.701953	8.63958	0.935123	11.4092	0.45181	5.56762	0.583446	7.18896	0.804739	9.95921
0.377556	4.60497	0.163378	1.98967	0.486193	5.94129	0.608154	7.37116	0.704836	8.57671	0.936662	11.3323	0.45615	5.55729	0.586634	7.14621	0.806995	9.87328
0.37977	4.57993	0.16547	1.99254	0.490519	5.92667	0.611536	7.32938	0.707739	8.5155	0.938479	11.2438	0.460481	5.54709	0.58984	7.10463	0.809268	9.78951
0.381938	4.55489	0.167562	1.99535	0.494871	5.9127	0.614955	7.28896	0.710662	8.45588	0.940581	11.1446	0.464803	5.53701	0.593065	7.06419	0.81156	9.70782
0.384061	4.52988	0.169654	1.99809	0.499249	5.89934	0.618411	7.24986	0.713605	8.3978	0.942701	11.0478	0.469114	5.52703	0.596307	7.02485	0.813869	9.62813
0.386143	4.50493	0.171746	2.00077	0.50365	5.88654	0.621903	7.21203	0.716567	8.3412	0.944838	10.9532	0.473416	5.51715	0.599567	6.98657	0.816196	9.5504
0.388184	4.48005	0.173837	2.00339	0.508073	5.87426	0.62543	7.1754	0.719549	8.28605	0.946993	10.8609	0.477706	5.50735	0.602844	6.94932	0.81854	9.47454
0.390188	4.45526	0.175928	2.00595	0.512516	5.86248	0.628991	7.13994	0.722551	8.23229	0.949165	10.7707	0.481985	5.49762	0.606139	6.91305	0.820902	9.40049
0.392155	4.43059	0.178018	2.00845	0.516976	5.85115	0.632586	7.1056	0.725571	8.17987	0.951355	10.6826	0.486251	5.48797	0.609451	6.87774	0.82328	9.3282
0.394087	4.40604	0.180109	2.01089	0.521454	5.84024	0.636213	7.07233	0.728611	8.12876	0.953562	10.5965	0.490505	5.47837	0.612781	6.84336	0.825675	9.25761
0.395987	4.38164	0.182199	2.01328	0.525947	5.82973	0.639873	7.0401	0.731669	8.0789	0.955785	10.5124	0.494746	5.46883	0.616127	6.80988	0.828088	9.18867
0.397855	4.35739	0.184288	2.01562	0.530454	5.81959	0.643564	7.00886	0.734747	8.03027	0.958025	10.4302	0.498973	5.45933	0.619491	6.77726	0.830516	9.12132
0.399695	4.33332	0.186378	2.01791	0.534974	5.80978	0.647285	6.97857	0.737843	7.98282	0.960282	10.3498	0.503186	5.44987	0.622871	6.74549	0.832961	9.05552
0.401506	4.30942	0.188467	2.02015	0.539505	5.8003	0.651035	6.9492	0.740957	7.93651	0.962556	10.2711	0.507384	5.44043	0.626269	6.71454	0.835423	8.9912
0.403291	4.28572	0.190556	2.02235	0.544046	5.79111	0.654815	6.92072	0.74409	7.89132	0.964845	10.1942	0.511566	5.43102	0.629683	6.68437	0.8379	8.92834
0.40505	4.26222	0.192644	2.02449	0.548595	5.7822	0.658623	6.89309	0.747241	7.8472	0.967151	10.119	0.515732	5.42163	0.633114	6.65498	0.840394	8.86688
0.406786	4.23893	0.194732	2.0266	0.553153	5.77354	0.662457	6.86627	0.750411	7.80413	0.969473	10.0453	0.519882	5.41224	0.636563	6.62633	0.842903	8.80679
0.408499	4.21585	0.19682	2.02866	0.557718	5.76512	0.666319	6.84024	0.753598	7.76207	0.971812	9.97328	0.524014	5.40286	0.640027	6.5984	0.845429	8.74801
0.410191	4.19299	0.198908	2.03067	0.562288	5.75692	0.670207	6.81497	0.756804	7.721	0.974165	9.90275	0.528129	5.39347	0.643509	6.57118	0.847969	8.69052
0.411863	4.17036	0.200996	2.03265	0.566863	5.74892	0.674119	6.79042	0.760028	7.68088	0.976535	9.8337	0.532226	5.38408	0.647008	6.54463	0.850526	8.63428
0.413516	4.14797	0.203083	2.03459	0.571442	5.74111	0.678056	6.76657	0.76327	7.64169	0.97892	9.7661	0.536304	5.37467	0.650523	6.51876	0.853097	8.57924
0.41515	4.12581	0.20517	2.03649	0.576024	5.73347	0.682017	6.7434	0.766529	7.6034	0.981321	9.69988	0.540362	5.36525	0.654055	6.49352	0.855684	8.52537
0.416768	4.10389	0.207257	2.03836	0.580608	5.726	0.686001	6.72088	0.769807	7.56598	0.983737	9.63503	0.5444	5.3558	0.657604	6.46892	0.858286	8.47265
0.41837	4.08221	0.209344	2.04018	0.585193	5.71868	0.690008	6.69899	0.773102	7.52942	0.986168	9.5715	0.548418	5.34632	0.661169	6.44493	0.860903	8.42103
0.419956	4.06077	0.21143	2.04198	0.58978	5.7115	0.694036	6.67769	0.776415	7.49369	0.988614	9.50925	0.552415	5.33682	0.664751	6.42153	0.863535	8.37049
0.421529	4.03958	0.213517	2.04373	0.594366	5.70444	0.698085	6.65698	0.779746	7.45877	0.991075	9.44825	0.556391	5.32727	0.66835	6.3987	0.866181	8.32099
0.423088	4.01864	0.215603	2.04546	0.598952	5.6975	0.702155	6.63682	0.783094	7.42463	0.99355	9.38846	0.560344	5.31769	0.671966	6.37644	0.868843	8.27252
0.424634	3.99794	0.217689	2.04715	0.603536	5.69068	0.706244	6.6172	0.78646	7.39125	0.996041	9.32985	0.564275	5.30806	0.675599	6.35473	0.871519	8.22503
0.426168	3.9775	0.219774	2.04882	0.608118	5.68395	0.710353	6.5981	0.789844	7.35862	0.998546	9.2724	0.568183	5.29838	0.679248	6.33355	0.874209	8.17851
0.427691	3.9573	0.22186	2.05045	0.612697	5.67731	0.714481	6.57949	0.793246	7.32671	1.00107	9.21606	0.572068	5.28866	0.682914	6.31289	0.876913	8.13292
0.429203	3.93735	0.223945	2.05205	0.617273	5.67076	0.718626	6.56137	0.796665	7.29551			0.575928	5.27888	0.686597	6.29274	0.879632	8.08825
0.430706	3.91765	0.22603	2.05363	0.621846	5.66428	0.722788	6.54371	0.800102	7.265			0.579764	5.26904	0.690297	6.27308	0.882366	8.04446
0.432199	3.8982	0.228115	2.05517	0.626414	5.65788	0.726968	6.5265	0.803557	7.23516			0.583575	5.25915	0.694013	6.2539	0.885113	8.00154
0.433684	3.87899	0.2302	2.05669	0.630977	5.65153	0.731163	6.50971	0.80703	7.20598			0.587361	5.24919	0.697745	6.23519	0.887874	7.95947
0.43516	3.86003	0.232285	2.05819	0.635535	5.64525	0.735374	6.49334	0.81052	7.17744			0.591122	5.23918	0.701495	6.21693	0.890649	7.91821
0.436629	3.84131	0.234369	2.05965	0.640087	5.63901	0.7396	6.47737	0.814029	7.14952			0.594856	5.22909	0.70526	6.19912	0.893438	7.87775
0.438091	3.82284	0.236453	2.06109	0.644633	5.63283	0.74384	6.46178	0.817555	7.12221			0.598564	5.21895	0.709042	6.18173	0.896241	7.83807
0.439545	3.8046	0.238538	2.06251	0.649172	5.62668	0.748094	6.44656	0.821099	7.0955			0.602246	5.20873	0.712841	6.16477	0.899058	7.79916
0.440994	3.78661	0.240622	2.0639	0.653704	5.62057	0.752362	6.43169	0.824662	7.06937			0.6059	5.19845	0.716655	6.14822	0.901888	7.76098
0.442437	3.76885	0.242706	2.06527	0.658229	5.6145	0.756642	6.41717	0.828243	7.04381			0.609527	5.1881	0.720485	6.13207	0.904732	7.72353
0.443875	3.75132	0.244789	2.06662	0.662745	5.60845	0.760934	6.40298	0.831842	7.0188			0.613127	5.17768	0.724332	6.11631	0.907589	7.68678
0.445308	3.73403	0.246873	2.06795	0.667253	5.60243	0.765238	6.3891	0.83546	6.99434			0.616699	5.16718	0.728194	6.10092	0.910459	7.65073
0.446736	3.71696	0.248956	2.06925	0.671752	5.59642	0.769553	6.37553	0.839096	6.97041			0.620243	5.15662	0.732072	6.0859	0.913344	7.61534
0.44816	3.70013	0.25104	2.07053	0.676242	5.59043	0.773878	6.36226	0.84275	6.947			0.623758	5.14599	0.735965	6.07124	0.916241	7.58061
0.44958	3.68352	0.253123	2.07179	0.680722	5.58446	0.778213	6.34927	0.846424	6.92411			0.627246	5.13529	0.739873	6.05693	0.919152	7.54652
0.450996	3.66713	0.255206	2.07303	0.685192	5.5785	0.782558	6.33655	0.850116	6.90171			0.630705	5.12452	0.743796	6.04296	0.922076	7.51305
0.45241	3.65096	0.257289	2.07426	0.689653	5.57254	0.786911	6.32409	0.853828	6.8798			0.634135	5.11368	0.747734	6.02931	0.925013	7.4802
0.45382	3.63501	0.259372	2.07546	0.694102	5.56658	0.791273	6.31188	0.857558	6.85837			0.637537	5.10277	0.751687	6.01599	0.927963	7.44794
0.455228	3.61928	0.261455	2.07664	0.698541	5.56063	0.795643	6.29991	0.861308	6.83741			0.64091	5.0918	0.755653	6.00297	0.930926	7.41627
0.456633	3.60376	0.263538	2.07781	0.702968	5.55468	0.80002	6.28818	0.865077	6.81692			0.644254	5.08076	0.759634	5.99026	0.933902	7.38516
0.458036	3.58845	0.26562	2.07896	0.707384	5.54872	0.804403	6.27667	0.868866	6.79687			0.647569	5.06966	0.763628	5.97783	0.936891	7.35461
0.459438	3.57334	0.267703	2.08009	0.711788	5.54276	0.808793	6.26538	0.872675	6.77727			0.650856	5.05849	0.767636	5.96569	0.939893	7.32461
0.460838	3.55844	0.269785	2.0812	0.71618	5.53679	0.813189	6.25429	0.876504	6.75811			0.654114	5.04726	0.771656	5.95383	0.942908	7.29514
0.462236	3.54375	0.271867	2.0823	0.72056	5.53081	0.817589	6.2434	0.880352	6.73937			0.657343	5.03598	0.77569	5.94223	0.945936	7.26618
0.463633	3.52925	0.273949	2.08338	0.724927	5.52482	0.821995	6.23269	0.884221	6.72105			0.660544	5.02463	0.779735	5.93089	0.948977	7.23774
0.465029	3.51495	0.276031	2.08444	0.72928	5.51881	0.826405	6.22218	0.888111	6.70314			0.663716	5.01323	0.783793	5.91981	0.95203	7.2098
0.466424	3.50084	0.278113	2.08549	0.733621	5.51279	0.830819	6.21183	0.892021	6.68564			0.666859	5.00177	0.787862	5.90896	0.955096	7.18234
0.467819	3.48692	0.280195	2.08652	0.737948	5.50675	0.835235	6.20165	0.895951	6.66853			0.669974	4.99027	0.791943	5.89835	0.958175	7.15536
0.469213	3.47319	0.282277	2.08754	0.742261	5.5007	0.839655	6.19164	0.899903	6.65182			0.673061	4.97871	0.796034	5.88796	0.961266	7.12884
0.470607	3.45965	0.284358	2.08855	0.74656	5.49462	0.844077	6.18178	0.903876	6.63548			0.67612	4.9671	0.800136	5.8778	0.96437	7.10279
0.472	3.44629	0.28644	2.08954	0.750845	5.48852	0.848501	6.17206	0.907869	6.61953			0.679151	4.95545	0.804248	5.86784	0.967487	7.07718
0.473394	3.43311	0.288521	2.09051	0.755116	5.4824	0.852927	6.16249	0.911884	6.60394			0.682155	4.94376	0.80837	5.85809	0.970616	7.052
0.474788	3.42011	0.290603	2.09147	0.759372	5.47625	0.857353	6.15305	0.915921	6.58872			0.685131	4.93202	0.812501	5.84854	0.973757	7.02726
0.476182	3.40729	0.292684	2.09242	0.763612	5.47008	0.86178	6.14374	0.919979	6.57385			0.688079	4.92025	0.81664	5.83918	0.976911	7.00293
0.477577	3.39464	0.294765	2.09336	0.767838	5.46389	0.866208	6.13456	0.924059	6.55933			0.691001	4.90844	0.820789	5.83	0.980078	6.97902
0.478972	3.38216	0.296846	2.09428	0.772048	5.45766	0.870635	6.1255	0.92816	6.54516			0.693896	4.8966	0.824945	5.821	0.983256	6.95551
0.480368	3.36984	0.298927	2.09519	0.776243	5.45141	0.875062	6.11655	0.932283	6.53132			0.696764	4.88472	0.829109	5.81217	0.986447	6.93239
0.481765	3.35769	0.301008	2.09609	0.780422	5.44513	0.879488	6.10771	0.936428	6.51782			0.699606	4.87282	0.83328	5.80351	0.98965	6.90966
0.483162	3.34571	0.303089	2.09697	0.784585	5.43882	0.883913	6.09898	0.940595	6.50464			0.702422	4.86089	0.837458	5.79501	0.992866	6.88731
0.484561	3.33389	0.30517	2.09785	0.788732	5.43248	0.888337	6.09035	0.944784	6.49178			0.705212	4.84893	0.841643	5.78665	0.996093	6.86533
0.485961	3.32222	0.307251	2.09871	0.792862	5.42611	0.892758	6.08181	0.948995	6.47924			0.707976	4.83695	0.845833	5.77845	0.999333	6.84371
0.487361	3.31071	0.309332	2.09956	0.796976	5.4197	0.897178	6.07337	0.953229	6.467			0.710716	4.82496	0.850029	5.77039	1.00259	6.82245
0.488764	3.29935	0.311412	2.1004	0.801073	5.41327	0.901595	6.06502	0.957483	6.45507			0.71343	4.81294	0.854231	5.76246		
0.490167	3.28815	0.313493	2.10123	0.805153	5.4068	0.90601	6.05676	0.96176	6.44343			0.71612	4.80091	0.858436	5.75466		
0.491572	3.27709	0.315573	2.10204	0.809217	5.4003	0.910422	6.04858	0.966059	6.43208			0.718785	4.78887	0.862647	5.74699		
0.492979	3.26618	0.317654	2.10285	0.813263	5.39377	0.914831	6.04049	0.97038	6.42101			0.721427	4.77682	0.866861	5.73944		
0.494387	3.25541	0.319734	2.10365	0.817292	5.3872	0.919237	6.03247	0.974722	6.41023			0.724045	4.76476	0.871078	5.73201		
0.495797	3.24479	0.321814	2.10444	0.821304	5.3806	0.92364	6.02453	0.979085	6.39971			0.726639	4.75269	0.875299	5.72469		
0.497208	3.23431	0.323894	2.10521	0.825298	5.37396	0.92804	6.01666	0.98347	6.38946			0.72921	4.74062	0.879523	5.71747		
0.498622	3.22396	0.325975	2.10598	0.829274	5.36729	0.932436	6.00886	0.987877	6.37947			0.731759	4.72854	0.883749	5.71035		
0.500037	3.21375	0.328055	2.10674	0.833232	5.36059	0.936828	6.00114	0.992304	6.36974			0.734285	4.71647	0.887976	5.70334		
0.501454	3.20368	0.330135	2.10749	0.837173	5.35385	0.941217	5.99348	0.996752	6.36026			0.736788	4.7044	0.892206	5.69641		
0.502873	3.19373	0.332215	2.10822	0.841096	5.34707	0.945602	5.98589	1.00122	6.35101			0.73927	4.69233	0.896436	5.68958		
0.504294	3.18392	0.334295	2.10895	0.845	5.34027	0.949983	5.97836					0.741731	4.68027	0.900667	5.68283		
0.505717	3.17423	0.336374	2.10968	0.848887	5.33342	0.954361	5.9709					0.74417	4.66822	0.904899	5.67616		
0.507142	3.16467	0.338454	2.11039	0.852755	5.32655	0.958734	5.96351					0.746588	4.65618	0.909131	5.66957		
0.50857	3.15523	0.340534	2.11109	0.856605	5.31963	0.963104	5.95617					0.748986	4.64414	0.913362	5.66305		
0.509999	3.14592	0.342614	2.11179	0.860436	5.31269	0.967471	5.94889					0.751364	4.63213	0.917592	5.65661		
0.511431	3.13672	0.344693	2.11247	0.864249	5.30571	0.971833	5.94168					0.753721	4.62012	0.921822	5.65023		
0.512865	3.12765	0.346773	2.11315	0.868043	5.2987	0.976192	5.93452					0.756059	4.60814	0.92605	5.64392		
0.514302	3.11869	0.348852	2.11382	0.871819	5.29165	0.980547	5.92743					0.758378	4.59617	0.930277	5.63766		
0.515741	3.10984	0.350932	2.11449	0.875576	5.28457	0.984898	5.92039					0.760678	4.58422	0.934501	5.63147		
0.517182	3.10111	0.353011	2.11514	0.879315	5.27746	0.989246	5.91341					0.762959	4.5723	0.938723	5.62532		
0.518625	3.09249	0.355091	2.11579	0.883035	5.27031	0.993591	5.90648					0.765222	4.5604	0.942942	5.61923		
0.520071	3.08398	0.35717	2.11643	0.886736	5.26313	0.997932	5.89961					0.767466	4.54852	0.947158	5.61319		
0.521519	3.07557	0.359249	2.11706	0.890418	5.25593	1.00227	5.8928					0.769693	4.53667	0.951371	5.6072		
0.52297	3.06727	0.361328	2.11769	0.894082	5.24869							0.771903	4.52484	0.95558	5.60125		
0.524423	3.05908	0.363408	2.11831	0.897726	5.24141							0.774095	4.51304	0.959785	5.59534		
0.525879	3.05099	0.365487	2.11892	0.901353	5.23411							0.776271	4.50128	0.963986	5.58947		
0.527338	3.043	0.367566	2.11952	0.90496	5.22678							0.77843	4.48954	0.968182	5.58363		
0.528798	3.03512	0.369645	2.12012	0.908548	5.21942							0.780573	4.47784	0.972373	5.57783		
0.530262	3.02733	0.371724	2.12071	0.912118	5.21203							0.7827	4.46617	0.976559	5.57207		
0.531728	3.01964	0.373803	2.1213	0.915669	5.20462							0.784811	4.45454	0.980739	5.56633		
0.533196	3.01204	0.375882	2.12188	0.919202	5.19717							0.786907	4.44294	0.984914	5.56062		
0.534668	3.00454	0.377961	2.12245	0.922716	5.1897							0.788988	4.43137	0.989082	5.55493		
0.536141	2.99713	0.38004	2.12302	0.926211	5.1822							0.791054	4.41985	0.993244	5.54927		
0.537618	2.98981	0.382118	2.12358	0.929687	5.17468							0.793106	4.40836	0.9974	5.54363		
0.539097	2.98258	0.384197	2.12413	0.933145	5.16713							0.795143	4.39692	1.00155	5.53801		
0.540578	2.97544	0.386276	2.12468	0.936584	5.15956							0.797167	4.38551				
0.542063	2.96839	0.388355	2.12522	0.940005	5.15196							0.799176	4.37415				
0.54355	2.96142	0.390433	2.12576	0.943408	5.14434							0.801173	4.36283				
0.545039	2.95454	0.392512	2.12629	0.946792	5.13669							0.803156	4.35155				
0.546531	2.94774	0.39459	2.12681	0.950158	5.12903							0.805126	4.34032				
0.548026	2.94102	0.396669	2.12733	0.953505	5.12134							0.807084	4.32913				
0.549524	2.93439	0.398747	2.12785	0.956834	5.11363							0.809029	4.31798				
0.551024	2.92783	0.400826	2.12836	0.960146	5.1059							0.810962	4.30688				
0.552527	2.92135	0.402904	2.12886	0.963439	5.09816							0.812884	4.29583				
0.554032	2.91495	0.404983	2.12936	0.966714	5.09039							0.814793	4.28482				
0.555541	2.90863	0.407061	2.12986	0.969971	5.08261							0.816692	4.27387				
0.557052	2.90238	0.409139	2.13035	0.97321	5.0748							0.818579	4.26296				
0.558565	2.89621	0.411218	2.13083	0.976431	5.06699							0.820455	4.2521				
0.560081	2.89011	0.413296	2.13131	0.979635	5.05915							0.822321	4.24129				
0.5616	2.88408	0.415374	2.13178	0.982821	5.0513							0.824176	4.23053				
0.563122	2.87813	0.417452	2.13225	0.98599	5.04343							0.826021	4.21981				
0.564646	2.87224	0.41953	2.13272	0.989141	5.03555							0.827855	4.20915				
0.566173	2.86642	0.421609	2.13318	0.992275	5.02766							0.829681	4.19854				
0.567702	2.86067	0.423687	2.13364	0.995391	5.01976							0.831496	4.18799				
0.569234	2.85499	0.425765	2.13409	0.99849	5.01184							0.833302	4.17748				
0.570769	2.84937	0.427843	2.13454	1.00157	5.00391							0.835099	4.16702				
0.572306	2.84382	0.429921	2.13498									0.836887	4.15662				
0.573846	2.83833	0.431999	2.13542									0.838666	4.14627				
0.575389	2.8329	0.434077	2.13585									0.840437	4.13598				
0.576934	2.82754	0.436155	2.13628									0.8422	4.12573				
0.578482	2.82224	0.438232	2.13671									0.843954	4.11554				
0.580033	2.817	0.44031	2.13713									0.8457	4.1054				
0.581586	2.81182	0.442388	2.13755									0.847438	4.09532				
0.583141	2.8067	0.444466	2.13797									0.849169	4.08529				
0.5847	2.80163	0.446544	2.13838									0.850892	4.07531				
0.58626	2.79663	0.448621	2.13879									0.852609	4.06539				
0.587824	2.79168	0.450699	2.13919									0.854318	4.05553				
0.58939	2.78678	0.452777	2.13959									0.85602	4.04571				
0.590958	2.78194	0.454855	2.13999									0.857715	4.03595				
0.592529	2.77716	0.456932	2.14038									0.859404	4.02625				
0.594102	2.77243	0.45901	2.14077									0.861086	4.0166				
0.595679	2.76775	0.461087	2.14115									0.862762	4.007				
0.597257	2.76312	0.463165	2.14154									0.864432	3.99746				
0.598838	2.75855	0.465243	2.14191									0.866096	3.98797				
0.600422	2.75402	0.46732	2.14229									0.867754	3.97854				
0.602008	2.74954	0.469398	2.14266									0.869407	3.96916				
0.603596	2.74512	0.471475	2.14303									0.871054	3.95984				
0.605187	2.74074	0.473552	2.1434									0.872695	3.95057				
0.60678	2.73641	0.47563	2.14376									0.874331	3.94135				
0.608376	2.73213	0.477707	2.14412									0.875963	3.93219				
0.609974	2.72789	0.479785	2.14447									0.877589	3.92308				
0.611575	2.7237	0.481862	2.14483									0.87921	3.91403				
0.613178	2.71955	0.483939	2.14518									0.880827	3.90503				
0.614783	2.71545	0.486017	2.14553									0.882439	3.89608				
0.616391	2.7114	0.488094	2.14587									0.884047	3.88719				
0.618001	2.70738	0.490171	2.14621									0.88565	3.87835				
0.619614	2.70341	0.492248	2.14655									0.887249	3.86956				
0.621229	2.69949	0.494326	2.14689									0.888844	3.86083				
0.622846	2.6956	0.496403	2.14722									0.890435	3.85215				
0.624465	2.69176	0.49848	2.14755									0.892022	3.84353				
0.626087	2.68795	0.500557	2.14788									0.893605	3.83495				
0.627711	2.68419	0.502634	2.1482									0.895184	3.82643				
0.629338	2.68046	0.504711	2.14852									0.89676	3.81796				
0.630966	2.67678	0.506789	2.14884									0.898333	3.80955				
0.632597	2.67313	0.508866	2.14916									0.899902	3.80118				
0.634231	2.66952	0.510943	2.14947									0.901468	3.79287				
0.635866	2.66595	0.51302	2.14978									0.90303	3.78461				
0.637504	2.66242	0.515097	2.15009									0.90459	3.7764				
0.639144	2.65892	0.517174	2.1504									0.906147	3.76824				
0.640786	2.65546	0.519251	2.1507									0.9077	3.76013				
0.64243	2.65204	0.521328	2.15101									0.909251	3.75208				
0.644077	2.64865	0.523405	2.15131									0.9108	3.74407				
0.645725	2.64529	0.525482	2.1516									0.912345	3.73611				
0.647376	2.64197	0.527558	2.1519									0.913888	3.72821				
0.649029	2.63868	0.529635	2.15219									0.915429	3.72035				
0.650684	2.63543	0.531712	2.15248									0.916967	3.71255				
0.652342	2.63221	0.533789	2.15277									0.918503	3.70479				
0.654001	2.62902	0.535866	2.15305									0.920037	3.69708				
0.655662	2.62586	0.537943	2.15334									0.921568	3.68942				
0.657326	2.62274	0.54002	2.15362									0.923098	3.68181				
0.658992	2.61965	0.542096	2.1539									0.924625	3.67425				
0.660659	2.61659	0.544173	2.15418									0.92615	3.66674				
0.662329	2.61355	0.54625	2.15445									0.927674	3.65927				
0.664001	2.61055	0.548327	2.15472									0.929196	3.65186				
0.665675	2.60758	0.550403	2.15499									0.930716	3.64449				
0.66735	2.60464	0.55248	2.15526									0.932235	3.63716				
0.669028	2.60173	0.554557	2.15553									0.933751	3.62988				
0.670708	2.59885	0.556633	2.15579									0.935267	3.62266				
0.67239	2.59599	0.55871	2.15606									0.936781	3.61547				
0.674074	2.59316	0.560787	2.15632									0.938293	3.60833				
0.67576	2.59036	0.562863	2.15658									0.939804	3.60124				
0.677447	2.58759	0.56494	2.15683									0.941314	3.59419				
0.679137	2.58485	0.567016	2.15709									0.942823	3.58719				
0.680828	2.58213	0.569093	2.15734									0.94433	3.58024				
0.682522	2.57944	0.571169	2.15759									0.945836	3.57333				
0.684217	2.57677	0.573246	2.15784									0.947341	3.56646				
0.685915	2.57413	0.575322	2.15809									0.948846	3.55964				
0.687614	2.57152	0.577399	2.15834									0.950349	3.55286				
0.689315	2.56893	0.579475	2.15858									0.951851	3.54612				
0.691018	2.56636	0.581552	2.15882									0.953352	3.53943				
0.692723	2.56382	0.583628	2.15906									0.954853	3.53278				
0.694429	2.56131	0.585705	2.1593									0.956353	3.52617				
0.696137	2.55881	0.587781	2.15954									0.957852	3.51961				
0.697848	2.55635	0.589858	2.15978									0.95935	3.51309				
0.69956	2.5539	0.591934	2.16001									0.960848	3.50661				
0.701274	2.55148	0.59401	2.16024									0.962345	3.50017				
0.702989	2.54908	0.596087	2.16047									0.963841	3.49377				
0.704707	2.5467	0.598163	2.1607									0.965337	3.48742				
0.706426	2.54435	0.600239	2.16093									0.966833	3.48111				
0.708147	2.54202	0.602316	2.16116									0.968328	3.47483				
0.709869	2.53971	0.604392	2.16138									0.969822	3.4686				
0.711594	2.53742	0.606468	2.1616									0.971317	3.46241				
0.71332	2.53515	0.608545	2.16183									0.972811	3.45625				
0.715048	2.53291	0.610621	2.16205									0.974304	3.45014				
0.716777	2.53068	0.612697	2.16226									0.975798	3.44406				
0.718508	2.52847	0.614773	2.16248									0.977291	3.43803				
0.720241	2.52629	0.61685	2.1627									0.978784	3.43203				
0.721976	2.52412	0.618926	2.16291									0.980277	3.42607				
0.723712	2.52198	0.621002	2.16312									0.981769	3.42015				
0.72545	2.51985	0.623078	2.16333									0.983262	3.41427				
0.727189	2.51775	0.625154	2.16354									0.984755	3.40843				
0.72893	2.51566	0.627231	2.16375									0.986247	3.40262				
0.730673	2.51359	0.629307	2.16396									0.987739	3.39685				
0.732417	2.51154	0.631383	2.16416									0.989232	3.39112				
0.734163	2.50951	0.633459	2.16437									0.990725	3.38542				
0.735911	2.5075	0.635535	2.16457									0.992217	3.37976				
0.73766	2.50551	0.637611	2.16477									0.99371	3.37414				
0.73941	2.50353	0.639687	2.16497									0.995203	3.36855				
0.741163	2.50157	0.641763	2.16517									0.996696	3.363				
0.742917	2.49963	0.643839	2.16537									0.998189	3.35748				
0.744672	2.49771	0.645915	2.16557									0.999683	3.352				
0.746429	2.4958	0.647991	2.16576									1.00118	3.34656				
0.748187	2.49391	0.650067	2.16596														
0.749947	2.49204	0.652143	2.16615														
0.751708	2.49018	0.654219	2.16634														
0.753471	2.48834	0.656295	2.16653														
0.755235	2.48652	0.658371	2.16672														
0.757001	2.48471	0.660447	2.16691														
0.758769	2.48292	0.662523	2.16709														
0.760537	2.48114	0.664599	2.16728														
0.762308	2.47938	0.666675	2.16746														
0.764079	2.47763	0.668751	2.16765														
0.765852	2.4759	0.670827	2.16783														
0.767627	2.47419	0.672903	2.16801														
0.769403	2.47249	0.674979	2.16819														
0.77118	2.4708	0.677055	2.16837														
0.772959	2.46913	0.67913	2.16854														
0.774739	2.46747	0.681206	2.16872														
0.77652	2.46583	0.683282	2.1689														
0.778303	2.4642	0.685358	2.16907														
0.780087	2.46258	0.687434	2.16924														
0.781873	2.46098	0.689509	2.16942														
0.78366	2.45939	0.691585	2.16959														
0.785448	2.45782	0.693661	2.16976														
0.787237	2.45626	0.695737	2.16993														
0.789028	2.45471	0.697813	2.17009														
0.79082	2.45317	0.699888	2.17026														
0.792614	2.45165	0.701964	2.17043														
0.794409	2.45014	0.70404	2.17059														
0.796205	2.44865	0.706115	2.17076														
0.798002	2.44716	0.708191	2.17092														
0.799801	2.44569	0.710267	2.17108														
0.801601	2.44423	0.712342	2.17124														
0.803402	2.44278	0.714418	2.1714														
0.805204	2.44135	0.716494	2.17156														
0.807008	2.43992	0.718569	2.17172														
0.808813	2.43851	0.720645	2.17188														
0.810619	2.43711	0.722721	2.17203														
0.812426	2.43572	0.724796	2.17219														
0.814234	2.43434	0.726872	2.17235														
0.816044	2.43298	0.728947	2.1725														
0.817855	2.43162	0.731023	2.17265														
0.819667	2.43028	0.733099	2.1728														
0.821481	2.42894	0.735174	2.17296														
0.823295	2.42762	0.73725	2.17311														
0.825111	2.42631	0.739325	2.17326														
0.826927	2.42501	0.741401	2.1734														
0.828745	2.42372	0.743476	2.17355														
0.830564	2.42243	0.745552	2.1737														
0.832385	2.42116	0.747627	2.17385														
0.834206	2.4199	0.749703	2.17399														
0.836029	2.41865	0.751778	2.17413														
0.837852	2.41741	0.753854	2.17428														
0.839677	2.41618	0.755929	2.17442														
0.841503	2.41496	0.758005	2.17456														
0.84333	2.41375	0.76008	2.17471														
0.845158	2.41255	0.762155	2.17485														
0.846987	2.41136	0.764231	2.17499														
0.848817	2.41018	0.766306	2.17512														
0.850648	2.409	0.768382	2.17526														
0.852481	2.40784	0.770457	2.1754														
0.854314	2.40668	0.772532	2.17554														
0.856148	2.40554	0.774608	2.17567														
0.857984	2.4044	0.776683	2.17581														
0.85982	2.40327	0.778759	2.17594														
0.861658	2.40215	0.780834	2.17608														
0.863497	2.40104	0.782909	2.17621														
0.865336	2.39994	0.784985	2.17634														
0.867177	2.39885	0.78706	2.17647														
0.869018	2.39776	0.789135	2.1766														
0.870861	2.39668	0.79121	2.17674														
0.872705	2.39562	0.793286	2.17686														
0.874549	2.39455	0.795361	2.17699														
0.876395	2.3935	0.797436	2.17712														
0.878242	2.39246	0.799511	2.17725														
0.880089	2.39142	0.801587	2.17738														
0.881938	2.39039	0.803662	2.1775														
0.883787	2.38937	0.805737	2.17763														
0.885638	2.38836	0.807812	2.17775														
0.887489	2.38735	0.809888	2.17788														
0.889341	2.38636	0.811963	2.178														
0.891195	2.38536	0.814038	2.17812														
0.893049	2.38438	0.816113	2.17825														
0.894904	2.38341	0.818188	2.17837														
0.89676	2.38244	0.820264	2.17849														
0.898617	2.38148	0.822339	2.17861														
0.900475	2.38052	0.824414	2.17873														
0.902334	2.37958	0.826489	2.17885														
0.904194	2.37864	0.828564	2.17897														
0.906054	2.3777	0.830639	2.17909														
0.907916	2.37678	0.832714	2.1792														
0.909778	2.37586	0.834789	2.17932														
0.911642	2.37494	0.836865	2.17944														
0.913506	2.37404	0.83894	2.17955														
0.915371	2.37314	0.841015	2.17967														
0.917237	2.37225	0.84309	2.17978														
0.919104	2.37136	0.845165	2.17989														
0.920971	2.37048	0.84724	2.18001														
0.92284	2.36961	0.849315	2.18012														
0.924709	2.36874	0.85139	2.18023														
0.926579	2.36788	0.853465	2.18034														
0.92845	2.36703	0.85554	2.18046														
0.930322	2.36618	0.857615	2.18057														
0.932195	2.36534	0.85969	2.18068														
0.934068	2.3645	0.861765	2.18079														
0.935943	2.36367	0.86384	2.1809														
0.937818	2.36285	0.865915	2.181														
0.939694	2.36203	0.86799	2.18111														
0.941571	2.36122	0.870065	2.18122														
0.943448	2.36041	0.87214	2.18133														
0.945326	2.35961	0.874215	2.18143														
0.947205	2.35881	0.87629	2.18154														
0.949085	2.35802	0.878365	2.18164														
0.950966	2.35724	0.880439	2.18175														
0.952848	2.35646	0.882514	2.18185														
0.95473	2.35569	0.884589	2.18196														
0.956613	2.35492	0.886664	2.18206														
0.958497	2.35416	0.888739	2.18216														
0.960381	2.3534	0.890814	2.18226														
0.962266	2.35265	0.892889	2.18237														
0.964153	2.3519	0.894964	2.18247														
0.966039	2.35116	0.897038	2.18257														
0.967927	2.35043	0.899113	2.18267														
0.969815	2.3497	0.901188	2.18277														
0.971704	2.34897	0.903263	2.18287														
0.973594	2.34825	0.905338	2.18297														
0.975484	2.34753	0.907413	2.18307														
0.977376	2.34682	0.909487	2.18316														
0.979268	2.34612	0.911562	2.18326														
0.98116	2.34542	0.913637	2.18336														
0.983053	2.34472	0.915712	2.18345														
0.984948	2.34403	0.917787	2.18355														
0.986842	2.34334	0.919861	2.18365														
0.988738	2.34266	0.921936	2.18374														
0.990634	2.34198	0.924011	2.18384														
0.992531	2.34131	0.926085	2.18393														
0.994428	2.34064	0.92816	2.18403														
0.996326	2.33998	0.930235	2.18412														
0.998225	2.33932	0.93231	2.18421														
1.00012	2.33866	0.934384	2.18431														
		0.936459	2.1844														
		0.938534	2.18449														
		0.940608	2.18458														
		0.942683	2.18467														
		0.944758	2.18476														
		0.946832	2.18485														
		0.948907	2.18494														
		0.950982	2.18503														
		0.953056	2.18512														
		0.955131	2.18521														
		0.957206	2.1853														
		0.95928	2.18539														
		0.961355	2.18547														
		0.963429	2.18556														
		0.965504	2.18565														
		0.967578	2.18573														
		0.969653	2.18582														
		0.971728	2.18591														
		0.973802	2.18599														
		0.975877	2.18608														
		0.977951	2.18616														
		0.980026	2.18624														
		0.9821	2.18633														
		0.984175	2.18641														
		0.986249	2.18649														
		0.988324	2.18658														
		0.990398	2.18666														
		0.992473	2.18674														
		0.994547	2.18682														
		0.996622	2.1869														
		0.998696	2.18698														
		1.00077	2.18707														
