Sym0		Asym0		Sym1		Sym2		Sym3		Sym4		Asym1		Asym2		Asym3	
466  Points		495  Points		226  Points		194  Points		181  Points		126  Points		329  Points		206  Points		169  Points	
Freq (MHz)	Vph (m/ms)	Freq (MHz)	Vph (m/ms)	Freq (MHz)	Vph (m/ms)	Freq (MHz)	Vph (m/ms)	Freq (MHz)	Vph (m/ms)	Freq (MHz)	Vph (m/ms)	Freq (MHz)	Vph (m/ms)	Freq (MHz)	Vph (m/ms)	Freq (MHz)	Vph (m/ms)
0.00184311	5.29428	0.00042742	0.180802	0.279509	3795.12	0.477492	775.431	0.559021	1424.39	0.838535	1016.87	0.139764	465.617	0.419266	1316.81	0.698771	246714
0.00677566	5.2942	0.000827253	0.251008	0.279548	278.061	0.477515	308.577	0.55906	422.2	0.83857	477.459	0.139925	113.588	0.419308	335.422	0.698786	747.743
0.0117079	5.29405	0.00135367	0.320213	0.279654	144.372	0.477557	192.628	0.559142	247.863	0.83863	311.989	0.140279	64.8372	0.4194	192.228	0.69883	374.462
0.0166397	5.29384	0.00200266	0.38818	0.279826	97.5435	0.47762	140.029	0.559266	175.453	0.838715	231.708	0.140826	45.4973	0.419543	134.751	0.698902	249.794
0.0215707	5.29353	0.00276931	0.45467	0.280066	73.6933	0.477703	110.005	0.559432	135.809	0.838825	184.3	0.141561	35.1534	0.419736	103.762	0.699004	187.42
0.0265008	5.29316	0.00364831	0.519517	0.280373	59.2488	0.477805	90.5921	0.559641	110.799	0.83896	153.008	0.142481	28.7338	0.419979	84.3861	0.699134	149.987
0.0314296	5.29269	0.00463368	0.582545	0.280745	49.5682	0.477928	77.0113	0.559892	93.5862	0.839121	130.81	0.14358	24.3755	0.420271	71.1292	0.699294	125.03
0.0363571	5.29216	0.00571935	0.643644	0.281184	42.6326	0.478071	66.9789	0.560185	81.018	0.839306	114.246	0.144852	21.233	0.420614	61.4909	0.699483	107.205
0.0412829	5.29153	0.00689888	0.702706	0.281688	37.4226	0.478235	59.2657	0.56052	71.44	0.839517	101.413	0.146292	18.8674	0.421006	54.1699	0.6997	93.839
0.0462069	5.29084	0.00816582	0.759662	0.282257	33.368	0.478419	53.1516	0.560896	63.9	0.839752	91.1795	0.147893	17.0277	0.421448	48.422	0.699947	83.4453
0.0511288	5.29005	0.00951397	0.814484	0.28289	30.1248	0.478625	48.1867	0.561315	57.8114	0.840012	82.8286	0.149646	15.5604	0.421939	43.7907	0.700222	75.1328
0.0560483	5.28918	0.0109369	0.867135	0.283588	27.4733	0.478851	44.0752	0.561775	52.7929	0.840298	75.8853	0.151546	14.3662	0.422479	39.9808	0.700526	68.3341
0.0609652	5.28823	0.0124287	0.91763	0.284348	25.2664	0.4791	40.615	0.562276	48.586	0.840608	70.0217	0.153585	13.3779	0.423068	36.7926	0.700859	62.6708
0.0658793	5.28719	0.0139836	0.965978	0.285171	23.4021	0.47937	37.6632	0.562819	45.0093	0.840943	65.0047	0.155755	12.5485	0.423706	34.0862	0.70122	57.881
0.0707902	5.28606	0.0155961	1.01222	0.286056	21.8074	0.479662	35.1156	0.563402	41.9317	0.841303	60.6635	0.15805	11.8443	0.424392	31.7608	0.70161	53.7774
0.0756978	5.28484	0.0172611	1.05641	0.287002	20.4285	0.479976	32.8949	0.564026	39.256	0.841688	56.8707	0.160462	11.2403	0.425126	29.742	0.702029	50.2229
0.0806017	5.28354	0.0189737	1.09858	0.288008	19.2252	0.480314	30.9423	0.56469	36.9088	0.842098	53.5286	0.162656	10.7808	0.425908	27.9733	0.702476	47.1146
0.0855017	5.28214	0.0207295	1.13881	0.289073	18.1664	0.480675	29.2122	0.565394	34.8336	0.842533	50.5618	0.164589	10.4305	0.426738	26.4116	0.702952	44.3737
0.0903974	5.28064	0.0225244	1.17716	0.290196	17.2283	0.481059	27.6689	0.566139	32.986	0.842992	47.9105	0.166229	10.1657	0.427615	25.023	0.703456	41.9389
0.0952886	5.27905	0.0243546	1.21371	0.291377	16.3917	0.481467	26.2839	0.566923	31.3309	0.843476	45.5273	0.167553	9.97072	0.428539	23.7805	0.703989	39.7621
0.100175	5.27735	0.0262165	1.24853	0.292614	15.6415	0.4819	25.0342	0.567746	29.8399	0.843984	43.3735	0.16854	9.83474	0.429509	22.6626	0.70455	37.8044
0.105056	5.27556	0.0281069	1.28169	0.293907	14.9653	0.482358	23.9011	0.568608	28.4901	0.844517	41.4178	0.169178	9.7508	0.430525	21.6519	0.705138	36.0345
0.109932	5.27366	0.0300229	1.31326	0.295254	14.353	0.482841	22.8693	0.569509	27.2626	0.845075	39.6341	0.170104	9.63417	0.431588	20.7338	0.705755	34.4269
0.114801	5.27165	0.0319619	1.34333	0.296654	13.7962	0.48335	21.9259	0.570448	26.1416	0.845657	38.0009	0.171121	9.5125	0.432695	19.8964	0.7064	32.9604
0.119665	5.26952	0.0339214	1.37196	0.298106	13.288	0.483886	21.0601	0.571425	25.1141	0.846263	36.5	0.172522	9.35505	0.433848	19.1299	0.707073	31.6173
0.124521	5.26729	0.0358992	1.39923	0.29961	12.8225	0.484449	20.2629	0.57244	24.1691	0.846894	35.116	0.174323	9.16817	0.435045	18.4257	0.707774	30.3828
0.129371	5.26493	0.0378935	1.42521	0.301163	12.3947	0.485039	19.5266	0.573493	23.2971	0.847549	33.836	0.176542	8.95877	0.436286	17.7768	0.708502	29.2444
0.134213	5.26245	0.0399023	1.44995	0.302766	12.0005	0.485657	18.8447	0.574582	22.4901	0.848228	32.6488	0.1792	8.73381	0.437571	17.1771	0.709258	28.1915
0.139047	5.25985	0.0419242	1.47353	0.304416	11.6362	0.486304	18.2114	0.575709	21.7413	0.848931	31.5446	0.18232	8.4999	0.438899	16.6213	0.710041	27.2148
0.143873	5.25711	0.0439575	1.49601	0.306113	11.2987	0.48698	17.6219	0.576871	21.0448	0.849658	30.5152	0.18551	8.28859	0.44027	16.105	0.710852	26.3064
0.14869	5.25424	0.0457377	1.51474	0.307855	10.9852	0.487686	17.0719	0.57807	20.3953	0.85041	29.5533	0.188766	8.09702	0.441683	15.6242	0.71169	25.4596
0.153497	5.25122	0.0472608	1.53011	0.30941	10.7298	0.488422	16.5576	0.579304	19.7884	0.851185	28.6525	0.192085	7.92274	0.443138	15.1755	0.712555	24.6684
0.158294	5.24806	0.0485238	1.54242	0.310761	10.5241	0.489189	16.0759	0.580574	19.2201	0.851984	27.8073	0.195462	7.7637	0.444635	14.7559	0.713447	23.9275
0.163081	5.24475	0.0495245	1.5519	0.311897	10.3617	0.489988	15.6238	0.581879	18.6869	0.852807	27.0127	0.198895	7.61814	0.446172	14.3628	0.714366	23.2323
0.167856	5.24128	0.0502614	1.55874	0.312806	10.238	0.490819	15.1987	0.583219	18.1858	0.853653	26.2644	0.202381	7.48454	0.44775	13.9939	0.715311	22.5789
0.172619	5.23764	0.0507335	1.56306	0.31348	10.1496	0.491683	14.7985	0.584593	17.714	0.854523	25.5586	0.205916	7.36162	0.449367	13.6471	0.716284	21.9637
0.17737	5.23383	0.0514128	1.56919	0.313915	10.094	0.49258	14.4211	0.586001	17.2691	0.855417	24.8916	0.209497	7.24824	0.451024	13.3205	0.717282	21.3834
0.182107	5.22984	0.0521519	1.57574	0.314543	10.0156	0.493512	14.0648	0.587442	16.849	0.856334	24.2606	0.213123	7.14342	0.45272	13.0125	0.718307	20.8353
0.186831	5.22566	0.0531583	1.58449	0.315232	9.93232	0.494478	13.7278	0.588917	16.4516	0.857274	23.6626	0.216791	7.04631	0.454454	12.7217	0.719359	20.3167
0.191539	5.22129	0.0544331	1.59527	0.316176	9.82201	0.49548	13.4088	0.590425	16.0754	0.858238	23.0953	0.220498	6.95616	0.456226	12.4467	0.720436	19.8255
0.196231	5.21671	0.0559774	1.60792	0.317383	9.68729	0.496518	13.1064	0.591965	15.7186	0.859225	22.5563	0.224243	6.87229	0.458035	12.1863	0.721539	19.3595
0.200907	5.21192	0.0577924	1.62222	0.318863	9.53111	0.497592	12.8195	0.593538	15.3798	0.860234	22.0437	0.228023	6.79414	0.459881	11.9394	0.722668	18.9169
0.205565	5.20691	0.059879	1.63795	0.320626	9.35674	0.498704	12.547	0.595142	15.0579	0.861267	21.5555	0.231836	6.72118	0.461763	11.7052	0.723822	18.496
0.210204	5.20166	0.0619694	1.65301	0.322685	9.16756	0.499854	12.2879	0.596778	14.7515	0.862323	21.0901	0.235681	6.65296	0.463681	11.4826	0.725002	18.0953
0.214824	5.19617	0.0640631	1.66741	0.32478	8.98916	0.501043	12.0413	0.598445	14.4597	0.863401	20.646	0.239557	6.58905	0.465635	11.2709	0.726208	17.7135
0.219422	5.19042	0.0661594	1.68121	0.326912	8.8207	0.502271	11.8065	0.600144	14.1815	0.864502	20.2219	0.24346	6.5291	0.467623	11.0694	0.727438	17.3492
0.223998	5.18441	0.0682582	1.69442	0.329079	8.66143	0.503539	11.5826	0.601872	13.916	0.865626	19.8163	0.247391	6.47278	0.469383	10.9015	0.728693	17.0014
0.22855	5.17811	0.0703588	1.70709	0.331281	8.51068	0.504847	11.369	0.603631	13.6623	0.866772	19.4281	0.251346	6.41978	0.470904	10.7638	0.729974	16.6689
0.233078	5.17152	0.0724612	1.71923	0.333517	8.36784	0.506197	11.1652	0.60542	13.4198	0.86794	19.0564	0.255326	6.36985	0.472175	10.6535	0.731278	16.3508
0.237579	5.16462	0.074565	1.73089	0.335787	8.23234	0.507407	10.995	0.607239	13.1878	0.869131	18.7	0.259329	6.32275	0.473189	10.5685	0.732608	16.0463
0.242052	5.1574	0.0766699	1.74207	0.338089	8.10368	0.508464	10.8551	0.609086	12.9656	0.870344	18.3581	0.263353	6.27825	0.47394	10.5072	0.733961	15.7544
0.246495	5.14984	0.0787757	1.75281	0.340424	7.98141	0.509356	10.7428	0.610963	12.7526	0.871579	18.0298	0.267398	6.23616	0.474423	10.4685	0.735339	15.4745
0.250907	5.14193	0.0808823	1.76313	0.342792	7.86511	0.510072	10.6563	0.612868	12.5483	0.872836	17.7144	0.271462	6.19631	0.47512	10.4135	0.736741	15.2059
0.255286	5.13364	0.0829893	1.77305	0.345191	7.7544	0.510606	10.5938	0.614801	12.3523	0.874114	17.4111	0.275544	6.15852	0.475881	10.3547	0.738166	14.9479
0.25963	5.12498	0.0850968	1.7826	0.347623	7.64894	0.51095	10.5543	0.616763	12.164	0.875415	17.1193	0.279644	6.12265	0.476923	10.2761	0.739615	14.6999
0.263937	5.11591	0.0872045	1.79178	0.350086	7.5484	0.511449	10.4982	0.618752	11.983	0.876737	16.8383	0.28376	6.08856	0.478251	10.1792	0.741088	14.4614
0.268205	5.10642	0.0893124	1.80062	0.352582	7.4525	0.511997	10.4381	0.620768	11.809	0.87808	16.5677	0.287891	6.05613	0.479874	10.0655	0.742584	14.2318
0.272432	5.0965	0.0914203	1.80913	0.35511	7.36098	0.512751	10.3579	0.622812	11.6415	0.879445	16.3068	0.292036	6.02524	0.481799	9.93665	0.744103	14.0107
0.276616	5.08612	0.0935282	1.81734	0.357671	7.27359	0.513719	10.2589	0.624882	11.4803	0.880831	16.0551	0.296195	5.99579	0.484037	9.7946	0.745644	13.7977
0.280755	5.07527	0.0956359	1.82525	0.360265	7.1901	0.514912	10.1425	0.626979	11.325	0.882238	15.8122	0.300367	5.96769	0.486305	9.65841	0.747209	13.5923
0.284846	5.06394	0.0977434	1.83288	0.362893	7.11033	0.516343	10.0106	0.628828	11.1942	0.883666	15.5777	0.30455	5.94084	0.488603	9.52775	0.748796	13.3942
0.288887	5.0521	0.0998507	1.84025	0.365554	7.03408	0.518028	9.86511	0.630419	11.0859	0.885115	15.3511	0.308745	5.91516	0.49093	9.40231	0.750406	13.2029
0.292876	5.03975	0.101958	1.84736	0.368251	6.96118	0.519759	9.7255	0.631746	10.9986	0.886585	15.1321	0.312951	5.89058	0.493286	9.28181	0.752037	13.0182
0.296811	5.02688	0.104064	1.85422	0.370984	6.89147	0.521535	9.59153	0.632801	10.9308	0.888075	14.9203	0.317166	5.86703	0.495671	9.16598	0.753691	12.8398
0.30069	5.01346	0.10617	1.86086	0.373755	6.8248	0.523358	9.4629	0.633581	10.8818	0.889586	14.7153	0.32139	5.84444	0.498083	9.05459	0.755366	12.6673
0.30451	4.99949	0.108276	1.86728	0.376563	6.76106	0.525227	9.33936	0.634082	10.8507	0.891118	14.5169	0.325622	5.82276	0.500523	8.94739	0.757064	12.5004
0.30827	4.98496	0.110382	1.87348	0.37941	6.7001	0.527143	9.22068	0.634805	10.8064	0.892669	14.3248	0.329862	5.80191	0.502989	8.84419	0.758782	12.339
0.311967	4.96987	0.112486	1.87949	0.382298	6.64182	0.529106	9.1066	0.635593	10.7589	0.894241	14.1386	0.33411	5.78187	0.505482	8.74476	0.760522	12.1827
0.3156	4.95422	0.114591	1.8853	0.385228	6.58612	0.531116	8.99693	0.63667	10.6952	0.895833	13.9582	0.338363	5.76257	0.508001	8.64894	0.762283	12.0313
0.319168	4.93799	0.116695	1.89093	0.388201	6.53288	0.533174	8.89146	0.638041	10.6162	0.897445	13.7832	0.342623	5.74397	0.510546	8.55653	0.764065	11.8847
0.322668	4.92121	0.118798	1.89638	0.391218	6.48203	0.535279	8.78999	0.639712	10.5228	0.899076	13.6134	0.346888	5.72604	0.513115	8.46738	0.765867	11.7426
0.325663	4.90613	0.120901	1.90167	0.394281	6.43346	0.537432	8.69235	0.641688	10.4162	0.900727	13.4487	0.351158	5.70872	0.51571	8.38133	0.76769	11.6047
0.328174	4.89295	0.123003	1.90679	0.397391	6.38711	0.539632	8.59836	0.643979	10.2976	0.902398	13.2888	0.355432	5.69199	0.518329	8.29824	0.769296	11.488
0.330222	4.88182	0.125105	1.91176	0.400549	6.34288	0.541879	8.50787	0.646294	10.183	0.904088	13.1335	0.359709	5.6758	0.520971	8.21797	0.770676	11.3909
0.331822	4.87288	0.127207	1.91658	0.403756	6.30071	0.544174	8.42073	0.648633	10.072	0.905797	12.9826	0.36399	5.66014	0.523637	8.14039	0.771826	11.3122
0.332989	4.86623	0.129307	1.92127	0.407013	6.26051	0.546517	8.33678	0.650995	9.96447	0.907526	12.836	0.368273	5.64496	0.526327	8.06538	0.772741	11.251
0.33373	4.86194	0.131408	1.92581	0.410321	6.22223	0.548906	8.25589	0.65338	9.86036	0.909273	12.6934	0.372558	5.63024	0.529039	7.99282	0.773416	11.2065
0.33479	4.85572	0.133508	1.93023	0.413681	6.18577	0.551342	8.17793	0.655789	9.75949	0.91104	12.5548	0.376845	5.61595	0.531773	7.92261	0.77385	11.1783
0.335933	4.84891	0.135607	1.93452	0.417092	6.15109	0.553825	8.10277	0.65822	9.6617	0.912825	12.4199	0.381133	5.60207	0.534529	7.85465	0.774475	11.1381
0.337474	4.83953	0.137706	1.9387	0.420555	6.1181	0.556354	8.03031	0.660674	9.56688	0.914628	12.2887	0.385422	5.58857	0.537307	7.78883	0.775157	11.0948
0.339399	4.82751	0.139804	1.94276	0.42407	6.08673	0.558928	7.96043	0.663149	9.47491	0.916451	12.1609	0.38971	5.57543	0.540107	7.72508	0.776088	11.0367
0.341691	4.81274	0.141902	1.9467	0.427637	6.05693	0.561549	7.89301	0.665647	9.38566	0.918291	12.0365	0.393998	5.56263	0.542927	7.66329	0.777273	10.9643
0.344331	4.79509	0.143999	1.95054	0.431255	6.02862	0.564214	7.82796	0.668167	9.29902	0.92015	11.9154	0.398286	5.55016	0.545768	7.6034	0.778715	10.8784
0.347296	4.77443	0.146096	1.95428	0.434924	6.00173	0.566924	7.76519	0.670708	9.2149	0.921785	11.8124	0.402572	5.53798	0.548629	7.54532	0.780421	10.78
0.350192	4.75336	0.148192	1.95792	0.438642	5.97621	0.569679	7.70459	0.673271	9.1332	0.923189	11.7264	0.406856	5.52609	0.55151	7.48899	0.782396	10.6699
0.353022	4.73193	0.150288	1.96147	0.442408	5.95197	0.572476	7.64608	0.675855	9.05382	0.924358	11.6565	0.411138	5.51446	0.554411	7.43432	0.78439	10.5629
0.355785	4.71015	0.152384	1.96493	0.446222	5.92896	0.575317	7.58958	0.678459	8.97667	0.925286	11.602	0.415417	5.50308	0.557331	7.38127	0.786403	10.4588
0.358485	4.68806	0.154479	1.9683	0.450082	5.90712	0.578201	7.53501	0.681084	8.90167	0.925972	11.5623	0.419692	5.49194	0.560271	7.32975	0.788434	10.3575
0.361121	4.66569	0.156573	1.97158	0.453985	5.88637	0.581126	7.48228	0.68373	8.82874	0.926412	11.5371	0.423964	5.48102	0.563229	7.27972	0.790484	10.2588
0.363697	4.64307	0.158668	1.97478	0.457932	5.86667	0.584093	7.43133	0.686396	8.75781	0.927046	11.5012	0.428232	5.4703	0.566206	7.23112	0.792552	10.1628
0.366213	4.62024	0.160761	1.97791	0.461919	5.84794	0.5871	7.38208	0.689082	8.68879	0.927738	11.4625	0.432495	5.45978	0.569201	7.1839	0.794638	10.0692
0.368672	4.59724	0.162855	1.98096	0.465944	5.83014	0.590147	7.33447	0.691788	8.62162	0.928681	11.4103	0.436753	5.44944	0.572215	7.138	0.796742	9.9781
0.371077	4.57408	0.164948	1.98393	0.470007	5.81321	0.593233	7.28844	0.694513	8.55624	0.929881	11.3453	0.441005	5.43927	0.575246	7.09337	0.798864	9.88928
0.373428	4.55079	0.167041	1.98684	0.474106	5.7971	0.596358	7.24391	0.697258	8.49258	0.931341	11.2679	0.445252	5.42925	0.578296	7.04998	0.801003	9.8027
0.375728	4.52742	0.169133	1.98967	0.478237	5.78175	0.599521	7.20083	0.700023	8.43058	0.933065	11.179	0.449491	5.41938	0.581363	7.00777	0.80316	9.71829
0.37798	4.50399	0.171225	1.99245	0.4824	5.76711	0.602721	7.15915	0.702806	8.37018	0.93506	11.0792	0.453724	5.40964	0.584447	6.9667	0.805334	9.63596
0.380185	4.48052	0.173316	1.99515	0.486593	5.75315	0.605957	7.11881	0.705609	8.31133	0.937072	10.9818	0.457949	5.40003	0.587548	6.92675	0.807525	9.55565
0.382344	4.45703	0.175408	1.9978	0.490813	5.73982	0.609229	7.07976	0.70843	8.25398	0.939101	10.8867	0.462166	5.39054	0.590667	6.88785	0.809733	9.47729
0.384462	4.43356	0.177499	2.00039	0.495059	5.72708	0.612536	7.04195	0.711269	8.19807	0.941147	10.7939	0.466375	5.38115	0.593802	6.84999	0.811957	9.40081
0.386538	4.41012	0.179589	2.00292	0.499329	5.71489	0.615877	7.00533	0.714128	8.14356	0.943209	10.7031	0.470574	5.37185	0.596954	6.81313	0.814199	9.32616
0.388576	4.38674	0.18168	2.00539	0.503622	5.7032	0.619252	6.96985	0.717004	8.09041	0.945288	10.6145	0.474765	5.36265	0.600123	6.77723	0.816456	9.25327
0.390576	4.36342	0.18377	2.00781	0.507936	5.692	0.62266	6.93548	0.719899	8.03856	0.947384	10.5279	0.478945	5.35353	0.603308	6.74226	0.81873	9.18209
0.392541	4.3402	0.185859	2.01018	0.512269	5.68124	0.6261	6.90216	0.722811	7.98798	0.949496	10.4433	0.483114	5.34448	0.60651	6.70819	0.821021	9.11255
0.394473	4.31709	0.187949	2.0125	0.51662	5.6709	0.629571	6.86987	0.725742	7.93862	0.951624	10.3605	0.487273	5.33549	0.609727	6.675	0.823327	9.04462
0.396373	4.2941	0.190038	2.01477	0.520988	5.66095	0.633073	6.83855	0.72869	7.89046	0.953768	10.2796	0.49142	5.32656	0.612962	6.64265	0.825649	8.97824
0.398242	4.27124	0.192126	2.01699	0.52537	5.65135	0.636604	6.80818	0.731655	7.84344	0.955928	10.2004	0.495556	5.31768	0.616212	6.61112	0.827986	8.91335
0.400083	4.24853	0.194215	2.01917	0.529767	5.6421	0.640165	6.77872	0.734638	7.79754	0.958104	10.123	0.499678	5.30885	0.619478	6.58039	0.83034	8.84992
0.401897	4.22598	0.196303	2.0213	0.534175	5.63316	0.643755	6.75014	0.737639	7.75272	0.960296	10.0472	0.503788	5.30005	0.62276	6.55042	0.832709	8.7879
0.403685	4.2036	0.198391	2.02339	0.538595	5.6245	0.647372	6.72239	0.740657	7.70895	0.962503	9.97312	0.507885	5.29128	0.626059	6.52121	0.835093	8.72725
0.405448	4.18139	0.200479	2.02543	0.543025	5.61612	0.651017	6.69546	0.743691	7.66619	0.964725	9.90057	0.511967	5.28253	0.629373	6.49272	0.837492	8.66793
0.407188	4.15937	0.202567	2.02744	0.547465	5.608	0.654688	6.66931	0.746743	7.62442	0.966963	9.82955	0.516035	5.27381	0.632703	6.46494	0.839906	8.60989
0.408907	4.13755	0.204654	2.02941	0.551912	5.60011	0.658385	6.64391	0.749812	7.58361	0.969216	9.76002	0.520087	5.26509	0.636049	6.43784	0.842335	8.5531
0.410604	4.11592	0.206741	2.03134	0.556366	5.59243	0.662107	6.61924	0.752897	7.54373	0.971485	9.69193	0.524125	5.25638	0.639411	6.4114	0.844779	8.49753
0.412282	4.0945	0.208828	2.03323	0.560826	5.58496	0.665854	6.59527	0.755999	7.50475	0.973768	9.62524	0.528146	5.24768	0.642788	6.38561	0.847238	8.44313
0.413941	4.07329	0.210914	2.03508	0.565291	5.57768	0.669624	6.57197	0.759118	7.46666	0.976066	9.55991	0.53215	5.23897	0.646182	6.36046	0.849711	8.38988
0.415583	4.05229	0.213001	2.0369	0.569761	5.57057	0.673419	6.54932	0.762253	7.42941	0.978379	9.49591	0.536138	5.23025	0.649591	6.33591	0.852199	8.33774
0.417208	4.03151	0.215087	2.03869	0.574234	5.56362	0.677235	6.52729	0.765405	7.39299	0.980706	9.4332	0.540108	5.22152	0.653016	6.31196	0.854701	8.28668
0.418817	4.01095	0.217173	2.04044	0.57871	5.55683	0.681074	6.50587	0.768573	7.35738	0.983048	9.37173	0.544059	5.21277	0.656457	6.28858	0.857217	8.23668
0.420412	3.99062	0.219259	2.04216	0.583188	5.55017	0.684935	6.48503	0.771757	7.32256	0.985404	9.31149	0.547993	5.204	0.659914	6.26577	0.859747	8.18769
0.421993	3.97051	0.221344	2.04385	0.587667	5.54365	0.688816	6.46475	0.774958	7.2885	0.987774	9.25243	0.551907	5.1952	0.663386	6.24351	0.862292	8.1397
0.42356	3.95062	0.22343	2.04551	0.592147	5.53724	0.692718	6.44501	0.778175	7.25518	0.990158	9.19452	0.555801	5.18638	0.666875	6.22179	0.86485	8.09267
0.425115	3.93097	0.225515	2.04714	0.596627	5.53094	0.696639	6.4258	0.781408	7.22259	0.992557	9.13774	0.559676	5.17752	0.670379	6.20058	0.867422	8.04659
0.426659	3.91154	0.2276	2.04874	0.601106	5.52474	0.70058	6.40708	0.784658	7.1907	0.994969	9.08204	0.56353	5.16862	0.673899	6.17988	0.870008	8.00142
0.428191	3.89234	0.229685	2.05031	0.605583	5.51864	0.704539	6.38886	0.787923	7.15949	0.997395	9.02741	0.567363	5.15969	0.677435	6.15968	0.872607	7.95715
0.429713	3.87337	0.23177	2.05185	0.610059	5.51262	0.708517	6.3711	0.791205	7.12896	0.999835	8.97382	0.571174	5.15071	0.680987	6.13996	0.87522	7.91374
0.431226	3.85463	0.233854	2.05337	0.614533	5.50669	0.712513	6.3538	0.794503	7.09907	1.00229	8.92124	0.574964	5.14168	0.684555	6.12071	0.877847	7.87118
0.432729	3.83612	0.235939	2.05486	0.619003	5.50082	0.716525	6.33693	0.797816	7.06983			0.578731	5.13261	0.688138	6.10192	0.880487	7.82944
0.434223	3.81784	0.238023	2.05633	0.62347	5.49502	0.720554	6.32048	0.801146	7.0412			0.582476	5.12349	0.691737	6.08358	0.88314	7.78851
0.43571	3.79978	0.240107	2.05777	0.627933	5.48928	0.7246	6.30444	0.804492	7.01318			0.586198	5.11431	0.695352	6.06567	0.885806	7.74836
0.437189	3.78195	0.242191	2.05919	0.632391	5.48359	0.728661	6.2888	0.807854	6.98575			0.589896	5.10508	0.698983	6.04818	0.888486	7.70897
0.438662	3.76435	0.244274	2.06058	0.636845	5.47795	0.732737	6.27353	0.811232	6.9589			0.59357	5.09579	0.70263	6.03112	0.891179	7.67033
0.440127	3.74697	0.246358	2.06195	0.641293	5.47236	0.736828	6.25863	0.814626	6.93261			0.597221	5.08644	0.706292	6.01445	0.893884	7.63241
0.441587	3.72981	0.248441	2.0633	0.645735	5.4668	0.740933	6.24408	0.818037	6.90687			0.600846	5.07704	0.709969	5.99818	0.896603	7.5952
0.443041	3.71287	0.250525	2.06463	0.650171	5.46128	0.745051	6.22988	0.821464	6.88166			0.604447	5.06757	0.713662	5.98229	0.899335	7.55869
0.444489	3.69615	0.252608	2.06593	0.654601	5.45579	0.749183	6.216	0.824906	6.85698			0.608023	5.05804	0.717371	5.96678	0.902079	7.52284
0.445933	3.67965	0.254691	2.06722	0.659023	5.45033	0.753328	6.20244	0.828365	6.83282			0.611574	5.04844	0.721095	5.95163	0.904836	7.48766
0.447372	3.66336	0.256774	2.06848	0.663438	5.44488	0.757485	6.18919	0.831841	6.80916			0.615098	5.03879	0.724834	5.93684	0.907606	7.45312
0.448807	3.64729	0.258857	2.06972	0.667846	5.43946	0.761654	6.17624	0.835333	6.78599			0.618597	5.02907	0.728588	5.92239	0.910389	7.4192
0.450239	3.63142	0.260939	2.07095	0.672245	5.43406	0.765834	6.16357	0.838841	6.7633			0.62207	5.01928	0.732357	5.90828	0.913184	7.3859
0.451666	3.61577	0.263022	2.07216	0.676635	5.42866	0.770025	6.15118	0.842366	6.74108			0.625517	5.00944	0.736141	5.8945	0.915992	7.3532
0.453091	3.60032	0.265104	2.07334	0.681017	5.42328	0.774227	6.13905	0.845907	6.71932			0.628937	4.99952	0.739939	5.88104	0.918812	7.32109
0.454512	3.58507	0.267187	2.07451	0.68539	5.4179	0.778439	6.12719	0.849465	6.69801			0.632331	4.98955	0.743752	5.86789	0.921645	7.28954
0.455931	3.57003	0.269269	2.07566	0.689753	5.41253	0.782661	6.11557	0.85304	6.67715			0.635698	4.97951	0.747578	5.85504	0.92449	7.25856
0.457348	3.55519	0.271351	2.0768	0.694106	5.40715	0.786892	6.10419	0.856631	6.65671			0.639039	4.96941	0.751419	5.84249	0.927348	7.22812
0.458762	3.54054	0.273433	2.07792	0.698449	5.40178	0.791131	6.09304	0.86024	6.6367			0.642352	4.95924	0.755274	5.83023	0.930218	7.19822
0.460175	3.52609	0.275515	2.07902	0.702781	5.3964	0.795379	6.08211	0.863866	6.61711			0.645639	4.94902	0.759142	5.81824	0.933101	7.16884
0.461586	3.51183	0.277597	2.0801	0.707103	5.39102	0.799635	6.0714	0.867509	6.59793			0.648899	4.93874	0.763023	5.80652	0.935995	7.13997
0.462996	3.49776	0.279678	2.08117	0.711414	5.38563	0.803899	6.06089	0.871169	6.57915			0.652132	4.9284	0.766917	5.79507	0.938902	7.1116
0.464404	3.48387	0.28176	2.08222	0.715713	5.38023	0.808169	6.05059	0.874846	6.56076			0.655338	4.918	0.770824	5.78387	0.941821	7.08372
0.465811	3.47018	0.283841	2.08326	0.720001	5.37482	0.812446	6.04048	0.878541	6.54275			0.658517	4.90754	0.774743	5.77292	0.944753	7.05632
0.467218	3.45666	0.285923	2.08429	0.724278	5.3694	0.81673	6.03055	0.882254	6.52512			0.66167	4.89703	0.778674	5.76221	0.947696	7.02939
0.468623	3.44333	0.288004	2.08529	0.728542	5.36396	0.821019	6.0208	0.885984	6.50787			0.664795	4.88647	0.782617	5.75173	0.950652	7.00292
0.470029	3.43017	0.290085	2.08629	0.732793	5.3585	0.825314	6.01123	0.889732	6.49098			0.667894	4.87586	0.786572	5.74148	0.953619	6.97689
0.471434	3.41719	0.292167	2.08727	0.737032	5.35303	0.829614	6.00181	0.893498	6.47444			0.670966	4.8652	0.790537	5.73145	0.956599	6.95131
0.472838	3.40438	0.294248	2.08824	0.741258	5.34754	0.833918	5.99256	0.897282	6.45826			0.674012	4.85448	0.794514	5.72163	0.959591	6.92616
0.474243	3.39174	0.296328	2.08919	0.745471	5.34203	0.838227	5.98347	0.901085	6.44243			0.677032	4.84373	0.7985	5.71201	0.962594	6.90143
0.475648	3.37927	0.298409	2.09013	0.749671	5.33649	0.842539	5.97452	0.904905	6.42693			0.680025	4.83293	0.802497	5.7026	0.96561	6.87711
0.477053	3.36697	0.30049	2.09106	0.753857	5.33094	0.846855	5.96571	0.908744	6.41177			0.682993	4.82209	0.806504	5.69338	0.968638	6.8532
0.478459	3.35483	0.302571	2.09198	0.75803	5.32536	0.851175	5.95704	0.912602	6.39694			0.685934	4.81121	0.81052	5.68434	0.971677	6.82968
0.479865	3.34285	0.304651	2.09288	0.762188	5.31975	0.855497	5.9485	0.916478	6.38243			0.68885	4.80029	0.814545	5.67548	0.974728	6.80656
0.481272	3.33103	0.306732	2.09377	0.766333	5.31412	0.859821	5.94008	0.920374	6.36824			0.69174	4.78934	0.818578	5.6668	0.977792	6.78381
0.482679	3.31937	0.308812	2.09465	0.770463	5.30846	0.864147	5.93179	0.924287	6.35435			0.694605	4.77835	0.82262	5.65828	0.980867	6.76144
0.484087	3.30786	0.310893	2.09552	0.774578	5.30278	0.868475	5.92361	0.92822	6.34078			0.697445	4.76733	0.826669	5.64993	0.983953	6.73943
0.485497	3.2965	0.312973	2.09638	0.778679	5.29706	0.872804	5.91555	0.932172	6.3275			0.70026	4.75628	0.830726	5.64173	0.987052	6.71779
0.486907	3.28529	0.315053	2.09722	0.782765	5.29132	0.877135	5.90759	0.936143	6.31452			0.703051	4.74521	0.83479	5.63368	0.990162	6.69649
0.488318	3.27423	0.317133	2.09806	0.786835	5.28555	0.881465	5.89974	0.940134	6.30183			0.705817	4.73411	0.838861	5.62578	0.993284	6.67554
0.489731	3.26332	0.319213	2.09888	0.79089	5.27975	0.885797	5.89199	0.944143	6.28943			0.708559	4.72299	0.842938	5.61802	0.996418	6.65493
0.491145	3.25255	0.321293	2.0997	0.79493	5.27391	0.890128	5.88433	0.948172	6.27731			0.711278	4.71184	0.847021	5.6104	0.999563	6.63465
0.49256	3.24192	0.323373	2.1005	0.798955	5.26805	0.894459	5.87677	0.95222	6.26546			0.713972	4.70068	0.85111	5.6029	1.00272	6.6147
0.493977	3.23143	0.325453	2.10129	0.802963	5.26215	0.89879	5.86929	0.956288	6.25389			0.716643	4.6895	0.855204	5.59553		
0.495396	3.22107	0.327533	2.10208	0.806956	5.25623	0.90312	5.8619	0.960375	6.24258			0.719292	4.67831	0.859302	5.58828		
0.496816	3.21086	0.329613	2.10285	0.810933	5.25027	0.907449	5.8546	0.964481	6.23153			0.721917	4.6671	0.863405	5.58115		
0.498237	3.20077	0.331693	2.10361	0.814893	5.24427	0.911776	5.84737	0.968607	6.22074			0.72452	4.65589	0.867512	5.57413		
0.499661	3.19082	0.333772	2.10437	0.818837	5.23825	0.916102	5.84022	0.972752	6.21021			0.727101	4.64466	0.871623	5.56721		
0.501086	3.18099	0.335852	2.10511	0.822765	5.23219	0.920426	5.83314	0.976917	6.19991			0.729659	4.63343	0.875737	5.5604		
0.502513	3.1713	0.337931	2.10585	0.826676	5.2261	0.924749	5.82613	0.9811	6.18987			0.732196	4.62219	0.879853	5.55368		
0.503942	3.16172	0.340011	2.10658	0.830571	5.21997	0.929069	5.81919	0.985303	6.18005			0.734712	4.61096	0.883973	5.54706		
0.505373	3.15227	0.34209	2.1073	0.834449	5.21382	0.933387	5.81232	0.989525	6.17048			0.737207	4.59972	0.888095	5.54053		
0.506806	3.14295	0.344169	2.10801	0.83831	5.20762	0.937703	5.80551	0.993766	6.16113			0.73968	4.58848	0.892218	5.53409		
0.508241	3.13374	0.346249	2.10871	0.842154	5.2014	0.942016	5.79876	0.998026	6.152			0.742134	4.57724	0.896343	5.52773		
0.509678	3.12465	0.348328	2.1094	0.845981	5.19514	0.946326	5.79208	1.0023	6.1431			0.744567	4.56601	0.900469	5.52145		
0.511117	3.11568	0.350407	2.11009	0.849791	5.18885	0.950634	5.78545					0.74698	4.55478	0.904596	5.51525		
0.512559	3.10682	0.352486	2.11076	0.853584	5.18253	0.954939	5.77888					0.749373	4.54356	0.908723	5.50912		
0.514002	3.09807	0.354565	2.11143	0.857359	5.17617	0.95924	5.77237					0.751747	4.53235	0.912851	5.50306		
0.515448	3.08944	0.356644	2.1121	0.861117	5.16978	0.963539	5.76591					0.754102	4.52116	0.916978	5.49707		
0.516896	3.08091	0.358723	2.11275	0.864858	5.16336	0.967835	5.7595					0.756438	4.50997	0.921105	5.49113		
0.518346	3.07249	0.360802	2.1134	0.868582	5.1569	0.972127	5.75315					0.758756	4.4988	0.925231	5.48526		
0.519799	3.06418	0.362881	2.11404	0.872288	5.15042	0.976416	5.74684					0.761056	4.48764	0.929355	5.47945		
0.521254	3.05598	0.36496	2.11467	0.875977	5.1439	0.980702	5.74059					0.763338	4.47651	0.933478	5.47369		
0.522711	3.04787	0.367039	2.1153	0.879648	5.13735	0.984984	5.73438					0.765602	4.46539	0.9376	5.46799		
0.524171	3.03987	0.369117	2.11591	0.883301	5.13077	0.989264	5.72822					0.767849	4.45429	0.941719	5.46233		
0.525634	3.03197	0.371196	2.11653	0.886937	5.12416	0.993539	5.72211					0.770078	4.44321	0.945836	5.45672		
0.527098	3.02416	0.373274	2.11713	0.890556	5.11752	0.997812	5.71605					0.772291	4.43215	0.94995	5.45115		
0.528565	3.01646	0.375353	2.11773	0.894157	5.11084	1.00208	5.71003					0.774488	4.42111	0.954061	5.44563		
0.530035	3.00884	0.377432	2.11832	0.89774	5.10414							0.776668	4.41011	0.958168	5.44014		
0.531507	3.00133	0.37951	2.11891	0.901305	5.09742							0.778833	4.39912	0.962272	5.43469		
0.532982	2.9939	0.381588	2.11949	0.904854	5.09066							0.780982	4.38817	0.966372	5.42928		
0.534459	2.98657	0.383667	2.12006	0.908384	5.08387							0.783115	4.37724	0.970468	5.4239		
0.535938	2.97933	0.385745	2.12063	0.911897	5.07706							0.785233	4.36634	0.97456	5.41855		
0.537421	2.97217	0.387824	2.12119	0.915392	5.07022							0.787337	4.35548	0.978646	5.41323		
0.538905	2.96511	0.389902	2.12174	0.91887	5.06335							0.789426	4.34464	0.982728	5.40794		
0.540393	2.95812	0.39198	2.12229	0.92233	5.05646							0.791501	4.33384	0.986804	5.40267		
0.541882	2.95123	0.394058	2.12283	0.925773	5.04954							0.793562	4.32306	0.990875	5.39743		
0.543375	2.94442	0.396136	2.12337	0.929198	5.0426							0.795609	4.31233	0.994941	5.39221		
0.54487	2.93769	0.398214	2.1239	0.932606	5.03563							0.797642	4.30163	0.999	5.38701		
0.546368	2.93104	0.400293	2.12443	0.935997	5.02864							0.799662	4.29096	1.00305	5.38182		
0.547868	2.92447	0.402371	2.12495	0.93937	5.02163							0.801669	4.28033				
0.549371	2.91798	0.404449	2.12547	0.942726	5.01459							0.803664	4.26974				
0.550876	2.91156	0.406527	2.12598	0.946064	5.00753							0.805646	4.25919				
0.552384	2.90523	0.408604	2.12648	0.949386	5.00045							0.807616	4.24868				
0.553895	2.89897	0.410682	2.12698	0.95269	4.99335							0.809573	4.2382				
0.555408	2.89278	0.41276	2.12748	0.955977	4.98623							0.811519	4.22777				
0.556924	2.88667	0.414838	2.12797	0.959248	4.97909							0.813453	4.21737				
0.558442	2.88063	0.416916	2.12846	0.962501	4.97194							0.815376	4.20702				
0.559963	2.87466	0.418993	2.12894	0.965737	4.96476							0.817288	4.19671				
0.561487	2.86876	0.421071	2.12941	0.968957	4.95756							0.819189	4.18644				
0.563013	2.86293	0.423149	2.12988	0.972159	4.95035							0.82108	4.17622				
0.564542	2.85717	0.425226	2.13035	0.975345	4.94312							0.82296	4.16604				
0.566073	2.85147	0.427304	2.13081	0.978514	4.93588							0.824829	4.1559				
0.567607	2.84584	0.429382	2.13127	0.981667	4.92862							0.826689	4.14581				
0.569144	2.84028	0.431459	2.13173	0.984803	4.92135							0.828539	4.13577				
0.570683	2.83478	0.433537	2.13218	0.987923	4.91406							0.830379	4.12576				
0.572225	2.82935	0.435614	2.13262	0.991027	4.90675							0.83221	4.11581				
0.573769	2.82397	0.437692	2.13306	0.994114	4.89944							0.834032	4.1059				
0.575316	2.81866	0.439769	2.1335	0.997185	4.89211							0.835845	4.09604				
0.576866	2.81341	0.441847	2.13393	1.00024	4.88477							0.837649	4.08622				
0.578418	2.80822	0.443924	2.13436									0.839444	4.07645				
0.579973	2.80309	0.446001	2.13479									0.841231	4.06673				
0.58153	2.79801	0.448079	2.13521									0.84301	4.05706				
0.58309	2.793	0.450156	2.13562									0.844781	4.04743				
0.584652	2.78804	0.452233	2.13604									0.846544	4.03785				
0.586217	2.78314	0.45431	2.13645									0.848299	4.02832				
0.587784	2.77829	0.456387	2.13685									0.850047	4.01884				
0.589354	2.77349	0.458465	2.13725									0.851787	4.00941				
0.590926	2.76875	0.460542	2.13765									0.85352	4.00002				
0.592501	2.76406	0.462619	2.13805									0.855247	3.99069				
0.594078	2.75943	0.464696	2.13844									0.856966	3.9814				
0.595658	2.75485	0.466773	2.13883									0.858679	3.97217				
0.59724	2.75031	0.46885	2.13921									0.860385	3.96298				
0.598825	2.74583	0.470927	2.13959									0.862085	3.95384				
0.600412	2.74139	0.473004	2.13997									0.863778	3.94475				
0.602001	2.73701	0.475081	2.14035									0.865466	3.93571				
0.603593	2.73267	0.477158	2.14072									0.867147	3.92672				
0.605188	2.72838	0.479235	2.14109									0.868823	3.91778				
0.606785	2.72414	0.481312	2.14145									0.870493	3.90889				
0.608384	2.71994	0.483389	2.14181									0.872158	3.90005				
0.609985	2.71579	0.485465	2.14217									0.873817	3.89126				
0.611589	2.71168	0.487542	2.14253									0.875472	3.88251				
0.613196	2.70762	0.489619	2.14288									0.877121	3.87382				
0.614804	2.7036	0.491696	2.14323									0.878765	3.86518				
0.616415	2.69962	0.493772	2.14358									0.880404	3.85658				
0.618029	2.69569	0.495849	2.14392									0.882038	3.84804				
0.619644	2.6918	0.497926	2.14426									0.883668	3.83954				
0.621262	2.68795	0.500003	2.1446									0.885294	3.8311				
0.622883	2.68414	0.502079	2.14494									0.886915	3.8227				
0.624505	2.68037	0.504156	2.14527									0.888532	3.81435				
0.62613	2.67664	0.506232	2.1456									0.890144	3.80605				
0.627757	2.67295	0.508309	2.14593									0.891753	3.7978				
0.629387	2.6693	0.510385	2.14625									0.893358	3.7896				
0.631019	2.66568	0.512462	2.14657									0.894959	3.78144				
0.632652	2.66211	0.514539	2.14689									0.896556	3.77334				
0.634289	2.65857	0.516615	2.14721									0.89815	3.76528				
0.635927	2.65507	0.518692	2.14752									0.89974	3.75727				
0.637568	2.6516	0.520768	2.14783									0.901327	3.74931				
0.63921	2.64817	0.522844	2.14814									0.902911	3.7414				
0.640855	2.64478	0.524921	2.14845									0.904491	3.73353				
0.642502	2.64142	0.526997	2.14876									0.906068	3.72572				
0.644151	2.6381	0.529074	2.14906									0.907642	3.71795				
0.645803	2.63481	0.53115	2.14936									0.909214	3.71022				
0.647456	2.63155	0.533226	2.14966									0.910782	3.70255				
0.649112	2.62833	0.535303	2.14995									0.912348	3.69492				
0.65077	2.62514	0.537379	2.15024									0.913911	3.68733				
0.65243	2.62198	0.539455	2.15053									0.915471	3.6798				
0.654091	2.61885	0.541531	2.15082									0.917029	3.6723				
0.655755	2.61575	0.543608	2.15111									0.918585	3.66486				
0.657422	2.61269	0.545684	2.15139									0.920138	3.65746				
0.65909	2.60966	0.54776	2.15167									0.921689	3.65011				
0.66076	2.60665	0.549836	2.15195									0.923238	3.6428				
0.662432	2.60368	0.551912	2.15223									0.924784	3.63554				
0.664106	2.60074	0.553989	2.15251									0.926329	3.62832				
0.665782	2.59782	0.556065	2.15278									0.927871	3.62115				
0.667461	2.59494	0.558141	2.15305									0.929412	3.61402				
0.669141	2.59208	0.560217	2.15332									0.930951	3.60694				
0.670823	2.58925	0.562293	2.15359									0.932488	3.5999				
0.672507	2.58645	0.564369	2.15385									0.934023	3.5929				
0.674193	2.58368	0.566445	2.15412									0.935557	3.58595				
0.675881	2.58093	0.568521	2.15438									0.937089	3.57904				
0.677571	2.57821	0.570597	2.15464									0.938619	3.57217				
0.679263	2.57552	0.572673	2.1549									0.940148	3.56535				
0.680957	2.57285	0.574749	2.15515									0.941676	3.55857				
0.682652	2.57021	0.576825	2.15541									0.943202	3.55183				
0.68435	2.5676	0.578901	2.15566									0.944727	3.54514				
0.686049	2.56501	0.580977	2.15591									0.946251	3.53848				
0.687751	2.56244	0.583053	2.15616									0.947773	3.53187				
0.689454	2.5599	0.585129	2.15641									0.949295	3.5253				
0.691159	2.55738	0.587204	2.15665									0.950815	3.51877				
0.692865	2.55489	0.58928	2.15689									0.952334	3.51228				
0.694574	2.55242	0.591356	2.15714									0.953853	3.50584				
0.696284	2.54998	0.593432	2.15738									0.95537	3.49943				
0.697997	2.54755	0.595508	2.15761									0.956886	3.49306				
0.699711	2.54516	0.597584	2.15785									0.958402	3.48674				
0.701426	2.54278	0.599659	2.15809									0.959917	3.48045				
0.703144	2.54042	0.601735	2.15832									0.961431	3.4742				
0.704863	2.53809	0.603811	2.15855									0.962944	3.468				
0.706584	2.53578	0.605887	2.15878									0.964457	3.46183				
0.708307	2.53349	0.607962	2.15901									0.965969	3.4557				
0.710032	2.53123	0.610038	2.15924									0.967481	3.44961				
0.711758	2.52898	0.612114	2.15946									0.968991	3.44356				
0.713486	2.52676	0.614189	2.15969									0.970502	3.43754				
0.715215	2.52455	0.616265	2.15991									0.972012	3.43157				
0.716947	2.52237	0.618341	2.16013									0.973521	3.42563				
0.718679	2.5202	0.620416	2.16035									0.975031	3.41973				
0.720414	2.51806	0.622492	2.16057									0.976539	3.41386				
0.72215	2.51593	0.624567	2.16078									0.978048	3.40804				
0.723888	2.51383	0.626643	2.161									0.979556	3.40225				
0.725628	2.51174	0.628719	2.16121									0.981064	3.39649				
0.727369	2.50968	0.630794	2.16143									0.982572	3.39078				
0.729112	2.50763	0.63287	2.16164									0.984079	3.38509				
0.730856	2.5056	0.634945	2.16185									0.985587	3.37945				
0.732602	2.50359	0.637021	2.16205									0.987094	3.37384				
0.73435	2.50159	0.639096	2.16226									0.988601	3.36826				
0.736099	2.49962	0.641172	2.16247									0.990108	3.36272				
0.737849	2.49766	0.643247	2.16267									0.991615	3.35722				
0.739601	2.49572	0.645323	2.16287									0.993122	3.35175				
0.741355	2.4938	0.647398	2.16308									0.994629	3.34631				
0.743111	2.49189	0.649474	2.16328									0.996136	3.34091				
0.744867	2.49001	0.651549	2.16347									0.997643	3.33554				
0.746626	2.48814	0.653624	2.16367									0.999151	3.33021				
0.748386	2.48628	0.6557	2.16387									1.00066	3.32491				
0.750147	2.48444	0.657775	2.16406														
0.75191	2.48262	0.659851	2.16426														
0.753674	2.48081	0.661926	2.16445														
0.75544	2.47902	0.664001	2.16464														
0.757207	2.47725	0.666077	2.16483														
0.758976	2.47549	0.668152	2.16502														
0.760746	2.47375	0.670227	2.16521														
0.762517	2.47202	0.672302	2.1654														
0.76429	2.4703	0.674378	2.16558														
0.766065	2.4686	0.676453	2.16577														
0.767841	2.46692	0.678528	2.16595														
0.769618	2.46525	0.680603	2.16613														
0.771396	2.4636	0.682679	2.16631														
0.773176	2.46195	0.684754	2.16649														
0.774958	2.46033	0.686829	2.16667														
0.77674	2.45871	0.688904	2.16685														
0.778525	2.45712	0.690979	2.16703														
0.78031	2.45553	0.693055	2.1672														
0.782097	2.45396	0.69513	2.16738														
0.783885	2.4524	0.697205	2.16755														
0.785674	2.45085	0.69928	2.16772														
0.787465	2.44932	0.701355	2.16789														
0.789257	2.4478	0.70343	2.16806														
0.79105	2.44629	0.705505	2.16823														
0.792845	2.4448	0.70758	2.1684														
0.794641	2.44332	0.709655	2.16857														
0.796438	2.44185	0.711731	2.16873														
0.798237	2.44039	0.713806	2.1689														
0.800036	2.43895	0.715881	2.16906														
0.801837	2.43751	0.717956	2.16923														
0.80364	2.43609	0.720031	2.16939														
0.805443	2.43468	0.722106	2.16955														
0.807248	2.43329	0.724181	2.16971														
0.809054	2.4319	0.726256	2.16987														
0.810861	2.43053	0.728331	2.17003														
0.812669	2.42916	0.730406	2.17019														
0.814479	2.42781	0.73248	2.17035														
0.816289	2.42647	0.734555	2.1705														
0.818101	2.42514	0.73663	2.17066														
0.819914	2.42382	0.738705	2.17081														
0.821729	2.42251	0.74078	2.17097														
0.823544	2.42121	0.742855	2.17112														
0.825361	2.41992	0.74493	2.17127														
0.827178	2.41865	0.747005	2.17142														
0.828997	2.41738	0.74908	2.17157														
0.830817	2.41612	0.751154	2.17172														
0.832638	2.41487	0.753229	2.17187														
0.834461	2.41364	0.755304	2.17202														
0.836284	2.41241	0.757379	2.17216														
0.838109	2.41119	0.759454	2.17231														
0.839934	2.40999	0.761528	2.17245														
0.841761	2.40879	0.763603	2.1726														
0.843589	2.4076	0.765678	2.17274														
0.845417	2.40642	0.767753	2.17288														
0.847247	2.40525	0.769827	2.17303														
0.849078	2.40409	0.771902	2.17317														
0.850911	2.40294	0.773977	2.17331														
0.852744	2.40179	0.776052	2.17345														
0.854578	2.40066	0.778126	2.17359														
0.856413	2.39954	0.780201	2.17372														
0.858249	2.39842	0.782276	2.17386														
0.860087	2.39731	0.78435	2.174														
0.861925	2.39621	0.786425	2.17413														
0.863764	2.39512	0.7885	2.17427														
0.865605	2.39404	0.790574	2.1744														
0.867446	2.39297	0.792649	2.17454														
0.869288	2.3919	0.794724	2.17467														
0.871132	2.39085	0.796798	2.1748														
0.872976	2.3898	0.798873	2.17493														
0.874822	2.38876	0.800947	2.17507														
0.876668	2.38772	0.803022	2.1752														
0.878515	2.3867	0.805096	2.17532														
0.880363	2.38568	0.807171	2.17545														
0.882213	2.38467	0.809246	2.17558														
0.884063	2.38367	0.81132	2.17571														
0.885914	2.38267	0.813395	2.17584														
0.887766	2.38169	0.815469	2.17596														
0.889619	2.38071	0.817544	2.17609														
0.891473	2.37974	0.819618	2.17621														
0.893328	2.37877	0.821693	2.17634														
0.895184	2.37781	0.823767	2.17646														
0.89704	2.37686	0.825842	2.17658														
0.898898	2.37592	0.827916	2.17671														
0.900756	2.37498	0.829991	2.17683														
0.902616	2.37405	0.832065	2.17695														
0.904476	2.37313	0.834139	2.17707														
0.906337	2.37222	0.836214	2.17719														
0.9082	2.37131	0.838288	2.17731														
0.910062	2.37041	0.840363	2.17743														
0.911926	2.36951	0.842437	2.17755														
0.913791	2.36862	0.844511	2.17766														
0.915657	2.36774	0.846586	2.17778														
0.917523	2.36686	0.84866	2.1779														
0.91939	2.36599	0.850735	2.17801														
0.921259	2.36513	0.852809	2.17813														
0.923128	2.36427	0.854883	2.17824														
0.924997	2.36342	0.856957	2.17836														
0.926868	2.36258	0.859032	2.17847														
0.92874	2.36174	0.861106	2.17858														
0.930612	2.36091	0.86318	2.17869														
0.932485	2.36008	0.865255	2.17881														
0.934359	2.35926	0.867329	2.17892														
0.936234	2.35845	0.869403	2.17903														
0.938109	2.35764	0.871477	2.17914														
0.939986	2.35683	0.873552	2.17925														
0.941863	2.35604	0.875626	2.17936														
0.943741	2.35525	0.8777	2.17947														
0.94562	2.35446	0.879774	2.17957														
0.947499	2.35368	0.881849	2.17968														
0.94938	2.3529	0.883923	2.17979														
0.951261	2.35214	0.885997	2.1799														
0.953143	2.35137	0.888071	2.18														
0.955025	2.35061	0.890145	2.18011														
0.956909	2.34986	0.89222	2.18021														
0.958793	2.34911	0.894294	2.18032														
0.960678	2.34837	0.896368	2.18042														
0.962563	2.34763	0.898442	2.18052														
0.96445	2.3469	0.900516	2.18063														
0.966337	2.34617	0.90259	2.18073														
0.968225	2.34545	0.904664	2.18083														
0.970114	2.34474	0.906738	2.18093														
0.972003	2.34402	0.908813	2.18103														
0.973893	2.34332	0.910887	2.18113														
0.975784	2.34261	0.912961	2.18124														
0.977675	2.34192	0.915035	2.18133														
0.979568	2.34122	0.917109	2.18143														
0.981461	2.34054	0.919183	2.18153														
0.983354	2.33985	0.921257	2.18163														
0.985249	2.33918	0.923331	2.18173														
0.987144	2.3385	0.925405	2.18183														
0.989039	2.33783	0.927479	2.18192														
0.990936	2.33717	0.929553	2.18202														
0.992833	2.33651	0.931627	2.18212														
0.994731	2.33585	0.933701	2.18221														
0.996629	2.3352	0.935775	2.18231														
0.998528	2.33456	0.937849	2.1824														
1.00043	2.33391	0.939923	2.1825														
		0.941997	2.18259														
		0.944071	2.18268														
		0.946145	2.18278														
		0.948219	2.18287														
		0.950293	2.18296														
		0.952366	2.18305														
		0.95444	2.18314														
		0.956514	2.18324														
		0.958588	2.18333														
		0.960662	2.18342														
		0.962736	2.18351														
		0.96481	2.1836														
		0.966884	2.18368														
		0.968957	2.18377														
		0.971031	2.18386														
		0.973105	2.18395														
		0.975179	2.18404														
		0.977253	2.18412														
		0.979326	2.18421														
		0.9814	2.1843														
		0.983474	2.18438														
		0.985548	2.18447														
		0.987622	2.18455														
		0.989695	2.18464														
		0.991769	2.18472														
		0.993843	2.18481														
		0.995917	2.18489														
		0.99799	2.18497														
		1.00006	2.18506														
