Sym0		Asym0		Sym1		Sym2		Sym3		Sym4		Asym1		Asym2		Asym3	
466  Points		495  Points		227  Points		194  Points		181  Points		126  Points		329  Points		206  Points		168  Points	
Freq (MHz)	Vph (m/ms)	Freq (MHz)	Vph (m/ms)	Freq (MHz)	Vph (m/ms)	Freq (MHz)	Vph (m/ms)	Freq (MHz)	Vph (m/ms)	Freq (MHz)	Vph (m/ms)	Freq (MHz)	Vph (m/ms)	Freq (MHz)	Vph (m/ms)	Freq (MHz)	Vph (m/ms)
0.00105434	5.28748	0.000443616	0.184064	0.279509	3986.51	0.477389	789.231	0.559021	1445.8	0.838535	1020.8	0.139764	471.834	0.419266	1336.53	0.698786	750.778
0.00598055	5.28738	0.000849305	0.254146	0.279547	279.043	0.477412	310.699	0.559059	424.061	0.83857	478.322	0.139923	113.952	0.419307	336.687	0.698829	375.222
0.0109065	5.28724	0.00138124	0.32321	0.279653	144.635	0.477454	193.437	0.559141	248.502	0.83863	312.357	0.140276	64.9546	0.4194	192.643	0.698901	250.131
0.0158319	5.28702	0.00203532	0.391016	0.279825	97.6633	0.477517	140.448	0.559264	175.773	0.838714	231.911	0.140821	45.5538	0.419542	134.954	0.699003	187.61
0.0207567	5.28674	0.00280677	0.457359	0.280064	73.7612	0.477599	110.258	0.55943	136.001	0.838824	184.429	0.141553	35.1861	0.419734	103.882	0.699133	150.108
0.0256806	5.28637	0.00369012	0.522045	0.280369	59.2923	0.477701	90.7598	0.559638	110.926	0.838959	153.097	0.14247	28.7546	0.419975	84.4652	0.699292	125.114
0.0306033	5.28593	0.00467952	0.584919	0.28074	49.5982	0.477823	77.1299	0.559888	93.6765	0.839119	130.875	0.143566	24.3895	0.420267	71.1851	0.69948	107.267
0.0355246	5.2854	0.0057688	0.645859	0.281177	42.6544	0.477966	67.0665	0.56018	81.0854	0.839303	114.295	0.144835	21.2429	0.420609	61.5324	0.699697	93.8861
0.0404444	5.2848	0.00695153	0.704761	0.281679	37.4391	0.478129	59.3327	0.560514	71.4921	0.839513	101.452	0.146272	18.8743	0.421	54.2018	0.699942	83.4824
0.0453624	5.28412	0.00822142	0.761569	0.282247	33.3808	0.478313	53.2042	0.560889	63.9415	0.839748	91.2104	0.147868	17.0326	0.42144	48.4472	0.700217	75.1628
0.0502782	5.28335	0.0095721	0.816241	0.282878	30.1349	0.478517	48.2288	0.561306	57.8452	0.840008	82.854	0.149617	15.5638	0.421929	43.8111	0.70052	68.3588
0.0551918	5.2825	0.0109973	0.868753	0.283573	27.4813	0.478743	44.1095	0.561765	52.8208	0.840292	75.9065	0.151512	14.3684	0.422468	39.9976	0.700852	62.6914
0.0601029	5.28157	0.0124911	0.919109	0.284331	25.2729	0.478991	40.6433	0.562265	48.6094	0.840602	70.0397	0.153546	13.3791	0.423055	36.8065	0.701212	57.8984
0.0650112	5.28055	0.0140477	0.967332	0.285152	23.4074	0.47926	37.6868	0.562805	45.0292	0.840936	65.02	0.155711	12.549	0.423691	34.0979	0.701601	53.7923
0.0699164	5.27944	0.0156617	1.01345	0.286034	21.8116	0.479551	35.1355	0.563387	41.9487	0.841295	60.6768	0.158001	11.8442	0.424375	31.7707	0.702019	50.2358
0.0748183	5.27825	0.017328	1.05752	0.286977	20.4319	0.479864	32.9118	0.564009	39.2707	0.841679	56.8822	0.160408	11.2396	0.425107	29.7504	0.702465	47.1258
0.0797166	5.27696	0.0190416	1.09958	0.28798	19.2279	0.480201	30.9567	0.564671	36.9216	0.842087	53.5387	0.162597	10.7797	0.425887	27.9806	0.702939	44.3834
0.084611	5.27559	0.0207984	1.13971	0.289042	18.1685	0.48056	29.2246	0.565374	34.8448	0.842521	50.5707	0.164526	10.4291	0.426714	26.4178	0.703442	41.9475
0.0895013	5.27412	0.0225941	1.17796	0.290162	17.2299	0.480943	27.6796	0.566116	32.9959	0.842979	47.9184	0.166163	10.1641	0.427589	25.0283	0.703973	39.7696
0.0943871	5.27255	0.0244248	1.21442	0.29134	16.3929	0.48135	26.2931	0.566897	31.3396	0.843461	45.5343	0.167484	9.96895	0.42851	23.7851	0.704532	37.8111
0.0992682	5.27088	0.0262872	1.24915	0.292573	15.6423	0.481782	25.0422	0.567718	29.8476	0.843968	43.3797	0.168469	9.83285	0.429478	22.6666	0.705119	36.0405
0.104144	5.26911	0.028178	1.28224	0.293862	14.9657	0.482238	23.9081	0.568578	28.4969	0.8445	41.4233	0.169106	9.74884	0.430491	21.6553	0.705734	34.4322
0.109015	5.26724	0.0300944	1.31374	0.295205	14.3531	0.48272	22.8754	0.569476	27.2686	0.845056	39.6391	0.170029	9.6321	0.431551	20.7367	0.706377	32.9651
0.113879	5.26527	0.0320336	1.34374	0.296602	13.796	0.483228	21.9311	0.570413	26.147	0.845636	38.0054	0.171044	9.51033	0.432655	19.8989	0.707048	31.6215
0.118738	5.26318	0.0339933	1.37231	0.29805	13.2875	0.483762	21.0647	0.571388	25.1189	0.846241	36.504	0.172443	9.35275	0.433805	19.1319	0.707747	30.3866
0.12359	5.26097	0.0359713	1.39953	0.299549	12.8218	0.484322	20.2669	0.5724	24.1733	0.84687	35.1197	0.17424	9.16571	0.434998	18.4274	0.708473	29.2478
0.128435	5.25865	0.0379656	1.42545	0.301098	12.3938	0.484911	19.5301	0.57345	23.3008	0.847523	33.8393	0.176454	8.95613	0.436236	17.7782	0.709227	28.1945
0.133272	5.25621	0.0399745	1.45014	0.302696	11.9994	0.485527	18.8476	0.574536	22.4934	0.8482	32.6517	0.179107	8.73098	0.437518	17.1781	0.710008	27.2174
0.138102	5.25364	0.0419964	1.47368	0.304342	11.6349	0.486172	18.2139	0.57566	21.7442	0.848902	31.5472	0.182221	8.49685	0.438842	16.6221	0.710816	26.3088
0.142923	5.25094	0.0440296	1.49612	0.306034	11.2973	0.486845	17.624	0.576819	21.0473	0.849627	30.5175	0.185405	8.28536	0.44021	16.1055	0.711652	25.4617
0.147736	5.24811	0.0458098	1.51482	0.307772	10.9836	0.487549	17.0736	0.578015	20.3975	0.850376	29.5554	0.188655	8.09362	0.441619	15.6245	0.712515	24.6702
0.152539	5.24514	0.0473329	1.53016	0.309323	10.7281	0.488283	16.559	0.579246	19.7903	0.85115	28.6544	0.191967	7.91919	0.443071	15.1756	0.713404	23.9291
0.157332	5.24203	0.0485959	1.54245	0.310671	10.5223	0.489047	16.077	0.580513	19.2217	0.851947	27.809	0.195338	7.76	0.444563	14.7558	0.714321	23.2337
0.162115	5.23876	0.0495966	1.55192	0.311803	10.3598	0.489843	15.6246	0.581814	18.6883	0.852767	27.0142	0.198765	7.61431	0.446097	14.3626	0.715264	22.5801
0.166887	5.23534	0.0503335	1.55875	0.31271	10.2361	0.490672	15.1993	0.58315	18.1869	0.853611	26.2657	0.202244	7.48059	0.44767	13.9935	0.716233	21.9647
0.171647	5.23175	0.0508055	1.56306	0.313383	10.1476	0.491533	14.7989	0.584521	17.7149	0.854479	25.5597	0.205773	7.35756	0.449284	13.6465	0.717229	21.3842
0.176395	5.228	0.0514848	1.56918	0.313816	10.092	0.492427	14.4213	0.585925	17.2698	0.85537	24.8926	0.209348	7.24407	0.450936	13.3198	0.718252	20.8359
0.181129	5.22406	0.0522238	1.57573	0.314443	10.0136	0.493355	14.0647	0.587363	16.8495	0.856285	24.2614	0.212968	7.13915	0.452628	13.0116	0.7193	20.3172
0.18585	5.21995	0.0532303	1.58446	0.315129	9.93021	0.494318	13.7275	0.588834	16.452	0.857223	23.6633	0.216629	7.04195	0.454358	12.7207	0.720374	19.8258
0.190556	5.21564	0.054505	1.59522	0.316071	9.81985	0.495317	13.4083	0.590338	16.0755	0.858184	23.0958	0.22033	6.95171	0.456125	12.4455	0.721474	19.3597
0.195246	5.21113	0.0560493	1.60785	0.317275	9.68505	0.496351	13.1058	0.591874	15.7186	0.859168	22.5567	0.224068	6.86777	0.45793	12.185	0.7226	18.917
0.19992	5.2064	0.0578641	1.62213	0.318752	9.52879	0.497422	12.8187	0.593443	15.3797	0.860175	22.0439	0.227841	6.78954	0.459771	11.938	0.723752	18.496
0.204577	5.20146	0.0599508	1.63785	0.32051	9.35433	0.49853	12.546	0.595044	15.0576	0.861205	21.5557	0.231648	6.71651	0.461649	11.7037	0.724929	18.0952
0.209215	5.19629	0.062041	1.65288	0.322564	9.16504	0.499676	12.2868	0.596676	14.7511	0.862258	21.0902	0.235487	6.64821	0.463563	11.481	0.726131	17.7133
0.213833	5.19088	0.0641346	1.66728	0.324654	8.98654	0.50086	12.0401	0.598339	14.4592	0.863334	20.646	0.239356	6.58424	0.465511	11.2692	0.727358	17.3489
0.218431	5.18522	0.0662309	1.68105	0.326781	8.81799	0.502084	11.8051	0.600033	14.1808	0.864432	20.2217	0.243253	6.52423	0.467494	11.0676	0.72861	17.0009
0.223007	5.17929	0.0683294	1.69425	0.328942	8.65863	0.503348	11.5811	0.601758	13.9152	0.865553	19.816	0.247177	6.46786	0.46925	10.8997	0.729887	16.6684
0.227559	5.17309	0.0704301	1.70691	0.331139	8.5078	0.504651	11.3674	0.603512	13.6614	0.866696	19.4278	0.251126	6.41481	0.470768	10.7619	0.731188	16.3502
0.232087	5.16659	0.0725324	1.71904	0.333369	8.36486	0.505996	11.1634	0.605297	13.4188	0.867861	19.0559	0.2551	6.36483	0.472036	10.6515	0.732514	16.0456
0.236589	5.15979	0.0746361	1.73068	0.335633	8.22928	0.507202	10.9931	0.607111	13.1867	0.869049	18.6995	0.259096	6.31768	0.473048	10.5664	0.733864	15.7536
0.241064	5.15268	0.0767409	1.74186	0.33793	8.10055	0.508255	10.8531	0.608954	12.9644	0.870259	18.3575	0.263114	6.27314	0.473797	10.5051	0.735238	15.4736
0.245509	5.14523	0.0788467	1.75259	0.340259	7.9782	0.509144	10.7408	0.610826	12.7513	0.87149	18.0291	0.267153	6.23101	0.474278	10.4664	0.736636	15.2049
0.249924	5.13744	0.0809532	1.76291	0.342621	7.86183	0.509858	10.6542	0.612727	12.5469	0.872744	17.7136	0.27121	6.19111	0.474973	10.4114	0.738058	14.9468
0.254306	5.12928	0.0830602	1.77282	0.345014	7.75105	0.510389	10.5917	0.614656	12.3508	0.874019	17.4103	0.275286	6.15329	0.475733	10.3525	0.739503	14.6988
0.258653	5.12074	0.0851676	1.78236	0.34744	7.64551	0.510733	10.5521	0.616613	12.1624	0.875316	17.1184	0.279379	6.11738	0.476772	10.2739	0.740972	14.4602
0.262965	5.1118	0.0872753	1.79154	0.349897	7.5449	0.51123	10.496	0.618597	11.9814	0.876635	16.8374	0.283489	6.08326	0.478098	10.177	0.742464	14.2305
0.267238	5.10245	0.0893831	1.80037	0.352387	7.44893	0.511775	10.4359	0.620609	11.8073	0.877975	16.5667	0.287613	6.0508	0.479716	10.0632	0.743979	14.0094
0.27147	5.09268	0.091491	1.80888	0.354909	7.35733	0.512526	10.3557	0.622648	11.6397	0.879336	16.3057	0.291753	6.01988	0.481637	9.93428	0.745517	13.7963
0.27566	5.08245	0.0935987	1.81708	0.357463	7.26987	0.513491	10.2566	0.624713	11.4784	0.880719	16.054	0.295905	5.99041	0.48387	9.79216	0.747078	13.5909
0.279806	5.07176	0.0957064	1.82499	0.36005	7.18632	0.51468	10.1401	0.626805	11.323	0.882123	15.8111	0.300071	5.96228	0.486133	9.6559	0.748661	13.3927
0.283905	5.06059	0.0978139	1.83262	0.362671	7.10648	0.516107	10.0082	0.628649	11.1922	0.883547	15.5765	0.304249	5.93541	0.488426	9.52516	0.750266	13.2014
0.287954	5.04892	0.0999211	1.83998	0.365326	7.03015	0.517785	9.86253	0.630237	11.0839	0.884992	15.3498	0.308437	5.90971	0.490748	9.39966	0.751894	13.0166
0.291953	5.03675	0.102028	1.84709	0.368016	6.95718	0.51951	9.72282	0.63156	10.9965	0.886459	15.1308	0.312636	5.88511	0.493099	9.27909	0.753543	12.8381
0.295897	5.02405	0.104135	1.85395	0.370741	6.8874	0.52128	9.58875	0.632614	10.9287	0.887945	14.9189	0.316845	5.86154	0.495478	9.16321	0.755214	12.6655
0.299787	5.01082	0.106241	1.86059	0.373504	6.82067	0.523096	9.46003	0.633392	10.8796	0.889453	14.7139	0.321063	5.83893	0.497885	9.05176	0.756907	12.4986
0.303618	4.99704	0.108347	1.86701	0.376304	6.75685	0.524958	9.3364	0.633892	10.8485	0.89098	14.5154	0.32529	5.81722	0.500319	8.9445	0.758622	12.3371
0.307389	4.9827	0.110452	1.87321	0.379144	6.69581	0.526867	9.21761	0.634613	10.8042	0.892528	14.3232	0.329524	5.79637	0.50278	8.84124	0.760357	12.1808
0.311099	4.96781	0.112557	1.87921	0.382024	6.63746	0.528823	9.10345	0.635399	10.7567	0.894096	14.137	0.333766	5.77631	0.505267	8.74176	0.762114	12.0294
0.314745	4.95235	0.114661	1.88502	0.384945	6.58168	0.530827	8.99368	0.636474	10.693	0.895684	13.9565	0.338013	5.757	0.507781	8.64588	0.763891	11.8827
0.318326	4.93633	0.116765	1.89065	0.387909	6.52836	0.532877	8.88812	0.637842	10.6139	0.897291	13.7815	0.342267	5.73839	0.51032	8.55342	0.765689	11.7405
0.32184	4.91974	0.118868	1.89611	0.390918	6.47743	0.534975	8.78656	0.639508	10.5205	0.898919	13.6117	0.346526	5.72044	0.512884	8.46422	0.767508	11.6026
0.324847	4.90484	0.120971	1.90139	0.393972	6.42879	0.53712	8.68883	0.64148	10.4138	0.900566	13.4469	0.350791	5.70312	0.515473	8.37813	0.769109	11.4859
0.327369	4.8918	0.123074	1.90652	0.397073	6.38235	0.539312	8.59476	0.643766	10.2952	0.902233	13.287	0.355059	5.68637	0.518086	8.29499	0.770486	11.3887
0.329426	4.88079	0.125176	1.91149	0.400221	6.33804	0.541552	8.50418	0.646076	10.1805	0.903919	13.1316	0.359331	5.67018	0.520723	8.21467	0.771633	11.31
0.331034	4.87195	0.127277	1.91631	0.403419	6.29579	0.543839	8.41695	0.648409	10.0694	0.905624	12.9807	0.363606	5.65451	0.523384	8.13704	0.772546	11.2488
0.332206	4.86537	0.129378	1.921	0.406666	6.25551	0.546173	8.33292	0.650766	9.96186	0.907348	12.834	0.367884	5.63933	0.526067	8.06199	0.773219	11.2043
0.332951	4.86112	0.131478	1.92554	0.409964	6.21714	0.548554	8.25194	0.653146	9.8577	0.909091	12.6914	0.372163	5.6246	0.528774	7.98939	0.773652	11.1761
0.334016	4.85497	0.133578	1.92996	0.413314	6.18061	0.550982	8.1739	0.655549	9.75677	0.910854	12.5528	0.376445	5.61031	0.531502	7.91913	0.774276	11.1358
0.335165	4.84822	0.135677	1.93425	0.416715	6.14584	0.553456	8.09867	0.657975	9.65893	0.912634	12.4179	0.380727	5.59643	0.534253	7.85113	0.774956	11.0925
0.336713	4.83894	0.137776	1.93843	0.420168	6.11277	0.555976	8.02613	0.660423	9.56406	0.914434	12.2866	0.385011	5.58293	0.537025	7.78527	0.775885	11.0344
0.338647	4.82703	0.139874	1.94249	0.423673	6.08133	0.558542	7.95616	0.662894	9.47204	0.916252	12.1588	0.389294	5.56979	0.539819	7.72148	0.777067	10.9619
0.340951	4.81239	0.141972	1.94644	0.427229	6.05145	0.561154	7.88867	0.665386	9.38274	0.918088	12.0344	0.393577	5.557	0.542633	7.65966	0.778506	10.876
0.343605	4.7949	0.144069	1.95028	0.430837	6.02307	0.563811	7.82354	0.6679	9.29606	0.919942	11.9132	0.397859	5.54452	0.545468	7.59973	0.780207	10.7776
0.346585	4.77442	0.146166	1.95402	0.434495	5.99611	0.566512	7.76069	0.670436	9.2119	0.921573	11.8101	0.40214	5.53235	0.548324	7.54161	0.782177	10.6675
0.349497	4.75352	0.148262	1.95766	0.438203	5.97051	0.569257	7.70002	0.672993	9.13015	0.922974	11.7241	0.406419	5.52046	0.551199	7.48524	0.784167	10.5604
0.352342	4.73225	0.150358	1.96121	0.441959	5.94621	0.572046	7.64144	0.675571	9.05072	0.92414	11.6542	0.410696	5.50883	0.554094	7.43054	0.786175	10.4563
0.35512	4.71062	0.152454	1.96467	0.445763	5.92314	0.574877	7.58487	0.67817	8.97353	0.925066	11.5997	0.41497	5.49746	0.557008	7.37745	0.788201	10.3549
0.357834	4.68868	0.154549	1.96804	0.449612	5.90123	0.577752	7.53022	0.680789	8.89849	0.92575	11.56	0.419241	5.48633	0.559942	7.3259	0.790246	10.2562
0.360485	4.66644	0.156644	1.97132	0.453506	5.88043	0.580668	7.47743	0.683429	8.82552	0.926189	11.5348	0.423509	5.47541	0.562894	7.27584	0.792309	10.1602
0.363075	4.64396	0.158738	1.97452	0.457443	5.86067	0.583625	7.42641	0.686089	8.75454	0.926822	11.4989	0.427772	5.4647	0.565865	7.22721	0.79439	10.0666
0.365606	4.62125	0.160832	1.97765	0.46142	5.84189	0.586623	7.3771	0.688769	8.68548	0.927512	11.4601	0.432031	5.45419	0.568855	7.17995	0.796489	9.9754
0.368078	4.59835	0.162925	1.9807	0.465436	5.82404	0.58966	7.32942	0.691469	8.61828	0.928453	11.408	0.436284	5.44386	0.571862	7.13402	0.798606	9.88655
0.370496	4.5753	0.165018	1.98368	0.46949	5.80707	0.592737	7.28332	0.694189	8.55286	0.92965	11.3429	0.440532	5.43369	0.574888	7.08936	0.80074	9.79994
0.372859	4.55211	0.167111	1.98658	0.473579	5.79091	0.595853	7.23873	0.696928	8.48915	0.931106	11.2655	0.444774	5.42369	0.577931	7.04594	0.802892	9.71549
0.375172	4.52883	0.169203	1.98942	0.477702	5.77553	0.599006	7.19559	0.699687	8.42712	0.932827	11.1766	0.44901	5.41383	0.580992	7.0037	0.805061	9.63313
0.377435	4.50548	0.171295	1.99219	0.481856	5.76086	0.602196	7.15385	0.702464	8.36668	0.934817	11.0768	0.453238	5.4041	0.58407	6.96261	0.807247	9.55279
0.379651	4.48208	0.173387	1.9949	0.486041	5.74687	0.605423	7.11345	0.70526	8.3078	0.936824	10.9793	0.457459	5.39451	0.587166	6.92262	0.809449	9.47439
0.381821	4.45866	0.175478	1.99755	0.490253	5.73351	0.608686	7.07434	0.708075	8.25041	0.938848	10.8842	0.461673	5.38503	0.590278	6.8837	0.811669	9.39789
0.383949	4.43525	0.177569	2.00014	0.494491	5.72074	0.611983	7.03647	0.710909	8.19446	0.940889	10.7913	0.465877	5.37565	0.593407	6.84581	0.813905	9.3232
0.386035	4.41187	0.179659	2.00267	0.498753	5.70852	0.615315	6.99979	0.713761	8.13992	0.942947	10.7006	0.470073	5.36638	0.596553	6.80892	0.816158	9.25028
0.388082	4.38853	0.18175	2.00515	0.503039	5.69682	0.61868	6.96426	0.716631	8.08673	0.945021	10.6119	0.47426	5.35719	0.599716	6.77299	0.818426	9.17907
0.390092	4.36527	0.18384	2.00757	0.507345	5.6856	0.622078	6.92984	0.71952	8.03485	0.947112	10.5253	0.478437	5.34809	0.602894	6.73799	0.820711	9.1095
0.392065	4.34208	0.185929	2.00994	0.511671	5.67483	0.625508	6.89647	0.722426	7.98423	0.949219	10.4406	0.482603	5.33906	0.60609	6.7039	0.823012	9.04154
0.394005	4.319	0.188019	2.01226	0.516015	5.66447	0.62897	6.86412	0.72535	7.93485	0.951342	10.3578	0.486759	5.33009	0.609301	6.67068	0.825329	8.97512
0.395913	4.29604	0.190108	2.01453	0.520375	5.65451	0.632462	6.83276	0.728292	7.88665	0.953482	10.2768	0.490903	5.32118	0.612529	6.6383	0.827661	8.91021
0.39779	4.27321	0.192197	2.01675	0.524751	5.64491	0.635984	6.80234	0.731251	7.8396	0.955637	10.1977	0.495035	5.31232	0.615773	6.60675	0.830009	8.84675
0.399638	4.25052	0.194285	2.01893	0.529141	5.63564	0.639536	6.77284	0.734228	7.79366	0.957808	10.1202	0.499155	5.30351	0.619033	6.57599	0.832372	8.78471
0.401459	4.22798	0.196374	2.02106	0.533543	5.6267	0.643116	6.74421	0.737222	7.74881	0.959995	10.0444	0.503262	5.29473	0.622309	6.546	0.834751	8.72403
0.403253	4.20561	0.198462	2.02315	0.537957	5.61804	0.646724	6.71642	0.740233	7.705	0.962197	9.97028	0.507356	5.28599	0.625601	6.51676	0.837145	8.66468
0.405023	4.18342	0.200549	2.0252	0.542381	5.60966	0.650359	6.68944	0.743261	7.66222	0.964414	9.8977	0.511436	5.27727	0.628908	6.48824	0.839553	8.60661
0.406769	4.16141	0.202637	2.02721	0.546814	5.60154	0.65402	6.66325	0.746306	7.62042	0.966647	9.82666	0.515501	5.26857	0.632232	6.46043	0.841977	8.5498
0.408493	4.13959	0.204724	2.02918	0.551255	5.59364	0.657708	6.63781	0.749368	7.57957	0.968895	9.7571	0.519552	5.25988	0.635571	6.43331	0.844416	8.49419
0.410196	4.11796	0.206811	2.03111	0.555704	5.58597	0.661421	6.6131	0.752447	7.53966	0.971159	9.68898	0.523587	5.2512	0.638927	6.40685	0.846869	8.43977
0.411879	4.09654	0.208898	2.033	0.560158	5.57851	0.665158	6.58909	0.755543	7.50066	0.973437	9.62227	0.527606	5.24252	0.642298	6.38104	0.849336	8.38649
0.413543	4.07533	0.210985	2.03485	0.564618	5.57123	0.668919	6.56575	0.758655	7.46253	0.97573	9.55692	0.531609	5.23384	0.645684	6.35585	0.851818	8.33433
0.415189	4.05433	0.213071	2.03668	0.569083	5.56413	0.672704	6.54306	0.761783	7.42525	0.978037	9.49289	0.535595	5.22515	0.649087	6.33128	0.854315	8.28325
0.416819	4.03354	0.215157	2.03846	0.573551	5.55719	0.676511	6.521	0.764928	7.3888	0.980359	9.43015	0.539563	5.21645	0.652505	6.3073	0.856825	8.23321
0.418432	4.01298	0.217243	2.04022	0.578022	5.5504	0.680341	6.49954	0.768089	7.35316	0.982696	9.36866	0.543513	5.20774	0.655939	6.2839	0.85935	8.1842
0.420031	3.99263	0.219329	2.04194	0.582495	5.54376	0.684192	6.47867	0.771267	7.31831	0.985047	9.30839	0.547445	5.199	0.659389	6.26107	0.861889	8.13618
0.421615	3.97251	0.221415	2.04363	0.586969	5.53724	0.688064	6.45836	0.774461	7.28422	0.987412	9.24931	0.551358	5.19024	0.662855	6.23879	0.864441	8.08914
0.423186	3.95262	0.2235	2.04529	0.591444	5.53085	0.691957	6.43859	0.777671	7.25087	0.989791	9.19138	0.555252	5.18145	0.666336	6.21704	0.867008	8.04303
0.424745	3.93295	0.225585	2.04692	0.595919	5.52456	0.695869	6.41934	0.780897	7.21824	0.992184	9.13457	0.559126	5.17262	0.669834	6.19581	0.869588	7.99784
0.426292	3.91351	0.22767	2.04852	0.600394	5.51838	0.699801	6.4006	0.784139	7.18632	0.994591	9.07885	0.562979	5.16376	0.673347	6.17508	0.872181	7.95354
0.427827	3.8943	0.229755	2.05009	0.604867	5.51229	0.703751	6.38234	0.787397	7.15509	0.997012	9.0242	0.566812	5.15486	0.676876	6.15486	0.874789	7.91011
0.429352	3.87531	0.23184	2.05164	0.609338	5.50629	0.70772	6.36456	0.790671	7.12452	0.999446	8.97059	0.570623	5.14592	0.68042	6.13511	0.877409	7.86752
0.430867	3.85656	0.233924	2.05316	0.613808	5.50036	0.711707	6.34723	0.793962	7.09461	1.00189	8.91798	0.574413	5.13693	0.683981	6.11584	0.880043	7.82576
0.432373	3.83803	0.236009	2.05465	0.618274	5.49451	0.71571	6.33033	0.797268	7.06534			0.57818	5.1279	0.687557	6.09702	0.882691	7.78481
0.433871	3.81973	0.238093	2.05612	0.622737	5.48873	0.719731	6.31386	0.800591	7.03668			0.581925	5.11882	0.691149	6.07866	0.885351	7.74463
0.43536	3.80166	0.240177	2.05756	0.627196	5.48301	0.723767	6.2978	0.803929	7.00863			0.585647	5.10968	0.694757	6.06072	0.888025	7.70522
0.436841	3.78381	0.242261	2.05898	0.631651	5.47734	0.72782	6.28213	0.807283	6.98117			0.589345	5.10049	0.698381	6.04322	0.890712	7.66656
0.438316	3.76619	0.244345	2.06037	0.636101	5.47172	0.731887	6.26684	0.810654	6.95428			0.59302	5.09124	0.70202	6.02612	0.893411	7.62862
0.439783	3.74879	0.246428	2.06174	0.640545	5.46614	0.735969	6.25192	0.81404	6.92796			0.596671	5.08193	0.705675	6.00944	0.896124	7.59139
0.441245	3.73161	0.248512	2.06309	0.644984	5.46061	0.740066	6.23735	0.817443	6.90219			0.600298	5.07257	0.709345	5.99314	0.89885	7.55485
0.442701	3.71465	0.250595	2.06442	0.649417	5.4551	0.744176	6.22313	0.820862	6.87696			0.6039	5.06314	0.713031	5.97723	0.901588	7.51898
0.444151	3.69791	0.252678	2.06573	0.653843	5.44964	0.7483	6.20923	0.824297	6.85225			0.607477	5.05366	0.716732	5.9617	0.904339	7.48378
0.445596	3.68139	0.254761	2.06701	0.658262	5.44419	0.752436	6.19566	0.827747	6.82805			0.611028	5.04411	0.720448	5.94652	0.907103	7.44922
0.447037	3.66508	0.256844	2.06828	0.662675	5.43877	0.756585	6.18239	0.831215	6.80436			0.614554	5.03449	0.72418	5.93171	0.909879	7.41528
0.448474	3.64899	0.258927	2.06952	0.667079	5.43337	0.760746	6.16942	0.834698	6.78115			0.618055	5.02482	0.727927	5.91724	0.912669	7.38196
0.449906	3.6331	0.26101	2.07075	0.671475	5.42799	0.764918	6.15674	0.838198	6.75843			0.621529	5.01508	0.731688	5.90311	0.91547	7.34924
0.451336	3.61743	0.263092	2.07195	0.675863	5.42262	0.769102	6.14433	0.841714	6.73618			0.624978	5.00528	0.735465	5.88931	0.918285	7.3171
0.452761	3.60196	0.265175	2.07314	0.680242	5.41726	0.773296	6.1322	0.845247	6.71439			0.6284	4.99541	0.739256	5.87583	0.921111	7.28554
0.454184	3.58669	0.267257	2.07431	0.684612	5.4119	0.7775	6.12032	0.848797	6.69305			0.631796	4.98548	0.743061	5.86266	0.92395	7.25453
0.455604	3.57163	0.269339	2.07547	0.688972	5.40655	0.781714	6.10869	0.852363	6.67215			0.635165	4.97548	0.74688	5.84979	0.926802	7.22408
0.457022	3.55676	0.271421	2.0766	0.693323	5.4012	0.785937	6.0973	0.855946	6.65168			0.638507	4.96543	0.750714	5.83722	0.929666	7.19415
0.458438	3.5421	0.273503	2.07772	0.697664	5.39586	0.79017	6.08614	0.859545	6.63164			0.641823	4.95531	0.754561	5.82494	0.932542	7.16475
0.459851	3.52762	0.275585	2.07882	0.701994	5.3905	0.79441	6.07521	0.863162	6.61201			0.645112	4.94513	0.758422	5.81293	0.93543	7.13586
0.461263	3.51334	0.277667	2.07991	0.706314	5.38515	0.798659	6.06449	0.866795	6.5928			0.648374	4.93489	0.762295	5.80119	0.938331	7.10748
0.462673	3.49925	0.279748	2.08098	0.710623	5.37978	0.802915	6.05398	0.870446	6.57398			0.65161	4.9246	0.766182	5.78972	0.941243	7.07958
0.464082	3.48535	0.28183	2.08203	0.71492	5.37441	0.807179	6.04367	0.874114	6.55555			0.654818	4.91424	0.770082	5.77851	0.944168	7.05216
0.46549	3.47163	0.283911	2.08307	0.719206	5.36903	0.811449	6.03355	0.8778	6.53751			0.658	4.90383	0.773994	5.76754	0.947105	7.0252
0.466898	3.4581	0.285993	2.08409	0.72348	5.36363	0.815726	6.02363	0.881502	6.51985			0.661155	4.89337	0.777918	5.75682	0.950054	6.99871
0.468304	3.44474	0.288074	2.0851	0.727743	5.35822	0.820009	6.01388	0.885223	6.50256			0.664284	4.88285	0.781854	5.74632	0.953016	6.97267
0.46971	3.43157	0.290155	2.0861	0.731993	5.35279	0.824297	6.0043	0.888961	6.48563			0.667385	4.87228	0.785802	5.73606	0.955989	6.94707
0.471115	3.41857	0.292236	2.08708	0.73623	5.34734	0.828591	5.99489	0.892717	6.46906			0.670461	4.86167	0.78976	5.72601	0.958974	6.9219
0.472521	3.40574	0.294317	2.08805	0.740455	5.34188	0.832889	5.98564	0.896491	6.45284			0.673509	4.851	0.79373	5.71618	0.961971	6.89715
0.473926	3.39308	0.296398	2.08901	0.744666	5.3364	0.837192	5.97654	0.900283	6.43697			0.676532	4.84029	0.79771	5.70655	0.96498	6.87281
0.475331	3.38059	0.298479	2.08995	0.748865	5.33089	0.841499	5.9676	0.904093	6.42143			0.679528	4.82953	0.8017	5.69712	0.968001	6.84888
0.476737	3.36827	0.30056	2.09088	0.75305	5.32536	0.845809	5.9588	0.907922	6.40623			0.682499	4.81874	0.805699	5.68789	0.971034	6.82535
0.478143	3.35611	0.302641	2.09179	0.757221	5.31981	0.850123	5.95013	0.911769	6.39136			0.685443	4.8079	0.809709	5.67884	0.974079	6.8022
0.479549	3.34412	0.304721	2.0927	0.761379	5.31423	0.85444	5.9416	0.915634	6.37681			0.688362	4.79702	0.813727	5.66997	0.977136	6.77944
0.480956	3.33228	0.306802	2.09359	0.765522	5.30863	0.858759	5.93319	0.919518	6.36257			0.691256	4.78611	0.817754	5.66128	0.980204	6.75705
0.482364	3.3206	0.308882	2.09447	0.769651	5.303	0.86308	5.92491	0.923421	6.34865			0.694124	4.77517	0.821789	5.65275	0.983284	6.73502
0.483773	3.30907	0.310962	2.09534	0.773766	5.29734	0.867403	5.91674	0.927343	6.33503			0.696967	4.76419	0.825832	5.64439	0.986376	6.71336
0.485182	3.29769	0.313043	2.0962	0.777866	5.29166	0.871727	5.90869	0.931283	6.32172			0.699785	4.75319	0.829883	5.63618	0.98948	6.69205
0.486593	3.28647	0.315123	2.09704	0.781951	5.28595	0.876053	5.90074	0.935243	6.3087			0.702579	4.74215	0.833941	5.62813	0.992595	6.67108
0.488004	3.27539	0.317203	2.09788	0.786021	5.2802	0.880379	5.8929	0.939222	6.29596			0.705349	4.73109	0.838006	5.62022	0.995722	6.65045
0.489417	3.26446	0.319283	2.0987	0.790075	5.27443	0.884706	5.88516	0.943219	6.28352			0.708094	4.72001	0.842077	5.61246	0.99886	6.63015
0.490831	3.25367	0.321363	2.09952	0.794115	5.26863	0.889034	5.87752	0.947236	6.27135			0.710816	4.70891	0.846154	5.60483	1.00201	6.61018
0.492247	3.24303	0.323443	2.10032	0.798139	5.26279	0.893361	5.86997	0.951272	6.25947			0.713514	4.69779	0.850236	5.59732		
0.493664	3.23252	0.325523	2.10112	0.802147	5.25693	0.897687	5.86251	0.955328	6.24785			0.716188	4.68665	0.854324	5.58995		
0.495082	3.22215	0.327603	2.1019	0.806139	5.25103	0.902013	5.85514	0.959403	6.2365			0.71884	4.67549	0.858417	5.5827		
0.496502	3.21192	0.329683	2.10267	0.810116	5.2451	0.906339	5.84785	0.963497	6.2254			0.721469	4.66432	0.862514	5.57556		
0.497924	3.20182	0.331762	2.10344	0.814076	5.23914	0.910663	5.84063	0.96761	6.21457			0.724075	4.65315	0.866616	5.56854		
0.499347	3.19185	0.333842	2.1042	0.81802	5.23314	0.914985	5.8335	0.971742	6.20399			0.726659	4.64196	0.870721	5.56162		
0.500773	3.18201	0.335921	2.10494	0.821948	5.22711	0.919306	5.82644	0.975894	6.19365			0.729221	4.63076	0.87483	5.5548		
0.5022	3.17229	0.338001	2.10568	0.825859	5.22105	0.923625	5.81945	0.980065	6.18356			0.731761	4.61956	0.878941	5.54809		
0.503629	3.16271	0.34008	2.10641	0.829754	5.21496	0.927943	5.81253	0.984255	6.17371			0.73428	4.60836	0.883055	5.54147		
0.505059	3.15324	0.34216	2.10713	0.833632	5.20883	0.932258	5.80568	0.988464	6.16408			0.736778	4.59716	0.887172	5.53494		
0.506492	3.1439	0.344239	2.10784	0.837494	5.20267	0.936571	5.79889	0.992692	6.15469			0.739255	4.58595	0.89129	5.5285		
0.507927	3.13468	0.346318	2.10854	0.841338	5.19648	0.940881	5.79216	0.996939	6.14552			0.741712	4.57475	0.895411	5.52214		
0.509364	3.12558	0.348397	2.10923	0.845166	5.19025	0.945189	5.7855	1.0012	6.13657			0.744148	4.56355	0.899532	5.51587		
0.510803	3.11659	0.350477	2.10992	0.848976	5.18399	0.949494	5.77889					0.746564	4.55236	0.903654	5.50967		
0.512244	3.10772	0.352556	2.1106	0.852769	5.17769	0.953796	5.77235					0.748961	4.54118	0.907777	5.50354		
0.513688	3.09896	0.354635	2.11127	0.856546	5.17137	0.958095	5.76585					0.751339	4.53	0.9119	5.49748		
0.515134	3.09031	0.356714	2.11193	0.860305	5.16501	0.962391	5.75942					0.753697	4.51883	0.916023	5.49149		
0.516581	3.08177	0.358793	2.11259	0.864046	5.15862	0.966684	5.75303					0.756036	4.50768	0.920145	5.48557		
0.518032	3.07334	0.360871	2.11323	0.867771	5.15219	0.970974	5.7467					0.758357	4.49654	0.924267	5.4797		
0.519484	3.06501	0.36295	2.11387	0.871478	5.14574	0.975261	5.74041					0.76066	4.48542	0.928387	5.47389		
0.520939	3.05679	0.365029	2.11451	0.875167	5.13925	0.979545	5.73418					0.762945	4.47431	0.932506	5.46814		
0.522396	3.04868	0.367108	2.11513	0.878839	5.13273	0.983825	5.728					0.765212	4.46322	0.936623	5.46244		
0.523856	3.04066	0.369187	2.11575	0.882494	5.12618	0.988102	5.72186					0.767462	4.45215	0.940739	5.45679		
0.525318	3.03275	0.371265	2.11636	0.886131	5.1196	0.992376	5.71577					0.769695	4.4411	0.944852	5.45119		
0.526782	3.02493	0.373344	2.11697	0.88975	5.11299	0.996646	5.70973					0.771912	4.43007	0.948962	5.44563		
0.528249	3.01721	0.375422	2.11757	0.893352	5.10635	1.00091	5.70373					0.774111	4.41906	0.953069	5.44012		
0.529718	3.00959	0.377501	2.11816	0.896937	5.09968							0.776295	4.40808	0.957173	5.43464		
0.53119	3.00206	0.379579	2.11875	0.900504	5.09298							0.778462	4.39713	0.961274	5.4292		
0.532665	2.99462	0.381658	2.11933	0.904053	5.08626							0.780614	4.3862	0.965371	5.4238		
0.534142	2.98728	0.383736	2.1199	0.907585	5.0795							0.782751	4.3753	0.969464	5.41843		
0.535621	2.98003	0.385814	2.12047	0.911099	5.07272							0.784872	4.36443	0.973552	5.41309		
0.537103	2.97286	0.387893	2.12103	0.914596	5.06591							0.786979	4.35359	0.977636	5.40778		
0.538587	2.96578	0.389971	2.12159	0.918075	5.05907							0.789071	4.34278	0.981714	5.4025		
0.540074	2.95879	0.392049	2.12213	0.921537	5.05221							0.791148	4.332	0.985788	5.39725		
0.541564	2.95188	0.394127	2.12268	0.924982	5.04532							0.793212	4.32125	0.989856	5.39202		
0.543056	2.94506	0.396205	2.12322	0.928409	5.03841							0.795262	4.31054	0.993919	5.38681		
0.544551	2.93832	0.398284	2.12375	0.931818	5.03147							0.797298	4.29986	0.997975	5.38162		
0.546048	2.93166	0.400362	2.12428	0.93521	5.02451							0.799321	4.28922	1.00203	5.37645		
0.547548	2.92508	0.40244	2.1248	0.938585	5.01753							0.801331	4.27862				
0.549051	2.91858	0.404518	2.12532	0.941943	5.01052							0.803328	4.26805				
0.550556	2.91216	0.406595	2.12583	0.945284	5.00349							0.805313	4.25752				
0.552063	2.90582	0.408673	2.12633	0.948607	4.99644							0.807285	4.24703				
0.553574	2.89955	0.410751	2.12683	0.951913	4.98937							0.809246	4.23657				
0.555087	2.89335	0.412829	2.12733	0.955202	4.98228							0.811194	4.22616				
0.556602	2.88723	0.414907	2.12782	0.958474	4.97517							0.813131	4.21579				
0.55812	2.88118	0.416985	2.12831	0.96173	4.96804							0.815057	4.20546				
0.559641	2.8752	0.419062	2.12879	0.964968	4.9609							0.816971	4.19517				
0.561164	2.86929	0.42114	2.12927	0.968189	4.95373							0.818875	4.18492				
0.56269	2.86345	0.423218	2.12974	0.971394	4.94655							0.820768	4.17472				
0.564219	2.85768	0.425295	2.1302	0.974582	4.93935							0.82265	4.16456				
0.56575	2.85198	0.427373	2.13067	0.977754	4.93213							0.824522	4.15444				
0.567284	2.84634	0.42945	2.13113	0.980909	4.9249							0.826384	4.14437				
0.56882	2.84077	0.431528	2.13158	0.984047	4.91765							0.828237	4.13434				
0.570359	2.83526	0.433605	2.13203	0.987169	4.91039							0.830079	4.12436				
0.5719	2.82982	0.435683	2.13248	0.990275	4.90312							0.831913	4.11442				
0.573444	2.82444	0.43776	2.13292	0.993365	4.89583							0.833737	4.10453				
0.574991	2.81912	0.439838	2.13336	0.996438	4.88853							0.835552	4.09468				
0.57654	2.81386	0.441915	2.13379	0.999495	4.88122							0.837358	4.08488				
0.578092	2.80866	0.443992	2.13422	1.00254	4.87389							0.839156	4.07513				
0.579646	2.80352	0.44607	2.13464									0.840945	4.06542				
0.581203	2.79844	0.448147	2.13506									0.842726	4.05577				
0.582762	2.79342	0.450224	2.13548									0.844499	4.04616				
0.584324	2.78845	0.452302	2.1359									0.846264	4.03659				
0.585889	2.78354	0.454379	2.13631									0.848021	4.02708				
0.587456	2.77869	0.456456	2.13671									0.849771	4.01761				
0.589025	2.77389	0.458533	2.13711									0.851514	4.0082				
0.590597	2.76914	0.46061	2.13751									0.853249	3.99883				
0.592171	2.76445	0.462687	2.13791									0.854977	3.98951				
0.593748	2.7598	0.464764	2.1383									0.856698	3.98023				
0.595328	2.75521	0.466841	2.13869									0.858413	3.97101				
0.59691	2.75067	0.468918	2.13907									0.860121	3.96184				
0.598494	2.74618	0.470995	2.13946									0.861823	3.95271				
0.600081	2.74174	0.473072	2.13983									0.863518	3.94364				
0.60167	2.73735	0.475149	2.14021									0.865208	3.93461				
0.603262	2.73301	0.477226	2.14058									0.866891	3.92563				
0.604856	2.72871	0.479303	2.14095									0.868569	3.91671				
0.606452	2.72446	0.48138	2.14132									0.870241	3.90783				
0.608051	2.72026	0.483457	2.14168									0.871907	3.899				
0.609652	2.7161	0.485534	2.14204									0.873568	3.89022				
0.611256	2.71199	0.48761	2.14239									0.875224	3.88149				
0.612862	2.70792	0.489687	2.14275									0.876875	3.87281				
0.61447	2.7039	0.491764	2.1431									0.878521	3.86417				
0.616081	2.69992	0.49384	2.14344									0.880162	3.85559				
0.617694	2.69598	0.495917	2.14379									0.881798	3.84706				
0.619309	2.69208	0.497994	2.14413									0.883429	3.83857				
0.620927	2.68823	0.50007	2.14447									0.885056	3.83014				
0.622547	2.68441	0.502147	2.1448									0.886679	3.82175				
0.624169	2.68064	0.504224	2.14514									0.888298	3.81341				
0.625794	2.6769	0.5063	2.14547									0.889912	3.80512				
0.627421	2.67321	0.508377	2.14579									0.891522	3.79688				
0.62905	2.66955	0.510453	2.14612									0.893128	3.78869				
0.630681	2.66593	0.51253	2.14644									0.894731	3.78054				
0.632315	2.66235	0.514606	2.14676									0.89633	3.77245				
0.633951	2.65881	0.516683	2.14708									0.897925	3.7644				
0.635589	2.65531	0.518759	2.14739									0.899516	3.7564				
0.637229	2.65184	0.520836	2.14771									0.901105	3.74845				
0.638871	2.6484	0.522912	2.14802									0.90269	3.74054				
0.640516	2.645	0.524989	2.14832									0.904271	3.73269				
0.642162	2.64164	0.527065	2.14863									0.90585	3.72488				
0.643811	2.63831	0.529141	2.14893									0.907425	3.71712				
0.645462	2.63502	0.531218	2.14923									0.908998	3.7094				
0.647116	2.63176	0.533294	2.14953									0.910568	3.70173				
0.648771	2.62853	0.53537	2.14982									0.912135	3.69411				
0.650428	2.62533	0.537446	2.15012									0.913699	3.68654				
0.652088	2.62217	0.539523	2.15041									0.915261	3.67901				
0.653749	2.61904	0.541599	2.1507									0.91682	3.67152				
0.655413	2.61594	0.543675	2.15098									0.918377	3.66409				
0.657079	2.61287	0.545751	2.15127									0.919931	3.6567				
0.658747	2.60984	0.547827	2.15155									0.921483	3.64935				
0.660417	2.60683	0.549904	2.15183									0.923033	3.64205				
0.662088	2.60385	0.55198	2.15211									0.924581	3.63479				
0.663762	2.60091	0.554056	2.15238									0.926126	3.62758				
0.665438	2.59799	0.556132	2.15266									0.92767	3.62042				
0.667116	2.5951	0.558208	2.15293									0.929212	3.6133				
0.668796	2.59224	0.560284	2.1532									0.930751	3.60622				
0.670478	2.58941	0.56236	2.15347									0.93229	3.59919				
0.672162	2.5866	0.564436	2.15373									0.933826	3.5922				
0.673847	2.58383	0.566512	2.154									0.935361	3.58525				
0.675535	2.58108	0.568588	2.15426									0.936894	3.57835				
0.677225	2.57835	0.570664	2.15452									0.938425	3.57149				
0.678916	2.57566	0.57274	2.15478									0.939955	3.56467				
0.68061	2.57299	0.574816	2.15503									0.941484	3.5579				
0.682305	2.57034	0.576892	2.15529									0.943011	3.55117				
0.684002	2.56772	0.578968	2.15554									0.944537	3.54448				
0.685702	2.56513	0.581044	2.15579									0.946062	3.53783				
0.687403	2.56256	0.58312	2.15604									0.947585	3.53122				
0.689105	2.56002	0.585196	2.15629									0.949108	3.52466				
0.69081	2.5575	0.587271	2.15653									0.950629	3.51813				
0.692517	2.555	0.589347	2.15678									0.952149	3.51165				
0.694225	2.55253	0.591423	2.15702									0.953668	3.50521				
0.695935	2.55009	0.593499	2.15726									0.955186	3.49881				
0.697647	2.54766	0.595575	2.1575									0.956704	3.49245				
0.699361	2.54526	0.59765	2.15773									0.95822	3.48613				
0.701076	2.54288	0.599726	2.15797									0.959736	3.47985				
0.702793	2.54052	0.601802	2.1582									0.961251	3.4736				
0.704512	2.53819	0.603878	2.15843									0.962765	3.4674				
0.706233	2.53588	0.605953	2.15867									0.964279	3.46124				
0.707956	2.53359	0.608029	2.15889									0.965791	3.45511				
0.70968	2.53132	0.610105	2.15912									0.967304	3.44903				
0.711406	2.52907	0.61218	2.15935									0.968815	3.44298				
0.713133	2.52684	0.614256	2.15957									0.970327	3.43697				
0.714863	2.52463	0.616332	2.15979									0.971837	3.431				
0.716594	2.52245	0.618407	2.16002									0.973348	3.42507				
0.718326	2.52028	0.620483	2.16024									0.974858	3.41917				
0.720061	2.51813	0.622558	2.16045									0.976367	3.41331				
0.721797	2.51601	0.624634	2.16067									0.977876	3.40749				
0.723534	2.5139	0.62671	2.16089									0.979385	3.4017				
0.725274	2.51181	0.628785	2.1611									0.980894	3.39595				
0.727015	2.50974	0.630861	2.16131									0.982402	3.39024				
0.728757	2.50769	0.632936	2.16152									0.98391	3.38456				
0.730501	2.50566	0.635012	2.16173									0.985419	3.37892				
0.732247	2.50365	0.637087	2.16194									0.986926	3.37331				
0.733994	2.50165	0.639163	2.16215									0.988434	3.36774				
0.735743	2.49967	0.641238	2.16235									0.989942	3.36221				
0.737493	2.49772	0.643314	2.16256									0.99145	3.3567				
0.739245	2.49577	0.645389	2.16276									0.992957	3.35124				
0.740999	2.49385	0.647464	2.16296									0.994465	3.34581				
0.742754	2.49194	0.64954	2.16316									0.995973	3.34041				
0.744511	2.49005	0.651615	2.16336									0.997481	3.33504				
0.746269	2.48818	0.653691	2.16356									0.998989	3.32971				
0.748028	2.48632	0.655766	2.16376									1.0005	3.32441				
0.749789	2.48448	0.657841	2.16395														
0.751552	2.48266	0.659917	2.16415														
0.753316	2.48085	0.661992	2.16434														
0.755081	2.47906	0.664067	2.16453														
0.756848	2.47728	0.666142	2.16472														
0.758617	2.47552	0.668218	2.16491														
0.760387	2.47377	0.670293	2.1651														
0.762158	2.47204	0.672368	2.16529														
0.763931	2.47033	0.674444	2.16547														
0.765705	2.46863	0.676519	2.16566														
0.767481	2.46694	0.678594	2.16584														
0.769258	2.46527	0.680669	2.16602														
0.771036	2.46361	0.682744	2.1662														
0.772816	2.46197	0.68482	2.16638														
0.774597	2.46034	0.686895	2.16656														
0.776379	2.45873	0.68897	2.16674														
0.778163	2.45713	0.691045	2.16692														
0.779948	2.45554	0.69312	2.16709														
0.781735	2.45397	0.695195	2.16727														
0.783523	2.45241	0.69727	2.16744														
0.785312	2.45086	0.699345	2.16761														
0.787103	2.44933	0.701421	2.16779														
0.788894	2.44781	0.703496	2.16796														
0.790687	2.4463	0.705571	2.16813														
0.792482	2.4448	0.707646	2.1683														
0.794278	2.44332	0.709721	2.16846														
0.796075	2.44185	0.711796	2.16863														
0.797873	2.44039	0.713871	2.16879														
0.799672	2.43894	0.715946	2.16896														
0.801473	2.43751	0.718021	2.16912														
0.803275	2.43609	0.720096	2.16929														
0.805078	2.43468	0.722171	2.16945														
0.806883	2.43328	0.724246	2.16961														
0.808689	2.43189	0.726321	2.16977														
0.810496	2.43051	0.728396	2.16993														
0.812304	2.42915	0.730471	2.17009														
0.814113	2.4278	0.732545	2.17024														
0.815924	2.42645	0.73462	2.1704														
0.817735	2.42512	0.736695	2.17055														
0.819548	2.4238	0.73877	2.17071														
0.821362	2.42249	0.740845	2.17086														
0.823177	2.42119	0.74292	2.17102														
0.824994	2.4199	0.744995	2.17117														
0.826811	2.41862	0.74707	2.17132														
0.82863	2.41736	0.749144	2.17147														
0.83045	2.4161	0.751219	2.17162														
0.832271	2.41485	0.753294	2.17177														
0.834093	2.41361	0.755369	2.17191														
0.835916	2.41238	0.757444	2.17206														
0.83774	2.41117	0.759518	2.17221														
0.839566	2.40996	0.761593	2.17235														
0.841392	2.40876	0.763668	2.1725														
0.84322	2.40757	0.765742	2.17264														
0.845049	2.40639	0.767817	2.17278														
0.846878	2.40522	0.769892	2.17293														
0.848709	2.40406	0.771967	2.17307														
0.850541	2.4029	0.774041	2.17321														
0.852374	2.40176	0.776116	2.17335														
0.854208	2.40062	0.778191	2.17349														
0.856043	2.3995	0.780265	2.17362														
0.857879	2.39838	0.78234	2.17376														
0.859716	2.39727	0.784415	2.1739														
0.861554	2.39617	0.786489	2.17403														
0.863394	2.39508	0.788564	2.17417														
0.865234	2.394	0.790638	2.1743														
0.867075	2.39293	0.792713	2.17444														
0.868917	2.39186	0.794788	2.17457														
0.87076	2.3908	0.796862	2.1747														
0.872605	2.38975	0.798937	2.17484														
0.87445	2.38871	0.801011	2.17497														
0.876296	2.38768	0.803086	2.1751														
0.878143	2.38665	0.80516	2.17523														
0.879991	2.38563	0.807235	2.17536														
0.88184	2.38462	0.809309	2.17548														
0.88369	2.38362	0.811384	2.17561														
0.885541	2.38262	0.813458	2.17574														
0.887393	2.38164	0.815533	2.17587														
0.889246	2.38066	0.817607	2.17599														
0.8911	2.37968	0.819682	2.17612														
0.892954	2.37872	0.821756	2.17624														
0.89481	2.37776	0.823831	2.17636														
0.896666	2.37681	0.825905	2.17649														
0.898524	2.37587	0.82798	2.17661														
0.900382	2.37493	0.830054	2.17673														
0.902242	2.374	0.832128	2.17685														
0.904102	2.37308	0.834203	2.17697														
0.905963	2.37216	0.836277	2.17709														
0.907825	2.37125	0.838352	2.17721														
0.909688	2.37035	0.840426	2.17733														
0.911551	2.36945	0.8425	2.17745														
0.913416	2.36856	0.844575	2.17757														
0.915281	2.36768	0.846649	2.17768														
0.917148	2.3668	0.848723	2.1778														
0.919015	2.36593	0.850798	2.17792														
0.920883	2.36507	0.852872	2.17803														
0.922752	2.36421	0.854946	2.17815														
0.924621	2.36336	0.857021	2.17826														
0.926492	2.36251	0.859095	2.17837														
0.928363	2.36168	0.861169	2.17849														
0.930235	2.36084	0.863243	2.1786														
0.932108	2.36002	0.865318	2.17871														
0.933982	2.35919	0.867392	2.17882														
0.935857	2.35838	0.869466	2.17893														
0.937732	2.35757	0.87154	2.17905														
0.939608	2.35677	0.873615	2.17915														
0.941486	2.35597	0.875689	2.17926														
0.943363	2.35518	0.877763	2.17937														
0.945242	2.35439	0.879837	2.17948														
0.947121	2.35361	0.881911	2.17959														
0.949002	2.35284	0.883986	2.1797														
0.950883	2.35207	0.88606	2.1798														
0.952764	2.3513	0.888134	2.17991														
0.954647	2.35054	0.890208	2.18001														
0.95653	2.34979	0.892282	2.18012														
0.958414	2.34904	0.894356	2.18022														
0.960299	2.3483	0.89643	2.18033														
0.962184	2.34756	0.898504	2.18043														
0.964071	2.34683	0.900579	2.18053														
0.965958	2.3461	0.902653	2.18064														
0.967846	2.34538	0.904727	2.18074														
0.969734	2.34466	0.906801	2.18084														
0.971623	2.34395	0.908875	2.18094														
0.973513	2.34324	0.910949	2.18104														
0.975404	2.34254	0.913023	2.18114														
0.977295	2.34184	0.915097	2.18124														
0.979187	2.34115	0.917171	2.18134														
0.98108	2.34046	0.919245	2.18144														
0.982974	2.33978	0.921319	2.18154														
0.984868	2.3391	0.923393	2.18164														
0.986763	2.33842	0.925467	2.18174														
0.988658	2.33775	0.927541	2.18183														
0.990555	2.33709	0.929615	2.18193														
0.992452	2.33643	0.931689	2.18203														
0.994349	2.33577	0.933763	2.18212														
0.996248	2.33512	0.935837	2.18222														
0.998147	2.33448	0.937911	2.18231														
1.00005	2.33383	0.939985	2.18241														
		0.942059	2.1825														
		0.944133	2.18259														
		0.946206	2.18269														
		0.94828	2.18278														
		0.950354	2.18287														
		0.952428	2.18296														
		0.954502	2.18306														
		0.956576	2.18315														
		0.95865	2.18324														
		0.960723	2.18333														
		0.962797	2.18342														
		0.964871	2.18351														
		0.966945	2.1836														
		0.969019	2.18368														
		0.971093	2.18377														
		0.973166	2.18386														
		0.97524	2.18395														
		0.977314	2.18404														
		0.979388	2.18412														
		0.981461	2.18421														
		0.983535	2.18429														
		0.985609	2.18438														
		0.987683	2.18447														
		0.989756	2.18455														
		0.99183	2.18463														
		0.993904	2.18472														
		0.995977	2.1848														
		0.998051	2.18489														
		1.00012	2.18497														
