Sym0		Asym0		Sym1		Sym2		Sym3		Sym4		Asym1		Asym2		Asym3	
466  Points		498  Points		224  Points		192  Points		179  Points		124  Points		328  Points		204  Points		167  Points	
Freq (MHz)	Vph (m/ms)	Freq (MHz)	Vph (m/ms)	Freq (MHz)	Vph (m/ms)	Freq (MHz)	Vph (m/ms)	Freq (MHz)	Vph (m/ms)	Freq (MHz)	Vph (m/ms)	Freq (MHz)	Vph (m/ms)	Freq (MHz)	Vph (m/ms)	Freq (MHz)	Vph (m/ms)
0.00325443	5.35503	0.000211476	2.16051	0.279509	2669.91	0.478409	712.088	0.559022	1260.09	0.838536	984.562	0.139766	443.54	0.419266	1325.8	0.698771	19659.5
0.00824359	5.35497	8.23071e-005	0.0799426	0.279551	269.737	0.478434	298.362	0.559064	406.494	0.838573	470.215	0.139932	112.232	0.419309	336.003	0.698787	722.456
0.0132323	5.35479	0.000297934	0.151908	0.279662	142.099	0.478479	188.732	0.55915	242.368	0.838635	308.881	0.140297	64.4007	0.419403	192.42	0.698833	368.013
0.0182204	5.35452	0.000645909	0.223269	0.279842	96.5046	0.478544	138.031	0.55928	172.685	0.838722	229.991	0.140858	45.289	0.419549	134.846	0.698908	246.909
0.0232078	5.35418	0.00112333	0.293707	0.28009	73.1024	0.47863	108.814	0.559452	134.148	0.838836	183.213	0.141611	35.0357	0.419746	103.82	0.699014	185.793
0.028194	5.35376	0.00172638	0.362962	0.280406	58.8697	0.478736	89.8137	0.559668	109.693	0.838975	152.26	0.142551	28.6617	0.419995	84.4259	0.699148	148.945
0.0331789	5.35325	0.00245047	0.43081	0.28079	49.3059	0.478862	76.471	0.559927	92.7983	0.83914	130.264	0.143675	24.3299	0.420294	71.159	0.699313	124.307
0.0381622	5.35264	0.00329013	0.497017	0.281242	42.4417	0.47901	66.5873	0.560229	80.4291	0.83933	113.83	0.144975	21.2046	0.420644	61.5148	0.699507	106.674
0.0431437	5.35196	0.00423975	0.561449	0.281761	37.2786	0.479178	58.9729	0.560574	70.984	0.839546	101.086	0.146445	18.8508	0.421046	54.19	0.699731	93.4332
0.0481233	5.3512	0.00529285	0.623927	0.282347	33.2566	0.479368	52.9273	0.560962	63.5371	0.839788	90.9162	0.148079	17.0198	0.421497	48.4397	0.699984	83.1256
0.0531005	5.35034	0.00644321	0.684368	0.282998	30.037	0.479579	48.0117	0.561392	57.5163	0.840055	82.6124	0.149868	15.5593	0.422	43.8069	0.700267	74.8749
0.0580751	5.3494	0.00768408	0.742673	0.283715	27.4033	0.479812	43.9368	0.561865	52.5487	0.840348	75.7048	0.151805	14.3704	0.422552	39.9959	0.700579	68.122
0.0630469	5.34836	0.00900907	0.798802	0.284497	25.2101	0.480066	40.5045	0.56238	48.3811	0.840666	69.869	0.153884	13.3865	0.423155	36.807	0.700921	62.4936
0.0680156	5.34724	0.0104117	0.852722	0.285342	23.3567	0.480344	37.5742	0.562937	44.8353	0.84101	64.8741	0.156096	12.5609	0.423807	34.1002	0.701292	57.731
0.072981	5.34602	0.0118857	0.904431	0.286251	21.7708	0.480643	35.0436	0.563536	41.7825	0.841379	60.5508	0.158434	11.8599	0.424509	31.7747	0.701693	53.6492
0.0779426	5.3447	0.0134252	0.953946	0.287222	20.3992	0.480966	32.8366	0.564176	39.1271	0.841774	56.7726	0.160892	11.2586	0.42526	29.7558	0.702122	50.1123
0.0829003	5.34329	0.0150244	1.00129	0.288255	19.2019	0.481313	30.8951	0.564858	36.7967	0.842194	53.4427	0.163125	10.8012	0.426059	27.9872	0.702581	47.0185
0.0878537	5.34177	0.016678	1.04651	0.289348	18.1483	0.481683	29.1741	0.56558	34.7356	0.842639	50.4861	0.165093	10.4525	0.426908	26.4257	0.70307	44.2896
0.0928026	5.34016	0.0183809	1.08967	0.290501	17.2147	0.482077	27.6383	0.566344	32.8999	0.843109	47.8436	0.166763	10.1891	0.427805	25.0372	0.703587	41.8651
0.0977465	5.33844	0.0201286	1.13081	0.291712	16.382	0.482497	26.2597	0.567147	31.2549	0.843605	45.4678	0.16811	9.99502	0.428749	23.795	0.704133	39.6969
0.102685	5.33662	0.0219167	1.17003	0.292981	15.6352	0.482941	25.0154	0.567991	29.7728	0.844126	43.3205	0.169115	9.8597	0.429741	22.6775	0.704708	37.7466
0.107618	5.33468	0.0237412	1.20738	0.294306	14.962	0.483411	23.887	0.568874	28.4306	0.844672	41.3705	0.169765	9.77619	0.43078	21.667	0.705312	35.9832
0.112545	5.33263	0.0255985	1.24294	0.295687	14.3524	0.483907	22.8591	0.569798	27.2098	0.845243	39.5917	0.170707	9.66013	0.431866	20.7493	0.705944	34.3812
0.117466	5.33046	0.0274852	1.27679	0.297122	13.798	0.48443	21.9191	0.57076	26.0947	0.845839	37.9629	0.171742	9.53908	0.432999	19.9124	0.706605	32.9197
0.12238	5.32818	0.0293984	1.309	0.298611	13.292	0.48498	21.0563	0.571761	25.0725	0.84646	36.4659	0.173167	9.38243	0.434177	19.1462	0.707295	31.581
0.127286	5.32577	0.0313351	1.33967	0.300151	12.8286	0.485558	20.2618	0.5728	24.1321	0.847106	35.0855	0.174999	9.19651	0.435401	18.4424	0.708013	30.3505
0.132186	5.32323	0.033293	1.36885	0.301742	12.4027	0.486164	19.5279	0.573878	23.2643	0.847777	33.8086	0.177256	8.98821	0.436669	17.794	0.70876	29.2156
0.137076	5.32056	0.0352696	1.39662	0.303383	12.0102	0.4868	18.848	0.574993	22.4612	0.848472	32.6242	0.17996	8.76446	0.437982	17.1947	0.709534	28.1658
0.141959	5.31776	0.0372631	1.42305	0.305073	11.6475	0.487464	18.2166	0.576146	21.7159	0.849192	31.5226	0.183132	8.53183	0.43934	16.6393	0.710337	27.192
0.146832	5.31481	0.0392715	1.44822	0.30681	11.3115	0.488159	17.6288	0.577336	21.0225	0.849937	30.4956	0.186375	8.32171	0.440741	16.1234	0.711168	26.2863
0.151695	5.31171	0.0412932	1.47219	0.308594	10.9994	0.488884	17.0803	0.578563	20.3759	0.850706	29.5358	0.189685	8.13124	0.442185	15.6431	0.712026	25.4419
0.156548	5.30847	0.0433265	1.49503	0.310185	10.7451	0.489641	16.5675	0.579826	19.7716	0.8515	28.637	0.193058	7.95799	0.443671	15.1949	0.712912	24.6528
0.16139	5.30506	0.045107	1.51405	0.311568	10.5403	0.49043	16.087	0.581125	19.2058	0.852318	27.7937	0.19649	7.79991	0.4452	14.7757	0.713826	23.914
0.166221	5.30149	0.0466303	1.52964	0.31273	10.3787	0.491252	15.6361	0.58246	18.6748	0.85316	27.0008	0.199978	7.65524	0.446771	14.3831	0.714768	23.2207
0.17104	5.29775	0.0478936	1.54213	0.31366	10.2555	0.492106	15.2122	0.583831	18.1758	0.854027	26.2541	0.203519	7.52249	0.448382	14.0146	0.715736	22.5691
0.175845	5.29382	0.0488946	1.55175	0.31435	10.1675	0.492995	14.813	0.585236	17.706	0.854917	25.5497	0.20711	7.40036	0.450034	13.6682	0.716732	21.9554
0.180637	5.28972	0.0496317	1.55868	0.314795	10.1122	0.493918	14.4366	0.586675	17.263	0.855832	24.8841	0.210747	7.28772	0.451727	13.3421	0.717755	21.3767
0.185415	5.28541	0.050104	1.56306	0.315437	10.0342	0.494877	14.0812	0.588149	16.8445	0.85677	24.2543	0.214429	7.1836	0.453458	13.0346	0.718805	20.8299
0.190177	5.2809	0.0507834	1.56927	0.316141	9.95125	0.495871	13.7451	0.589657	16.4488	0.857733	23.6576	0.218153	7.08714	0.455229	12.7441	0.719881	20.3127
0.194923	5.27619	0.0515228	1.57591	0.317107	9.84146	0.496903	13.4269	0.591199	16.074	0.858719	23.0914	0.221917	6.99761	0.457038	12.4696	0.720984	19.8227
0.199651	5.27125	0.0525295	1.58477	0.318342	9.70736	0.497971	13.1254	0.592773	15.7187	0.859728	22.5535	0.225718	6.91433	0.458885	12.2096	0.722114	19.3579
0.204362	5.26607	0.0538048	1.59569	0.319855	9.55192	0.499078	12.8392	0.594381	15.3813	0.860762	22.0419	0.229554	6.83673	0.46077	11.9632	0.72327	18.9164
0.209053	5.26066	0.0553496	1.60849	0.321658	9.37837	0.500223	12.5675	0.59602	15.0606	0.861818	21.5547	0.233424	6.76429	0.462691	11.7293	0.724451	18.4966
0.213724	5.25499	0.0571652	1.62296	0.323763	9.19009	0.501407	12.3091	0.597692	14.7555	0.862898	21.0902	0.237326	6.69656	0.464649	11.5072	0.725659	18.097
0.218373	5.24905	0.0592526	1.63887	0.325906	9.01256	0.502632	12.0632	0.599396	14.4648	0.864002	20.647	0.241258	6.63312	0.466643	11.2959	0.726893	17.7161
0.222999	5.24284	0.0613438	1.65409	0.328085	8.84493	0.503897	11.8291	0.601131	14.1877	0.865128	20.2237	0.245218	6.5736	0.468671	11.0948	0.728153	17.3527
0.227601	5.23633	0.0634382	1.66864	0.3303	8.68647	0.505204	11.6059	0.602897	13.9232	0.866278	19.8189	0.249205	6.5177	0.470467	10.9273	0.729437	17.0058
0.232177	5.22952	0.0655353	1.68257	0.332551	8.53649	0.506552	11.393	0.604694	13.6706	0.86745	19.4315	0.253217	6.4651	0.472019	10.7899	0.730748	16.6741
0.236726	5.22239	0.0676348	1.6959	0.334836	8.39439	0.507943	11.1898	0.606521	13.429	0.868645	19.0605	0.257253	6.41554	0.473316	10.6798	0.732083	16.3569
0.241246	5.21492	0.0697362	1.70868	0.337156	8.25962	0.50919	11.0202	0.608379	13.1979	0.869863	18.7048	0.261312	6.36879	0.474351	10.595	0.733443	16.0531
0.245736	5.2071	0.0718392	1.72092	0.339509	8.13166	0.51028	10.8808	0.610266	12.9765	0.871104	18.3636	0.265393	6.32462	0.475117	10.5338	0.734828	15.762
0.250194	5.19892	0.0739437	1.73266	0.341895	8.01008	0.511199	10.769	0.612182	12.7644	0.872367	18.036	0.269494	6.28285	0.475609	10.4951	0.736238	15.4828
0.254617	5.19035	0.0760492	1.74393	0.344315	7.89445	0.511938	10.6827	0.614127	12.561	0.873652	17.7212	0.273614	6.24328	0.47632	10.4403	0.737672	15.2149
0.259005	5.18138	0.0781556	1.75474	0.346768	7.78439	0.512488	10.6204	0.616102	12.3657	0.874959	17.4185	0.277752	6.20577	0.477097	10.3816	0.73913	14.9575
0.263354	5.17199	0.0802627	1.76512	0.349253	7.67957	0.512843	10.5811	0.618104	12.1782	0.876289	17.1273	0.281907	6.17016	0.478159	10.3033	0.740613	14.7101
0.267664	5.16217	0.0823703	1.7751	0.351772	7.57967	0.513357	10.5252	0.620135	11.9979	0.877641	16.847	0.286078	6.13632	0.479514	10.2066	0.742119	14.4723
0.271931	5.1519	0.0844783	1.7847	0.354324	7.48441	0.513921	10.4654	0.622193	11.8246	0.879014	16.5769	0.290264	6.10413	0.481169	10.0931	0.743649	14.2433
0.276154	5.14116	0.0865865	1.79392	0.356909	7.39351	0.514699	10.3855	0.624279	11.6578	0.88041	16.3165	0.294464	6.07346	0.483132	9.9646	0.745203	14.0228
0.28033	5.12992	0.0886948	1.80281	0.359528	7.30674	0.515697	10.2869	0.626392	11.4972	0.881827	16.0653	0.298678	6.04422	0.485415	9.82291	0.74678	13.8104
0.284457	5.11819	0.0908031	1.81136	0.362182	7.22388	0.516927	10.171	0.628532	11.3426	0.883265	15.823	0.302904	6.0163	0.487727	9.68708	0.74838	13.6055
0.288534	5.10594	0.0929113	1.81959	0.36487	7.14474	0.518403	10.0397	0.630419	11.2123	0.884725	15.5889	0.307141	5.98964	0.49007	9.55676	0.750003	13.4079
0.292556	5.09315	0.0950193	1.82753	0.367595	7.06911	0.52014	9.89476	0.632043	11.1045	0.886207	15.3628	0.31139	5.96413	0.492443	9.43167	0.751649	13.2172
0.296523	5.07981	0.0971272	1.83519	0.370356	6.99685	0.521925	9.75579	0.633397	11.0175	0.887709	15.1443	0.315649	5.9397	0.494845	9.31151	0.753317	13.033
0.300432	5.06592	0.0992347	1.84257	0.373154	6.92778	0.523756	9.62245	0.634474	10.9501	0.889232	14.9329	0.319917	5.91629	0.497275	9.19602	0.755008	12.8551
0.304281	5.05146	0.101342	1.8497	0.375992	6.86177	0.525636	9.49446	0.63527	10.9012	0.890777	14.7284	0.324194	5.89384	0.499734	9.08496	0.756721	12.683
0.308067	5.03642	0.103449	1.85658	0.378869	6.79868	0.527563	9.37156	0.635781	10.8702	0.892342	14.5304	0.328479	5.87227	0.50222	8.97809	0.758456	12.5167
0.31179	5.0208	0.105555	1.86323	0.381788	6.73839	0.529539	9.25351	0.636519	10.8262	0.893928	14.3387	0.332772	5.85155	0.504733	8.87519	0.760212	12.3557
0.315447	5.0046	0.107661	1.86965	0.384749	6.68079	0.531563	9.14006	0.637323	10.7789	0.895534	14.153	0.337071	5.8316	0.507274	8.77608	0.761991	12.1998
0.319036	4.98782	0.109767	1.87587	0.387753	6.62577	0.533635	9.03102	0.638422	10.7154	0.897161	13.973	0.341376	5.8124	0.50984	8.68057	0.763791	12.0489
0.322557	4.97046	0.111872	1.88188	0.390803	6.57323	0.535756	8.92618	0.639821	10.6367	0.898808	13.7984	0.345687	5.79388	0.512432	8.58846	0.765612	11.9027
0.326007	4.95253	0.113976	1.88769	0.393899	6.52308	0.537926	8.82534	0.641525	10.5437	0.900475	13.629	0.350002	5.77602	0.51505	8.49961	0.767454	11.761
0.329387	4.93405	0.11608	1.89332	0.397042	6.47523	0.540145	8.72832	0.643541	10.4376	0.902162	13.4647	0.354322	5.75876	0.517693	8.41386	0.769317	11.6236
0.332275	4.91749	0.118184	1.89878	0.400234	6.4296	0.542413	8.63496	0.645878	10.3196	0.903869	13.3052	0.358646	5.74209	0.52036	8.33105	0.770957	11.5072
0.334693	4.90306	0.120287	1.90406	0.403476	6.3861	0.544729	8.54509	0.64824	10.2054	0.905595	13.1502	0.362973	5.72595	0.523051	8.25106	0.772368	11.4104
0.336663	4.89091	0.122389	1.90919	0.406769	6.34465	0.547093	8.45855	0.650625	10.0949	0.907341	12.9997	0.367303	5.71032	0.525766	8.17376	0.773543	11.3319
0.338202	4.88117	0.124491	1.91415	0.410113	6.30519	0.549506	8.37522	0.653035	9.98787	0.909107	12.8534	0.371634	5.69517	0.528505	8.09902	0.774478	11.2709
0.339322	4.87394	0.126592	1.91897	0.41351	6.26762	0.551967	8.29494	0.655468	9.88423	0.910892	12.7112	0.375968	5.68047	0.531266	8.02674	0.775168	11.2266
0.340034	4.86927	0.128693	1.92365	0.416959	6.23189	0.554476	8.21758	0.657924	9.78381	0.912696	12.5729	0.380302	5.6662	0.53405	7.95679	0.775611	11.1985
0.341052	4.86253	0.130794	1.92819	0.42046	6.19792	0.557033	8.14303	0.660403	9.68648	0.91452	12.4384	0.384637	5.65232	0.536856	7.88909	0.776249	11.1584
0.342149	4.85514	0.132893	1.93261	0.424014	6.16563	0.559636	8.07116	0.662906	9.5921	0.916362	12.3075	0.388972	5.63882	0.539684	7.82353	0.776946	11.1152
0.343627	4.845	0.134993	1.93689	0.42762	6.13495	0.562287	8.00187	0.66543	9.50055	0.918223	12.1801	0.393306	5.62567	0.542533	7.76003	0.777898	11.0572
0.345472	4.83202	0.137091	1.94106	0.431279	6.10582	0.564984	7.93503	0.667977	9.41172	0.920102	12.056	0.39764	5.61286	0.545404	7.69849	0.779108	10.9851
0.347668	4.81611	0.13919	1.94511	0.434988	6.07816	0.567726	7.87056	0.670547	9.3255	0.922001	11.9352	0.401972	5.60035	0.548295	7.63885	0.780581	10.8995
0.350195	4.79717	0.141288	1.94905	0.438747	6.05191	0.570514	7.80836	0.673138	9.24178	0.92367	11.8324	0.406302	5.58814	0.551207	7.58101	0.782324	10.8014
0.353032	4.77508	0.143385	1.95288	0.442556	6.02698	0.573347	7.74833	0.67575	9.16048	0.925104	11.7466	0.410629	5.57621	0.554139	7.52491	0.784341	10.6917
0.355801	4.75264	0.145482	1.95661	0.446412	6.00333	0.576224	7.69038	0.678385	9.08149	0.926297	11.6769	0.414954	5.56453	0.557091	7.47048	0.786378	10.585
0.358505	4.7299	0.147578	1.96024	0.450314	5.98087	0.579145	7.63443	0.68104	9.00472	0.927245	11.6226	0.419275	5.5531	0.560063	7.41765	0.788434	10.4812
0.361146	4.70688	0.149674	1.96378	0.454261	5.95955	0.582109	7.58039	0.683716	8.9301	0.927945	11.5831	0.423592	5.54189	0.563054	7.36637	0.790508	10.3802
0.363725	4.68362	0.15177	1.96722	0.458251	5.93929	0.585115	7.5282	0.686413	8.85754	0.928394	11.5579	0.427905	5.5309	0.566064	7.31656	0.792601	10.2819
0.366244	4.66015	0.153865	1.97058	0.462282	5.92005	0.588162	7.47778	0.689131	8.78696	0.929042	11.5221	0.432213	5.5201	0.569092	7.26818	0.794713	10.1862
0.368706	4.63651	0.155959	1.97386	0.466353	5.90176	0.591251	7.42905	0.691869	8.7183	0.929748	11.4834	0.436515	5.50949	0.57214	7.22118	0.796843	10.093
0.371111	4.61272	0.158053	1.97705	0.470461	5.88436	0.59438	7.38195	0.694627	8.65149	0.930711	11.4315	0.440812	5.49906	0.575206	7.1755	0.798992	10.0022
0.373464	4.58881	0.160147	1.98016	0.474604	5.86781	0.597549	7.33641	0.697405	8.58645	0.931936	11.3666	0.445102	5.48878	0.57829	7.13109	0.801158	9.91367
0.375764	4.56482	0.162241	1.9832	0.47878	5.85203	0.600757	7.29237	0.700203	8.52313	0.933426	11.2895	0.449385	5.47865	0.581392	7.0879	0.803342	9.82739
0.378016	4.54078	0.164334	1.98616	0.482989	5.837	0.604002	7.24978	0.703021	8.46147	0.935186	11.2008	0.453661	5.46867	0.584511	7.0459	0.805544	9.74328
0.38022	4.51671	0.166426	1.98906	0.487227	5.82266	0.607285	7.20857	0.705858	8.4014	0.937222	11.1013	0.457929	5.45881	0.587649	7.00505	0.807763	9.66125
0.382379	4.49263	0.168519	1.99188	0.491492	5.80895	0.610605	7.1687	0.708714	8.34288	0.939276	11.0042	0.462189	5.44906	0.590803	6.9653	0.81	9.58123
0.384495	4.46857	0.170611	1.99464	0.495784	5.79586	0.61396	7.1301	0.711589	8.28585	0.941347	10.9093	0.466439	5.43943	0.593975	6.92661	0.812254	9.50316
0.386569	4.44456	0.172702	1.99734	0.5001	5.78332	0.617351	7.09273	0.714483	8.23026	0.943435	10.8168	0.470681	5.42989	0.597164	6.88895	0.814524	9.42697
0.388605	4.42061	0.174793	1.99998	0.504439	5.77131	0.620776	7.05654	0.717396	8.17607	0.94554	10.7263	0.474912	5.42044	0.600371	6.85229	0.816812	9.35259
0.390603	4.39674	0.176884	2.00255	0.508798	5.75979	0.624234	7.0215	0.720328	8.12322	0.947662	10.6379	0.479133	5.41108	0.603594	6.81659	0.819116	9.27998
0.392566	4.37298	0.178975	2.00507	0.513177	5.74873	0.627726	6.98754	0.723278	8.07168	0.9498	10.5516	0.483343	5.40178	0.606833	6.78182	0.821437	9.20906
0.394495	4.34932	0.181065	2.00753	0.517573	5.73809	0.631249	6.95463	0.726246	8.0214	0.951955	10.4672	0.487541	5.39256	0.61009	6.74795	0.823774	9.1398
0.396392	4.32581	0.183155	2.00994	0.521986	5.72785	0.634804	6.92274	0.729233	7.97235	0.954126	10.3847	0.491727	5.38338	0.613363	6.71495	0.826128	9.07213
0.398259	4.30243	0.185245	2.0123	0.526414	5.71798	0.638389	6.89181	0.732237	7.92448	0.956314	10.304	0.495901	5.37426	0.616652	6.6828	0.828497	9.00601
0.400097	4.27921	0.187334	2.01461	0.530855	5.70845	0.642005	6.86182	0.73526	7.87776	0.958518	10.2251	0.500062	5.36518	0.619958	6.65147	0.830882	8.94138
0.401907	4.25616	0.189423	2.01687	0.535309	5.69924	0.645649	6.83273	0.7383	7.83215	0.960738	10.1479	0.50421	5.35614	0.62328	6.62093	0.833283	8.8782
0.403691	4.23329	0.191512	2.01908	0.539773	5.69033	0.649322	6.80451	0.741358	7.78762	0.962974	10.0724	0.508343	5.34712	0.626619	6.59116	0.8357	8.81643
0.405451	4.21061	0.193601	2.02124	0.544248	5.68169	0.653023	6.77712	0.744433	7.74413	0.965225	9.99852	0.512461	5.33813	0.629974	6.56214	0.838133	8.75603
0.407188	4.18812	0.195689	2.02336	0.548731	5.67331	0.65675	6.75053	0.747526	7.70166	0.967492	9.92621	0.516565	5.32915	0.633345	6.53385	0.84058	8.69695
0.408902	4.16583	0.197777	2.02544	0.553222	5.66517	0.660504	6.72472	0.750637	7.66018	0.969775	9.85542	0.520652	5.32018	0.636733	6.50625	0.843043	8.63915
0.410596	4.14375	0.199865	2.02748	0.55772	5.65726	0.664284	6.69965	0.753764	7.61965	0.972073	9.78612	0.524724	5.31122	0.640136	6.47935	0.845521	8.58261
0.412269	4.12189	0.201952	2.02947	0.562224	5.64955	0.668088	6.6753	0.756909	7.58005	0.974386	9.71825	0.528778	5.30226	0.643556	6.45311	0.848014	8.52727
0.413924	4.10024	0.20404	2.03143	0.566732	5.64203	0.671917	6.65163	0.760071	7.54135	0.976715	9.65179	0.532816	5.29329	0.646992	6.42751	0.850522	8.4731
0.415562	4.07882	0.206127	2.03335	0.571244	5.63469	0.67577	6.62863	0.76325	7.50353	0.979058	9.58668	0.536835	5.28431	0.650444	6.40255	0.853045	8.42008
0.417183	4.05762	0.208214	2.03523	0.57576	5.62751	0.679645	6.60627	0.766446	7.46656	0.981417	9.5229	0.540836	5.27532	0.653913	6.37819	0.855583	8.36817
0.418788	4.03665	0.2103	2.03707	0.580278	5.62049	0.683543	6.58453	0.769659	7.43041	0.98379	9.4604	0.544818	5.2663	0.657397	6.35443	0.858135	8.31734
0.420378	4.01591	0.212387	2.03888	0.584798	5.61361	0.687463	6.56339	0.772889	7.39508	0.986178	9.39915	0.548781	5.25726	0.660898	6.33126	0.860701	8.26755
0.421954	3.99541	0.214473	2.04066	0.589318	5.60686	0.691404	6.54281	0.776136	7.36053	0.98858	9.33911	0.552724	5.24819	0.664415	6.30864	0.863282	8.21879
0.423517	3.97514	0.216559	2.0424	0.593839	5.60023	0.695366	6.52279	0.779399	7.32674	0.990996	9.28026	0.556647	5.23909	0.667948	6.28657	0.865876	8.17102
0.425068	3.95511	0.218645	2.04411	0.59836	5.59371	0.699347	6.5033	0.782679	7.29369	0.993427	9.22256	0.560549	5.22995	0.671497	6.26504	0.868486	8.12421
0.426606	3.93531	0.22073	2.04579	0.602879	5.58729	0.703349	6.48433	0.785976	7.26137	0.995872	9.16598	0.564429	5.22077	0.675063	6.24403	0.871109	8.07834
0.428134	3.91575	0.222816	2.04744	0.607396	5.58097	0.707368	6.46585	0.789289	7.22975	0.998331	9.11049	0.568288	5.21155	0.678645	6.22353	0.873746	8.03338
0.429652	3.89642	0.224901	2.04906	0.611912	5.57473	0.711407	6.44785	0.79262	7.19882	1.0008	9.05605	0.572124	5.20228	0.682242	6.20352	0.876397	7.98932
0.431159	3.87733	0.226986	2.05065	0.616424	5.56858	0.715462	6.43031	0.795967	7.16856			0.575938	5.19297	0.685856	6.18399	0.879061	7.94612
0.432658	3.85848	0.229071	2.05221	0.620933	5.5625	0.719535	6.41322	0.79933	7.13895			0.579728	5.1836	0.689487	6.16493	0.881739	7.90376
0.434148	3.83987	0.231156	2.05374	0.625439	5.55648	0.723625	6.39655	0.802711	7.10997			0.583495	5.17417	0.693133	6.14633	0.884431	7.86223
0.43563	3.82148	0.23324	2.05525	0.629939	5.55052	0.727731	6.3803	0.806108	7.08162			0.587238	5.1647	0.696795	6.12818	0.887137	7.8215
0.437104	3.80333	0.235325	2.05673	0.634435	5.54462	0.731852	6.36444	0.809521	7.05388			0.590957	5.15516	0.700474	6.11046	0.889856	7.78155
0.438572	3.78541	0.237409	2.05819	0.638926	5.53876	0.735989	6.34897	0.812952	7.02672			0.594651	5.14556	0.704168	6.09317	0.892588	7.74236
0.440033	3.76772	0.239493	2.05962	0.643411	5.53295	0.74014	6.33387	0.816399	7.00015			0.59832	5.1359	0.707879	6.07628	0.895333	7.70392
0.441488	3.75026	0.241577	2.06103	0.647889	5.52718	0.744304	6.31913	0.819863	6.97414			0.601963	5.12618	0.711605	6.05981	0.898092	7.6662
0.442937	3.73303	0.243661	2.06241	0.652361	5.52144	0.748483	6.30474	0.823344	6.94868			0.605581	5.11639	0.715347	6.04372	0.900864	7.62918
0.444381	3.71602	0.245745	2.06377	0.656826	5.51574	0.752674	6.29067	0.826842	6.92376			0.609173	5.10654	0.719104	6.02802	0.903649	7.59286
0.44582	3.69923	0.247828	2.06511	0.661283	5.51006	0.756878	6.27693	0.830357	6.89936			0.612738	5.09663	0.722877	6.01268	0.906447	7.55721
0.447254	3.68266	0.249912	2.06643	0.665733	5.5044	0.761094	6.2635	0.83389	6.87548			0.616277	5.08664	0.726666	5.99772	0.909258	7.52222
0.448685	3.66631	0.251995	2.06773	0.670174	5.49876	0.765322	6.25036	0.837439	6.85211			0.61979	5.0766	0.730469	5.9831	0.912082	7.48786
0.450111	3.65018	0.254078	2.069	0.674606	5.49314	0.76956	6.23752	0.841005	6.82923			0.623275	5.06648	0.734288	5.96883	0.914919	7.45414
0.451534	3.63426	0.256161	2.07026	0.67903	5.48753	0.77381	6.22495	0.844589	6.80684			0.626734	5.0563	0.738122	5.95489	0.917769	7.42102
0.452954	3.61856	0.258244	2.07149	0.683444	5.48193	0.778069	6.21265	0.848191	6.78491			0.630165	5.04605	0.74197	5.94128	0.920632	7.38851
0.454371	3.60306	0.260327	2.07271	0.687849	5.47633	0.782338	6.20061	0.85181	6.76346			0.633569	5.03574	0.745833	5.92799	0.923507	7.35658
0.455785	3.58777	0.262409	2.07391	0.692244	5.47074	0.786616	6.18881	0.855446	6.74245			0.636945	5.02536	0.74971	5.915	0.926395	7.32522
0.457197	3.57268	0.264492	2.07509	0.696628	5.46515	0.790902	6.17726	0.8591	6.72189			0.640295	5.01492	0.753601	5.90231	0.929295	7.29441
0.458607	3.5578	0.266574	2.07625	0.701002	5.45955	0.795197	6.16593	0.862772	6.70177			0.643616	5.00442	0.757506	5.88992	0.932209	7.26415
0.460015	3.54311	0.268656	2.07739	0.705364	5.45396	0.7995	6.15483	0.866463	6.68207			0.64691	4.99385	0.761424	5.8778	0.935134	7.23443
0.461422	3.52862	0.270739	2.07852	0.709716	5.44835	0.80381	6.14394	0.870171	6.6628			0.650176	4.98323	0.765356	5.86596	0.938073	7.20523
0.462827	3.51433	0.272821	2.07963	0.714056	5.44274	0.808126	6.13326	0.873897	6.64393			0.653414	4.97254	0.769301	5.85439	0.941023	7.17654
0.464231	3.50022	0.274903	2.08072	0.718384	5.43712	0.812449	6.12277	0.877642	6.62547			0.656625	4.96179	0.773258	5.84308	0.943987	7.14834
0.465633	3.48631	0.276985	2.0818	0.722701	5.43149	0.816778	6.11248	0.881406	6.60741			0.659809	4.95099	0.777227	5.83201	0.946962	7.12064
0.467035	3.47258	0.279066	2.08286	0.727005	5.42584	0.821113	6.10237	0.885188	6.58974			0.662965	4.94014	0.781209	5.82119	0.94995	7.09341
0.468437	3.45904	0.281148	2.0839	0.731296	5.42018	0.825453	6.09244	0.888988	6.57245			0.666093	4.92923	0.785202	5.81061	0.952951	7.06665
0.469838	3.44568	0.28323	2.08493	0.735574	5.4145	0.829797	6.08267	0.892808	6.55553			0.669195	4.91827	0.789207	5.80025	0.955963	7.04035
0.471238	3.4325	0.285311	2.08595	0.73984	5.4088	0.834145	6.07307	0.896647	6.53898			0.672269	4.90726	0.793222	5.79012	0.958988	7.0145
0.472639	3.41949	0.287393	2.08695	0.744092	5.40309	0.838497	6.06363	0.900505	6.5228			0.675316	4.8962	0.797248	5.7802	0.962025	6.98908
0.474039	3.40666	0.289474	2.08794	0.74833	5.39735	0.842853	6.05433	0.904382	6.50697			0.678336	4.8851	0.801285	5.77048	0.965075	6.9641
0.47544	3.394	0.291555	2.08891	0.752555	5.39159	0.847212	6.04518	0.908279	6.49149			0.681329	4.87395	0.805331	5.76097	0.968136	6.93953
0.476841	3.38151	0.293636	2.08987	0.756766	5.38581	0.851573	6.03617	0.912195	6.47636			0.684296	4.86276	0.809387	5.75165	0.97121	6.91538
0.478242	3.36919	0.295717	2.09082	0.760962	5.38	0.855936	6.02729	0.916131	6.46156			0.687236	4.85154	0.813452	5.74251	0.974295	6.89163
0.479644	3.35703	0.297798	2.09175	0.765144	5.37416	0.860301	6.01854	0.920087	6.44709			0.69015	4.84028	0.817526	5.73356	0.977393	6.86828
0.481046	3.34503	0.299879	2.09268	0.769311	5.3683	0.864667	6.00992	0.924062	6.43295			0.693039	4.82898	0.821608	5.72478	0.980503	6.84532
0.48245	3.3332	0.30196	2.09358	0.773464	5.36242	0.869035	6.00141	0.928058	6.41913			0.695901	4.81765	0.825698	5.71617	0.983625	6.82273
0.483854	3.32152	0.304041	2.09448	0.777601	5.3565	0.873403	5.99302	0.932074	6.40563			0.698738	4.80629	0.829795	5.70772	0.986759	6.80052
0.485259	3.30999	0.306121	2.09537	0.781723	5.35055	0.877771	5.98473	0.936109	6.39243			0.70155	4.7949	0.8339	5.69943	0.989904	6.77867
0.486665	3.29862	0.308202	2.09624	0.78583	5.34458	0.88214	5.97655	0.940166	6.37954			0.704337	4.78349	0.838012	5.69129	0.993062	6.75719
0.488073	3.2874	0.310282	2.0971	0.789921	5.33858	0.886508	5.96847	0.944242	6.36695			0.707099	4.77205	0.84213	5.6833	0.996231	6.73605
0.489482	3.27633	0.312363	2.09795	0.793996	5.33254	0.890875	5.96049	0.948339	6.35465			0.709836	4.76059	0.846254	5.67544	0.999413	6.71525
0.490892	3.2654	0.314443	2.09879	0.798055	5.32647	0.895242	5.95259	0.952456	6.34264			0.712549	4.74911	0.850383	5.66772	1.00261	6.6948
0.492303	3.25462	0.316523	2.09962	0.802099	5.32038	0.899607	5.94479	0.956593	6.33091			0.715239	4.73762	0.854518	5.66013		
0.493716	3.24398	0.318604	2.10043	0.806125	5.31424	0.903971	5.93708	0.960751	6.31946			0.717904	4.7261	0.858657	5.65267		
0.495131	3.23348	0.320684	2.10124	0.810136	5.30808	0.908334	5.92945	0.964929	6.30829			0.720546	4.71458	0.862801	5.64532		
0.496547	3.22312	0.322764	2.10204	0.81413	5.30188	0.912694	5.92189	0.969127	6.29738			0.723165	4.70305	0.866949	5.63809		
0.497965	3.21289	0.324844	2.10282	0.818108	5.29566	0.917052	5.91442	0.973346	6.28673			0.725762	4.69151	0.871101	5.63097		
0.499384	3.2028	0.326924	2.1036	0.822068	5.28939	0.921408	5.90702	0.977585	6.27634			0.728335	4.67996	0.875255	5.62396		
0.500806	3.19284	0.329004	2.10437	0.826012	5.2831	0.925762	5.89969	0.981843	6.2662			0.730887	4.6684	0.879413	5.61705		
0.502229	3.183	0.331083	2.10513	0.829939	5.27677	0.930113	5.89243	0.986122	6.2563			0.733416	4.65685	0.883573	5.61023		
0.503654	3.1733	0.333163	2.10588	0.833848	5.2704	0.934461	5.88524	0.990421	6.24665			0.735924	4.64529	0.887736	5.60351		
0.505082	3.16372	0.335243	2.10662	0.83774	5.26401	0.938806	5.87811	0.99474	6.23724			0.738411	4.63373	0.8919	5.59688		
0.506511	3.15426	0.337323	2.10735	0.841615	5.25758	0.943148	5.87105	0.999078	6.22806			0.740876	4.62218	0.896065	5.59034		
0.507942	3.14493	0.339402	2.10807	0.845473	5.25111	0.947487	5.86405	1.00344	6.2191			0.743321	4.61063	0.900232	5.58387		
0.509376	3.13572	0.341482	2.10878	0.849313	5.24461	0.951823	5.85711					0.745745	4.59909	0.904399	5.57749		
0.510811	3.12662	0.343561	2.10948	0.853136	5.23808	0.956155	5.85023					0.748149	4.58756	0.908566	5.57118		
0.512249	3.11764	0.345641	2.11018	0.85694	5.23151	0.960484	5.84341					0.750534	4.57604	0.912734	5.56494		
0.513689	3.10878	0.34772	2.11087	0.860728	5.22492	0.96481	5.83664					0.752899	4.56453	0.916901	5.55877		
0.515132	3.10003	0.349799	2.11155	0.864497	5.21828	0.969132	5.82993					0.755244	4.55303	0.921068	5.55267		
0.516576	3.09139	0.351878	2.11222	0.868248	5.21162	0.973451	5.82327					0.757571	4.54155	0.925233	5.54662		
0.518023	3.08286	0.353958	2.11288	0.871982	5.20492	0.977767	5.81667					0.759879	4.53008	0.929397	5.54064		
0.519473	3.07444	0.356037	2.11354	0.875698	5.19819	0.982079	5.81011					0.762169	4.51863	0.933559	5.53471		
0.520924	3.06612	0.358116	2.11419	0.879396	5.19143	0.986387	5.80361					0.76444	4.5072	0.93772	5.52884		
0.522378	3.05791	0.360195	2.11483	0.883075	5.18464	0.990692	5.79716					0.766694	4.4958	0.941877	5.52301		
0.523835	3.0498	0.362274	2.11547	0.886737	5.17781	0.994994	5.79076					0.768931	4.48441	0.946033	5.51724		
0.525294	3.0418	0.364353	2.11609	0.890381	5.17096	0.999292	5.78441					0.77115	4.47305	0.950185	5.5115		
0.526755	3.03389	0.366432	2.11671	0.894007	5.16407	1.00359	5.77811					0.773353	4.46171	0.954334	5.50582		
0.528219	3.02609	0.368511	2.11733	0.897615	5.15716							0.775539	4.4504	0.95848	5.50017		
0.529686	3.01838	0.37059	2.11793	0.901204	5.15021							0.777708	4.43912	0.962621	5.49456		
0.531154	3.01076	0.372668	2.11853	0.904776	5.14324							0.779862	4.42786	0.966759	5.48898		
0.532626	3.00324	0.374747	2.11913	0.90833	5.13624							0.782	4.41664	0.970892	5.48344		
0.5341	2.99582	0.376826	2.11971	0.911865	5.12921							0.784122	4.40545	0.97502	5.47793		
0.535576	2.98848	0.378904	2.12029	0.915383	5.12215							0.78623	4.39428	0.979143	5.47245		
0.537056	2.98123	0.380983	2.12087	0.918882	5.11507							0.788322	4.38315	0.983261	5.467		
0.538537	2.97408	0.383062	2.12143	0.922364	5.10796							0.7904	4.37206	0.987374	5.46157		
0.540022	2.96701	0.38514	2.122	0.925828	5.10082							0.792464	4.361	0.99148	5.45617		
0.541508	2.96003	0.387219	2.12255	0.929274	5.09366							0.794513	4.34997	0.995581	5.45079		
0.542998	2.95313	0.389297	2.1231	0.932702	5.08647							0.796549	4.33899	0.999675	5.44543		
0.54449	2.94631	0.391375	2.12365	0.936112	5.07926							0.798571	4.32804	1.00376	5.44009		
0.545985	2.93958	0.393454	2.12419	0.939504	5.07203							0.80058	4.31712				
0.547482	2.93293	0.395532	2.12472	0.942879	5.06477							0.802576	4.30625				
0.548982	2.92636	0.39761	2.12525	0.946236	5.05749							0.804559	4.29542				
0.550485	2.91987	0.399689	2.12577	0.949575	5.05019							0.80653	4.28463				
0.55199	2.91345	0.401767	2.12628	0.952897	5.04287							0.808488	4.27388				
0.553498	2.90712	0.403845	2.1268	0.956201	5.03553							0.810434	4.26317				
0.555008	2.90085	0.405923	2.1273	0.959488	5.02816							0.812369	4.2525				
0.556521	2.89467	0.408001	2.1278	0.962757	5.02078							0.814292	4.24188				
0.558037	2.88855	0.410079	2.1283	0.966009	5.01338							0.816204	4.2313				
0.559555	2.88251	0.412157	2.12879	0.969244	5.00597							0.818104	4.22077				
0.561076	2.87654	0.414235	2.12928	0.972461	4.99853							0.819994	4.21028				
0.5626	2.87064	0.416313	2.12976	0.975662	4.99108							0.821873	4.19984				
0.564126	2.86481	0.418391	2.13024	0.978845	4.98361							0.823742	4.18944				
0.565655	2.85904	0.420469	2.13071	0.982012	4.97613							0.8256	4.17909				
0.567186	2.85335	0.422547	2.13117	0.985161	4.96863							0.827449	4.16879				
0.56872	2.84772	0.424625	2.13164	0.988294	4.96112							0.829287	4.15853				
0.570257	2.84215	0.426702	2.1321	0.99141	4.95359							0.831116	4.14832				
0.571796	2.83665	0.42878	2.13255	0.994509	4.94605							0.832936	4.13816				
0.573338	2.83122	0.430858	2.133	0.997592	4.9385							0.834747	4.12805				
0.574883	2.82584	0.432936	2.13345	1.00066	4.93094							0.836549	4.11799				
0.57643	2.82053	0.435013	2.13389									0.838342	4.10797				
0.577979	2.81528	0.437091	2.13432									0.840126	4.09801				
0.579532	2.81008	0.439168	2.13476									0.841902	4.08809				
0.581086	2.80495	0.441246	2.13519									0.84367	4.07823				
0.582644	2.79988	0.443324	2.13561									0.84543	4.06841				
0.584204	2.79486	0.445401	2.13603									0.847182	4.05864				
0.585766	2.7899	0.447479	2.13645									0.848927	4.04893				
0.587331	2.78499	0.449556	2.13686									0.850664	4.03927				
0.588899	2.78014	0.451634	2.13727									0.852394	4.02965				
0.590469	2.77535	0.453711	2.13768									0.854116	4.02009				
0.592041	2.77061	0.455788	2.13808									0.855832	4.01058				
0.593616	2.76592	0.457866	2.13848									0.857541	4.00112				
0.595194	2.76128	0.459943	2.13887									0.859243	3.99171				
0.596774	2.7567	0.46202	2.13926									0.860939	3.98235				
0.598356	2.75216	0.464098	2.13965									0.862629	3.97304				
0.599941	2.74768	0.466175	2.14004									0.864312	3.96378				
0.601529	2.74324	0.468252	2.14042									0.865989	3.95458				
0.603118	2.73885	0.470329	2.1408									0.867661	3.94543				
0.604711	2.73452	0.472406	2.14117									0.869327	3.93632				
0.606305	2.73022	0.474484	2.14154									0.870987	3.92727				
0.607903	2.72598	0.476561	2.14191									0.872642	3.91827				
0.609502	2.72178	0.478638	2.14227									0.874291	3.90933				
0.611104	2.71763	0.480715	2.14264									0.875936	3.90043				
0.612708	2.71352	0.482792	2.14299									0.877575	3.89158				
0.614315	2.70946	0.484869	2.14335									0.879209	3.88279				
0.615924	2.70543	0.486946	2.1437									0.880839	3.87405				
0.617536	2.70146	0.489023	2.14405									0.882464	3.86535				
0.619149	2.69752	0.4911	2.1444									0.884084	3.85671				
0.620765	2.69363	0.493177	2.14474									0.885701	3.84812				
0.622384	2.68978	0.495254	2.14508									0.887312	3.83958				
0.624005	2.68597	0.497331	2.14542									0.88892	3.83109				
0.625627	2.6822	0.499408	2.14575									0.890523	3.82266				
0.627253	2.67847	0.501484	2.14609									0.892123	3.81427				
0.62888	2.67477	0.503561	2.14642									0.893719	3.80593				
0.63051	2.67112	0.505638	2.14674									0.895311	3.79764				
0.632142	2.66751	0.507715	2.14707									0.896899	3.7894				
0.633777	2.66393	0.509792	2.14739									0.898484	3.78121				
0.635413	2.66039	0.511868	2.14771									0.900065	3.77308				
0.637052	2.65689	0.513945	2.14802									0.901643	3.76499				
0.638693	2.65342	0.516022	2.14834									0.903218	3.75695				
0.640336	2.64999	0.518098	2.14865									0.90479	3.74895				
0.641981	2.64659	0.520175	2.14896									0.906359	3.74101				
0.643629	2.64323	0.522252	2.14927									0.907924	3.73312				
0.645278	2.63991	0.524328	2.14957									0.909487	3.72527				
0.64693	2.63661	0.526405	2.14987									0.911047	3.71748				
0.648584	2.63336	0.528482	2.15017									0.912605	3.70973				
0.65024	2.63013	0.530558	2.15047									0.91416	3.70203				
0.651899	2.62694	0.532635	2.15076									0.915712	3.69438				
0.653559	2.62378	0.534711	2.15105									0.917262	3.68677				
0.655221	2.62065	0.536788	2.15134									0.918809	3.67921				
0.656886	2.61755	0.538864	2.15163									0.920354	3.6717				
0.658552	2.61449	0.540941	2.15192									0.921897	3.66424				
0.660221	2.61145	0.543017	2.1522									0.923438	3.65682				
0.661891	2.60845	0.545093	2.15248									0.924977	3.64945				
0.663564	2.60547	0.54717	2.15276									0.926513	3.64212				
0.665239	2.60253	0.549246	2.15304									0.928048	3.63484				
0.666915	2.59961	0.551323	2.15331									0.929581	3.62761				
0.668594	2.59672	0.553399	2.15359									0.931112	3.62042				
0.670275	2.59386	0.555475	2.15386									0.932642	3.61328				
0.671957	2.59103	0.557552	2.15413									0.93417	3.60618				
0.673642	2.58823	0.559628	2.15439									0.935696	3.59913				
0.675328	2.58546	0.561704	2.15466									0.93722	3.59212				
0.677017	2.58271	0.563781	2.15492									0.938744	3.58515				
0.678707	2.57999	0.565857	2.15518									0.940265	3.57823				
0.6804	2.57729	0.567933	2.15544									0.941786	3.57136				
0.682094	2.57462	0.570009	2.1557									0.943305	3.56452				
0.68379	2.57198	0.572086	2.15595									0.944823	3.55773				
0.685488	2.56936	0.574162	2.15621									0.946339	3.55099				
0.687188	2.56677	0.576238	2.15646									0.947855	3.54428				
0.68889	2.5642	0.578314	2.15671									0.949369	3.53762				
0.690593	2.56166	0.58039	2.15696									0.950883	3.531				
0.692299	2.55914	0.582466	2.1572									0.952395	3.52443				
0.694006	2.55665	0.584542	2.15745									0.953907	3.51789				
0.695715	2.55418	0.586619	2.15769									0.955417	3.5114				
0.697426	2.55173	0.588695	2.15793									0.956927	3.50494				
0.699139	2.54931	0.590771	2.15817									0.958436	3.49853				
0.700853	2.54691	0.592847	2.15841									0.959944	3.49216				
0.702569	2.54453	0.594923	2.15865									0.961452	3.48583				
0.704287	2.54217	0.596999	2.15888									0.962959	3.47954				
0.706007	2.53984	0.599075	2.15911									0.964465	3.47329				
0.707729	2.53753	0.601151	2.15934									0.965971	3.46708				
0.709452	2.53523	0.603227	2.15957									0.967476	3.46091				
0.711177	2.53297	0.605303	2.1598									0.96898	3.45477				
0.712903	2.53072	0.607379	2.16003									0.970485	3.44868				
0.714632	2.52849	0.609455	2.16025									0.971988	3.44263				
0.716362	2.52628	0.611531	2.16048									0.973492	3.43661				
0.718094	2.5241	0.613606	2.1607									0.974995	3.43063				
0.719827	2.52193	0.615682	2.16092									0.976497	3.42469				
0.721562	2.51979	0.617758	2.16114									0.978	3.41879				
0.723299	2.51766	0.619834	2.16135									0.979502	3.41293				
0.725037	2.51555	0.62191	2.16157									0.981004	3.4071				
0.726777	2.51346	0.623986	2.16178									0.982506	3.40131				
0.728519	2.51139	0.626062	2.162									0.984007	3.39556				
0.730262	2.50934	0.628137	2.16221									0.985509	3.38984				
0.732007	2.50731	0.630213	2.16242									0.98701	3.38416				
0.733753	2.5053	0.632289	2.16263									0.988512	3.37851				
0.735501	2.5033	0.634365	2.16284									0.990013	3.3729				
0.737251	2.50133	0.63644	2.16304									0.991514	3.36733				
0.739002	2.49937	0.638516	2.16325									0.993016	3.36179				
0.740755	2.49743	0.640592	2.16345									0.994517	3.35629				
0.742509	2.4955	0.642668	2.16365									0.996019	3.35082				
0.744265	2.49359	0.644743	2.16385									0.99752	3.34539				
0.746022	2.4917	0.646819	2.16405									0.999022	3.33999				
0.747781	2.48983	0.648895	2.16425									1.00052	3.33462				
0.749541	2.48797	0.65097	2.16445														
0.751303	2.48613	0.653046	2.16464														
0.753066	2.48431	0.655122	2.16484														
0.754831	2.4825	0.657197	2.16503														
0.756597	2.48071	0.659273	2.16522														
0.758365	2.47893	0.661348	2.16541														
0.760134	2.47717	0.663424	2.1656														
0.761905	2.47542	0.6655	2.16579														
0.763677	2.47369	0.667575	2.16598														
0.76545	2.47198	0.669651	2.16616														
0.767225	2.47028	0.671726	2.16635														
0.769001	2.46859	0.673802	2.16653														
0.770779	2.46692	0.675877	2.16672														
0.772558	2.46526	0.677953	2.1669														
0.774339	2.46362	0.680028	2.16708														
0.77612	2.46199	0.682104	2.16726														
0.777904	2.46037	0.684179	2.16744														
0.779688	2.45877	0.686255	2.16761														
0.781474	2.45719	0.68833	2.16779														
0.783261	2.45561	0.690405	2.16796														
0.78505	2.45405	0.692481	2.16814														
0.78684	2.4525	0.694556	2.16831														
0.788631	2.45097	0.696632	2.16848														
0.790423	2.44945	0.698707	2.16865														
0.792217	2.44794	0.700782	2.16882														
0.794012	2.44644	0.702858	2.16899														
0.795809	2.44496	0.704933	2.16916														
0.797606	2.44349	0.707008	2.16933														
0.799405	2.44203	0.709084	2.16949														
0.801205	2.44058	0.711159	2.16966														
0.803007	2.43914	0.713234	2.16982														
0.804809	2.43772	0.715309	2.16998														
0.806613	2.43631	0.717385	2.17014														
0.808418	2.43491	0.71946	2.17031														
0.810225	2.43352	0.721535	2.17047														
0.812032	2.43214	0.723611	2.17062														
0.813841	2.43078	0.725686	2.17078														
0.815651	2.42942	0.727761	2.17094														
0.817462	2.42808	0.729836	2.1711														
0.819275	2.42675	0.731911	2.17125														
0.821088	2.42543	0.733987	2.17141														
0.822903	2.42412	0.736062	2.17156														
0.824719	2.42281	0.738137	2.17171														
0.826536	2.42153	0.740212	2.17186														
0.828354	2.42025	0.742287	2.17202														
0.830173	2.41898	0.744362	2.17217														
0.831994	2.41772	0.746437	2.17231														
0.833815	2.41647	0.748513	2.17246														
0.835638	2.41523	0.750588	2.17261														
0.837462	2.414	0.752663	2.17276														
0.839287	2.41278	0.754738	2.1729														
0.841113	2.41157	0.756813	2.17305														
0.84294	2.41037	0.758888	2.17319														
0.844768	2.40918	0.760963	2.17334														
0.846597	2.408	0.763038	2.17348														
0.848428	2.40683	0.765113	2.17362														
0.850259	2.40566	0.767188	2.17376														
0.852092	2.40451	0.769263	2.1739														
0.853925	2.40336	0.771338	2.17404														
0.85576	2.40223	0.773413	2.17418														
0.857595	2.4011	0.775488	2.17432														
0.859432	2.39998	0.777563	2.17446														
0.86127	2.39887	0.779638	2.17459														
0.863109	2.39777	0.781713	2.17473														
0.864948	2.39668	0.783788	2.17487														
0.866789	2.3956	0.785863	2.175														
0.868631	2.39452	0.787938	2.17513														
0.870474	2.39345	0.790012	2.17527														
0.872317	2.3924	0.792087	2.1754														
0.874162	2.39134	0.794162	2.17553														
0.876008	2.3903	0.796237	2.17566														
0.877855	2.38927	0.798312	2.17579														
0.879702	2.38824	0.800387	2.17592														
0.881551	2.38722	0.802462	2.17605														
0.883401	2.38621	0.804536	2.17618														
0.885251	2.3852	0.806611	2.17631														
0.887103	2.38421	0.808686	2.17643														
0.888955	2.38322	0.810761	2.17656														
0.890809	2.38224	0.812836	2.17669														
0.892663	2.38126	0.814911	2.17681														
0.894518	2.3803	0.816985	2.17694														
0.896375	2.37934	0.81906	2.17706														
0.898232	2.37838	0.821135	2.17718														
0.90009	2.37744	0.82321	2.1773														
0.901949	2.3765	0.825284	2.17743														
0.903808	2.37557	0.827359	2.17755														
0.905669	2.37464	0.829434	2.17767														
0.907531	2.37373	0.831508	2.17779														
0.909393	2.37282	0.833583	2.17791														
0.911257	2.37191	0.835658	2.17803														
0.913121	2.37101	0.837733	2.17814														
0.914986	2.37012	0.839807	2.17826														
0.916852	2.36924	0.841882	2.17838														
0.918719	2.36836	0.843957	2.17849														
0.920587	2.36749	0.846031	2.17861														
0.922455	2.36662	0.848106	2.17873														
0.924324	2.36577	0.85018	2.17884														
0.926195	2.36491	0.852255	2.17895														
0.928066	2.36407	0.85433	2.17907														
0.929938	2.36323	0.856404	2.17918														
0.93181	2.36239	0.858479	2.17929														
0.933684	2.36156	0.860553	2.1794														
0.935558	2.36074	0.862628	2.17952														
0.937433	2.35992	0.864703	2.17963														
0.939309	2.35911	0.866777	2.17974														
0.941186	2.35831	0.868852	2.17985														
0.943064	2.35751	0.870926	2.17996														
0.944942	2.35672	0.873001	2.18006														
0.946821	2.35593	0.875075	2.18017														
0.948701	2.35515	0.87715	2.18028														
0.950582	2.35437	0.879224	2.18039														
0.952463	2.3536	0.881299	2.18049														
0.954346	2.35283	0.883373	2.1806														
0.956229	2.35207	0.885448	2.1807														
0.958113	2.35132	0.887522	2.18081														
0.959997	2.35057	0.889597	2.18091														
0.961882	2.34982	0.891671	2.18102														
0.963768	2.34908	0.893745	2.18112														
0.965655	2.34835	0.89582	2.18122														
0.967543	2.34762	0.897894	2.18133														
0.969431	2.3469	0.899969	2.18143														
0.97132	2.34618	0.902043	2.18153														
0.97321	2.34547	0.904118	2.18163														
0.9751	2.34476	0.906192	2.18173														
0.976991	2.34405	0.908266	2.18183														
0.978883	2.34335	0.910341	2.18193														
0.980776	2.34266	0.912415	2.18203														
0.982669	2.34197	0.914489	2.18213														
0.984563	2.34128	0.916564	2.18223														
0.986458	2.3406	0.918638	2.18233														
0.988353	2.33993	0.920712	2.18242														
0.99025	2.33926	0.922787	2.18252														
0.992146	2.33859	0.924861	2.18262														
0.994044	2.33793	0.926935	2.18271														
0.995942	2.33727	0.92901	2.18281														
0.997841	2.33662	0.931084	2.1829														
0.99974	2.33597	0.933158	2.183														
1.00164	2.33533	0.935232	2.18309														
		0.937307	2.18319														
		0.939381	2.18328														
		0.941455	2.18337														
		0.943529	2.18346														
		0.945604	2.18356														
		0.947678	2.18365														
		0.949752	2.18374														
		0.951826	2.18383														
		0.9539	2.18392														
		0.955975	2.18401														
		0.958049	2.1841														
		0.960123	2.18419														
		0.962197	2.18428														
		0.964271	2.18437														
		0.966345	2.18446														
		0.96842	2.18454														
		0.970494	2.18463														
		0.972568	2.18472														
		0.974642	2.1848														
		0.976716	2.18489														
		0.97879	2.18498														
		0.980864	2.18506														
		0.982938	2.18515														
		0.985012	2.18523														
		0.987086	2.18532														
		0.98916	2.1854														
		0.991234	2.18548														
		0.993308	2.18557														
		0.995382	2.18565														
		0.997457	2.18573														
		0.999531	2.18581														
		1.0016	2.1859														
