Sym0		Asym0		Sym1		Sym2		Sym3		Sym4		Asym1		Asym2		Asym3	
466  Points		495  Points		228  Points		195  Points		182  Points		126  Points		330  Points		207  Points		169  Points	
Freq (MHz)	Vph (m/ms)	Freq (MHz)	Vph (m/ms)	Freq (MHz)	Vph (m/ms)	Freq (MHz)	Vph (m/ms)	Freq (MHz)	Vph (m/ms)	Freq (MHz)	Vph (m/ms)	Freq (MHz)	Vph (m/ms)	Freq (MHz)	Vph (m/ms)	Freq (MHz)	Vph (m/ms)
0.00305364	5.26324	0.000503255	0.195541	0.279509	4850.06	0.477031	841.544	0.559021	1332.12	0.838535	1035.15	0.139763	495.169	0.419265	1411.42	0.698785	761.837
0.00795723	5.26315	0.000929438	0.265149	0.279546	282.562	0.477052	318.343	0.559061	413.708	0.838569	481.451	0.139918	115.259	0.419306	341.247	0.698828	377.963
0.0128605	5.263	0.0014807	0.333713	0.279649	145.573	0.477094	196.315	0.559143	244.912	0.838628	313.687	0.140265	65.3722	0.419396	194.125	0.698899	251.346
0.0177632	5.26276	0.00215287	0.401002	0.279819	98.0886	0.477155	141.928	0.559267	173.97	0.838711	232.643	0.140803	45.7547	0.419536	135.678	0.698999	188.292
0.0226652	5.26245	0.00294103	0.466799	0.280054	74.0021	0.477235	111.15	0.559433	134.919	0.83882	184.891	0.141527	35.302	0.419725	104.31	0.699127	150.544
0.0275661	5.26206	0.00383985	0.530943	0.280356	59.4465	0.477336	91.3504	0.55964	110.206	0.838953	153.415	0.142434	28.8286	0.419964	84.7466	0.699285	125.416
0.0324659	5.26159	0.00484327	0.59326	0.280722	49.7047	0.477456	77.5466	0.559889	93.1624	0.839111	131.106	0.143519	24.4395	0.420252	71.3838	0.69947	107.488
0.0373642	5.26105	0.00594522	0.653643	0.281154	42.7319	0.477597	67.3742	0.56018	80.7	0.839294	114.471	0.144776	21.2777	0.42059	61.6799	0.699685	94.055
0.0422609	5.26042	0.00713943	0.712006	0.281651	37.4975	0.477758	59.5677	0.560512	71.1924	0.839501	101.59	0.146199	18.8989	0.420976	54.3152	0.699928	83.6154
0.0471558	5.25973	0.00841948	0.768277	0.282211	33.4259	0.477939	53.3885	0.560886	63.7016	0.839734	91.3219	0.14778	17.0499	0.421412	48.5368	0.700199	75.27
0.0520485	5.25894	0.0097792	0.822431	0.282836	30.1705	0.478141	48.3763	0.561301	57.6486	0.839991	82.9456	0.149514	15.5757	0.421896	43.8835	0.700499	68.4469
0.0569389	5.25808	0.0112123	0.874439	0.283523	27.5098	0.478365	44.2295	0.561757	52.6567	0.840272	75.9829	0.151394	14.3761	0.422429	40.057	0.700827	62.765
0.0618267	5.25714	0.012713	0.924315	0.284273	25.2958	0.478609	40.7424	0.562254	48.4702	0.840579	70.1043	0.15341	13.3836	0.42301	36.8559	0.701184	57.9607
0.0667116	5.2561	0.0142756	0.972079	0.285085	23.4259	0.478875	37.7695	0.562791	44.9094	0.84091	65.0753	0.155558	12.5508	0.423639	34.1394	0.701569	53.8456
0.0715935	5.25499	0.0158948	1.01777	0.285957	21.8265	0.479163	35.2052	0.563369	41.8445	0.841265	60.7245	0.15783	11.8438	0.424316	31.8059	0.701982	50.2817
0.076472	5.25379	0.0175656	1.06142	0.28689	20.4439	0.479473	32.9709	0.563987	39.1791	0.841645	56.9237	0.160218	11.2373	0.425041	29.7804	0.702423	47.1657
0.081347	5.25249	0.0192831	1.1031	0.287883	19.2374	0.479805	31.0072	0.564644	36.8404	0.84205	53.5751	0.16239	10.776	0.425813	28.0063	0.702893	44.4184
0.086218	5.25111	0.021043	1.14287	0.288934	18.176	0.480161	29.268	0.565342	34.7722	0.842479	50.6027	0.164304	10.4243	0.426632	26.44	0.70339	41.9783
0.0910849	5.24964	0.0228413	1.18078	0.290042	17.2356	0.480539	27.717	0.566079	32.9304	0.842932	47.9468	0.165929	10.1585	0.427497	25.0474	0.703916	39.7968
0.0959472	5.24807	0.0246742	1.21693	0.291208	16.397	0.480942	26.3255	0.566855	31.2802	0.84341	45.5595	0.16724	9.96275	0.428409	23.8015	0.704469	37.8352
0.100805	5.2464	0.0265383	1.25136	0.292429	15.645	0.481368	25.0703	0.56767	29.7934	0.843912	43.4023	0.168218	9.82623	0.429368	22.6807	0.705051	36.0619
0.105657	5.24463	0.0284306	1.28417	0.293705	14.9672	0.48182	23.9325	0.568524	28.4472	0.844439	41.4435	0.168851	9.74198	0.430371	21.6674	0.70566	34.4513
0.110504	5.24276	0.0303481	1.31542	0.295035	14.3535	0.482296	22.8965	0.569415	27.2227	0.844989	39.6572	0.169768	9.62489	0.43142	20.747	0.706296	32.9821
0.115345	5.24079	0.0322882	1.34519	0.296417	13.7954	0.482798	21.9495	0.570345	26.1044	0.845564	38.0216	0.170775	9.50275	0.432514	19.9077	0.706961	31.6367
0.12018	5.2387	0.0342485	1.37355	0.297851	13.2861	0.483326	21.0806	0.571313	25.0792	0.846163	36.5186	0.172164	9.34469	0.433653	19.1393	0.707652	30.4002
0.125009	5.2365	0.036227	1.40056	0.299336	12.8195	0.48388	20.2806	0.572317	24.1362	0.846786	35.1328	0.173948	9.15708	0.434835	18.4335	0.708371	29.2599
0.12983	5.23419	0.0382216	1.4263	0.30087	12.3908	0.484462	19.5419	0.573359	23.2659	0.847433	33.8511	0.176147	8.94685	0.436062	17.7831	0.709118	28.2053
0.134644	5.23176	0.0402307	1.45083	0.302453	11.9957	0.485071	18.8578	0.574438	22.4605	0.848104	32.6623	0.178781	8.72101	0.437331	17.182	0.709891	27.2271
0.13945	5.2292	0.0422526	1.47421	0.304083	11.6306	0.485708	18.2225	0.575553	21.7131	0.848798	31.5568	0.181873	8.48618	0.438644	16.625	0.710692	26.3173
0.144248	5.22651	0.0442858	1.4965	0.305759	11.2923	0.486374	17.6312	0.576704	21.0178	0.849517	30.5261	0.185036	8.27403	0.439998	16.1076	0.711519	25.4693
0.149037	5.2237	0.0460659	1.51509	0.307481	10.9781	0.48707	17.0796	0.57789	20.3694	0.850259	29.563	0.188264	8.08169	0.441395	15.6258	0.712374	24.6769
0.153817	5.22074	0.0475889	1.53035	0.309017	10.7222	0.487795	16.5638	0.579112	19.7634	0.851025	28.6612	0.191554	7.9067	0.442833	15.1761	0.713255	23.9349
0.158587	5.21764	0.0488517	1.54256	0.310353	10.516	0.488551	16.0807	0.580369	19.196	0.851815	27.815	0.194903	7.74702	0.444312	14.7557	0.714162	23.2388
0.163347	5.21439	0.0498523	1.55198	0.311475	10.3532	0.489338	15.6274	0.581661	18.6636	0.852627	27.0195	0.198308	7.60085	0.445831	14.3617	0.715096	22.5845
0.168095	5.21099	0.0505891	1.55877	0.312373	10.2292	0.490156	15.2012	0.582987	18.1631	0.853464	26.2704	0.201765	7.4667	0.447391	13.992	0.716056	21.9684
0.172832	5.20742	0.0510612	1.56306	0.31304	10.1406	0.491007	14.8	0.584347	17.692	0.854324	25.5637	0.205271	7.34326	0.44899	13.6445	0.717043	21.3873
0.177556	5.20369	0.0517403	1.56915	0.313469	10.0849	0.491891	14.4216	0.585741	17.2476	0.855207	24.8961	0.208823	7.22941	0.450628	13.3172	0.718055	20.8384
0.182268	5.19978	0.0524793	1.57566	0.314091	10.0063	0.492808	14.0643	0.587168	16.828	0.856113	24.2643	0.21242	7.12414	0.452305	13.0086	0.719094	20.3191
0.186965	5.1957	0.0534856	1.58434	0.314771	9.9228	0.493759	13.7265	0.588628	16.4311	0.857042	23.6657	0.216059	7.02661	0.454019	12.7171	0.720158	19.8272
0.191648	5.19142	0.0547602	1.59506	0.315704	9.81224	0.494746	13.4067	0.59012	16.0552	0.857994	23.0978	0.219737	6.93606	0.455771	12.4415	0.721248	19.3606
0.196315	5.18694	0.0563042	1.60762	0.316897	9.67719	0.495768	13.1035	0.591645	15.6987	0.858969	22.5582	0.223453	6.85183	0.45756	12.1805	0.722363	18.9174
0.200966	5.18225	0.0581188	1.62184	0.31836	9.52064	0.496826	12.8159	0.593202	15.3603	0.859967	22.045	0.227203	6.77334	0.459386	11.9332	0.723504	18.496
0.205599	5.17734	0.0602051	1.63748	0.320103	9.34585	0.49792	12.5427	0.59479	15.0386	0.860988	21.5564	0.230988	6.70006	0.461247	11.6984	0.724669	18.0948
0.210215	5.17221	0.0622951	1.65245	0.322138	9.1562	0.499052	12.2829	0.59641	14.7325	0.862031	21.0905	0.234803	6.63153	0.463144	11.4754	0.72586	17.7125
0.21481	5.16684	0.0643883	1.66678	0.32421	8.97735	0.500222	12.0357	0.598061	14.4409	0.863097	20.646	0.238649	6.56733	0.465076	11.2632	0.727076	17.3478
0.219385	5.16122	0.0664843	1.68051	0.326318	8.80847	0.501431	11.8003	0.599742	14.1629	0.864185	20.2213	0.242524	6.50712	0.467043	11.0613	0.728316	16.9995
0.223938	5.15534	0.0685826	1.69366	0.32846	8.64879	0.502679	11.5758	0.601453	13.8976	0.865295	19.8153	0.246425	6.45054	0.468784	10.893	0.729581	16.6665
0.228468	5.14918	0.0706829	1.70627	0.330638	8.49765	0.503967	11.3617	0.603195	13.6441	0.866428	19.4268	0.250352	6.39731	0.470289	10.755	0.73087	16.348
0.232974	5.14274	0.0727849	1.71837	0.332849	8.35442	0.505295	11.1573	0.604966	13.4017	0.867583	19.0546	0.254303	6.34715	0.471547	10.6445	0.732184	16.0431
0.237454	5.13599	0.0748883	1.72997	0.335093	8.21855	0.506486	10.9866	0.606766	13.1698	0.86876	18.6978	0.258276	6.29984	0.47255	10.5593	0.733522	15.7509
0.241906	5.12894	0.0769929	1.74112	0.337369	8.08954	0.507526	10.8464	0.608596	12.9476	0.869959	18.3556	0.262272	6.25514	0.473293	10.4978	0.734883	15.4706
0.246329	5.12155	0.0790984	1.75182	0.339678	7.96692	0.508403	10.7338	0.610454	12.7347	0.871179	18.0269	0.266288	6.21286	0.47377	10.459	0.736269	15.2016
0.250722	5.11382	0.0812047	1.76211	0.342019	7.85028	0.509108	10.647	0.61234	12.5306	0.872422	17.7112	0.270323	6.17283	0.47446	10.4039	0.737677	14.9432
0.255082	5.10573	0.0833115	1.772	0.344392	7.73924	0.509633	10.5843	0.614255	12.3346	0.873686	17.4076	0.274377	6.13487	0.475213	10.3449	0.73911	14.6949
0.259408	5.09726	0.0854186	1.78151	0.346797	7.63345	0.509972	10.5447	0.616197	12.1463	0.874971	17.1155	0.278447	6.09884	0.476244	10.2662	0.740565	14.456
0.263698	5.0884	0.0875262	1.79067	0.349232	7.53259	0.510463	10.4885	0.618166	11.9654	0.876278	16.8342	0.282535	6.0646	0.477558	10.1691	0.742043	14.2262
0.26795	5.07913	0.0896338	1.79949	0.3517	7.43637	0.511002	10.4282	0.620163	11.7914	0.877606	16.5633	0.286637	6.03203	0.479164	10.0551	0.743545	14.0048
0.272162	5.06944	0.0917415	1.80799	0.354199	7.34453	0.511743	10.3478	0.622187	11.624	0.878955	16.3021	0.290755	6.00102	0.481069	9.92597	0.745069	13.7915
0.276332	5.0593	0.0938492	1.81618	0.35673	7.25682	0.512696	10.2485	0.624237	11.4627	0.880325	16.0502	0.294885	5.97145	0.483283	9.78359	0.746615	13.5858
0.280457	5.04871	0.0959568	1.82408	0.359294	7.17303	0.51387	10.1318	0.626313	11.3074	0.881717	15.807	0.299029	5.94323	0.485528	9.64708	0.748184	13.3874
0.284535	5.03764	0.0980641	1.83169	0.361891	7.09294	0.515279	9.99947	0.628144	11.1766	0.883129	15.5722	0.303185	5.91627	0.487803	9.5161	0.749775	13.1959
0.288565	5.02608	0.100171	1.83905	0.364522	7.01637	0.516936	9.85349	0.62972	11.0684	0.884561	15.3454	0.307352	5.89049	0.490106	9.39036	0.751388	13.0109
0.292544	5.01401	0.102278	1.84615	0.367186	6.94315	0.518639	9.71344	0.631033	10.981	0.886015	15.1261	0.31153	5.86582	0.492438	9.26958	0.753023	12.8322
0.29647	5.00143	0.104384	1.85301	0.369886	6.87311	0.520387	9.57902	0.632079	10.9132	0.887488	14.9141	0.315718	5.84218	0.494799	9.15347	0.75468	12.6594
0.30034	4.98832	0.106491	1.85964	0.372623	6.80613	0.52218	9.44996	0.632852	10.8642	0.888982	14.7089	0.319914	5.81951	0.497187	9.04181	0.756358	12.4923
0.304153	4.97466	0.108596	1.86605	0.375396	6.74205	0.524019	9.326	0.633348	10.8331	0.890496	14.5102	0.32412	5.79775	0.499602	8.93435	0.758057	12.3307
0.307906	4.96046	0.110702	1.87225	0.378208	6.68076	0.525904	9.20689	0.634063	10.7888	0.892031	14.3179	0.328333	5.77684	0.502044	8.83088	0.759777	12.1741
0.311598	4.94571	0.112806	1.87825	0.381059	6.62214	0.527836	9.0924	0.634844	10.7413	0.893585	14.1315	0.332554	5.75673	0.504512	8.73121	0.761518	12.0226
0.315227	4.9304	0.114911	1.88406	0.383952	6.56609	0.529814	8.98231	0.635911	10.6776	0.895159	13.9508	0.336781	5.73737	0.507007	8.63514	0.76328	11.8757
0.318791	4.91453	0.117014	1.88969	0.386886	6.51251	0.531839	8.87643	0.637268	10.5985	0.896753	13.7756	0.341014	5.71872	0.509526	8.5425	0.765062	11.7333
0.321843	4.90025	0.119118	1.89514	0.389864	6.4613	0.53391	8.77456	0.638922	10.5051	0.898366	13.6057	0.345253	5.70073	0.512071	8.45312	0.766865	11.5953
0.324405	4.88774	0.121221	1.90043	0.392886	6.41237	0.536029	8.67652	0.64088	10.3985	0.899999	13.4408	0.349497	5.68337	0.51464	8.36685	0.768453	11.4784
0.326495	4.87717	0.123323	1.90555	0.395954	6.36565	0.538194	8.58214	0.643149	10.2799	0.901652	13.2807	0.353745	5.6666	0.517234	8.28354	0.769818	11.3811
0.328129	4.86867	0.125425	1.91052	0.39907	6.32106	0.540406	8.49127	0.645442	10.1652	0.903323	13.1252	0.357997	5.65039	0.519851	8.20306	0.770955	11.3023
0.329321	4.86234	0.127526	1.91535	0.402234	6.27852	0.542665	8.40373	0.647758	10.0541	0.905014	12.9741	0.362253	5.63469	0.522492	8.12528	0.77186	11.241
0.330078	4.85826	0.129627	1.92003	0.405447	6.23795	0.544971	8.3194	0.650097	9.9466	0.906723	12.8273	0.366511	5.61949	0.525155	8.05006	0.772528	11.1965
0.331161	4.85233	0.131727	1.92458	0.40871	6.1993	0.547323	8.23814	0.65246	9.84244	0.908452	12.6845	0.370771	5.60475	0.527842	7.97731	0.772956	11.1682
0.33233	4.84583	0.133827	1.929	0.412024	6.16247	0.549721	8.15981	0.654846	9.74151	0.910199	12.5457	0.375034	5.59045	0.53055	7.90691	0.773575	11.1279
0.333906	4.83689	0.135926	1.9333	0.415389	6.12742	0.552166	8.08429	0.657253	9.64367	0.911965	12.4107	0.379298	5.57655	0.533281	7.83876	0.774249	11.0846
0.335874	4.8254	0.138025	1.93748	0.418806	6.09407	0.554656	8.01147	0.659684	9.54879	0.913749	12.2793	0.383562	5.56305	0.536033	7.77276	0.77517	11.0263
0.33822	4.81126	0.140123	1.94154	0.422275	6.06235	0.557192	7.94123	0.662136	9.45676	0.915551	12.1513	0.387827	5.54991	0.538806	7.70883	0.776342	10.9538
0.340923	4.79434	0.142221	1.94549	0.425795	6.0322	0.559773	7.87346	0.66461	9.36744	0.917372	12.0268	0.392092	5.53711	0.5416	7.64687	0.777769	10.8678
0.34396	4.7745	0.144318	1.94934	0.429366	6.00355	0.562398	7.80807	0.667106	9.28075	0.919211	11.9055	0.396356	5.52464	0.544415	7.58681	0.779455	10.7692
0.346929	4.75422	0.146415	1.95308	0.432988	5.97634	0.565068	7.74495	0.669623	9.19656	0.920828	11.8023	0.400619	5.51248	0.54725	7.52857	0.781409	10.659
0.34983	4.73353	0.148512	1.95673	0.436659	5.95049	0.567782	7.68402	0.672162	9.1148	0.922217	11.7162	0.404881	5.5006	0.550104	7.47207	0.783381	10.5518
0.352664	4.71247	0.150608	1.96028	0.440379	5.92595	0.570539	7.62519	0.674721	9.03535	0.923373	11.6462	0.40914	5.48899	0.552979	7.41724	0.785372	10.4475
0.355432	4.69107	0.152703	1.96374	0.444147	5.90265	0.573338	7.56836	0.677301	8.95813	0.924292	11.5916	0.413397	5.47764	0.555872	7.36403	0.787381	10.346
0.358137	4.66934	0.154798	1.96711	0.447961	5.88053	0.57618	7.51347	0.679902	8.88306	0.924971	11.5519	0.417652	5.46652	0.558785	7.31236	0.789409	10.2472
0.360779	4.64734	0.156893	1.9704	0.45182	5.85952	0.579064	7.46043	0.682523	8.81006	0.925406	11.5267	0.421902	5.45563	0.561717	7.26218	0.791455	10.151
0.36336	4.62508	0.158987	1.97361	0.455722	5.83956	0.581988	7.40917	0.685163	8.73905	0.926033	11.4907	0.426149	5.44495	0.564667	7.21343	0.793519	10.0573
0.365883	4.6026	0.161081	1.97674	0.459666	5.82061	0.584953	7.35962	0.687824	8.66996	0.926717	11.4519	0.430392	5.43446	0.567635	7.16606	0.7956	9.96595
0.368348	4.57994	0.163174	1.97979	0.463649	5.80259	0.587958	7.31171	0.690505	8.60272	0.927651	11.3997	0.43463	5.42416	0.570622	7.12002	0.797699	9.87698
0.370758	4.55711	0.165267	1.98277	0.467671	5.78545	0.591002	7.26539	0.693205	8.53726	0.928838	11.3346	0.438863	5.41403	0.573626	7.07526	0.799816	9.79024
0.373116	4.53416	0.16736	1.98569	0.471728	5.76915	0.594084	7.22058	0.695924	8.47352	0.930282	11.2571	0.44309	5.40406	0.576649	7.03172	0.80195	9.70567
0.375422	4.51112	0.169452	1.98853	0.475819	5.75363	0.597204	7.17722	0.698663	8.41144	0.931988	11.168	0.44731	5.39425	0.579688	6.98938	0.8041	9.62319
0.37768	4.488	0.171544	1.9913	0.479943	5.73884	0.60036	7.13527	0.70142	8.35096	0.933962	11.0681	0.451525	5.38457	0.582745	6.94818	0.806268	9.54273
0.37989	4.46484	0.173636	1.99402	0.484097	5.72473	0.603554	7.09466	0.704196	8.29204	0.935953	10.9706	0.455732	5.37502	0.585819	6.90809	0.808453	9.46423
0.382056	4.44165	0.175727	1.99667	0.48828	5.71127	0.606783	7.05534	0.706991	8.23461	0.93796	10.8753	0.459931	5.36559	0.58891	6.86907	0.810654	9.38761
0.384179	4.41848	0.177818	1.99926	0.492489	5.69841	0.610047	7.01727	0.709804	8.17862	0.939985	10.7823	0.464123	5.35627	0.592017	6.83108	0.812872	9.31281
0.386261	4.39533	0.179909	2.0018	0.496724	5.68611	0.613345	6.9804	0.712636	8.12403	0.942026	10.6915	0.468306	5.34705	0.595141	6.79409	0.815106	9.23978
0.388305	4.37222	0.181999	2.00428	0.500982	5.67433	0.616676	6.94468	0.715485	8.07079	0.944083	10.6027	0.47248	5.33792	0.598282	6.75807	0.817356	9.16846
0.390311	4.34918	0.184089	2.00671	0.505262	5.66305	0.620041	6.91006	0.718353	8.01886	0.946157	10.516	0.476644	5.32888	0.601439	6.72298	0.819623	9.09878
0.392281	4.32623	0.186179	2.00908	0.509562	5.65222	0.623437	6.87652	0.721238	7.9682	0.948247	10.4312	0.480799	5.31991	0.604612	6.68879	0.821905	9.03072
0.394218	4.30338	0.188268	2.0114	0.513881	5.64182	0.626865	6.84399	0.724141	7.91876	0.950353	10.3483	0.484943	5.31102	0.607802	6.65547	0.824203	8.9642
0.396124	4.28064	0.190357	2.01368	0.518217	5.63181	0.630323	6.81245	0.727062	7.87051	0.952475	10.2672	0.489076	5.30218	0.611008	6.623	0.826516	8.89918
0.397998	4.25803	0.192446	2.01591	0.522568	5.62218	0.633812	6.78187	0.73	7.82341	0.954613	10.188	0.493198	5.2934	0.614229	6.59136	0.828845	8.83562
0.399845	4.23556	0.194534	2.01809	0.526934	5.61289	0.63733	6.75219	0.732955	7.77743	0.956766	10.1104	0.497307	5.28466	0.617467	6.56051	0.831189	8.77347
0.401663	4.21324	0.196623	2.02023	0.531314	5.60392	0.640876	6.7234	0.735927	7.73252	0.958936	10.0345	0.501405	5.27597	0.62072	6.53043	0.833549	8.7127
0.403456	4.19109	0.198711	2.02232	0.535705	5.59526	0.64445	6.69545	0.738917	7.68866	0.96112	9.9603	0.505489	5.26731	0.623989	6.5011	0.835924	8.65325
0.405224	4.16911	0.200798	2.02437	0.540107	5.58687	0.648052	6.66833	0.741923	7.64582	0.96332	9.88763	0.50956	5.25867	0.627274	6.47249	0.838313	8.59508
0.406969	4.1473	0.202886	2.02639	0.544519	5.57874	0.65168	6.64198	0.744946	7.60397	0.965535	9.81649	0.513617	5.25006	0.630574	6.44459	0.840717	8.53817
0.408692	4.12569	0.204973	2.02836	0.54894	5.57085	0.655334	6.6164	0.747986	7.56307	0.967766	9.74684	0.51766	5.24147	0.633891	6.41738	0.843136	8.48248
0.410394	4.10427	0.20706	2.03029	0.553368	5.56319	0.659014	6.59154	0.751042	7.5231	0.970011	9.67863	0.521688	5.23288	0.637223	6.39083	0.84557	8.42796
0.412077	4.08305	0.209147	2.03219	0.557803	5.55574	0.662718	6.56739	0.754115	7.48404	0.972271	9.61183	0.5257	5.2243	0.64057	6.36493	0.848018	8.37459
0.41374	4.06204	0.211234	2.03405	0.562243	5.54848	0.666446	6.54392	0.757205	7.44585	0.974546	9.54639	0.529696	5.21573	0.643934	6.33966	0.85048	8.32234
0.415386	4.04123	0.21332	2.03587	0.566689	5.5414	0.670198	6.5211	0.76031	7.40851	0.976835	9.48227	0.533676	5.20714	0.647312	6.315	0.852957	8.27116
0.417016	4.02064	0.215406	2.03767	0.571138	5.53449	0.673973	6.49891	0.763432	7.372	0.979139	9.41945	0.537639	5.19855	0.650707	6.29093	0.855448	8.22104
0.418629	4.00026	0.217492	2.03942	0.575591	5.52773	0.677769	6.47733	0.76657	7.3363	0.981458	9.35787	0.541584	5.18995	0.654117	6.26745	0.857952	8.17194
0.420228	3.9801	0.219578	2.04115	0.580047	5.52112	0.681588	6.45633	0.769724	7.30139	0.98379	9.29752	0.545512	5.18132	0.657543	6.24453	0.860471	8.12384
0.421813	3.96017	0.221664	2.04284	0.584504	5.51464	0.685428	6.43591	0.772895	7.26723	0.986137	9.23835	0.549421	5.17268	0.660984	6.22215	0.863003	8.0767
0.423384	3.94045	0.223749	2.04451	0.588962	5.50828	0.689288	6.41602	0.776081	7.23382	0.988498	9.18034	0.553311	5.164	0.664441	6.20032	0.86555	8.03051
0.424943	3.92096	0.225834	2.04614	0.593421	5.50204	0.693168	6.39667	0.779283	7.20113	0.990872	9.12345	0.557182	5.1553	0.667914	6.179	0.868109	7.98523
0.42649	3.9017	0.227919	2.04775	0.597879	5.4959	0.697068	6.37782	0.782501	7.16914	0.993261	9.06765	0.561033	5.14657	0.671403	6.1582	0.870683	7.94085
0.428027	3.88265	0.230004	2.04932	0.602337	5.48986	0.700986	6.35946	0.785735	7.13785	0.995663	9.01292	0.564863	5.1378	0.674907	6.13789	0.87327	7.89734
0.429552	3.86384	0.232089	2.05087	0.606794	5.48391	0.704923	6.34158	0.788985	7.10721	0.998078	8.95923	0.568673	5.12898	0.678427	6.11806	0.87587	7.85467
0.431068	3.84525	0.234173	2.0524	0.611248	5.47804	0.708878	6.32415	0.79225	7.07723	1.00051	8.90654	0.572462	5.12013	0.681962	6.0987	0.878483	7.81283
0.432575	3.82689	0.236258	2.05389	0.6157	5.47225	0.712851	6.30716	0.795532	7.04789			0.576229	5.11123	0.685513	6.0798	0.88111	7.77179
0.434073	3.80875	0.238342	2.05536	0.620149	5.46652	0.71684	6.2906	0.798829	7.01916			0.579974	5.10228	0.68908	6.06134	0.88375	7.73154
0.435563	3.79083	0.240426	2.05681	0.624594	5.46086	0.720846	6.27445	0.802142	6.99104			0.583697	5.09329	0.692662	6.04333	0.886402	7.69205
0.437046	3.77314	0.24251	2.05823	0.629036	5.45525	0.724867	6.2587	0.805471	6.9635			0.587397	5.08423	0.69626	6.02574	0.889068	7.6533
0.438521	3.75567	0.244593	2.05963	0.633473	5.4497	0.728904	6.24333	0.808815	6.93655			0.591073	5.07513	0.699874	6.00856	0.891747	7.61529
0.43999	3.73842	0.246677	2.061	0.637905	5.44419	0.732956	6.22833	0.812176	6.91015			0.594726	5.06597	0.703503	5.99179	0.894439	7.57798
0.441453	3.72139	0.24876	2.06236	0.642331	5.43872	0.737023	6.2137	0.815552	6.8843			0.598355	5.05675	0.707148	5.97542	0.897143	7.54136
0.44291	3.70457	0.250844	2.06369	0.646752	5.43329	0.741103	6.1994	0.818944	6.85899			0.60196	5.04747	0.710808	5.95943	0.89986	7.50542
0.444362	3.68798	0.252927	2.065	0.651167	5.42789	0.745197	6.18544	0.822351	6.8342			0.605541	5.03814	0.714483	5.94381	0.90259	7.47014
0.445809	3.67159	0.25501	2.06629	0.655575	5.42252	0.749304	6.1718	0.825775	6.80993			0.609097	5.02874	0.718173	5.92856	0.905332	7.4355
0.447251	3.65542	0.257093	2.06756	0.659976	5.41718	0.753424	6.15848	0.829215	6.78615			0.612627	5.01928	0.721879	5.91367	0.908087	7.40149
0.448689	3.63946	0.259175	2.0688	0.66437	5.41186	0.757556	6.14545	0.83267	6.76287			0.616133	5.00976	0.7256	5.89912	0.910855	7.3681
0.450123	3.62371	0.261258	2.07003	0.668756	5.40655	0.7617	6.13272	0.836142	6.74006			0.619612	5.00017	0.729335	5.88492	0.913635	7.3353
0.451554	3.60816	0.263341	2.07124	0.673133	5.40126	0.765856	6.12026	0.83963	6.71772			0.623067	4.99053	0.733086	5.87104	0.916427	7.30309
0.452981	3.59282	0.265423	2.07244	0.677503	5.39598	0.770022	6.10808	0.843134	6.69584			0.626495	4.98082	0.73685	5.85749	0.919232	7.27146
0.454405	3.57768	0.267505	2.07361	0.681864	5.39071	0.774199	6.09616	0.846654	6.67442			0.629897	4.97104	0.74063	5.84424	0.922049	7.24038
0.455827	3.56274	0.269587	2.07477	0.686215	5.38544	0.778386	6.08449	0.85019	6.65343			0.633273	4.96121	0.744423	5.83131	0.924879	7.20985
0.457246	3.54799	0.271669	2.0759	0.690557	5.38018	0.782582	6.07306	0.853743	6.63287			0.636623	4.95131	0.748231	5.81867	0.927721	7.17985
0.458663	3.53345	0.273751	2.07703	0.69489	5.37492	0.786788	6.06187	0.857313	6.61273			0.639946	4.94135	0.752052	5.80631	0.930575	7.15038
0.460079	3.51909	0.275833	2.07813	0.699212	5.36965	0.791003	6.05091	0.860899	6.59301			0.643243	4.93133	0.755887	5.79424	0.933441	7.12142
0.461492	3.50492	0.277915	2.07922	0.703524	5.36439	0.795226	6.04017	0.864501	6.5737			0.646514	4.92125	0.759735	5.78244	0.936319	7.09296
0.462904	3.49095	0.279997	2.08029	0.707825	5.35911	0.799458	6.02964	0.86812	6.55478			0.649758	4.91112	0.763596	5.77091	0.939209	7.065
0.464315	3.47715	0.282078	2.08135	0.712116	5.35383	0.803696	6.01931	0.871757	6.53625			0.652975	4.90092	0.767471	5.75963	0.942112	7.03751
0.465725	3.46354	0.28416	2.08239	0.716395	5.34854	0.807943	6.00918	0.87541	6.51811			0.656166	4.89067	0.771357	5.74861	0.945026	7.01049
0.467133	3.45012	0.286241	2.08342	0.720663	5.34323	0.812196	5.99924	0.87908	6.50034			0.65933	4.88037	0.775256	5.73782	0.947953	6.98393
0.468542	3.43687	0.288322	2.08443	0.724919	5.33791	0.816455	5.98948	0.882767	6.48294			0.662468	4.87001	0.779167	5.72728	0.950891	6.95782
0.469949	3.42379	0.290403	2.08543	0.729163	5.33258	0.82072	5.9799	0.886472	6.46591			0.665579	4.8596	0.78309	5.71696	0.953842	6.93215
0.471356	3.41089	0.292484	2.08642	0.733394	5.32723	0.824992	5.97049	0.890194	6.44923			0.668665	4.84913	0.787024	5.70686	0.956804	6.90691
0.472763	3.39816	0.294565	2.08739	0.737614	5.32186	0.829268	5.96124	0.893933	6.4329			0.671724	4.83863	0.790969	5.69698	0.959778	6.88209
0.474171	3.3856	0.296646	2.08835	0.74182	5.31648	0.833549	5.95215	0.89769	6.41691			0.674757	4.82807	0.794924	5.6873	0.962765	6.85769
0.475578	3.37321	0.298727	2.08929	0.746014	5.31107	0.837835	5.94322	0.901465	6.40126			0.677763	4.81747	0.79889	5.67783	0.965763	6.83369
0.476985	3.36098	0.300808	2.09022	0.750195	5.30564	0.842125	5.93443	0.905258	6.38595			0.680744	4.80683	0.802866	5.66855	0.968772	6.81009
0.478393	3.34892	0.302888	2.09114	0.754362	5.30018	0.846419	5.92578	0.909068	6.37096			0.6837	4.79614	0.806852	5.65946	0.971794	6.78688
0.479801	3.33701	0.304969	2.09205	0.758515	5.29471	0.850716	5.91727	0.912897	6.35628			0.68663	4.78542	0.810847	5.65056	0.974827	6.76406
0.48121	3.32526	0.307049	2.09294	0.762655	5.2892	0.855016	5.90888	0.916744	6.34193			0.689534	4.77466	0.814851	5.64183	0.977872	6.7416
0.482619	3.31367	0.30913	2.09383	0.76678	5.28368	0.859319	5.90063	0.920609	6.32788			0.692414	4.76386	0.818863	5.63327	0.980929	6.71951
0.484029	3.30222	0.31121	2.0947	0.770892	5.27812	0.863624	5.89249	0.924492	6.31414			0.695268	4.75303	0.822883	5.62487	0.983997	6.69779
0.485441	3.29093	0.31329	2.09556	0.774989	5.27254	0.867931	5.88447	0.928394	6.30069			0.698098	4.74217	0.826912	5.61664	0.987077	6.67641
0.486853	3.27979	0.31537	2.09641	0.779071	5.26693	0.872239	5.87656	0.932315	6.28754			0.700903	4.73129	0.830947	5.60856	0.990169	6.65538
0.488266	3.2688	0.317451	2.09725	0.783139	5.26129	0.87655	5.86876	0.936254	6.27468			0.703684	4.72037	0.83499	5.60063	0.993272	6.63469
0.489681	3.25795	0.319531	2.09807	0.787192	5.25562	0.880861	5.86106	0.940212	6.26211			0.706441	4.70943	0.83904	5.59284	0.996387	6.61433
0.491097	3.24724	0.32161	2.09889	0.79123	5.24992	0.885172	5.85347	0.944188	6.24981			0.709174	4.69847	0.843096	5.58519	0.999513	6.5943
0.492514	3.23667	0.32369	2.0997	0.795252	5.24419	0.889485	5.84596	0.948184	6.23779			0.711884	4.68749	0.847157	5.57767	1.00265	6.57459
0.493933	3.22624	0.32577	2.10049	0.799259	5.23843	0.893797	5.83855	0.952198	6.22603			0.71457	4.67649	0.851225	5.57028		
0.495353	3.21594	0.32785	2.10128	0.80325	5.23264	0.898109	5.83123	0.956231	6.21454			0.717234	4.66547	0.855297	5.56301		
0.496775	3.20578	0.32993	2.10206	0.807226	5.22681	0.902421	5.824	0.960283	6.20332			0.719874	4.65444	0.859374	5.55586		
0.498198	3.19576	0.332009	2.10283	0.811186	5.22095	0.906732	5.81684	0.964354	6.19235			0.722492	4.64339	0.863456	5.54883		
0.499624	3.18586	0.334089	2.10358	0.81513	5.21507	0.911042	5.80977	0.968444	6.18162			0.725088	4.63234	0.867542	5.5419		
0.501051	3.17609	0.336168	2.10433	0.819058	5.20914	0.915351	5.80277	0.972552	6.17115			0.727662	4.62127	0.871631	5.53508		
0.502479	3.16644	0.338248	2.10507	0.822969	5.20319	0.919659	5.79585	0.97668	6.16092			0.730214	4.6102	0.875724	5.52836		
0.50391	3.15692	0.340327	2.1058	0.826864	5.1972	0.923965	5.78899	0.980826	6.15092			0.732745	4.59913	0.87982	5.52174		
0.505343	3.14753	0.342406	2.10652	0.830743	5.19118	0.928269	5.78221	0.984991	6.14116			0.735254	4.58805	0.883918	5.51521		
0.506777	3.13825	0.344486	2.10724	0.834605	5.18513	0.932571	5.77549	0.989175	6.13163			0.737743	4.57697	0.888019	5.50878		
0.508214	3.12909	0.346565	2.10794	0.838451	5.17904	0.936871	5.76883	0.993378	6.12232			0.740212	4.56589	0.892122	5.50242		
0.509652	3.12005	0.348644	2.10864	0.84228	5.17292	0.941169	5.76224	0.997599	6.11323			0.74266	4.55481	0.896226	5.49615		
0.511093	3.11113	0.350723	2.10933	0.846092	5.16677	0.945464	5.7557	1.00184	6.10436			0.745088	4.54374	0.900331	5.48996		
0.512536	3.10232	0.352802	2.11001	0.849887	5.16059	0.949757	5.74923					0.747496	4.53268	0.904437	5.48385		
0.513981	3.09362	0.354881	2.11068	0.853665	5.15437	0.954047	5.74281					0.749885	4.52162	0.908544	5.4778		
0.515429	3.08503	0.35696	2.11135	0.857427	5.14812	0.958335	5.73644					0.752255	4.51057	0.912651	5.47183		
0.516878	3.07655	0.359039	2.112	0.861171	5.14183	0.962619	5.73013					0.754606	4.49953	0.916758	5.46592		
0.51833	3.06818	0.361118	2.11265	0.864898	5.13552	0.966901	5.72388					0.756938	4.4885	0.920864	5.46007		
0.519784	3.05991	0.363196	2.11329	0.868608	5.12917	0.971179	5.71767					0.759252	4.47748	0.92497	5.45428		
0.521241	3.05174	0.365275	2.11393	0.8723	5.12279	0.975455	5.71151					0.761549	4.46648	0.929074	5.44855		
0.522699	3.04368	0.367354	2.11456	0.875976	5.11638	0.979727	5.7054					0.763827	4.4555	0.933178	5.44287		
0.524161	3.03572	0.369432	2.11518	0.879634	5.10994	0.983996	5.69934					0.766088	4.44454	0.937279	5.43725		
0.525624	3.02786	0.371511	2.11579	0.883274	5.10347	0.988262	5.69332					0.768332	4.43359	0.941378	5.43167		
0.52709	3.0201	0.37359	2.1164	0.886898	5.09696	0.992525	5.68735					0.77056	4.42267	0.945476	5.42614		
0.528559	3.01243	0.375668	2.117	0.890504	5.09043	0.996784	5.68143					0.77277	4.41176	0.94957	5.42066		
0.53003	3.00486	0.377746	2.1176	0.894093	5.08387	1.00104	5.67555					0.774965	4.40088	0.953662	5.41521		
0.531503	2.99738	0.379825	2.11818	0.897664	5.07728							0.777143	4.39002	0.95775	5.40981		
0.532979	2.98999	0.381903	2.11877	0.901218	5.07066							0.779306	4.37919	0.961835	5.40444		
0.534457	2.98269	0.383981	2.11934	0.904754	5.06401							0.781453	4.36839	0.965916	5.39911		
0.535938	2.97549	0.38606	2.11991	0.908273	5.05734							0.783585	4.35761	0.969993	5.3938		
0.537422	2.96837	0.388138	2.12047	0.911775	5.05063							0.785702	4.34686	0.974066	5.38854		
0.538908	2.96134	0.390216	2.12103	0.91526	5.0439							0.787804	4.33614	0.978134	5.38329		
0.540396	2.95439	0.392294	2.12158	0.918727	5.03715							0.789892	4.32545	0.982198	5.37808		
0.541888	2.94753	0.394372	2.12213	0.922177	5.03037							0.791966	4.3148	0.986256	5.37289		
0.543381	2.94075	0.39645	2.12267	0.92561	5.02356							0.794026	4.30417	0.990309	5.36773		
0.544877	2.93405	0.398528	2.1232	0.929025	5.01673							0.796073	4.29358	0.994356	5.36258		
0.546376	2.92744	0.400606	2.12373	0.932423	5.00987							0.798106	4.28302	0.998398	5.35746		
0.547878	2.9209	0.402684	2.12426	0.935804	5.00299							0.800126	4.2725	1.00243	5.35235		
0.549382	2.91444	0.404762	2.12478	0.939168	4.99609							0.802133	4.26201				
0.550888	2.90806	0.40684	2.12529	0.942515	4.98917							0.804127	4.25156				
0.552397	2.90176	0.408918	2.1258	0.945845	4.98222							0.806109	4.24115				
0.553909	2.89553	0.410996	2.1263	0.949158	4.97526							0.808079	4.23077				
0.555423	2.88937	0.413073	2.1268	0.952454	4.96827							0.810037	4.22044				
0.55694	2.88329	0.415151	2.12729	0.955733	4.96126							0.811983	4.21014				
0.55846	2.87728	0.417229	2.12778	0.958995	4.95424							0.813918	4.19988				
0.559982	2.87134	0.419307	2.12826	0.96224	4.94719							0.815841	4.18967				
0.561507	2.86546	0.421384	2.12874	0.965469	4.94013							0.817754	4.17949				
0.563034	2.85966	0.423462	2.12921	0.968681	4.93305							0.819656	4.16936				
0.564564	2.85393	0.425539	2.12968	0.971877	4.92595							0.821547	4.15927				
0.566096	2.84826	0.427617	2.13015	0.975056	4.91883							0.823428	4.14922				
0.567631	2.84266	0.429694	2.13061	0.978219	4.9117							0.825299	4.13921				
0.569169	2.83712	0.431772	2.13106	0.981365	4.90455							0.82716	4.12925				
0.570709	2.83165	0.433849	2.13152	0.984495	4.89739							0.829011	4.11933				
0.572252	2.82624	0.435927	2.13196	0.987609	4.89022							0.830853	4.10946				
0.573797	2.82089	0.438004	2.13241	0.990706	4.88303							0.832685	4.09963				
0.575345	2.8156	0.440081	2.13284	0.993788	4.87583							0.834508	4.08985				
0.576896	2.81038	0.442159	2.13328	0.996853	4.86861							0.836323	4.08011				
0.578449	2.80521	0.444236	2.13371	0.999903	4.86139							0.838128	4.07041				
0.580004	2.8001	0.446313	2.13414	1.00294	4.85415							0.839925	4.06077				
0.581562	2.79505	0.44839	2.13456									0.841714	4.05117				
0.583123	2.79006	0.450467	2.13498									0.843495	4.04162				
0.584686	2.78512	0.452545	2.13539									0.845268	4.03211				
0.586252	2.78024	0.454622	2.13581									0.847032	4.02265				
0.58782	2.77541	0.456699	2.13621									0.84879	4.01324				
0.589391	2.77064	0.458776	2.13662									0.850539	4.00387				
0.590964	2.76592	0.460853	2.13702									0.852282	3.99455				
0.59254	2.76126	0.46293	2.13741									0.854017	3.98529				
0.594118	2.75664	0.465007	2.13781									0.855746	3.97606				
0.595698	2.75208	0.467084	2.1382									0.857467	3.96689				
0.597281	2.74757	0.469161	2.13858									0.859182	3.95777				
0.598867	2.7431	0.471238	2.13897									0.860891	3.94869				
0.600455	2.73869	0.473314	2.13935									0.862593	3.93966				
0.602045	2.73432	0.475391	2.13972									0.864289	3.93068				
0.603638	2.73001	0.477468	2.1401									0.865979	3.92175				
0.605233	2.72573	0.479545	2.14047									0.867663	3.91287				
0.606831	2.72151	0.481622	2.14083									0.869342	3.90403				
0.608431	2.71733	0.483699	2.1412									0.871014	3.89525				
0.610033	2.7132	0.485775	2.14156									0.872682	3.88651				
0.611638	2.70911	0.487852	2.14192									0.874344	3.87782				
0.613245	2.70506	0.489929	2.14227									0.876	3.86918				
0.614854	2.70106	0.492005	2.14262									0.877652	3.86059				
0.616466	2.6971	0.494082	2.14297									0.879299	3.85205				
0.61808	2.69319	0.496159	2.14332									0.880941	3.84355				
0.619697	2.68931	0.498235	2.14366									0.882578	3.83511				
0.621315	2.68548	0.500312	2.144									0.884211	3.82671				
0.622936	2.68169	0.502388	2.14434									0.885839	3.81836				
0.62456	2.67793	0.504465	2.14467									0.887463	3.81006				
0.626185	2.67422	0.506541	2.145									0.889083	3.8018				
0.627813	2.67055	0.508618	2.14533									0.890699	3.7936				
0.629443	2.66691	0.510694	2.14566									0.89231	3.78544				
0.631076	2.66331	0.51277	2.14598									0.893918	3.77733				
0.63271	2.65976	0.514847	2.1463									0.895522	3.76927				
0.634347	2.65623	0.516923	2.14662									0.897122	3.76126				
0.635986	2.65275	0.519	2.14694									0.898719	3.75329				
0.637627	2.6493	0.521076	2.14725									0.900312	3.74537				
0.639271	2.64588	0.523152	2.14756									0.901902	3.7375				
0.640916	2.6425	0.525229	2.14787									0.903488	3.72967				
0.642564	2.63916	0.527305	2.14817									0.905072	3.72189				
0.644214	2.63585	0.529381	2.14848									0.906652	3.71416				
0.645866	2.63257	0.531457	2.14878									0.908229	3.70648				
0.64752	2.62933	0.533534	2.14908									0.909804	3.69884				
0.649176	2.62612	0.53561	2.14937									0.911375	3.69124				
0.650834	2.62294	0.537686	2.14967									0.912944	3.6837				
0.652495	2.6198	0.539762	2.14996									0.91451	3.6762				
0.654157	2.61668	0.541838	2.15025									0.916074	3.66874				
0.655822	2.6136	0.543914	2.15054									0.917635	3.66133				
0.657489	2.61055	0.545991	2.15082									0.919193	3.65397				
0.659157	2.60753	0.548067	2.15111									0.92075	3.64665				
0.660828	2.60454	0.550143	2.15139									0.922304	3.63937				
0.662501	2.60158	0.552219	2.15167									0.923855	3.63214				
0.664176	2.59865	0.554295	2.15194									0.925405	3.62496				
0.665852	2.59575	0.556371	2.15222									0.926953	3.61782				
0.667531	2.59287	0.558447	2.15249									0.928498	3.61072				
0.669212	2.59003	0.560523	2.15276									0.930042	3.60367				
0.670894	2.58721	0.562599	2.15303									0.931584	3.59666				
0.672579	2.58442	0.564675	2.1533									0.933124	3.58969				
0.674266	2.58166	0.566751	2.15356									0.934662	3.58277				
0.675954	2.57893	0.568826	2.15383									0.936199	3.57589				
0.677645	2.57622	0.570902	2.15409									0.937734	3.56905				
0.679337	2.57354	0.572978	2.15435									0.939268	3.56225				
0.681031	2.57088	0.575054	2.1546									0.9408	3.5555				
0.682727	2.56825	0.57713	2.15486									0.942331	3.54879				
0.684426	2.56565	0.579206	2.15511									0.94386	3.54212				
0.686125	2.56307	0.581282	2.15536									0.945388	3.53549				
0.687827	2.56051	0.583357	2.15561									0.946915	3.52891				
0.689531	2.55798	0.585433	2.15586									0.948441	3.52236				
0.691236	2.55548	0.587509	2.15611									0.949965	3.51586				
0.692944	2.55299	0.589585	2.15635									0.951489	3.5094				
0.694653	2.55054	0.59166	2.1566									0.953011	3.50298				
0.696363	2.5481	0.593736	2.15684									0.954533	3.49659				
0.698076	2.54569	0.595812	2.15708									0.956053	3.49025				
0.699791	2.5433	0.597887	2.15732									0.957573	3.48395				
0.701507	2.54093	0.599963	2.15755									0.959091	3.47768				
0.703225	2.53859	0.602039	2.15779									0.960609	3.47146				
0.704945	2.53627	0.604114	2.15802									0.962126	3.46528				
0.706666	2.53397	0.60619	2.15825									0.963643	3.45913				
0.708389	2.53169	0.608266	2.15848									0.965159	3.45302				
0.710114	2.52943	0.610341	2.15871									0.966674	3.44695				
0.711841	2.52719	0.612417	2.15894									0.968188	3.44092				
0.713569	2.52498	0.614492	2.15916									0.969702	3.43493				
0.715299	2.52278	0.616568	2.15938									0.971216	3.42897				
0.717031	2.52061	0.618643	2.15961									0.972729	3.42306				
0.718764	2.51845	0.620719	2.15983									0.974242	3.41718				
0.720499	2.51632	0.622794	2.16005									0.975754	3.41133				
0.722236	2.5142	0.62487	2.16026									0.977266	3.40552				
0.723974	2.5121	0.626945	2.16048									0.978777	3.39975				
0.725714	2.51003	0.629021	2.16069									0.980288	3.39402				
0.727456	2.50797	0.631096	2.16091									0.981799	3.38832				
0.729199	2.50593	0.633171	2.16112									0.98331	3.38266				
0.730943	2.50391	0.635247	2.16133									0.98482	3.37703				
0.73269	2.5019	0.637322	2.16154									0.986331	3.37144				
0.734438	2.49992	0.639398	2.16175									0.987841	3.36588				
0.736187	2.49795	0.641473	2.16195									0.989351	3.36036				
0.737938	2.496	0.643548	2.16216									0.990861	3.35487				
0.739691	2.49407	0.645624	2.16236									0.992371	3.34942				
0.741445	2.49216	0.647699	2.16257									0.993881	3.344				
0.7432	2.49026	0.649774	2.16277									0.995391	3.33861				
0.744958	2.48838	0.65185	2.16297									0.996901	3.33326				
0.746716	2.48651	0.653925	2.16317									0.998411	3.32794				
0.748477	2.48467	0.656	2.16336									0.999921	3.32266				
0.750238	2.48284	0.658075	2.16356									1.00143	3.31741				
0.752001	2.48102	0.660151	2.16375														
0.753766	2.47922	0.662226	2.16395														
0.755532	2.47744	0.664301	2.16414														
0.7573	2.47567	0.666376	2.16433														
0.759069	2.47392	0.668451	2.16452														
0.760839	2.47218	0.670527	2.16471														
0.762611	2.47046	0.672602	2.1649														
0.764384	2.46876	0.674677	2.16508														
0.766159	2.46706	0.676752	2.16527														
0.767935	2.46539	0.678827	2.16545														
0.769713	2.46372	0.680902	2.16564														
0.771492	2.46208	0.682977	2.16582														
0.773272	2.46044	0.685052	2.166														
0.775054	2.45882	0.687127	2.16618														
0.776837	2.45721	0.689203	2.16636														
0.778621	2.45562	0.691278	2.16654														
0.780407	2.45404	0.693353	2.16671														
0.782194	2.45248	0.695428	2.16689														
0.783982	2.45092	0.697503	2.16706														
0.785772	2.44938	0.699578	2.16724														
0.787563	2.44786	0.701653	2.16741														
0.789355	2.44635	0.703728	2.16758														
0.791149	2.44484	0.705803	2.16775														
0.792944	2.44336	0.707878	2.16792														
0.79474	2.44188	0.709952	2.16809														
0.796537	2.44042	0.712027	2.16825														
0.798336	2.43897	0.714102	2.16842														
0.800136	2.43753	0.716177	2.16859														
0.801937	2.4361	0.718252	2.16875														
0.80374	2.43468	0.720327	2.16891														
0.805544	2.43328	0.722402	2.16908														
0.807349	2.43189	0.724477	2.16924														
0.809155	2.43051	0.726551	2.1694														
0.810962	2.42914	0.728626	2.16956														
0.812771	2.42778	0.730701	2.16972														
0.81458	2.42643	0.732776	2.16987														
0.816391	2.4251	0.734851	2.17003														
0.818204	2.42377	0.736925	2.17019														
0.820017	2.42246	0.739	2.17034														
0.821831	2.42116	0.741075	2.1705														
0.823647	2.41986	0.74315	2.17065														
0.825464	2.41858	0.745225	2.1708														
0.827282	2.41731	0.747299	2.17095														
0.829101	2.41605	0.749374	2.1711														
0.830921	2.41479	0.751449	2.17125														
0.832743	2.41355	0.753523	2.1714														
0.834565	2.41232	0.755598	2.17155														
0.836389	2.4111	0.757673	2.1717														
0.838213	2.40989	0.759747	2.17185														
0.840039	2.40868	0.761822	2.17199														
0.841866	2.40749	0.763897	2.17214														
0.843694	2.40631	0.765971	2.17228														
0.845523	2.40513	0.768046	2.17242														
0.847353	2.40397	0.77012	2.17257														
0.849184	2.40281	0.772195	2.17271														
0.851017	2.40166	0.77427	2.17285														
0.85285	2.40053	0.776344	2.17299														
0.854684	2.3994	0.778419	2.17313														
0.85652	2.39828	0.780493	2.17327														
0.858356	2.39716	0.782568	2.17341														
0.860194	2.39606	0.784642	2.17354														
0.862032	2.39497	0.786717	2.17368														
0.863872	2.39388	0.788791	2.17382														
0.865712	2.3928	0.790866	2.17395														
0.867554	2.39173	0.79294	2.17409														
0.869397	2.39067	0.795015	2.17422														
0.87124	2.38962	0.797089	2.17435														
0.873085	2.38858	0.799164	2.17449														
0.87493	2.38754	0.801238	2.17462														
0.876777	2.38651	0.803313	2.17475														
0.878624	2.38549	0.805387	2.17488														
0.880472	2.38448	0.807462	2.17501														
0.882322	2.38347	0.809536	2.17514														
0.884172	2.38247	0.81161	2.17526														
0.886023	2.38148	0.813685	2.17539														
0.887876	2.3805	0.815759	2.17552														
0.889729	2.37952	0.817833	2.17565														
0.891583	2.37856	0.819908	2.17577														
0.893438	2.3776	0.821982	2.1759														
0.895294	2.37664	0.824057	2.17602														
0.897151	2.3757	0.826131	2.17614														
0.899009	2.37476	0.828205	2.17627														
0.900867	2.37382	0.830279	2.17639														
0.902727	2.3729	0.832354	2.17651														
0.904587	2.37198	0.834428	2.17663														
0.906449	2.37107	0.836502	2.17675														
0.908311	2.37016	0.838577	2.17687														
0.910174	2.36926	0.840651	2.17699														
0.912038	2.36837	0.842725	2.17711														
0.913903	2.36749	0.844799	2.17723														
0.915769	2.36661	0.846874	2.17735														
0.917635	2.36574	0.848948	2.17746														
0.919503	2.36487	0.851022	2.17758														
0.921371	2.36401	0.853096	2.1777														
0.92324	2.36316	0.85517	2.17781														
0.92511	2.36231	0.857244	2.17793														
0.926981	2.36147	0.859319	2.17804														
0.928852	2.36063	0.861393	2.17815														
0.930725	2.3598	0.863467	2.17827														
0.932598	2.35898	0.865541	2.17838														
0.934472	2.35816	0.867615	2.17849														
0.936347	2.35735	0.869689	2.1786														
0.938223	2.35655	0.871763	2.17871														
0.940099	2.35575	0.873838	2.17882														
0.941977	2.35495	0.875912	2.17893														
0.943855	2.35417	0.877986	2.17904														
0.945734	2.35338	0.88006	2.17915														
0.947613	2.35261	0.882134	2.17926														
0.949494	2.35184	0.884208	2.17937														
0.951375	2.35107	0.886282	2.17947														
0.953257	2.35031	0.888356	2.17958														
0.95514	2.34955	0.89043	2.17969														
0.957023	2.3488	0.892504	2.17979														
0.958908	2.34806	0.894578	2.1799														
0.960793	2.34732	0.896652	2.18														
0.962678	2.34659	0.898726	2.1801														
0.964565	2.34586	0.9008	2.18021														
0.966452	2.34513	0.902874	2.18031														
0.96834	2.34441	0.904948	2.18041														
0.970229	2.3437	0.907022	2.18052														
0.972118	2.34299	0.909096	2.18062														
0.974008	2.34229	0.91117	2.18072														
0.975899	2.34159	0.913244	2.18082														
0.977791	2.34089	0.915318	2.18092														
0.979683	2.3402	0.917392	2.18102														
0.981576	2.33952	0.919465	2.18112														
0.98347	2.33884	0.921539	2.18122														
0.985364	2.33816	0.923613	2.18132														
0.98726	2.33749	0.925687	2.18141														
0.989155	2.33683	0.927761	2.18151														
0.991052	2.33616	0.929835	2.18161														
0.992949	2.33551	0.931909	2.1817														
0.994847	2.33485	0.933983	2.1818														
0.996746	2.33421	0.936056	2.1819														
0.998645	2.33356	0.93813	2.18199														
1.00054	2.33292	0.940204	2.18209														
		0.942278	2.18218														
		0.944352	2.18227														
		0.946425	2.18237														
		0.948499	2.18246														
		0.950573	2.18255														
		0.952647	2.18265														
		0.95472	2.18274														
		0.956794	2.18283														
		0.958868	2.18292														
		0.960942	2.18301														
		0.963015	2.1831														
		0.965089	2.18319														
		0.967163	2.18328														
		0.969236	2.18337														
		0.97131	2.18346														
		0.973384	2.18355														
		0.975457	2.18363														
		0.977531	2.18372														
		0.979605	2.18381														
		0.981678	2.1839														
		0.983752	2.18398														
		0.985826	2.18407														
		0.987899	2.18415														
		0.989973	2.18424														
		0.992046	2.18432														
		0.99412	2.18441														
		0.996193	2.18449														
		0.998267	2.18458														
		1.00034	2.18466														
