Sym0		Asym0		Sym1		Sym2		Asym1		Asym2	
309  Points		399  Points		310  Points		231  Points		343  Points		213  Points	
Freq (MHz)	Vph (m/ms)	Freq (MHz)	Vph (m/ms)	Freq (MHz)	Vph (m/ms)	Freq (MHz)	Vph (m/ms)	Freq (MHz)	Vph (m/ms)	Freq (MHz)	Vph (m/ms)
0.488339	1063.09	0.000225618	0.134042	1.00143	5.24912	0.677003	35507.5	0.338525	590.752	0.976684	4425.7
0.488305	449.013	0.000425169	0.18395	0.999711	5.2574	0.677028	1046.06	0.338606	281.892	0.976568	1150.48
0.488244	284.581	0.00068721	0.233787	0.997979	5.26569	0.6771	530.907	0.338743	185.173	0.976316	661.021
0.488155	208.274	0.00101131	0.28347	0.996238	5.27398	0.677219	355.773	0.338938	137.92	0.975936	463.599
0.488039	164.215	0.00139731	0.333028	0.994487	5.28227	0.677384	267.565	0.339189	109.925	0.975435	356.874
0.487896	135.523	0.00184471	0.382409	0.992726	5.29057	0.677596	214.442	0.339496	91.4151	0.974823	290.003
0.487726	115.349	0.00235311	0.4316	0.990953	5.29886	0.677854	178.95	0.339859	78.2737	0.97411	244.164
0.487531	100.389	0.00292195	0.480567	0.98917	5.30715	0.678158	153.565	0.340278	68.4652	0.973308	210.776
0.487309	88.8513	0.00355067	0.52929	0.987374	5.31543	0.678508	134.511	0.340751	60.8677	0.972426	185.37
0.487062	79.6804	0.00423867	0.57775	0.985565	5.3237	0.678902	119.685	0.34128	54.8119	0.971474	165.385
0.486791	72.2151	0.00498534	0.625932	0.983744	5.33195	0.679342	107.823	0.341862	49.8738	0.970463	149.252
0.486495	66.0192	0.00578982	0.673798	0.981909	5.34018	0.679826	98.1173	0.342497	45.772	0.9694	135.955
0.486176	60.7937	0.00665153	0.721349	0.98006	5.3484	0.680353	90.0313	0.343185	42.312	0.968292	124.805
0.485833	56.3266	0.00756956	0.768552	0.978196	5.35659	0.680923	83.1916	0.343925	39.3553	0.967147	115.32
0.485469	52.4636	0.00854316	0.8154	0.976316	5.36475	0.681536	77.3317	0.344715	36.8006	0.965969	107.154
0.485083	49.0896	0.00957141	0.861869	0.974421	5.37288	0.68219	72.256	0.345556	34.572	0.964765	100.049
0.484676	46.1169	0.0106534	0.907945	0.97251	5.38098	0.682886	67.8176	0.346447	32.6116	0.963538	93.8109
0.484249	43.4777	0.0117884	0.953619	0.970582	5.38904	0.683621	63.9042	0.347385	30.8744	0.962291	88.29
0.483804	41.1187	0.0129752	0.998875	0.968637	5.39707	0.684397	60.4284	0.348372	29.3249	0.961029	83.3694
0.48334	38.9973	0.014213	1.04369	0.966674	5.40505	0.685211	57.3212	0.349405	27.9348	0.959755	78.9564
0.482858	37.0793	0.015501	1.08808	0.964692	5.41298	0.686064	54.5272	0.350484	26.6811	0.95847	74.9762
0.482361	35.3365	0.0168378	1.13201	0.962692	5.42086	0.686953	52.0018	0.351607	25.5451	0.957178	71.3683
0.481847	33.746	0.0182228	1.17548	0.960673	5.42869	0.687879	49.7082	0.352774	24.5113	0.955879	68.0828
0.481319	32.2886	0.0196548	1.21848	0.958634	5.43647	0.688841	47.6163	0.353984	23.5668	0.954576	65.0783
0.480777	30.9481	0.0211328	1.261	0.956575	5.44418	0.689837	45.7008	0.355235	22.7007	0.95327	62.3205
0.480222	29.7111	0.0226559	1.30305	0.954495	5.45184	0.690868	43.9406	0.356527	21.9041	0.951963	59.7801
0.479656	28.5659	0.024223	1.3446	0.952395	5.45943	0.691932	42.3176	0.357858	21.1689	0.950655	57.4326
0.479078	27.5026	0.0258332	1.38566	0.950274	5.46696	0.693027	40.8166	0.359229	20.4886	0.949349	55.2567
0.478491	26.5128	0.0274854	1.42623	0.948131	5.47441	0.694155	39.4244	0.360636	19.8575	0.948044	53.2345
0.477894	25.5891	0.0291786	1.4663	0.945966	5.48179	0.695313	38.1299	0.36208	19.2705	0.946743	51.3502
0.477289	24.7251	0.0309119	1.50587	0.943779	5.4891	0.696501	36.9231	0.363559	18.7233	0.945444	49.5902
0.476678	23.9152	0.0326843	1.54494	0.941571	5.49634	0.697718	35.7957	0.365073	18.2121	0.944151	47.9427
0.476059	23.1545	0.0344948	1.5835	0.939339	5.50349	0.698963	34.74	0.36662	17.7335	0.942862	46.3974
0.475436	22.4386	0.0363425	1.62156	0.937085	5.51057	0.700235	33.7496	0.368199	17.2848	0.941578	44.945
0.474808	21.7638	0.0382264	1.65911	0.934809	5.51756	0.701534	32.8186	0.369809	16.8631	0.940301	43.5774
0.474177	21.1266	0.0401455	1.69617	0.932509	5.52447	0.702859	31.9419	0.37145	16.4663	0.939031	42.2875
0.473543	20.5239	0.0420992	1.73272	0.930186	5.53129	0.704209	31.115	0.37312	16.0922	0.937768	41.0689
0.472907	19.9532	0.0440863	1.76878	0.927841	5.53803	0.705583	30.3339	0.374819	15.7391	0.936512	39.9158
0.472271	19.4119	0.046106	1.80434	0.925472	5.54468	0.70698	29.5947	0.376545	15.4052	0.935265	38.8232
0.471635	18.8978	0.0481576	1.83941	0.923081	5.55124	0.708401	28.8944	0.378297	15.0891	0.934026	37.7865
0.471	18.409	0.0502401	1.87399	0.920666	5.55772	0.709843	28.23	0.380075	14.7895	0.932796	36.8016
0.470367	17.9437	0.0523528	1.90809	0.918228	5.5641	0.711307	27.5988	0.381877	14.5051	0.931575	35.8646
0.469736	17.5003	0.0544947	1.9417	0.915768	5.5704	0.712792	26.9983	0.383703	14.2348	0.930364	34.9722
0.469109	17.0773	0.0566651	1.97484	0.913285	5.5766	0.714296	26.4266	0.385552	13.9777	0.929163	34.1214
0.468487	16.6734	0.0588633	2.0075	0.91078	5.58271	0.71582	25.8815	0.387423	13.7328	0.927972	33.3093
0.46787	16.2873	0.0610885	2.03969	0.908252	5.58874	0.717362	25.3613	0.389315	13.4993	0.926792	32.5334
0.46726	15.918	0.0633401	2.07143	0.905702	5.59467	0.718923	24.8643	0.391228	13.2764	0.925622	31.7914
0.466656	15.5644	0.0656172	2.1027	0.903131	5.60052	0.720501	24.389	0.393159	13.0635	0.924464	31.081
0.46606	15.2255	0.0679192	2.13352	0.900537	5.60628	0.722096	23.9341	0.39511	12.8599	0.923317	30.4005
0.465473	14.9005	0.0702454	2.1639	0.897923	5.61195	0.723707	23.4982	0.397078	12.665	0.922182	29.7478
0.464895	14.5887	0.0725951	2.19383	0.895287	5.61753	0.725333	23.0803	0.399063	12.4783	0.921059	29.1215
0.464327	14.2892	0.0749677	2.22332	0.892631	5.62302	0.726975	22.6792	0.401065	12.2994	0.919948	28.52
0.463771	14.0014	0.0773626	2.25239	0.889954	5.62843	0.728631	22.294	0.403083	12.1276	0.91885	27.9418
0.463226	13.7247	0.0797793	2.28103	0.887258	5.63376	0.730301	21.9238	0.405115	11.9627	0.917764	27.3857
0.462695	13.4585	0.082217	2.30926	0.884541	5.639	0.731985	21.5676	0.407162	11.8042	0.916692	26.8504
0.462176	13.2022	0.0846753	2.33707	0.881806	5.64416	0.733681	21.2248	0.409222	11.6517	0.915632	26.3348
0.461672	12.9553	0.0871534	2.36448	0.879051	5.64925	0.73539	20.8945	0.411295	11.5049	0.914586	25.8379
0.461183	12.7174	0.0896511	2.39148	0.876278	5.65425	0.737111	20.5762	0.41338	11.3636	0.913554	25.3588
0.46071	12.4881	0.0921677	2.4181	0.873487	5.65918	0.738844	20.2691	0.415477	11.2274	0.912535	24.8964
0.460254	12.2668	0.0947026	2.44432	0.870678	5.66403	0.740587	19.9728	0.417584	11.096	0.911531	24.45
0.459815	12.0534	0.0972555	2.47016	0.867852	5.66881	0.742341	19.6866	0.419702	10.9692	0.910541	24.0188
0.459394	11.8473	0.0998257	2.49563	0.865009	5.67352	0.744104	19.41	0.421556	10.8622	0.909566	23.602
0.458992	11.6482	0.102413	2.52072	0.862149	5.67815	0.745878	19.1426	0.423142	10.7735	0.908606	23.1989
0.45861	11.4559	0.105017	2.54546	0.859273	5.68272	0.747661	18.8839	0.424457	10.7019	0.90766	22.8089
0.458249	11.27	0.107637	2.56983	0.856382	5.68723	0.749452	18.6335	0.425499	10.6463	0.90673	22.4315
0.45791	11.0903	0.110272	2.59385	0.853475	5.69167	0.751252	18.3911	0.426266	10.6059	0.905816	22.066
0.457592	10.9166	0.112923	2.61753	0.850554	5.69604	0.753059	18.1561	0.426758	10.5804	0.904917	21.7118
0.457298	10.7485	0.115588	2.64086	0.847618	5.70036	0.754875	17.9284	0.427465	10.544	0.904034	21.3686
0.457027	10.5858	0.118268	2.66386	0.844668	5.70462	0.756697	17.7075	0.428235	10.5048	0.903167	21.0358
0.456782	10.4284	0.120962	2.68654	0.841704	5.70883	0.758527	17.4932	0.429284	10.4523	0.902316	20.7129
0.456562	10.276	0.12367	2.70888	0.838728	5.71298	0.760362	17.2851	0.430612	10.3871	0.901483	20.3996
0.456368	10.1285	0.126391	2.73091	0.835738	5.71707	0.762204	17.083	0.432222	10.3099	0.900666	20.0955
0.456201	9.98557	0.129126	2.75263	0.832736	5.72112	0.764052	16.8867	0.434116	10.2216	0.899865	19.8002
0.456063	9.84716	0.131872	2.77404	0.829722	5.72512	0.765904	16.6959	0.436294	10.1231	0.899083	19.5132
0.455954	9.71306	0.134632	2.79515	0.826697	5.72908	0.767762	16.5103	0.438478	10.0277	0.898317	19.2344
0.455875	9.58314	0.137403	2.81596	0.82366	5.73299	0.769625	16.3298	0.440667	9.935	0.89757	18.9633
0.455826	9.45724	0.140186	2.83648	0.820612	5.73686	0.771492	16.1541	0.44286	9.84503	0.89684	18.6998
0.45581	9.33524	0.14298	2.85671	0.817554	5.74069	0.773363	15.983	0.445058	9.75763	0.896128	18.4434
0.455826	9.21699	0.145786	2.87666	0.814485	5.74448	0.775237	15.8164	0.447259	9.67267	0.895435	18.1939
0.455875	9.10238	0.148602	2.89634	0.811407	5.74823	0.777115	15.6541	0.449463	9.59006	0.89476	17.9511
0.455959	8.99129	0.151429	2.91574	0.808319	5.75195	0.778997	15.496	0.45167	9.50969	0.894104	17.7146
0.456079	8.8836	0.154266	2.93487	0.805222	5.75564	0.780881	15.3417	0.453879	9.43147	0.893467	17.4844
0.456235	8.77923	0.157114	2.95375	0.802116	5.7593	0.782767	15.1913	0.45609	9.3553	0.892849	17.2602
0.456428	8.67805	0.159971	2.97236	0.799002	5.76293	0.784656	15.0446	0.458302	9.28109	0.892251	17.0417
0.45666	8.57999	0.162838	2.99073	0.79588	5.76654	0.786546	14.9014	0.460515	9.20877	0.891672	16.8287
0.456931	8.48494	0.165714	3.00884	0.79275	5.77012	0.788438	14.7615	0.462729	9.13825	0.891113	16.6211
0.457242	8.39283	0.1686	3.02671	0.789612	5.77368	0.790332	14.625	0.464942	9.06946	0.890574	16.4187
0.457595	8.30356	0.171494	3.04434	0.786467	5.77722	0.792226	14.4916	0.467156	9.00233	0.890055	16.2213
0.45799	8.21707	0.174397	3.06173	0.783315	5.78074	0.794122	14.3613	0.469369	8.93679	0.889557	16.0287
0.458429	8.13328	0.177308	3.07889	0.780157	5.78425	0.796018	14.2338	0.47158	8.87278	0.88908	15.8408
0.458911	8.0521	0.180228	3.09582	0.776992	5.78774	0.797914	14.1093	0.47379	8.81024	0.888623	15.6574
0.459439	7.97349	0.183156	3.11253	0.773821	5.79121	0.79981	13.9874	0.475999	8.74911	0.888188	15.4785
0.460013	7.89736	0.186092	3.12902	0.770644	5.79468	0.801706	13.8683	0.478205	8.68934	0.887774	15.3037
0.460635	7.82366	0.189035	3.14529	0.767462	5.79814	0.803602	13.7516	0.480408	8.63086	0.887382	15.1331
0.461304	7.75232	0.191986	3.16135	0.764275	5.80159	0.805497	13.6375	0.482609	8.57365	0.887012	14.9665
0.462023	7.68328	0.194944	3.1772	0.761082	5.80504	0.80739	13.5257	0.484807	8.51763	0.886663	14.8037
0.462791	7.6165	0.19791	3.19285	0.757886	5.80848	0.809283	13.4162	0.487	8.46278	0.886337	14.6446
0.46361	7.55191	0.200882	3.20829	0.754684	5.81193	0.811174	13.309	0.48919	8.40905	0.886033	14.4892
0.46448	7.48945	0.203862	3.22353	0.751478	5.81537	0.813063	13.2039	0.491376	8.35639	0.885752	14.3374
0.465403	7.42909	0.206848	3.23858	0.748269	5.81882	0.814951	13.1009	0.493557	8.30476	0.885494	14.1889
0.466379	7.37075	0.209841	3.25344	0.745055	5.82227	0.816836	12.9999	0.495733	8.25413	0.885259	14.0438
0.467408	7.31441	0.21284	3.26811	0.741839	5.82573	0.818719	12.9009	0.497903	8.20447	0.885047	13.9019
0.468491	7.26	0.215845	3.28259	0.738619	5.8292	0.820599	12.8038	0.500069	8.15573	0.884859	13.7632
0.46963	7.20748	0.218856	3.29689	0.735396	5.83268	0.822477	12.7086	0.502228	8.10788	0.884694	13.6275
0.470823	7.15679	0.221873	3.31102	0.73217	5.83617	0.824351	12.6151	0.504381	8.0609	0.884553	13.4947
0.472071	7.1079	0.224897	3.32496	0.728942	5.83968	0.826222	12.5233	0.506528	8.01475	0.884437	13.3649
0.473376	7.06076	0.227925	3.33874	0.725712	5.8432	0.82809	12.4333	0.508668	7.9694	0.884344	13.2378
0.474736	7.01532	0.23096	3.35234	0.722479	5.84675	0.829954	12.3448	0.5108	7.92482	0.884276	13.1135
0.476152	6.97153	0.234	3.36578	0.719245	5.85031	0.831814	12.2579	0.512926	7.881	0.884233	12.9918
0.477624	6.92936	0.237045	3.37904	0.716009	5.8539	0.833669	12.1726	0.515044	7.83789	0.884214	12.8727
0.479152	6.88874	0.240095	3.39215	0.712772	5.85752	0.835521	12.0888	0.517154	7.79549	0.884221	12.7562
0.480735	6.84965	0.24315	3.4051	0.709534	5.86116	0.837368	12.0064	0.519256	7.75375	0.884253	12.6421
0.482374	6.81203	0.246211	3.41789	0.706295	5.86484	0.83921	11.9254	0.52135	7.71267	0.88431	12.5304
0.484067	6.77584	0.249276	3.43053	0.703056	5.86855	0.841048	11.8458	0.523435	7.67222	0.884392	12.421
0.485815	6.74104	0.252346	3.44302	0.699816	5.8723	0.842645	11.7775	0.525511	7.63238	0.884501	12.3139
0.487617	6.70757	0.255421	3.45535	0.696576	5.87608	0.844003	11.72	0.527578	7.59313	0.884635	12.209
0.489472	6.67541	0.2585	3.46754	0.693336	5.87991	0.845124	11.673	0.529635	7.55444	0.884795	12.1062
0.491379	6.64449	0.261583	3.47959	0.690096	5.88378	0.846008	11.6362	0.531683	7.51631	0.884981	12.0056
0.493337	6.61479	0.264671	3.49149	0.686857	5.88769	0.846658	11.6093	0.533721	7.47871	0.885165	11.9196
0.495346	6.58626	0.267763	3.50325	0.683619	5.89166	0.847074	11.5922	0.53575	7.44164	0.885337	11.8475
0.497405	6.55885	0.270859	3.51487	0.680382	5.89568	0.84767	11.5677	0.537768	7.40506	0.885491	11.7886
0.499512	6.53253	0.27396	3.52636	0.677146	5.89975	0.848318	11.5412	0.539775	7.36896	0.88562	11.7427
0.501666	6.50724	0.277064	3.53771	0.673912	5.90388	0.849198	11.5054	0.541772	7.33334	0.885718	11.7091
0.503581	6.48603	0.280172	3.54893	0.67068	5.90808	0.850309	11.4605	0.543759	7.29817	0.885783	11.6878
0.505241	6.46853	0.283284	3.56002	0.66745	5.91234	0.851649	11.4069	0.545734	7.26345	0.885879	11.6573
0.506632	6.45445	0.2864	3.57099	0.664222	5.91667	0.853217	11.3447	0.547698	7.22915	0.885986	11.6244
0.507743	6.44357	0.289519	3.58183	0.660997	5.92108	0.85501	11.2744	0.549651	7.19527	0.886137	11.58
0.508567	6.4357	0.292641	3.59254	0.657775	5.92555	0.856797	11.2051	0.551593	7.1618	0.886338	11.5246
0.509097	6.43072	0.295768	3.60313	0.654556	5.93012	0.858578	11.1369	0.553523	7.12872	0.886594	11.4584
0.509863	6.42365	0.298897	3.6136	0.651341	5.93476	0.860351	11.0697	0.555441	7.09602	0.886913	11.382
0.5107	6.41606	0.30203	3.62396	0.64813	5.93949	0.862117	11.0035	0.557347	7.06369	0.887305	11.2959
0.511847	6.40592	0.305166	3.63419	0.644923	5.94432	0.863877	10.9383	0.559242	7.03172	0.887724	11.2116
0.513312	6.39338	0.308305	3.64432	0.64172	5.94925	0.865629	10.874	0.561124	7.0001	0.88817	11.129
0.515103	6.37862	0.311447	3.65432	0.638522	5.95428	0.867373	10.8106	0.562995	6.96882	0.888643	11.0479
0.517232	6.36185	0.314592	3.66422	0.63533	5.95941	0.869111	10.7481	0.564853	6.93788	0.889144	10.9685
0.51971	6.34332	0.31774	3.67401	0.632143	5.96466	0.87084	10.6865	0.566699	6.90726	0.889672	10.8906
0.522224	6.32552	0.320891	3.68368	0.628961	5.97003	0.872561	10.6257	0.568532	6.87696	0.890227	10.8143
0.524774	6.3084	0.324044	3.69325	0.625787	5.97552	0.874275	10.5657	0.570354	6.84696	0.89081	10.7394
0.527357	6.29195	0.3272	3.70272	0.622618	5.98115	0.87598	10.5066	0.572162	6.81727	0.89142	10.666
0.529974	6.27612	0.330359	3.71208	0.619457	5.98691	0.877678	10.4482	0.573958	6.78787	0.892058	10.594
0.532621	6.2609	0.333521	3.72133	0.616304	5.99281	0.879367	10.3906	0.575742	6.75875	0.892723	10.5234
0.535299	6.24626	0.336685	3.73049	0.613158	5.99886	0.881047	10.3338	0.577513	6.72992	0.893416	10.4541
0.538006	6.23216	0.339851	3.73954	0.610021	6.00507	0.882719	10.2777	0.579272	6.70136	0.894136	10.3862
0.54074	6.21859	0.34302	3.7485	0.606893	6.01145	0.884382	10.2223	0.581018	6.67307	0.894884	10.3196
0.543502	6.20552	0.34619	3.75736	0.603774	6.018	0.886037	10.1676	0.582752	6.64504	0.895659	10.2543
0.546289	6.19292	0.348955	3.765	0.600665	6.02473	0.887683	10.1136	0.584473	6.61727	0.896462	10.1902
0.5491	6.18078	0.351314	3.77146	0.597566	6.03165	0.889319	10.0602	0.586182	6.58975	0.897291	10.1273
0.551935	6.16908	0.353265	3.77676	0.594478	6.03877	0.890947	10.0075	0.587878	6.56248	0.898148	10.0656
0.554792	6.15778	0.354808	3.78093	0.591402	6.0461	0.892566	9.95546	0.589562	6.53545	0.899033	10.0051
0.557672	6.14688	0.355943	3.78398	0.588337	6.05365	0.894175	9.90402	0.591234	6.50866	0.899944	9.94571
0.560571	6.13635	0.35667	3.78592	0.585286	6.06143	0.895775	9.85319	0.592893	6.48211	0.900882	9.88744
0.56349	6.12619	0.357715	3.78871	0.582248	6.06945	0.897366	9.80296	0.594541	6.45578	0.901847	9.83026
0.566429	6.11636	0.35885	3.79173	0.579223	6.07772	0.898948	9.75331	0.596176	6.42969	0.902839	9.77415
0.569385	6.10686	0.360395	3.79582	0.576214	6.08625	0.90052	9.70423	0.5978	6.40382	0.903857	9.71908
0.572358	6.09767	0.36235	3.80096	0.57322	6.09507	0.902083	9.65571	0.599412	6.37817	0.904902	9.66503
0.575347	6.08877	0.364715	3.80713	0.570242	6.10417	0.903636	9.60774	0.601013	6.35274	0.905973	9.61199
0.578353	6.08015	0.36749	3.8143	0.56728	6.11358	0.90518	9.5603	0.602602	6.32752	0.907071	9.55992
0.581373	6.07181	0.370676	3.82246	0.564337	6.12331	0.906714	9.51339	0.604179	6.30252	0.908194	9.5088
0.584407	6.06372	0.373864	3.83052	0.561412	6.13338	0.908238	9.46699	0.605746	6.27772	0.909343	9.45863
0.587455	6.05587	0.377054	3.8385	0.558507	6.1438	0.909754	9.4211	0.607302	6.25314	0.910517	9.40937
0.590515	6.04826	0.380246	3.84639	0.555622	6.15459	0.911259	9.3757	0.608846	6.22876	0.911718	9.361
0.593588	6.04087	0.383439	3.8542	0.552758	6.16577	0.912755	9.33079	0.610381	6.20458	0.912943	9.31352
0.596673	6.03369	0.386633	3.86192	0.549916	6.17736	0.914241	9.28636	0.611905	6.18061	0.914193	9.26689
0.599769	6.02671	0.389829	3.86957	0.547098	6.18937	0.915718	9.24239	0.613418	6.15684	0.915468	9.2211
0.602875	6.01993	0.393026	3.87713	0.544304	6.20183	0.917186	9.19888	0.614922	6.13326	0.916767	9.17613
0.605991	6.01332	0.396225	3.88461	0.541535	6.21477	0.918643	9.15582	0.616416	6.10988	0.918091	9.13196
0.609117	6.0069	0.399425	3.89202	0.538793	6.22819	0.920092	9.1132	0.617901	6.0867	0.919439	9.08858
0.612251	6.00064	0.402626	3.89934	0.536078	6.24213	0.921531	9.07102	0.619376	6.06372	0.92081	9.04597
0.615395	5.99454	0.405828	3.90659	0.533391	6.25662	0.922961	9.02926	0.620843	6.04092	0.922205	9.00411
0.618546	5.9886	0.409031	3.91376	0.530735	6.27167	0.924381	8.98792	0.6223	6.01832	0.923624	8.96299
0.621705	5.9828	0.412235	3.92085	0.52811	6.28731	0.925792	8.947	0.623749	5.99591	0.925065	8.92258
0.624871	5.97713	0.415441	3.92787	0.525517	6.30358	0.927194	8.90648	0.62519	5.97369	0.926528	8.88288
0.628044	5.9716	0.418647	3.93481	0.522957	6.3205	0.928587	8.86636	0.626623	5.95166	0.928014	8.84387
0.631223	5.9662	0.421853	3.94168	0.520432	6.33811	0.929971	8.82664	0.628049	5.92982	0.929523	8.80553
0.634409	5.96092	0.425061	3.94848	0.517944	6.35642	0.931346	8.7873	0.629467	5.90817	0.931052	8.76785
0.6376	5.95575	0.428269	3.9552	0.515493	6.37549	0.932713	8.74835	0.630878	5.88671	0.932604	8.73081
0.640796	5.95069	0.431478	3.96186	0.51308	6.39534	0.93407	8.70976	0.632282	5.86543	0.934176	8.69441
0.643997	5.94573	0.434688	3.96844	0.510707	6.416	0.93542	8.67155	0.63368	5.84434	0.935769	8.65861
0.647203	5.94088	0.437898	3.97495	0.508376	6.43751	0.93676	8.63371	0.635071	5.82344	0.937383	8.62342
0.650413	5.93612	0.441108	3.98139	0.506087	6.45991	0.938093	8.59622	0.636457	5.80272	0.939017	8.58882
0.653627	5.93145	0.444319	3.98776	0.503842	6.48323	0.939417	8.55909	0.637837	5.78219	0.94067	8.55479
0.656845	5.92686	0.44753	3.99406	0.501642	6.50752	0.940734	8.52231	0.639211	5.76184	0.942343	8.52133
0.660066	5.92236	0.450742	4.0003	0.499488	6.53281	0.942042	8.48588	0.640581	5.74168	0.944035	8.48842
0.66329	5.91794	0.453953	4.00646	0.497381	6.55915	0.943343	8.44979	0.641946	5.7217	0.945746	8.45604
0.666517	5.91359	0.457165	4.01256	0.495323	6.58657	0.944637	8.41403	0.643307	5.70191	0.947476	8.42419
0.669747	5.9093	0.460376	4.0186	0.493315	6.61512	0.945923	8.37861	0.644664	5.6823	0.949223	8.39285
0.672978	5.90509	0.463588	4.02456	0.491357	6.64483	0.947202	8.34352	0.646017	5.66287	0.950988	8.36202
0.676212	5.90094	0.466799	4.03046	0.489451	6.67576	0.948474	8.30875	0.647367	5.64363	0.952771	8.33167
0.679447	5.89685	0.47001	4.0363	0.487596	6.70794	0.94974	8.2743	0.648714	5.62457	0.954571	8.30181
0.682684	5.89281	0.473221	4.04206	0.485795	6.74142	0.950999	8.24018	0.650059	5.6057	0.956387	8.27241
0.685922	5.88883	0.476431	4.04777	0.484048	6.77624	0.952251	8.20637	0.651401	5.58701	0.958219	8.24348
0.689161	5.8849	0.479641	4.05341	0.482355	6.81244	0.953498	8.17287	0.652741	5.5685	0.960068	8.21499
0.6924	5.88102	0.482851	4.05898	0.480717	6.85008	0.954738	8.13968	0.654079	5.55018	0.961932	8.18693
0.69564	5.87718	0.486059	4.06449	0.479134	6.88919	0.955974	8.10679	0.655416	5.53203	0.963812	8.15931
0.69888	5.87338	0.489267	4.06994	0.477607	6.92982	0.957203	8.07421	0.656752	5.51408	0.965706	8.1321
0.70212	5.86963	0.492474	4.07533	0.476136	6.97202	0.958428	8.04193	0.658088	5.4963	0.967615	8.1053
0.70536	5.86591	0.495681	4.08065	0.47472	7.01582	0.959648	8.00995	0.659423	5.47871	0.969538	8.0789
0.708599	5.86222	0.498886	4.0859	0.473361	7.06128	0.960863	7.97826	0.660758	5.4613	0.971475	8.05289
0.711837	5.85857	0.50209	4.0911	0.472057	7.10844	0.962074	7.94687	0.662094	5.44408	0.973426	8.02727
0.715074	5.85494	0.505293	4.09623	0.470809	7.15735	0.963281	7.91577	0.66343	5.42703	0.975389	8.00201
0.718311	5.85135	0.508494	4.1013	0.469616	7.20805	0.964484	7.88495	0.664767	5.41017	0.977366	7.97711
0.721545	5.84777	0.511694	4.1063	0.468479	7.2606	0.965684	7.85443	0.666106	5.39349	0.979355	7.95257
0.724778	5.84422	0.514893	4.11125	0.467396	7.31503	0.966881	7.82419	0.667446	5.377	0.981355	7.92838
0.728009	5.84069	0.518089	4.11613	0.466368	7.3714	0.968075	7.79423	0.668789	5.36069	0.983368	7.90453
0.731238	5.83718	0.521284	4.12095	0.465393	7.42975	0.969266	7.76455	0.670134	5.34456	0.985392	7.881
0.734464	5.83368	0.524477	4.1257	0.46447	7.49014	0.970455	7.73515	0.671481	5.32861	0.987427	7.8578
0.737688	5.8302	0.527668	4.13039	0.4636	7.55262	0.971642	7.70603	0.672832	5.31285	0.989473	7.83492
0.740909	5.82673	0.530857	4.13502	0.462782	7.61723	0.972828	7.67719	0.674186	5.29727	0.991529	7.81234
0.744127	5.82327	0.534044	4.13959	0.462014	7.68404	0.974012	7.64862	0.675544	5.28187	0.993595	7.79007
0.747341	5.81981	0.537228	4.14409	0.461296	7.7531	0.975196	7.62033	0.676906	5.26665	0.995671	7.76809
0.750552	5.81636	0.540409	4.14853	0.460628	7.82447	0.976379	7.59231	0.678273	5.25162	0.997756	7.74639
0.753759	5.81292	0.543588	4.1529	0.460007	7.8982	0.977562	7.56456	0.679644	5.23677	0.99985	7.72498
0.756961	5.80948	0.546763	4.15722	0.459433	7.97435	0.978745	7.53707	0.681021	5.2221	1.00195	7.70383
0.76016	5.80603	0.549936	4.16146	0.458906	8.053	0.979928	7.50986	0.682403	5.20761		
0.763353	5.80259	0.553105	4.16564	0.458424	8.1342	0.981113	7.48292	0.683791	5.19331		
0.766542	5.79914	0.556271	4.16976	0.457986	8.21802	0.982299	7.45624	0.685185	5.17919		
0.769726	5.79568	0.559433	4.17381	0.457591	8.30455	0.983487	7.42983	0.686586	5.16526		
0.772904	5.79222	0.562591	4.17779	0.457239	8.39384	0.984677	7.40369	0.687994	5.1515		
0.776077	5.78874	0.565745	4.18171	0.456928	8.48599	0.985869	7.37781	0.689409	5.13793		
0.779243	5.78525	0.568895	4.18556	0.456657	8.58107	0.987064	7.35219	0.690832	5.12455		
0.782404	5.78175	0.572041	4.18934	0.456426	8.67917	0.988263	7.32684	0.692263	5.11134		
0.785557	5.77824	0.575182	4.19306	0.456233	8.78038	0.989465	7.30175	0.693702	5.09833		
0.788704	5.7747	0.578318	4.1967	0.456077	8.88479	0.990672	7.27692	0.69515	5.08549		
0.791844	5.77115	0.581448	4.20027	0.455958	8.99251	0.991883	7.25236	0.696608	5.07284		
0.794977	5.76758	0.584574	4.20377	0.455875	9.10364	0.9931	7.22805	0.698075	5.06038		
0.798101	5.76398	0.587694	4.2072	0.455825	9.21829	0.994321	7.20401	0.699551	5.0481		
0.801218	5.76035	0.590807	4.21056	0.45581	9.33658	0.995549	7.18023	0.701039	5.036		
0.804326	5.7567	0.593915	4.21384	0.455827	9.45863	0.996784	7.15671	0.702537	5.02409		
0.807426	5.75302	0.597016	4.21705	0.455876	9.58457	0.998025	7.13345	0.704046	5.01237		
0.810516	5.74931	0.60011	4.22018	0.455955	9.71454	0.999274	7.11045	0.705567	5.00083		
0.813597	5.74556	0.603197	4.22324	0.456065	9.84868	1.00053	7.08771	0.707099	4.98948		
0.816668	5.74178	0.606277	4.22621	0.456203	9.98715			0.708645	4.97832		
0.81973	5.73797	0.609349	4.22911	0.45637	10.1301			0.710203	4.96735		
0.822781	5.73411	0.612413	4.23192	0.456537	10.2585			0.711775	4.95656		
0.825821	5.73021	0.615468	4.23466	0.456696	10.3708			0.71336	4.94597		
0.82885	5.72627	0.618515	4.2373	0.456838	10.4657			0.714959	4.93556		
0.831867	5.72228	0.621552	4.23987	0.456957	10.5421			0.716574	4.92535		
0.834872	5.71825	0.624579	4.24234	0.457049	10.5991			0.718203	4.91533		
0.837866	5.71417	0.627597	4.24473	0.457136	10.6521			0.719848	4.9055		
0.840846	5.71003	0.630604	4.24702	0.457198	10.6893			0.72151	4.89586		
0.843813	5.70584	0.633601	4.24923	0.457297	10.748			0.723188	4.88642		
0.846767	5.7016	0.636586	4.25134	0.457437	10.8289			0.724883	4.87717		
0.849707	5.6973	0.639559	4.25335	0.457622	10.9332			0.726596	4.86812		
0.852633	5.69294	0.64252	4.25527	0.457857	11.0621			0.728327	4.85927		
0.855544	5.68852	0.645469	4.25709	0.458149	11.2175			0.730077	4.85062		
0.85844	5.68403	0.648404	4.2588	0.458504	11.4016			0.731846	4.84216		
0.86132	5.67948	0.651326	4.26042	0.45888	11.592			0.733635	4.83391		
0.864184	5.67486	0.654234	4.26193	0.459276	11.7891			0.735444	4.82586		
0.867032	5.67017	0.657128	4.26333	0.459691	11.9931			0.737274	4.81801		
0.869863	5.66542	0.660007	4.26463	0.460125	12.2044			0.739125	4.81036		
0.872677	5.66059	0.66287	4.26581	0.460577	12.4234			0.740999	4.80292		
0.875474	5.65568	0.665717	4.26689	0.461045	12.6503			0.742895	4.79568		
0.878252	5.6507	0.668548	4.26785	0.461529	12.8857			0.744813	4.78865		
0.881012	5.64564	0.671363	4.2687	0.462029	13.13			0.746756	4.78182		
0.883753	5.6405	0.67416	4.26944	0.462544	13.3835			0.748722	4.77521		
0.886475	5.63528	0.67694	4.27006	0.463072	13.6468			0.750712	4.7688		
0.889178	5.62998	0.679702	4.27056	0.463612	13.9204			0.752728	4.7626		
0.89186	5.62459	0.682445	4.27094	0.464165	14.2049			0.754769	4.7566		
0.894522	5.61912	0.68517	4.2712	0.46473	14.501			0.756835	4.75082		
0.897164	5.61357	0.687876	4.27134	0.465305	14.8092			0.758928	4.74525		
0.899785	5.60792	0.690563	4.27137	0.465889	15.1303			0.761048	4.73988		
0.902384	5.60219	0.693231	4.27127	0.466483	15.465			0.763194	4.73473		
0.904962	5.59637	0.695879	4.27106	0.467084	15.8143			0.765367	4.72978		
0.907518	5.59046	0.698507	4.27072	0.467693	16.179			0.767568	4.72504		
0.910052	5.58446	0.701115	4.27027	0.468308	16.5601			0.769796	4.7205		
0.912564	5.57838	0.703704	4.2697	0.468929	16.9588			0.772053	4.71617		
0.915053	5.5722	0.706272	4.26902	0.469555	17.3761			0.774337	4.71204		
0.91752	5.56593	0.708821	4.26821	0.470184	17.8135			0.776649	4.70812		
0.919964	5.55957	0.71135	4.2673	0.470817	18.2723			0.778989	4.70439		
0.922386	5.55312	0.713859	4.26628	0.471451	18.7541			0.781357	4.70086		
0.924784	5.54659	0.716349	4.26515	0.472087	19.2607			0.783753	4.69752		
0.927159	5.53996	0.718819	4.26391	0.472724	19.7939			0.786176	4.69437		
0.929511	5.53325	0.721271	4.26257	0.473359	20.3559			0.788628	4.69141		
0.931841	5.52645	0.723703	4.26113	0.473994	20.9491			0.791107	4.68864		
0.934147	5.51956	0.726118	4.25959	0.474626	21.576			0.793613	4.68604		
0.93643	5.51259	0.728514	4.25796	0.475255	22.2397			0.796145	4.68363		
0.938691	5.50554	0.730893	4.25623	0.47588	22.9433			0.798704	4.68138		
0.940929	5.49841	0.733255	4.25443	0.4765	23.6907			0.80129	4.67931		
0.943144	5.4912	0.735601	4.25254	0.477113	24.4859			0.8039	4.6774		
0.945337	5.48391	0.73793	4.25057	0.47772	25.3337			0.806537	4.67565		
0.947508	5.47655	0.740244	4.24852	0.478319	26.2396			0.809197	4.67405		
0.949657	5.46912	0.742543	4.24641	0.47891	27.2096			0.811882	4.67261		
0.951784	5.46161	0.744827	4.24423	0.47949	28.2508			0.814591	4.67131		
0.953891	5.45404	0.747098	4.24198	0.48006	29.3714			0.817322	4.67015		
0.955976	5.4464	0.749356	4.23968	0.480618	30.5808			0.820076	4.66912		
0.958041	5.4387	0.751601	4.23732	0.481164	31.8901			0.822852	4.66823		
0.960086	5.43094	0.753834	4.23491	0.481696	33.3122			0.825649	4.66747		
0.962111	5.42313	0.756056	4.23246	0.482214	34.8625			0.828466	4.66682		
0.964117	5.41526	0.758266	4.22996	0.482716	36.559			0.831304	4.6663		
0.966103	5.40734	0.760467	4.22743	0.483202	38.4238			0.834161	4.66588		
0.968072	5.39938	0.762659	4.22485	0.483672	40.4832			0.837037	4.66558		
0.970022	5.39137	0.764841	4.22225	0.484123	42.7697			0.839932	4.66538		
0.971955	5.38331	0.767014	4.21962	0.484555	45.323			0.842843	4.66527		
0.973871	5.37523	0.76918	4.21696	0.484967	48.1931			0.845772	4.66526		
0.975771	5.3671	0.771339	4.21428	0.48536	51.4432			0.848717	4.66534		
0.977654	5.35895	0.773491	4.21159	0.48573	55.1546			0.851678	4.66551		
0.979523	5.35077	0.775637	4.20887	0.486079	59.4333			0.854655	4.66576		
0.981376	5.34256	0.777776	4.20615	0.486405	64.421			0.857646	4.66609		
0.983215	5.33433	0.779911	4.20341	0.486708	70.3105			0.860651	4.66649		
0.985041	5.32608	0.782041	4.20067	0.486986	77.3717			0.86367	4.66697		
0.986853	5.31782	0.784166	4.19792	0.48724	85.9943			0.866702	4.66751		
0.988652	5.30954	0.786288	4.19517	0.487469	96.762			0.869747	4.66811		
0.990439	5.30126	0.788406	4.19242	0.487673	110.592			0.872804	4.66878		
0.992215	5.29297	0.790521	4.18968	0.48785	129.009			0.875873	4.66951		
0.99398	5.28467	0.792633	4.18693	0.488	154.755			0.878953	4.67029		
0.995734	5.27637	0.794743	4.18419	0.488124	193.3			0.882044	4.67112		
0.997477	5.26808	0.796851	4.18146	0.488221	257.355			0.885146	4.67201		
0.999212	5.25979	0.798957	4.17874	0.48829	384.806			0.888258	4.67294		
1.00094	5.25151	0.801062	4.17603	0.488332	762.096			0.891379	4.67391		
		0.803166	4.17334	0.488346	38675.9			0.89451	4.67493		
		0.80527	4.17065					0.89765	4.67599		
		0.807373	4.16798					0.900798	4.67709		
		0.809476	4.16533					0.903955	4.67822		
		0.811579	4.1627					0.90712	4.67939		
		0.813682	4.16009					0.910292	4.68059		
		0.815786	4.15749					0.913472	4.68182		
		0.817891	4.15492					0.91666	4.68308		
		0.819997	4.15236					0.919854	4.68436		
		0.822104	4.14983					0.923055	4.68567		
		0.824213	4.14733					0.926262	4.68701		
		0.826323	4.14485					0.929475	4.68837		
		0.828435	4.14239					0.932695	4.68975		
		0.830549	4.13995					0.93592	4.69115		
		0.832665	4.13755					0.93915	4.69256		
		0.834783	4.13517					0.942386	4.694		
		0.836904	4.13281					0.945628	4.69545		
		0.839027	4.13048					0.948874	4.69692		
		0.841153	4.12818					0.952125	4.69841		
		0.843282	4.12591					0.955381	4.6999		
		0.845413	4.12367					0.958641	4.70142		
		0.847547	4.12145					0.961906	4.70294		
		0.849685	4.11926					0.965174	4.70447		
		0.851826	4.1171					0.968447	4.70602		
		0.853969	4.11497					0.971724	4.70757		
		0.856117	4.11287					0.975005	4.70913		
		0.858267	4.11079					0.978289	4.7107		
		0.860421	4.10875					0.981577	4.71228		
		0.862579	4.10673					0.984868	4.71387		
		0.86474	4.10475					0.988163	4.71546		
		0.866905	4.10279					0.991461	4.71706		
		0.869073	4.10086					0.994762	4.71866		
		0.871246	4.09896					0.998067	4.72027		
		0.873422	4.09709					1.00137	4.72189		
		0.875602	4.09525								
		0.877786	4.09344								
		0.879973	4.09166								
		0.882165	4.0899								
		0.884361	4.08818								
		0.886561	4.08648								
		0.888764	4.08481								
		0.890972	4.08317								
		0.893184	4.08156								
		0.8954	4.07997								
		0.89762	4.07841								
		0.899844	4.07689								
		0.902073	4.07538								
		0.904305	4.07391								
		0.906542	4.07246								
		0.908783	4.07104								
		0.911028	4.06964								
		0.913277	4.06828								
		0.915531	4.06694								
		0.917788	4.06562								
		0.92005	4.06433								
		0.922316	4.06306								
		0.924586	4.06183								
		0.92686	4.06061								
		0.929139	4.05942								
		0.931422	4.05826								
		0.933708	4.05712								
		0.935999	4.056								
		0.938294	4.05491								
		0.940593	4.05384								
		0.942897	4.0528								
		0.945204	4.05177								
		0.947516	4.05077								
		0.949831	4.0498								
		0.952151	4.04884								
		0.954474	4.04791								
		0.956802	4.047								
		0.959133	4.04611								
		0.961469	4.04525								
		0.963808	4.0444								
		0.966152	4.04358								
		0.968499	4.04277								
		0.970851	4.04199								
		0.973206	4.04123								
		0.975565	4.04048								
		0.977928	4.03976								
		0.980295	4.03906								
		0.982665	4.03837								
		0.98504	4.03771								
		0.987418	4.03706								
		0.989799	4.03643								
		0.992185	4.03582								
		0.994574	4.03523								
		0.996967	4.03466								
		0.999363	4.0341								
		1.00176	4.03356								
