Sym0		Asym0		Sym1		Sym2		Asym1		Asym2	
284  Points		383  Points		283  Points		228  Points		334  Points		224  Points	
Freq (MHz)	Vph (m/ms)	Freq (MHz)	Vph (m/ms)	Freq (MHz)	Vph (m/ms)	Freq (MHz)	Vph (m/ms)	Freq (MHz)	Vph (m/ms)	Freq (MHz)	Vph (m/ms)
0.488346	5876.96	0.000369458	0.17146	1.00031	5.19904	0.55902	3431.23	0.279541	431.759	0.838523	2775.04
0.488301	628.008	0.000645409	0.226521	0.998273	5.20724	0.559094	652.107	0.279648	208.398	0.838503	841.355
0.488184	331.65	0.000997116	0.28138	0.996227	5.21546	0.559268	360.397	0.279829	137.418	0.838462	495.822
0.487996	225.254	0.00142404	0.336009	0.994173	5.2237	0.559542	249.1	0.280085	102.566	0.838399	351.457
0.487738	170.486	0.00192553	0.390371	0.992111	5.23195	0.559912	190.401	0.280414	81.8672	0.838315	272.185
0.487414	137.094	0.00250079	0.444426	0.990039	5.24022	0.560378	154.156	0.280816	68.1647	0.83821	222.079
0.487025	114.601	0.00314895	0.498138	0.987958	5.24849	0.560937	129.559	0.281291	58.4304	0.838085	187.54
0.486575	98.4133	0.00386895	0.551455	0.985867	5.25678	0.561584	111.779	0.281837	51.1635	0.837939	162.288
0.486068	86.2029	0.00465986	0.604366	0.983766	5.26507	0.562316	98.3333	0.282454	45.5351	0.837773	143.02
0.485507	76.6619	0.00552043	0.65682	0.981653	5.27337	0.563131	87.8119	0.283141	41.0502	0.837587	127.834
0.484896	68.9994	0.00644945	0.708791	0.97953	5.28166	0.564023	79.3576	0.283897	37.3948	0.837382	115.555
0.484239	62.7092	0.00744564	0.760251	0.977395	5.28996	0.56499	72.4178	0.284721	34.3603	0.837159	105.422
0.48354	57.452	0.00850768	0.811174	0.975248	5.29825	0.566026	66.6206	0.285611	31.8024	0.836916	96.9158
0.482803	52.992	0.00963411	0.86153	0.973088	5.30654	0.567129	61.7068	0.286566	29.6185	0.836657	89.6744
0.482032	49.1603	0.0108236	0.911303	0.970915	5.31482	0.568294	57.4897	0.287585	27.7333	0.83638	83.4345
0.481231	45.8326	0.0120745	0.960467	0.968729	5.32308	0.569517	53.8317	0.288666	26.0903	0.836086	78.0016
0.480402	42.9153	0.0133854	1.00901	0.966528	5.33133	0.570797	50.6293	0.289808	24.6465	0.835777	73.2284
0.479551	40.3368	0.0147547	1.0569	0.964313	5.33957	0.572128	47.8029	0.291009	23.3686	0.835452	69.0016
0.478678	38.0414	0.0161811	1.10415	0.962083	5.34778	0.573508	45.2903	0.292269	22.2301	0.835112	65.2321
0.477789	35.9848	0.0176628	1.15073	0.959837	5.35598	0.574934	43.0425	0.293584	21.2098	0.834758	61.8495
0.476885	34.1315	0.0191985	1.19664	0.957576	5.36414	0.576403	41.0199	0.294955	20.2909	0.834391	58.797
0.47597	32.453	0.0207863	1.24186	0.955298	5.37228	0.577913	39.1905	0.296379	19.4592	0.834011	56.0284
0.475045	30.9257	0.022425	1.28638	0.953003	5.38039	0.579462	37.5282	0.297854	18.7033	0.83362	53.5059
0.474114	29.53	0.0241129	1.33022	0.950691	5.38846	0.581046	36.0112	0.29938	18.0136	0.833217	51.198
0.473178	28.2498	0.0258485	1.37336	0.948361	5.3965	0.582664	34.6214	0.300954	17.382	0.832803	49.0784
0.472239	27.0714	0.0276304	1.41579	0.946013	5.40449	0.584314	33.3436	0.302575	16.8017	0.83238	47.1249
0.4713	25.9832	0.0294571	1.45753	0.943646	5.41244	0.585995	32.1649	0.304241	16.267	0.831947	45.3186
0.470362	24.9753	0.0313271	1.49856	0.941261	5.42035	0.587704	31.0742	0.305951	15.7728	0.831506	43.6437
0.469427	24.0392	0.0332391	1.5389	0.938856	5.42821	0.58944	30.0622	0.307704	15.3148	0.831057	42.0861
0.468497	23.1677	0.0351916	1.57855	0.936431	5.43601	0.591202	29.1206	0.309498	14.8895	0.830602	40.634
0.467572	22.3543	0.0371834	1.6175	0.933986	5.44377	0.592988	28.2425	0.311331	14.4935	0.83014	39.277
0.466655	21.5935	0.039213	1.65577	0.93152	5.45146	0.594797	27.4217	0.313202	14.124	0.829672	38.0061
0.465747	20.8805	0.0412792	1.69337	0.929034	5.4591	0.596627	26.6528	0.31511	13.7785	0.829199	36.8134
0.464848	20.211	0.0433808	1.73029	0.926526	5.46667	0.598479	25.9311	0.317054	13.4549	0.828722	35.6918
0.463961	19.5812	0.0455166	1.76654	0.923997	5.47418	0.600351	25.2524	0.319031	13.1513	0.828242	34.6352
0.463086	18.9878	0.0476852	1.80214	0.921447	5.48162	0.602241	24.6129	0.321041	12.8658	0.827758	33.6382
0.462225	18.4277	0.0498857	1.83709	0.918875	5.48899	0.604149	24.0095	0.323082	12.597	0.827273	32.6957
0.461378	17.8984	0.052117	1.8714	0.91628	5.4963	0.606075	23.4392	0.325153	12.3436	0.826785	31.8036
0.460546	17.3975	0.0543778	1.90507	0.913663	5.50353	0.608016	22.8992	0.327254	12.1042	0.826296	30.9578
0.459731	16.9227	0.0566673	1.93813	0.911024	5.51068	0.609974	22.3874	0.329382	11.8779	0.825807	30.1549
0.458933	16.4723	0.0589844	1.97058	0.908363	5.51776	0.611946	21.9016	0.331538	11.6635	0.825318	29.3917
0.458153	16.0444	0.061328	2.00242	0.905679	5.52476	0.613933	21.4398	0.333718	11.4602	0.82483	28.6654
0.457392	15.6375	0.0636974	2.03367	0.902972	5.53168	0.615934	21.0004	0.335924	11.2673	0.824343	27.9734
0.456652	15.2501	0.0660916	2.06434	0.900243	5.53853	0.617947	20.5818	0.338152	11.0839	0.823858	27.3133
0.455931	14.8809	0.0685097	2.09443	0.897491	5.54529	0.619973	20.1824	0.340404	10.9093	0.823375	26.683
0.455233	14.5288	0.0709508	2.12397	0.894717	5.55197	0.622012	19.8011	0.342383	10.764	0.822896	26.0805
0.454557	14.1927	0.0734142	2.15296	0.89192	5.55856	0.624062	19.4367	0.344083	10.6448	0.822419	25.5041
0.453903	13.8715	0.075899	2.1814	0.8891	5.56508	0.626123	19.088	0.345497	10.5493	0.821947	24.952
0.453274	13.5644	0.0784045	2.20932	0.886258	5.57151	0.628194	18.7542	0.346621	10.4757	0.821479	24.423
0.452669	13.2705	0.0809301	2.23672	0.883394	5.57785	0.630276	18.4341	0.34745	10.4227	0.821016	23.9154
0.45209	12.9891	0.0834749	2.2636	0.880508	5.58411	0.632368	18.1271	0.347981	10.3892	0.820558	23.4282
0.451537	12.7194	0.0860384	2.28999	0.8776	5.59029	0.634469	17.8324	0.348747	10.3416	0.820107	22.9601
0.45101	12.4608	0.0886198	2.31589	0.874671	5.59639	0.636579	17.5492	0.349582	10.2907	0.819662	22.51
0.450511	12.2127	0.0912185	2.34132	0.87172	5.6024	0.638698	17.2768	0.350722	10.2227	0.819223	22.0769
0.450041	11.9745	0.0938339	2.36627	0.868748	5.60833	0.640825	17.0148	0.352168	10.1388	0.818792	21.6599
0.449599	11.7458	0.0964655	2.39076	0.865755	5.61418	0.642961	16.7624	0.353926	10.0403	0.818369	21.2582
0.449188	11.5259	0.0991127	2.41481	0.862742	5.61995	0.645104	16.5192	0.356	9.92868	0.817953	20.8709
0.448807	11.3145	0.101775	2.43842	0.859708	5.62564	0.647254	16.2847	0.358395	9.80556	0.817547	20.4973
0.448457	11.1112	0.104452	2.46159	0.856655	5.63124	0.649411	16.0584	0.360805	9.68743	0.817149	20.1368
0.448139	10.9155	0.107142	2.48434	0.853582	5.63678	0.651576	15.8399	0.36323	9.57401	0.81676	19.7886
0.447855	10.7271	0.109847	2.50669	0.85049	5.64223	0.653747	15.6288	0.365668	9.46502	0.816382	19.4521
0.447604	10.5457	0.112564	2.52862	0.847379	5.64761	0.655924	15.4248	0.368119	9.36021	0.816013	19.1268
0.447388	10.3709	0.115294	2.55017	0.84425	5.65292	0.658107	15.2274	0.370582	9.25935	0.815655	18.8122
0.447207	10.2025	0.118036	2.57132	0.841103	5.65816	0.660296	15.0365	0.373057	9.16221	0.815308	18.5078
0.447063	10.0401	0.12079	2.5921	0.837938	5.66333	0.66249	14.8516	0.375543	9.0686	0.814971	18.213
0.446955	9.88359	0.123555	2.61251	0.834756	5.66843	0.664689	14.6725	0.378039	8.97832	0.814647	17.9276
0.446886	9.73259	0.126332	2.63256	0.831558	5.67346	0.666894	14.4989	0.380546	8.89121	0.814334	17.6509
0.446855	9.58694	0.129119	2.65226	0.828343	5.67843	0.669103	14.3305	0.383061	8.80708	0.814034	17.3828
0.446865	9.4464	0.131916	2.6716	0.825112	5.68334	0.671317	14.1673	0.385586	8.72581	0.813746	17.1227
0.446915	9.31077	0.134723	2.69061	0.821865	5.68818	0.673535	14.0088	0.388118	8.64722	0.813472	16.8704
0.447007	9.17988	0.13754	2.70929	0.818604	5.69297	0.675758	13.8549	0.390659	8.57121	0.81321	16.6256
0.447141	9.05352	0.140366	2.72765	0.815328	5.69771	0.677984	13.7054	0.393206	8.49763	0.812962	16.3878
0.44732	8.93155	0.1432	2.74568	0.812037	5.70238	0.680214	13.5601	0.39576	8.42636	0.812728	16.1569
0.447542	8.81379	0.146044	2.76341	0.808733	5.70701	0.682447	13.4188	0.39832	8.35731	0.812508	15.9326
0.447811	8.7001	0.148896	2.78083	0.805416	5.71159	0.684684	13.2815	0.400887	8.29035	0.812303	15.7146
0.448127	8.59033	0.151756	2.79796	0.802085	5.71612	0.686924	13.1478	0.403458	8.2254	0.812113	15.5026
0.44849	8.48435	0.154624	2.81479	0.798742	5.72061	0.689166	13.0177	0.406034	8.16236	0.811937	15.2965
0.448903	8.38204	0.157499	2.83134	0.795387	5.72505	0.691412	12.891	0.408615	8.10115	0.811777	15.096
0.449365	8.28326	0.160381	2.84761	0.79202	5.72946	0.693659	12.7676	0.411199	8.04167	0.811633	14.9009
0.449879	8.18792	0.163271	2.86361	0.788642	5.73383	0.69591	12.6474	0.413787	7.98386	0.811505	14.711
0.450445	8.0959	0.166168	2.87934	0.785253	5.73816	0.698162	12.5302	0.416379	7.92764	0.811393	14.5261
0.451064	8.00709	0.169071	2.89481	0.781853	5.74246	0.700416	12.4159	0.418973	7.87293	0.811297	14.346
0.451738	7.9214	0.17198	2.91002	0.778444	5.74673	0.702672	12.3044	0.42157	7.81968	0.811219	14.1706
0.452468	7.83874	0.174896	2.92499	0.775024	5.75097	0.70493	12.1956	0.424168	7.76782	0.811157	13.9997
0.453254	7.75901	0.177817	2.9397	0.771596	5.75518	0.707189	12.0895	0.426768	7.7173	0.811113	13.8331
0.454098	7.68213	0.180744	2.95418	0.768158	5.75937	0.709449	11.9858	0.42937	7.66805	0.811086	13.6708
0.455	7.60803	0.183677	2.96842	0.764712	5.76354	0.711711	11.8846	0.431972	7.62002	0.811078	13.5125
0.455963	7.53661	0.186615	2.98244	0.761258	5.7677	0.713973	11.7857	0.434575	7.57317	0.811087	13.3581
0.456986	7.4678	0.189559	2.99622	0.757796	5.77183	0.716236	11.6891	0.437178	7.52744	0.811115	13.2075
0.458071	7.40154	0.192507	3.00979	0.754326	5.77596	0.7185	11.5946	0.439782	7.48279	0.811162	13.0606
0.459219	7.33774	0.19546	3.02314	0.750849	5.78007	0.720473	11.514	0.442384	7.43917	0.811227	12.9172
0.460429	7.27634	0.198418	3.03627	0.747366	5.78418	0.722156	11.4465	0.444987	7.39655	0.811312	12.7772
0.461704	7.21728	0.20138	3.0492	0.743876	5.78828	0.723547	11.3916	0.447588	7.35489	0.811415	12.6406
0.463043	7.16048	0.204347	3.06193	0.74038	5.79238	0.724647	11.3486	0.450187	7.31415	0.811539	12.5072
0.464447	7.10588	0.207318	3.07445	0.736879	5.79648	0.725456	11.3173	0.452785	7.27429	0.811682	12.377
0.465916	7.05342	0.210293	3.08678	0.733372	5.80058	0.725973	11.2974	0.455382	7.23527	0.811846	12.2498
0.467451	7.00304	0.212889	3.09737	0.72986	5.80468	0.726717	11.269	0.457976	7.19708	0.81203	12.1255
0.469052	6.95467	0.215104	3.10628	0.726344	5.8088	0.727526	11.2383	0.460567	7.15967	0.812234	12.0041
0.470719	6.90825	0.216937	3.11357	0.722823	5.81293	0.728626	11.1969	0.463156	7.12301	0.812459	11.8854
0.472451	6.86372	0.218387	3.11929	0.719298	5.81707	0.730017	11.1453	0.465741	7.08708	0.812673	11.7842
0.474248	6.82102	0.219454	3.12346	0.71577	5.82122	0.731699	11.0836	0.468323	7.05186	0.812867	11.6995
0.476111	6.78009	0.220137	3.12612	0.712238	5.8254	0.733672	11.0126	0.470902	7.01731	0.813037	11.6305
0.478038	6.74087	0.22112	3.12993	0.708703	5.8296	0.735935	10.9326	0.473477	6.98341	0.813177	11.5767
0.480029	6.7033	0.222188	3.13405	0.705166	5.83383	0.738198	10.8542	0.476047	6.95014	0.813283	11.5375
0.482083	6.66732	0.223641	3.13961	0.701626	5.83809	0.74046	10.7774	0.478614	6.91747	0.813353	11.5125
0.484199	6.63289	0.225481	3.14659	0.698085	5.84238	0.74272	10.7022	0.481175	6.88539	0.813455	11.4769
0.486376	6.59992	0.227706	3.15494	0.694541	5.8467	0.74498	10.6284	0.483732	6.85386	0.813568	11.4385
0.488613	6.56838	0.23032	3.16461	0.690997	5.85107	0.747238	10.556	0.486284	6.82288	0.813726	11.3867
0.490909	6.53821	0.233321	3.17555	0.687451	5.85547	0.749495	10.485	0.48883	6.79243	0.813934	11.322
0.493262	6.50934	0.236326	3.18633	0.683905	5.85993	0.751751	10.4154	0.491371	6.76248	0.814197	11.245
0.495671	6.48173	0.239333	3.19695	0.680358	5.86444	0.754004	10.3471	0.493905	6.73301	0.81452	11.1562
0.498134	6.45532	0.242344	3.2074	0.676811	5.869	0.756256	10.28	0.496434	6.70402	0.814913	11.0564
0.50065	6.43006	0.245356	3.2177	0.673265	5.87362	0.758506	10.2142	0.498957	6.67549	0.815328	10.9588
0.503218	6.4059	0.248372	3.22785	0.66972	5.8783	0.760753	10.1495	0.501473	6.64739	0.815765	10.8633
0.505835	6.38279	0.251389	3.23785	0.666175	5.88305	0.762999	10.086	0.503983	6.61972	0.816226	10.7698
0.5085	6.36068	0.254409	3.2477	0.662633	5.88787	0.765242	10.0237	0.506485	6.59246	0.81671	10.6784
0.511211	6.33953	0.257432	3.2574	0.659092	5.89277	0.767483	9.9624	0.508981	6.5656	0.817217	10.5888
0.513967	6.31929	0.260456	3.26696	0.655553	5.89775	0.769721	9.90219	0.51147	6.53912	0.817747	10.5012
0.516766	6.29991	0.263482	3.27638	0.652017	5.90281	0.771956	9.84301	0.51395	6.51301	0.818301	10.4155
0.519606	6.28135	0.266511	3.28567	0.648484	5.90797	0.774189	9.78484	0.516424	6.48727	0.818879	10.3315
0.522486	6.26358	0.269541	3.29482	0.644954	5.91323	0.776418	9.72764	0.518889	6.46187	0.819481	10.2493
0.525403	6.24655	0.272573	3.30383	0.641429	5.91859	0.778645	9.67139	0.521347	6.43681	0.820107	10.1688
0.528357	6.23023	0.275606	3.31272	0.637907	5.92405	0.780868	9.61606	0.523796	6.41207	0.820757	10.09
0.531346	6.21459	0.278641	3.32147	0.634391	5.92964	0.783088	9.56163	0.526238	6.38765	0.821432	10.0128
0.534368	6.19958	0.281678	3.33011	0.630879	5.93534	0.785305	9.50807	0.528671	6.36354	0.822131	9.93719
0.537421	6.18517	0.284716	3.33861	0.627374	5.94118	0.787518	9.45537	0.531095	6.33973	0.822855	9.86315
0.540505	6.17134	0.287756	3.347	0.623874	5.94715	0.789727	9.40349	0.53351	6.3162	0.823603	9.79063
0.543618	6.15805	0.290796	3.35527	0.620381	5.95326	0.791933	9.35242	0.535917	6.29296	0.824377	9.71958
0.546758	6.14528	0.293838	3.36342	0.616896	5.95953	0.794135	9.30214	0.538315	6.26999	0.825175	9.64998
0.549925	6.133	0.296882	3.37145	0.613418	5.96595	0.796334	9.25262	0.540703	6.24728	0.825998	9.5818
0.553116	6.12119	0.299926	3.37937	0.609949	5.97255	0.798528	9.20385	0.543083	6.22482	0.826847	9.51499
0.556331	6.10981	0.302971	3.38718	0.606488	5.97933	0.800718	9.15581	0.545453	6.20262	0.827721	9.44953
0.559568	6.09885	0.306017	3.39488	0.603037	5.98629	0.802904	9.10848	0.547813	6.18065	0.82862	9.38539
0.562827	6.08829	0.309064	3.40246	0.599597	5.99345	0.805086	9.06184	0.550165	6.15893	0.829544	9.32253
0.566106	6.0781	0.312112	3.40995	0.596167	6.00082	0.807263	9.01588	0.552506	6.13743	0.830494	9.26093
0.569404	6.06827	0.31516	3.41733	0.592748	6.00841	0.809436	8.97057	0.554838	6.11615	0.831469	9.20056
0.572721	6.05877	0.318209	3.4246	0.589343	6.01624	0.811605	8.92591	0.557161	6.09509	0.83247	9.14139
0.576054	6.0496	0.321259	3.43178	0.58595	6.02431	0.813769	8.88188	0.559473	6.07424	0.833496	9.08339
0.579404	6.04072	0.324309	3.43885	0.58257	6.03264	0.815928	8.83846	0.561776	6.0536	0.834548	9.02654
0.58277	6.03214	0.32736	3.44582	0.579206	6.04124	0.818083	8.79564	0.564069	6.03316	0.835626	8.97082
0.58615	6.02382	0.330411	3.4527	0.575857	6.05013	0.820234	8.7534	0.566352	6.01292	0.836729	8.91619
0.589544	6.01577	0.333463	3.45949	0.572524	6.05932	0.822379	8.71173	0.568625	5.99287	0.837858	8.86263
0.592512	6.00895	0.336515	3.46618	0.569209	6.06884	0.82452	8.67062	0.570888	5.973	0.839012	8.81013
0.595049	6.00327	0.339567	3.47277	0.565911	6.07869	0.826656	8.63006	0.573141	5.95332	0.840192	8.75865
0.597153	5.99868	0.342619	3.47928	0.562634	6.0889	0.828787	8.59003	0.575384	5.93382	0.841398	8.70817
0.598819	5.9951	0.345671	3.48569	0.559376	6.09949	0.830913	8.55053	0.577618	5.9145	0.842628	8.65868
0.600045	5.9925	0.348724	3.49202	0.55614	6.11047	0.833034	8.51153	0.579841	5.89534	0.843885	8.61015
0.600831	5.99085	0.351776	3.49826	0.552926	6.12187	0.83515	8.47303	0.582055	5.87636	0.845167	8.56256
0.601962	5.9885	0.354829	3.50441	0.549736	6.13372	0.837262	8.43502	0.584259	5.85754	0.846474	8.51588
0.603192	5.98597	0.357881	3.51048	0.546571	6.14603	0.839368	8.39749	0.586453	5.83889	0.847806	8.47011
0.604867	5.98257	0.360933	3.51647	0.543433	6.15883	0.84147	8.36043	0.588637	5.82039	0.849163	8.42522
0.606989	5.97833	0.363985	3.52237	0.540322	6.17214	0.843566	8.32383	0.590812	5.80206	0.850546	8.38119
0.60956	5.9733	0.367037	3.52819	0.53724	6.18601	0.845658	8.28768	0.592977	5.78387	0.851953	8.338
0.612582	5.96753	0.370089	3.53394	0.534188	6.20045	0.847744	8.25197	0.595132	5.76584	0.853385	8.29564
0.616058	5.96106	0.37314	3.5396	0.531168	6.2155	0.849826	8.21669	0.597279	5.74796	0.854842	8.25408
0.619541	5.95476	0.37619	3.54518	0.528181	6.23118	0.851903	8.18183	0.599416	5.73023	0.856324	8.21331
0.623032	5.9486	0.379241	3.55069	0.525229	6.24754	0.853975	8.14739	0.601543	5.71265	0.857829	8.17331
0.62653	5.9426	0.38229	3.55612	0.522314	6.26461	0.856042	8.11336	0.603662	5.69521	0.859359	8.13407
0.630034	5.93673	0.38534	3.56148	0.519437	6.28243	0.858104	8.07973	0.605772	5.67792	0.860913	8.09557
0.633545	5.931	0.388388	3.56677	0.516599	6.30103	0.860162	8.04649	0.607873	5.66076	0.862491	8.05779
0.63706	5.92539	0.391436	3.57198	0.513803	6.32046	0.862215	8.01364	0.609965	5.64375	0.864093	8.02071
0.64058	5.91989	0.394484	3.57712	0.511049	6.34076	0.864263	7.98116	0.612049	5.62687	0.865718	7.98433
0.644105	5.91451	0.39753	3.58218	0.508341	6.36197	0.866307	7.94906	0.614124	5.61014	0.867367	7.94863
0.647634	5.90923	0.400576	3.58718	0.505679	6.38413	0.868347	7.91733	0.616191	5.59354	0.869039	7.91358
0.651166	5.90405	0.403621	3.59211	0.503064	6.4073	0.870382	7.88595	0.618251	5.57707	0.870733	7.87919
0.654701	5.89896	0.406665	3.59697	0.5005	6.43153	0.872413	7.85493	0.620302	5.56074	0.87245	7.84543
0.658239	5.89396	0.409708	3.60176	0.497987	6.45685	0.87444	7.82426	0.622346	5.54455	0.87419	7.81228
0.66178	5.88904	0.41275	3.60649	0.495527	6.48333	0.876463	7.79393	0.624382	5.52848	0.875952	7.77975
0.665322	5.8842	0.415791	3.61115	0.493121	6.51102	0.878482	7.76394	0.626411	5.51255	0.877735	7.7478
0.668866	5.87944	0.418831	3.61574	0.490771	6.53996	0.880498	7.73428	0.628433	5.49676	0.879541	7.71644
0.672411	5.87474	0.421869	3.62027	0.488479	6.57021	0.882509	7.70495	0.630448	5.48109	0.881368	7.68564
0.675957	5.8701	0.424907	3.62474	0.486246	6.60184	0.884518	7.67595	0.632457	5.46555	0.883215	7.6554
0.679504	5.86553	0.427943	3.62914	0.484072	6.63488	0.886523	7.64726	0.634459	5.45015	0.885084	7.6257
0.683051	5.86101	0.430979	3.63348	0.48196	6.66941	0.888525	7.61889	0.636455	5.43487	0.886974	7.59652
0.686597	5.85654	0.434012	3.63776	0.479909	6.70548	0.890524	7.59083	0.638445	5.41972	0.888883	7.56787
0.690143	5.85212	0.437045	3.64198	0.477922	6.74314	0.89252	7.56308	0.640429	5.40471	0.890813	7.53972
0.693688	5.84775	0.440076	3.64614	0.475999	6.78246	0.894514	7.53563	0.642408	5.38982	0.892763	7.51207
0.697231	5.84341	0.443106	3.65024	0.47414	6.82349	0.896505	7.50848	0.644381	5.37506	0.894732	7.4849
0.700774	5.83912	0.446134	3.65428	0.472346	6.8663	0.898495	7.48163	0.64635	5.36043	0.89672	7.4582
0.704314	5.83485	0.44916	3.65826	0.470618	6.91094	0.900482	7.45507	0.648313	5.34592	0.898726	7.43197
0.707852	5.83062	0.452185	3.66218	0.468955	6.95748	0.902468	7.4288	0.650273	5.33155	0.900752	7.40618
0.711387	5.82641	0.455209	3.66605	0.467358	7.00596	0.904452	7.40281	0.652227	5.3173	0.902795	7.38084
0.71492	5.82223	0.45823	3.66986	0.465827	7.05647	0.906435	7.37711	0.654178	5.30318	0.904857	7.35593
0.718449	5.81807	0.46125	3.67362	0.464362	7.10906	0.908417	7.3517	0.656126	5.28919	0.906935	7.33144
0.721975	5.81392	0.464269	3.67732	0.462962	7.16378	0.910399	7.32656	0.658069	5.27533	0.909032	7.30736
0.725496	5.80979	0.467285	3.68096	0.461626	7.22071	0.91238	7.3017	0.66001	5.2616	0.911145	7.28369
0.729014	5.80567	0.4703	3.68455	0.460356	7.27991	0.914362	7.27711	0.661947	5.24799	0.913274	7.26041
0.732527	5.80157	0.473312	3.68809	0.459149	7.34145	0.916343	7.2528	0.663882	5.23451	0.91542	7.23751
0.736035	5.79746	0.476323	3.69157	0.458005	7.40539	0.918325	7.22875	0.665814	5.22115	0.917582	7.21499
0.739538	5.79337	0.479331	3.695	0.456924	7.4718	0.920309	7.20498	0.667745	5.20793	0.919759	7.19283
0.743035	5.78927	0.482338	3.69838	0.455904	7.54076	0.922293	7.18147	0.669673	5.19483	0.921951	7.17103
0.746526	5.78517	0.485343	3.70171	0.454945	7.61234	0.924279	7.15822	0.671599	5.18186	0.924159	7.14958
0.750011	5.78106	0.488345	3.70498	0.454046	7.68661	0.926267	7.13524	0.673524	5.16902	0.92638	7.12847
0.75349	5.77695	0.491345	3.70821	0.453206	7.76365	0.928257	7.11253	0.675448	5.1563	0.928617	7.1077
0.756961	5.77283	0.494343	3.71138	0.452423	7.84355	0.93025	7.09007	0.677371	5.14371	0.930867	7.08725
0.760425	5.76869	0.497339	3.71451	0.451697	7.92639	0.932246	7.06787	0.679293	5.13125	0.93313	7.06712
0.763881	5.76455	0.500332	3.71758	0.451026	8.01226	0.934245	7.04594	0.681215	5.11891	0.935407	7.0473
0.767329	5.76038	0.503323	3.72061	0.45041	8.10125	0.936249	7.02426	0.683137	5.10671	0.937696	7.02778
0.770769	5.75619	0.506312	3.72359	0.449847	8.19347	0.938256	7.00283	0.685058	5.09462	0.939999	7.00855
0.7742	5.75198	0.509298	3.72651	0.449336	8.28901	0.940269	6.98167	0.68698	5.08267	0.942313	6.98962
0.777621	5.74775	0.512281	3.7294	0.448877	8.38799	0.942286	6.96076	0.688903	5.07084	0.944639	6.97097
0.781033	5.74349	0.515263	3.73223	0.448467	8.49052	0.94431	6.9401	0.690826	5.05914	0.946977	6.95259
0.784435	5.7392	0.518241	3.73502	0.448107	8.59672	0.946339	6.9197	0.692751	5.04756	0.949326	6.93448
0.787827	5.73487	0.521217	3.73776	0.447794	8.70671	0.948375	6.89955	0.694677	5.03611	0.951686	6.91663
0.791208	5.73051	0.52419	3.74045	0.447528	8.82064	0.950418	6.87965	0.696604	5.02479	0.954056	6.89904
0.794577	5.72612	0.52716	3.7431	0.447308	8.93865	0.952468	6.86001	0.698533	5.01359	0.956437	6.8817
0.797935	5.72168	0.530128	3.7457	0.447132	9.06088	0.954526	6.84062	0.700464	5.00251	0.958827	6.86459
0.801281	5.71721	0.533093	3.74826	0.447	9.18749	0.956593	6.82148	0.702397	4.99156	0.961227	6.84773
0.804615	5.71269	0.536055	3.75077	0.446911	9.31867	0.958669	6.8026	0.704333	4.98074	0.963637	6.8311
0.807935	5.70812	0.539014	3.75323	0.446863	9.45458	0.960754	6.78397	0.706272	4.97004	0.966055	6.8147
0.811243	5.7035	0.54197	3.75566	0.446856	9.59541	0.962849	6.76559	0.708213	4.95947	0.968482	6.79851
0.814537	5.69884	0.544923	3.75804	0.446889	9.74138	0.964955	6.74746	0.710157	4.94901	0.970917	6.78254
0.817816	5.69412	0.547873	3.76037	0.446961	9.8927	0.967072	6.72958	0.712105	4.93869	0.97336	6.76678
0.821081	5.68934	0.55082	3.76266	0.44707	10.0496	0.9692	6.71195	0.714056	4.92848	0.975811	6.75123
0.824331	5.68451	0.553763	3.76491	0.447196	10.191	0.97134	6.69458	0.716011	4.9184	0.978269	6.73587
0.827566	5.67962	0.556704	3.76712	0.447325	10.3153	0.973493	6.67746	0.71797	4.90844	0.980734	6.72071
0.830785	5.67466	0.559641	3.76928	0.447447	10.4206	0.975659	6.66059	0.719933	4.8986	0.983206	6.70574
0.833988	5.66964	0.562575	3.7714	0.447552	10.5055	0.977839	6.64397	0.7219	4.88889	0.985684	6.69095
0.837174	5.66456	0.565506	3.77348	0.447635	10.569	0.980033	6.62761	0.723871	4.87929	0.988168	6.67634
0.840342	5.65941	0.568433	3.77552	0.447715	10.6282	0.982241	6.61149	0.725848	4.86982	0.990659	6.66191
0.843494	5.65419	0.571357	3.77752	0.447773	10.6698	0.984465	6.59563	0.727829	4.86047	0.993155	6.64765
0.846627	5.6489	0.574278	3.77947	0.447867	10.7354	0.986704	6.58002	0.729815	4.85123	0.995656	6.63355
0.849743	5.64354	0.577195	3.78139	0.448002	10.8262	0.98896	6.56466	0.731807	4.84212	0.998162	6.61962
0.852839	5.6381	0.580108	3.78327	0.448183	10.9434	0.991233	6.54956	0.733804	4.83312	1.00067	6.60585
0.855917	5.63258	0.583018	3.7851	0.44842	11.0888	0.993522	6.5347	0.735806	4.82425		
0.858975	5.62699	0.585924	3.7869	0.448719	11.2648	0.995829	6.52009	0.737814	4.81549		
0.862013	5.62132	0.588827	3.78865	0.449093	11.4742	0.998155	6.50574	0.739828	4.80685		
0.865031	5.61558	0.591726	3.79037	0.449497	11.692	1.0005	6.49163	0.741848	4.79832		
0.868029	5.60975	0.594621	3.79205	0.449932	11.9186			0.743874	4.78991		
0.871006	5.60384	0.597513	3.79368	0.450395	12.1545			0.745907	4.78162		
0.873962	5.59784	0.6004	3.79528	0.450887	12.4002			0.747945	4.77344		
0.876897	5.59177	0.603284	3.79685	0.451407	12.6562			0.749991	4.76537		
0.87981	5.58561	0.606164	3.79837	0.451954	12.9231			0.752043	4.75742		
0.882701	5.57937	0.60904	3.79986	0.452527	13.2016			0.754102	4.74958		
0.885571	5.57304	0.611912	3.80131	0.453126	13.4925			0.756169	4.74185		
0.888418	5.56663	0.61478	3.80272	0.45375	13.7963			0.758242	4.73424		
0.891243	5.56014	0.617645	3.80409	0.454397	14.114			0.760322	4.72673		
0.894045	5.55356	0.620505	3.80543	0.455068	14.4465			0.76241	4.71934		
0.896825	5.5469	0.623361	3.80674	0.455761	14.7946			0.764506	4.71205		
0.899582	5.54016	0.626212	3.808	0.456476	15.1596			0.766609	4.70488		
0.902317	5.53334	0.62906	3.80923	0.457212	15.5425			0.768719	4.69781		
0.905029	5.52644	0.631904	3.81043	0.457968	15.9446			0.770838	4.69085		
0.907719	5.51945	0.634743	3.81159	0.458743	16.3673			0.772964	4.68399		
0.910386	5.51239	0.637578	3.81272	0.459537	16.8121			0.775099	4.67725		
0.91303	5.50526	0.640409	3.81381	0.460348	17.2808			0.777241	4.6706		
0.915652	5.49804	0.643236	3.81486	0.461176	17.7753			0.779392	4.66406		
0.918252	5.49076	0.646059	3.81589	0.462019	18.2976			0.781551	4.65763		
0.920829	5.4834	0.648877	3.81688	0.462877	18.85			0.783718	4.65129		
0.923385	5.47598	0.651691	3.81783	0.463749	19.4351			0.785893	4.64506		
0.925919	5.46848	0.6545	3.81876	0.464633	20.0558			0.788077	4.63893		
0.928432	5.46093	0.657306	3.81965	0.465529	20.7155			0.79027	4.63289		
0.930923	5.4533	0.660106	3.82051	0.466435	21.4176			0.792471	4.62696		
0.933394	5.44562	0.662903	3.82133	0.467351	22.1665			0.794681	4.62113		
0.935844	5.43789	0.665695	3.82213	0.468273	22.9667			0.7969	4.61539		
0.938274	5.43009	0.668483	3.82289	0.469203	23.8237			0.799127	4.60975		
0.940683	5.42225	0.671266	3.82363	0.470137	24.7436			0.801363	4.60421		
0.943074	5.41435	0.674045	3.82433	0.471074	25.7335			0.803608	4.59876		
0.945445	5.40641	0.67682	3.825	0.472013	26.8015			0.805862	4.5934		
0.947798	5.39843	0.67959	3.82564	0.472952	27.9572			0.808125	4.58814		
0.950132	5.3904	0.682356	3.82625	0.473889	29.2117			0.810397	4.58297		
0.952448	5.38234	0.685118	3.82684	0.474821	30.5782			0.812678	4.57789		
0.954747	5.37424	0.687875	3.82739	0.475748	32.0722			0.814968	4.5729		
0.957029	5.36611	0.690627	3.82792	0.476666	33.7123			0.817267	4.568		
0.959294	5.35795	0.693376	3.82841	0.477573	35.5211			0.819575	4.56319		
0.961544	5.34976	0.69612	3.82888	0.478466	37.5258			0.821892	4.55846		
0.963777	5.34155	0.69886	3.82933	0.479342	39.7601			0.824218	4.55383		
0.965996	5.33332	0.701595	3.82974	0.480199	42.2657			0.826553	4.54927		
0.9682	5.32507	0.704326	3.83013	0.481034	45.0956			0.828898	4.54481		
0.97039	5.31681	0.707053	3.83049	0.481842	48.3169			0.831252	4.54042		
0.972566	5.30853	0.709775	3.83083	0.482621	52.0172			0.833614	4.53612		
0.974729	5.30025	0.712494	3.83114	0.483366	56.3124			0.835986	4.5319		
0.976879	5.29196	0.715208	3.83143	0.484074	61.3591			0.838367	4.52777		
0.979017	5.28366	0.717918	3.83169	0.484742	67.3742			0.840757	4.52371		
0.981143	5.27536	0.720623	3.83193	0.485364	74.6677			0.843156	4.51973		
0.983258	5.26707	0.723325	3.83214	0.485938	83.6976			0.845565	4.51583		
0.985362	5.25878	0.726022	3.83234	0.486458	95.1707			0.847982	4.512		
0.987455	5.25049	0.728716	3.8325	0.486922	110.239			0.850408	4.50825		
0.989539	5.24221	0.731405	3.83265	0.487326	130.912			0.852843	4.50458		
0.991613	5.23394	0.734091	3.83278	0.487666	161.047			0.855287	4.50098		
0.993677	5.22569	0.736772	3.83288	0.48794	209.088			0.857741	4.49745		
0.995733	5.21744	0.73945	3.83296	0.488145	297.793			0.860203	4.494		
0.997781	5.20922	0.742123	3.83302	0.488279	516.826			0.862673	4.49062		
0.999821	5.20101	0.744793	3.83306	0.488342	1950.87			0.865153	4.4873		
1.00185	5.19283	0.747459	3.83308					0.867642	4.48406		
		0.750121	3.83309					0.870139	4.48088		
		0.75278	3.83307					0.872645	4.47778		
		0.755435	3.83303					0.875159	4.47473		
		0.758086	3.83298					0.877682	4.47176		
		0.760734	3.83291					0.880214	4.46884		
		0.763378	3.83282					0.882754	4.46599		
		0.766019	3.83272					0.885302	4.4632		
		0.768656	3.8326					0.887859	4.46048		
		0.771291	3.83246					0.890424	4.45781		
		0.773922	3.83231					0.892998	4.45521		
		0.776549	3.83214					0.895579	4.45266		
		0.779174	3.83196					0.898169	4.45017		
		0.781795	3.83177					0.900766	4.44773		
		0.784413	3.83156					0.903372	4.44536		
		0.787029	3.83134					0.905985	4.44303		
		0.789641	3.83111					0.908606	4.44076		
		0.792251	3.83086					0.911235	4.43855		
		0.794858	3.8306					0.913871	4.43638		
		0.797462	3.83033					0.916515	4.43427		
		0.800064	3.83005					0.919167	4.43221		
		0.802662	3.82976					0.921826	4.43019		
		0.805259	3.82946					0.924492	4.42823		
		0.807853	3.82915					0.927165	4.42631		
		0.810444	3.82883					0.929846	4.42444		
		0.813033	3.82851					0.932533	4.42261		
		0.81562	3.82817					0.935228	4.42083		
		0.818205	3.82782					0.93793	4.4191		
		0.820787	3.82747					0.940638	4.4174		
		0.823368	3.82711					0.943353	4.41575		
		0.825946	3.82674					0.946075	4.41414		
		0.828523	3.82637					0.948803	4.41258		
		0.831097	3.82599					0.951538	4.41105		
		0.83367	3.8256					0.954279	4.40956		
		0.836241	3.82521					0.957027	4.40811		
		0.83881	3.82481					0.95978	4.4067		
		0.841377	3.82441					0.96254	4.40533		
		0.843943	3.824					0.965306	4.40399		
		0.846508	3.82359					0.968078	4.40268		
		0.849071	3.82317					0.970856	4.40142		
		0.851632	3.82275					0.973639	4.40018		
		0.854193	3.82233					0.976429	4.39898		
		0.856752	3.82191					0.979224	4.39782		
		0.859309	3.82148					0.982024	4.39668		
		0.861866	3.82105					0.98483	4.39558		
		0.864421	3.82061					0.987641	4.3945		
		0.866976	3.82018					0.990458	4.39346		
		0.869529	3.81974					0.99328	4.39245		
		0.872081	3.8193					0.996107	4.39146		
		0.874633	3.81886					0.998939	4.39051		
		0.877183	3.81842					1.00178	4.38958		
		0.879733	3.81798								
		0.882282	3.81753								
		0.88483	3.81709								
		0.887378	3.81665								
		0.889925	3.8162								
		0.892471	3.81576								
		0.895017	3.81532								
		0.897563	3.81487								
		0.900108	3.81443								
		0.902653	3.81399								
		0.905197	3.81355								
		0.907741	3.81312								
		0.910285	3.81268								
		0.912828	3.81224								
		0.915371	3.81181								
		0.917915	3.81138								
		0.920458	3.81095								
		0.923001	3.81052								
		0.925544	3.8101								
		0.928086	3.80967								
		0.930629	3.80925								
		0.933172	3.80884								
		0.935715	3.80842								
		0.938259	3.80801								
		0.940802	3.8076								
		0.943345	3.80719								
		0.945889	3.80679								
		0.948433	3.80639								
		0.950977	3.80599								
		0.953522	3.8056								
		0.956066	3.80521								
		0.958611	3.80482								
		0.961157	3.80444								
		0.963703	3.80406								
		0.966249	3.80368								
		0.968795	3.80331								
		0.971343	3.80294								
		0.97389	3.80258								
		0.976438	3.80222								
		0.978986	3.80186								
		0.981535	3.80151								
		0.984085	3.80116								
		0.986635	3.80081								
		0.989186	3.80047								
		0.991737	3.80013								
		0.994288	3.7998								
		0.996841	3.79947								
		0.999394	3.79914								
		1.00195	3.79882								
