Sym0		Asym0		Sym1		Sym2		Sym3		Sym4		Asym1		Asym2		Asym3	
458  Points		494  Points		185  Points		153  Points		138  Points		100  Points		304  Points		165  Points		133  Points	
Freq (MHz)	Vph (m/ms)	Freq (MHz)	Vph (m/ms)	Freq (MHz)	Vph (m/ms)	Freq (MHz)	Vph (m/ms)	Freq (MHz)	Vph (m/ms)	Freq (MHz)	Vph (m/ms)	Freq (MHz)	Vph (m/ms)	Freq (MHz)	Vph (m/ms)	Freq (MHz)	Vph (m/ms)
0.00490774	6.6881	5.55058e-005	0.073358	0.279564	302.874	0.51003	754.901	0.559039	763.542	0.838535	1292.56	0.13982	225.889	0.419292	530.863	0.698777	1549.62
0.0111385	6.68777	0.000275666	0.163277	0.279731	150.82	0.510065	317.339	0.55913	336.044	0.838584	530.603	0.140164	90.3894	0.419401	243.621	0.698823	505.431
0.0173681	6.68726	0.000660684	0.252166	0.28001	100.491	0.510129	200.916	0.559291	215.48	0.838672	333.849	0.140802	56.7208	0.41959	158.144	0.698917	301.996
0.0235959	6.6865	0.00120591	0.339527	0.280401	75.4148	0.510222	147.008	0.559523	158.629	0.838802	243.567	0.141727	41.5127	0.41986	117.119	0.699058	215.359
0.0298212	6.6855	0.00190491	0.424878	0.280903	60.4116	0.510344	115.924	0.559825	125.551	0.838971	191.742	0.142932	32.8901	0.420211	93.0367	0.699246	167.375
0.0360435	6.68428	0.00274987	0.507813	0.281515	50.4371	0.510496	95.7043	0.560196	103.92	0.839181	158.121	0.144409	27.3634	0.420641	77.2059	0.699482	136.901
0.0422619	6.6828	0.00373197	0.588007	0.282236	43.3329	0.510678	81.5026	0.560638	88.6757	0.839431	134.548	0.146146	23.5373	0.421152	66.0112	0.699764	115.834
0.0484758	6.6811	0.00484153	0.665181	0.283066	38.0214	0.510891	70.9819	0.561148	77.3567	0.839722	117.106	0.148132	20.7444	0.421742	57.6804	0.700094	100.404
0.0546846	6.67915	0.00606854	0.739147	0.284002	33.9043	0.511136	62.8766	0.561726	68.6227	0.840052	103.681	0.150355	18.6255	0.422411	51.2424	0.70047	88.6167
0.0608875	6.67696	0.00740288	0.809774	0.285044	30.6226	0.511412	56.4418	0.562373	61.6812	0.840423	93.029	0.152801	16.9699	0.423158	46.1204	0.700894	79.3208
0.0670838	6.67451	0.00883446	0.876992	0.28619	27.9483	0.511721	51.2101	0.563087	56.0335	0.840834	84.3729	0.155458	15.646	0.423984	41.9505	0.701364	71.8031
0.0732727	6.6718	0.0103537	0.940794	0.287439	25.7292	0.512064	46.874	0.563868	51.3503	0.841285	77.2007	0.158312	14.5674	0.424888	38.4915	0.701881	65.5989
0.0794534	6.66883	0.0119514	1.0012	0.288788	23.8601	0.512441	43.2222	0.564715	47.4053	0.841776	71.1616	0.161352	13.6747	0.425869	35.5775	0.702444	60.3927
0.0856252	6.6656	0.0136188	1.05829	0.290236	22.2658	0.512854	40.1054	0.565628	44.0376	0.842307	66.0075	0.164565	12.9263	0.426926	33.0902	0.703054	55.9624
0.0917873	6.6621	0.015348	1.11214	0.291782	20.8911	0.513304	37.4146	0.566605	41.1302	0.842878	61.5578	0.167939	12.2918	0.428059	30.9435	0.70371	52.1473
0.0979386	6.65831	0.0171316	1.16288	0.293422	19.6948	0.513791	35.0685	0.567646	38.5955	0.843488	57.6777	0.171464	11.7486	0.429267	29.0728	0.704412	48.8281
0.104078	6.65424	0.0189631	1.21063	0.295155	18.6451	0.514317	33.0055	0.568751	36.3668	0.844138	54.265	0.17465	11.3363	0.430549	27.4288	0.70516	45.9147
0.110206	6.64987	0.0208363	1.25554	0.296979	17.7175	0.514882	31.1777	0.569918	34.3925	0.844827	51.2403	0.177446	11.0225	0.431905	25.9736	0.705954	43.3373
0.11632	6.64519	0.022746	1.29776	0.298891	16.8927	0.515489	29.5475	0.571146	32.6319	0.845556	48.5415	0.179809	10.7859	0.433334	24.6768	0.706793	41.0415
0.122419	6.6402	0.0246873	1.33742	0.30089	16.1549	0.516138	28.0848	0.572436	31.0526	0.846324	46.1188	0.18171	10.6119	0.434834	23.5147	0.707678	38.9838
0.128502	6.63489	0.026656	1.37469	0.302973	15.4918	0.51683	26.7655	0.573786	29.6284	0.847131	43.9323	0.183125	10.4906	0.436406	22.4677	0.708608	37.1294
0.134569	6.62923	0.0286482	1.4097	0.305138	14.893	0.517566	25.5699	0.575195	28.3378	0.847978	41.9493	0.184038	10.4159	0.438048	21.52	0.709583	35.4498
0.140618	6.62323	0.0306608	1.44259	0.307383	14.35	0.518348	24.4817	0.576662	27.1633	0.848863	40.1429	0.185361	10.3121	0.439759	20.6585	0.710602	33.9218
0.146648	6.61687	0.0326907	1.47351	0.309705	13.8558	0.519178	23.4873	0.578188	26.0902	0.849786	38.4907	0.186812	10.2039	0.441538	19.8723	0.711666	32.526
0.152658	6.61013	0.0344718	1.49893	0.312103	13.4043	0.520056	22.5755	0.579771	25.1061	0.850749	36.9739	0.188807	10.0641	0.443385	19.1523	0.712775	31.2461
0.158645	6.60301	0.035998	1.51956	0.314574	12.9906	0.520983	21.7366	0.58141	24.2007	0.851749	35.5768	0.191364	9.89843	0.445298	18.4907	0.713927	30.0686
0.164609	6.59547	0.0372647	1.53593	0.317116	12.6104	0.521962	20.9626	0.583105	23.3651	0.852788	34.286	0.194504	9.71315	0.447276	17.8811	0.715123	28.9817
0.170548	6.58752	0.0382691	1.54845	0.319728	12.2601	0.522993	20.2464	0.584854	22.5918	0.853865	33.0898	0.198253	9.51459	0.449319	17.3177	0.716363	27.9756
0.17646	6.57912	0.0390091	1.55742	0.322406	11.9363	0.524077	19.5821	0.586658	21.8742	0.85498	31.9784	0.202635	9.30867	0.451424	16.7958	0.717646	27.0418
0.182344	6.57026	0.0394833	1.56306	0.325151	11.6365	0.525217	18.9645	0.588516	21.2068	0.856133	30.9432	0.207098	9.12319	0.453592	16.311	0.718971	26.1729
0.188198	6.56093	0.0401657	1.57104	0.327594	11.393	0.526413	18.389	0.590426	20.5845	0.857323	29.9768	0.211635	8.95549	0.455821	15.8598	0.72034	25.3625
0.194019	6.55109	0.0409085	1.57953	0.329715	11.1972	0.527666	17.8518	0.592388	20.0032	0.858551	29.0726	0.216241	8.80334	0.458111	15.439	0.721751	24.605
0.199806	6.54072	0.0419202	1.5908	0.331494	11.043	0.528979	17.3493	0.594402	19.459	0.859815	28.2249	0.220912	8.66484	0.460459	15.0457	0.723203	23.8956
0.205557	6.52981	0.0432019	1.60459	0.332917	10.9257	0.530352	16.8786	0.596466	18.9486	0.861117	27.4288	0.225643	8.53838	0.462865	14.6775	0.724698	23.2298
0.211268	6.51833	0.0447552	1.62062	0.333972	10.8419	0.531787	16.4369	0.598581	18.4691	0.862456	26.6796	0.23043	8.42257	0.465328	14.3321	0.726234	22.604
0.216939	6.50624	0.0465809	1.63856	0.334651	10.7894	0.533285	16.0218	0.600745	18.0179	0.863831	25.9736	0.235269	8.31623	0.467847	14.0078	0.727811	22.0147
0.222565	6.49354	0.0486804	1.65807	0.335633	10.7153	0.534847	15.6312	0.602958	17.5927	0.865242	25.3071	0.240156	8.21832	0.470421	13.7026	0.729429	21.4589
0.228144	6.48017	0.0507835	1.6765	0.336708	10.6366	0.536475	15.2632	0.605219	17.1913	0.86669	24.6769	0.245088	8.12796	0.473048	13.415	0.731087	20.9339
0.233674	6.46613	0.0528895	1.69393	0.338181	10.5326	0.53817	14.916	0.607528	16.812	0.868174	24.0804	0.250062	8.04435	0.475728	13.1438	0.732785	20.4373
0.239152	6.45137	0.054998	1.71042	0.340064	10.4057	0.539933	14.5882	0.609884	16.453	0.869693	23.5149	0.255074	7.96681	0.47846	12.8875	0.734524	19.9669
0.244573	6.43587	0.0571084	1.72603	0.34237	10.259	0.541765	14.2782	0.612286	16.1128	0.871248	22.9781	0.260122	7.89475	0.481242	12.6451	0.736301	19.5208
0.249936	6.4196	0.0592201	1.74084	0.345115	10.0956	0.543667	13.985	0.614734	15.7901	0.872839	22.4679	0.265204	7.82763	0.484074	12.4155	0.738118	19.0973
0.255237	6.40253	0.0613329	1.75488	0.348317	9.91898	0.545641	13.7072	0.617228	15.4836	0.874464	21.9825	0.270316	7.76499	0.486954	12.1979	0.739974	18.6946
0.260472	6.38463	0.0634463	1.76822	0.351576	9.753	0.547688	13.444	0.619767	15.1922	0.876124	21.5202	0.275457	7.70642	0.489882	11.9914	0.741868	18.3115
0.265638	6.36587	0.0655602	1.78089	0.354889	9.59688	0.549807	13.1943	0.622349	14.9149	0.877819	21.0795	0.280624	7.65153	0.492856	11.7952	0.743799	17.9464
0.270731	6.34623	0.0676742	1.79294	0.358258	9.44989	0.552001	12.9572	0.624976	14.6507	0.879548	20.6588	0.285815	7.6	0.495485	11.6321	0.745769	17.5984
0.275748	6.32569	0.0697882	1.8044	0.361682	9.31139	0.55427	12.732	0.627646	14.3988	0.881311	20.2569	0.291028	7.55154	0.497752	11.4985	0.747776	17.2661
0.280685	6.30421	0.0719021	1.81533	0.365163	9.18077	0.556615	12.518	0.630358	14.1584	0.883108	19.8726	0.296262	7.50588	0.499646	11.3916	0.74982	16.9487
0.28554	6.28179	0.0740156	1.82574	0.368699	9.05751	0.559036	12.3144	0.633113	13.9288	0.884939	19.5049	0.301514	7.46278	0.501155	11.3094	0.7519	16.6452
0.290308	6.2584	0.0761287	1.83568	0.372292	8.94114	0.561535	12.1207	0.63591	13.7093	0.886804	19.1527	0.306782	7.42203	0.502271	11.2501	0.754017	16.3547
0.294986	6.23405	0.0782414	1.84517	0.375943	8.83122	0.56411	11.9362	0.638748	13.4994	0.888701	18.8151	0.312066	7.38343	0.502988	11.2126	0.756169	16.0765
0.299572	6.20872	0.0803534	1.85423	0.379653	8.72734	0.566418	11.7826	0.641626	13.2983	0.890631	18.4912	0.317363	7.34681	0.504023	11.1596	0.758357	15.8099
0.304064	6.18242	0.0824649	1.86291	0.383422	8.62917	0.568431	11.6567	0.644546	13.1058	0.892594	18.1803	0.322673	7.31201	0.505152	11.1028	0.76058	15.5541
0.308457	6.15516	0.0845756	1.8712	0.387251	8.53636	0.570129	11.5559	0.647505	12.9212	0.894589	17.8816	0.327992	7.27888	0.506697	11.027	0.762838	15.3086
0.312752	6.12694	0.0866857	1.87915	0.391142	8.44863	0.571492	11.4782	0.650504	12.7441	0.896617	17.5944	0.333321	7.2473	0.508665	10.9337	0.76513	15.0727
0.316945	6.09779	0.088795	1.88677	0.395096	8.36568	0.572507	11.4223	0.653542	12.5741	0.898676	17.3182	0.338658	7.21713	0.511066	10.8243	0.767456	14.8461
0.321036	6.06774	0.0909036	1.89408	0.399114	8.28726	0.573161	11.3869	0.656619	12.4108	0.900767	17.0523	0.344002	7.18828	0.513909	10.7005	0.769815	14.6281
0.325025	6.03682	0.0930114	1.90109	0.403196	8.21313	0.574108	11.3368	0.659734	12.2539	0.90289	16.7963	0.34935	7.16064	0.51721	10.5643	0.772208	14.4183
0.32891	6.00506	0.0951185	1.90783	0.407343	8.14306	0.575148	11.2832	0.662888	12.103	0.905043	16.5495	0.354703	7.13411	0.520549	10.4339	0.774634	14.2163
0.332692	5.97252	0.0972249	1.9143	0.411556	8.07685	0.576578	11.2117	0.665666	11.9762	0.907227	16.3115	0.360059	7.10862	0.523925	10.3091	0.777092	14.0216
0.336372	5.93924	0.0993305	1.92053	0.415835	8.01428	0.578412	11.1236	0.668058	11.8714	0.909442	16.082	0.365416	7.08408	0.527338	10.1894	0.779582	13.834
0.33995	5.90527	0.101435	1.92652	0.42018	7.95517	0.580669	11.0203	0.670051	11.787	0.911687	15.8604	0.370774	7.06042	0.530788	10.0747	0.782105	13.653
0.343428	5.87067	0.103539	1.93229	0.42459	7.89933	0.583372	10.9036	0.671637	11.7215	0.913962	15.6463	0.376131	7.03758	0.534273	9.96462	0.784658	13.4784
0.346807	5.8355	0.105643	1.93785	0.429065	7.84657	0.586545	10.7752	0.672808	11.6742	0.916267	15.4395	0.381487	7.01549	0.537792	9.85895	0.787242	13.3098
0.35009	5.79982	0.107746	1.94321	0.433604	7.79674	0.589794	10.6526	0.67356	11.6442	0.918602	15.2396	0.38684	6.99409	0.541345	9.75743	0.789857	13.1469
0.35328	5.76369	0.109848	1.94838	0.438206	7.74965	0.593118	10.5354	0.674645	11.6016	0.920966	15.0463	0.392189	6.97334	0.544932	9.65986	0.792503	12.9895
0.356377	5.72718	0.111949	1.95338	0.442869	7.70516	0.596518	10.4233	0.675829	11.5558	0.923358	14.8592	0.397533	6.95317	0.548551	9.56602	0.795178	12.8373
0.359386	5.69033	0.11405	1.9582	0.447591	7.6631	0.599991	10.316	0.677446	11.4945	0.92578	14.6781	0.402871	6.93356	0.552202	9.47573	0.797883	12.6901
0.362309	5.65322	0.11615	1.96286	0.45237	7.62332	0.603537	10.2134	0.679503	11.4185	0.92823	14.5027	0.408203	6.91444	0.555885	9.38882	0.800617	12.5476
0.36515	5.61589	0.118249	1.96736	0.457205	7.58569	0.607154	10.1151	0.68201	11.3289	0.930708	14.3328	0.413526	6.89578	0.559598	9.30511	0.80338	12.4097
0.36791	5.57842	0.120348	1.97172	0.462092	7.55007	0.610842	10.021	0.684976	11.2267	0.933214	14.1681	0.41884	6.87755	0.563342	9.22445	0.805811	12.2931
0.370594	5.54084	0.122447	1.97593	0.467029	7.51631	0.614599	9.93083	0.688413	11.1134	0.935747	14.0084	0.424145	6.85971	0.567115	9.14669	0.8079	12.1962
0.373205	5.50321	0.124544	1.98002	0.472014	7.48431	0.618424	9.84444	0.691886	11.0039	0.938308	13.8535	0.429438	6.84222	0.570917	9.0717	0.80964	12.1178
0.375744	5.46557	0.126642	1.98397	0.477043	7.45394	0.622316	9.7616	0.695394	10.8982	0.940897	13.7032	0.43472	6.82505	0.574749	8.99935	0.811022	12.0568
0.378217	5.42797	0.128739	1.98781	0.482114	7.42508	0.626272	9.68216	0.698938	10.7961	0.943512	13.5573	0.439988	6.80818	0.578608	8.92951	0.812043	12.0126
0.380625	5.39046	0.130835	1.99152	0.487224	7.39763	0.630291	9.60594	0.702517	10.6975	0.946153	13.4157	0.445243	6.79157	0.582496	8.86208	0.812698	11.9845
0.382972	5.35306	0.132931	1.99513	0.49237	7.37149	0.634372	9.53277	0.706132	10.6021	0.948821	13.2781	0.450482	6.7752	0.586411	8.79695	0.813643	11.9445
0.385261	5.31582	0.135026	1.99863	0.49755	7.34656	0.638513	9.46251	0.709782	10.5099	0.951515	13.1444	0.455705	6.75905	0.590353	8.73402	0.814673	11.9015
0.387493	5.27877	0.137121	2.00203	0.502761	7.32277	0.642711	9.39501	0.713467	10.4207	0.954235	13.0145	0.460912	6.74309	0.594322	8.67318	0.816079	11.8437
0.389673	5.24193	0.139215	2.00533	0.508	7.30001	0.646966	9.33014	0.717188	10.3344	0.95698	12.8882	0.4661	6.72729	0.598317	8.61436	0.817866	11.7719
0.391532	5.21003	0.141309	2.00854	0.513265	7.27822	0.651276	9.26777	0.720943	10.2509	0.959751	12.7653	0.471269	6.71164	0.602339	8.55748	0.820041	11.6868
0.393087	5.18299	0.143403	2.01165	0.518553	7.25733	0.655638	9.20776	0.724734	10.1701	0.962186	12.661	0.476418	6.69612	0.606387	8.50244	0.822611	11.5893
0.394354	5.16075	0.145496	2.01468	0.523862	7.23726	0.66005	9.15	0.728561	10.0918	0.964276	12.574	0.481545	6.68071	0.61046	8.44917	0.825585	11.4805
0.395343	5.14324	0.147589	2.01763	0.52919	7.21796	0.664511	9.09438	0.732423	10.0161	0.966015	12.5033	0.486651	6.66539	0.614559	8.39762	0.828585	11.3748
0.396064	5.13041	0.149681	2.0205	0.534535	7.19937	0.669019	9.0408	0.736321	9.94268	0.967397	12.4483	0.491734	6.65014	0.618683	8.3477	0.831611	11.2722
0.396523	5.12222	0.151773	2.0233	0.539894	7.18144	0.673572	8.98914	0.740254	9.87161	0.968416	12.4083	0.496792	6.63495	0.622832	8.29935	0.834662	11.1725
0.397178	5.11048	0.153865	2.02602	0.545266	7.1641	0.678167	8.93931	0.744224	9.80275	0.96907	12.3829	0.501825	6.6198	0.627007	8.25252	0.837739	11.0755
0.397885	5.09775	0.155956	2.02867	0.550649	7.14733	0.682803	8.89123	0.748231	9.73604	0.970013	12.3466	0.506832	6.60467	0.631206	8.20714	0.84084	10.9813
0.398839	5.08051	0.158047	2.03125	0.55604	7.13108	0.687477	8.84479	0.752274	9.6714	0.97104	12.3076	0.511812	6.58956	0.635429	8.16317	0.843965	10.8896
0.400031	5.05882	0.160138	2.03377	0.561439	7.1153	0.692188	8.79991	0.756354	9.60876	0.972442	12.255	0.516764	6.57445	0.639678	8.12055	0.847115	10.8004
0.401454	5.03276	0.162229	2.03623	0.566845	7.09997	0.696933	8.75652	0.760471	9.54805	0.974224	12.1896	0.521687	6.55933	0.64395	8.07923	0.850289	10.7136
0.403097	5.00244	0.164319	2.03862	0.572254	7.08505	0.701711	8.71453	0.764627	9.48923	0.97639	12.1118	0.526579	6.54418	0.648247	8.03917	0.853486	10.6291
0.404949	4.96798	0.166409	2.04096	0.577667	7.0705	0.706518	8.67388	0.768821	9.43221	0.978948	12.0224	0.531441	6.529	0.652569	8.00032	0.856707	10.5468
0.406768	4.9339	0.168499	2.04324	0.583081	7.0563	0.711355	8.63449	0.773053	9.37696	0.981905	11.9223	0.53627	6.51378	0.656914	7.96264	0.859951	10.4667
0.408555	4.9002	0.170588	2.04547	0.588496	7.04242	0.716217	8.59629	0.777325	9.32341	0.984885	11.8248	0.541067	6.4985	0.661283	7.92609	0.863218	10.3887
0.410312	4.86689	0.172677	2.04765	0.59391	7.02884	0.721103	8.55922	0.781637	9.27152	0.987888	11.7296	0.54583	6.48316	0.665676	7.89063	0.866507	10.3126
0.412041	4.83397	0.174766	2.04977	0.599322	7.01554	0.726011	8.52322	0.78599	9.22124	0.990913	11.6368	0.550559	6.46775	0.670093	7.85623	0.869819	10.2385
0.413743	4.80146	0.176855	2.05185	0.604731	7.00248	0.730939	8.48823	0.790383	9.17252	0.993961	11.5463	0.555252	6.45226	0.674534	7.82284	0.873153	10.1663
0.415419	4.76935	0.178943	2.05388	0.610136	6.98967	0.735885	8.4542	0.794818	9.12532	0.997031	11.4579	0.559908	6.43668	0.678998	7.79043	0.876509	10.0958
0.417072	4.73764	0.181032	2.05586	0.615536	6.97706	0.740847	8.42107	0.799295	9.0796	1.00012	11.3717	0.564528	6.42102	0.683485	7.75897	0.879886	10.0271
0.418702	4.70635	0.18312	2.0578	0.620931	6.96465	0.745823	8.38879	0.803816	9.03532			0.56911	6.40526	0.687996	7.72844	0.883285	9.96009
0.420311	4.67547	0.185208	2.0597	0.626318	6.95243	0.750811	8.35731	0.808379	8.99245			0.573654	6.3894	0.692529	7.69879	0.886706	9.89471
0.421899	4.645	0.187295	2.06155	0.631698	6.94037	0.755809	8.32659	0.812987	8.95093			0.578158	6.37343	0.697086	7.67	0.890147	9.8309
0.423469	4.61494	0.189383	2.06337	0.63707	6.92847	0.760815	8.29658	0.81764	8.91075			0.582623	6.35735	0.701665	7.64204	0.893609	9.76862
0.425021	4.5853	0.19147	2.06515	0.642433	6.9167	0.765828	8.26725	0.822337	8.87186			0.587048	6.34117	0.706266	7.61488	0.897092	9.70782
0.426555	4.55606	0.193557	2.06689	0.647785	6.90507	0.770845	8.23855	0.82708	8.83424			0.591431	6.32486	0.710889	7.5885	0.900595	9.64845
0.428074	4.52723	0.195644	2.06859	0.653127	6.89355	0.775866	8.21046	0.83187	8.79784			0.595774	6.30845	0.715534	7.56286	0.904118	9.59046
0.429578	4.49881	0.197731	2.07026	0.658458	6.88214	0.780888	8.18293	0.836706	8.76265			0.600075	6.29191	0.7202	7.53796	0.907661	9.53383
0.431068	4.47079	0.199817	2.0719	0.663777	6.87082	0.785911	8.15593	0.841589	8.72862			0.604333	6.27526	0.724888	7.51375	0.911224	9.47849
0.432545	4.44317	0.201904	2.0735	0.669083	6.85959	0.790933	8.12944	0.846519	8.69572			0.608549	6.25849	0.729596	7.49021	0.914807	9.42442
0.434009	4.41595	0.20399	2.07507	0.674376	6.84844	0.795952	8.10343	0.851497	8.66393			0.612723	6.24161	0.734325	7.46733	0.918409	9.37158
0.435462	4.38912	0.206076	2.07661	0.679656	6.83736	0.800968	8.07787	0.856522	8.63322			0.616853	6.2246	0.739073	7.44508	0.922031	9.31993
0.436904	4.36268	0.208162	2.07812	0.684921	6.82635	0.805979	8.05275	0.861594	8.60355			0.62094	6.20749	0.743841	7.42343	0.925671	9.26943
0.438336	4.33663	0.210248	2.0796	0.690171	6.81538	0.810985	8.02803	0.866714	8.5749			0.624984	6.19025	0.748627	7.40237	0.929331	9.22005
0.439757	4.31097	0.212334	2.08105	0.695405	6.80447	0.815986	8.00371	0.871881	8.54723			0.628984	6.17291	0.753432	7.38188	0.933009	9.17177
0.44117	4.28567	0.214419	2.08248	0.700623	6.7936	0.820979	7.97977	0.877095	8.52052			0.632941	6.15546	0.758255	7.36193	0.936706	9.12454
0.442575	4.26076	0.216505	2.08387	0.705825	6.78276	0.825966	7.95619	0.882355	8.49474			0.636854	6.1379	0.763095	7.3425	0.940421	9.07833
0.443972	4.23621	0.21859	2.08525	0.71101	6.77195	0.830946	7.93297	0.887661	8.46985			0.640724	6.12024	0.767952	7.32358	0.944154	9.03313
0.445362	4.21202	0.220675	2.08659	0.716177	6.76117	0.835918	7.91007	0.893013	8.44583			0.64455	6.10248	0.772825	7.30514	0.947906	8.9889
0.446745	4.1882	0.22276	2.08791	0.721326	6.7504	0.840883	7.88751	0.898409	8.42264			0.648333	6.08462	0.777713	7.28717	0.951675	8.94561
0.448122	4.16473	0.224845	2.08921	0.726457	6.73965	0.845839	7.86527	0.903849	8.40027			0.652073	6.06668	0.782616	7.26965	0.955463	8.90323
0.449492	4.14161	0.22693	2.09049	0.731569	6.72891	0.850789	7.84334	0.909331	8.37867			0.65577	6.04864	0.787534	7.25256	0.959268	8.86175
0.450858	4.11883	0.229015	2.09174	0.736661	6.71818	0.855731	7.82172	0.914856	8.35783			0.659424	6.03052	0.792464	7.23589	0.96309	8.82114
0.452219	4.0964	0.231099	2.09297	0.741733	6.70745	0.860666	7.8004	0.920422	8.33771			0.663035	6.01232	0.797408	7.21961	0.96693	8.78138
0.453575	4.07429	0.233184	2.09418	0.746785	6.69671	0.865594	7.77938	0.926028	8.31829			0.666604	5.99404	0.802364	7.20371	0.970787	8.74243
0.454927	4.05252	0.235268	2.09536	0.751816	6.68597	0.870516	7.75864	0.931673	8.29953			0.670132	5.9757	0.807331	7.18818	0.974661	8.70429
0.456275	4.03108	0.237353	2.09653	0.756826	6.67521	0.875432	7.7382	0.937355	8.28142			0.673617	5.95728	0.812309	7.173	0.978553	8.66693
0.45762	4.00995	0.239437	2.09768	0.761815	6.66445	0.880343	7.71805	0.943075	8.26393			0.677062	5.93881	0.817297	7.15815	0.98246	8.63032
0.458962	3.98914	0.241521	2.0988	0.766782	6.65366	0.885249	7.69818	0.948829	8.24702			0.680465	5.92028	0.822295	7.14363	0.986385	8.59446
0.460301	3.96864	0.243605	2.09991	0.771726	6.64286	0.89015	7.67859	0.954619	8.23069			0.683828	5.9017	0.827301	7.12942	0.990326	8.55931
0.461637	3.94845	0.245689	2.101	0.776647	6.63204	0.895048	7.65928	0.960441	8.2149			0.687151	5.88307	0.832315	7.11549	0.994284	8.52487
0.462971	3.92855	0.247773	2.10207	0.781546	6.62119	0.899942	7.64025	0.966295	8.19963			0.690434	5.8644	0.837336	7.10185	0.998258	8.49112
0.464304	3.90895	0.249857	2.10313	0.786421	6.61031	0.904834	7.62149	0.97218	8.18486			0.693678	5.84569	0.842364	7.08848	1.00225	8.45803
0.465634	3.88965	0.25194	2.10417	0.791272	6.59941	0.909723	7.60301	0.978095	8.17056			0.696883	5.82695	0.847397	7.07536		
0.466964	3.87063	0.254024	2.10519	0.7961	6.58847	0.914611	7.5848	0.984038	8.15672			0.70005	5.80818	0.852436	7.06249		
0.468292	3.85189	0.256108	2.10619	0.800902	6.5775	0.919498	7.56686	0.990009	8.14333			0.703178	5.78939	0.857479	7.04986		
0.469619	3.83342	0.258191	2.10718	0.80568	6.5665	0.924384	7.54919	0.996005	8.13034			0.70627	5.77058	0.862525	7.03744		
0.470945	3.81523	0.260274	2.10815	0.810434	6.55546	0.92927	7.53178	1.00203	8.11776			0.709325	5.75176	0.867575	7.02524		
0.472271	3.79731	0.262358	2.10911	0.815161	6.54438	0.934156	7.51464					0.712343	5.73292	0.872627	7.01324		
0.473596	3.77965	0.264441	2.11005	0.819864	6.53327	0.939043	7.49775					0.715326	5.71408	0.877681	7.00143		
0.474921	3.76225	0.266524	2.11098	0.82454	6.52211	0.943931	7.48113					0.718273	5.69524	0.882736	6.9898		
0.476246	3.74511	0.268607	2.1119	0.829191	6.51091	0.948821	7.46476					0.721186	5.6764	0.887791	6.97835		
0.477572	3.72822	0.27069	2.1128	0.833815	6.49967	0.953712	7.44864					0.724064	5.65756	0.892846	6.96706		
0.478897	3.71157	0.272773	2.11368	0.838412	6.48838	0.958606	7.43278					0.726909	5.63874	0.8979	6.95592		
0.480223	3.69516	0.274856	2.11456	0.842983	6.47706	0.963502	7.41716					0.729721	5.61993	0.902952	6.94494		
0.48155	3.679	0.276939	2.11542	0.847527	6.46568	0.9684	7.40178					0.732499	5.60114	0.908003	6.93409		
0.482877	3.66307	0.279022	2.11627	0.852044	6.45427	0.973302	7.38664					0.735246	5.58237	0.91305	6.92338		
0.484206	3.64736	0.281104	2.1171	0.856534	6.44281	0.978207	7.37174					0.737961	5.56363	0.918094	6.91279		
0.485535	3.63189	0.283187	2.11793	0.860997	6.4313	0.983115	7.35707					0.740645	5.54492	0.923135	6.90232		
0.486865	3.61663	0.28527	2.11874	0.865431	6.41975	0.988026	7.34263					0.743298	5.52624	0.928171	6.89196		
0.488197	3.6016	0.287352	2.11954	0.869839	6.40816	0.992941	7.32842					0.745922	5.50759	0.933201	6.88171		
0.48953	3.58678	0.289435	2.12033	0.874218	6.39652	0.99786	7.31442					0.748516	5.48898	0.938227	6.87155		
0.490864	3.57217	0.291517	2.12111	0.87857	6.38483	1.00278	7.30064					0.751081	5.47042	0.943246	6.86149		
0.4922	3.55777	0.2936	2.12187	0.882894	6.3731							0.753617	5.45189	0.948258	6.85152		
0.493537	3.54357	0.295682	2.12263	0.88719	6.36133							0.756126	5.43342	0.953263	6.84162		
0.494877	3.52957	0.297764	2.12338	0.891458	6.34952							0.758607	5.415	0.958261	6.83181		
0.496217	3.51578	0.299846	2.12411	0.895698	6.33766							0.761061	5.39662	0.96325	6.82206		
0.49756	3.50217	0.301929	2.12484	0.89991	6.32576							0.763489	5.37831	0.96823	6.81239		
0.498905	3.48876	0.304011	2.12556	0.904093	6.31381							0.765891	5.36005	0.973202	6.80277		
0.500252	3.47553	0.306093	2.12626	0.908249	6.30183							0.768268	5.34185	0.978164	6.79321		
0.501601	3.46249	0.308175	2.12696	0.912376	6.28981							0.77062	5.32372	0.983115	6.7837		
0.502951	3.44963	0.310257	2.12765	0.916476	6.27775							0.772947	5.30565	0.988056	6.77425		
0.504305	3.43695	0.312339	2.12833	0.920547	6.26565							0.77525	5.28764	0.992986	6.76484		
0.50566	3.42444	0.314421	2.129	0.92459	6.25351							0.77753	5.2697	0.997905	6.75547		
0.507018	3.41211	0.316502	2.12966	0.928606	6.24134							0.779788	5.25184	1.00281	6.74613		
0.508378	3.39994	0.318584	2.13031	0.932593	6.22913							0.782022	5.23404				
0.50974	3.38794	0.320666	2.13095	0.936553	6.21689							0.784235	5.21633				
0.511105	3.37611	0.322748	2.13159	0.940484	6.20462							0.786426	5.19868				
0.512472	3.36443	0.32483	2.13222	0.944389	6.19231							0.788596	5.18112				
0.513842	3.35292	0.326911	2.13284	0.948265	6.17998							0.790745	5.16363				
0.515215	3.34156	0.328993	2.13345	0.952114	6.16761							0.792874	5.14622				
0.51659	3.33035	0.331074	2.13406	0.955935	6.15522							0.794983	5.12889				
0.517967	3.3193	0.333156	2.13465	0.95973	6.1428							0.797073	5.11165				
0.519348	3.30839	0.335237	2.13524	0.963497	6.13035							0.799144	5.09449				
0.520731	3.29763	0.337319	2.13583	0.967236	6.11788							0.801196	5.07742				
0.522117	3.28701	0.3394	2.1364	0.970949	6.10538							0.80323	5.06043				
0.523505	3.27653	0.341482	2.13697	0.974635	6.09287							0.805247	5.04353				
0.524896	3.26619	0.343563	2.13754	0.978295	6.08033							0.807246	5.02672				
0.52629	3.25599	0.345644	2.13809	0.981928	6.06777							0.809228	5.01				
0.527687	3.24592	0.347726	2.13864	0.985534	6.05519							0.811194	4.99336				
0.529087	3.23599	0.349807	2.13918	0.989114	6.0426							0.813143	4.97682				
0.53049	3.22618	0.351888	2.13972	0.992668	6.02999							0.815077	4.96037				
0.531895	3.2165	0.353969	2.14025	0.996196	6.01736							0.816995	4.94401				
0.533303	3.20695	0.356051	2.14077	0.999698	6.00472							0.818898	4.92774				
0.534714	3.19752	0.358132	2.14129	1.00317	5.99207							0.820787	4.91157				
0.536129	3.18822	0.360213	2.1418									0.822661	4.89549				
0.537546	3.17903	0.362294	2.14231									0.824521	4.87951				
0.538966	3.16996	0.364375	2.14281									0.826367	4.86362				
0.540388	3.16101	0.366456	2.1433									0.8282	4.84782				
0.541814	3.15217	0.368537	2.14379									0.83002	4.83212				
0.543243	3.14344	0.370618	2.14428									0.831827	4.81652				
0.544675	3.13483	0.372699	2.14475									0.833622	4.80101				
0.546109	3.12632	0.37478	2.14523									0.835404	4.7856				
0.547547	3.11792	0.376861	2.1457									0.837175	4.77028				
0.548987	3.10962	0.378942	2.14616									0.838934	4.75506				
0.550431	3.10143	0.381023	2.14662									0.840682	4.73994				
0.551878	3.09334	0.383103	2.14707									0.842419	4.72491				
0.553327	3.08536	0.385184	2.14752									0.844145	4.70998				
0.554779	3.07747	0.387265	2.14796									0.845861	4.69514				
0.556235	3.06968	0.389346	2.1484									0.847567	4.68041				
0.557693	3.06198	0.391426	2.14883									0.849263	4.66577				
0.559155	3.05438	0.393507	2.14926									0.850949	4.65122				
0.560619	3.04687	0.395588	2.14969									0.852625	4.63677				
0.562086	3.03946	0.397668	2.15011									0.854293	4.62242				
0.563557	3.03213	0.399749	2.15052									0.855951	4.60816				
0.56503	3.02489	0.40183	2.15094									0.857601	4.594				
0.566506	3.01774	0.40391	2.15134									0.859243	4.57994				
0.567985	3.01068	0.405991	2.15175									0.860876	4.56597				
0.569467	3.0037	0.408071	2.15215									0.862501	4.55209				
0.570952	2.99681	0.410152	2.15254									0.864118	4.53831				
0.57244	2.98999	0.412232	2.15294									0.865728	4.52463				
0.57393	2.98326	0.414313	2.15332									0.86733	4.51103				
0.575424	2.97661	0.416393	2.15371									0.868925	4.49754				
0.576921	2.97004	0.418474	2.15409									0.870513	4.48413				
0.57842	2.96354	0.420554	2.15446									0.872095	4.47082				
0.579923	2.95713	0.422635	2.15484									0.873669	4.4576				
0.581428	2.95078	0.424715	2.15521									0.875238	4.44448				
0.582936	2.94451	0.426795	2.15557									0.8768	4.43144				
0.584447	2.93832	0.428876	2.15593									0.878356	4.4185				
0.585961	2.93219	0.430956	2.15629									0.879906	4.40565				
0.587477	2.92614	0.433036	2.15665									0.88145	4.39289				
0.588997	2.92016	0.435117	2.157									0.882988	4.38022				
0.590519	2.91424	0.437197	2.15735									0.884522	4.36764				
0.592044	2.9084	0.439277	2.15769									0.88605	4.35514				
0.593572	2.90262	0.441358	2.15803									0.887573	4.34274				
0.595103	2.8969	0.443438	2.15837									0.88909	4.33043				
0.596636	2.89126	0.445518	2.15871									0.890604	4.3182				
0.598172	2.88567	0.447598	2.15904									0.892112	4.30606				
0.599711	2.88015	0.449678	2.15937									0.893616	4.29401				
0.601253	2.87469	0.451758	2.1597									0.895115	4.28205				
0.602798	2.86929	0.453839	2.16002									0.896611	4.27017				
0.604345	2.86396	0.455919	2.16034									0.898102	4.25837				
0.605895	2.85868	0.457999	2.16066									0.899589	4.24667				
0.607447	2.85346	0.460079	2.16097									0.901072	4.23504				
0.609003	2.8483	0.462159	2.16129									0.902552	4.2235				
0.610561	2.8432	0.464239	2.16159									0.904028	4.21204				
0.612121	2.83815	0.466319	2.1619									0.9055	4.20067				
0.613684	2.83316	0.468399	2.1622									0.906969	4.18938				
0.61525	2.82823	0.470479	2.16251									0.908435	4.17816				
0.616819	2.82335	0.472559	2.1628									0.909898	4.16704				
0.61839	2.81852	0.474639	2.1631									0.911357	4.15599				
0.619964	2.81374	0.476719	2.16339									0.912814	4.14502				
0.62154	2.80902	0.478799	2.16368									0.914267	4.13413				
0.623119	2.80434	0.480879	2.16397									0.915718	4.12332				
0.6247	2.79972	0.482959	2.16426									0.917167	4.11259				
0.626284	2.79515	0.485039	2.16454									0.918612	4.10193				
0.627871	2.79063	0.487119	2.16482									0.920056	4.09135				
0.62946	2.78615	0.489199	2.1651									0.921496	4.08085				
0.631051	2.78172	0.491279	2.16538									0.922935	4.07043				
0.632645	2.77734	0.493359	2.16565									0.924371	4.06008				
0.634242	2.77301	0.495438	2.16592									0.925806	4.04981				
0.635841	2.76872	0.497518	2.16619									0.927238	4.03961				
0.637442	2.76448	0.499598	2.16646									0.928668	4.02949				
0.639046	2.76028	0.501678	2.16672									0.930097	4.01944				
0.640652	2.75613	0.503758	2.16699									0.931523	4.00946				
0.642261	2.75202	0.505838	2.16725									0.932948	3.99955				
0.643872	2.74795	0.507917	2.16751									0.934371	3.98972				
0.645486	2.74393	0.509997	2.16776									0.935793	3.97995				
0.647101	2.73995	0.512077	2.16802									0.937213	3.97026				
0.64872	2.736	0.514157	2.16827									0.938632	3.96064				
0.65034	2.7321	0.516236	2.16852									0.940049	3.95109				
0.651963	2.72824	0.518316	2.16877									0.941465	3.9416				
0.653588	2.72442	0.520396	2.16901									0.94288	3.93219				
0.655216	2.72064	0.522476	2.16926									0.944294	3.92284				
0.656846	2.7169	0.524555	2.1695									0.945707	3.91356				
0.658478	2.71319	0.526635	2.16974									0.947118	3.90435				
0.660112	2.70952	0.528715	2.16998									0.948529	3.89521				
0.661749	2.70589	0.530794	2.17022									0.949938	3.88613				
0.663388	2.7023	0.532874	2.17045									0.951347	3.87711				
0.665029	2.69874	0.534954	2.17068									0.952755	3.86816				
0.666672	2.69522	0.537033	2.17092									0.954162	3.85928				
0.668318	2.69173	0.539113	2.17115									0.955569	3.85046				
0.669966	2.68828	0.541192	2.17137									0.956975	3.8417				
0.671615	2.68487	0.543272	2.1716									0.95838	3.833				
0.673268	2.68148	0.545352	2.17182									0.959785	3.82437				
0.674922	2.67813	0.547431	2.17205									0.961189	3.8158				
0.676578	2.67482	0.549511	2.17227									0.962593	3.80729				
0.678237	2.67153	0.55159	2.17249									0.963996	3.79884				
0.679897	2.66828	0.55367	2.1727									0.965399	3.79045				
0.68156	2.66506	0.555749	2.17292									0.966801	3.78212				
0.683225	2.66188	0.557829	2.17313									0.968204	3.77385				
0.684892	2.65872	0.559909	2.17335									0.969606	3.76564				
0.686561	2.65559	0.561988	2.17356									0.971007	3.75749				
0.688232	2.6525	0.564068	2.17377									0.972409	3.7494				
0.689905	2.64943	0.566147	2.17398									0.973811	3.74136				
0.69158	2.6464	0.568227	2.17418									0.975212	3.73338				
0.693257	2.64339	0.570306	2.17439									0.976614	3.72546				
0.694936	2.64041	0.572385	2.17459									0.978015	3.71759				
0.696617	2.63746	0.574465	2.17479									0.979416	3.70978				
0.6983	2.63454	0.576544	2.17499									0.980818	3.70203				
0.699985	2.63165	0.578624	2.17519									0.98222	3.69432				
0.701672	2.62878	0.580703	2.17539									0.983621	3.68668				
0.703361	2.62594	0.582783	2.17559									0.985023	3.67908				
0.705052	2.62313	0.584862	2.17578									0.986425	3.67154				
0.706745	2.62035	0.586942	2.17598									0.987827	3.66406				
0.70844	2.61759	0.589021	2.17617									0.98923	3.65662				
0.710136	2.61486	0.5911	2.17636									0.990633	3.64924				
0.711835	2.61215	0.59318	2.17655									0.992036	3.64191				
0.713535	2.60947	0.595259	2.17674									0.993439	3.63463				
0.715238	2.60681	0.597338	2.17693									0.994843	3.6274				
0.716942	2.60418	0.599418	2.17711									0.996247	3.62022				
0.718648	2.60157	0.601497	2.1773									0.997652	3.61309				
0.720355	2.59899	0.603576	2.17748									0.999057	3.60602				
0.722065	2.59643	0.605656	2.17766									1.00046	3.59899				
0.723776	2.59389	0.607735	2.17784														
0.72549	2.59138	0.609814	2.17802														
0.727205	2.58889	0.611894	2.1782														
0.728921	2.58642	0.613973	2.17838														
0.73064	2.58398	0.616052	2.17855														
0.73236	2.58155	0.618132	2.17873														
0.734082	2.57915	0.620211	2.1789														
0.735806	2.57678	0.62229	2.17907														
0.737531	2.57442	0.624369	2.17924														
0.739258	2.57208	0.626449	2.17941														
0.740987	2.56977	0.628528	2.17958														
0.742718	2.56747	0.630607	2.17975														
0.74445	2.5652	0.632686	2.17992														
0.746184	2.56295	0.634766	2.18008														
0.74792	2.56071	0.636845	2.18025														
0.749657	2.5585	0.638924	2.18041														
0.751396	2.5563	0.641003	2.18057														
0.753136	2.55413	0.643082	2.18073														
0.754878	2.55197	0.645162	2.18089														
0.756622	2.54984	0.647241	2.18105														
0.758367	2.54772	0.64932	2.18121														
0.760114	2.54562	0.651399	2.18137														
0.761863	2.54354	0.653478	2.18152														
0.763613	2.54148	0.655557	2.18168														
0.765364	2.53943	0.657637	2.18183														
0.767117	2.53741	0.659716	2.18199														
0.768872	2.5354	0.661795	2.18214														
0.770628	2.5334	0.663874	2.18229														
0.772386	2.53143	0.665953	2.18244														
0.774145	2.52947	0.668032	2.18259														
0.775906	2.52753	0.670111	2.18274														
0.777668	2.5256	0.672191	2.18289														
0.779432	2.5237	0.67427	2.18303														
0.781197	2.5218	0.676349	2.18318														
0.782964	2.51993	0.678428	2.18332														
0.784732	2.51807	0.680507	2.18347														
0.786501	2.51622	0.682586	2.18361														
0.788272	2.51439	0.684665	2.18375														
0.790045	2.51258	0.686744	2.1839														
0.791819	2.51078	0.688823	2.18404														
0.793594	2.509	0.690902	2.18418														
0.79537	2.50723	0.692981	2.18431														
0.797148	2.50548	0.69506	2.18445														
0.798928	2.50374	0.697139	2.18459														
0.800709	2.50201	0.699218	2.18473														
0.802491	2.5003	0.701297	2.18486														
0.804274	2.49861	0.703376	2.185														
0.806059	2.49693	0.705455	2.18513														
0.807846	2.49526	0.707534	2.18526														
0.809633	2.4936	0.709613	2.1854														
0.811422	2.49196	0.711692	2.18553														
0.813212	2.49033	0.713771	2.18566														
0.815004	2.48872	0.71585	2.18579														
0.816797	2.48712	0.717929	2.18592														
0.818591	2.48553	0.720008	2.18605														
0.820386	2.48395	0.722087	2.18617														
0.822183	2.48239	0.724166	2.1863														
0.823981	2.48084	0.726245	2.18643														
0.82578	2.4793	0.728324	2.18655														
0.827581	2.47778	0.730403	2.18668														
0.829382	2.47626	0.732482	2.1868														
0.831185	2.47476	0.734561	2.18693														
0.83299	2.47327	0.73664	2.18705														
0.834795	2.4718	0.738719	2.18717														
0.836602	2.47033	0.740797	2.18729														
0.838409	2.46888	0.742876	2.18741														
0.840219	2.46744	0.744955	2.18753														
0.842029	2.466	0.747034	2.18765														
0.84384	2.46459	0.749113	2.18777														
0.845653	2.46318	0.751192	2.18789														
0.847467	2.46178	0.753271	2.18801														
0.849282	2.46039	0.75535	2.18812														
0.851098	2.45902	0.757429	2.18824														
0.852915	2.45765	0.759507	2.18836														
0.854734	2.4563	0.761586	2.18847														
0.856553	2.45495	0.763665	2.18858														
0.858374	2.45362	0.765744	2.1887														
0.860196	2.4523	0.767823	2.18881														
0.862019	2.45098	0.769902	2.18892														
0.863843	2.44968	0.77198	2.18904														
0.865668	2.44839	0.774059	2.18915														
0.867494	2.4471	0.776138	2.18926														
0.869322	2.44583	0.778217	2.18937														
0.87115	2.44457	0.780296	2.18948														
0.87298	2.44331	0.782375	2.18959														
0.87481	2.44207	0.784453	2.18969														
0.876642	2.44083	0.786532	2.1898														
0.878475	2.43961	0.788611	2.18991														
0.880309	2.43839	0.79069	2.19001														
0.882144	2.43718	0.792769	2.19012														
0.883979	2.43599	0.794847	2.19023														
0.885816	2.4348	0.796926	2.19033														
0.887654	2.43362	0.799005	2.19044														
0.889493	2.43244	0.801084	2.19054														
0.891333	2.43128	0.803162	2.19064														
0.893174	2.43013	0.805241	2.19074														
0.895016	2.42898	0.80732	2.19085														
0.896859	2.42785	0.809399	2.19095														
0.898704	2.42672	0.811477	2.19105														
0.900549	2.4256	0.813556	2.19115														
0.902395	2.42448	0.815635	2.19125														
0.904242	2.42338	0.817713	2.19135														
0.906089	2.42228	0.819792	2.19145														
0.907938	2.4212	0.821871	2.19155														
0.909788	2.42012	0.82395	2.19165														
0.911639	2.41905	0.826028	2.19174														
0.913491	2.41798	0.828107	2.19184														
0.915344	2.41692	0.830186	2.19194														
0.917197	2.41588	0.832264	2.19203														
0.919052	2.41483	0.834343	2.19213														
0.920907	2.4138	0.836422	2.19222														
0.922764	2.41277	0.8385	2.19232														
0.924621	2.41176	0.840579	2.19241														
0.92648	2.41074	0.842658	2.19251														
0.928339	2.40974	0.844736	2.1926														
0.930199	2.40874	0.846815	2.19269														
0.93206	2.40775	0.848894	2.19278														
0.933922	2.40677	0.850972	2.19288														
0.935785	2.40579	0.853051	2.19297														
0.937648	2.40483	0.85513	2.19306														
0.939513	2.40386	0.857208	2.19315														
0.941378	2.40291	0.859287	2.19324														
0.943244	2.40196	0.861366	2.19333														
0.945111	2.40102	0.863444	2.19342														
0.946979	2.40008	0.865523	2.19351														
0.948848	2.39915	0.867601	2.19359														
0.950718	2.39823	0.86968	2.19368														
0.952588	2.39732	0.871759	2.19377														
0.95446	2.39641	0.873837	2.19386														
0.956332	2.3955	0.875916	2.19394														
0.958205	2.39461	0.877994	2.19403														
0.960079	2.39372	0.880073	2.19412														
0.961953	2.39283	0.882152	2.1942														
0.963829	2.39195	0.88423	2.19429														
0.965705	2.39108	0.886309	2.19437														
0.967582	2.39021	0.888387	2.19446														
0.96946	2.38935	0.890466	2.19454														
0.971339	2.3885	0.892545	2.19462														
0.973218	2.38765	0.894623	2.19471														
0.975099	2.38681	0.896702	2.19479														
0.97698	2.38597	0.89878	2.19487														
0.978861	2.38514	0.900859	2.19495														
0.980744	2.38431	0.902937	2.19503														
0.982627	2.38349	0.905016	2.19511														
0.984512	2.38268	0.907094	2.1952														
0.986396	2.38187	0.909173	2.19528														
0.988282	2.38107	0.911251	2.19536														
0.990168	2.38027	0.91333	2.19544														
0.992056	2.37948	0.915408	2.19551														
0.993943	2.37869	0.917487	2.19559														
0.995832	2.37791	0.919565	2.19567														
0.997721	2.37713	0.921644	2.19575														
0.999612	2.37636	0.923722	2.19583														
1.0015	2.37559	0.925801	2.19591														
		0.927879	2.19598														
		0.929958	2.19606														
		0.932036	2.19614														
		0.934115	2.19621														
		0.936193	2.19629														
		0.938272	2.19636														
		0.94035	2.19644														
		0.942429	2.19651														
		0.944507	2.19659														
		0.946586	2.19666														
		0.948664	2.19673														
		0.950743	2.19681														
		0.952821	2.19688														
		0.9549	2.19695														
		0.956978	2.19703														
		0.959056	2.1971														
		0.961135	2.19717														
		0.963213	2.19724														
		0.965292	2.19731														
		0.96737	2.19738														
		0.969449	2.19745														
		0.971527	2.19752														
		0.973605	2.19759														
		0.975684	2.19766														
		0.977762	2.19773														
		0.979841	2.1978														
		0.981919	2.19787														
		0.983997	2.19794														
		0.986076	2.19801														
		0.988154	2.19808														
		0.990232	2.19814														
		0.992311	2.19821														
		0.994389	2.19828														
		0.996468	2.19834														
		0.998546	2.19841														
		1.00062	2.19848														
