Sym0		Asym0		Sym1		Sym2		Sym3		Sym4		Asym1		Asym2		Asym3	
456  Points		493  Points		175  Points		143  Points		126  Points		95  Points		300  Points		155  Points		125  Points	
Freq (MHz)	Vph (m/ms)	Freq (MHz)	Vph (m/ms)	Freq (MHz)	Vph (m/ms)	Freq (MHz)	Vph (m/ms)	Freq (MHz)	Vph (m/ms)	Freq (MHz)	Vph (m/ms)	Freq (MHz)	Vph (m/ms)	Freq (MHz)	Vph (m/ms)	Freq (MHz)	Vph (m/ms)
0.00408279	7.18413	6.44331e-005	0.081912	0.279509	8194.24	0.521183	15110.3	0.559056	623.224	0.838526	9745.45	0.139893	165.717	0.419294	548.455	0.698771	17611.1
0.0107757	7.1838	0.000306514	0.178381	0.279579	289.477	0.521201	539.441	0.559179	305.774	0.838553	823.938	0.140367	79.0414	0.419417	247.269	0.698801	719.395
0.0174672	7.18311	0.000725028	0.273595	0.279779	147.446	0.521251	274.649	0.559386	202.645	0.838627	430.191	0.141173	52.1402	0.419633	159.684	0.698885	367.241
0.0241562	7.1821	0.00131421	0.366923	0.280109	99.0066	0.521335	184.245	0.559677	151.587	0.838748	291.118	0.142304	39.1025	0.419941	117.975	0.699024	246.59
0.0308419	7.18073	0.0020662	0.457793	0.280568	74.6016	0.521452	138.637	0.560051	121.123	0.838916	220.025	0.14375	31.4486	0.420343	93.5908	0.699217	185.643
0.0375233	7.17905	0.00297159	0.545738	0.281156	59.915	0.521603	111.146	0.560507	100.892	0.839129	176.863	0.145499	26.4417	0.420836	77.6024	0.699465	148.881
0.0441995	7.17701	0.00401987	0.630391	0.281872	50.1169	0.521789	92.7681	0.561045	86.4849	0.83939	147.878	0.147538	22.9298	0.421421	66.3168	0.699767	124.296
0.0508694	7.17463	0.00519969	0.71146	0.282713	43.123	0.522011	79.619	0.561665	75.7072	0.839697	127.074	0.149852	20.3437	0.422098	57.9299	0.700124	106.701
0.0575321	7.17191	0.00649929	0.788732	0.28368	37.8862	0.522269	69.747	0.562365	67.3442	0.84005	111.418	0.152426	18.3696	0.422866	51.4557	0.700535	93.4889
0.0641866	7.16883	0.00790717	0.862111	0.284769	33.8231	0.522565	62.0642	0.563144	60.6686	0.840449	99.2114	0.155244	16.8206	0.423724	46.3098	0.701	83.2054
0.0708318	7.16539	0.00941205	0.931558	0.28598	30.5826	0.5229	55.9165	0.564001	55.2185	0.840895	89.4284	0.15829	15.578	0.424671	42.124	0.701518	74.9756
0.0774666	7.16159	0.011003	0.997075	0.28731	27.941	0.523275	50.8867	0.564937	50.6866	0.841386	81.4138	0.16155	14.5635	0.425708	38.6545	0.702091	68.2416
0.0840899	7.15741	0.0126701	1.05875	0.288758	25.7487	0.523691	46.6963	0.565948	46.8602	0.841924	74.7289	0.165008	13.7227	0.426832	35.7336	0.702718	62.6307
0.0907006	7.15285	0.0144039	1.1167	0.290321	23.9023	0.52415	43.1522	0.567035	43.5877	0.842508	69.0689	0.168651	13.017	0.428045	33.2422	0.703398	57.8846
0.0972974	7.14789	0.0161959	1.17104	0.291996	22.3275	0.524653	40.1165	0.568196	40.7579	0.843137	64.2157	0.172465	12.4183	0.429343	31.0933	0.704131	53.8186
0.103879	7.14254	0.0180385	1.22195	0.293781	20.9701	0.525202	37.4879	0.56943	38.2876	0.843813	60.0089	0.176437	11.9057	0.430727	29.2218	0.704917	50.297
0.110444	7.13676	0.0199248	1.26961	0.295674	19.7891	0.525798	35.1902	0.570737	36.1131	0.844533	56.3279	0.180019	11.5164	0.432196	27.5783	0.705756	47.2179
0.116992	7.13056	0.0218489	1.31418	0.297672	18.7535	0.526444	33.1653	0.572114	34.1849	0.8453	53.0805	0.183155	11.2202	0.433749	26.1242	0.706648	44.5035
0.12352	7.12392	0.0238052	1.35587	0.299772	17.8387	0.527139	31.368	0.573562	32.4641	0.846111	50.1948	0.185802	10.9969	0.435384	24.8294	0.707593	42.0931
0.130028	7.11682	0.025789	1.39484	0.301972	17.0256	0.527887	29.7624	0.575078	30.9194	0.846968	47.6139	0.187929	10.8326	0.4371	23.6696	0.708589	39.9388
0.136513	7.10925	0.0277963	1.43128	0.304269	16.299	0.528688	28.3199	0.576662	29.5256	0.847869	45.2923	0.18951	10.7182	0.438897	22.6254	0.709638	38.0022
0.142975	7.10118	0.0298233	1.46536	0.30666	15.6462	0.529544	27.0174	0.578314	28.2619	0.848816	43.1931	0.19053	10.6476	0.440773	21.6808	0.710738	36.2524
0.14941	7.09262	0.0316035	1.49326	0.309142	15.0571	0.530457	25.8359	0.580031	27.1114	0.849807	41.2862	0.192006	10.5496	0.442727	20.8226	0.711889	34.6638
0.155818	7.08352	0.0331298	1.51581	0.311714	14.5232	0.531429	24.7597	0.581813	26.0599	0.850842	39.5464	0.193625	10.4475	0.444757	20.04	0.713092	33.2155
0.162197	7.07388	0.0343972	1.53363	0.314371	14.0377	0.532461	23.7757	0.583659	25.0953	0.851922	37.9531	0.195848	10.3156	0.446863	19.3237	0.714345	31.8899
0.168544	7.06366	0.0354023	1.54723	0.317112	13.5945	0.533555	22.873	0.585569	24.2077	0.853046	36.4886	0.198694	10.1593	0.449043	18.6659	0.715649	30.6724
0.174857	7.05285	0.0361429	1.55695	0.319935	13.1887	0.534712	22.0422	0.587541	23.3883	0.854213	35.1382	0.202186	9.98446	0.451297	18.0601	0.717003	29.5504
0.181134	7.04143	0.0366175	1.56306	0.322837	12.8161	0.535934	21.2754	0.589574	22.63	0.855425	33.8892	0.206347	9.79715	0.453622	17.5007	0.718406	28.5133
0.187373	7.02935	0.0373007	1.57168	0.325815	12.473	0.537223	20.5659	0.591668	21.9262	0.856679	32.7308	0.211203	9.60293	0.456017	16.9826	0.719859	27.5522
0.19357	7.0166	0.0380443	1.58085	0.328869	12.1563	0.53858	19.9078	0.593822	21.2716	0.857977	31.6536	0.21614	9.42801	0.458481	16.5018	0.721361	26.659
0.199724	7.00315	0.0390573	1.59299	0.331995	11.8633	0.540007	19.2961	0.596035	20.6613	0.859318	30.6495	0.221151	9.26986	0.461013	16.0546	0.722912	25.827
0.205831	6.98896	0.0403408	1.60781	0.334778	11.6255	0.541505	18.7262	0.598306	20.0912	0.860701	29.7115	0.226231	9.12638	0.463611	15.6377	0.724511	25.0503
0.211888	6.97401	0.0418962	1.62497	0.337192	11.4345	0.543077	18.1943	0.600635	19.5575	0.862127	28.8334	0.231375	8.99576	0.466275	15.2483	0.726158	24.3237
0.217893	6.95826	0.0437247	1.64412	0.339218	11.2842	0.544723	17.6971	0.603021	19.057	0.863595	28.0097	0.236577	8.87648	0.469002	14.884	0.727852	23.6426
0.223841	6.94167	0.0458272	1.66485	0.340837	11.1699	0.546445	17.2314	0.605463	18.5869	0.865105	27.2357	0.241833	8.76721	0.471791	14.5425	0.729593	23.003
0.229729	6.92421	0.0479334	1.68436	0.342039	11.0884	0.548245	16.7947	0.607961	18.1446	0.866657	26.507	0.247139	8.66684	0.474642	14.222	0.731382	22.4013
0.235554	6.90585	0.0500425	1.70273	0.342812	11.0372	0.550123	16.3847	0.610514	17.7279	0.86825	25.82	0.252491	8.57437	0.477552	13.9206	0.733216	21.8344
0.241312	6.88655	0.0521538	1.72004	0.34393	10.9652	0.552082	15.999	0.613121	17.3346	0.869885	25.1712	0.257886	8.48897	0.480521	13.6368	0.735096	21.2995
0.246999	6.86628	0.0542667	1.73637	0.345153	10.8886	0.554122	15.636	0.615781	16.963	0.87156	24.5576	0.263319	8.4099	0.483547	13.3691	0.737022	20.7939
0.25261	6.84499	0.0563808	1.75179	0.34683	10.7875	0.556246	15.2938	0.618495	16.6114	0.873276	23.9765	0.268788	8.3365	0.486629	13.1165	0.738993	20.3155
0.258143	6.82267	0.0584956	1.76636	0.348974	10.6644	0.558452	14.971	0.621261	16.2784	0.875032	23.4255	0.274289	8.2682	0.489766	12.8776	0.741008	19.8622
0.263593	6.79928	0.060611	1.78016	0.351599	10.5221	0.560744	14.6661	0.624079	15.9625	0.876828	22.9023	0.279821	8.20452	0.492956	12.6516	0.743067	19.4321
0.268956	6.7748	0.0627264	1.79322	0.354725	10.3638	0.563122	14.3779	0.626949	15.6627	0.878664	22.4051	0.285379	8.14499	0.496199	12.4374	0.74517	19.0236
0.274228	6.74919	0.0648418	1.8056	0.358375	10.193	0.565587	14.1053	0.629869	15.3777	0.88054	21.9318	0.290962	8.08922	0.499492	12.2342	0.747317	18.6351
0.279405	6.72245	0.0669569	1.81735	0.36209	10.0328	0.568138	13.8472	0.63284	15.1066	0.882454	21.481	0.296567	8.03688	0.502836	12.0413	0.749506	18.2654
0.284483	6.69457	0.0690717	1.82851	0.365871	9.88241	0.570778	13.6027	0.635861	14.8485	0.884408	21.0512	0.302192	7.98764	0.505789	11.8811	0.751737	17.913
0.289459	6.66552	0.0711859	1.83912	0.369718	9.74119	0.573506	13.3708	0.638932	14.6025	0.8864	20.6408	0.307835	7.94122	0.508335	11.7499	0.75401	17.577
0.294329	6.63532	0.0732995	1.84921	0.373633	9.60846	0.576323	13.1508	0.642051	14.3678	0.88843	20.2488	0.313493	7.89738	0.51046	11.6449	0.756325	17.2561
0.299092	6.60397	0.0754125	1.85882	0.377615	9.48365	0.579229	12.942	0.64522	14.1438	0.890498	19.8739	0.319165	7.85588	0.512153	11.5642	0.75868	16.9496
0.303743	6.57149	0.0775246	1.86799	0.381666	9.36622	0.582224	12.7436	0.648437	13.9299	0.892604	19.5151	0.324849	7.81653	0.513404	11.506	0.761077	16.6564
0.308282	6.53789	0.0796361	1.87673	0.385786	9.25571	0.585307	12.5551	0.651701	13.7253	0.894747	19.1715	0.330543	7.77914	0.514208	11.4692	0.763513	16.3758
0.312706	6.50322	0.0817467	1.88508	0.389977	9.15168	0.58848	12.3758	0.655014	13.5296	0.896927	18.842	0.336245	7.74355	0.515368	11.4172	0.765988	16.107
0.317015	6.46751	0.0838566	1.89306	0.394238	9.05373	0.59174	12.2052	0.658374	13.3422	0.899144	18.526	0.341954	7.7096	0.516635	11.3615	0.768503	15.8494
0.321207	6.43081	0.0859655	1.90069	0.398572	8.9615	0.594652	12.0632	0.661781	13.1627	0.901397	18.2226	0.347668	7.67715	0.518366	11.2872	0.771056	15.6023
0.325284	6.39317	0.0880736	1.908	0.402977	8.87465	0.597187	11.9469	0.665236	12.9907	0.903686	17.9311	0.353385	7.64609	0.52057	11.1957	0.773648	15.365
0.329244	6.35465	0.0901809	1.915	0.407456	8.79286	0.599319	11.8539	0.668737	12.8257	0.906011	17.651	0.359104	7.61629	0.523257	11.0884	0.776277	15.1372
0.333091	6.31532	0.0922874	1.92171	0.412007	8.71584	0.601027	11.7822	0.672284	12.6674	0.908371	17.3814	0.364823	7.58766	0.52644	10.9672	0.778944	14.9181
0.336824	6.27525	0.0943931	1.92815	0.41663	8.64329	0.602296	11.7305	0.675879	12.5154	0.910766	17.122	0.370541	7.56009	0.530131	10.8338	0.781647	14.7075
0.340445	6.2345	0.096498	1.93433	0.421326	8.57496	0.603114	11.698	0.67952	12.3694	0.913196	16.8722	0.376257	7.5335	0.533863	10.7062	0.784387	14.5047
0.343958	6.19316	0.0986021	1.94027	0.426092	8.51059	0.604297	11.6517	0.68273	12.2469	0.91566	16.6314	0.381968	7.5078	0.537634	10.5841	0.787163	14.3095
0.347364	6.1513	0.100705	1.94599	0.430929	8.44994	0.605594	11.6023	0.685495	12.1457	0.918158	16.3993	0.387675	7.48293	0.541445	10.4671	0.789974	14.1215
0.350666	6.10899	0.102808	1.95148	0.435833	8.39279	0.607374	11.5364	0.687801	12.0642	0.920691	16.1753	0.393374	7.45881	0.545294	10.355	0.79282	13.9402
0.353868	6.06631	0.10491	1.95677	0.44584	8.28807	0.609654	11.4551	0.689637	12.0011	0.923256	15.9592	0.399066	7.43537	0.549181	10.2475	0.7957	13.7653
0.356973	6.02333	0.107011	1.96187	0.450937	8.24011	0.612452	11.36	0.690993	11.9555	0.925854	15.7504	0.404748	7.41257	0.553104	10.1444	0.798615	13.5966
0.359984	5.98012	0.109112	1.96679	0.456093	8.19481	0.615791	11.2525	0.691865	11.9267	0.928486	15.5487	0.41042	7.39034	0.557063	10.0453	0.801564	13.4337
0.362905	5.93675	0.111211	1.97153	0.461305	8.15199	0.619696	11.1343	0.693122	11.8856	0.931149	15.3538	0.41608	7.36863	0.561058	9.95018	0.804545	13.2764
0.365739	5.89329	0.113311	1.9761	0.46657	8.11148	0.623679	11.0213	0.694494	11.8416	0.933845	15.1653	0.421726	7.34739	0.565087	9.85874	0.80756	13.1243
0.36849	5.8498	0.115409	1.98052	0.471885	8.07312	0.627738	10.9134	0.69637	11.7826	0.936573	14.9829	0.427358	7.32658	0.56915	9.77081	0.810607	12.9773
0.371161	5.80632	0.117507	1.98479	0.477247	8.03676	0.63187	10.8101	0.698757	11.7096	0.939331	14.8063	0.432974	7.30616	0.573247	9.68621	0.813686	12.8352
0.373756	5.76292	0.119605	1.98892	0.482653	8.00224	0.636073	10.7113	0.701669	11.6236	0.942121	14.6354	0.438573	7.28609	0.577377	9.60478	0.816796	12.6976
0.376278	5.71965	0.121702	1.99291	0.488099	7.96942	0.640345	10.6166	0.705118	11.5257	0.944942	14.4697	0.444153	7.26633	0.581539	9.52637	0.819532	12.5814
0.378732	5.67655	0.123798	1.99678	0.493582	7.9382	0.644683	10.526	0.70912	11.4173	0.947793	14.3093	0.449714	7.24684	0.585732	9.45082	0.821883	12.4848
0.381119	5.63366	0.125894	2.00052	0.4991	7.90843	0.649086	10.4391	0.71317	11.3128	0.950675	14.1537	0.455254	7.2276	0.589958	9.37802	0.82384	12.4067
0.383444	5.59102	0.12799	2.00415	0.504648	7.88002	0.65355	10.3557	0.717269	11.2121	0.953586	14.0028	0.460771	7.20857	0.594214	9.30783	0.825395	12.346
0.385709	5.54867	0.130084	2.00766	0.510225	7.85285	0.658073	10.2757	0.721416	11.115	0.956527	13.8564	0.466266	7.18973	0.598501	9.24013	0.826543	12.3019
0.387917	5.50663	0.132179	2.01107	0.515827	7.82683	0.662652	10.1988	0.725613	11.0215	0.959496	13.7143	0.471735	7.17104	0.602819	9.17482	0.82728	12.274
0.390071	5.46493	0.134273	2.01437	0.521452	7.80188	0.667284	10.1249	0.729861	10.9313	0.962495	13.5764	0.477178	7.15249	0.607166	9.11178	0.828342	12.2341
0.392175	5.42361	0.136367	2.01758	0.527096	7.77791	0.671966	10.0538	0.734158	10.8444	0.965522	13.4424	0.482594	7.13404	0.611544	9.05092	0.829499	12.1913
0.39423	5.38267	0.13846	2.0207	0.532758	7.75485	0.676696	9.98538	0.738508	10.7605	0.968578	13.3123	0.487982	7.11568	0.61595	8.99214	0.83108	12.1339
0.396239	5.34214	0.140553	2.02372	0.538436	7.73262	0.681471	9.91946	0.742909	10.6797	0.971661	13.1858	0.49334	7.09739	0.620386	8.93537	0.833089	12.0624
0.397954	5.30717	0.142645	2.02667	0.544126	7.71116	0.686287	9.85589	0.747364	10.6017	0.974772	13.0629	0.498667	7.07913	0.624851	8.8805	0.835533	11.9778
0.399391	5.27763	0.144737	2.02953	0.549827	7.69041	0.691141	9.79455	0.751872	10.5265	0.977506	12.9585	0.503962	7.06091	0.629345	8.82748	0.838421	11.8809
0.400563	5.25338	0.146829	2.03231	0.555537	7.67032	0.696031	9.73531	0.756435	10.454	0.979852	12.8715	0.509223	7.04269	0.633867	8.77622	0.841761	11.7728
0.401479	5.23433	0.148921	2.03501	0.561253	7.65083	0.700953	9.67803	0.761053	10.3842	0.981803	12.8009	0.51445	7.02447	0.638417	8.72665	0.84513	11.6678
0.402147	5.22039	0.151012	2.03764	0.566975	7.6319	0.705904	9.62261	0.765727	10.3168	0.983353	12.7459	0.519641	7.00622	0.642996	8.67871	0.848526	11.566
0.402572	5.21151	0.153103	2.04021	0.572701	7.61348	0.710882	9.56894	0.770459	10.2519	0.984497	12.7059	0.524795	6.98793	0.647602	8.63233	0.85195	11.467
0.40318	5.19877	0.155193	2.04271	0.578428	7.59554	0.715884	9.51691	0.775249	10.1893	0.985231	12.6805	0.529912	6.96959	0.652237	8.58745	0.855401	11.3709
0.403836	5.18499	0.157284	2.04514	0.584155	7.57804	0.720906	9.46642	0.780097	10.129	0.986288	12.6443	0.534989	6.95119	0.656899	8.54403	0.858879	11.2774
0.404721	5.16633	0.159374	2.04751	0.589881	7.56093	0.725946	9.41739	0.785005	10.0709	0.98744	12.6053	0.540026	6.93271	0.661588	8.50199	0.862384	11.1866
0.40583	5.14291	0.161463	2.04982	0.595605	7.54421	0.731001	9.36972	0.789974	10.0149	0.989013	12.5529	0.545022	6.91415	0.666305	8.46129	0.865914	11.0983
0.407153	5.11482	0.163553	2.05207	0.601325	7.52782	0.736068	9.32333	0.795003	9.96099	0.99101	12.4875	0.549976	6.8955	0.671048	8.42189	0.869471	11.0123
0.408684	5.08222	0.165642	2.05427	0.60704	7.51175	0.741146	9.27816	0.800093	9.90909	0.993439	12.4099	0.554888	6.87675	0.675819	8.38373	0.873053	10.9287
0.410413	5.04525	0.167731	2.05642	0.612749	7.49597	0.746232	9.23412	0.805245	9.85914	0.996306	12.3208	0.559755	6.85788	0.680616	8.34676	0.87666	10.8474
0.412113	5.00879	0.16982	2.05851	0.618451	7.48046	0.751323	9.19116	0.810459	9.81105	0.99962	12.2209	0.564578	6.8389	0.685439	8.31095	0.880292	10.7682
0.413786	4.97282	0.171908	2.06056	0.624144	7.4652	0.756419	9.14921	0.815734	9.76478	1.00296	12.1237	0.569355	6.8198	0.690288	8.27625	0.883949	10.6911
0.415434	4.93734	0.173997	2.06256	0.629828	7.45016	0.761516	9.10822	0.821072	9.72027			0.574086	6.80058	0.695163	8.24262	0.88763	10.616
0.417059	4.90236	0.176085	2.06451	0.635502	7.43533	0.766614	9.06814	0.826471	9.67745			0.578771	6.78123	0.700063	8.21003	0.891335	10.5428
0.418661	4.86788	0.178173	2.06642	0.641164	7.42069	0.77171	9.02892	0.831932	9.63626			0.583408	6.76175	0.704988	8.17842	0.895064	10.4715
0.420241	4.83389	0.18026	2.06828	0.646815	7.40623	0.776805	8.99053	0.837453	9.59665			0.587997	6.74213	0.709937	8.14778	0.898817	10.402
0.421802	4.8004	0.182348	2.0701	0.652453	7.39192	0.781897	8.95291	0.843035	9.55856			0.592538	6.72238	0.714911	8.11805	0.902592	10.3343
0.423344	4.76739	0.184435	2.07189	0.658076	7.37776	0.786984	8.91605	0.848676	9.52193			0.59703	6.7025	0.719908	8.08921	0.906391	10.2683
0.424868	4.73488	0.186523	2.07363	0.663686	7.36373	0.792067	8.87991	0.854376	9.48671			0.601472	6.68248	0.724928	8.06123	0.910212	10.2038
0.426375	4.70285	0.18861	2.07533	0.66928	7.34982	0.797146	8.84446	0.860132	9.45284			0.605866	6.66233	0.729971	8.03407	0.914056	10.141
0.427867	4.67129	0.190696	2.077	0.674858	7.33601	0.802219	8.80968	0.865945	9.42027			0.610209	6.64204	0.735035	8.00769	0.917922	10.0797
0.429344	4.64022	0.192783	2.07864	0.680419	7.32231	0.807287	8.77554	0.871813	9.38894			0.614503	6.62163	0.740121	7.98208	0.92181	10.0199
0.430807	4.60962	0.19487	2.08024	0.685962	7.30868	0.81235	8.74204	0.877734	9.3588			0.618747	6.60109	0.745227	7.9572	0.92572	9.96152
0.432257	4.57948	0.196956	2.08181	0.691488	7.29514	0.817408	8.70915	0.883707	9.32981			0.622941	6.58042	0.750354	7.93301	0.929652	9.90452
0.433695	4.5498	0.199042	2.08334	0.696995	7.28166	0.822461	8.67686	0.889731	9.30191			0.627085	6.55964	0.755499	7.90951	0.933604	9.84887
0.435121	4.52058	0.201128	2.08484	0.702482	7.26824	0.827509	8.64514	0.895804	9.27505			0.631179	6.53873	0.760663	7.88664	0.937578	9.79452
0.436537	4.49181	0.203214	2.08632	0.707949	7.25487	0.832554	8.614	0.901924	9.24919			0.635223	6.51772	0.765845	7.8644	0.941573	9.74144
0.437943	4.46349	0.2053	2.08776	0.713396	7.24155	0.837596	8.58343	0.908089	9.22428			0.639218	6.4966	0.771044	7.84275	0.945588	9.68958
0.439339	4.4356	0.207386	2.08918	0.718821	7.22826	0.842635	8.5534	0.914299	9.20029			0.643163	6.47538	0.776259	7.82167	0.949623	9.63891
0.440727	4.40814	0.209472	2.09057	0.724225	7.215	0.847671	8.52391	0.920551	9.17716			0.647058	6.45406	0.78149	7.80114	0.953679	9.58939
0.442106	4.38111	0.211557	2.09193	0.729605	7.20176	0.852706	8.49495	0.926844	9.15486			0.650905	6.43265	0.786735	7.78113	0.957755	9.54099
0.443478	4.35451	0.213642	2.09326	0.734963	7.18854	0.85774	8.46651	0.933176	9.13335			0.654704	6.41116	0.791994	7.76162	0.961851	9.49367
0.444843	4.32831	0.215728	2.09457	0.740298	7.17532	0.862774	8.43859	0.939545	9.1126			0.658453	6.38958	0.797265	7.74259	0.965966	9.44741
0.446202	4.30253	0.217813	2.09586	0.745608	7.16212	0.867808	8.41118	0.945951	9.09257			0.662156	6.36793	0.802549	7.72401	0.9701	9.40217
0.447554	4.27714	0.219898	2.09712	0.750894	7.14891	0.872842	8.38426	0.952392	9.07322			0.66581	6.34622	0.807843	7.70587	0.974254	9.35793
0.448901	4.25215	0.221983	2.09836	0.756155	7.1357	0.877879	8.35784	0.958865	9.05452			0.669418	6.32444	0.813148	7.68815	0.978427	9.31465
0.450243	4.22755	0.224068	2.09958	0.76139	7.12248	0.882917	8.3319	0.96537	9.03645			0.672979	6.30261	0.818463	7.67082	0.982619	9.27231
0.45158	4.20334	0.226152	2.10077	0.766599	7.10925	0.887958	8.30644	0.971906	9.01896			0.676494	6.28073	0.823785	7.65387	0.986829	9.23089
0.452913	4.1795	0.228237	2.10194	0.771782	7.096	0.893002	8.28145	0.97847	9.00205			0.679964	6.2588	0.829116	7.63728	0.991058	9.19035
0.454242	4.15603	0.230322	2.1031	0.776937	7.08273	0.89805	8.25692	0.985061	8.98567			0.683389	6.23684	0.834453	7.62104	0.995305	9.15067
0.455567	4.13292	0.232406	2.10423	0.782066	7.06944	0.903101	8.23284	0.991679	8.9698			0.686769	6.21484	0.839796	7.60513	0.99957	9.11184
0.456889	4.11017	0.23449	2.10534	0.787166	7.05612	0.908158	8.20921	0.998321	8.95442			0.690106	6.19282	0.845144	7.58952	1.00385	9.07382
0.458208	4.08778	0.236575	2.10643	0.792239	7.04277	0.913219	8.18602	1.00499	8.9395			0.693399	6.17078	0.850496	7.57421		
0.459525	4.06573	0.238659	2.10751	0.797282	7.02938	0.918286	8.16326					0.696649	6.14873	0.855852	7.55919		
0.460839	4.04402	0.240743	2.10856	0.802297	7.01597	0.923358	8.14092					0.699858	6.12667	0.86121	7.54443		
0.462151	4.02265	0.242827	2.1096	0.807283	7.00251	0.928436	8.119					0.703025	6.1046	0.86657	7.52992		
0.463462	4.00161	0.244911	2.11062	0.812239	6.98902	0.933521	8.09749					0.706151	6.08254	0.871931	7.51566		
0.464771	3.98089	0.246995	2.11163	0.817165	6.97548	0.938612	8.07638					0.709238	6.06049	0.877291	7.50162		
0.466079	3.96048	0.249079	2.11261	0.822061	6.96191	0.943709	8.05566					0.712284	6.03844	0.882651	7.4878		
0.467386	3.94039	0.251162	2.11358	0.826927	6.94829	0.948813	8.03533					0.715292	6.01642	0.88801	7.47419		
0.468692	3.92061	0.253246	2.11454	0.831761	6.93462	0.953925	8.01537					0.718261	5.99442	0.893366	7.46076		
0.469998	3.90112	0.25533	2.11548	0.836565	6.92092	0.959043	7.99578					0.721193	5.97245	0.89872	7.44752		
0.471303	3.88194	0.257413	2.11641	0.841338	6.90716	0.964168	7.97655					0.724087	5.9505	0.904069	7.43445		
0.472608	3.86304	0.259497	2.11732	0.846079	6.89336	0.9693	7.95767					0.726945	5.9286	0.909414	7.42155		
0.473913	3.84443	0.26158	2.11821	0.850789	6.87951	0.97444	7.93914					0.729768	5.90674	0.914754	7.40879		
0.475218	3.8261	0.263663	2.1191	0.855467	6.86561	0.979586	7.92094					0.732555	5.88492	0.920088	7.39618		
0.476523	3.80804	0.265747	2.11996	0.860113	6.85167	0.98474	7.90307					0.735308	5.86315	0.925416	7.38371		
0.477829	3.79026	0.26783	2.12082	0.864728	6.83768	0.9899	7.88553					0.738027	5.84143	0.930736	7.37136		
0.479136	3.77274	0.269913	2.12166	0.86931	6.82364	0.995067	7.86829					0.740712	5.81977	0.936048	7.35913		
0.480443	3.75549	0.271996	2.12249	0.87386	6.80955	1.00024	7.85136					0.743365	5.79817	0.941352	7.34701		
0.481751	3.73849	0.274079	2.12331	0.878377	6.79542							0.745986	5.77663	0.946647	7.335		
0.483061	3.72174	0.276162	2.12412	0.882863	6.78124							0.748576	5.75516	0.951932	7.32308		
0.484371	3.70524	0.278245	2.12491	0.887316	6.76702							0.751135	5.73377	0.957207	7.31126		
0.485683	3.68898	0.280328	2.12569	0.891737	6.75275							0.753663	5.71244	0.96247	7.29952		
0.486996	3.67296	0.282411	2.12646	0.896125	6.73844							0.756162	5.69119	0.967723	7.28785		
0.488311	3.65718	0.284493	2.12722	0.900481	6.72409							0.758632	5.67002	0.972963	7.27626		
0.489627	3.64162	0.286576	2.12797	0.904805	6.7097							0.761074	5.64893	0.97819	7.26474		
0.490945	3.6263	0.288659	2.12871	0.909096	6.69526							0.763487	5.62793	0.983404	7.25327		
0.492264	3.61119	0.290741	2.12943	0.913356	6.68079							0.765874	5.60701	0.988605	7.24187		
0.493586	3.59631	0.292824	2.13015	0.917583	6.66628							0.768233	5.58618	0.993792	7.23051		
0.494909	3.58164	0.294907	2.13086	0.921778	6.65173							0.770567	5.56545	0.998963	7.2192		
0.496235	3.56718	0.296989	2.13156	0.92594	6.63714							0.772875	5.5448	1.00412	7.20794		
0.497562	3.55292	0.299071	2.13224	0.930071	6.62253							0.775158	5.52426				
0.498892	3.53888	0.301154	2.13292	0.93417	6.60788							0.777416	5.50381				
0.500224	3.52503	0.303236	2.13359	0.938238	6.5932							0.779651	5.48346				
0.501558	3.51137	0.305319	2.13425	0.942273	6.57849							0.781862	5.46321				
0.502895	3.49792	0.307401	2.1349	0.946278	6.56375							0.78405	5.44306				
0.504234	3.48465	0.309483	2.13555	0.950251	6.54898							0.786215	5.42302				
0.505575	3.47156	0.311565	2.13618	0.954193	6.53419							0.788359	5.40308				
0.506919	3.45867	0.313648	2.13681	0.958103	6.51938							0.790481	5.38325				
0.508265	3.44595	0.31573	2.13743	0.961983	6.50454							0.792582	5.36353				
0.509614	3.4334	0.317812	2.13804	0.965833	6.48968							0.794663	5.34392				
0.510966	3.42104	0.319894	2.13864	0.969651	6.47481							0.796724	5.32442				
0.51232	3.40884	0.321976	2.13923	0.97344	6.45992							0.798765	5.30503				
0.513677	3.39681	0.324058	2.13982	0.977198	6.44501							0.800787	5.28575				
0.515037	3.38495	0.32614	2.1404	0.980926	6.43008							0.802791	5.26659				
0.516399	3.37325	0.328222	2.14097	0.984624	6.41515							0.804776	5.24753				
0.517765	3.36171	0.330304	2.14154	0.988293	6.4002							0.806743	5.2286				
0.519133	3.35032	0.332385	2.14209	0.991933	6.38524							0.808693	5.20978				
0.520504	3.33909	0.334467	2.14265	0.995543	6.37028							0.810626	5.19107				
0.521878	3.32801	0.336549	2.14319	0.999124	6.35531							0.812543	5.17249				
0.523254	3.31708	0.338631	2.14373	1.00268	6.34033							0.814443	5.15402				
0.524634	3.3063	0.340713	2.14426									0.816328	5.13566				
0.526016	3.29566	0.342794	2.14478									0.818197	5.11743				
0.527402	3.28517	0.344876	2.1453									0.820051	5.09931				
0.52879	3.27481	0.346958	2.14582									0.821891	5.08131				
0.530182	3.26459	0.349039	2.14632									0.823717	5.06343				
0.531576	3.25451	0.351121	2.14682									0.825528	5.04567				
0.532974	3.24456	0.353202	2.14732									0.827326	5.02802				
0.534374	3.23473	0.355284	2.14781									0.829111	5.0105				
0.535778	3.22504	0.357366	2.14829									0.830882	4.99309				
0.537184	3.21548	0.359447	2.14877									0.832642	4.9758				
0.538594	3.20603	0.361528	2.14924									0.834388	4.95864				
0.540007	3.19671	0.36361	2.14971									0.836124	4.94159				
0.541422	3.18751	0.365691	2.15017									0.837847	4.92465				
0.542841	3.17843	0.367773	2.15063									0.839559	4.90784				
0.544263	3.16947	0.369854	2.15108									0.84126	4.89114				
0.545688	3.16062	0.371935	2.15152									0.84295	4.87457				
0.547116	3.15188	0.374017	2.15197									0.84463	4.85811				
0.548547	3.14325	0.376098	2.1524									0.8463	4.84176				
0.549981	3.13473	0.378179	2.15283									0.847959	4.82554				
0.551418	3.12632	0.380261	2.15326									0.84961	4.80943				
0.552858	3.11802	0.382342	2.15368									0.85125	4.79343				
0.554302	3.10982	0.384423	2.1541									0.852882	4.77756				
0.555748	3.10172	0.386504	2.15452									0.854504	4.76179				
0.557197	3.09372	0.388585	2.15493									0.856118	4.74615				
0.55865	3.08582	0.390667	2.15533									0.857724	4.73061				
0.560105	3.07802	0.392748	2.15573									0.859321	4.71519				
0.561564	3.07032	0.394829	2.15613									0.860911	4.69989				
0.563026	3.06271	0.39691	2.15652									0.862492	4.68469				
0.56449	3.05519	0.398991	2.15691									0.864066	4.66961				
0.565958	3.04777	0.401072	2.15729									0.865633	4.65464				
0.567429	3.04043	0.403153	2.15767									0.867193	4.63978				
0.568903	3.03319	0.405234	2.15805									0.868745	4.62504				
0.57038	3.02603	0.407315	2.15842									0.870291	4.6104				
0.571859	3.01896	0.409396	2.15879									0.871831	4.59587				
0.573342	3.01197	0.411477	2.15916									0.873364	4.58145				
0.574828	3.00507	0.413558	2.15952									0.874891	4.56714				
0.576317	2.99825	0.415639	2.15988									0.876412	4.55293				
0.577809	2.99151	0.41772	2.16023									0.877927	4.53884				
0.579303	2.98485	0.419801	2.16058									0.879437	4.52485				
0.580801	2.97827	0.421882	2.16093									0.880941	4.51096				
0.582302	2.97176	0.423962	2.16128									0.882439	4.49718				
0.583805	2.96534	0.426043	2.16162									0.883933	4.4835				
0.585312	2.95899	0.428124	2.16195									0.885422	4.46993				
0.586821	2.95271	0.430205	2.16229									0.886906	4.45646				
0.588333	2.94651	0.432286	2.16262									0.888385	4.44309				
0.589848	2.94037	0.434367	2.16295									0.889859	4.42983				
0.591367	2.93431	0.436447	2.16327									0.89133	4.41666				
0.592887	2.92832	0.438528	2.1636									0.892796	4.40359				
0.594411	2.9224	0.440609	2.16391									0.894258	4.39063				
0.595938	2.91655	0.44269	2.16423									0.895715	4.37776				
0.597467	2.91076	0.44477	2.16454									0.897169	4.36499				
0.599	2.90504	0.446851	2.16485									0.89862	4.35232				
0.600535	2.89938	0.448932	2.16516									0.900066	4.33974				
0.602073	2.89379	0.451012	2.16546									0.90151	4.32726				
0.603613	2.88826	0.453093	2.16577									0.90295	4.31488				
0.605157	2.88279	0.455174	2.16607									0.904386	4.30258				
0.606703	2.87739	0.457254	2.16636									0.90582	4.29039				
0.608252	2.87204	0.459335	2.16665									0.90725	4.27828				
0.609803	2.86676	0.461415	2.16695									0.908677	4.26627				
0.611358	2.86153	0.463496	2.16723									0.910102	4.25435				
0.612915	2.85637	0.465577	2.16752									0.911524	4.24252				
0.614475	2.85125	0.467657	2.1678									0.912943	4.23078				
0.616037	2.8462	0.469738	2.16808									0.91436	4.21913				
0.617602	2.8412	0.471818	2.16836									0.915775	4.20756				
0.61917	2.83626	0.473899	2.16864									0.917187	4.19609				
0.620741	2.83137	0.475979	2.16891									0.918597	4.1847				
0.622314	2.82653	0.47806	2.16918									0.920004	4.1734				
0.623889	2.82174	0.48014	2.16945									0.92141	4.16219				
0.625467	2.81701	0.482221	2.16972									0.922814	4.15106				
0.627048	2.81233	0.484301	2.16998									0.924216	4.14001				
0.628632	2.8077	0.486382	2.17024									0.925616	4.12905				
0.630218	2.80312	0.488462	2.1705									0.927014	4.11817				
0.631806	2.79859	0.490543	2.17076									0.92841	4.10738				
0.633397	2.7941	0.492623	2.17102									0.929805	4.09666				
0.634991	2.78967	0.494703	2.17127									0.931199	4.08603				
0.636587	2.78528	0.496784	2.17152									0.932591	4.07548				
0.638185	2.78094	0.498864	2.17177									0.933982	4.065				
0.639787	2.77664	0.500945	2.17202									0.935371	4.05461				
0.64139	2.77239	0.503025	2.17226									0.936759	4.04429				
0.642996	2.76818	0.505105	2.1725									0.938146	4.03405				
0.644604	2.76402	0.507186	2.17275									0.939532	4.02389				
0.646215	2.7599	0.509266	2.17298									0.940917	4.01381				
0.647828	2.75583	0.511346	2.17322									0.942301	4.0038				
0.649444	2.75179	0.513427	2.17346									0.943684	3.99387				
0.651062	2.7478	0.515507	2.17369									0.945067	3.98401				
0.652682	2.74385	0.517587	2.17392									0.946448	3.97422				
0.654305	2.73994	0.519668	2.17415									0.947829	3.96451				
0.65593	2.73607	0.521748	2.17438									0.949209	3.95487				
0.657557	2.73224	0.523828	2.1746									0.950588	3.9453				
0.659187	2.72845	0.525908	2.17483									0.951967	3.9358				
0.660819	2.7247	0.527989	2.17505									0.953345	3.92638				
0.662453	2.72098	0.530069	2.17527									0.954723	3.91702				
0.66409	2.7173	0.532149	2.17549									0.9561	3.90773				
0.665729	2.71366	0.534229	2.17571									0.957477	3.89852				
0.667369	2.71006	0.53631	2.17592									0.958854	3.88937				
0.669013	2.70649	0.53839	2.17614									0.96023	3.88029				
0.670658	2.70296	0.54047	2.17635									0.961607	3.87127				
0.672306	2.69947	0.54255	2.17656									0.962982	3.86232				
0.673956	2.69601	0.54463	2.17677									0.964358	3.85344				
0.675608	2.69258	0.546711	2.17698									0.965734	3.84463				
0.677262	2.68919	0.548791	2.17718									0.967109	3.83587				
0.678919	2.68583	0.550871	2.17739									0.968485	3.82719				
0.680577	2.6825	0.552951	2.17759									0.969861	3.81856				
0.682238	2.67921	0.555031	2.17779									0.971236	3.81				
0.6839	2.67595	0.557111	2.17799									0.972612	3.80151				
0.685565	2.67272	0.559191	2.17819									0.973988	3.79307				
0.687232	2.66952	0.561272	2.17838									0.975363	3.7847				
0.688901	2.66635	0.563352	2.17858									0.976739	3.77638				
0.690572	2.66322	0.565432	2.17877									0.978116	3.76813				
0.692246	2.66011	0.567512	2.17897									0.979492	3.75994				
0.693921	2.65704	0.569592	2.17916									0.980869	3.7518				
0.695598	2.65399	0.571672	2.17935									0.982246	3.74373				
0.697277	2.65097	0.573752	2.17954									0.983624	3.73572				
0.698958	2.64799	0.575832	2.17972									0.985001	3.72776				
0.700642	2.64503	0.577912	2.17991									0.98638	3.71986				
0.702327	2.6421	0.579992	2.18009									0.987758	3.71201				
0.704014	2.63919	0.582072	2.18028									0.989137	3.70423				
0.705703	2.63632	0.584152	2.18046									0.990517	3.69649				
0.707394	2.63347	0.586232	2.18064									0.991897	3.68882				
0.709087	2.63065	0.588312	2.18082									0.993278	3.6812				
0.710782	2.62785	0.590392	2.181									0.994659	3.67363				
0.712479	2.62508	0.592472	2.18117									0.996041	3.66612				
0.714178	2.62234	0.594552	2.18135									0.997423	3.65866				
0.715878	2.61962	0.596632	2.18152									0.998806	3.65126				
0.717581	2.61693	0.598712	2.18169									1.00019	3.6439				
0.719285	2.61426	0.600792	2.18187														
0.720991	2.61162	0.602872	2.18204														
0.722699	2.609	0.604952	2.18221														
0.724409	2.60641	0.607032	2.18237														
0.726121	2.60384	0.609112	2.18254														
0.727834	2.60129	0.611192	2.18271														
0.729549	2.59877	0.613272	2.18287														
0.731266	2.59627	0.615352	2.18304														
0.732985	2.59379	0.617432	2.1832														
0.734706	2.59133	0.619512	2.18336														
0.736428	2.5889	0.621592	2.18352														
0.738152	2.58649	0.623672	2.18368														
0.739878	2.5841	0.625752	2.18384														
0.741605	2.58173	0.627832	2.184														
0.743335	2.57939	0.629911	2.18415														
0.745065	2.57706	0.631991	2.18431														
0.746798	2.57476	0.634071	2.18446														
0.748532	2.57247	0.636151	2.18462														
0.750268	2.57021	0.638231	2.18477														
0.752006	2.56797	0.640311	2.18492														
0.753745	2.56574	0.642391	2.18507														
0.755486	2.56354	0.64447	2.18522														
0.757228	2.56135	0.64655	2.18537														
0.758972	2.55919	0.64863	2.18551														
0.760718	2.55704	0.65071	2.18566														
0.762465	2.55491	0.65279	2.18581														
0.764214	2.5528	0.65487	2.18595														
0.765964	2.55071	0.656949	2.18609														
0.767716	2.54864	0.659029	2.18624														
0.76947	2.54658	0.661109	2.18638														
0.771225	2.54454	0.663189	2.18652														
0.772981	2.54252	0.665269	2.18666														
0.77474	2.54052	0.667348	2.1868														
0.776499	2.53853	0.669428	2.18694														
0.77826	2.53657	0.671508	2.18707														
0.780023	2.53461	0.673588	2.18721														
0.781787	2.53268	0.675668	2.18735														
0.783553	2.53076	0.677747	2.18748														
0.78532	2.52886	0.679827	2.18762														
0.787088	2.52697	0.681907	2.18775														
0.788858	2.5251	0.683986	2.18788														
0.79063	2.52325	0.686066	2.18801														
0.792402	2.52141	0.688146	2.18814														
0.794177	2.51958	0.690226	2.18827														
0.795952	2.51777	0.692305	2.1884														
0.797729	2.51598	0.694385	2.18853														
0.799508	2.5142	0.696465	2.18866														
0.801288	2.51244	0.698545	2.18879														
0.803069	2.51069	0.700624	2.18891														
0.804852	2.50895	0.702704	2.18904														
0.806636	2.50723	0.704784	2.18916														
0.808421	2.50553	0.706863	2.18929														
0.810208	2.50383	0.708943	2.18941														
0.811996	2.50215	0.711023	2.18953														
0.813785	2.50049	0.713102	2.18966														
0.815576	2.49884	0.715182	2.18978														
0.817368	2.4972	0.717262	2.1899														
0.819161	2.49557	0.719341	2.19002														
0.820956	2.49396	0.721421	2.19014														
0.822751	2.49236	0.723501	2.19025														
0.824549	2.49078	0.72558	2.19037														
0.826347	2.48921	0.72766	2.19049														
0.828147	2.48765	0.729739	2.19061														
0.829948	2.4861	0.731819	2.19072														
0.83175	2.48456	0.733899	2.19084														
0.833553	2.48304	0.735978	2.19095														
0.835358	2.48153	0.738058	2.19106														
0.837164	2.48003	0.740138	2.19118														
0.838971	2.47854	0.742217	2.19129														
0.840779	2.47706	0.744297	2.1914														
0.842589	2.4756	0.746376	2.19151														
0.8444	2.47415	0.748456	2.19162														
0.846212	2.47271	0.750536	2.19173														
0.848025	2.47128	0.752615	2.19184														
0.849839	2.46986	0.754695	2.19195														
0.851655	2.46845	0.756774	2.19206														
0.853471	2.46705	0.758854	2.19217														
0.855289	2.46567	0.760933	2.19227														
0.857108	2.46429	0.763013	2.19238														
0.858928	2.46293	0.765093	2.19249														
0.860749	2.46157	0.767172	2.19259														
0.862572	2.46023	0.769252	2.1927														
0.864395	2.4589	0.771331	2.1928														
0.86622	2.45757	0.773411	2.1929														
0.868046	2.45626	0.77549	2.19301														
0.869872	2.45496	0.77757	2.19311														
0.8717	2.45366	0.779649	2.19321														
0.873529	2.45238	0.781729	2.19331														
0.875359	2.45111	0.783808	2.19341														
0.87719	2.44984	0.785888	2.19351														
0.879023	2.44859	0.787967	2.19361														
0.880856	2.44735	0.790047	2.19371														
0.88269	2.44611	0.792126	2.19381														
0.884526	2.44488	0.794206	2.19391														
0.886362	2.44367	0.796285	2.19401														
0.8882	2.44246	0.798365	2.19411														
0.890038	2.44126	0.800444	2.1942														
0.891878	2.44007	0.802524	2.1943														
0.893718	2.43889	0.804603	2.19439														
0.89556	2.43772	0.806683	2.19449														
0.897402	2.43655	0.808762	2.19458														
0.899246	2.4354	0.810842	2.19468														
0.90109	2.43425	0.812921	2.19477														
0.902936	2.43311	0.815001	2.19486														
0.904783	2.43198	0.81708	2.19496														
0.90663	2.43086	0.81916	2.19505														
0.908479	2.42975	0.821239	2.19514														
0.910328	2.42864	0.823319	2.19523														
0.912178	2.42754	0.825398	2.19532														
0.91403	2.42645	0.827477	2.19541														
0.915882	2.42537	0.829557	2.1955														
0.917735	2.4243	0.831636	2.19559														
0.91959	2.42323	0.833716	2.19568														
0.921445	2.42218	0.835795	2.19577														
0.923301	2.42112	0.837875	2.19586														
0.925158	2.42008	0.839954	2.19595														
0.927016	2.41905	0.842033	2.19603														
0.928875	2.41802	0.844113	2.19612														
0.930734	2.417	0.846192	2.19621														
0.932595	2.41598	0.848272	2.19629														
0.934457	2.41498	0.850351	2.19638														
0.936319	2.41398	0.85243	2.19646														
0.938182	2.41299	0.85451	2.19655														
0.940047	2.412	0.856589	2.19663														
0.941912	2.41102	0.858669	2.19672														
0.943778	2.41005	0.860748	2.1968														
0.945644	2.40909	0.862827	2.19688														
0.947512	2.40813	0.864907	2.19697														
0.949381	2.40718	0.866986	2.19705														
0.95125	2.40623	0.869065	2.19713														
0.95312	2.4053	0.871145	2.19721														
0.954991	2.40436	0.873224	2.19729														
0.956863	2.40344	0.875304	2.19737														
0.958736	2.40252	0.877383	2.19745														
0.96061	2.40161	0.879462	2.19753														
0.962484	2.4007	0.881542	2.19761														
0.964359	2.3998	0.883621	2.19769														
0.966235	2.39891	0.8857	2.19777														
0.968112	2.39802	0.88778	2.19785														
0.96999	2.39714	0.889859	2.19793														
0.971868	2.39627	0.891938	2.19801														
0.973748	2.3954	0.894018	2.19808														
0.975628	2.39453	0.896097	2.19816														
0.977508	2.39368	0.898176	2.19824														
0.97939	2.39282	0.900255	2.19831														
0.981272	2.39198	0.902335	2.19839														
0.983156	2.39114	0.904414	2.19846														
0.98504	2.3903	0.906493	2.19854														
0.986924	2.38948	0.908573	2.19861														
0.98881	2.38865	0.910652	2.19869														
0.990696	2.38783	0.912731	2.19876														
0.992583	2.38702	0.914811	2.19884														
0.994471	2.38622	0.91689	2.19891														
0.996359	2.38541	0.918969	2.19898														
0.998248	2.38462	0.921048	2.19906														
1.00014	2.38383	0.923128	2.19913														
		0.925207	2.1992														
		0.927286	2.19927														
		0.929366	2.19934														
		0.931445	2.19941														
		0.933524	2.19949														
		0.935603	2.19956														
		0.937683	2.19963														
		0.939762	2.1997														
		0.941841	2.19977														
		0.94392	2.19984														
		0.946	2.1999														
		0.948079	2.19997														
		0.950158	2.20004														
		0.952237	2.20011														
		0.954317	2.20018														
		0.956396	2.20024														
		0.958475	2.20031														
		0.960554	2.20038														
		0.962633	2.20045														
		0.964713	2.20051														
		0.966792	2.20058														
		0.968871	2.20064														
		0.97095	2.20071														
		0.973029	2.20077														
		0.975109	2.20084														
		0.977188	2.2009														
		0.979267	2.20097														
		0.981346	2.20103														
		0.983425	2.2011														
		0.985505	2.20116														
		0.987584	2.20122														
		0.989663	2.20129														
		0.991742	2.20135														
		0.993821	2.20141														
		0.995901	2.20147														
		0.99798	2.20153														
		1.00006	2.2016														
