Sym0		Asym0		Sym1		Sym2		Sym3		Asym1		Asym2		Asym3	
452  Points		491  Points		151  Points		122  Points		102  Points		284  Points		133  Points		105  Points	
Freq (MHz)	Vph (m/ms)	Freq (MHz)	Vph (m/ms)	Freq (MHz)	Vph (m/ms)	Freq (MHz)	Vph (m/ms)	Freq (MHz)	Vph (m/ms)	Freq (MHz)	Vph (m/ms)	Freq (MHz)	Vph (m/ms)	Freq (MHz)	Vph (m/ms)
0.00670954	8.49723	0.000354374	0.208462	0.279556	418.848	0.549237	1581.96	0.559045	1041.25	0.13998	152.166	0.419266	1974.39	0.698785	1262.94
0.0146249	8.49638	0.000842943	0.320311	0.279783	174.959	0.54924	429.469	0.559224	380.788	0.140666	75.9692	0.419362	366.56	0.698869	470.621
0.0225368	8.49483	0.0015292	0.429148	0.280196	110.713	0.549249	248.464	0.559564	233.124	0.141803	50.9477	0.419588	202.139	0.699031	289.251
0.0304436	8.49264	0.0024012	0.534189	0.280793	81.0949	0.549272	174.801	0.56006	168.086	0.143379	38.5947	0.419945	139.636	0.69927	208.838
0.0383432	8.48977	0.00344447	0.634723	0.281574	64.0783	0.549316	134.836	0.560701	131.506	0.145377	31.2862	0.420433	106.732	0.699586	163.452
0.0462337	8.48623	0.00464344	0.730281	0.282536	53.0493	0.549392	109.754	0.56148	108.073	0.147776	26.4909	0.42105	86.4432	0.699979	134.307
0.0541134	8.48201	0.00598185	0.820542	0.283678	45.3332	0.549509	92.551	0.562386	91.787	0.150554	23.1262	0.421796	72.6919	0.700449	114.015
0.0619801	8.47709	0.00744356	0.905343	0.284996	39.6416	0.549674	80.0218	0.563412	79.8174	0.153685	20.6517	0.422671	62.7647	0.700995	99.0783
0.0698319	8.47148	0.00901307	0.984657	0.286487	35.2773	0.549896	70.4927	0.564552	70.6533	0.157146	18.7672	0.423673	55.2672	0.701618	87.6271
0.0776666	8.46515	0.0106757	1.05855	0.288148	31.8301	0.55018	63.0041	0.5658	63.4152	0.160913	17.2928	0.424802	49.4093	0.702317	78.5716
0.0854822	8.45809	0.0124183	1.1272	0.289976	29.0429	0.550531	56.9664	0.567153	57.5565	0.164961	16.1144	0.426055	44.71	0.703092	71.2334
0.0932763	8.45028	0.0142288	1.19083	0.291966	26.7464	0.550954	51.9972	0.568606	52.7192	0.169268	15.1557	0.427433	40.8596	0.703942	65.1681
0.101047	8.4417	0.0160966	1.24971	0.294114	24.8244	0.551452	47.8378	0.570156	48.6596	0.173812	14.3643	0.428932	37.6498	0.704868	60.0724
0.108791	8.43233	0.0180125	1.30412	0.296416	23.1947	0.552029	44.3068	0.571801	45.2055	0.178573	13.7027	0.430553	34.9351	0.705868	55.7323
0.116506	8.42215	0.0199683	1.35437	0.298868	21.7974	0.552687	41.2733	0.573539	42.2321	0.183533	13.1436	0.432293	32.6109	0.706943	51.9925
0.124191	8.41112	0.0219573	1.40075	0.301465	20.5878	0.553429	38.6402	0.575368	39.6469	0.188674	12.6666	0.434151	30.6003	0.708093	48.7374
0.131841	8.39923	0.0239736	1.44358	0.304202	19.532	0.554257	36.3345	0.577288	37.3794	0.19398	12.2562	0.436124	28.8452	0.709315	45.8794
0.139453	8.38645	0.0257489	1.47821	0.307076	18.6036	0.555175	34.2997	0.579296	35.3753	0.198727	11.9435	0.438211	27.3009	0.710611	43.3508
0.147026	8.37273	0.0272735	1.5059	0.31008	17.7819	0.556182	32.4916	0.581392	33.5921	0.202857	11.7048	0.440411	25.9327	0.71198	41.0984
0.154556	8.35805	0.0285409	1.52761	0.313212	17.0505	0.557282	30.8754	0.583574	31.9958	0.206326	11.5244	0.44272	24.7129	0.713421	39.0798
0.162038	8.34237	0.0295468	1.54405	0.316467	16.3961	0.558477	29.4228	0.585843	30.5591	0.209103	11.3916	0.445137	23.6194	0.714934	37.261
0.16947	8.32564	0.0302883	1.55575	0.31984	15.8078	0.559768	28.111	0.588197	29.2599	0.211162	11.2989	0.447661	22.6343	0.716518	35.6142
0.176848	8.30783	0.0307637	1.56306	0.323329	15.2768	0.561157	26.9211	0.590635	28.0798	0.212487	11.2417	0.450287	21.7429	0.718172	34.1165
0.184167	8.28888	0.0314479	1.57336	0.326928	14.7955	0.562646	25.8377	0.593157	27.0036	0.214402	11.1623	0.453016	20.9329	0.719897	32.749
0.191424	8.26876	0.0321929	1.58426	0.330634	14.3578	0.564237	24.8477	0.595763	26.0186	0.216497	11.0794	0.455844	20.1942	0.721691	31.4957
0.198614	8.2474	0.0332081	1.59861	0.334445	13.9586	0.565932	23.94	0.598452	25.1142	0.219367	10.9721	0.458769	19.5181	0.723553	30.3432
0.205732	8.22477	0.0344946	1.61602	0.338358	13.5933	0.567731	23.1055	0.601224	24.2811	0.22303	10.8449	0.461788	18.8975	0.725484	29.2801
0.212773	8.2008	0.0360539	1.63602	0.34237	13.2582	0.569638	22.3362	0.604077	23.5117	0.227506	10.7024	0.464901	18.3262	0.727482	28.2967
0.219732	8.17544	0.0378872	1.65813	0.346479	12.9501	0.571653	21.6251	0.607013	22.7992	0.232818	10.5493	0.468104	17.7988	0.729547	27.3846
0.226604	8.14864	0.0399952	1.68181	0.350683	12.6662	0.573777	20.9665	0.610029	22.1378	0.238987	10.3903	0.471395	17.3107	0.731679	26.5366
0.233383	8.12035	0.0421066	1.70384	0.354982	12.404	0.576013	20.3552	0.613127	21.5225	0.245229	10.2466	0.474773	16.8579	0.733875	25.7463
0.240063	8.09051	0.0442206	1.72437	0.358803	12.1917	0.578362	19.7868	0.616306	20.9489	0.251536	10.1163	0.478234	16.437	0.736136	25.0082
0.246639	8.05907	0.0463361	1.74352	0.362116	12.0215	0.580824	19.2572	0.619565	20.4132	0.257901	9.99766	0.481777	16.045	0.738462	24.3175
0.253104	8.02599	0.0484528	1.76141	0.364894	11.8879	0.5834	18.763	0.622904	19.912	0.26432	9.88931	0.485399	15.6791	0.74085	23.6699
0.259453	7.99123	0.05057	1.77815	0.367116	11.7865	0.586092	18.3012	0.626324	19.4423	0.270786	9.78997	0.489099	15.3371	0.743301	23.0617
0.265681	7.95476	0.0526873	1.79384	0.368763	11.7142	0.5889	17.869	0.629825	19.0014	0.277295	9.6986	0.492874	15.0167	0.745814	22.4896
0.27178	7.91656	0.0548044	1.80855	0.369823	11.669	0.591824	17.464	0.633405	18.587	0.283841	9.61426	0.496722	14.7162	0.748388	21.9505
0.277747	7.8766	0.0569212	1.82237	0.371355	11.6052	0.594864	17.084	0.637066	18.1969	0.290421	9.53619	0.500642	14.4339	0.751022	21.4418
0.283576	7.83489	0.0590373	1.83537	0.373032	11.5376	0.598021	16.7271	0.640807	17.8293	0.29703	9.46368	0.504631	14.1683	0.753715	20.9612
0.289263	7.79144	0.0611527	1.84762	0.375332	11.4485	0.601293	16.3915	0.644629	17.4824	0.303664	9.39613	0.508687	13.9181	0.756467	20.5064
0.294803	7.74627	0.0632672	1.85917	0.378271	11.3402	0.604681	16.0755	0.648532	17.1548	0.31032	9.33302	0.512809	13.6821	0.759277	20.0755
0.300194	7.69943	0.0653807	1.87008	0.381873	11.2155	0.608182	15.7778	0.652517	16.8451	0.316995	9.27388	0.516994	13.4592	0.762145	19.6668
0.305433	7.65096	0.0674933	1.8804	0.386162	11.0773	0.611796	15.497	0.656583	16.5519	0.323684	9.21831	0.521241	13.2485	0.765068	19.2788
0.310517	7.60094	0.0696049	1.89016	0.391171	10.9289	0.615521	15.2319	0.660732	16.2743	0.330385	9.16594	0.525549	13.0489	0.768048	18.9099
0.315447	7.54943	0.0717154	1.89942	0.396273	10.7906	0.619355	14.9813	0.664964	16.0111	0.337094	9.11644	0.529915	12.8599	0.771082	18.5589
0.320222	7.49655	0.073825	1.9082	0.401468	10.6615	0.623295	14.7444	0.66928	15.7614	0.34381	9.06954	0.534339	12.6805	0.77417	18.2245
0.324842	7.44238	0.0759335	1.91655	0.406755	10.5411	0.627339	14.52	0.67368	15.5244	0.350529	9.02497	0.538239	12.5316	0.777311	17.9057
0.329309	7.38704	0.078041	1.92449	0.412135	10.4287	0.631484	14.3074	0.678167	15.2993	0.357249	8.98251	0.541596	12.4098	0.780505	17.6015
0.333625	7.33066	0.0801475	1.93204	0.417605	10.3238	0.635726	14.1058	0.682739	15.0854	0.363966	8.94194	0.544394	12.3124	0.78375	17.311
0.337794	7.27335	0.0822531	1.93924	0.423165	10.2257	0.640062	13.9143	0.6874	14.882	0.37068	8.90308	0.546621	12.2376	0.787046	17.0333
0.341817	7.21523	0.0843577	1.94611	0.428813	10.134	0.644487	13.7324	0.69215	14.6886	0.377386	8.86576	0.548266	12.1836	0.790393	16.7676
0.3457	7.15644	0.0864614	1.95268	0.434546	10.0483	0.648999	13.5593	0.696989	14.5045	0.384083	8.82983	0.549322	12.1496	0.793789	16.5133
0.349445	7.0971	0.0885643	1.95895	0.440362	9.968	0.653591	13.3945	0.70192	14.3293	0.390769	8.79515	0.550846	12.1014	0.797233	16.2696
0.353059	7.03733	0.0906663	1.96495	0.446257	9.8928	0.658261	13.2375	0.706944	14.1625	0.397441	8.76158	0.552507	12.0498	0.800726	16.036
0.356546	6.97725	0.0927676	1.9707	0.452228	9.8223	0.663003	13.0876	0.712061	14.0036	0.404097	8.72902	0.554778	11.981	0.804265	15.8118
0.35991	6.91697	0.0948681	1.9762	0.458271	9.75611	0.667813	12.9445	0.717273	13.8523	0.410735	8.69737	0.557665	11.8964	0.807851	15.5966
0.363156	6.85659	0.0969678	1.98149	0.464381	9.69391	0.672056	12.8249	0.722581	13.7081	0.417352	8.66651	0.561182	11.7972	0.811483	15.3899
0.366291	6.79622	0.0990668	1.98656	0.470554	9.63538	0.675708	12.7265	0.727986	13.5708	0.423947	8.63637	0.565342	11.6852	0.815159	15.1912
0.369318	6.73594	0.101165	1.99143	0.476786	9.58022	0.678752	12.6475	0.733488	13.44	0.430517	8.60685	0.570159	11.5621	0.81888	15.0001
0.372242	6.67584	0.103263	1.99612	0.483073	9.52816	0.681172	12.5865	0.73909	13.3153	0.43706	8.57789	0.575023	11.4445	0.822644	14.8162
0.37507	6.616	0.10536	2.00062	0.489409	9.47894	0.68296	12.5424	0.74479	13.1965	0.443575	8.54942	0.579932	11.3321	0.826451	14.6391
0.377805	6.55649	0.107457	2.00496	0.49579	9.43233	0.684107	12.5145	0.750589	13.0832	0.450058	8.52136	0.584885	11.2245	0.830301	14.4685
0.380452	6.49737	0.109553	2.00914	0.502212	9.3881	0.685761	12.4749	0.755723	12.9889	0.456509	8.49366	0.589882	11.1216	0.834192	14.3041
0.383015	6.4387	0.111648	2.01317	0.508671	9.34606	0.687564	12.4325	0.760159	12.9116	0.462924	8.46626	0.594921	11.0229	0.838123	14.1455
0.385499	6.38053	0.113743	2.01706	0.515162	9.30602	0.690025	12.3757	0.763869	12.8497	0.469303	8.43912	0.600003	10.9284	0.842095	13.9925
0.387909	6.3229	0.115838	2.02082	0.521682	9.26782	0.693152	12.3055	0.766828	12.802	0.475642	8.41218	0.605126	10.8378	0.846106	13.8448
0.390247	6.26586	0.117932	2.02444	0.528227	9.23129	0.696955	12.2228	0.769019	12.7676	0.48194	8.38539	0.610291	10.7509	0.850156	13.7022
0.392518	6.20944	0.120025	2.02795	0.534792	9.1963	0.701441	12.1288	0.770428	12.746	0.488195	8.35872	0.615495	10.6675	0.854245	13.5644
0.394726	6.15366	0.122118	2.03134	0.541376	9.16271	0.706622	12.0246	0.772461	12.7152	0.494406	8.33214	0.62074	10.5875	0.858371	13.4312
0.396874	6.09857	0.124211	2.03461	0.547975	9.13041	0.711834	11.9243	0.774684	12.6823	0.500569	8.30559	0.626023	10.5106	0.861997	13.3188
0.398965	6.04416	0.126303	2.03779	0.554585	9.09929	0.717074	11.8275	0.777726	12.6385	0.506683	8.27906	0.631346	10.4367	0.865109	13.2254
0.401002	5.99048	0.128395	2.04086	0.561203	9.06925	0.722338	11.734	0.781607	12.5845	0.512747	8.25251	0.636707	10.3657	0.867698	13.15
0.402989	5.93752	0.130487	2.04384	0.567828	9.0402	0.727626	11.6436	0.786347	12.5213	0.518759	8.22592	0.642107	10.2974	0.869755	13.0913
0.404928	5.8853	0.132578	2.04673	0.574457	9.01205	0.732934	11.5563	0.791974	12.4499	0.524717	8.19925	0.647543	10.2317	0.871273	13.0488
0.406822	5.83383	0.134669	2.04953	0.581087	8.98473	0.738261	11.4718	0.798517	12.3716	0.530619	8.17249	0.653017	10.1685	0.872246	13.0219
0.408674	5.78311	0.13676	2.05225	0.587715	8.95818	0.743606	11.3899	0.805151	12.2969	0.536463	8.14563	0.658528	10.1076	0.873649	12.9835
0.410485	5.73316	0.13885	2.05489	0.594341	8.93232	0.748966	11.3106	0.811874	12.2256	0.542249	8.11863	0.664076	10.0491	0.875178	12.9422
0.412259	5.68397	0.140941	2.05745	0.600961	8.90709	0.75434	11.2337	0.818683	12.1576	0.547975	8.09148	0.669659	9.99268	0.877265	12.8868
0.413997	5.63554	0.14303	2.05994	0.607575	8.88246	0.759729	11.1591	0.825576	12.0926	0.55364	8.06418	0.675277	9.93835	0.879916	12.818
0.415702	5.58787	0.14512	2.06236	0.61418	8.85835	0.765131	11.0868	0.83255	12.0306	0.559241	8.03671	0.68093	9.886	0.883138	12.7365
0.417161	5.54695	0.147209	2.06472	0.620774	8.83474	0.770546	11.0165	0.839603	11.9713	0.564779	8.00906	0.686618	9.83553	0.886943	12.6434
0.418387	5.51253	0.149298	2.06701	0.627356	8.81158	0.775974	10.9482	0.846733	11.9147	0.570253	7.98123	0.692339	9.78687	0.891339	12.5395
0.419389	5.48437	0.151387	2.06924	0.633924	8.78882	0.781413	10.882	0.853936	11.8606	0.57566	7.9532	0.698094	9.73993	0.895769	12.4388
0.420174	5.46231	0.153476	2.07141	0.640477	8.76644	0.786865	10.8175	0.86121	11.8088	0.581001	7.92498	0.70388	9.69465	0.90023	12.3411
0.420747	5.4462	0.155565	2.07352	0.647014	8.74439	0.792329	10.7549	0.868553	11.7592	0.586275	7.89656	0.709699	9.65094	0.904724	12.2462
0.421112	5.43594	0.157653	2.07558	0.653532	8.72266	0.797806	10.694	0.875961	11.7118	0.591481	7.86795	0.715547	9.60873	0.909249	12.1542
0.421634	5.42126	0.159741	2.07759	0.660032	8.7012	0.803294	10.6347	0.883432	11.6664	0.596619	7.83913	0.721426	9.56797	0.913804	12.0648
0.422199	5.40539	0.161829	2.07954	0.666511	8.68	0.808796	10.5771	0.890963	11.6228	0.601688	7.81013	0.727334	9.52858	0.91839	11.978
0.422962	5.38396	0.163916	2.08145	0.672968	8.65903	0.81431	10.521	0.898552	11.5811	0.606688	7.78093	0.73327	9.49051	0.923006	11.8937
0.423918	5.35711	0.166004	2.08331	0.679402	8.63826	0.819837	10.4664	0.906196	11.541	0.611619	7.75155	0.739233	9.45368	0.927651	11.8118
0.425063	5.32501	0.168091	2.08512	0.685812	8.61768	0.825377	10.4133	0.913892	11.5025	0.61648	7.72198	0.745221	9.41805	0.932325	11.7321
0.426391	5.28786	0.170178	2.0869	0.692197	8.59726	0.83093	10.3616	0.921639	11.4656	0.621273	7.69225	0.751235	9.38356	0.937028	11.6546
0.427895	5.2459	0.172265	2.08863	0.698556	8.57698	0.836497	10.3112	0.929434	11.4301	0.625997	7.66234	0.757272	9.35015	0.941759	11.5793
0.42938	5.20465	0.174352	2.09032	0.704887	8.55684	0.842078	10.2621	0.937274	11.3959	0.630652	7.63228	0.763331	9.31778	0.946517	11.506
0.430845	5.1641	0.176439	2.09197	0.71119	8.5368	0.847674	10.2143	0.945157	11.363	0.635239	7.60207	0.769411	9.28638	0.951303	11.4347
0.432294	5.12423	0.178526	2.09358	0.717464	8.51686	0.853283	10.1678	0.953081	11.3314	0.639757	7.57172	0.775512	9.25593	0.956116	11.3652
0.433726	5.08505	0.180612	2.09515	0.723708	8.497	0.858907	10.1224	0.961043	11.3009	0.644208	7.54124	0.78163	9.22636	0.960956	11.2976
0.435143	5.04654	0.182699	2.0967	0.72992	8.47721	0.864546	10.0782	0.969041	11.2714	0.648592	7.51065	0.787766	9.19764	0.965821	11.2318
0.436546	5.00868	0.184785	2.0982	0.7361	8.45747	0.870199	10.0351	0.977073	11.243	0.652909	7.47994	0.793918	9.16972	0.970713	11.1677
0.437935	4.97148	0.186871	2.09968	0.742248	8.43777	0.875867	9.99312	0.985136	11.2155	0.65716	7.44913	0.800085	9.14255	0.975629	11.1052
0.439312	4.93491	0.188957	2.10112	0.748361	8.41811	0.881551	9.95218	0.993229	11.189	0.661346	7.41824	0.806264	9.11611	0.980571	11.0444
0.440677	4.89897	0.191043	2.10253	0.75444	8.39847	0.88725	9.91226	1.00135	11.1633	0.665468	7.38727	0.812456	9.09036	0.985538	10.985
0.442031	4.86365	0.193128	2.10391	0.760483	8.37884	0.892964	9.87332			0.669526	7.35623	0.818658	9.06525	0.990529	10.9272
0.443375	4.82894	0.195214	2.10527	0.76649	8.35921	0.898694	9.83535			0.67352	7.32513	0.824869	9.04075	0.995544	10.8708
0.444709	4.79482	0.1973	2.10659	0.77246	8.33958	0.904439	9.79832			0.677453	7.29399	0.831088	9.01684	1.00058	10.8158
0.446035	4.76128	0.199385	2.10789	0.778392	8.31993	0.910199	9.76219			0.681324	7.26282	0.837313	8.99347		
0.447353	4.72832	0.20147	2.10916	0.784286	8.30027	0.915975	9.72694			0.685135	7.23162	0.843543	8.97061		
0.448663	4.69592	0.203556	2.11041	0.79014	8.28058	0.921766	9.69253			0.688887	7.20041	0.849777	8.94825		
0.449966	4.66408	0.205641	2.11163	0.795955	8.26087	0.927572	9.65896			0.69258	7.16919	0.856013	8.92634		
0.451262	4.63278	0.207726	2.11282	0.80173	8.24111	0.933393	9.62618			0.696215	7.13798	0.862251	8.90487		
0.452553	4.60201	0.209811	2.114	0.807464	8.22132	0.939229	9.59419			0.699793	7.10678	0.868488	8.88381		
0.453838	4.57176	0.211896	2.11515	0.813157	8.20148	0.94508	9.56294			0.703316	7.07561	0.874724	8.86313		
0.455118	4.54203	0.213981	2.11628	0.818807	8.18159	0.950946	9.53243			0.706784	7.04447	0.880958	8.84281		
0.456394	4.5128	0.216065	2.11739	0.824416	8.16165	0.956825	9.50262			0.710198	7.01337	0.887187	8.82283		
0.457666	4.48407	0.21815	2.11847	0.829982	8.14165	0.962719	9.47349			0.713559	6.98232	0.893412	8.80317		
0.458933	4.45581	0.220235	2.11954	0.835505	8.1216	0.968627	9.44503			0.716868	6.95132	0.899631	8.7838		
0.460198	4.42803	0.222319	2.12059	0.840985	8.1015	0.974548	9.41721			0.720127	6.9204	0.905842	8.76472		
0.461459	4.40072	0.224404	2.12161	0.84642	8.08133	0.980482	9.39001			0.723335	6.88954	0.912045	8.7459		
0.462718	4.37386	0.226488	2.12262	0.851812	8.0611	0.986428	9.36341			0.726494	6.85877	0.918239	8.72732		
0.463974	4.34745	0.228572	2.12361	0.85716	8.04082	0.992387	9.3374			0.729605	6.82808	0.924422	8.70896		
0.465229	4.32148	0.230657	2.12459	0.862464	8.02047	0.998357	9.31194			0.73267	6.79749	0.930594	8.69082		
0.466481	4.29593	0.232741	2.12554	0.867723	8.00006	1.00434	9.28703			0.735688	6.767	0.936753	8.67288		
0.467733	4.27081	0.234825	2.12648	0.872937	7.97959					0.738661	6.73661	0.942899	8.65512		
0.468983	4.2461	0.236909	2.12741	0.878107	7.95906					0.741589	6.70633	0.94903	8.63753		
0.470231	4.2218	0.238993	2.12831	0.883232	7.93847					0.744474	6.67617	0.955146	8.6201		
0.47148	4.19789	0.241077	2.12921	0.888312	7.91783					0.747317	6.64614	0.961245	8.60281		
0.472727	4.17437	0.243161	2.13008	0.893347	7.89713					0.750118	6.61623	0.967328	8.58565		
0.473975	4.15123	0.245245	2.13095	0.898337	7.87637					0.752879	6.58645	0.973392	8.56862		
0.475222	4.12847	0.247328	2.13179	0.903283	7.85556					0.7556	6.55681	0.979438	8.5517		
0.47647	4.10607	0.249412	2.13263	0.908184	7.8347					0.758282	6.52732	0.985464	8.53489		
0.477718	4.08404	0.251496	2.13345	0.91304	7.81379					0.760926	6.49796	0.991469	8.51816		
0.478966	4.06235	0.253579	2.13426	0.917852	7.79283					0.763533	6.46876	0.997453	8.50153		
0.480215	4.04101	0.255663	2.13505	0.922619	7.77183					0.766104	6.43971	1.00342	8.48496		
0.481465	4.02001	0.257747	2.13583	0.927342	7.75079					0.768639	6.41081				
0.482715	3.99934	0.25983	2.1366	0.932022	7.72971					0.77114	6.38207				
0.483967	3.979	0.261914	2.13736	0.936657	7.70858					0.773607	6.3535				
0.48522	3.95897	0.263997	2.1381	0.941249	7.68743					0.776041	6.32509				
0.486474	3.93926	0.26608	2.13884	0.945797	7.66624					0.778442	6.29685				
0.48773	3.91986	0.268164	2.13956	0.950302	7.64502					0.780812	6.26877				
0.488987	3.90075	0.270247	2.14027	0.954764	7.62378					0.783152	6.24087				
0.490247	3.88194	0.27233	2.14097	0.959184	7.60251					0.785461	6.21315				
0.491507	3.86343	0.274413	2.14166	0.963561	7.58121					0.787741	6.1856				
0.49277	3.84519	0.276497	2.14234	0.967896	7.5599					0.789993	6.15822				
0.494035	3.82724	0.27858	2.14301	0.972189	7.53858					0.792217	6.13103				
0.495302	3.80955	0.280663	2.14368	0.97644	7.51724					0.794413	6.10402				
0.496571	3.79214	0.282746	2.14433	0.980651	7.49588					0.796583	6.07718				
0.497842	3.77499	0.284829	2.14497	0.98482	7.47452					0.798728	6.05054				
0.499116	3.7581	0.286912	2.1456	0.988949	7.45316					0.800847	6.02407				
0.500392	3.74146	0.288995	2.14622	0.993038	7.43179					0.802942	5.9978				
0.50167	3.72506	0.291078	2.14684	0.997087	7.41042					0.805012	5.9717				
0.502951	3.70892	0.293161	2.14744	1.0011	7.38905					0.80706	5.9458				
0.504235	3.69301	0.295244	2.14804							0.809085	5.92008				
0.505521	3.67734	0.297326	2.14863							0.811087	5.89455				
0.50681	3.66189	0.299409	2.14921							0.813069	5.86921				
0.508101	3.64668	0.301492	2.14978							0.815029	5.84405				
0.509396	3.63168	0.303575	2.15035							0.816969	5.81909				
0.510693	3.61691	0.305658	2.15091							0.818889	5.79431				
0.511993	3.60235	0.30774	2.15146							0.820789	5.76972				
0.513296	3.58799	0.309823	2.152							0.822671	5.74532				
0.514602	3.57385	0.311906	2.15254							0.824534	5.72111				
0.515911	3.5599	0.313988	2.15306							0.82638	5.69708				
0.517223	3.54616	0.316071	2.15359							0.828208	5.67324				
0.518539	3.53261	0.318153	2.1541							0.830019	5.64959				
0.519857	3.51925	0.320236	2.15461							0.831813	5.62613				
0.521178	3.50608	0.322318	2.15511							0.833592	5.60285				
0.522502	3.4931	0.324401	2.15561							0.835355	5.57976				
0.52383	3.4803	0.326483	2.1561							0.837103	5.55686				
0.525161	3.46767	0.328566	2.15658							0.838836	5.53413				
0.526495	3.45523	0.330648	2.15706							0.840555	5.5116				
0.527832	3.44295	0.332731	2.15753							0.84226	5.48924				
0.529172	3.43084	0.334813	2.15799							0.843952	5.46707				
0.530516	3.4189	0.336895	2.15845							0.84563	5.44507				
0.531863	3.40713	0.338978	2.15891							0.847295	5.42326				
0.533213	3.39551	0.34106	2.15936							0.848948	5.40163				
0.534567	3.38405	0.343142	2.1598							0.850589	5.38018				
0.535923	3.37275	0.345225	2.16024							0.852218	5.3589				
0.537283	3.36159	0.347307	2.16067							0.853836	5.3378				
0.538647	3.35059	0.349389	2.1611							0.855442	5.31687				
0.540014	3.33974	0.351471	2.16152							0.857038	5.29612				
0.541384	3.32903	0.353554	2.16194							0.858623	5.27555				
0.542757	3.31846	0.355636	2.16235							0.860198	5.25514				
0.544133	3.30803	0.357718	2.16276							0.861764	5.23491				
0.545513	3.29775	0.3598	2.16316							0.863319	5.21484				
0.546897	3.28759	0.361882	2.16356							0.864866	5.19495				
0.548283	3.27757	0.363964	2.16396							0.866403	5.17522				
0.549673	3.26768	0.366046	2.16435							0.867931	5.15566				
0.551067	3.25792	0.368129	2.16473							0.869452	5.13626				
0.552463	3.24828	0.370211	2.16511							0.870963	5.11703				
0.553863	3.23877	0.372293	2.16549							0.872467	5.09795				
0.555266	3.22938	0.374375	2.16586							0.873963	5.07905				
0.556673	3.22011	0.376457	2.16623							0.875451	5.0603				
0.558083	3.21096	0.378539	2.1666							0.876932	5.04171				
0.559496	3.20193	0.380621	2.16696							0.878406	5.02327				
0.560912	3.19301	0.382703	2.16732							0.879874	5.005				
0.562332	3.1842	0.384785	2.16767							0.881334	4.98687				
0.563755	3.17551	0.386867	2.16802							0.882788	4.96891				
0.565181	3.16692	0.388948	2.16836							0.884236	4.95109				
0.566611	3.15844	0.39103	2.16871							0.885678	4.93343				
0.568044	3.15007	0.393112	2.16904							0.887113	4.91591				
0.56948	3.1418	0.395194	2.16938							0.888544	4.89855				
0.570919	3.13364	0.397276	2.16971							0.889968	4.88133				
0.572362	3.12557	0.399358	2.17004							0.891388	4.86426				
0.573808	3.1176	0.40144	2.17036							0.892802	4.84733				
0.575257	3.10974	0.403522	2.17068							0.894211	4.83054				
0.576709	3.10196	0.405604	2.171							0.895616	4.8139				
0.578164	3.09428	0.407685	2.17132							0.897016	4.7974				
0.579623	3.0867	0.409767	2.17163							0.898411	4.78104				
0.581085	3.07921	0.411849	2.17194							0.899802	4.76482				
0.58255	3.0718	0.413931	2.17224							0.901189	4.74873				
0.584018	3.06449	0.416012	2.17254							0.902571	4.73278				
0.585489	3.05726	0.418094	2.17284							0.90395	4.71697				
0.586963	3.05012	0.420176	2.17314							0.905325	4.70129				
0.588441	3.04307	0.422258	2.17343							0.906697	4.68574				
0.589921	3.0361	0.424339	2.17373							0.908065	4.67032				
0.591405	3.02921	0.426421	2.17401							0.909429	4.65503				
0.592892	3.0224	0.428503	2.1743							0.910791	4.63988				
0.594382	3.01567	0.430584	2.17458							0.912149	4.62484				
0.595875	3.00902	0.432666	2.17486							0.913504	4.60994				
0.597371	3.00245	0.434748	2.17514							0.914856	4.59516				
0.598869	2.99595	0.43683	2.17541							0.916206	4.5805				
0.600371	2.98953	0.438911	2.17568							0.917553	4.56597				
0.601876	2.98319	0.440993	2.17595							0.918897	4.55155				
0.603384	2.97691	0.443074	2.17622							0.920239	4.53726				
0.604895	2.97071	0.445156	2.17648							0.921579	4.52309				
0.606409	2.96458	0.447238	2.17675							0.922916	4.50903				
0.607926	2.95852	0.449319	2.177							0.924251	4.49509				
0.609446	2.95253	0.451401	2.17726							0.925584	4.48127				
0.610968	2.94661	0.453482	2.17752							0.926915	4.46756				
0.612494	2.94075	0.455564	2.17777							0.928244	4.45397				
0.614022	2.93496	0.457646	2.17802							0.929572	4.44049				
0.615553	2.92923	0.459727	2.17827							0.930898	4.42712				
0.617088	2.92357	0.461809	2.17851							0.932222	4.41386				
0.618625	2.91797	0.46389	2.17876							0.933544	4.40071				
0.620164	2.91244	0.465972	2.179							0.934866	4.38766				
0.621707	2.90696	0.468053	2.17924							0.936185	4.37473				
0.623252	2.90155	0.470135	2.17947							0.937504	4.3619				
0.624801	2.89619	0.472216	2.17971							0.938821	4.34917				
0.626352	2.8909	0.474298	2.17994							0.940137	4.33655				
0.627905	2.88566	0.476379	2.18017							0.941452	4.32404				
0.629462	2.88048	0.478461	2.1804							0.942766	4.31162				
0.631021	2.87535	0.480542	2.18063							0.94408	4.29931				
0.632583	2.87029	0.482624	2.18085							0.945392	4.28709				
0.634147	2.86527	0.484705	2.18108							0.946703	4.27498				
0.635714	2.86031	0.486787	2.1813							0.948014	4.26296				
0.637284	2.85541	0.488868	2.18152							0.949324	4.25104				
0.638857	2.85055	0.490949	2.18173							0.950633	4.23922				
0.640432	2.84575	0.493031	2.18195							0.951942	4.22749				
0.64201	2.841	0.495112	2.18216							0.95325	4.21586				
0.64359	2.8363	0.497194	2.18237							0.954558	4.20432				
0.645173	2.83165	0.499275	2.18259							0.955865	4.19287				
0.646759	2.82705	0.501357	2.18279							0.957172	4.18151				
0.648347	2.82249	0.503438	2.183							0.958479	4.17025				
0.649938	2.81799	0.505519	2.18321							0.959786	4.15907				
0.651531	2.81353	0.507601	2.18341							0.961092	4.14799				
0.653127	2.80912	0.509682	2.18361							0.962398	4.13699				
0.654725	2.80475	0.511763	2.18381							0.963704	4.12608				
0.656325	2.80043	0.513845	2.18401							0.96501	4.11525				
0.657929	2.79616	0.515926	2.18421							0.966316	4.10452				
0.659534	2.79193	0.518007	2.1844							0.967622	4.09386				
0.661142	2.78774	0.520089	2.1846							0.968928	4.08329				
0.662753	2.7836	0.52217	2.18479							0.970234	4.0728				
0.664366	2.77949	0.524252	2.18498							0.97154	4.0624				
0.665981	2.77543	0.526333	2.18517							0.972847	4.05208				
0.667599	2.77141	0.528414	2.18536							0.974154	4.04183				
0.669219	2.76744	0.530495	2.18554							0.975461	4.03167				
0.670841	2.7635	0.532577	2.18573							0.976768	4.02159				
0.672466	2.7596	0.534658	2.18591							0.978075	4.01158				
0.674093	2.75574	0.536739	2.18609							0.979383	4.00166				
0.675722	2.75192	0.538821	2.18627							0.980692	3.99181				
0.677354	2.74814	0.540902	2.18645							0.982001	3.98203				
0.678988	2.74439	0.542983	2.18663							0.98331	3.97233				
0.680624	2.74068	0.545064	2.18681							0.98462	3.96271				
0.682263	2.73701	0.547146	2.18698							0.98593	3.95316				
0.683903	2.73338	0.549227	2.18716							0.987241	3.94368				
0.685546	2.72978	0.551308	2.18733							0.988552	3.93428				
0.687192	2.72622	0.553389	2.1875							0.989864	3.92495				
0.688839	2.72269	0.555471	2.18767							0.991177	3.91569				
0.690489	2.7192	0.557552	2.18784							0.99249	3.9065				
0.69214	2.71574	0.559633	2.18801							0.993804	3.89738				
0.693794	2.71231	0.561714	2.18817							0.995119	3.88833				
0.69545	2.70892	0.563796	2.18834							0.996435	3.87934				
0.697109	2.70556	0.565877	2.1885							0.997751	3.87043				
0.698769	2.70223	0.567958	2.18866							0.999068	3.86158				
0.700431	2.69894	0.570039	2.18882							1.00039	3.8528				
0.702096	2.69567	0.57212	2.18898												
0.703763	2.69244	0.574202	2.18914												
0.705431	2.68924	0.576283	2.1893												
0.707102	2.68607	0.578364	2.18946												
0.708775	2.68293	0.580445	2.18961												
0.71045	2.67982	0.582526	2.18977												
0.712127	2.67673	0.584607	2.18992												
0.713806	2.67368	0.586689	2.19007												
0.715486	2.67066	0.58877	2.19023												
0.717169	2.66766	0.590851	2.19038												
0.718854	2.66469	0.592932	2.19053												
0.720541	2.66175	0.595013	2.19067												
0.72223	2.65884	0.597094	2.19082												
0.72392	2.65595	0.599176	2.19097												
0.725613	2.6531	0.601257	2.19111												
0.727307	2.65026	0.603338	2.19126												
0.729004	2.64746	0.605419	2.1914												
0.730702	2.64468	0.6075	2.19154												
0.732402	2.64192	0.609581	2.19168												
0.734104	2.63919	0.611662	2.19182												
0.735808	2.63648	0.613743	2.19196												
0.737514	2.6338	0.615824	2.1921												
0.739221	2.63115	0.617906	2.19224												
0.740931	2.62851	0.619987	2.19237												
0.742642	2.62591	0.622068	2.19251												
0.744355	2.62332	0.624149	2.19264												
0.74607	2.62076	0.62623	2.19278												
0.747786	2.61822	0.628311	2.19291												
0.749505	2.6157	0.630392	2.19304												
0.751225	2.61321	0.632473	2.19317												
0.752946	2.61074	0.634554	2.1933												
0.75467	2.60829	0.636635	2.19343												
0.756395	2.60586	0.638716	2.19356												
0.758122	2.60345	0.640797	2.19369												
0.759851	2.60106	0.642878	2.19382												
0.761581	2.5987	0.644959	2.19394												
0.763313	2.59636	0.64704	2.19407												
0.765047	2.59403	0.649122	2.19419												
0.766782	2.59173	0.651203	2.19432												
0.768519	2.58944	0.653284	2.19444												
0.770257	2.58718	0.655365	2.19456												
0.771998	2.58494	0.657446	2.19468												
0.77374	2.58271	0.659527	2.1948												
0.775483	2.58051	0.661608	2.19492												
0.777228	2.57832	0.663689	2.19504												
0.778975	2.57615	0.66577	2.19516												
0.780723	2.574	0.667851	2.19528												
0.782473	2.57187	0.669932	2.1954												
0.784224	2.56976	0.672013	2.19551												
0.785977	2.56766	0.674094	2.19563												
0.787731	2.56558	0.676175	2.19574												
0.789487	2.56352	0.678256	2.19586												
0.791244	2.56148	0.680337	2.19597												
0.793003	2.55946	0.682418	2.19608												
0.794764	2.55745	0.684499	2.19619												
0.796526	2.55546	0.68658	2.19631												
0.798289	2.55348	0.688661	2.19642												
0.800054	2.55152	0.690742	2.19653												
0.80182	2.54958	0.692822	2.19664												
0.803588	2.54765	0.694903	2.19674												
0.805357	2.54574	0.696984	2.19685												
0.807128	2.54385	0.699065	2.19696												
0.8089	2.54197	0.701146	2.19707												
0.810674	2.5401	0.703227	2.19717												
0.812449	2.53826	0.705308	2.19728												
0.814225	2.53642	0.707389	2.19738												
0.816003	2.5346	0.70947	2.19749												
0.817782	2.5328	0.711551	2.19759												
0.819562	2.53101	0.713632	2.19769												
0.821344	2.52924	0.715713	2.1978												
0.823127	2.52748	0.717794	2.1979												
0.824912	2.52573	0.719875	2.198												
0.826698	2.524	0.721956	2.1981												
0.828485	2.52228	0.724037	2.1982												
0.830273	2.52057	0.726118	2.1983												
0.832063	2.51888	0.728198	2.1984												
0.833854	2.51721	0.730279	2.1985												
0.835647	2.51554	0.73236	2.19859												
0.837441	2.51389	0.734441	2.19869												
0.839236	2.51225	0.736522	2.19879												
0.841032	2.51063	0.738603	2.19888												
0.842829	2.50902	0.740684	2.19898												
0.844628	2.50742	0.742765	2.19908												
0.846428	2.50583	0.744846	2.19917												
0.84823	2.50426	0.746926	2.19926												
0.850032	2.50269	0.749007	2.19936												
0.851836	2.50114	0.751088	2.19945												
0.853641	2.4996	0.753169	2.19954												
0.855447	2.49808	0.75525	2.19963												
0.857255	2.49656	0.757331	2.19973												
0.859064	2.49506	0.759412	2.19982												
0.860873	2.49357	0.761493	2.19991												
0.862684	2.49209	0.763573	2.2												
0.864497	2.49062	0.765654	2.20009												
0.86631	2.48917	0.767735	2.20018												
0.868125	2.48772	0.769816	2.20026												
0.86994	2.48628	0.771897	2.20035												
0.871757	2.48486	0.773978	2.20044												
0.873575	2.48345	0.776059	2.20053												
0.875394	2.48205	0.778139	2.20061												
0.877215	2.48065	0.78022	2.2007												
0.879036	2.47927	0.782301	2.20079												
0.880859	2.4779	0.784382	2.20087												
0.882682	2.47654	0.786463	2.20096												
0.884507	2.47519	0.788544	2.20104												
0.886333	2.47385	0.790624	2.20112												
0.88816	2.47252	0.792705	2.20121												
0.889988	2.4712	0.794786	2.20129												
0.891817	2.46989	0.796867	2.20137												
0.893647	2.46859	0.798948	2.20145												
0.895479	2.46729	0.801029	2.20154												
0.897311	2.46601	0.803109	2.20162												
0.899144	2.46474	0.80519	2.2017												
0.900979	2.46348	0.807271	2.20178												
0.902814	2.46222	0.809352	2.20186												
0.904651	2.46098	0.811433	2.20194												
0.906488	2.45974	0.813514	2.20202												
0.908327	2.45852	0.815594	2.2021												
0.910166	2.4573	0.817675	2.20218												
0.912007	2.45609	0.819756	2.20225												
0.913848	2.45489	0.821837	2.20233												
0.915691	2.4537	0.823917	2.20241												
0.917535	2.45252	0.825998	2.20249												
0.919379	2.45134	0.828079	2.20256												
0.921225	2.45018	0.83016	2.20264												
0.923071	2.44902	0.832241	2.20271												
0.924919	2.44787	0.834321	2.20279												
0.926767	2.44673	0.836402	2.20286												
0.928617	2.44559	0.838483	2.20294												
0.930467	2.44447	0.840564	2.20301												
0.932318	2.44335	0.842644	2.20309												
0.934171	2.44224	0.844725	2.20316												
0.936024	2.44114	0.846806	2.20323												
0.937878	2.44005	0.848887	2.20331												
0.939733	2.43896	0.850968	2.20338												
0.941589	2.43789	0.853048	2.20345												
0.943446	2.43682	0.855129	2.20352												
0.945304	2.43575	0.85721	2.20359												
0.947163	2.4347	0.859291	2.20366												
0.949022	2.43365	0.861371	2.20373												
0.950883	2.43261	0.863452	2.2038												
0.952744	2.43157	0.865533	2.20387												
0.954607	2.43055	0.867614	2.20394												
0.95647	2.42953	0.869694	2.20401												
0.958334	2.42852	0.871775	2.20408												
0.960199	2.42751	0.873856	2.20415												
0.962065	2.42651	0.875937	2.20422												
0.963931	2.42552	0.878017	2.20429												
0.965799	2.42454	0.880098	2.20436												
0.967667	2.42356	0.882179	2.20442												
0.969536	2.42259	0.884259	2.20449												
0.971406	2.42162	0.88634	2.20456												
0.973277	2.42066	0.888421	2.20462												
0.975149	2.41971	0.890502	2.20469												
0.977022	2.41877	0.892582	2.20475												
0.978895	2.41783	0.894663	2.20482												
0.980769	2.41689	0.896744	2.20488												
0.982644	2.41597	0.898825	2.20495												
0.98452	2.41505	0.900905	2.20501												
0.986397	2.41413	0.902986	2.20508												
0.988274	2.41323	0.905067	2.20514												
0.990153	2.41232	0.907147	2.20521												
0.992032	2.41143	0.909228	2.20527												
0.993911	2.41054	0.911309	2.20533												
0.995792	2.40965	0.913389	2.2054												
0.997673	2.40878	0.91547	2.20546												
0.999556	2.4079	0.917551	2.20552												
1.00144	2.40704	0.919632	2.20558												
		0.921712	2.20564												
		0.923793	2.20571												
		0.925874	2.20577												
		0.927954	2.20583												
		0.930035	2.20589												
		0.932116	2.20595												
		0.934196	2.20601												
		0.936277	2.20607												
		0.938358	2.20613												
		0.940438	2.20619												
		0.942519	2.20625												
		0.9446	2.2063												
		0.94668	2.20636												
		0.948761	2.20642												
		0.950842	2.20648												
		0.952922	2.20654												
		0.955003	2.20659												
		0.957084	2.20665												
		0.959164	2.20671												
		0.961245	2.20676												
		0.963326	2.20682												
		0.965406	2.20688												
		0.967487	2.20693												
		0.969568	2.20699												
		0.971648	2.20704												
		0.973729	2.2071												
		0.97581	2.20715												
		0.97789	2.20721												
		0.979971	2.20726												
		0.982052	2.20732												
		0.984132	2.20737												
		0.986213	2.20743												
		0.988293	2.20748												
		0.990374	2.20753												
		0.992455	2.20759												
		0.994535	2.20764												
		0.996616	2.20769												
		0.998697	2.20774												
		1.00078	2.2078												
