Sym0		Asym0		Sym1		Sym2		Sym3		Sym4		Asym1		Asym2		Asym3	
462  Points		495  Points		213  Points		183  Points		170  Points		119  Points		316  Points		194  Points		158  Points	
Freq (MHz)	Vph (m/ms)	Freq (MHz)	Vph (m/ms)	Freq (MHz)	Vph (m/ms)	Freq (MHz)	Vph (m/ms)	Freq (MHz)	Vph (m/ms)	Freq (MHz)	Vph (m/ms)	Freq (MHz)	Vph (m/ms)	Freq (MHz)	Vph (m/ms)	Freq (MHz)	Vph (m/ms)
0.00368058	5.60067	0.000431453	0.18681	0.279525	461.939	0.49005	769.288	0.559022	1329.46	0.838527	2443.5	0.139755	1843.69	0.419272	775.721	0.698781	984.647
0.00889847	5.60053	0.000845971	0.261	0.279613	181.944	0.490074	312.405	0.559068	413.456	0.838552	657.759	0.13988	138.839	0.419334	284.837	0.698822	425.755
0.014116	5.60035	0.00139394	0.334041	0.279779	113.34	0.490117	196.015	0.559162	244.83	0.838605	380.051	0.14022	72.3086	0.419451	174.489	0.698897	271.62
0.0193327	5.60002	0.00207069	0.405647	0.280021	82.3544	0.490181	142.822	0.559305	173.936	0.838686	267.246	0.140773	49.0346	0.419626	125.803	0.699004	199.444
0.0245485	5.59964	0.00287072	0.475571	0.28034	64.7153	0.490265	112.348	0.559496	134.907	0.838796	206.095	0.141534	37.2206	0.419857	98.39	0.699145	157.591
0.029763	5.59914	0.0037879	0.54361	0.280735	53.3352	0.490369	92.6011	0.559735	110.207	0.838934	167.732	0.1425	30.0996	0.420144	80.813	0.699318	130.272
0.0349759	5.59853	0.00481548	0.609574	0.281205	45.3902	0.490493	78.7664	0.560022	93.1715	0.8391	141.421	0.143664	25.3556	0.420488	68.5877	0.699524	111.038
0.0401871	5.59784	0.00594663	0.673347	0.281751	39.533	0.490639	68.5356	0.560357	80.7158	0.839295	122.257	0.14502	21.9805	0.420888	59.5959	0.699763	96.7654
0.0453962	5.59705	0.00717407	0.734812	0.282372	35.0395	0.490805	60.6637	0.56074	71.2137	0.839518	107.676	0.146561	19.4652	0.421344	52.7071	0.700034	85.7545
0.0506028	5.59615	0.00849068	0.793905	0.283066	31.4855	0.490992	54.42	0.56117	63.7277	0.839769	96.2109	0.148278	17.5248	0.421855	47.2627	0.700339	77.0032
0.0558068	5.59516	0.00988951	0.850599	0.283834	28.6063	0.491201	49.3473	0.561647	57.6791	0.840048	86.9605	0.150164	15.9872	0.422422	42.8531	0.700676	69.8815
0.0610077	5.59406	0.0113635	0.904869	0.284674	26.2281	0.491432	45.1449	0.562171	52.6914	0.840356	79.3401	0.15221	14.7427	0.423044	39.2102	0.701046	63.9738
0.0662054	5.59285	0.0129064	0.956743	0.285586	24.232	0.491686	41.6071	0.562742	48.5088	0.840692	72.9545	0.154408	13.7177	0.423721	36.1511	0.701448	58.9947
0.0713996	5.59154	0.0145117	1.00625	0.286568	22.534	0.491961	38.5881	0.56336	44.9518	0.841055	67.5264	0.15675	12.8612	0.424453	33.5469	0.701883	54.7417
0.0765897	5.59012	0.0161738	1.05344	0.28762	21.0729	0.492261	35.982	0.564023	41.8905	0.841447	62.856	0.159228	12.1367	0.425239	31.3039	0.70235	51.0673
0.0817756	5.58859	0.0178869	1.09837	0.288741	19.8032	0.492583	33.7099	0.564732	39.2286	0.841867	58.7954	0.161834	11.5174	0.426079	29.3526	0.702849	47.8614
0.0869569	5.58695	0.0196461	1.14111	0.289929	18.6904	0.49293	31.7116	0.565486	36.8933	0.842315	55.2327	0.164203	11.0477	0.426973	27.6401	0.703381	45.04
0.0921332	5.58519	0.0214468	1.18175	0.291184	17.7077	0.493301	29.9409	0.566286	34.8284	0.842791	52.0821	0.166291	10.6904	0.42792	26.1256	0.703945	42.5383
0.0973041	5.58331	0.0232846	1.22036	0.292505	16.8342	0.493698	28.3612	0.56713	32.99	0.843294	49.2761	0.168064	10.4209	0.42892	24.7773	0.704541	40.3051
0.102469	5.5813	0.0251556	1.25704	0.293889	16.0531	0.49412	26.9433	0.568019	31.343	0.843826	46.7613	0.169494	10.2227	0.429972	23.5695	0.705169	38.2997
0.107628	5.57918	0.0270563	1.29187	0.295336	15.3509	0.494568	25.6639	0.568951	29.8593	0.844385	44.495	0.17056	10.0846	0.431076	22.4818	0.705829	36.4891
0.112781	5.57692	0.0289833	1.32494	0.296845	14.7166	0.495043	24.5039	0.569927	28.5162	0.844972	42.4422	0.171249	9.99949	0.432231	21.4975	0.706521	34.8464
0.117926	5.57453	0.0309339	1.35634	0.298414	14.1412	0.495545	23.4474	0.570946	27.2948	0.845586	40.5743	0.172249	9.88124	0.433438	20.6028	0.707244	33.3496
0.123064	5.57201	0.0329052	1.38615	0.300042	13.6172	0.496076	22.4814	0.572008	26.1795	0.846228	38.8675	0.173348	9.758	0.434694	19.7863	0.707999	31.9802
0.128194	5.56934	0.0348949	1.41445	0.301728	13.1381	0.496635	21.595	0.573112	25.1573	0.846898	37.302	0.174861	9.59867	0.436001	19.0384	0.708785	30.7228
0.133316	5.56653	0.036901	1.44134	0.30347	12.6988	0.497223	20.7788	0.574258	24.2172	0.847595	35.861	0.176806	9.40979	0.437358	18.351	0.709602	29.5642
0.138428	5.56357	0.0389215	1.46687	0.305267	12.2947	0.497842	20.0249	0.575445	23.3498	0.848319	34.5305	0.179202	9.19847	0.438763	17.7174	0.710451	28.4935
0.143531	5.56045	0.0409547	1.49114	0.307118	11.9219	0.498491	19.3268	0.576674	22.5472	0.84907	33.2983	0.182071	8.97186	0.440217	17.1315	0.711331	27.5012
0.148624	5.55717	0.0427355	1.5113	0.309021	11.577	0.499172	18.6784	0.577943	21.8026	0.849849	32.1539	0.185438	8.73666	0.441718	16.5885	0.712241	26.579
0.153707	5.55372	0.0442596	1.52781	0.310975	11.2573	0.499884	18.075	0.579252	21.11	0.850655	31.0885	0.18888	8.52462	0.443267	16.0839	0.713182	25.7199
0.158777	5.5501	0.0455237	1.541	0.312718	10.9972	0.50063	17.512	0.580601	20.4643	0.851487	30.0942	0.192392	8.33274	0.444862	15.6139	0.714154	24.9177
0.163836	5.5463	0.0465254	1.55115	0.314234	10.7879	0.501409	16.9857	0.581989	19.861	0.852347	29.1643	0.19597	8.1585	0.446504	15.1753	0.715157	24.167
0.168882	5.54231	0.0472632	1.55845	0.315507	10.6229	0.502222	16.4927	0.583416	19.2962	0.853233	28.2927	0.199611	7.99976	0.448191	14.7651	0.716189	23.4632
0.173914	5.53812	0.0477358	1.56306	0.316526	10.4973	0.503071	16.0301	0.584881	18.7664	0.854146	27.4741	0.203309	7.85471	0.449923	14.3808	0.717252	22.802
0.178932	5.53373	0.0484159	1.5696	0.317283	10.4075	0.503956	15.5953	0.586385	18.2685	0.855085	26.7041	0.207064	7.7218	0.451699	14.02	0.718344	22.1798
0.183935	5.52913	0.0491559	1.57658	0.31777	10.3512	0.504877	15.1859	0.587926	17.7999	0.856051	25.9784	0.21087	7.59969	0.453519	13.6809	0.719467	21.5933
0.188921	5.5243	0.0501637	1.58589	0.318474	10.2717	0.505835	14.8	0.589504	17.358	0.857044	25.2933	0.214725	7.48722	0.455382	13.3615	0.720619	21.0395
0.193891	5.51925	0.0514403	1.59734	0.319245	10.1873	0.506832	14.4357	0.591119	16.9408	0.858063	24.6457	0.218626	7.38338	0.457287	13.0604	0.7218	20.516
0.198842	5.51395	0.0529868	1.61075	0.320304	10.0755	0.507868	14.0912	0.592771	16.5463	0.859107	24.0326	0.22257	7.2873	0.459234	12.7761	0.723011	20.0202
0.203774	5.5084	0.0548046	1.62588	0.321657	9.93915	0.508943	13.7652	0.594458	16.1728	0.860178	23.4513	0.226556	7.19821	0.461223	12.5072	0.724251	19.5502
0.208685	5.50258	0.0568945	1.64248	0.323315	9.7812	0.510059	13.4563	0.596181	15.8187	0.861275	22.8996	0.23058	7.11544	0.463252	12.2527	0.72552	19.1039
0.213575	5.49648	0.0589881	1.65832	0.32529	9.60504	0.511217	13.1633	0.597939	15.4826	0.862398	22.3751	0.234641	7.0384	0.465321	12.0114	0.726817	18.6798
0.218442	5.4901	0.061085	1.67343	0.327596	9.41413	0.512416	12.8851	0.599731	15.1632	0.863546	21.8761	0.238737	6.96654	0.467429	11.7824	0.728143	18.2763
0.223285	5.48341	0.0631845	1.68787	0.329943	9.23433	0.513659	12.6206	0.601558	14.8594	0.86472	21.4008	0.242864	6.89942	0.469576	11.565	0.729497	17.8919
0.228102	5.4764	0.0652864	1.70166	0.33233	9.06476	0.514945	12.3691	0.603419	14.57	0.865919	20.9474	0.247023	6.8366	0.471762	11.3581	0.73088	17.5253
0.232891	5.46906	0.06739	1.71485	0.334755	8.90463	0.516276	12.1296	0.605314	14.2942	0.867144	20.5147	0.25121	6.77773	0.473696	11.1861	0.73229	17.1754
0.237652	5.46137	0.0694952	1.72747	0.33722	8.75324	0.517652	11.9014	0.607242	14.031	0.868394	20.1012	0.255425	6.72246	0.475368	11.045	0.733728	16.8411
0.242382	5.45331	0.0716017	1.73954	0.339721	8.60996	0.519073	11.6838	0.609202	13.7797	0.869669	19.7057	0.259666	6.6705	0.476765	10.9321	0.735194	16.5214
0.24708	5.44487	0.0737091	1.7511	0.34226	8.4742	0.520542	11.4762	0.611195	13.5394	0.870969	19.3272	0.26393	6.62157	0.47788	10.8451	0.736687	16.2155
0.251744	5.43603	0.0758173	1.76218	0.344836	8.34545	0.52186	11.303	0.61322	13.3096	0.872294	18.9645	0.268218	6.57545	0.478705	10.7824	0.738207	15.9224
0.256371	5.42677	0.077926	1.7728	0.347447	8.22324	0.523013	11.1606	0.615276	13.0895	0.873644	18.6167	0.272527	6.53189	0.479235	10.7429	0.739754	15.6415
0.26096	5.41708	0.0800351	1.783	0.350095	8.10713	0.523986	11.0465	0.617364	12.8787	0.875018	18.283	0.276857	6.49072	0.480001	10.6867	0.741327	15.3719
0.265509	5.40693	0.0821445	1.79278	0.352778	7.99673	0.524769	10.9584	0.619483	12.6765	0.876416	17.9625	0.281206	6.45175	0.480837	10.6266	0.742928	15.1131
0.270015	5.3963	0.084254	1.80217	0.355497	7.89169	0.525352	10.8949	0.621632	12.4825	0.877839	17.6546	0.285572	6.41481	0.481982	10.5464	0.744554	14.8645
0.274476	5.38519	0.0863634	1.81119	0.358251	7.79168	0.525728	10.8548	0.623812	12.2962	0.879286	17.3584	0.289956	6.37975	0.483442	10.4475	0.746207	14.6254
0.27889	5.37355	0.0884727	1.81987	0.361042	7.69642	0.526274	10.7978	0.626021	12.1172	0.880757	17.0734	0.294355	6.34645	0.485224	10.3315	0.747885	14.3954
0.283254	5.36139	0.0905819	1.82822	0.363868	7.60562	0.526873	10.7368	0.62826	11.9452	0.882252	16.799	0.298769	6.31477	0.487339	10.2002	0.749589	14.1741
0.287565	5.34868	0.0926908	1.83625	0.366732	7.51904	0.527698	10.6553	0.630529	11.7796	0.88377	16.5346	0.303197	6.28459	0.489797	10.0555	0.751319	13.9608
0.291823	5.33541	0.0947993	1.84399	0.369632	7.43646	0.528758	10.5547	0.632826	11.6203	0.885313	16.2797	0.307637	6.25583	0.492288	9.917	0.753073	13.7553
0.296023	5.32155	0.0969075	1.85144	0.372571	7.35767	0.530066	10.4367	0.634851	11.4862	0.886878	16.0338	0.31209	6.22837	0.494811	9.78419	0.754853	13.5571
0.300163	5.30709	0.0990152	1.85863	0.375549	7.28248	0.531636	10.3029	0.636594	11.3753	0.888467	15.7964	0.316554	6.20214	0.497366	9.6568	0.756658	13.3658
0.304242	5.29203	0.101122	1.86556	0.378566	7.21071	0.533486	10.1554	0.638047	11.2858	0.890079	15.5672	0.321028	6.17704	0.499952	9.53453	0.758487	13.1812
0.308257	5.27635	0.103229	1.87224	0.381624	7.14221	0.535387	10.014	0.639204	11.2165	0.891714	15.3457	0.325512	6.15301	0.502568	9.4171	0.76034	13.0029
0.312205	5.26005	0.105336	1.8787	0.384724	7.07683	0.537341	9.87835	0.640058	11.1663	0.893372	15.1317	0.330005	6.12998	0.505214	9.30426	0.762218	12.8305
0.316085	5.24312	0.107441	1.88493	0.387867	7.01443	0.539347	9.74827	0.640607	11.1345	0.895053	14.9246	0.334505	6.10787	0.50789	9.19575	0.764119	12.6639
0.319894	5.22555	0.109547	1.89096	0.391055	6.95489	0.541407	9.62344	0.641398	11.0893	0.896756	14.7243	0.339013	6.08664	0.510595	9.09136	0.766044	12.5028
0.323632	5.20735	0.111651	1.89678	0.394288	6.89809	0.543519	9.5036	0.642262	11.0407	0.898482	14.5303	0.343528	6.06621	0.513329	8.99088	0.767992	12.3468
0.327296	5.18853	0.113755	1.90242	0.397568	6.84391	0.545686	9.38853	0.643442	10.9756	0.90023	14.3425	0.348048	6.04656	0.51609	8.8941	0.769964	12.1959
0.330886	5.1691	0.115859	1.90787	0.400896	6.79226	0.547905	9.27799	0.644943	10.8948	0.902	14.1605	0.352574	6.02762	0.518878	8.80085	0.771959	12.0496
0.334401	5.14906	0.117962	1.91315	0.404273	6.74304	0.550179	9.17179	0.646772	10.7995	0.903792	13.9841	0.357104	6.00935	0.521694	8.71094	0.773976	11.9079
0.33784	5.12843	0.120064	1.91826	0.4077	6.69614	0.552506	9.06971	0.648937	10.6907	0.905605	13.813	0.361638	5.9917	0.524536	8.62423	0.775753	11.788
0.341202	5.10724	0.122166	1.92321	0.411178	6.65149	0.554887	8.97158	0.651445	10.5698	0.907441	13.6471	0.366176	5.97466	0.527403	8.54055	0.777281	11.6883
0.344488	5.0855	0.124267	1.92801	0.414709	6.60899	0.557321	8.87722	0.65398	10.4529	0.909298	13.486	0.370716	5.95816	0.530297	8.45977	0.778553	11.6076
0.347698	5.06325	0.126368	1.93267	0.418292	6.56856	0.559809	8.78645	0.65654	10.3398	0.911176	13.3297	0.375258	5.94218	0.533215	8.38174	0.779566	11.5448
0.350833	5.04051	0.128468	1.93719	0.421928	6.53012	0.562351	8.69913	0.659126	10.2304	0.913075	13.1779	0.379802	5.9267	0.536158	8.30635	0.780313	11.4992
0.353503	5.02032	0.130568	1.94157	0.425617	6.49358	0.564945	8.6151	0.661738	10.1246	0.914996	13.0304	0.384347	5.91167	0.539125	8.23347	0.780793	11.4702
0.355736	5.00285	0.132667	1.94583	0.429359	6.45887	0.567593	8.53422	0.664374	10.022	0.916937	12.887	0.388892	5.89707	0.542116	8.163	0.781485	11.429
0.357551	4.98823	0.134766	1.94996	0.433155	6.4259	0.570293	8.45635	0.667035	9.92272	0.918899	12.7477	0.393437	5.88287	0.54513	8.09482	0.78224	11.3846
0.358968	4.97658	0.136864	1.95398	0.437002	6.39459	0.573045	8.38137	0.669721	9.82648	0.920882	12.6122	0.397981	5.86906	0.548167	8.02884	0.78327	11.3251
0.359999	4.96795	0.138962	1.95788	0.440902	6.36488	0.575848	8.30915	0.672431	9.73318	0.922885	12.4803	0.402524	5.85559	0.551226	7.96496	0.784581	11.2509
0.360654	4.9624	0.141059	1.96168	0.444852	6.33667	0.578703	8.23957	0.675164	9.64271	0.924908	12.3521	0.407065	5.84247	0.554308	7.90309	0.786178	11.163
0.361589	4.9544	0.143155	1.96537	0.448851	6.30991	0.581608	8.17252	0.677922	9.55495	0.926951	12.2272	0.411603	5.82965	0.557411	7.84315	0.788065	11.0623
0.362597	4.94566	0.145252	1.96896	0.452899	6.2845	0.584564	8.1079	0.680702	9.46979	0.928748	12.1211	0.416139	5.81712	0.560536	7.78506	0.790251	10.9497
0.363953	4.93372	0.147347	1.97246	0.456994	6.26038	0.587568	8.0456	0.683506	9.38712	0.930292	12.0326	0.420671	5.80487	0.563682	7.72875	0.792457	10.8404
0.365646	4.9185	0.149443	1.97587	0.461134	6.23749	0.590622	7.98554	0.686333	9.30686	0.931577	11.9606	0.425198	5.79288	0.566849	7.67414	0.794684	10.734
0.367659	4.89997	0.151538	1.97919	0.465318	6.21574	0.593723	7.92761	0.689183	9.2289	0.932598	11.9046	0.429722	5.78112	0.570037	7.62116	0.796932	10.6306
0.369975	4.87805	0.153632	1.98242	0.469543	6.19508	0.596872	7.87172	0.692055	9.15316	0.933352	11.8638	0.43424	5.76959	0.573244	7.56975	0.7992	10.53
0.372573	4.85269	0.155726	1.98557	0.473808	6.17543	0.600067	7.8178	0.694949	9.07956	0.933835	11.8379	0.438752	5.75826	0.576472	7.51986	0.801488	10.4321
0.37511	4.82715	0.15782	1.98864	0.47811	6.15675	0.603308	7.76576	0.697865	9.00801	0.934532	11.801	0.443258	5.74713	0.579719	7.47141	0.803796	10.3368
0.377587	4.80146	0.159913	1.99163	0.482448	6.13896	0.606593	7.71552	0.700803	8.93844	0.935292	11.7611	0.447758	5.73617	0.582986	7.42436	0.806124	10.244
0.380007	4.77565	0.162006	1.99456	0.48682	6.12201	0.609923	7.66701	0.703763	8.87077	0.93633	11.7076	0.45225	5.72538	0.586272	7.37866	0.808471	10.1536
0.382372	4.74976	0.164099	1.99741	0.491224	6.10585	0.613296	7.62017	0.706744	8.80495	0.937649	11.6408	0.456734	5.71474	0.589577	7.33425	0.810837	10.0655
0.384684	4.72381	0.166191	2.00019	0.495658	6.09043	0.616712	7.57492	0.709747	8.74089	0.939253	11.5613	0.46121	5.70425	0.5929	7.29109	0.813222	9.9797
0.386946	4.69784	0.168283	2.00291	0.500119	6.07569	0.620169	7.53119	0.71277	8.67855	0.941149	11.47	0.465677	5.69388	0.596242	7.24914	0.815626	9.89606
0.389159	4.67186	0.170374	2.00556	0.504606	6.0616	0.623666	7.48893	0.715814	8.61785	0.943342	11.3677	0.470134	5.68363	0.599603	7.20834	0.818049	9.81451
0.391327	4.64592	0.172465	2.00815	0.509118	6.0481	0.627203	7.44808	0.718879	8.55875	0.945553	11.2678	0.474581	5.67349	0.602982	7.16866	0.82049	9.73498
0.39345	4.62002	0.174556	2.01068	0.513652	6.03517	0.63078	7.40858	0.721965	8.50118	0.947784	11.1704	0.479017	5.66345	0.606378	7.13007	0.82295	9.65741
0.395531	4.5942	0.176647	2.01316	0.518207	6.02275	0.634394	7.37038	0.725071	8.4451	0.950032	11.0753	0.483442	5.65349	0.609793	7.09252	0.825428	9.58172
0.397572	4.56847	0.178737	2.01558	0.522781	6.01082	0.638045	7.33341	0.728197	8.39046	0.952299	10.9824	0.487856	5.64361	0.613226	7.05598	0.827924	9.50786
0.399575	4.54285	0.180827	2.01795	0.527372	5.99934	0.641732	7.29765	0.731343	8.33721	0.954585	10.8917	0.492257	5.6338	0.616676	7.02042	0.830437	9.43577
0.401542	4.51736	0.182917	2.02026	0.531979	5.98829	0.645455	7.26303	0.734508	8.2853	0.956888	10.8032	0.496645	5.62405	0.620143	6.9858	0.832968	9.36538
0.403474	4.49201	0.185006	2.02252	0.536601	5.97762	0.649212	7.22951	0.737694	8.23469	0.959209	10.7167	0.501019	5.61435	0.623628	6.95209	0.835517	9.29665
0.405374	4.46683	0.187095	2.02474	0.541236	5.96732	0.653002	7.19705	0.740899	8.18534	0.961547	10.6321	0.505379	5.6047	0.62713	6.91927	0.838082	9.22951
0.407242	4.44181	0.189184	2.02691	0.545882	5.95735	0.656826	7.16561	0.744124	8.13721	0.963903	10.5495	0.509725	5.59508	0.63065	6.8873	0.840665	9.16393
0.40908	4.41698	0.191273	2.02903	0.55054	5.9477	0.660681	7.13514	0.747368	8.09026	0.966277	10.4687	0.514055	5.58549	0.634187	6.85616	0.843265	9.09985
0.410891	4.39234	0.193361	2.03111	0.555206	5.93835	0.664566	7.10561	0.750632	8.04445	0.968668	10.3897	0.51837	5.57592	0.637741	6.82583	0.845881	9.03722
0.412675	4.36791	0.195449	2.03315	0.559881	5.92926	0.668482	7.07698	0.753914	7.99976	0.971075	10.3125	0.522667	5.56636	0.641312	6.79628	0.848514	8.976
0.414433	4.34369	0.197537	2.03514	0.564563	5.92043	0.672428	7.04922	0.757216	7.95613	0.9735	10.237	0.526948	5.55682	0.6449	6.76748	0.851163	8.91616
0.416168	4.31968	0.199625	2.0371	0.569251	5.91183	0.676401	7.02229	0.760537	7.91356	0.975942	10.1631	0.531212	5.54727	0.648505	6.73942	0.853829	8.85763
0.41788	4.29591	0.201712	2.03901	0.573944	5.90345	0.680403	6.99616	0.763876	7.87199	0.9784	10.0908	0.535457	5.53772	0.652127	6.71208	0.856511	8.80039
0.41957	4.27237	0.203799	2.04089	0.578641	5.89527	0.684431	6.97079	0.767235	7.83141	0.980875	10.02	0.539683	5.52816	0.655766	6.68542	0.859209	8.7444
0.42124	4.24906	0.205886	2.04273	0.583342	5.88727	0.688485	6.94617	0.770612	7.79178	0.983366	9.95074	0.543889	5.51858	0.659422	6.65944	0.861923	8.68963
0.422891	4.22599	0.207973	2.04454	0.588045	5.87945	0.692564	6.92226	0.774008	7.75308	0.985873	9.88294	0.548076	5.50899	0.663095	6.63411	0.864652	8.63602
0.424524	4.20318	0.21006	2.04631	0.59275	5.87179	0.696668	6.89903	0.777423	7.71528	0.988396	9.81655	0.552242	5.49936	0.666785	6.60942	0.867397	8.58356
0.426139	4.1806	0.212146	2.04804	0.597455	5.86428	0.700795	6.87646	0.780856	7.67836	0.990935	9.75153	0.556388	5.48971	0.670492	6.58535	0.870157	8.53222
0.427738	4.15828	0.214232	2.04975	0.602161	5.85691	0.704945	6.85452	0.784309	7.64229	0.99349	9.68785	0.560511	5.48002	0.674216	6.56187	0.872933	8.48195
0.429322	4.13622	0.216318	2.05142	0.606866	5.84966	0.709118	6.83318	0.787779	7.60705	0.996061	9.62547	0.564612	5.47028	0.677956	6.53898	0.875724	8.43272
0.430891	4.1144	0.218404	2.05306	0.611569	5.84253	0.713312	6.81243	0.791269	7.57261	0.998647	9.56434	0.568691	5.46051	0.681714	6.51667	0.87853	8.38452
0.432447	4.09284	0.22049	2.05467	0.616271	5.83551	0.717526	6.79225	0.794777	7.53897	1.00125	9.50445	0.572746	5.45068	0.685488	6.4949	0.881351	8.33731
0.433989	4.07154	0.222575	2.05625	0.62097	5.82858	0.721761	6.7726	0.798303	7.50608			0.576777	5.44081	0.689279	6.47367	0.884187	8.29106
0.43552	4.05049	0.224661	2.05781	0.625666	5.82175	0.726015	6.75348	0.801849	7.47394			0.580785	5.43088	0.693088	6.45297	0.887038	8.24575
0.437039	4.0297	0.226746	2.05933	0.630359	5.815	0.730287	6.73485	0.805413	7.44253			0.584767	5.42089	0.696912	6.43278	0.889903	8.20136
0.438547	4.00917	0.228831	2.06083	0.635047	5.80832	0.734578	6.7167	0.808995	7.41182			0.588724	5.41084	0.700754	6.41309	0.892783	8.15785
0.440045	3.98889	0.230916	2.0623	0.63973	5.80172	0.738885	6.69902	0.812597	7.38181			0.592655	5.40072	0.704612	6.39388	0.895677	8.11521
0.441533	3.96886	0.233001	2.06375	0.644408	5.79517	0.743209	6.68178	0.816217	7.35247			0.59656	5.39054	0.708487	6.37515	0.898585	8.07341
0.443013	3.94909	0.235085	2.06517	0.64908	5.78869	0.747549	6.66497	0.819857	7.32379			0.600439	5.38029	0.712379	6.35687	0.901508	8.03243
0.444484	3.92957	0.23717	2.06657	0.653746	5.78225	0.751904	6.64857	0.823515	7.29574			0.604291	5.36997	0.716287	6.33904	0.904445	7.99225
0.445948	3.9103	0.239254	2.06794	0.658405	5.77587	0.756274	6.63257	0.827192	7.26833			0.608115	5.35958	0.720211	6.32165	0.907396	7.95285
0.447404	3.89127	0.241338	2.06929	0.663057	5.76952	0.760657	6.61694	0.830889	7.24153			0.611911	5.34912	0.724152	6.30468	0.910361	7.91421
0.448853	3.8725	0.243422	2.07062	0.667701	5.76321	0.765054	6.60169	0.834605	7.21532			0.61568	5.33858	0.728109	6.28812	0.91334	7.87631
0.450296	3.85397	0.245506	2.07192	0.672337	5.75693	0.769463	6.58678	0.83834	7.1897			0.61942	5.32797	0.732082	6.27196	0.916333	7.83914
0.451732	3.83568	0.24759	2.07321	0.676965	5.75067	0.773884	6.57221	0.842095	7.16466			0.623132	5.31728	0.73607	6.2562	0.919339	7.80267
0.453164	3.81763	0.249674	2.07447	0.681584	5.74445	0.778317	6.55796	0.845869	7.14017			0.626815	5.30652	0.740075	6.24081	0.922359	7.76688
0.45459	3.79982	0.251757	2.07571	0.686193	5.73824	0.78276	6.54403	0.849663	7.11623			0.630468	5.29568	0.744094	6.2258	0.925393	7.73177
0.456011	3.78224	0.253841	2.07694	0.690793	5.73205	0.787213	6.53039	0.853477	7.09283			0.634093	5.28477	0.74813	6.21114	0.92844	7.69731
0.457428	3.7649	0.255924	2.07814	0.695383	5.72587	0.791676	6.51704	0.857312	7.06995			0.637687	5.27378	0.75218	6.19683	0.931501	7.66349
0.458841	3.74779	0.258007	2.07933	0.699963	5.7197	0.796147	6.50396	0.861166	7.04759			0.641253	5.26271	0.756245	6.18286	0.934575	7.63029
0.46025	3.73091	0.26009	2.08049	0.704532	5.71354	0.800627	6.49115	0.865041	7.02573			0.644788	5.25157	0.760324	6.16923	0.937663	7.59771
0.461656	3.71425	0.262173	2.08164	0.70909	5.70738	0.805114	6.4786	0.868936	7.00436			0.648293	5.24036	0.764418	6.15591	0.940763	7.56572
0.463059	3.69782	0.264256	2.08277	0.713637	5.70122	0.809608	6.46628	0.872853	6.98348			0.651769	5.22907	0.768526	6.1429	0.943877	7.53431
0.464459	3.68161	0.266339	2.08389	0.718173	5.69506	0.814109	6.4542	0.87679	6.96308			0.655214	5.21771	0.772648	6.13019	0.947005	7.50346
0.465856	3.66561	0.268422	2.08498	0.722696	5.6889	0.818616	6.44234	0.880748	6.94314			0.65863	5.20628	0.776783	6.11778	0.950145	7.47318
0.467251	3.64983	0.270504	2.08606	0.727207	5.68273	0.823127	6.4307	0.884727	6.92366			0.662015	5.19478	0.780932	6.10565	0.953298	7.44343
0.468644	3.63427	0.272587	2.08713	0.731706	5.67656	0.827644	6.41926	0.888728	6.90463			0.66537	5.18321	0.785093	6.09379	0.956464	7.41422
0.470036	3.61891	0.274669	2.08817	0.736192	5.67037	0.832165	6.40801	0.892751	6.88603			0.668696	5.17158	0.789266	6.0822	0.959643	7.38552
0.471425	3.60376	0.276752	2.08921	0.740664	5.66418	0.836689	6.39696	0.896795	6.86787			0.671991	5.15989	0.793452	6.07087	0.962835	7.35733
0.472814	3.58881	0.278834	2.09022	0.745124	5.65797	0.841216	6.38608	0.900861	6.85014			0.675256	5.14813	0.797649	6.05978	0.96604	7.32964
0.474201	3.57406	0.280916	2.09123	0.749569	5.65174	0.845746	6.37538	0.90495	6.83282			0.678492	5.13632	0.801858	6.04894	0.969258	7.30243
0.475587	3.55952	0.282998	2.09221	0.754001	5.6455	0.850278	6.36484	0.909061	6.81591			0.681698	5.12444	0.806078	6.03833	0.972489	7.2757
0.476972	3.54516	0.28508	2.09319	0.758419	5.63923	0.854811	6.35446	0.913194	6.7994			0.684874	5.11251	0.810308	6.02795	0.975732	7.24943
0.478357	3.531	0.287162	2.09415	0.762822	5.63295	0.859346	6.34422	0.91735	6.78329			0.688021	5.10053	0.814548	6.01779	0.978988	7.22362
0.479742	3.51704	0.289244	2.09509	0.767211	5.62665	0.863881	6.33414	0.921529	6.76756			0.691139	5.0885	0.818798	6.00783	0.982256	7.19825
0.481126	3.50326	0.291325	2.09603	0.771584	5.62032	0.868416	6.32419	0.92573	6.75222			0.694227	5.07641	0.823058	5.99808	0.985537	7.17331
0.48251	3.48966	0.293407	2.09695	0.775943	5.61397	0.872951	6.31437	0.929955	6.73725			0.697287	5.06429	0.827326	5.98853	0.98883	7.14881
0.483894	3.47625	0.295489	2.09786	0.780286	5.60759	0.877486	6.30468	0.934202	6.72264			0.700318	5.05211	0.831603	5.97916	0.992136	7.12472
0.485279	3.46301	0.29757	2.09875	0.784614	5.60119	0.882019	6.29511	0.938473	6.7084			0.703321	5.0399	0.835888	5.96998	0.995455	7.10104
0.486664	3.44996	0.299652	2.09963	0.788926	5.59476	0.886551	6.28566	0.942767	6.69451			0.706295	5.02765	0.84018	5.96097	0.998785	7.07776
0.488049	3.43708	0.301733	2.10051	0.793222	5.5883	0.891081	6.27632	0.947084	6.68096			0.709242	5.01536	0.84448	5.95213	1.00213	7.05487
0.489435	3.42437	0.303814	2.10137	0.797502	5.58182	0.895609	6.26708	0.951424	6.66776			0.712161	5.00304	0.848787	5.94346		
0.490821	3.41183	0.305895	2.10221	0.801765	5.5753	0.900135	6.25795	0.955788	6.65488			0.715052	4.99069	0.8531	5.93494		
0.492208	3.39945	0.307976	2.10305	0.806012	5.56875	0.904658	6.24892	0.960175	6.64234			0.717917	4.97831	0.857419	5.92657		
0.493596	3.38725	0.310058	2.10388	0.810242	5.56217	0.909178	6.23999	0.964585	6.63011			0.720754	4.9659	0.861743	5.91835		
0.494986	3.3752	0.312139	2.10469	0.814455	5.55556	0.913695	6.23114	0.969018	6.6182			0.723565	4.95347	0.866073	5.91027		
0.496376	3.36331	0.31422	2.10549	0.818651	5.54892	0.918209	6.22239	0.973474	6.60659			0.726349	4.94101	0.870407	5.90232		
0.497768	3.35158	0.3163	2.10629	0.822829	5.54224	0.922719	6.21372	0.977953	6.59529			0.729108	4.92854	0.874746	5.8945		
0.49916	3.34001	0.318381	2.10707	0.826991	5.53553	0.927226	6.20514	0.982454	6.58428			0.731841	4.91605	0.879089	5.8868		
0.500555	3.32859	0.320462	2.10785	0.831134	5.52879	0.931729	6.19664	0.986979	6.57355			0.734548	4.90355	0.883435	5.87922		
0.50195	3.31731	0.322543	2.10861	0.83526	5.52201	0.936228	6.18822	0.991525	6.56311			0.73723	4.89104	0.887784	5.87176		
0.503347	3.30619	0.324623	2.10936	0.839368	5.5152	0.940723	6.17987	0.996094	6.55294			0.739888	4.87851	0.892135	5.8644		
0.504746	3.29521	0.326704	2.11011	0.843458	5.50835	0.945215	6.1716	1.00068	6.54303			0.742521	4.86598	0.896489	5.85715		
0.506147	3.28438	0.328785	2.11084	0.84753	5.50147	0.949702	6.16341					0.74513	4.85345	0.900845	5.85		
0.507549	3.27368	0.330865	2.11157	0.851583	5.49455	0.954185	6.15528					0.747715	4.84091	0.905202	5.84294		
0.508953	3.26313	0.332945	2.11229	0.855619	5.4876	0.958665	6.14723					0.750277	4.82837	0.90956	5.83597		
0.510359	3.25271	0.335026	2.113	0.859635	5.48061	0.96314	6.13925					0.752815	4.81583	0.913919	5.82909		
0.511766	3.24243	0.337106	2.1137	0.863633	5.47358	0.967611	6.13134					0.755331	4.80329	0.918278	5.8223		
0.513176	3.23228	0.339186	2.11439	0.867612	5.46652	0.972079	6.1235					0.757824	4.79076	0.922637	5.81558		
0.514588	3.22227	0.341267	2.11507	0.871573	5.45943	0.976543	6.11572					0.760295	4.77824	0.926996	5.80894		
0.516002	3.21238	0.343347	2.11575	0.875515	5.4523	0.981003	6.10802					0.762745	4.76573	0.931353	5.80237		
0.517418	3.20262	0.345427	2.11641	0.879437	5.44513	0.985459	6.10038					0.765172	4.75323	0.93571	5.79587		
0.518836	3.19298	0.347507	2.11707	0.883341	5.43793	0.989912	6.0928					0.767579	4.74074	0.940065	5.78943		
0.520256	3.18347	0.349587	2.11772	0.887225	5.4307	0.994361	6.08529					0.769965	4.72827	0.944418	5.78306		
0.521678	3.17408	0.351667	2.11837	0.891091	5.42343	0.998807	6.07784					0.77233	4.71581	0.948769	5.77675		
0.523103	3.1648	0.353747	2.11901	0.894937	5.41613	1.00325	6.07046					0.774675	4.70337	0.953117	5.77049		
0.52453	3.15565	0.355827	2.11963	0.898764	5.40879							0.777	4.69095	0.957462	5.76428		
0.525959	3.14661	0.357907	2.12026	0.902572	5.40142							0.779306	4.67856	0.961804	5.75812		
0.527391	3.13769	0.359986	2.12087	0.90636	5.39402							0.781592	4.66618	0.966143	5.75201		
0.528825	3.12888	0.362066	2.12148	0.910129	5.38658							0.783859	4.65383	0.970477	5.74594		
0.530262	3.12017	0.364146	2.12208	0.913879	5.37911							0.786108	4.64151	0.974807	5.73992		
0.5317	3.11158	0.366226	2.12267	0.917609	5.37161							0.788339	4.62922	0.979133	5.73393		
0.533142	3.1031	0.368305	2.12326	0.92132	5.36408							0.790552	4.61695	0.983454	5.72798		
0.534586	3.09472	0.370385	2.12384	0.925012	5.35651							0.792747	4.60472	0.98777	5.72207		
0.536032	3.08644	0.372464	2.12442	0.928684	5.34892							0.794925	4.59251	0.99208	5.71619		
0.537481	3.07827	0.374544	2.12499	0.932337	5.3413							0.797086	4.58034	0.996384	5.71033		
0.538932	3.0702	0.376623	2.12555	0.93597	5.33364							0.79923	4.56821	1.00068	5.70451		
0.540386	3.06223	0.378703	2.12611	0.939584	5.32596							0.801358	4.5561				
0.541843	3.05436	0.380782	2.12666	0.943179	5.31825							0.80347	4.54404				
0.543302	3.04658	0.382862	2.1272	0.946755	5.31051							0.805566	4.53201				
0.544763	3.0389	0.384941	2.12774	0.950311	5.30275							0.807646	4.52003				
0.546227	3.03132	0.38702	2.12827	0.953848	5.29496							0.809711	4.50808				
0.547694	3.02382	0.389099	2.1288	0.957366	5.28714							0.811762	4.49617				
0.549164	3.01642	0.391179	2.12932	0.960864	5.2793							0.813797	4.4843				
0.550636	3.00911	0.393258	2.12984	0.964344	5.27143							0.815819	4.47248				
0.55211	3.00188	0.395337	2.13035	0.967804	5.26354							0.817826	4.4607				
0.553588	2.99474	0.397416	2.13085	0.971245	5.25562							0.81982	4.44897				
0.555068	2.98769	0.399495	2.13135	0.974668	5.24768							0.8218	4.43728				
0.55655	2.98072	0.401574	2.13185	0.978071	5.23972							0.823767	4.42563				
0.558036	2.97384	0.403653	2.13234	0.981456	5.23174							0.82572	4.41404				
0.559524	2.96704	0.405732	2.13282	0.984822	5.22374							0.827662	4.40249				
0.561014	2.96031	0.407811	2.1333	0.988169	5.21572							0.82959	4.39098				
0.562508	2.95367	0.40989	2.13378	0.991497	5.20768							0.831507	4.37953				
0.564004	2.94711	0.411969	2.13425	0.994807	5.19962							0.833411	4.36813				
0.565502	2.94062	0.414048	2.13472	0.998098	5.19154							0.835304	4.35677				
0.567003	2.93421	0.416127	2.13518	1.00137	5.18344							0.837186	4.34547				
0.568507	2.92788	0.418206	2.13563									0.839056	4.33422				
0.570014	2.92162	0.420284	2.13609									0.840915	4.32302				
0.571523	2.91543	0.422363	2.13653									0.842764	4.31187				
0.573035	2.90932	0.424442	2.13698									0.844602	4.30077				
0.574549	2.90328	0.42652	2.13742									0.84643	4.28972				
0.576067	2.8973	0.428599	2.13785									0.848247	4.27873				
0.577586	2.8914	0.430678	2.13828									0.850055	4.2678				
0.579109	2.88556	0.432756	2.13871									0.851854	4.25691				
0.580634	2.87979	0.434835	2.13913									0.853643	4.24608				
0.582162	2.87409	0.436913	2.13955									0.855423	4.23531				
0.583692	2.86845	0.438992	2.13997									0.857193	4.22459				
0.585225	2.86287	0.441071	2.14038									0.858955	4.21392				
0.586761	2.85736	0.443149	2.14079									0.860709	4.20331				
0.588299	2.85191	0.445227	2.14119									0.862454	4.19276				
0.58984	2.84653	0.447306	2.14159									0.864191	4.18226				
0.591383	2.8412	0.449384	2.14198									0.86592	4.17182				
0.592929	2.83593	0.451463	2.14238									0.867641	4.16143				
0.594478	2.83073	0.453541	2.14277									0.869355	4.1511				
0.596029	2.82558	0.455619	2.14315									0.871061	4.14082				
0.597583	2.82048	0.457698	2.14353									0.87276	4.1306				
0.599139	2.81545	0.459776	2.14391									0.874451	4.12044				
0.600698	2.81047	0.461854	2.14429									0.876136	4.11033				
0.602259	2.80554	0.463932	2.14466									0.877814	4.10029				
0.603823	2.80067	0.466011	2.14503									0.879486	4.09029				
0.60539	2.79586	0.468089	2.14539									0.881151	4.08036				
0.606959	2.79109	0.470167	2.14575									0.88281	4.07048				
0.60853	2.78638	0.472245	2.14611									0.884463	4.06065				
0.610104	2.78172	0.474323	2.14647									0.886109	4.05089				
0.61168	2.77711	0.476401	2.14682									0.88775	4.04117				
0.613259	2.77255	0.478479	2.14717									0.889386	4.03152				
0.614841	2.76804	0.480558	2.14752									0.891015	4.02192				
0.616424	2.76358	0.482636	2.14786									0.89264	4.01238				
0.618011	2.75917	0.484714	2.1482									0.894259	4.0029				
0.619599	2.7548	0.486792	2.14854									0.895873	3.99347				
0.62119	2.75048	0.48887	2.14887									0.897482	3.98409				
0.622784	2.74621	0.490948	2.14921									0.899087	3.97477				
0.62438	2.74198	0.493025	2.14954									0.900686	3.96551				
0.625978	2.7378	0.495103	2.14986									0.902282	3.95631				
0.627579	2.73366	0.497181	2.15019									0.903872	3.94716				
0.629182	2.72956	0.499259	2.15051									0.905459	3.93806				
0.630787	2.72551	0.501337	2.15083									0.907041	3.92902				
0.632395	2.7215	0.503415	2.15114									0.908619	3.92004				
0.634005	2.71754	0.505493	2.15146									0.910193	3.91111				
0.635618	2.71361	0.507571	2.15177									0.911763	3.90223				
0.637232	2.70973	0.509648	2.15207									0.913329	3.89341				
0.638849	2.70588	0.511726	2.15238									0.914892	3.88464				
0.640469	2.70208	0.513804	2.15268									0.916451	3.87593				
0.64209	2.69831	0.515882	2.15298									0.918007	3.86727				
0.643714	2.69459	0.517959	2.15328									0.919559	3.85867				
0.64534	2.6909	0.520037	2.15358									0.921108	3.85011				
0.646969	2.68725	0.522115	2.15387									0.922654	3.84161				
0.648599	2.68364	0.524192	2.15416									0.924197	3.83317				
0.650232	2.68006	0.52627	2.15445									0.925737	3.82478				
0.651867	2.67652	0.528348	2.15474									0.927275	3.81644				
0.653504	2.67302	0.530425	2.15503									0.928809	3.80815				
0.655144	2.66955	0.532503	2.15531									0.930341	3.79991				
0.656785	2.66612	0.534581	2.15559									0.93187	3.79173				
0.658429	2.66272	0.536658	2.15587									0.933396	3.7836				
0.660075	2.65936	0.538736	2.15614									0.93492	3.77552				
0.661723	2.65603	0.540813	2.15642									0.936442	3.76749				
0.663373	2.65273	0.542891	2.15669									0.937962	3.75951				
0.665025	2.64947	0.544968	2.15696									0.939479	3.75158				
0.66668	2.64623	0.547046	2.15722									0.940994	3.7437				
0.668336	2.64303	0.549123	2.15749									0.942507	3.73587				
0.669995	2.63987	0.551201	2.15775									0.944018	3.7281				
0.671656	2.63673	0.553278	2.15802									0.945528	3.72037				
0.673318	2.63363	0.555356	2.15828									0.947035	3.71269				
0.674983	2.63055	0.557433	2.15853									0.948541	3.70506				
0.67665	2.62751	0.55951	2.15879									0.950045	3.69748				
0.678319	2.62449	0.561588	2.15904									0.951547	3.68994				
0.679989	2.62151	0.563665	2.1593									0.953047	3.68246				
0.681662	2.61855	0.565742	2.15955									0.954547	3.67502				
0.683337	2.61562	0.56782	2.15979									0.956044	3.66763				
0.685014	2.61272	0.569897	2.16004									0.957541	3.66029				
0.686693	2.60985	0.571974	2.16029									0.959036	3.65299				
0.688373	2.60701	0.574052	2.16053									0.960529	3.64574				
0.690056	2.60419	0.576129	2.16077									0.962022	3.63854				
0.691741	2.6014	0.578206	2.16101									0.963513	3.63139				
0.693427	2.59864	0.580284	2.16125									0.965004	3.62428				
0.695116	2.5959	0.582361	2.16148									0.966493	3.61721				
0.696806	2.59319	0.584438	2.16172									0.967981	3.61019				
0.698498	2.59051	0.586515	2.16195									0.969468	3.60322				
0.700192	2.58785	0.588593	2.16218									0.970954	3.59629				
0.701888	2.58522	0.59067	2.16241									0.97244	3.5894				
0.703586	2.58261	0.592747	2.16264									0.973925	3.58256				
0.705286	2.58002	0.594824	2.16287									0.975409	3.57577				
0.706987	2.57746	0.596901	2.16309									0.976892	3.56902				
0.708691	2.57493	0.598978	2.16331									0.978374	3.56231				
0.710396	2.57241	0.601056	2.16354									0.979856	3.55564				
0.712103	2.56992	0.603133	2.16376									0.981337	3.54902				
0.713812	2.56746	0.60521	2.16397									0.982818	3.54243				
0.715522	2.56501	0.607287	2.16419									0.984298	3.5359				
0.717234	2.56259	0.609364	2.16441									0.985778	3.5294				
0.718949	2.5602	0.611441	2.16462									0.987257	3.52294				
0.720664	2.55782	0.613518	2.16483									0.988736	3.51653				
0.722382	2.55546	0.615595	2.16504									0.990215	3.51016				
0.724101	2.55313	0.617672	2.16525									0.991693	3.50383				
0.725822	2.55082	0.619749	2.16546									0.993171	3.49753				
0.727545	2.54853	0.621826	2.16567									0.994649	3.49128				
0.729269	2.54626	0.623903	2.16588									0.996127	3.48507				
0.730995	2.54401	0.62598	2.16608									0.997604	3.4789				
0.732723	2.54178	0.628057	2.16628									0.999081	3.47277				
0.734453	2.53957	0.630134	2.16648									1.00056	3.46668				
0.736184	2.53739	0.632211	2.16669														
0.737917	2.53522	0.634288	2.16688														
0.739651	2.53307	0.636365	2.16708														
0.741387	2.53094	0.638442	2.16728														
0.743125	2.52883	0.640519	2.16747														
0.744864	2.52673	0.642596	2.16767														
0.746605	2.52466	0.644672	2.16786														
0.748347	2.5226	0.646749	2.16805														
0.750091	2.52057	0.648826	2.16824														
0.751837	2.51855	0.650903	2.16843														
0.753584	2.51655	0.65298	2.16862														
0.755333	2.51456	0.655057	2.1688														
0.757083	2.5126	0.657133	2.16899														
0.758835	2.51065	0.65921	2.16917														
0.760588	2.50871	0.661287	2.16936														
0.762343	2.5068	0.663364	2.16954														
0.764099	2.5049	0.665441	2.16972														
0.765857	2.50302	0.667517	2.1699														
0.767617	2.50115	0.669594	2.17008														
0.769377	2.4993	0.671671	2.17025														
0.77114	2.49747	0.673748	2.17043														
0.772903	2.49565	0.675824	2.17061														
0.774669	2.49385	0.677901	2.17078														
0.776435	2.49206	0.679978	2.17095														
0.778203	2.49029	0.682054	2.17113														
0.779973	2.48853	0.684131	2.1713														
0.781744	2.48679	0.686208	2.17147														
0.783516	2.48506	0.688284	2.17163														
0.78529	2.48335	0.690361	2.1718														
0.787065	2.48165	0.692438	2.17197														
0.788841	2.47997	0.694514	2.17214														
0.790619	2.4783	0.696591	2.1723														
0.792398	2.47664	0.698668	2.17246														
0.794179	2.475	0.700744	2.17263														
0.795961	2.47337	0.702821	2.17279														
0.797744	2.47175	0.704897	2.17295														
0.799529	2.47015	0.706974	2.17311														
0.801315	2.46857	0.709051	2.17327														
0.803102	2.46699	0.711127	2.17343														
0.804891	2.46543	0.713204	2.17358														
0.806681	2.46388	0.71528	2.17374														
0.808472	2.46234	0.717357	2.1739														
0.810264	2.46082	0.719433	2.17405														
0.812058	2.45931	0.72151	2.1742														
0.813853	2.45781	0.723586	2.17436														
0.815649	2.45632	0.725663	2.17451														
0.817447	2.45485	0.727739	2.17466														
0.819246	2.45339	0.729816	2.17481														
0.821046	2.45194	0.731892	2.17496														
0.822847	2.4505	0.733968	2.17511														
0.824649	2.44907	0.736045	2.17525														
0.826453	2.44765	0.738121	2.1754														
0.828258	2.44625	0.740198	2.17555														
0.830064	2.44486	0.742274	2.17569														
0.831871	2.44347	0.744351	2.17584														
0.83368	2.4421	0.746427	2.17598														
0.83549	2.44074	0.748503	2.17612														
0.837301	2.43939	0.75058	2.17626														
0.839113	2.43805	0.752656	2.1764														
0.840926	2.43673	0.754733	2.17654														
0.84274	2.43541	0.756809	2.17668														
0.844556	2.4341	0.758885	2.17682														
0.846372	2.4328	0.760962	2.17696														
0.84819	2.43152	0.763038	2.1771														
0.850009	2.43024	0.765114	2.17723														
0.851829	2.42897	0.767191	2.17737														
0.85365	2.42772	0.769267	2.1775														
0.855472	2.42647	0.771343	2.17764														
0.857296	2.42523	0.773419	2.17777														
0.85912	2.42401	0.775496	2.17791														
0.860946	2.42279	0.777572	2.17804														
0.862772	2.42158	0.779648	2.17817														
0.8646	2.42038	0.781724	2.1783														
0.866429	2.41919	0.783801	2.17843														
0.868259	2.41801	0.785877	2.17856														
0.870089	2.41684	0.787953	2.17869														
0.871921	2.41567	0.790029	2.17881														
0.873754	2.41452	0.792106	2.17894														
0.875588	2.41337	0.794182	2.17907														
0.877423	2.41224	0.796258	2.17919														
0.879259	2.41111	0.798334	2.17932														
0.881097	2.40999	0.80041	2.17944														
0.882935	2.40888	0.802487	2.17957														
0.884774	2.40777	0.804563	2.17969														
0.886614	2.40668	0.806639	2.17981														
0.888455	2.40559	0.808715	2.17993														
0.890297	2.40452	0.810791	2.18006														
0.89214	2.40344	0.812867	2.18018														
0.893984	2.40238	0.814943	2.1803														
0.895829	2.40133	0.81702	2.18042														
0.897675	2.40028	0.819096	2.18053														
0.899522	2.39924	0.821172	2.18065														
0.90137	2.39821	0.823248	2.18077														
0.903219	2.39719	0.825324	2.18089														
0.905069	2.39617	0.8274	2.181														
0.90692	2.39517	0.829476	2.18112														
0.908771	2.39417	0.831552	2.18124														
0.910624	2.39317	0.833628	2.18135														
0.912478	2.39219	0.835704	2.18146														
0.914332	2.39121	0.83778	2.18158														
0.916187	2.39024	0.839856	2.18169														
0.918044	2.38927	0.841932	2.1818														
0.919901	2.38831	0.844008	2.18191														
0.921759	2.38736	0.846084	2.18203														
0.923618	2.38642	0.84816	2.18214														
0.925478	2.38548	0.850236	2.18225														
0.927339	2.38455	0.852312	2.18236														
0.9292	2.38363	0.854388	2.18246														
0.931063	2.38271	0.856464	2.18257														
0.932926	2.3818	0.85854	2.18268														
0.93479	2.3809	0.860616	2.18279														
0.936655	2.38	0.862692	2.1829														
0.938521	2.37911	0.864768	2.183														
0.940388	2.37822	0.866844	2.18311														
0.942256	2.37734	0.86892	2.18321														
0.944124	2.37647	0.870996	2.18332														
0.945993	2.37561	0.873072	2.18342														
0.947864	2.37475	0.875148	2.18353														
0.949735	2.37389	0.877224	2.18363														
0.951606	2.37304	0.879299	2.18373														
0.953479	2.3722	0.881375	2.18383														
0.955352	2.37137	0.883451	2.18394														
0.957227	2.37054	0.885527	2.18404														
0.959102	2.36971	0.887603	2.18414														
0.960977	2.36889	0.889679	2.18424														
0.962854	2.36808	0.891755	2.18434														
0.964731	2.36727	0.89383	2.18444														
0.96661	2.36647	0.895906	2.18454														
0.968488	2.36568	0.897982	2.18464														
0.970368	2.36489	0.900058	2.18473														
0.972249	2.3641	0.902134	2.18483														
0.97413	2.36332	0.90421	2.18493														
0.976012	2.36255	0.906285	2.18503														
0.977895	2.36178	0.908361	2.18512														
0.979778	2.36101	0.910437	2.18522														
0.981663	2.36026	0.912513	2.18531														
0.983548	2.3595	0.914588	2.18541														
0.985433	2.35875	0.916664	2.1855														
0.98732	2.35801	0.91874	2.1856														
0.989207	2.35727	0.920816	2.18569														
0.991095	2.35654	0.922892	2.18578														
0.992984	2.35581	0.924967	2.18588														
0.994873	2.35509	0.927043	2.18597														
0.996763	2.35437	0.929119	2.18606														
0.998654	2.35366	0.931194	2.18615														
1.00055	2.35295	0.93327	2.18624														
		0.935346	2.18633														
		0.937422	2.18642														
		0.939497	2.18651														
		0.941573	2.1866														
		0.943649	2.18669														
		0.945724	2.18678														
		0.9478	2.18687														
		0.949876	2.18696														
		0.951951	2.18704														
		0.954027	2.18713														
		0.956102	2.18722														
		0.958178	2.1873														
		0.960254	2.18739														
		0.962329	2.18748														
		0.964405	2.18756														
		0.96648	2.18765														
		0.968556	2.18773														
		0.970632	2.18781														
		0.972707	2.1879														
		0.974783	2.18798														
		0.976858	2.18806														
		0.978934	2.18815														
		0.981009	2.18823														
		0.983085	2.18831														
		0.985161	2.18839														
		0.987236	2.18847														
		0.989312	2.18855														
		0.991387	2.18864														
		0.993463	2.18872														
		0.995538	2.1888														
		0.997614	2.18887														
		0.999689	2.18895														
		1.00176	2.18903														
