Sym0		Asym0		Sym1		Sym2		Sym3		Asym1		Asym2		Asym3	
455  Points		493  Points		159  Points		127  Points		104  Points		296  Points		139  Points		110  Points	
Freq (MHz)	Vph (m/ms)	Freq (MHz)	Vph (m/ms)	Freq (MHz)	Vph (m/ms)	Freq (MHz)	Vph (m/ms)	Freq (MHz)	Vph (m/ms)	Freq (MHz)	Vph (m/ms)	Freq (MHz)	Vph (m/ms)	Freq (MHz)	Vph (m/ms)
0.00104224	8.19149	4.07441e-005	0.0695495	0.279568	357.938	0.549237	1614.61	0.559045	1012.55	0.139763	730.959	0.419264	3287.75	0.698779	1622.67
0.00867359	8.1909	0.000272578	0.17962	0.279797	163.361	0.54924	431.839	0.559218	376.88	0.140067	124.737	0.419341	395.896	0.698847	512.979
0.016303	8.18988	0.000705519	0.288059	0.280195	105.956	0.549249	249.255	0.559545	231.647	0.140799	68.5287	0.419538	210.726	0.698986	304.698
0.0239286	8.18821	0.001332	0.393975	0.280762	78.51	0.54927	175.192	0.56002	167.31	0.14195	47.5337	0.419855	143.658	0.699196	216.757
0.0315486	8.18591	0.00214138	0.496539	0.281498	62.4463	0.549311	135.067	0.560635	131.023	0.143507	36.6278	0.420293	109.045	0.699477	168.248
0.0391612	8.18295	0.00312113	0.595146	0.282399	51.9161	0.549382	109.906	0.561379	107.738	0.145456	29.9929	0.420849	87.9335	0.699828	137.515
0.0467647	8.17935	0.00425696	0.689275	0.283465	44.4914	0.549491	92.6577	0.562247	91.5371	0.147777	25.5609	0.421525	73.7229	0.70025	116.305
0.0543571	8.1751	0.00553395	0.778586	0.284692	38.9833	0.549647	80.0997	0.563229	79.6199	0.150449	22.4114	0.422319	63.5125	0.700743	100.79
0.0619365	8.17019	0.00693698	0.862874	0.286079	34.741	0.549855	70.5509	0.56432	70.49	0.153451	20.0727	0.42323	55.8272	0.701305	88.9508
0.069501	8.16459	0.00845126	0.942055	0.287622	31.3781	0.550122	63.0481	0.565515	63.2753	0.156761	18.278	0.424258	49.8378	0.701938	79.6219
0.0770484	8.1583	0.0100627	1.01615	0.289318	28.651	0.550452	56.9997	0.566809	57.4329	0.160356	16.8651	0.425402	45.0424	0.70264	72.0835
0.084577	8.15131	0.0117585	1.08528	0.291164	26.3981	0.550851	52.022	0.568198	52.6072	0.164215	15.7296	0.426659	41.1192	0.703412	65.867
0.0920843	8.1436	0.0135266	1.14962	0.293156	24.5085	0.551322	47.8557	0.56968	48.5559	0.168317	14.8016	0.42803	37.8525	0.704253	60.6541
0.0995683	8.13515	0.0153565	1.20938	0.295291	22.903	0.551868	44.3189	0.571252	45.1078	0.172643	14.0323	0.429513	35.0922	0.705163	56.2212
0.107027	8.12594	0.0172387	1.2648	0.297564	21.524	0.552491	41.2803	0.572912	42.1388	0.177174	13.3868	0.431107	32.7309	0.706142	52.4063
0.114457	8.11596	0.019165	1.31617	0.299973	20.3282	0.553194	38.6428	0.574659	39.5566	0.181893	12.8395	0.432809	30.6893	0.707189	49.0897
0.121856	8.10518	0.0211283	1.36373	0.302513	19.2829	0.55398	36.333	0.576492	37.2911	0.186784	12.3712	0.434619	28.9079	0.708304	46.1804
0.129222	8.09357	0.0231222	1.40777	0.30518	18.3624	0.55485	34.2945	0.578408	35.2883	0.191175	12.0159	0.436535	27.341	0.709486	43.6085
0.136552	8.0811	0.0251416	1.44855	0.30797	17.5466	0.555806	32.483	0.580407	33.5057	0.195007	11.7457	0.438556	25.9531	0.710736	41.3191
0.143844	8.06776	0.0269186	1.48163	0.31088	16.8195	0.556851	30.8635	0.582489	31.9097	0.198232	11.5421	0.440679	24.7159	0.712052	39.2686
0.151093	8.0535	0.0284441	1.50814	0.313906	16.1682	0.557985	29.4078	0.584652	30.4728	0.200816	11.3924	0.442902	23.6071	0.713435	37.4221
0.158297	8.0383	0.0297119	1.52897	0.317043	15.5821	0.55921	28.0929	0.586896	29.1731	0.202735	11.2882	0.445225	22.6081	0.714883	35.7509
0.165452	8.02211	0.0307179	1.54476	0.32029	15.0524	0.560528	26.9	0.589221	27.9923	0.203971	11.2239	0.447644	21.7042	0.716396	34.2316
0.172556	8.00491	0.0314595	1.55602	0.323643	14.5719	0.561941	25.8136	0.591625	26.9152	0.205759	11.1347	0.450159	20.8827	0.717975	32.8448
0.179603	7.98664	0.0319348	1.56306	0.327098	14.1345	0.56345	24.8207	0.594109	25.9291	0.207716	11.0418	0.452767	20.1335	0.719617	31.5742
0.18659	7.96727	0.032619	1.57298	0.330653	13.7352	0.565056	23.9101	0.596671	25.0235	0.2104	10.9217	0.455467	19.4479	0.721324	30.4061
0.193514	7.94676	0.033364	1.5835	0.334306	13.3695	0.56676	23.0726	0.599313	24.1891	0.213829	10.7795	0.458256	18.8183	0.723093	29.3288
0.200369	7.92505	0.0343789	1.59736	0.338054	13.0337	0.568565	22.3002	0.602033	23.4182	0.218027	10.6205	0.461132	18.2386	0.724925	28.3324
0.207152	7.90211	0.0356652	1.6142	0.341896	12.7248	0.570471	21.5861	0.604831	22.7042	0.223015	10.4502	0.464094	17.7034	0.726819	27.4084
0.213856	7.87789	0.0372242	1.63359	0.34583	12.4398	0.572478	20.9244	0.607707	22.0413	0.228819	10.2737	0.467139	17.208	0.728775	26.5494
0.220479	7.85235	0.039057	1.65505	0.349332	12.2092	0.574589	20.31	0.610661	21.4245	0.2347	10.1146	0.470266	16.7483	0.730791	25.7489
0.227014	7.82543	0.0411645	1.6781	0.352372	12.0246	0.576804	19.7382	0.613693	20.8493	0.240652	9.97078	0.473473	16.321	0.732868	25.0013
0.233457	7.7971	0.0432756	1.69961	0.354922	11.8796	0.579124	19.2053	0.616802	20.312	0.246668	9.84018	0.476757	15.9228	0.735005	24.3018
0.239802	7.76731	0.0453891	1.71969	0.356963	11.7697	0.581549	18.7077	0.61999	19.8092	0.252742	9.72117	0.480117	15.5511	0.7372	23.646
0.246043	7.73603	0.0475045	1.73847	0.358477	11.6913	0.58408	18.2424	0.623255	19.3379	0.258868	9.61233	0.483551	15.2035	0.739454	23.03
0.252177	7.70322	0.0496211	1.75605	0.359452	11.6423	0.586717	17.8066	0.626598	18.8954	0.265041	9.51246	0.487057	14.8779	0.741765	22.4505
0.258197	7.66886	0.0517384	1.77254	0.360862	11.5732	0.589461	17.3979	0.63002	18.4794	0.271257	9.42053	0.490633	14.5725	0.744133	21.9045
0.264099	7.63292	0.0538559	1.78801	0.362405	11.4999	0.59231	17.0141	0.63352	18.0877	0.27751	9.33562	0.494278	14.2854	0.746558	21.3893
0.269877	7.59541	0.0559733	1.80255	0.364522	11.4033	0.595264	16.6533	0.637099	17.7186	0.283797	9.25697	0.497989	14.0152	0.749039	20.9024
0.275528	7.5563	0.0580905	1.81624	0.367229	11.286	0.598324	16.3136	0.640758	17.3702	0.290113	9.18389	0.501765	13.7607	0.751574	20.4417
0.281047	7.51563	0.0602072	1.82914	0.370548	11.1508	0.601487	15.9936	0.644496	17.0412	0.296455	9.11579	0.505604	13.5205	0.754164	20.0052
0.286431	7.4734	0.0623232	1.8413	0.374503	11.001	0.604754	15.6917	0.648314	16.73	0.302819	9.05215	0.509505	13.2936	0.756808	19.5911
0.291676	7.42965	0.0644384	1.85279	0.379126	10.8402	0.608121	15.4066	0.652213	16.4355	0.309202	8.99251	0.513466	13.079	0.759505	19.1979
0.296781	7.38443	0.0665527	1.86366	0.383839	10.6901	0.611589	15.1372	0.656195	16.1565	0.315601	8.93646	0.517485	12.8758	0.762254	18.8241
0.301743	7.33779	0.0686661	1.87395	0.388641	10.5501	0.615154	14.8822	0.660258	15.892	0.322013	8.88365	0.521561	12.6832	0.765054	18.4683
0.306562	7.2898	0.0707786	1.88371	0.393533	10.4194	0.618814	14.6408	0.664405	15.641	0.328434	8.83375	0.525158	12.5234	0.767906	18.1294
0.311236	7.24055	0.07289	1.89296	0.398514	10.2972	0.622568	14.4119	0.668636	15.4028	0.334863	8.78648	0.528258	12.3928	0.770808	17.8062
0.315768	7.19012	0.0750006	1.90176	0.403585	10.1831	0.626412	14.1947	0.672952	15.1765	0.341296	8.74158	0.530843	12.2885	0.773759	17.4978
0.320157	7.13861	0.07711	1.91012	0.408743	10.0764	0.630343	13.9885	0.677354	14.9614	0.347732	8.69882	0.532901	12.2082	0.77676	17.2032
0.324405	7.08612	0.0792185	1.91808	0.413989	9.97657	0.634358	13.7924	0.681843	14.7569	0.354167	8.658	0.534422	12.1504	0.779808	16.9216
0.328514	7.03276	0.081326	1.92567	0.41932	9.88314	0.638453	13.6058	0.686421	14.5623	0.360599	8.61893	0.535399	12.114	0.782904	16.6521
0.332488	6.97864	0.0834326	1.93291	0.424735	9.79565	0.642626	13.4282	0.691088	14.3771	0.367026	8.58145	0.536808	12.0623	0.786047	16.3941
0.33633	6.92388	0.0855382	1.93982	0.43023	9.71367	0.646872	13.2588	0.695845	14.2008	0.373445	8.54539	0.538345	12.0071	0.789237	16.1468
0.340043	6.86857	0.0876429	1.94642	0.435804	9.6368	0.651188	13.0971	0.700693	14.033	0.379855	8.51063	0.540447	11.9335	0.792471	15.9097
0.343631	6.81284	0.0897468	1.95274	0.441452	9.56465	0.65557	12.9427	0.705634	13.873	0.386254	8.47703	0.543122	11.8429	0.795751	15.6822
0.347099	6.75679	0.0918497	1.95879	0.447172	9.49687	0.659438	12.8137	0.710667	13.7207	0.392638	8.44448	0.546381	11.7369	0.799075	15.4638
0.350451	6.70051	0.0939519	1.96459	0.45296	9.43313	0.662772	12.7076	0.715795	13.5755	0.399007	8.41287	0.550238	11.6171	0.802442	15.2539
0.353691	6.64411	0.0960533	1.97014	0.458811	9.37312	0.665551	12.6223	0.721016	13.4371	0.405357	8.38211	0.554709	11.4856	0.805853	15.0522
0.356825	6.58767	0.098154	1.97548	0.464722	9.31654	0.667763	12.5565	0.726333	13.3051	0.411688	8.35211	0.559225	11.3599	0.809305	14.8581
0.359856	6.53128	0.100254	1.9806	0.470688	9.26313	0.669397	12.509	0.731745	13.1793	0.417997	8.32278	0.563788	11.2399	0.8128	14.6713
0.362789	6.47502	0.102353	1.98553	0.476705	9.21263	0.670447	12.4789	0.737251	13.0594	0.424282	8.29405	0.568394	11.1251	0.816335	14.4914
0.365628	6.41896	0.104452	1.99027	0.48277	9.16481	0.671959	12.4362	0.742128	12.9594	0.43054	8.26586	0.573045	11.0152	0.819911	14.3181
0.368379	6.36317	0.10655	1.99483	0.488877	9.11944	0.67361	12.3905	0.746342	12.8773	0.436771	8.23813	0.577738	10.9101	0.823527	14.151
0.371045	6.3077	0.108647	1.99922	0.495022	9.07634	0.675864	12.3293	0.749866	12.8116	0.442973	8.2108	0.582473	10.8093	0.827181	13.9898
0.37363	6.25262	0.110744	2.00346	0.501202	9.0353	0.678729	12.2536	0.752677	12.761	0.449142	8.18383	0.58725	10.7127	0.830875	13.8343
0.376139	6.19797	0.11284	2.00754	0.507413	8.99618	0.682217	12.1646	0.754759	12.7245	0.455279	8.15716	0.592068	10.6201	0.834606	13.6841
0.378575	6.14378	0.114936	2.01149	0.513652	8.95879	0.686336	12.0634	0.756097	12.7014	0.461379	8.13074	0.596926	10.5312	0.838375	13.5391
0.380942	6.09011	0.117031	2.01529	0.519914	8.92301	0.691098	11.9514	0.758029	12.6688	0.467443	8.10452	0.601823	10.4459	0.842181	13.399
0.383243	6.03699	0.119126	2.01897	0.526196	8.8887	0.695895	11.8435	0.760141	12.6338	0.473467	8.07848	0.60676	10.364	0.845528	13.2807
0.385483	5.98444	0.12122	2.02253	0.532496	8.85574	0.700724	11.7396	0.763032	12.5872	0.479451	8.05256	0.611736	10.2853	0.848402	13.1825
0.387664	5.93249	0.123314	2.02597	0.538809	8.82401	0.705582	11.6393	0.76672	12.5297	0.485392	8.02674	0.61675	10.2097	0.850793	13.1031
0.389789	5.88116	0.125407	2.0293	0.545134	8.79342	0.710468	11.5425	0.771225	12.4624	0.491289	8.00098	0.621801	10.137	0.852693	13.0415
0.391862	5.83048	0.1275	2.03252	0.551468	8.76388	0.715379	11.449	0.776573	12.3863	0.49714	7.97526	0.62689	10.067	0.854096	12.9968
0.393885	5.78045	0.129593	2.03565	0.557808	8.73529	0.720314	11.3586	0.782794	12.3027	0.502943	7.94954	0.632017	9.99974	0.854996	12.9685
0.395861	5.73109	0.131685	2.03868	0.564151	8.70759	0.725271	11.2711	0.789102	12.2229	0.508697	7.9238	0.637179	9.93497	0.856293	12.9281
0.397793	5.6824	0.133777	2.04161	0.570497	8.68069	0.730247	11.1865	0.795495	12.1466	0.514401	7.89802	0.642378	9.87262	0.857706	12.8847
0.399683	5.63441	0.135868	2.04446	0.576841	8.65453	0.735244	11.1046	0.801972	12.0737	0.520052	7.87218	0.647613	9.81256	0.859636	12.8265
0.401533	5.5871	0.137959	2.04723	0.583183	8.62906	0.740258	11.0252	0.80853	12.0041	0.52565	7.84625	0.652883	9.75471	0.862088	12.7542
0.403114	5.54645	0.14005	2.04991	0.58952	8.60422	0.745291	10.9482	0.815168	11.9375	0.531193	7.82023	0.658188	9.69895	0.86507	12.6686
0.404441	5.51221	0.142141	2.05252	0.595852	8.57995	0.75034	10.8735	0.821882	11.8738	0.53668	7.79411	0.663527	9.64521	0.868592	12.5707
0.405523	5.48419	0.144231	2.05506	0.602175	8.55621	0.755405	10.8011	0.828671	11.8129	0.54211	7.76786	0.668901	9.59339	0.872664	12.4616
0.40637	5.46221	0.146321	2.05752	0.608488	8.53295	0.760486	10.7308	0.835533	11.7546	0.547481	7.74147	0.674307	9.54341	0.876769	12.3558
0.406989	5.44616	0.148411	2.05992	0.61479	8.51014	0.765583	10.6625	0.842464	11.6988	0.552793	7.71495	0.679747	9.49519	0.880905	12.2532
0.407382	5.43594	0.1505	2.06225	0.62108	8.48774	0.770695	10.5962	0.849463	11.6453	0.558045	7.68828	0.685218	9.44865	0.885073	12.1537
0.407945	5.4213	0.152589	2.06452	0.627356	8.46572	0.775822	10.5318	0.856528	11.594	0.563237	7.66146	0.690722	9.40372	0.889271	12.0571
0.408553	5.40548	0.154679	2.06674	0.633616	8.44403	0.780964	10.4692	0.863654	11.5449	0.568366	7.63448	0.696256	9.36033	0.893501	11.9633
0.409374	5.38411	0.156767	2.06889	0.63986	8.42266	0.78612	10.4083	0.870842	11.4978	0.573433	7.60734	0.701819	9.31842	0.89776	11.8722
0.410402	5.3573	0.158856	2.07099	0.646086	8.40157	0.791292	10.3491	0.878087	11.4526	0.578438	7.58004	0.707413	9.27791	0.902049	11.7838
0.411632	5.32524	0.160944	2.07304	0.652292	8.38075	0.796479	10.2916	0.885387	11.4091	0.583379	7.55258	0.713034	9.23874	0.906367	11.6978
0.413055	5.28811	0.163032	2.07503	0.658479	8.36016	0.801681	10.2356	0.892741	11.3674	0.588257	7.52497	0.718683	9.20086	0.910713	11.6142
0.414665	5.24615	0.16512	2.07698	0.664644	8.33978	0.806898	10.1811	0.900146	11.3273	0.593071	7.4972	0.724359	9.16421	0.915089	11.533
0.416251	5.20486	0.167208	2.07887	0.670787	8.3196	0.81213	10.128	0.9076	11.2888	0.597822	7.46928	0.730059	9.12873	0.919492	11.454
0.417814	5.16425	0.169296	2.08073	0.676906	8.29959	0.817377	10.0764	0.9151	11.2517	0.602509	7.44121	0.735785	9.09437	0.923922	11.3772
0.419356	5.1243	0.171383	2.08254	0.683001	8.27973	0.822639	10.0261	0.922644	11.2159	0.607132	7.41301	0.741533	9.06108	0.92838	11.3024
0.420879	5.085	0.173471	2.0843	0.68907	8.26002	0.827917	9.97713	0.93023	11.1815	0.611691	7.38467	0.747304	9.02881	0.932865	11.2296
0.422382	5.04636	0.175558	2.08603	0.695113	8.24042	0.83321	9.92943	0.937855	11.1483	0.616187	7.3562	0.753096	8.9975	0.937376	11.1588
0.423867	5.00836	0.177645	2.08771	0.701129	8.22094	0.838519	9.88297	0.945518	11.1163	0.62062	7.32762	0.758908	8.96712	0.941913	11.0898
0.425336	4.97099	0.179731	2.08936	0.707117	8.20155	0.843844	9.83769	0.953216	11.0854	0.62499	7.29893	0.764738	8.93762	0.946476	11.0226
0.42679	4.93425	0.181818	2.09097	0.713075	8.18224	0.849184	9.79357	0.960947	11.0555	0.629297	7.27013	0.770586	8.90896	0.951065	10.9571
0.428229	4.89812	0.183905	2.09254	0.719004	8.16299	0.85454	9.75057	0.968709	11.0266	0.633543	7.24124	0.77645	8.88109	0.955678	10.8933
0.429654	4.8626	0.185991	2.09408	0.724902	8.14381	0.859912	9.70866	0.976499	10.9986	0.637728	7.21226	0.782329	8.85397	0.960316	10.8312
0.431066	4.82768	0.188077	2.09559	0.730768	8.12468	0.8653	9.66779	0.984315	10.9715	0.641851	7.18321	0.788221	8.82758	0.964978	10.7706
0.432466	4.79335	0.190163	2.09706	0.736602	8.10558	0.870704	9.62794	0.992154	10.9452	0.645915	7.15409	0.794126	8.80187	0.969664	10.7115
0.433855	4.75959	0.192249	2.09851	0.742403	8.08651	0.876123	9.58908	1.00001	10.9197	0.649919	7.12491	0.800042	8.77681	0.974374	10.6539
0.435233	4.7264	0.194335	2.09992	0.748171	8.06746	0.881559	9.55118			0.653864	7.09569	0.805968	8.75236	0.979108	10.5977
0.436602	4.69377	0.196421	2.1013	0.753904	8.04842	0.88701	9.5142			0.657751	7.06642	0.811902	8.72849	0.983864	10.5428
0.437961	4.66169	0.198507	2.10266	0.759602	8.02938	0.892478	9.47812			0.661581	7.03713	0.817844	8.70517	0.988644	10.4893
0.439312	4.63015	0.200592	2.10399	0.765264	8.01035	0.897961	9.44292			0.665354	7.00781	0.823791	8.68237	0.993446	10.4371
0.440654	4.59914	0.202678	2.10529	0.77089	7.99131	0.903459	9.40856			0.669071	6.97849	0.829743	8.66007	0.99827	10.3861
0.44199	4.56865	0.204763	2.10656	0.77648	7.97225	0.908973	9.37502			0.672734	6.94916	0.835699	8.63823	1.00312	10.3363
0.443319	4.53868	0.206848	2.10781	0.782032	7.95317	0.914503	9.34228			0.676342	6.91983	0.841657	8.61683		
0.444641	4.50921	0.208933	2.10903	0.787546	7.93407	0.920047	9.3103			0.679897	6.89052	0.847617	8.59585		
0.445958	4.48023	0.211019	2.11023	0.793022	7.91495	0.925607	9.27908			0.6834	6.86123	0.853576	8.57526		
0.447269	4.45173	0.213104	2.11141	0.798459	7.89579	0.931181	9.24858			0.686851	6.83198	0.859534	8.55504		
0.448575	4.42371	0.215188	2.11257	0.803857	7.8766	0.93677	9.21878			0.690251	6.80275	0.86549	8.53517		
0.449877	4.39616	0.217273	2.1137	0.809216	7.85738	0.942373	9.18966			0.693602	6.77358	0.871442	8.51562		
0.451175	4.36906	0.219358	2.11481	0.814534	7.83811	0.94799	9.1612			0.696903	6.74445	0.877389	8.49639		
0.452469	4.34241	0.221443	2.11591	0.819813	7.81881	0.953621	9.13338			0.700157	6.71539	0.883331	8.47744		
0.45376	4.31621	0.223527	2.11698	0.825051	7.79946	0.959265	9.10618			0.703363	6.68639	0.889267	8.45877		
0.455047	4.29043	0.225612	2.11803	0.830249	7.78007	0.964922	9.07958			0.706523	6.65746	0.895194	8.44035		
0.456333	4.26508	0.227696	2.11906	0.835405	7.76064	0.970591	9.05355			0.709637	6.62861	0.901113	8.42217		
0.457615	4.24015	0.22978	2.12008	0.840521	7.74116	0.976272	9.02808			0.712707	6.59985	0.907022	8.40422		
0.458896	4.21562	0.231865	2.12108	0.845595	7.72164	0.981965	9.00316			0.715733	6.57118	0.91292	8.38647		
0.460175	4.1915	0.233949	2.12206	0.850628	7.70207	0.987669	8.97876			0.718716	6.5426	0.918807	8.36892		
0.461452	4.16776	0.236033	2.12302	0.85562	7.68246	0.993384	8.95486			0.721656	6.51412	0.924681	8.35155		
0.462729	4.14441	0.238117	2.12396	0.860571	7.6628	0.999108	8.93145			0.724556	6.48575	0.930542	8.33435		
0.464004	4.12144	0.240201	2.12489	0.865479	7.6431	1.00484	8.90851			0.727415	6.45749	0.936389	8.31731		
0.465278	4.09884	0.242285	2.12581	0.870347	7.62336					0.730235	6.42934	0.942221	8.30042		
0.466552	4.07661	0.244369	2.12671	0.875173	7.60358					0.733016	6.40132	0.948036	8.28366		
0.467826	4.05472	0.246453	2.12759	0.879957	7.58376					0.735759	6.37341	0.953835	8.26703		
0.469099	4.03319	0.248536	2.12846	0.8847	7.56391					0.738464	6.34564	0.959616	8.25052		
0.470372	4.012	0.25062	2.12931	0.889402	7.54401					0.741134	6.31799	0.96538	8.23411		
0.471646	3.99115	0.252704	2.13016	0.894063	7.52409					0.743768	6.29048	0.971124	8.2178		
0.47292	3.97062	0.254787	2.13098	0.898683	7.50413					0.746366	6.26311	0.976849	8.20158		
0.474195	3.95042	0.256871	2.1318	0.903262	7.48413					0.748931	6.23588	0.982553	8.18544		
0.47547	3.93054	0.258954	2.1326	0.9078	7.46411					0.751463	6.20879	0.988237	8.16938		
0.476746	3.91097	0.261038	2.13339	0.912297	7.44407					0.753962	6.18185	0.993898	8.15339		
0.478023	3.8917	0.263121	2.13416	0.916755	7.424					0.756429	6.15506	0.999538	8.13746		
0.479301	3.87273	0.265205	2.13493	0.921172	7.40391					0.758865	6.12842	1.00516	8.12158		
0.480581	3.85406	0.267288	2.13568	0.925549	7.38379					0.76127	6.10194				
0.481862	3.83567	0.269371	2.13642	0.929886	7.36367					0.763646	6.07561				
0.483144	3.81756	0.271454	2.13715	0.934184	7.34352					0.765993	6.04944				
0.484428	3.79974	0.273538	2.13787	0.938443	7.32336					0.768311	6.02342				
0.485714	3.78218	0.275621	2.13858	0.942663	7.30319					0.770602	5.99757				
0.487002	3.76489	0.277704	2.13928	0.946844	7.28302					0.772866	5.97189				
0.488291	3.74787	0.279787	2.13997	0.950987	7.26283					0.775103	5.94636				
0.489582	3.7311	0.28187	2.14064	0.955092	7.24265					0.777314	5.92101				
0.490876	3.71458	0.283953	2.14131	0.959159	7.22246					0.7795	5.89582				
0.492171	3.69831	0.286036	2.14197	0.963188	7.20227					0.781662	5.8708				
0.493469	3.68228	0.288119	2.14262	0.96718	7.18209					0.783799	5.84594				
0.494769	3.66649	0.290202	2.14326	0.971135	7.16191					0.785913	5.82126				
0.496072	3.65094	0.292285	2.14389	0.975054	7.14173					0.788005	5.79674				
0.497377	3.63561	0.294367	2.14451	0.978936	7.12157					0.790074	5.7724				
0.498684	3.62051	0.29645	2.14512	0.982782	7.10142					0.792121	5.74823				
0.499994	3.60563	0.298533	2.14573	0.986593	7.08128					0.794147	5.72423				
0.501307	3.59097	0.300615	2.14632	0.990368	7.06115					0.796152	5.7004				
0.502622	3.57652	0.302698	2.14691	0.994108	7.04105					0.798137	5.67675				
0.50394	3.56228	0.304781	2.14749	0.997813	7.02096					0.800103	5.65326				
0.50526	3.54825	0.306863	2.14807	1.00148	7.0009					0.802049	5.62995				
0.506584	3.53442	0.308946	2.14863							0.803977	5.60682				
0.50791	3.52078	0.311029	2.14919							0.805886	5.58385				
0.509239	3.50734	0.313111	2.14974							0.807778	5.56106				
0.510571	3.4941	0.315194	2.15028							0.809652	5.53844				
0.511906	3.48104	0.317276	2.15082							0.81151	5.51599				
0.513243	3.46816	0.319358	2.15135							0.813351	5.49372				
0.514584	3.45546	0.321441	2.15187							0.815176	5.47161				
0.515928	3.44295	0.323523	2.15238							0.816986	5.44968				
0.517275	3.43061	0.325606	2.15289							0.818781	5.42791				
0.518625	3.41844	0.327688	2.1534							0.82056	5.40632				
0.519978	3.40643	0.32977	2.15389							0.822326	5.3849				
0.521334	3.3946	0.331853	2.15438							0.824077	5.36364				
0.522693	3.38293	0.333935	2.15487							0.825815	5.34255				
0.524055	3.37141	0.336017	2.15535							0.827539	5.32163				
0.52542	3.36006	0.338099	2.15582							0.829251	5.30088				
0.526789	3.34886	0.340181	2.15628							0.83095	5.28029				
0.528161	3.33781	0.342264	2.15675							0.832637	5.25987				
0.529536	3.32691	0.344346	2.1572							0.834312	5.23961				
0.530914	3.31615	0.346428	2.15765							0.835975	5.21952				
0.532295	3.30555	0.34851	2.1581							0.837627	5.19959				
0.53368	3.29508	0.350592	2.15854							0.839268	5.17982				
0.535068	3.28475	0.352674	2.15897							0.840899	5.16021				
0.536459	3.27456	0.354756	2.1594							0.842519	5.14076				
0.537853	3.26451	0.356838	2.15982							0.844129	5.12147				
0.53925	3.25458	0.35892	2.16024							0.845729	5.10233				
0.540651	3.24479	0.361002	2.16066							0.84732	5.08336				
0.542055	3.23513	0.363084	2.16107							0.848901	5.06454				
0.543462	3.22559	0.365166	2.16147							0.850474	5.04587				
0.544872	3.21617	0.367248	2.16187							0.852038	5.02736				
0.546286	3.20688	0.36933	2.16227							0.853593	5.009				
0.547703	3.19771	0.371412	2.16266							0.85514	4.99079				
0.549123	3.18866	0.373494	2.16305							0.85668	4.97274				
0.550546	3.17972	0.375575	2.16343							0.858211	4.95483				
0.551972	3.17089	0.377657	2.16381							0.859735	4.93707				
0.553402	3.16218	0.379739	2.16419							0.861251	4.91946				
0.554835	3.15358	0.381821	2.16456							0.862761	4.90199				
0.556271	3.14509	0.383903	2.16493							0.864263	4.88467				
0.55771	3.1367	0.385985	2.16529							0.865759	4.8675				
0.559153	3.12842	0.388066	2.16565							0.867249	4.85046				
0.560599	3.12025	0.390148	2.166							0.868732	4.83357				
0.562048	3.11217	0.39223	2.16636							0.870209	4.81682				
0.5635	3.1042	0.394311	2.1667							0.87168	4.8002				
0.564955	3.09632	0.396393	2.16705							0.873145	4.78373				
0.566413	3.08854	0.398475	2.16739							0.874605	4.76739				
0.567875	3.08086	0.400557	2.16773							0.876059	4.75119				
0.569339	3.07327	0.402638	2.16806							0.877509	4.73512				
0.570807	3.06578	0.40472	2.16839							0.878953	4.71919				
0.572278	3.05837	0.406801	2.16872							0.880392	4.70339				
0.573752	3.05106	0.408883	2.16904							0.881827	4.68772				
0.575229	3.04383	0.410965	2.16936							0.883256	4.67218				
0.57671	3.0367	0.413046	2.16968							0.884682	4.65677				
0.578193	3.02964	0.415128	2.16999							0.886103	4.64149				
0.579679	3.02267	0.417209	2.1703							0.88752	4.62634				
0.581169	3.01579	0.419291	2.17061							0.888933	4.61131				
0.582661	3.00899	0.421372	2.17092							0.890343	4.5964				
0.584157	3.00226	0.423454	2.17122							0.891748	4.58162				
0.585655	2.99562	0.425536	2.17152							0.89315	4.56696				
0.587157	2.98906	0.427617	2.17181							0.894549	4.55243				
0.588661	2.98257	0.429698	2.17211							0.895944	4.53801				
0.590169	2.97616	0.43178	2.1724							0.897335	4.52371				
0.591679	2.96982	0.433861	2.17269							0.898724	4.50953				
0.593193	2.96356	0.435943	2.17297							0.90011	4.49547				
0.594709	2.95737	0.438024	2.17325							0.901493	4.48152				
0.596228	2.95125	0.440106	2.17353							0.902873	4.46769				
0.597751	2.9452	0.442187	2.17381							0.90425	4.45397				
0.599276	2.93923	0.444269	2.17408							0.905625	4.44036				
0.600804	2.93332	0.44635	2.17436							0.906998	4.42687				
0.602335	2.92747	0.448431	2.17462							0.908368	4.41349				
0.603868	2.9217	0.450513	2.17489							0.909735	4.40021				
0.605405	2.91599	0.452594	2.17516							0.911101	4.38705				
0.606944	2.91034	0.454675	2.17542							0.912464	4.37399				
0.608487	2.90476	0.456757	2.17568							0.913826	4.36104				
0.610032	2.89924	0.458838	2.17594							0.915186	4.3482				
0.61158	2.89378	0.460919	2.17619							0.916543	4.33546				
0.61313	2.88839	0.463001	2.17644							0.917899	4.32282				
0.614684	2.88305	0.465082	2.17669							0.919254	4.31029				
0.61624	2.87777	0.467163	2.17694							0.920607	4.29785				
0.617799	2.87256	0.469245	2.17719							0.921958	4.28552				
0.61936	2.8674	0.471326	2.17743							0.923308	4.27329				
0.620925	2.86229	0.473407	2.17767							0.924656	4.26116				
0.622492	2.85724	0.475489	2.17791							0.926004	4.24912				
0.624061	2.85225	0.47757	2.17815							0.92735	4.23718				
0.625634	2.84731	0.479651	2.17839							0.928695	4.22534				
0.627209	2.84243	0.481732	2.17862							0.930039	4.21359				
0.628786	2.8376	0.483814	2.17885							0.931382	4.20194				
0.630366	2.83282	0.485895	2.17908							0.932724	4.19038				
0.631949	2.82809	0.487976	2.17931							0.934065	4.17892				
0.633535	2.82341	0.490057	2.17954							0.935405	4.16754				
0.635123	2.81878	0.492138	2.17976							0.936745	4.15626				
0.636713	2.81421	0.49422	2.17998							0.938084	4.14506				
0.638306	2.80968	0.496301	2.1802							0.939422	4.13396				
0.639902	2.8052	0.498382	2.18042							0.94076	4.12294				
0.6415	2.80076	0.500463	2.18064							0.942097	4.11201				
0.643101	2.79638	0.502544	2.18085							0.943433	4.10116				
0.644704	2.79204	0.504625	2.18106							0.94477	4.09041				
0.64631	2.78774	0.506707	2.18127							0.946105	4.07973				
0.647918	2.78349	0.508788	2.18148							0.947441	4.06914				
0.649528	2.77929	0.510869	2.18169							0.948776	4.05864				
0.651141	2.77513	0.51295	2.1819							0.950111	4.04822				
0.652757	2.77101	0.515031	2.1821							0.951446	4.03787				
0.654375	2.76693	0.517112	2.18231							0.952781	4.02761				
0.655995	2.7629	0.519193	2.18251							0.954116	4.01743				
0.657617	2.75891	0.521274	2.18271							0.95545	4.00733				
0.659242	2.75495	0.523355	2.1829							0.956785	3.99731				
0.66087	2.75104	0.525436	2.1831							0.95812	3.98736				
0.662499	2.74717	0.527518	2.1833							0.959455	3.9775				
0.664131	2.74334	0.529599	2.18349							0.960789	3.96771				
0.665765	2.73955	0.53168	2.18368							0.962124	3.95799				
0.667402	2.73579	0.533761	2.18387							0.96346	3.94835				
0.669041	2.73208	0.535842	2.18406							0.964795	3.93878				
0.670682	2.7284	0.537923	2.18425							0.966131	3.92929				
0.672325	2.72476	0.540004	2.18443							0.967467	3.91987				
0.673971	2.72115	0.542085	2.18462							0.968803	3.91052				
0.675618	2.71758	0.544166	2.1848							0.97014	3.90125				
0.677268	2.71405	0.546247	2.18498							0.971477	3.89204				
0.678921	2.71055	0.548328	2.18516							0.972815	3.88291				
0.680575	2.70708	0.550409	2.18534							0.974153	3.87384				
0.682232	2.70365	0.55249	2.18552							0.975491	3.86485				
0.68389	2.70025	0.554571	2.1857							0.97683	3.85592				
0.685551	2.69689	0.556652	2.18587							0.97817	3.84706				
0.687214	2.69356	0.558733	2.18604							0.97951	3.83826				
0.688879	2.69026	0.560814	2.18622							0.98085	3.82954				
0.690546	2.687	0.562895	2.18639							0.982192	3.82087				
0.692216	2.68376	0.564976	2.18656							0.983534	3.81228				
0.693887	2.68056	0.567057	2.18673							0.984876	3.80374				
0.69556	2.67739	0.569138	2.18689							0.98622	3.79528				
0.697236	2.67425	0.571218	2.18706							0.987564	3.78687				
0.698913	2.67114	0.573299	2.18723							0.988909	3.77853				
0.700593	2.66805	0.57538	2.18739							0.990254	3.77025				
0.702274	2.665	0.577461	2.18755							0.991601	3.76203				
0.703958	2.66198	0.579542	2.18771							0.992948	3.75387				
0.705643	2.65898	0.581623	2.18787							0.994296	3.74577				
0.707331	2.65602	0.583704	2.18803							0.995645	3.73774				
0.70902	2.65308	0.585785	2.18819							0.996995	3.72976				
0.710712	2.65017	0.587866	2.18835							0.998346	3.72184				
0.712405	2.64729	0.589947	2.1885							0.999697	3.71398				
0.7141	2.64443	0.592028	2.18866							1.00105	3.70617				
0.715798	2.6416	0.594108	2.18881												
0.717497	2.6388	0.596189	2.18897												
0.719198	2.63602	0.59827	2.18912												
0.720901	2.63327	0.600351	2.18927												
0.722606	2.63055	0.602432	2.18942												
0.724312	2.62785	0.604513	2.18957												
0.726021	2.62517	0.606594	2.18971												
0.727731	2.62252	0.608675	2.18986												
0.729443	2.61989	0.610755	2.19												
0.731157	2.61729	0.612836	2.19015												
0.732873	2.61471	0.614917	2.19029												
0.73459	2.61216	0.616998	2.19044												
0.736309	2.60963	0.619079	2.19058												
0.73803	2.60712	0.621159	2.19072												
0.739753	2.60463	0.62324	2.19086												
0.741478	2.60217	0.625321	2.191												
0.743204	2.59972	0.627402	2.19113												
0.744932	2.5973	0.629483	2.19127												
0.746662	2.59491	0.631563	2.19141												
0.748393	2.59253	0.633644	2.19154												
0.750126	2.59017	0.635725	2.19168												
0.751861	2.58784	0.637806	2.19181												
0.753598	2.58552	0.639887	2.19194												
0.755336	2.58323	0.641967	2.19207												
0.757075	2.58095	0.644048	2.1922												
0.758817	2.5787	0.646129	2.19233												
0.76056	2.57647	0.64821	2.19246												
0.762305	2.57425	0.65029	2.19259												
0.764051	2.57206	0.652371	2.19272												
0.765799	2.56988	0.654452	2.19285												
0.767548	2.56772	0.656533	2.19297												
0.769299	2.56558	0.658613	2.1931												
0.771052	2.56346	0.660694	2.19322												
0.772806	2.56136	0.662775	2.19334												
0.774561	2.55928	0.664856	2.19347												
0.776319	2.55721	0.666936	2.19359												
0.778077	2.55516	0.669017	2.19371												
0.779838	2.55313	0.671098	2.19383												
0.781599	2.55112	0.673178	2.19395												
0.783363	2.54912	0.675259	2.19407												
0.785127	2.54714	0.67734	2.19419												
0.786894	2.54518	0.679421	2.1943												
0.788661	2.54323	0.681501	2.19442												
0.79043	2.5413	0.683582	2.19454												
0.792201	2.53939	0.685663	2.19465												
0.793973	2.53749	0.687743	2.19477												
0.795747	2.53561	0.689824	2.19488												
0.797522	2.53374	0.691905	2.195												
0.799298	2.53189	0.693985	2.19511												
0.801076	2.53005	0.696066	2.19522												
0.802855	2.52823	0.698147	2.19533												
0.804635	2.52643	0.700227	2.19544												
0.806417	2.52464	0.702308	2.19555												
0.808201	2.52286	0.704389	2.19566												
0.809985	2.5211	0.706469	2.19577												
0.811771	2.51935	0.70855	2.19588												
0.813559	2.51762	0.710631	2.19599												
0.815348	2.5159	0.712711	2.19609												
0.817138	2.5142	0.714792	2.1962												
0.818929	2.51251	0.716873	2.1963												
0.820722	2.51083	0.718953	2.19641												
0.822516	2.50917	0.721034	2.19651												
0.824311	2.50752	0.723114	2.19662												
0.826108	2.50588	0.725195	2.19672												
0.827905	2.50426	0.727276	2.19682												
0.829705	2.50264	0.729356	2.19692												
0.831505	2.50105	0.731437	2.19703												
0.833307	2.49946	0.733517	2.19713												
0.83511	2.49789	0.735598	2.19723												
0.836914	2.49633	0.737679	2.19733												
0.838719	2.49478	0.739759	2.19743												
0.840526	2.49324	0.74184	2.19752												
0.842334	2.49172	0.74392	2.19762												
0.844143	2.49021	0.746001	2.19772												
0.845953	2.48871	0.748082	2.19782												
0.847765	2.48722	0.750162	2.19791												
0.849577	2.48575	0.752243	2.19801												
0.851391	2.48428	0.754323	2.1981												
0.853206	2.48283	0.756404	2.1982												
0.855023	2.48138	0.758484	2.19829												
0.85684	2.47995	0.760565	2.19839												
0.858659	2.47853	0.762646	2.19848												
0.860478	2.47712	0.764726	2.19857												
0.862299	2.47573	0.766807	2.19866												
0.864121	2.47434	0.768887	2.19876												
0.865944	2.47296	0.770968	2.19885												
0.867769	2.47159	0.773048	2.19894												
0.869594	2.47024	0.775129	2.19903												
0.87142	2.46889	0.77721	2.19912												
0.873248	2.46756	0.77929	2.19921												
0.875077	2.46623	0.781371	2.1993												
0.876906	2.46491	0.783451	2.19938												
0.878737	2.46361	0.785532	2.19947												
0.880569	2.46231	0.787612	2.19956												
0.882402	2.46103	0.789693	2.19965												
0.884236	2.45975	0.791773	2.19973												
0.886071	2.45848	0.793854	2.19982												
0.887907	2.45723	0.795934	2.1999												
0.889745	2.45598	0.798015	2.19999												
0.891583	2.45474	0.800095	2.20007												
0.893422	2.45351	0.802176	2.20016												
0.895263	2.45229	0.804256	2.20024												
0.897104	2.45108	0.806337	2.20033												
0.898946	2.44988	0.808417	2.20041												
0.90079	2.44868	0.810498	2.20049												
0.902634	2.4475	0.812578	2.20057												
0.904479	2.44632	0.814659	2.20065												
0.906326	2.44515	0.816739	2.20074												
0.908173	2.44399	0.81882	2.20082												
0.910021	2.44284	0.8209	2.2009												
0.911871	2.4417	0.822981	2.20098												
0.913721	2.44057	0.825061	2.20106												
0.915572	2.43944	0.827142	2.20114												
0.917424	2.43832	0.829222	2.20122												
0.919278	2.43721	0.831303	2.20129												
0.921132	2.43611	0.833383	2.20137												
0.922987	2.43502	0.835464	2.20145												
0.924843	2.43393	0.837544	2.20153												
0.9267	2.43285	0.839624	2.2016												
0.928557	2.43178	0.841705	2.20168												
0.930416	2.43072	0.843785	2.20176												
0.932276	2.42966	0.845866	2.20183												
0.934136	2.42861	0.847946	2.20191												
0.935998	2.42757	0.850027	2.20198												
0.93786	2.42654	0.852107	2.20206												
0.939723	2.42551	0.854188	2.20213												
0.941588	2.42449	0.856268	2.2022												
0.943453	2.42348	0.858348	2.20228												
0.945318	2.42248	0.860429	2.20235												
0.947185	2.42148	0.862509	2.20242												
0.949053	2.42049	0.86459	2.2025												
0.950921	2.41951	0.86667	2.20257												
0.952791	2.41853	0.868751	2.20264												
0.954661	2.41756	0.870831	2.20271												
0.956532	2.4166	0.872911	2.20278												
0.958404	2.41564	0.874992	2.20285												
0.960277	2.41469	0.877072	2.20292												
0.96215	2.41374	0.879153	2.20299												
0.964025	2.41281	0.881233	2.20306												
0.9659	2.41188	0.883314	2.20313												
0.967776	2.41095	0.885394	2.2032												
0.969653	2.41003	0.887474	2.20327												
0.971531	2.40912	0.889555	2.20334												
0.973409	2.40822	0.891635	2.20341												
0.975288	2.40732	0.893716	2.20348												
0.977169	2.40642	0.895796	2.20354												
0.979049	2.40554	0.897876	2.20361												
0.980931	2.40465	0.899957	2.20368												
0.982814	2.40378	0.902037	2.20374												
0.984697	2.40291	0.904117	2.20381												
0.986581	2.40205	0.906198	2.20388												
0.988466	2.40119	0.908278	2.20394												
0.990351	2.40034	0.910359	2.20401												
0.992238	2.39949	0.912439	2.20407												
0.994125	2.39865	0.914519	2.20414												
0.996012	2.39781	0.9166	2.2042												
0.997901	2.39698	0.91868	2.20426												
0.99979	2.39616	0.92076	2.20433												
1.00168	2.39534	0.922841	2.20439												
		0.924921	2.20446												
		0.927002	2.20452												
		0.929082	2.20458												
		0.931162	2.20464												
		0.933243	2.20471												
		0.935323	2.20477												
		0.937403	2.20483												
		0.939484	2.20489												
		0.941564	2.20495												
		0.943644	2.20501												
		0.945725	2.20507												
		0.947805	2.20513												
		0.949885	2.20519												
		0.951966	2.20525												
		0.954046	2.20531												
		0.956126	2.20537												
		0.958207	2.20543												
		0.960287	2.20549												
		0.962367	2.20555												
		0.964448	2.2056												
		0.966528	2.20566												
		0.968608	2.20572												
		0.970689	2.20578												
		0.972769	2.20583												
		0.974849	2.20589												
		0.97693	2.20595												
		0.97901	2.206												
		0.98109	2.20606												
		0.98317	2.20612												
		0.985251	2.20617												
		0.987331	2.20623												
		0.989411	2.20628												
		0.991492	2.20634												
		0.993572	2.20639												
		0.995652	2.20645												
		0.997732	2.2065												
		0.999813	2.20656												
		1.00189	2.20661												
