Sym0		Asym0		Sym1		Sym2		Sym3		Asym1		Asym2		Asym3	
450  Points		491  Points		144  Points		117  Points		100  Points		274  Points		128  Points		101  Points	
Freq (MHz)	Vph (m/ms)	Freq (MHz)	Vph (m/ms)	Freq (MHz)	Vph (m/ms)	Freq (MHz)	Vph (m/ms)	Freq (MHz)	Vph (m/ms)	Freq (MHz)	Vph (m/ms)	Freq (MHz)	Vph (m/ms)	Freq (MHz)	Vph (m/ms)
0.00164916	8.79293	0.000485985	0.248056	0.279553	451.014	0.549238	1277.54	0.559057	882.1	0.139924	181.382	0.419274	1149.91	0.698802	877.429
0.00984103	8.79252	0.00104865	0.362745	0.279789	180.331	0.549241	403.375	0.559263	357.248	0.140578	82.5414	0.4194	323.534	0.698915	404.438
0.0180306	8.79136	0.00181152	0.473902	0.280226	112.848	0.549251	239.502	0.559637	224.108	0.141717	53.7862	0.419668	188.36	0.699112	262.843
0.026216	8.78952	0.00276054	0.580646	0.280864	82.2463	0.549276	170.318	0.560172	163.369	0.143326	40.1865	0.420077	132.948	0.699392	194.735
0.0343953	8.78702	0.00387972	0.682334	0.281701	64.8093	0.549326	132.154	0.560858	128.621	0.145386	32.3209	0.420626	102.808	0.699756	154.704
0.0425665	8.78379	0.00515185	0.778501	0.282734	53.5653	0.54941	107.973	0.561685	106.133	0.147875	27.2335	0.421316	83.8759	0.700203	128.362
0.0507278	8.77988	0.00655953	0.868888	0.283961	45.7264	0.549538	91.284	0.562646	90.4001	0.150769	23.6999	0.422145	70.8917	0.700733	109.719
0.0588769	8.77526	0.00808576	0.953392	0.285379	39.9596	0.549718	79.0759	0.563731	78.7812	0.15404	21.1208	0.423112	61.441	0.701345	95.8347
0.0670119	8.76991	0.00971449	1.03206	0.286984	35.5469	0.549958	69.7608	0.564934	69.8541	0.157662	19.1687	0.424217	54.2603	0.702041	85.096
0.0751306	8.76382	0.0114309	1.10503	0.288773	32.0677	0.550264	62.4223	0.56625	62.7839	0.161608	17.6492	0.425457	48.6244	0.702818	76.5457
0.0832308	8.75699	0.0132215	1.17252	0.29074	29.259	0.55064	56.494	0.567675	57.0486	0.165852	16.4399	0.426832	44.0871	0.703678	69.5789
0.0913103	8.74939	0.0150747	1.23484	0.292883	26.9479	0.551092	51.6073	0.569205	52.3049	0.170369	15.4599	0.42834	40.359	0.704618	63.7949
0.0993666	8.74099	0.01698	1.29229	0.295195	25.0161	0.551622	47.5116	0.570837	48.3182	0.175136	14.6536	0.42998	37.2439	0.705641	58.9175
0.107397	8.73178	0.0189284	1.34519	0.297672	23.38	0.552235	44.031	0.572568	44.922	0.180131	13.9815	0.431748	34.6045	0.706743	54.7504
0.1154	8.72173	0.0209125	1.39389	0.300308	21.9788	0.552933	41.0381	0.574397	41.9958	0.185333	13.4152	0.433645	32.3414	0.707927	51.1502
0.123371	8.71082	0.0229255	1.43872	0.3031	20.767	0.553719	38.4384	0.576323	39.4493	0.190724	12.9332	0.435668	30.3812	0.70919	48.0095
0.131309	8.69901	0.0246992	1.47489	0.30604	19.7103	0.554595	36.1605	0.578343	37.2143	0.196287	12.5195	0.437814	28.6682	0.710532	45.2466
0.13921	8.68628	0.0262229	1.50373	0.309125	18.7819	0.555563	34.1491	0.580457	35.2377	0.202006	12.1615	0.440082	27.1598	0.711953	42.7979
0.14707	8.67258	0.02749	1.5263	0.312349	17.9611	0.556626	32.3612	0.582664	33.4782	0.207106	11.8875	0.442469	25.8223	0.713452	40.6134
0.154887	8.65788	0.0284957	1.54336	0.315707	17.231	0.557787	30.7623	0.584961	31.9024	0.211532	11.6777	0.444973	24.6293	0.715029	38.6531
0.162658	8.64214	0.0292372	1.55548	0.319194	16.5783	0.559046	29.325	0.58735	30.4837	0.215243	11.5186	0.447592	23.5593	0.716683	36.8848
0.170377	8.62532	0.0297125	1.56306	0.322806	15.992	0.560406	28.0266	0.589829	29.2003	0.218208	11.4011	0.450323	22.595	0.718413	35.282
0.178042	8.60736	0.0303969	1.57372	0.326537	15.4631	0.56187	26.8488	0.592396	28.0344	0.220404	11.3191	0.453164	21.7221	0.720219	33.8231
0.185647	8.58821	0.031142	1.58499	0.330384	14.9842	0.563439	25.7762	0.595052	26.9709	0.221817	11.2684	0.456113	20.9288	0.7221	32.4899
0.193189	8.56782	0.0321572	1.59981	0.334343	14.549	0.565115	24.796	0.597796	25.9974	0.223857	11.1979	0.459166	20.2051	0.724056	31.2671
0.200663	8.54614	0.0334439	1.61776	0.33841	14.1522	0.566902	23.8974	0.600627	25.1034	0.226087	11.1243	0.462322	19.5427	0.726085	30.142
0.208063	8.52311	0.0350036	1.63836	0.342582	13.7894	0.568799	23.0713	0.603545	24.2798	0.229139	11.0289	0.465579	18.9347	0.728187	29.1036
0.215384	8.49867	0.0368374	1.66107	0.346857	13.4568	0.570811	22.3098	0.606548	23.5192	0.23303	10.9155	0.468932	18.3748	0.730361	28.1425
0.222622	8.47275	0.0389458	1.68534	0.351232	13.1512	0.572938	21.6061	0.609637	22.8147	0.237779	10.7882	0.47238	17.858	0.732606	27.2507
0.229769	8.4453	0.0410577	1.70786	0.355705	12.8697	0.575183	20.9545	0.612811	22.1608	0.243406	10.6511	0.475921	17.3797	0.734922	26.4212
0.23682	8.41624	0.0431718	1.72881	0.360275	12.61	0.577546	20.3499	0.61607	21.5525	0.24993	10.5082	0.479552	16.9361	0.737307	25.6479
0.243768	8.38552	0.0452876	1.7483	0.36494	12.3699	0.580031	19.7879	0.619412	20.9854	0.256521	10.3788	0.483271	16.5237	0.739762	24.9255
0.250607	8.35308	0.0474042	1.76648	0.369083	12.1752	0.582639	19.2645	0.622838	20.4558	0.263172	10.261	0.487075	16.1396	0.742284	24.2492
0.257332	8.31887	0.0495213	1.78345	0.372672	12.0192	0.58537	18.7764	0.626347	19.9603	0.269875	10.1536	0.490961	15.7812	0.744874	23.615
0.263934	8.28283	0.0516384	1.79932	0.375679	11.8966	0.588226	18.3205	0.62994	19.4959	0.276626	10.0551	0.494928	15.4461	0.74753	23.0193
0.270408	8.24492	0.0537553	1.81419	0.378082	11.8035	0.591208	17.8941	0.633614	19.06	0.28342	9.96456	0.498973	15.1323	0.750252	22.4588
0.276747	8.20512	0.0558715	1.82812	0.379863	11.7372	0.594316	17.4948	0.637371	18.6503	0.290251	9.88105	0.503094	14.8381	0.753038	21.9305
0.282945	8.16339	0.0579871	1.84122	0.381009	11.6957	0.597552	17.1205	0.641211	18.2647	0.297114	9.80377	0.507289	14.5616	0.755889	21.432
0.288997	8.11974	0.0601018	1.85353	0.382665	11.6371	0.600914	16.7692	0.645133	17.9014	0.304007	9.732	0.511555	14.3016	0.758802	20.9609
0.294898	8.07416	0.0622157	1.86513	0.384478	11.5751	0.604404	16.4392	0.649137	17.5585	0.310924	9.66516	0.51589	14.0567	0.761777	20.5151
0.300642	8.02669	0.0643286	1.87607	0.386961	11.4933	0.608019	16.1288	0.653223	17.2347	0.317862	9.60272	0.520293	13.8257	0.764814	20.0927
0.306227	7.97735	0.0664404	1.8864	0.390135	11.3939	0.61176	15.8366	0.657392	16.9286	0.324817	9.5442	0.524761	13.6075	0.76791	19.6921
0.311648	7.9262	0.0685511	1.89617	0.394021	11.2794	0.615624	15.5613	0.661643	16.6388	0.331786	9.48919	0.529293	13.4013	0.771067	19.3116
0.316905	7.87332	0.0706608	1.90542	0.398647	11.1526	0.61961	15.3017	0.665978	16.3644	0.338766	9.43734	0.533887	13.206	0.774282	18.9499
0.321995	7.8188	0.0727695	1.91419	0.404045	11.0165	0.623717	15.0567	0.670396	16.1043	0.345753	9.38832	0.538541	13.0211	0.777554	18.6058
0.326918	7.76273	0.074877	1.92251	0.40954	10.8897	0.62794	14.8252	0.674899	15.8576	0.352745	9.34184	0.543253	12.8456	0.780883	18.2779
0.331676	7.70523	0.0769837	1.93042	0.41513	10.7714	0.632279	14.6064	0.679487	15.6234	0.359739	9.29765	0.548021	12.679	0.784268	17.9654
0.336269	7.64643	0.0790893	1.93795	0.420815	10.6612	0.636728	14.3992	0.684161	15.4009	0.366732	9.25551	0.552221	12.5407	0.787708	17.6671
0.3407	7.58646	0.0811939	1.94511	0.426593	10.5584	0.641284	14.203	0.688922	15.1895	0.373722	9.21522	0.555834	12.4274	0.791203	17.3823
0.344972	7.52546	0.0832977	1.95194	0.432464	10.4624	0.645944	14.017	0.69377	14.9885	0.380705	9.17659	0.558844	12.3368	0.79475	17.11
0.349088	7.46357	0.0854005	1.95846	0.438424	10.3728	0.650703	13.8404	0.698708	14.7973	0.387679	9.13945	0.561238	12.2671	0.798351	16.8495
0.353054	7.40093	0.0875025	1.96469	0.444471	10.2891	0.655556	13.6727	0.703736	14.6154	0.394642	9.10366	0.563006	12.2169	0.802002	16.6002
0.356873	7.33768	0.0896036	1.97064	0.450602	10.2108	0.660499	13.5132	0.708856	14.4423	0.401592	9.06906	0.56414	12.1852	0.805705	16.3613
0.360551	7.27396	0.091704	1.97634	0.456813	10.1375	0.665525	13.3613	0.714069	14.2775	0.408526	9.03553	0.565776	12.1403	0.809457	16.1323
0.364093	7.2099	0.0938037	1.98179	0.4631	10.0688	0.670631	13.2166	0.719376	14.1206	0.415441	9.00296	0.567561	12.0922	0.813259	15.9126
0.367505	7.14563	0.0959026	1.98703	0.469458	10.0044	0.67581	13.0786	0.72478	13.9711	0.422336	8.97124	0.569997	12.0282	0.817108	15.7017
0.370792	7.08125	0.0980009	1.99205	0.475884	9.94392	0.681057	12.9467	0.73028	13.8288	0.429208	8.94028	0.573096	11.9492	0.821006	15.4991
0.373959	7.01689	0.100099	1.99687	0.482372	9.887	0.68568	12.8364	0.735879	13.6932	0.436055	8.90997	0.576867	11.8568	0.824949	15.3043
0.377013	6.95264	0.102196	2.0015	0.488917	9.83337	0.689656	12.7457	0.741579	13.5641	0.442874	8.88025	0.581325	11.7523	0.828939	15.117
0.379959	6.8886	0.104292	2.00595	0.495515	9.78275	0.692966	12.6728	0.747379	13.4411	0.449663	8.85103	0.586484	11.6374	0.832974	14.9368
0.382801	6.82486	0.106388	2.01024	0.50216	9.73489	0.695597	12.6165	0.75328	13.324	0.45642	8.82225	0.591689	11.5275	0.837054	14.7633
0.385546	6.76149	0.108483	2.01437	0.508849	9.68955	0.697539	12.5759	0.759285	13.2125	0.463143	8.79383	0.596939	11.4225	0.841176	14.5962
0.388199	6.69855	0.110578	2.01835	0.515576	9.64651	0.698784	12.5501	0.765392	13.1063	0.46983	8.76572	0.602233	11.3219	0.845342	14.4351
0.390764	6.63612	0.112672	2.02219	0.522338	9.60557	0.700579	12.5136	0.770798	13.0179	0.476478	8.73786	0.60757	11.2256	0.84955	14.2798
0.393245	6.57425	0.114766	2.02589	0.529129	9.56655	0.702535	12.4744	0.775467	12.9454	0.483085	8.71021	0.61295	11.1334	0.853799	14.1299
0.395649	6.51298	0.116859	2.02946	0.535947	9.52929	0.705204	12.4219	0.779372	12.8875	0.489649	8.6827	0.618373	11.045	0.858089	13.9853
0.397978	6.45237	0.118952	2.03292	0.542786	9.49363	0.708593	12.3571	0.782486	12.8429	0.496168	8.6553	0.623836	10.9602	0.86242	13.8456
0.400238	6.39244	0.121045	2.03626	0.549644	9.45944	0.712709	12.2806	0.784792	12.8107	0.502639	8.62796	0.629341	10.8788	0.866789	13.7107
0.402431	6.33323	0.123137	2.03949	0.556518	9.42658	0.717561	12.1936	0.786274	12.7905	0.509061	8.60065	0.634885	10.8007	0.871197	13.5803
0.404562	6.27476	0.125229	2.04262	0.563403	9.39494	0.723156	12.0972	0.788414	12.7617	0.515432	8.57333	0.64047	10.7257	0.875643	13.4542
0.406635	6.21706	0.127321	2.04564	0.570297	9.36441	0.728776	12.0041	0.790752	12.731	0.521749	8.54596	0.646095	10.6537	0.879549	13.3477
0.408651	6.16015	0.129412	2.04858	0.577198	9.33491	0.734419	11.9142	0.793952	12.6901	0.528011	8.51853	0.651758	10.5844	0.8829	13.2593
0.410616	6.10404	0.131503	2.05142	0.584102	9.30633	0.740082	11.8273	0.798034	12.6397	0.534215	8.49099	0.65746	10.5179	0.885686	13.1878
0.412532	6.04874	0.133593	2.05418	0.591006	9.27861	0.745762	11.7432	0.803019	12.5807	0.54036	8.46334	0.6632	10.4539	0.887898	13.1322
0.414401	5.99426	0.135683	2.05685	0.59791	9.25166	0.751456	11.6618	0.808936	12.5142	0.546445	8.43554	0.668978	10.3924	0.889531	13.0919
0.416227	5.94061	0.137773	2.05944	0.604809	9.22542	0.757164	11.5829	0.815814	12.4413	0.552466	8.40757	0.674793	10.3331	0.890578	13.0664
0.418011	5.88778	0.139863	2.06196	0.611703	9.19984	0.762883	11.5064	0.822786	12.3719	0.558424	8.37943	0.680645	10.2761	0.892086	13.03
0.419757	5.83579	0.141953	2.06441	0.618589	9.17484	0.768613	11.4322	0.829849	12.3057	0.564316	8.35109	0.686533	10.2213	0.89373	12.9909
0.421467	5.78463	0.144042	2.06679	0.625466	9.15039	0.774353	11.3601	0.837001	12.2426	0.570141	8.32254	0.692457	10.1684	0.895973	12.9384
0.423142	5.7343	0.146131	2.06911	0.632331	9.12643	0.780102	11.2901	0.844238	12.1824	0.575898	8.29377	0.698416	10.1175	0.898822	12.8731
0.424786	5.68479	0.14822	2.07136	0.639183	9.10291	0.785859	11.2221	0.851558	12.125	0.581585	8.26478	0.70441	10.0684	0.902284	12.7958
0.426399	5.63611	0.150308	2.07355	0.646021	9.07981	0.791625	11.1561	0.858957	12.0703	0.587201	8.23556	0.710437	10.0211	0.906368	12.7075
0.427984	5.58824	0.152397	2.07568	0.652842	9.05708	0.7974	11.0918	0.866434	12.018	0.592746	8.2061	0.716498	9.97552	0.911087	12.6089
0.429343	5.54718	0.154485	2.07775	0.659645	9.03468	0.803184	11.0293	0.873985	11.9681	0.598219	8.1764	0.722591	9.93153	0.915839	12.5133
0.430486	5.51266	0.156573	2.07977	0.666429	9.01259	0.808976	10.9685	0.881606	11.9203	0.603619	8.14647	0.728716	9.88907	0.920623	12.4206
0.431422	5.48444	0.15866	2.08174	0.673192	8.99077	0.814778	10.9094	0.889296	11.8747	0.608946	8.1163	0.73487	9.84808	0.925439	12.3306
0.432156	5.46234	0.160748	2.08366	0.679934	8.9692	0.820589	10.8518	0.897051	11.8311	0.614198	8.08589	0.741055	9.80849	0.930287	12.2432
0.432692	5.44621	0.162836	2.08553	0.686652	8.94785	0.82641	10.7958	0.904868	11.7893	0.619376	8.05526	0.747268	9.77024	0.935165	12.1583
0.433033	5.43594	0.164923	2.08736	0.693346	8.9267	0.832241	10.7412	0.912744	11.7493	0.62448	8.0244	0.753508	9.73326	0.940074	12.0758
0.433522	5.42124	0.16701	2.08914	0.700014	8.90572	0.838083	10.6881	0.920677	11.711	0.629509	7.99333	0.759775	9.6975	0.945013	11.9957
0.434051	5.40537	0.169097	2.09087	0.706655	8.8849	0.843936	10.6364	0.928664	11.6742	0.634464	7.96205	0.766067	9.6629	0.949981	11.9178
0.434766	5.38393	0.171184	2.09257	0.713268	8.86421	0.849801	10.586	0.936703	11.6389	0.639344	7.93057	0.772382	9.62939	0.954978	11.8421
0.435664	5.35708	0.17327	2.09423	0.719852	8.84363	0.855678	10.5369	0.94479	11.6051	0.64415	7.89889	0.77872	9.59693	0.960004	11.7684
0.43674	5.32499	0.175357	2.09585	0.726406	8.82315	0.861567	10.4891	0.952923	11.5725	0.648882	7.86704	0.785079	9.56547	0.965058	11.6968
0.437989	5.28788	0.177443	2.09743	0.732928	8.80276	0.867469	10.4425	0.961099	11.5413	0.65354	7.83502	0.791458	9.53495	0.970139	11.6271
0.439406	5.24598	0.17953	2.09897	0.739418	8.78243	0.873384	10.3971	0.969317	11.5111	0.658126	7.80284	0.797855	9.50533	0.975248	11.5593
0.440807	5.20481	0.181616	2.10048	0.745874	8.76215	0.879313	10.3528	0.977574	11.4822	0.662639	7.77051	0.804269	9.47655	0.980384	11.4932
0.442193	5.16436	0.183702	2.10196	0.752297	8.74192	0.885255	10.3097	0.985867	11.4542	0.66708	7.73804	0.810699	9.44859	0.985546	11.4289
0.443565	5.12462	0.185788	2.1034	0.758683	8.72171	0.891211	10.2676	0.994194	11.4273	0.67145	7.70546	0.817142	9.42138	0.990734	11.3663
0.444924	5.08557	0.187874	2.10482	0.765034	8.70151	0.897182	10.2267	1.00255	11.4013	0.67575	7.67276	0.823599	9.3949	0.995948	11.3052
0.44627	5.04721	0.189959	2.1062	0.771347	8.68132	0.903167	10.1867			0.67998	7.63997	0.830067	9.36911	1.00119	11.2458
0.447604	5.00952	0.192045	2.10755	0.777623	8.66113	0.909166	10.1477			0.684141	7.60709	0.836544	9.34396		
0.448928	4.97249	0.194131	2.10888	0.783859	8.64092	0.91518	10.1097			0.688234	7.57414	0.84303	9.31941		
0.450242	4.9361	0.196216	2.11017	0.790056	8.62069	0.921209	10.0726			0.692261	7.54113	0.849522	9.29545		
0.451547	4.90035	0.198301	2.11144	0.796212	8.60044	0.927253	10.0365			0.696221	7.50806	0.856021	9.27203		
0.452843	4.86522	0.200387	2.11269	0.802327	8.58014	0.933312	10.0012			0.700116	7.47497	0.862523	9.24912		
0.454131	4.83071	0.202472	2.11391	0.8084	8.5598	0.939386	9.96679			0.703947	7.44184	0.869028	9.22669		
0.455412	4.79679	0.204557	2.1151	0.814431	8.53941	0.945474	9.9332			0.707715	7.4087	0.875534	9.20471		
0.456686	4.76347	0.206642	2.11627	0.820418	8.51897	0.951578	9.90041			0.711421	7.37556	0.88204	9.18316		
0.457954	4.73072	0.208727	2.11742	0.826362	8.49846	0.957696	9.8684			0.715066	7.34242	0.888544	9.16201		
0.459216	4.69853	0.210812	2.11855	0.832261	8.4779	0.963828	9.83715			0.71865	7.30931	0.895046	9.14123		
0.460473	4.6669	0.212896	2.11965	0.838115	8.45726	0.969975	9.80663			0.722176	7.27622	0.901544	9.12081		
0.461725	4.63582	0.214981	2.12073	0.843924	8.43656	0.976136	9.77683			0.725644	7.24317	0.908037	9.10071		
0.462973	4.60527	0.217066	2.1218	0.849686	8.41579	0.98231	9.74771			0.729056	7.21017	0.914523	9.08093		
0.464217	4.57524	0.21915	2.12284	0.855403	8.39494	0.988498	9.71925			0.732412	7.17722	0.921002	9.06143		
0.465457	4.54572	0.221235	2.12386	0.861073	8.37401	0.994699	9.69144			0.735713	7.14434	0.927472	9.04219		
0.466695	4.51671	0.223319	2.12487	0.866696	8.35301	1.00091	9.66426			0.73896	7.11154	0.933931	9.02321		
0.467929	4.48819	0.225404	2.12586	0.872271	8.33193					0.742155	7.07881	0.94038	9.00446		
0.469161	4.46015	0.227488	2.12683	0.8778	8.31078					0.745299	7.04618	0.946816	8.98592		
0.470391	4.43258	0.229572	2.12778	0.88328	8.28954					0.748392	7.01365	0.953239	8.96758		
0.471619	4.40548	0.231656	2.12871	0.888712	8.26823					0.751437	6.98122	0.959647	8.94943		
0.472846	4.37883	0.23374	2.12963	0.894097	8.24684					0.754432	6.9489	0.96604	8.93145		
0.474071	4.35262	0.235824	2.13053	0.899433	8.22537					0.757381	6.91671	0.972417	8.91362		
0.475296	4.32685	0.237908	2.13142	0.904721	8.20383					0.760284	6.88464	0.978776	8.89594		
0.47652	4.3015	0.239992	2.13229	0.909961	8.18222					0.763141	6.8527	0.985117	8.87838		
0.477743	4.27658	0.242076	2.13315	0.915153	8.16053					0.765954	6.82089	0.991439	8.86095		
0.478966	4.25206	0.24416	2.13399	0.920296	8.13878					0.768724	6.78923	0.99774	8.84363		
0.480188	4.22795	0.246244	2.13482	0.925391	8.11696					0.771452	6.75772	1.00402	8.82641		
0.481411	4.20423	0.248328	2.13563	0.930438	8.09507					0.774139	6.72636				
0.482634	4.18089	0.250411	2.13644	0.935437	8.07312					0.776786	6.69515				
0.483858	4.15793	0.252495	2.13723	0.940388	8.05111					0.779393	6.66411				
0.485083	4.13534	0.254579	2.138	0.945291	8.02905					0.781962	6.63323				
0.486308	4.11312	0.256662	2.13876	0.950147	8.00693					0.784494	6.60253				
0.487534	4.09125	0.258746	2.13952	0.954955	7.98475					0.786989	6.57199				
0.488761	4.06973	0.260829	2.14026	0.959716	7.96253					0.789448	6.54163				
0.48999	4.04855	0.262913	2.14098	0.96443	7.94026					0.791873	6.51145				
0.49122	4.02771	0.264996	2.1417	0.969097	7.91795					0.794264	6.48146				
0.492451	4.0072	0.26708	2.14241	0.973718	7.8956					0.796621	6.45165				
0.493685	3.987	0.269163	2.1431	0.978292	7.87322					0.798947	6.42202				
0.49492	3.96713	0.271246	2.14378	0.982821	7.85079					0.801241	6.39259				
0.496156	3.94756	0.27333	2.14446	0.987304	7.82834					0.803504	6.36335				
0.497395	3.9283	0.275413	2.14512	0.991742	7.80586					0.805738	6.3343				
0.498636	3.90933	0.277496	2.14578	0.996134	7.78336					0.807943	6.30544				
0.499879	3.89066	0.279579	2.14642	1.00048	7.76084					0.810119	6.27679				
0.501124	3.87227	0.281662	2.14706							0.812268	6.24833				
0.502372	3.85416	0.283745	2.14768							0.81439	6.22008				
0.503622	3.83633	0.285828	2.1483							0.816485	6.19202				
0.504874	3.81877	0.287911	2.14891							0.818556	6.16417				
0.506129	3.80147	0.289994	2.14951							0.820601	6.13652				
0.507387	3.78443	0.292077	2.1501							0.822623	6.10907				
0.508647	3.76765	0.29416	2.15068							0.824621	6.08183				
0.50991	3.75112	0.296243	2.15126							0.826596	6.05479				
0.511176	3.73483	0.298326	2.15182							0.828549	6.02795				
0.512444	3.71878	0.300409	2.15238							0.83048	6.00132				
0.513716	3.70297	0.302492	2.15293							0.83239	5.9749				
0.51499	3.6874	0.304575	2.15348							0.83428	5.94868				
0.516268	3.67205	0.306658	2.15401							0.83615	5.92267				
0.517548	3.65692	0.30874	2.15454							0.838	5.89686				
0.518832	3.64201	0.310823	2.15507							0.839832	5.87126				
0.520118	3.62732	0.312906	2.15558							0.841646	5.84586				
0.521408	3.61284	0.314988	2.15609							0.843441	5.82066				
0.522701	3.59857	0.317071	2.15659							0.84522	5.79567				
0.523997	3.5845	0.319154	2.15709							0.846981	5.77088				
0.525296	3.57063	0.321236	2.15758							0.848726	5.7463				
0.526598	3.55695	0.323319	2.15806							0.850456	5.72191				
0.527904	3.54347	0.325402	2.15854							0.85217	5.69773				
0.529213	3.53018	0.327484	2.15901							0.853869	5.67374				
0.530525	3.51707	0.329567	2.15948							0.855553	5.64996				
0.53184	3.50415	0.331649	2.15993							0.857224	5.62637				
0.533159	3.49141	0.333732	2.16039							0.85888	5.60298				
0.534481	3.47884	0.335814	2.16084							0.860523	5.57978				
0.535807	3.46645	0.337897	2.16128							0.862154	5.55679				
0.537136	3.45422	0.339979	2.16172							0.863771	5.53398				
0.538468	3.44217	0.342061	2.16215							0.865377	5.51137				
0.539804	3.43028	0.344144	2.16258							0.866971	5.48895				
0.541143	3.41855	0.346226	2.163							0.868553	5.46672				
0.542485	3.40697	0.348309	2.16341							0.870124	5.44468				
0.543831	3.39556	0.350391	2.16383							0.871684	5.42283				
0.54518	3.38429	0.352473	2.16423							0.873234	5.40116				
0.546533	3.37318	0.354556	2.16464							0.874773	5.37968				
0.547889	3.36222	0.356638	2.16503							0.876303	5.35839				
0.549248	3.3514	0.35872	2.16543							0.877823	5.33727				
0.550611	3.34072	0.360803	2.16582							0.879333	5.31634				
0.551978	3.33019	0.362885	2.1662							0.880835	5.29559				
0.553347	3.31979	0.364967	2.16658							0.882328	5.27502				
0.554721	3.30953	0.367049	2.16696							0.883813	5.25463				
0.556097	3.2994	0.369132	2.16733							0.885289	5.23441				
0.557477	3.28941	0.371214	2.16769							0.886757	5.21437				
0.558861	3.27954	0.373296	2.16806							0.888218	5.1945				
0.560247	3.2698	0.375378	2.16842							0.889671	5.1748				
0.561638	3.26019	0.37746	2.16877							0.891117	5.15527				
0.563031	3.25069	0.379542	2.16912							0.892556	5.13591				
0.564428	3.24132	0.381624	2.16947							0.893988	5.11672				
0.565828	3.23207	0.383707	2.16982							0.895413	5.0977				
0.567232	3.22294	0.385789	2.17016							0.896832	5.07884				
0.568639	3.21392	0.387871	2.17049							0.898245	5.06014				
0.57005	3.20502	0.389953	2.17083							0.899652	5.0416				
0.571464	3.19622	0.392035	2.17116							0.901054	5.02323				
0.572881	3.18754	0.394117	2.17148							0.902449	5.00501				
0.574301	3.17896	0.396199	2.1718							0.90384	4.98696				
0.575725	3.17049	0.398281	2.17212							0.905225	4.96905				
0.577152	3.16213	0.400363	2.17244							0.906605	4.95131				
0.578583	3.15386	0.402445	2.17275							0.90798	4.93371				
0.580016	3.1457	0.404527	2.17306							0.909351	4.91627				
0.581453	3.13764	0.406609	2.17337							0.910717	4.89898				
0.582894	3.12968	0.408691	2.17367							0.912078	4.88184				
0.584337	3.12181	0.410773	2.17397							0.913436	4.86484				
0.585784	3.11404	0.412855	2.17427							0.914789	4.848				
0.587234	3.10637	0.414937	2.17456							0.916139	4.83129				
0.588687	3.09878	0.417019	2.17486							0.917485	4.81473				
0.590144	3.09129	0.419101	2.17514							0.918827	4.79832				
0.591603	3.08388	0.421183	2.17543							0.920165	4.78204				
0.593066	3.07656	0.423264	2.17571							0.921501	4.7659				
0.594532	3.06934	0.425346	2.17599							0.922833	4.7499				
0.596001	3.06219	0.427428	2.17627							0.924162	4.73404				
0.597474	3.05513	0.42951	2.17655							0.925488	4.71832				
0.598949	3.04815	0.431592	2.17682							0.926811	4.70272				
0.600428	3.04126	0.433674	2.17709							0.928131	4.68726				
0.601909	3.03444	0.435756	2.17736							0.929449	4.67194				
0.603394	3.02771	0.437837	2.17762							0.930764	4.65674				
0.604882	3.02105	0.439919	2.17788							0.932077	4.64167				
0.606373	3.01447	0.442001	2.17814							0.933387	4.62673				
0.607867	3.00796	0.444083	2.1784							0.934695	4.61191				
0.609364	3.00153	0.446165	2.17865							0.936002	4.59722				
0.610864	2.99517	0.448246	2.17891							0.937306	4.58266				
0.612367	2.98889	0.450328	2.17916							0.938608	4.56822				
0.613873	2.98268	0.45241	2.1794							0.939908	4.5539				
0.615382	2.97653	0.454492	2.17965							0.941207	4.5397				
0.616894	2.97046	0.456573	2.17989							0.942504	4.52561				
0.618409	2.96446	0.458655	2.18013							0.943799	4.51165				
0.619926	2.95852	0.460737	2.18037							0.945093	4.4978				
0.621447	2.95265	0.462819	2.18061							0.946386	4.48407				
0.622971	2.94684	0.4649	2.18085							0.947677	4.47046				
0.624497	2.9411	0.466982	2.18108							0.948967	4.45695				
0.626027	2.93542	0.469064	2.18131							0.950256	4.44356				
0.627559	2.92981	0.471146	2.18154							0.951544	4.43028				
0.629094	2.92426	0.473227	2.18176							0.952831	4.41711				
0.630632	2.91876	0.475309	2.18199							0.954117	4.40405				
0.632173	2.91333	0.47739	2.18221							0.955402	4.3911				
0.633716	2.90796	0.479472	2.18243							0.956686	4.37825				
0.635262	2.90264	0.481554	2.18265							0.957969	4.36551				
0.636811	2.89739	0.483635	2.18287							0.959252	4.35288				
0.638363	2.89219	0.485717	2.18308							0.960534	4.34034				
0.639918	2.88705	0.487799	2.1833							0.961816	4.32791				
0.641475	2.88196	0.48988	2.18351							0.963097	4.31559				
0.643035	2.87692	0.491962	2.18372							0.964377	4.30336				
0.644598	2.87194	0.494044	2.18393							0.965657	4.29123				
0.646163	2.86702	0.496125	2.18413							0.966937	4.2792				
0.647731	2.86214	0.498207	2.18434							0.968217	4.26727				
0.649302	2.85732	0.500288	2.18454							0.969496	4.25543				
0.650875	2.85255	0.50237	2.18474							0.970775	4.24369				
0.652451	2.84782	0.504452	2.18494							0.972055	4.23205				
0.654029	2.84315	0.506533	2.18514							0.973333	4.2205				
0.65561	2.83853	0.508615	2.18533							0.974612	4.20904				
0.657194	2.83395	0.510696	2.18553							0.975891	4.19767				
0.65878	2.82942	0.512778	2.18572							0.97717	4.1864				
0.660369	2.82494	0.514859	2.18591							0.97845	4.17521				
0.66196	2.82051	0.516941	2.1861							0.979729	4.16411				
0.663554	2.81612	0.519023	2.18629							0.981008	4.15311				
0.66515	2.81178	0.521104	2.18648							0.982288	4.14219				
0.666749	2.80748	0.523186	2.18667							0.983568	4.13135				
0.66835	2.80322	0.525267	2.18685							0.984848	4.1206				
0.669954	2.79901	0.527349	2.18703							0.986129	4.10994				
0.67156	2.79484	0.52943	2.18721							0.98741	4.09936				
0.673168	2.79072	0.531512	2.18739							0.988691	4.08886				
0.674779	2.78663	0.533593	2.18757							0.989973	4.07845				
0.676392	2.78259	0.535675	2.18775							0.991255	4.06812				
0.678008	2.77858	0.537756	2.18792							0.992538	4.05787				
0.679626	2.77462	0.539838	2.1881							0.993821	4.04769				
0.681246	2.7707	0.541919	2.18827							0.995105	4.0376				
0.682869	2.76681	0.544001	2.18844							0.996389	4.02759				
0.684494	2.76297	0.546082	2.18861							0.997675	4.01765				
0.686121	2.75916	0.548164	2.18878							0.99896	4.00779				
0.687751	2.75539	0.550245	2.18895							1.00025	3.99801				
0.689383	2.75165	0.552326	2.18912												
0.691017	2.74796	0.554408	2.18928												
0.692654	2.7443	0.556489	2.18945												
0.694292	2.74067	0.558571	2.18961												
0.695933	2.73708	0.560652	2.18977												
0.697576	2.73353	0.562734	2.18993												
0.699222	2.73001	0.564815	2.19009												
0.700869	2.72652	0.566896	2.19025												
0.702519	2.72307	0.568978	2.19041												
0.704171	2.71965	0.571059	2.19056												
0.705825	2.71627	0.573141	2.19072												
0.707481	2.71291	0.575222	2.19087												
0.709139	2.70959	0.577304	2.19102												
0.710799	2.7063	0.579385	2.19117												
0.712462	2.70304	0.581466	2.19132												
0.714126	2.69981	0.583548	2.19147												
0.715793	2.69662	0.585629	2.19162												
0.717461	2.69345	0.587711	2.19177												
0.719132	2.69031	0.589792	2.19191												
0.720805	2.6872	0.591873	2.19206												
0.722479	2.68412	0.593955	2.1922												
0.724156	2.68107	0.596036	2.19235												
0.725835	2.67805	0.598117	2.19249												
0.727515	2.67505	0.600199	2.19263												
0.729198	2.67209	0.60228	2.19277												
0.730882	2.66915	0.604361	2.19291												
0.732569	2.66623	0.606443	2.19305												
0.734257	2.66335	0.608524	2.19318												
0.735948	2.66049	0.610605	2.19332												
0.73764	2.65765	0.612687	2.19346												
0.739334	2.65485	0.614768	2.19359												
0.74103	2.65206	0.616849	2.19372												
0.742728	2.64931	0.618931	2.19386												
0.744428	2.64657	0.621012	2.19399												
0.746129	2.64387	0.623093	2.19412												
0.747833	2.64118	0.625175	2.19425												
0.749538	2.63852	0.627256	2.19438												
0.751245	2.63589	0.629337	2.19451												
0.752954	2.63327	0.631418	2.19463												
0.754665	2.63068	0.6335	2.19476												
0.756377	2.62812	0.635581	2.19489												
0.758092	2.62558	0.637662	2.19501												
0.759808	2.62305	0.639744	2.19514												
0.761525	2.62056	0.641825	2.19526												
0.763245	2.61808	0.643906	2.19538												
0.764966	2.61562	0.645988	2.1955												
0.766689	2.61319	0.648069	2.19563												
0.768413	2.61078	0.65015	2.19575												
0.77014	2.60839	0.652231	2.19587												
0.771868	2.60601	0.654313	2.19598												
0.773597	2.60366	0.656394	2.1961												
0.775329	2.60133	0.658475	2.19622												
0.777062	2.59902	0.660556	2.19634												
0.778796	2.59673	0.662638	2.19645												
0.780533	2.59446	0.664719	2.19657												
0.78227	2.59221	0.6668	2.19668												
0.78401	2.58998	0.668881	2.19679												
0.785751	2.58777	0.670963	2.19691												
0.787494	2.58557	0.673044	2.19702												
0.789238	2.5834	0.675125	2.19713												
0.790984	2.58124	0.677206	2.19724												
0.792731	2.5791	0.679287	2.19735												
0.79448	2.57698	0.681369	2.19746												
0.79623	2.57487	0.68345	2.19757												
0.797983	2.57279	0.685531	2.19768												
0.799736	2.57072	0.687612	2.19779												
0.801491	2.56867	0.689693	2.19789												
0.803248	2.56663	0.691775	2.198												
0.805006	2.56462	0.693856	2.19811												
0.806765	2.56262	0.695937	2.19821												
0.808526	2.56063	0.698018	2.19831												
0.810289	2.55866	0.700099	2.19842												
0.812053	2.55671	0.702181	2.19852												
0.813818	2.55478	0.704262	2.19862												
0.815585	2.55286	0.706343	2.19873												
0.817353	2.55095	0.708424	2.19883												
0.819123	2.54906	0.710505	2.19893												
0.820894	2.54719	0.712587	2.19903												
0.822666	2.54533	0.714668	2.19913												
0.82444	2.54349	0.716749	2.19923												
0.826216	2.54166	0.71883	2.19932												
0.827992	2.53984	0.720911	2.19942												
0.82977	2.53804	0.722992	2.19952												
0.83155	2.53626	0.725074	2.19962												
0.833331	2.53449	0.727155	2.19971												
0.835113	2.53273	0.729236	2.19981												
0.836896	2.53099	0.731317	2.1999												
0.838681	2.52926	0.733398	2.2												
0.840467	2.52754	0.735479	2.20009												
0.842254	2.52584	0.73756	2.20019												
0.844043	2.52415	0.739642	2.20028												
0.845833	2.52248	0.741723	2.20037												
0.847625	2.52082	0.743804	2.20046												
0.849417	2.51917	0.745885	2.20055												
0.851211	2.51753	0.747966	2.20064												
0.853006	2.51591	0.750047	2.20074												
0.854803	2.5143	0.752128	2.20083												
0.8566	2.5127	0.754209	2.20091												
0.858399	2.51111	0.756291	2.201												
0.860199	2.50954	0.758372	2.20109												
0.862001	2.50798	0.760453	2.20118												
0.863803	2.50643	0.762534	2.20127												
0.865607	2.50489	0.764615	2.20135												
0.867412	2.50336	0.766696	2.20144												
0.869219	2.50185	0.768777	2.20153												
0.871026	2.50035	0.770858	2.20161												
0.872835	2.49886	0.772939	2.2017												
0.874644	2.49738	0.775021	2.20178												
0.876455	2.49591	0.777102	2.20187												
0.878267	2.49445	0.779183	2.20195												
0.880081	2.493	0.781264	2.20203												
0.881895	2.49157	0.783345	2.20212												
0.883711	2.49014	0.785426	2.2022												
0.885528	2.48873	0.787507	2.20228												
0.887346	2.48732	0.789588	2.20236												
0.889165	2.48593	0.791669	2.20244												
0.890985	2.48455	0.79375	2.20252												
0.892806	2.48317	0.795831	2.2026												
0.894628	2.48181	0.797912	2.20268												
0.896452	2.48046	0.799994	2.20276												
0.898276	2.47912	0.802075	2.20284												
0.900102	2.47778	0.804156	2.20292												
0.901929	2.47646	0.806237	2.203												
0.903756	2.47515	0.808318	2.20308												
0.905585	2.47384	0.810399	2.20315												
0.907415	2.47255	0.81248	2.20323												
0.909246	2.47126	0.814561	2.20331												
0.911078	2.46999	0.816642	2.20338												
0.912911	2.46872	0.818723	2.20346												
0.914745	2.46747	0.820804	2.20353												
0.91658	2.46622	0.822885	2.20361												
0.918416	2.46498	0.824966	2.20368												
0.920254	2.46375	0.827047	2.20376												
0.922092	2.46253	0.829128	2.20383												
0.923931	2.46131	0.831209	2.20391												
0.925771	2.46011	0.83329	2.20398												
0.927612	2.45892	0.835371	2.20405												
0.929455	2.45773	0.837453	2.20412												
0.931298	2.45655	0.839534	2.2042												
0.933142	2.45538	0.841615	2.20427												
0.934987	2.45422	0.843696	2.20434												
0.936833	2.45307	0.845777	2.20441												
0.93868	2.45192	0.847858	2.20448												
0.940528	2.45078	0.849939	2.20455												
0.942377	2.44965	0.85202	2.20462												
0.944227	2.44853	0.854101	2.20469												
0.946078	2.44742	0.856182	2.20476												
0.94793	2.44631	0.858263	2.20483												
0.949782	2.44522	0.860344	2.2049												
0.951636	2.44413	0.862425	2.20497												
0.953491	2.44304	0.864506	2.20504												
0.955346	2.44197	0.866587	2.2051												
0.957203	2.4409	0.868668	2.20517												
0.95906	2.43984	0.870749	2.20524												
0.960918	2.43879	0.87283	2.2053												
0.962777	2.43774	0.874911	2.20537												
0.964637	2.4367	0.876992	2.20544												
0.966498	2.43567	0.879073	2.2055												
0.96836	2.43464	0.881154	2.20557												
0.970222	2.43363	0.883235	2.20563												
0.972086	2.43262	0.885316	2.2057												
0.97395	2.43161	0.887397	2.20576												
0.975815	2.43061	0.889478	2.20583												
0.977681	2.42962	0.891559	2.20589												
0.979548	2.42864	0.89364	2.20595												
0.981416	2.42766	0.895721	2.20602												
0.983285	2.42669	0.897802	2.20608												
0.985154	2.42573	0.899883	2.20614												
0.987024	2.42477	0.901964	2.2062												
0.988895	2.42382	0.904045	2.20627												
0.990767	2.42287	0.906125	2.20633												
0.99264	2.42194	0.908206	2.20639												
0.994514	2.421	0.910287	2.20645												
0.996388	2.42008	0.912368	2.20651												
0.998263	2.41916	0.914449	2.20657												
1.00014	2.41824	0.91653	2.20663												
		0.918611	2.20669												
		0.920692	2.20675												
		0.922773	2.20681												
		0.924854	2.20687												
		0.926935	2.20693												
		0.929016	2.20699												
		0.931097	2.20705												
		0.933178	2.20711												
		0.935259	2.20717												
		0.93734	2.20722												
		0.939421	2.20728												
		0.941502	2.20734												
		0.943583	2.2074												
		0.945664	2.20745												
		0.947745	2.20751												
		0.949826	2.20757												
		0.951906	2.20762												
		0.953987	2.20768												
		0.956068	2.20773												
		0.958149	2.20779												
		0.96023	2.20784												
		0.962311	2.2079												
		0.964392	2.20795												
		0.966473	2.20801												
		0.968554	2.20806												
		0.970635	2.20811												
		0.972716	2.20817												
		0.974797	2.20822												
		0.976878	2.20827												
		0.978958	2.20833												
		0.981039	2.20838												
		0.98312	2.20843												
		0.985201	2.20849												
		0.987282	2.20854												
		0.989363	2.20859												
		0.991444	2.20864												
		0.993525	2.20869												
		0.995606	2.20874												
		0.997687	2.20879												
		0.999768	2.20885												
		1.00185	2.2089												
