Sym0		Asym0		Sym1		Sym2		Sym3		Asym1		Asym2		Asym3	
471  Points		492  Points		205  Points		144  Points		128  Points		368  Points		159  Points		127  Points	
Freq (MHz)	Vph (m/ms)	Freq (MHz)	Vph (m/ms)	Freq (MHz)	Vph (m/ms)	Freq (MHz)	Vph (m/ms)	Freq (MHz)	Vph (m/ms)	Freq (MHz)	Vph (m/ms)	Freq (MHz)	Vph (m/ms)	Freq (MHz)	Vph (m/ms)
0.0051985	7.29716	0.000527939	0.235597	0.279527	539.7	0.431159	635.99	0.559042	720.424	0.139844	208.183	0.419263	4854.93	0.698771	23873.5
0.0119962	7.29655	0.0010508	0.331215	0.279654	192.915	0.431233	267.908	0.559141	327.426	0.140266	87.4787	0.419317	411.882	0.698799	727.185
0.0187917	7.2955	0.0017424	0.424536	0.279902	117.541	0.431367	169.741	0.559312	211.91	0.14103	55.6302	0.419463	215.137	0.698879	369.258
0.0255835	7.29397	0.00259366	0.515029	0.280269	84.5964	0.431562	124.261	0.559557	156.691	0.142127	40.9964	0.4197	145.656	0.699012	247.494
0.0323704	7.29197	0.00359404	0.602255	0.280755	66.1424	0.431817	98.0353	0.559875	124.34	0.143549	32.6358	0.420028	110.153	0.699197	186.152
0.039151	7.28949	0.00473217	0.685888	0.281359	54.3542	0.432135	80.9785	0.560266	103.095	0.145283	27.2566	0.420448	88.6117	0.699434	149.205
0.0459238	7.28652	0.00599593	0.765664	0.28208	46.1813	0.432514	69.0024	0.56073	88.0798	0.147316	23.5257	0.420957	74.1575	0.699724	124.518
0.0526876	7.28305	0.00737354	0.841467	0.282916	40.1881	0.432956	60.1345	0.561267	76.9084	0.149632	20.8007	0.421557	63.7928	0.700065	106.862
0.0594407	7.27908	0.00885301	0.913206	0.283865	35.61	0.433462	53.3066	0.561876	68.2754	0.152215	18.7335	0.422246	56.0015	0.700459	93.6088
0.0661817	7.27459	0.0104232	0.980901	0.284925	32.0026	0.434033	47.8897	0.562556	61.4061	0.155049	17.1193	0.423025	49.9344	0.700904	83.2969
0.072909	7.26956	0.0120733	1.0446	0.286095	29.0899	0.43467	43.4892	0.563309	55.8122	0.158118	15.8297	0.423892	45.079	0.701401	75.0465
0.079621	7.26399	0.0137937	1.10442	0.287372	26.6912	0.435374	39.8454	0.564133	51.1702	0.161406	14.7803	0.424846	41.1075	0.70195	68.2969
0.0863158	7.25786	0.0155753	1.1605	0.288754	24.6835	0.436146	36.7799	0.565028	47.2576	0.164897	13.913	0.425888	37.8006	0.70255	62.6739
0.0929917	7.25114	0.01741	1.213	0.290238	22.9801	0.436989	34.1665	0.565992	43.9162	0.168577	13.1868	0.427016	35.0059	0.703201	57.9181
0.0996468	7.24381	0.0192906	1.26209	0.291822	21.5181	0.437902	31.9132	0.567027	41.0303	0.172432	12.5721	0.428229	32.6143	0.703903	53.8441
0.106279	7.23585	0.0212105	1.30797	0.293502	20.2508	0.438889	29.9514	0.568132	38.5137	0.176448	12.0465	0.429526	30.5456	0.704656	50.3157
0.112886	7.22724	0.023164	1.35083	0.295277	19.1427	0.439951	28.229	0.569305	36.3005	0.180613	11.5935	0.430907	28.7396	0.70546	47.2309
0.119466	7.21795	0.0251463	1.39086	0.297143	18.1664	0.441089	26.7055	0.570546	34.3396	0.184916	11.1999	0.43237	27.1501	0.706314	44.5116
0.126016	7.20794	0.027153	1.42825	0.299099	17.3005	0.442305	25.3493	0.571855	32.5908	0.189346	10.8556	0.433914	25.7411	0.707217	42.0968
0.132533	7.19719	0.0291802	1.46317	0.301141	16.5279	0.443602	24.1349	0.573231	31.022	0.193892	10.5526	0.435538	24.4842	0.708171	39.9386
0.139016	7.18565	0.030961	1.49174	0.303267	15.8349	0.444981	23.0419	0.574674	29.6073	0.198547	10.2844	0.437241	23.3566	0.709174	37.9986
0.14546	7.1733	0.0324879	1.5148	0.305474	15.2102	0.446444	22.0537	0.576182	28.3253	0.203301	10.0458	0.439022	22.3399	0.710226	36.2455
0.151863	7.16008	0.0337561	1.53302	0.307762	14.6447	0.447993	21.1565	0.577755	27.1587	0.208146	9.83259	0.44088	21.4189	0.711326	34.6539
0.158221	7.14595	0.0347619	1.5469	0.310126	14.1307	0.449631	20.3389	0.579393	26.0929	0.213076	9.64112	0.442812	20.5812	0.712476	33.2029
0.164531	7.13086	0.035503	1.55683	0.312567	13.662	0.451358	19.5914	0.581095	25.1158	0.218082	9.4685	0.444819	19.8164	0.713673	31.8747
0.170788	7.11477	0.035978	1.56306	0.315083	13.233	0.453177	18.9058	0.582859	24.2168	0.222503	9.3315	0.446898	19.1156	0.714918	30.6547
0.176989	7.09761	0.0366617	1.57186	0.317672	12.8394	0.455091	18.2753	0.584686	23.3874	0.226312	9.22349	0.449049	18.4714	0.716211	29.5304
0.183129	7.07932	0.0374059	1.58121	0.320334	12.4771	0.4571	17.6939	0.586575	22.6199	0.229487	9.1397	0.451269	17.8776	0.71755	28.4911
0.189203	7.05986	0.0384197	1.59358	0.323069	12.143	0.459206	17.1567	0.588524	21.908	0.232013	9.07672	0.453558	17.3287	0.718936	27.5278
0.195206	7.03914	0.0397043	1.60867	0.325878	11.8341	0.461411	16.6592	0.590533	21.2459	0.233879	9.03214	0.455915	16.82	0.720369	26.6326
0.201133	7.01712	0.041261	1.62615	0.32876	11.5481	0.463716	16.1976	0.592602	20.6289	0.235076	9.00434	0.458337	16.3475	0.721847	25.7986
0.206979	6.99371	0.0430912	1.64562	0.331717	11.2827	0.466123	15.7685	0.594729	20.0526	0.236803	8.96535	0.460824	15.9075	0.723371	25.0199
0.212736	6.96886	0.0451955	1.66668	0.334752	11.0362	0.468633	15.369	0.596915	19.5132	0.238686	8.92422	0.463374	15.4972	0.72494	24.2914
0.2184	6.9425	0.0473036	1.68647	0.337864	10.8069	0.471247	14.9965	0.599157	19.0076	0.241257	8.87027	0.465986	15.1136	0.726553	23.6084
0.223963	6.91456	0.0494144	1.70509	0.341059	10.5933	0.473966	14.6487	0.601455	18.5328	0.244525	8.80513	0.468659	14.7544	0.728211	22.967
0.22942	6.88499	0.0515273	1.72262	0.344337	10.3944	0.476789	14.3235	0.60381	18.0861	0.248499	8.73065	0.47139	14.4175	0.729913	22.3635
0.234764	6.85373	0.0536418	1.73914	0.347703	10.2089	0.479718	14.0191	0.606219	17.6652	0.253191	8.64877	0.47418	14.101	0.731657	21.7948
0.239989	6.82074	0.0557574	1.75472	0.35116	10.0358	0.482753	13.7338	0.608682	17.2682	0.25861	8.56141	0.477026	13.8032	0.733445	21.2581
0.245088	6.78597	0.0578737	1.76944	0.354711	9.87439	0.485894	13.4662	0.611198	16.8931	0.264064	8.48039	0.479927	13.5226	0.735275	20.7507
0.250056	6.74941	0.0599903	1.78336	0.358361	9.72378	0.489139	13.215	0.613767	16.5382	0.269549	8.40505	0.482883	13.2578	0.737148	20.2706
0.254887	6.71105	0.0621068	1.79652	0.361623	9.6008	0.49249	12.9788	0.616388	16.2021	0.275061	8.3348	0.485891	13.0077	0.739062	19.8155
0.259577	6.67089	0.0642233	1.80899	0.364467	9.5017	0.495945	12.7566	0.61906	15.8833	0.280598	8.26913	0.488951	12.7711	0.741017	19.3837
0.264121	6.62895	0.0663394	1.82081	0.366862	9.42355	0.499503	12.5475	0.621783	15.5807	0.286157	8.20758	0.492061	12.547	0.743013	18.9735
0.268517	6.58529	0.0684549	1.83202	0.368785	9.36408	0.503163	12.3503	0.624555	15.2932	0.291734	8.14976	0.495221	12.3345	0.745049	18.5834
0.272762	6.53996	0.0705699	1.84268	0.370215	9.32164	0.506924	12.1645	0.627377	15.0196	0.297327	8.0953	0.498429	12.1329	0.747125	18.212
0.276855	6.49304	0.0726841	1.85281	0.371138	9.29503	0.510785	11.9891	0.630247	14.7591	0.302933	8.04388	0.501684	11.9413	0.74924	17.858
0.280796	6.44465	0.0747976	1.86245	0.372474	9.25752	0.514743	11.8234	0.633165	14.5108	0.308549	7.99522	0.504985	11.7591	0.751395	17.5202
0.284586	6.39489	0.0769103	1.87164	0.37394	9.21772	0.518798	11.6669	0.636131	14.274	0.314174	7.94906	0.508332	11.5856	0.753588	17.1978
0.288226	6.34388	0.079022	1.88039	0.375956	9.16518	0.522946	11.5188	0.639143	14.0479	0.319804	7.90516	0.511722	11.4204	0.755819	16.8896
0.291721	6.29178	0.081133	1.88875	0.378543	9.10127	0.527187	11.3787	0.642201	13.8319	0.325438	7.86333	0.515157	11.2629	0.758088	16.5948
0.295074	6.23872	0.0832429	1.89673	0.381728	9.02761	0.531517	11.246	0.645305	13.6253	0.331073	7.82336	0.518634	11.1125	0.760394	16.3126
0.298289	6.18487	0.085352	1.90436	0.385541	8.94602	0.535936	11.1203	0.648453	13.4276	0.336707	7.78509	0.522152	10.9689	0.762738	16.0422
0.301372	6.13035	0.0874602	1.91166	0.390019	8.85842	0.54044	11.0011	0.651646	13.2384	0.342337	7.74836	0.525712	10.8317	0.765118	15.783
0.304327	6.07534	0.0895675	1.91864	0.394605	8.77685	0.545028	10.888	0.654884	13.057	0.347962	7.71302	0.529312	10.7005	0.767534	15.5343
0.307162	6.01997	0.0916739	1.92534	0.399295	8.70086	0.549696	10.7806	0.658164	12.8831	0.35358	7.67895	0.532952	10.5749	0.769986	15.2955
0.309883	5.96438	0.0937793	1.93176	0.404087	8.63006	0.554444	10.6786	0.661488	12.7162	0.359188	7.64604	0.536632	10.4546	0.772473	15.066
0.312495	5.9087	0.095884	1.93792	0.408975	8.56406	0.559267	10.5816	0.664855	12.5561	0.364784	7.61415	0.54035	10.3394	0.774996	14.8455
0.315005	5.85304	0.0979878	1.94384	0.413956	8.50247	0.564164	10.4893	0.668265	12.4022	0.370367	7.58321	0.544107	10.2289	0.777553	14.6333
0.317419	5.79754	0.100091	1.94952	0.419023	8.44494	0.569132	10.4015	0.671716	12.2544	0.375934	7.5531	0.547902	10.123	0.780145	14.4291
0.319744	5.74227	0.102193	1.95499	0.424172	8.39115	0.57417	10.3179	0.67521	12.1123	0.381483	7.52376	0.551734	10.0213	0.782771	14.2324
0.321984	5.68734	0.104295	1.96025	0.429397	8.34077	0.579273	10.2382	0.678745	11.9755	0.387012	7.49509	0.555104	9.93595	0.785431	14.0429
0.324146	5.63283	0.106395	1.96532	0.434691	8.29351	0.58444	10.1622	0.682322	11.8439	0.39252	7.46702	0.558	9.86556	0.788125	13.8601
0.326234	5.5788	0.108495	1.97021	0.440049	8.24911	0.589669	10.0896	0.68594	11.7172	0.398004	7.43949	0.560409	9.80891	0.790851	13.6839
0.328255	5.52532	0.110595	1.97491	0.445465	8.20729	0.594956	10.0204	0.6896	11.5952	0.403462	7.41243	0.562325	9.76508	0.793611	13.5138
0.330212	5.47245	0.112693	1.97946	0.450933	8.16784	0.59961	9.96251	0.693301	11.4776	0.408893	7.38578	0.563738	9.73339	0.796403	13.3495
0.332111	5.42022	0.114791	1.98384	0.456449	8.13053	0.603609	9.91494	0.697044	11.3643	0.414294	7.35948	0.564646	9.71334	0.799227	13.1909
0.333955	5.36869	0.116889	1.98808	0.462006	8.09517	0.606938	9.87677	0.700829	11.2551	0.419663	7.33348	0.565953	9.68483	0.802084	13.0375
0.335749	5.31787	0.118985	1.99217	0.4676	8.06159	0.609584	9.84731	0.704655	11.1497	0.424998	7.30773	0.567379	9.65426	0.804973	12.8893
0.337495	5.2678	0.121082	1.99613	0.473226	8.0296	0.611537	9.82604	0.708524	11.048	0.430298	7.2822	0.569326	9.61336	0.807894	12.7459
0.339199	5.21849	0.123177	1.99996	0.47888	7.99908	0.61279	9.8126	0.712435	10.9499	0.43556	7.25682	0.5718	9.56273	0.810845	12.6072
0.340862	5.16997	0.125272	2.00367	0.484557	7.96987	0.614596	9.79351	0.716389	10.8553	0.440782	7.23158	0.574811	9.50309	0.813829	12.4729
0.342488	5.12225	0.127367	2.00726	0.490253	7.94186	0.616564	9.77306	0.720387	10.7639	0.445963	7.20642	0.578369	9.43526	0.816843	12.3428
0.344079	5.07533	0.129461	2.01074	0.495966	7.91494	0.619251	9.74574	0.724429	10.6757	0.4511	7.18131	0.582487	9.36016	0.819888	12.2168
0.345639	5.02922	0.131555	2.01411	0.50169	7.88899	0.622664	9.71197	0.728516	10.5905	0.456192	7.15623	0.586641	9.28786	0.822964	12.0948
0.347169	4.98392	0.133648	2.01738	0.507423	7.86394	0.626813	9.67227	0.732649	10.5082	0.461236	7.13114	0.590832	9.21824	0.82607	11.9764
0.348672	4.93943	0.135741	2.02055	0.513163	7.83969	0.63171	9.62721	0.736828	10.4288	0.466232	7.10602	0.59506	9.15118	0.829207	11.8617
0.35015	4.89575	0.137833	2.02363	0.518906	7.81617	0.637365	9.57741	0.741056	10.3521	0.471177	7.08083	0.599325	9.08657	0.832374	11.7504
0.351605	4.85288	0.139925	2.02662	0.524649	7.79331	0.643057	9.52952	0.74478	10.2875	0.47607	7.05557	0.603627	9.02432	0.835571	11.6424
0.353039	4.8108	0.142016	2.02953	0.530391	7.77105	0.648782	9.48343	0.747985	10.2339	0.480908	7.03021	0.607966	8.96433	0.838797	11.5376
0.354453	4.76952	0.144108	2.03235	0.536128	7.74933	0.654538	9.43902	0.750657	10.1907	0.485691	7.00473	0.612342	8.9065	0.842053	11.4358
0.355849	4.72901	0.146198	2.0351	0.541859	7.72809	0.660323	9.3962	0.752783	10.1571	0.490417	6.97911	0.616756	8.85075	0.845339	11.337
0.357228	4.68928	0.148289	2.03777	0.547582	7.7073	0.666133	9.35485	0.754355	10.1329	0.495085	6.95334	0.621206	8.797	0.848654	11.241
0.358593	4.65032	0.150379	2.04037	0.553295	7.6869	0.671965	9.31487	0.755364	10.1175	0.499694	6.92742	0.625694	8.74517	0.851998	11.1477
0.359943	4.61211	0.152469	2.0429	0.558996	7.66686	0.677816	9.27618	0.75682	10.0956	0.504241	6.90132	0.630218	8.69517	0.85537	11.057
0.361109	4.57941	0.154558	2.04536	0.564683	7.64714	0.683684	9.23868	0.75841	10.0721	0.508728	6.87506	0.634778	8.64694	0.858772	10.9689
0.362096	4.55197	0.156647	2.04776	0.570354	7.62771	0.689565	9.20229	0.760583	10.0406	0.513151	6.8486	0.639375	8.60041	0.862202	10.8832
0.362908	4.52959	0.158736	2.0501	0.576009	7.60853	0.695456	9.16693	0.76335	10.0015	0.517511	6.82197	0.644008	8.55551	0.86566	10.7998
0.363547	4.51208	0.160825	2.05238	0.581646	7.58959	0.701353	9.1325	0.766725	9.95549	0.521808	6.79515	0.648677	8.51217	0.869147	10.7187
0.364016	4.49931	0.162913	2.0546	0.587264	7.57084	0.707253	9.09894	0.770726	9.90304	0.526039	6.76814	0.65338	8.47033	0.872662	10.6398
0.364315	4.49119	0.165001	2.05677	0.59286	7.55228	0.713152	9.06617	0.775374	9.84491	0.530206	6.74095	0.658118	8.42993	0.875747	10.5728
0.364744	4.47957	0.167089	2.05888	0.598434	7.53387	0.719048	9.03412	0.780085	9.78893	0.534308	6.71357	0.66289	8.39091	0.878394	10.5169
0.365209	4.46703	0.169177	2.06094	0.603985	7.5156	0.724937	9.00272	0.784861	9.73504	0.538345	6.68602	0.667694	8.35322	0.880594	10.4714
0.36584	4.45012	0.171264	2.06296	0.609512	7.49745	0.730815	8.97191	0.789705	9.68322	0.542317	6.6583	0.672531	8.31679	0.88234	10.4361
0.366636	4.42896	0.173352	2.06493	0.615012	7.47939	0.736678	8.94162	0.794618	9.6334	0.546223	6.63042	0.677399	8.28157	0.883629	10.4103
0.367593	4.40371	0.175438	2.06685	0.620487	7.46142	0.742524	8.91179	0.799602	9.58556	0.550065	6.60238	0.682298	8.24751	0.884455	10.394
0.368712	4.37456	0.177525	2.06872	0.625933	7.44352	0.748349	8.88238	0.804661	9.53966	0.553842	6.5742	0.687225	8.21456	0.885646	10.3707
0.36999	4.34173	0.179612	2.07056	0.631351	7.42568	0.754151	8.85334	0.809795	9.49564	0.557555	6.54588	0.692181	8.18267	0.886943	10.3455
0.371261	4.30953	0.181698	2.07235	0.636739	7.40788	0.759925	8.82461	0.815007	9.45347	0.561204	6.51743	0.697163	8.15178	0.888713	10.3118
0.372528	4.27797	0.183784	2.0741	0.642097	7.39011	0.765671	8.79616	0.820297	9.41311	0.564791	6.48888	0.702171	8.12186	0.890961	10.2696
0.37379	4.24702	0.18587	2.07582	0.647424	7.37235	0.771385	8.76795	0.825667	9.37451	0.568316	6.46022	0.707204	8.09286	0.893692	10.2196
0.375048	4.21667	0.187956	2.0775	0.652718	7.35461	0.777066	8.73997	0.831119	9.33762	0.571779	6.43147	0.71226	8.06473	0.896915	10.1621
0.376302	4.18692	0.190042	2.07914	0.657978	7.33686	0.782712	8.71218	0.836651	9.30241	0.575182	6.40265	0.717337	8.03743	0.900638	10.0977
0.377553	4.15774	0.192127	2.08074	0.663205	7.31911	0.788323	8.68457	0.842264	9.2688	0.578525	6.37376	0.722435	8.01092	0.904387	10.0349
0.378802	4.12913	0.194212	2.08232	0.668397	7.30134	0.793898	8.65713	0.847958	9.23676	0.58181	6.34482	0.727552	7.98516	0.908162	9.97367
0.380049	4.10107	0.196298	2.08386	0.673554	7.28354	0.799437	8.62986	0.853732	9.20622	0.585037	6.31584	0.732686	7.96012	0.911962	9.91397
0.381294	4.07355	0.198383	2.08536	0.678674	7.2657	0.804941	8.60275	0.859584	9.17712	0.588207	6.28684	0.737836	7.93574	0.915788	9.85574
0.382538	4.04657	0.200467	2.08684	0.683758	7.24783	0.81041	8.5758	0.865512	9.1494	0.591323	6.25782	0.743001	7.91201	0.919638	9.79892
0.383781	4.02009	0.202552	2.08829	0.688803	7.22991	0.815846	8.54904	0.871515	9.12301	0.594384	6.2288	0.74818	7.88888	0.923514	9.74349
0.385024	3.99413	0.204637	2.08971	0.693811	7.21195	0.821249	8.52245	0.87759	9.09787	0.597392	6.19979	0.753369	7.86633	0.927414	9.6894
0.386266	3.96866	0.206721	2.0911	0.698779	7.19392	0.826623	8.49607	0.883735	9.07393	0.600348	6.1708	0.758569	7.84431	0.931339	9.63659
0.387509	3.94367	0.208805	2.09246	0.703709	7.17584	0.831968	8.4699	0.889946	9.05112	0.603253	6.14185	0.763778	7.82281	0.935287	9.58505
0.388752	3.91916	0.21089	2.0938	0.708598	7.15769	0.837286	8.44395	0.896221	9.02938	0.606109	6.11294	0.768995	7.80179	0.93926	9.53472
0.389995	3.89511	0.212974	2.09511	0.713446	7.13948	0.842581	8.41825	0.902557	9.00865	0.608917	6.08408	0.774217	7.78122	0.943256	9.48557
0.39124	3.87152	0.215058	2.0964	0.718254	7.12119	0.847854	8.39281	0.908951	8.98888	0.611677	6.05529	0.779444	7.76108	0.947275	9.43756
0.392485	3.84836	0.217141	2.09766	0.72302	7.10283	0.853107	8.36763	0.915399	8.97	0.614391	6.02657	0.784674	7.74134	0.951317	9.39067
0.393732	3.82564	0.219225	2.0989	0.727744	7.0844	0.858342	8.34274	0.921899	8.95196	0.61706	5.99794	0.789907	7.72198	0.955382	9.34485
0.394981	3.80334	0.221309	2.10011	0.732426	7.06589	0.863562	8.31815	0.928448	8.93472	0.619685	5.9694	0.795139	7.70297	0.95947	9.30008
0.396231	3.78145	0.223392	2.1013	0.737066	7.04731	0.868768	8.29386	0.935042	8.91822	0.622268	5.94096	0.800371	7.6843	0.96358	9.25633
0.397483	3.75997	0.225476	2.10248	0.741662	7.02865	0.873962	8.26989	0.94168	8.90241	0.62481	5.91263	0.805601	7.66594	0.967712	9.21356
0.398737	3.73888	0.227559	2.10363	0.746216	7.00991	0.879146	8.24625	0.948358	8.88727	0.627311	5.88441	0.810828	7.64787	0.971866	9.17175
0.399994	3.71818	0.229642	2.10476	0.750726	6.99109	0.884322	8.22293	0.955073	8.87273	0.629773	5.85633	0.81605	7.63008	0.976042	9.13087
0.401253	3.69786	0.231725	2.10587	0.755193	6.97219	0.88949	8.19995	0.961824	8.85877	0.632196	5.82837	0.821267	7.61253	0.980238	9.0909
0.402514	3.6779	0.233808	2.10696	0.759616	6.95322	0.894653	8.17731	0.968608	8.84535	0.634583	5.80055	0.826476	7.59523	0.984456	9.0518
0.403778	3.65831	0.235891	2.10803	0.763996	6.93417	0.899811	8.15501	0.975423	8.83244	0.636934	5.77287	0.831677	7.57814	0.988695	9.01356
0.405045	3.63907	0.237974	2.10908	0.768331	6.91504	0.904966	8.13305	0.982267	8.82	0.639249	5.74534	0.83687	7.56126	0.992955	8.97615
0.406315	3.62017	0.240057	2.11011	0.772623	6.89585	0.910117	8.11143	0.989138	8.808	0.641531	5.71797	0.842052	7.54457	0.997235	8.93955
0.407588	3.60162	0.242139	2.11113	0.776871	6.87658	0.915267	8.09015	0.996033	8.79642	0.64378	5.69075	0.847222	7.52806	1.00154	8.90373
0.408864	3.58339	0.244222	2.11213	0.781076	6.85724	0.920415	8.0692	1.00295	8.78523	0.645996	5.6637	0.85238	7.5117		
0.410143	3.56549	0.246304	2.11311	0.785236	6.83784	0.925563	8.04859			0.648182	5.63682	0.857525	7.4955		
0.411425	3.5479	0.248387	2.11408	0.789353	6.81837	0.93071	8.0283			0.650337	5.61011	0.862655	7.47943		
0.412711	3.53062	0.250469	2.11503	0.793427	6.79884	0.935857	8.00834			0.652463	5.58357	0.86777	7.46349		
0.414001	3.51365	0.252551	2.11597	0.797457	6.77926	0.941003	7.98869			0.654561	5.55721	0.872869	7.44766		
0.415294	3.49697	0.254633	2.11689	0.801445	6.75961	0.94615	7.96935			0.656631	5.53104	0.87795	7.43194		
0.41659	3.48058	0.256716	2.1178	0.805389	6.73992	0.951297	7.95031			0.658674	5.50505	0.883014	7.41631		
0.41789	3.46447	0.258798	2.11869	0.809292	6.72018	0.956445	7.93157			0.660692	5.47924	0.888058	7.40076		
0.419194	3.44864	0.26088	2.11956	0.813151	6.70039	0.961592	7.91312			0.662684	5.45363	0.893082	7.38529		
0.420501	3.43309	0.262962	2.12043	0.816969	6.68056	0.96674	7.89494			0.664652	5.4282	0.898086	7.36989		
0.421813	3.41779	0.265043	2.12128	0.820745	6.6607	0.971887	7.87705			0.666597	5.40297	0.903069	7.35454		
0.423128	3.40276	0.267125	2.12212	0.82448	6.64079	0.977034	7.85941			0.668519	5.37794	0.908029	7.33925		
0.424447	3.38798	0.269207	2.12294	0.828174	6.62086	0.982179	7.84203			0.670418	5.3531	0.912967	7.32401		
0.42577	3.37346	0.271289	2.12375	0.831827	6.6009	0.987324	7.8249			0.672297	5.32845	0.917881	7.3088		
0.427097	3.35917	0.27337	2.12455	0.83544	6.58092	0.992467	7.80801			0.674154	5.30401	0.922771	7.29363		
0.428427	3.34513	0.275452	2.12534	0.839014	6.56091	0.997609	7.79134			0.675991	5.27976	0.927636	7.27848		
0.429762	3.33131	0.277533	2.12612	0.842548	6.54089	1.00275	7.7749			0.677809	5.25572	0.932476	7.26336		
0.431101	3.31773	0.279615	2.12688	0.846043	6.52086					0.679609	5.23187	0.937289	7.24825		
0.432444	3.30437	0.281696	2.12764	0.849499	6.50082					0.68139	5.20822	0.942077	7.23316		
0.433791	3.29123	0.283777	2.12838	0.852918	6.48077					0.683153	5.18478	0.946837	7.21807		
0.435142	3.27831	0.285859	2.12911	0.856298	6.46072					0.684899	5.16154	0.95157	7.20299		
0.436497	3.2656	0.28794	2.12983	0.859642	6.44067					0.686629	5.13849	0.956275	7.18791		
0.437856	3.25309	0.290021	2.13054	0.862949	6.42063					0.688343	5.11565	0.960951	7.17283		
0.439219	3.24079	0.292102	2.13124	0.86622	6.4006					0.690041	5.09301	0.965599	7.15775		
0.440587	3.22868	0.294183	2.13193	0.869454	6.38057					0.691725	5.07057	0.970217	7.14265		
0.441958	3.21677	0.296264	2.13262	0.872654	6.36056					0.693394	5.04832	0.974807	7.12755		
0.443334	3.20504	0.298345	2.13329	0.875819	6.34057					0.695049	5.02628	0.979366	7.11243		
0.444714	3.19351	0.300426	2.13395	0.878949	6.3206					0.696691	5.00443	0.983895	7.09731		
0.446097	3.18216	0.302507	2.13461	0.882045	6.30065					0.69832	4.98279	0.988394	7.08216		
0.447485	3.17098	0.304588	2.13525	0.885108	6.28073					0.699936	4.96134	0.992863	7.067		
0.448877	3.15998	0.306669	2.13589	0.888138	6.26084					0.70154	4.94008	0.997301	7.05183		
0.450274	3.14916	0.308749	2.13652	0.891136	6.24098					0.703132	4.91902	1.00171	7.03663		
0.451674	3.1385	0.31083	2.13714	0.894101	6.22116					0.704713	4.89815				
0.453078	3.12801	0.312911	2.13775	0.897035	6.20137					0.706283	4.87748				
0.454487	3.11768	0.314991	2.13835	0.899938	6.18162					0.707843	4.857				
0.455899	3.10751	0.317072	2.13895	0.902811	6.16192					0.709392	4.83671				
0.457316	3.09749	0.319153	2.13953	0.905653	6.14226					0.710932	4.81661				
0.458736	3.08763	0.321233	2.14011	0.908466	6.12265					0.712462	4.7967				
0.460161	3.07792	0.323314	2.14069	0.911249	6.10308					0.713983	4.77697				
0.46159	3.06835	0.325394	2.14125	0.914004	6.08357					0.715495	4.75743				
0.463023	3.05893	0.327474	2.14181	0.91673	6.06411					0.716999	4.73808				
0.46446	3.04965	0.329555	2.14236	0.919428	6.04471					0.718494	4.71891				
0.4659	3.04051	0.331635	2.14291	0.922099	6.02536					0.719981	4.69992				
0.467345	3.03151	0.333715	2.14345	0.924743	6.00607					0.721461	4.68111				
0.468794	3.02264	0.335796	2.14398	0.927361	5.98684					0.722934	4.66248				
0.470246	3.0139	0.337876	2.1445	0.929952	5.96768					0.7244	4.64403				
0.471703	3.00529	0.339956	2.14502	0.932518	5.94858					0.725859	4.62575				
0.473164	2.9968	0.342036	2.14553	0.935058	5.92954					0.727311	4.60765				
0.474628	2.98845	0.344116	2.14604	0.937574	5.91057					0.728757	4.58972				
0.476096	2.98021	0.346197	2.14654	0.940065	5.89167					0.730197	4.57196				
0.477568	2.97209	0.348277	2.14703	0.942532	5.87284					0.731631	4.55437				
0.479044	2.96409	0.350357	2.14752	0.944976	5.85408					0.73306	4.53695				
0.480524	2.9562	0.352437	2.14801	0.947396	5.8354					0.734484	4.5197				
0.482008	2.94843	0.354517	2.14848	0.949794	5.81679					0.735902	4.50261				
0.483495	2.94077	0.356597	2.14895	0.95217	5.79825					0.737315	4.48569				
0.484986	2.93322	0.358677	2.14942	0.954523	5.77979					0.738724	4.46893				
0.486481	2.92577	0.360757	2.14988	0.956854	5.7614					0.740128	4.45233				
0.48798	2.91843	0.362836	2.15034	0.959165	5.7431					0.741528	4.43589				
0.489482	2.91119	0.364916	2.15079	0.961455	5.72487					0.742924	4.4196				
0.490988	2.90406	0.366996	2.15123	0.963724	5.70672					0.744315	4.40348				
0.492498	2.89702	0.369076	2.15167	0.965973	5.68865					0.745704	4.38751				
0.494011	2.89009	0.371156	2.15211	0.968202	5.67067					0.747088	4.37169				
0.495528	2.88324	0.373235	2.15254	0.970412	5.65276					0.748469	4.35602				
0.497049	2.8765	0.375315	2.15296	0.972602	5.63494					0.749847	4.3405				
0.498573	2.86984	0.377395	2.15338	0.974775	5.61721					0.751221	4.32513				
0.5001	2.86328	0.379475	2.1538	0.976928	5.59955					0.752593	4.30991				
0.501631	2.85681	0.381554	2.15421	0.979064	5.58199					0.753962	4.29483				
0.503166	2.85042	0.383634	2.15462	0.981182	5.5645					0.755328	4.2799				
0.504704	2.84413	0.385713	2.15502	0.983283	5.54711					0.756692	4.26511				
0.506246	2.83791	0.387793	2.15542	0.985366	5.5298					0.758053	4.25046				
0.507791	2.83178	0.389873	2.15582	0.987433	5.51257					0.759412	4.23595				
0.509339	2.82574	0.391952	2.15621	0.989484	5.49544					0.760768	4.22158				
0.510891	2.81977	0.394032	2.15659	0.991518	5.47839					0.762123	4.20735				
0.512446	2.81388	0.396111	2.15698	0.993537	5.46143					0.763476	4.19325				
0.514004	2.80808	0.398191	2.15735	0.99554	5.44455					0.764827	4.17928				
0.515566	2.80234	0.40027	2.15773	0.997528	5.42777					0.766177	4.16545				
0.517131	2.79669	0.40235	2.1581	0.999502	5.41108					0.767524	4.15175				
0.5187	2.79111	0.404429	2.15847	1.00146	5.39447					0.768871	4.13817				
0.520271	2.7856	0.406508	2.15883							0.770216	4.12473				
0.521846	2.78016	0.408588	2.15919							0.771559	4.11141				
0.523424	2.7748	0.410667	2.15954							0.772902	4.09822				
0.525006	2.7695	0.412746	2.1599							0.774243	4.08515				
0.52659	2.76427	0.414826	2.16025							0.775584	4.0722				
0.528178	2.75911	0.416905	2.16059							0.776924	4.05938				
0.529768	2.75402	0.418984	2.16093							0.778262	4.04668				
0.531362	2.74899	0.421064	2.16127							0.7796	4.03409				
0.532959	2.74402	0.423143	2.16161							0.780938	4.02162				
0.534559	2.73912	0.425222	2.16194							0.782275	4.00927				
0.536162	2.73428	0.427301	2.16227							0.783611	3.99703				
0.537768	2.7295	0.42938	2.16259							0.784947	3.98491				
0.539377	2.72478	0.43146	2.16291							0.786283	3.9729				
0.540988	2.72012	0.433539	2.16323							0.787618	3.961				
0.542603	2.71552	0.435618	2.16355							0.788954	3.94921				
0.544221	2.71098	0.437697	2.16386							0.790289	3.93753				
0.545842	2.70649	0.439776	2.16417							0.791624	3.92596				
0.547465	2.70205	0.441855	2.16448							0.792959	3.91449				
0.549092	2.69768	0.443934	2.16478							0.794294	3.90313				
0.550721	2.69335	0.446013	2.16509							0.795629	3.89187				
0.552353	2.68908	0.448092	2.16538							0.796964	3.88072				
0.553988	2.68486	0.450171	2.16568							0.7983	3.86967				
0.555625	2.68069	0.45225	2.16597							0.799636	3.85872				
0.557265	2.67658	0.454329	2.16626							0.800972	3.84786				
0.558908	2.67251	0.456408	2.16655							0.802309	3.83711				
0.560554	2.66849	0.458487	2.16684							0.803646	3.82645				
0.562203	2.66452	0.460566	2.16712							0.804983	3.81589				
0.563854	2.6606	0.462645	2.1674							0.806321	3.80543				
0.565508	2.65672	0.464724	2.16768							0.80766	3.79506				
0.567164	2.65289	0.466803	2.16795							0.808999	3.78478				
0.568823	2.6491	0.468882	2.16823							0.810339	3.7746				
0.570484	2.64536	0.470961	2.1685							0.811679	3.76451				
0.572149	2.64167	0.47304	2.16877							0.813021	3.7545				
0.573815	2.63802	0.475118	2.16903							0.814363	3.74459				
0.575485	2.63441	0.477197	2.1693							0.815706	3.73476				
0.577156	2.63084	0.479276	2.16956							0.817049	3.72503				
0.578831	2.62731	0.481355	2.16982							0.818394	3.71538				
0.580507	2.62383	0.483434	2.17007							0.81974	3.70581				
0.582186	2.62038	0.485512	2.17033							0.821086	3.69633				
0.583868	2.61697	0.487591	2.17058							0.822434	3.68693				
0.585552	2.61361	0.48967	2.17083							0.823782	3.67762				
0.587238	2.61028	0.491749	2.17108							0.825132	3.66838				
0.588927	2.60699	0.493827	2.17132							0.826482	3.65923				
0.590618	2.60374	0.495906	2.17157							0.827834	3.65016				
0.592312	2.60052	0.497985	2.17181							0.829187	3.64116				
0.594007	2.59734	0.500063	2.17205							0.830541	3.63225				
0.595706	2.5942	0.502142	2.17229							0.831896	3.62341				
0.597406	2.59109	0.504221	2.17252							0.833253	3.61465				
0.599109	2.58802	0.506299	2.17276							0.83461	3.60597				
0.600813	2.58498	0.508378	2.17299							0.835969	3.59736				
0.602521	2.58197	0.510457	2.17322							0.837329	3.58882				
0.60423	2.579	0.512535	2.17345							0.838691	3.58036				
0.605941	2.57606	0.514614	2.17367							0.840054	3.57197				
0.607655	2.57316	0.516692	2.1739							0.841418	3.56365				
0.609371	2.57028	0.518771	2.17412							0.842783	3.55541				
0.611089	2.56744	0.52085	2.17434							0.84415	3.54723				
0.612809	2.56463	0.522928	2.17456							0.845519	3.53912				
0.614532	2.56185	0.525007	2.17478							0.846888	3.53109				
0.616256	2.55909	0.527085	2.17499							0.848259	3.52312				
0.617983	2.55637	0.529164	2.17521							0.849632	3.51522				
0.619711	2.55368	0.531242	2.17542							0.851006	3.50738				
0.621442	2.55102	0.533321	2.17563							0.852382	3.49961				
0.623174	2.54838	0.535399	2.17584							0.853759	3.49191				
0.624909	2.54578	0.537478	2.17605							0.855137	3.48427				
0.626646	2.5432	0.539556	2.17625							0.856517	3.47669				
0.628384	2.54065	0.541635	2.17646							0.857899	3.46918				
0.630125	2.53813	0.543713	2.17666							0.859282	3.46173				
0.631868	2.53563	0.545792	2.17686							0.860667	3.45435				
0.633612	2.53316	0.54787	2.17706							0.862053	3.44702				
0.635359	2.53072	0.549948	2.17726							0.863441	3.43976				
0.637107	2.5283	0.552027	2.17746							0.864831	3.43255				
0.638857	2.5259	0.554105	2.17765							0.866222	3.4254				
0.64061	2.52354	0.556183	2.17785							0.867614	3.41832				
0.642364	2.52119	0.558262	2.17804							0.869009	3.41129				
0.644119	2.51887	0.56034	2.17823							0.870405	3.40432				
0.645877	2.51658	0.562419	2.17842							0.871802	3.3974				
0.647637	2.51431	0.564497	2.17861							0.873202	3.39055				
0.649398	2.51206	0.566575	2.17879							0.874603	3.38375				
0.651161	2.50983	0.568654	2.17898							0.876005	3.377				
0.652926	2.50763	0.570732	2.17916							0.87741	3.37031				
0.654693	2.50545	0.57281	2.17934							0.878816	3.36367				
0.656462	2.50329	0.574888	2.17953							0.880223	3.35709				
0.658232	2.50116	0.576967	2.17971							0.881633	3.35056				
0.660004	2.49904	0.579045	2.17988							0.883044	3.34408				
0.661778	2.49695	0.581123	2.18006							0.884457	3.33765				
0.663553	2.49488	0.583202	2.18024							0.885871	3.33128				
0.66533	2.49283	0.58528	2.18041							0.887287	3.32495				
0.667109	2.4908	0.587358	2.18059							0.888705	3.31868				
0.66889	2.48879	0.589436	2.18076							0.890125	3.31246				
0.670672	2.4868	0.591514	2.18093							0.891547	3.30629				
0.672455	2.48483	0.593593	2.1811							0.89297	3.30016				
0.674241	2.48288	0.595671	2.18127							0.894395	3.29408				
0.676028	2.48095	0.597749	2.18144							0.895821	3.28806				
0.677817	2.47904	0.599827	2.1816							0.89725	3.28208				
0.679607	2.47714	0.601905	2.18177							0.89868	3.27614				
0.681399	2.47527	0.603984	2.18193							0.900112	3.27025				
0.683192	2.47341	0.606062	2.1821							0.901546	3.26441				
0.684987	2.47157	0.60814	2.18226							0.902981	3.25862				
0.686784	2.46975	0.610218	2.18242							0.904419	3.25287				
0.688582	2.46795	0.612296	2.18258							0.905858	3.24716				
0.690381	2.46616	0.614374	2.18274							0.907298	3.2415				
0.692182	2.4644	0.616452	2.18289							0.908741	3.23588				
0.693985	2.46264	0.618531	2.18305							0.910185	3.23031				
0.695789	2.46091	0.620609	2.18321							0.911631	3.22478				
0.697594	2.45919	0.622687	2.18336							0.913079	3.21929				
0.699401	2.45749	0.624765	2.18351							0.914529	3.21384				
0.70121	2.45581	0.626843	2.18366							0.915981	3.20844				
0.70302	2.45414	0.628921	2.18382							0.917434	3.20308				
0.704831	2.45248	0.630999	2.18397							0.918889	3.19776				
0.706644	2.45085	0.633077	2.18412							0.920346	3.19247				
0.708458	2.44922	0.635155	2.18426							0.921804	3.18723				
0.710274	2.44762	0.637233	2.18441							0.923265	3.18203				
0.712091	2.44602	0.639311	2.18456							0.924727	3.17687				
0.713909	2.44445	0.641389	2.1847							0.926191	3.17175				
0.715729	2.44289	0.643467	2.18485							0.927656	3.16666				
0.71755	2.44134	0.645545	2.18499							0.929124	3.16162				
0.719373	2.4398	0.647623	2.18513							0.930593	3.15661				
0.721197	2.43829	0.649701	2.18528							0.932064	3.15164				
0.723022	2.43678	0.651779	2.18542							0.933537	3.1467				
0.724848	2.43529	0.653857	2.18556							0.935011	3.14181				
0.726676	2.43381	0.655935	2.18569							0.936488	3.13695				
0.728505	2.43235	0.658013	2.18583							0.937966	3.13212				
0.730336	2.4309	0.660091	2.18597							0.939446	3.12734				
0.732167	2.42946	0.662169	2.18611							0.940927	3.12258				
0.734	2.42804	0.664247	2.18624							0.942411	3.11787				
0.735835	2.42663	0.666325	2.18638							0.943896	3.11318				
0.73767	2.42523	0.668403	2.18651							0.945383	3.10854				
0.739507	2.42384	0.670481	2.18664							0.946872	3.10392				
0.741345	2.42247	0.672559	2.18677							0.948362	3.09934				
0.743184	2.42111	0.674636	2.18691							0.949854	3.0948				
0.745025	2.41976	0.676714	2.18704							0.951348	3.09028				
0.746866	2.41842	0.678792	2.18717							0.952844	3.0858				
0.748709	2.4171	0.68087	2.18729							0.954342	3.08135				
0.750553	2.41578	0.682948	2.18742							0.955841	3.07694				
0.752399	2.41448	0.685026	2.18755							0.957342	3.07256				
0.754245	2.41319	0.687104	2.18768							0.958845	3.0682				
0.756093	2.41191	0.689182	2.1878							0.960349	3.06388				
0.757942	2.41065	0.691259	2.18793							0.961855	3.05959				
0.759792	2.40939	0.693337	2.18805							0.963363	3.05534				
0.761643	2.40815	0.695415	2.18817							0.964873	3.05111				
0.763495	2.40691	0.697493	2.1883							0.966384	3.04691				
0.765348	2.40569	0.699571	2.18842							0.967897	3.04274				
0.767203	2.40448	0.701648	2.18854							0.969412	3.03861				
0.769059	2.40328	0.703726	2.18866							0.970929	3.0345				
0.770915	2.40208	0.705804	2.18878							0.972447	3.03042				
0.772773	2.4009	0.707882	2.1889							0.973967	3.02637				
0.774632	2.39973	0.70996	2.18902							0.975489	3.02235				
0.776492	2.39857	0.712037	2.18914							0.977012	3.01835				
0.778353	2.39742	0.714115	2.18925							0.978537	3.01439				
0.780215	2.39628	0.716193	2.18937							0.980064	3.01045				
0.782078	2.39515	0.718271	2.18949							0.981592	3.00654				
0.783943	2.39403	0.720348	2.1896							0.983123	3.00266				
0.785808	2.39291	0.722426	2.18971							0.984655	2.99881				
0.787674	2.39181	0.724504	2.18983							0.986188	2.99498				
0.789542	2.39072	0.726582	2.18994							0.987723	2.99118				
0.79141	2.38963	0.728659	2.19005							0.98926	2.9874				
0.79328	2.38856	0.730737	2.19016							0.990799	2.98365				
0.79515	2.38749	0.732815	2.19028							0.992339	2.97993				
0.797022	2.38644	0.734892	2.19039							0.993881	2.97623				
0.798894	2.38539	0.73697	2.1905							0.995425	2.97256				
0.800768	2.38435	0.739048	2.1906							0.99697	2.96892				
0.802642	2.38332	0.741126	2.19071							0.998517	2.9653				
0.804517	2.3823	0.743203	2.19082							1.00007	2.9617				
0.806394	2.38128	0.745281	2.19093												
0.808271	2.38028	0.747358	2.19104												
0.810149	2.37928	0.749436	2.19114												
0.812029	2.37829	0.751514	2.19125												
0.813909	2.37731	0.753591	2.19135												
0.81579	2.37634	0.755669	2.19146												
0.817672	2.37538	0.757747	2.19156												
0.819555	2.37442	0.759824	2.19166												
0.821439	2.37347	0.761902	2.19177												
0.823324	2.37253	0.76398	2.19187												
0.82521	2.3716	0.766057	2.19197												
0.827096	2.37067	0.768135	2.19207												
0.828984	2.36975	0.770212	2.19217												
0.830872	2.36884	0.77229	2.19227												
0.832762	2.36794	0.774367	2.19237												
0.834652	2.36704	0.776445	2.19247												
0.836543	2.36616	0.778523	2.19257												
0.838435	2.36527	0.7806	2.19266												
0.840328	2.3644	0.782678	2.19276												
0.842221	2.36353	0.784755	2.19286												
0.844116	2.36267	0.786833	2.19295												
0.846011	2.36182	0.78891	2.19305												
0.847907	2.36097	0.790988	2.19314												
0.849804	2.36013	0.793065	2.19324												
0.851702	2.35929	0.795143	2.19333												
0.853601	2.35847	0.79722	2.19343												
0.8555	2.35765	0.799298	2.19352												
0.857401	2.35683	0.801375	2.19361												
0.859302	2.35602	0.803453	2.1937												
0.861204	2.35522	0.80553	2.1938												
0.863106	2.35443	0.807608	2.19389												
0.86501	2.35364	0.809685	2.19398												
0.866914	2.35285	0.811763	2.19407												
0.868819	2.35208	0.81384	2.19416												
0.870725	2.3513	0.815918	2.19425												
0.872632	2.35054	0.817995	2.19433												
0.874539	2.34978	0.820073	2.19442												
0.876447	2.34903	0.82215	2.19451												
0.878356	2.34828	0.824228	2.1946												
0.880266	2.34754	0.826305	2.19469												
0.882176	2.3468	0.828382	2.19477												
0.884087	2.34607	0.83046	2.19486												
0.885999	2.34534	0.832537	2.19494												
0.887912	2.34462	0.834615	2.19503												
0.889825	2.34391	0.836692	2.19511												
0.891739	2.3432	0.838769	2.1952												
0.893654	2.3425	0.840847	2.19528												
0.895569	2.3418	0.842924	2.19536												
0.897485	2.34111	0.845002	2.19545												
0.899402	2.34042	0.847079	2.19553												
0.90132	2.33974	0.849156	2.19561												
0.903238	2.33906	0.851234	2.19569												
0.905157	2.33839	0.853311	2.19578												
0.907077	2.33772	0.855388	2.19586												
0.908997	2.33706	0.857466	2.19594												
0.910918	2.3364	0.859543	2.19602												
0.91284	2.33574	0.86162	2.1961												
0.914762	2.3351	0.863698	2.19618												
0.916685	2.33445	0.865775	2.19626												
0.918609	2.33381	0.867852	2.19633												
0.920533	2.33318	0.86993	2.19641												
0.922458	2.33255	0.872007	2.19649												
0.924384	2.33193	0.874084	2.19657												
0.92631	2.33131	0.876162	2.19665												
0.928237	2.33069	0.878239	2.19672												
0.930164	2.33008	0.880316	2.1968												
0.932093	2.32947	0.882393	2.19687												
0.934021	2.32887	0.884471	2.19695												
0.935951	2.32827	0.886548	2.19703												
0.937881	2.32768	0.888625	2.1971												
0.939812	2.32709	0.890703	2.19718												
0.941743	2.32651	0.89278	2.19725												
0.943675	2.32592	0.894857	2.19732												
0.945607	2.32535	0.896934	2.1974												
0.94754	2.32478	0.899011	2.19747												
0.949474	2.32421	0.901089	2.19754												
0.951408	2.32364	0.903166	2.19762												
0.953343	2.32308	0.905243	2.19769												
0.955279	2.32253	0.90732	2.19776												
0.957215	2.32197	0.909398	2.19783												
0.959151	2.32142	0.911475	2.1979												
0.961089	2.32088	0.913552	2.19797												
0.963027	2.32034	0.915629	2.19804												
0.964965	2.3198	0.917706	2.19811												
0.966904	2.31927	0.919784	2.19818												
0.968843	2.31874	0.921861	2.19825												
0.970783	2.31821	0.923938	2.19832												
0.972724	2.31769	0.926015	2.19839												
0.974665	2.31717	0.928092	2.19846												
0.976607	2.31666	0.930169	2.19853												
0.978549	2.31614	0.932247	2.1986												
0.980492	2.31564	0.934324	2.19866												
0.982436	2.31513	0.936401	2.19873												
0.984379	2.31463	0.938478	2.1988												
0.986324	2.31413	0.940555	2.19886												
0.988269	2.31364	0.942632	2.19893												
0.990214	2.31315	0.944709	2.199												
0.99216	2.31266	0.946786	2.19906												
0.994107	2.31218	0.948864	2.19913												
0.996054	2.3117	0.950941	2.19919												
0.998002	2.31122	0.953018	2.19926												
0.99995	2.31074	0.955095	2.19932												
1.0019	2.31027	0.957172	2.19939												
		0.959249	2.19945												
		0.961326	2.19951												
		0.963403	2.19958												
		0.96548	2.19964												
		0.967557	2.1997												
		0.969634	2.19977												
		0.971711	2.19983												
		0.973788	2.19989												
		0.975866	2.19995												
		0.977943	2.20001												
		0.98002	2.20008												
		0.982097	2.20014												
		0.984174	2.2002												
		0.986251	2.20026												
		0.988328	2.20032												
		0.990405	2.20038												
		0.992482	2.20044												
		0.994559	2.2005												
		0.996636	2.20056												
		0.998713	2.20062												
		1.00079	2.20067												
