Sym0		Asym0		Sym1		Sym2		Sym3		Sym4		Asym1		Asym2		Asym3		Asym4	
542  Points		542  Points		440  Points		202  Points		188  Points		143  Points		495  Points		346  Points		192  Points		142  Points	
Freq (MHz)	Vph (m/ms)	Freq (MHz)	Vph (m/ms)	Freq (MHz)	Vph (m/ms)	Freq (MHz)	Vph (m/ms)	Freq (MHz)	Vph (m/ms)	Freq (MHz)	Vph (m/ms)	Freq (MHz)	Vph (m/ms)	Freq (MHz)	Vph (m/ms)	Freq (MHz)	Vph (m/ms)	Freq (MHz)	Vph (m/ms)
0.00136935	5.77413	0.000177391	0.121789	0.168244	299.998	0.27953	496.523	0.504735	1080.89	0.559031	1085.32	0.139755	2250.08	0.336493	1652.13	0.419277	800.29	0.672972	1232.32
0.00502111	5.77399	0.000364178	0.174332	0.168234	140.986	0.279607	233.896	0.504715	459.074	0.559085	487.204	0.139816	201.3	0.336485	402.432	0.419334	362.632	0.672918	570.969
0.00867252	5.77374	0.000616304	0.226461	0.168218	92.1373	0.279738	153.039	0.504677	291.405	0.559181	314.148	0.139979	105.484	0.336467	229.11	0.419432	234.474	0.672827	371.52
0.0123234	5.77337	0.000932831	0.278133	0.168194	68.4223	0.279925	113.775	0.504624	213.432	0.559318	231.847	0.140244	71.5723	0.336441	160.131	0.419573	173.286	0.672698	275.305
0.0159734	5.77288	0.00131233	0.329204	0.168165	54.411	0.280165	90.5863	0.504555	168.365	0.559495	183.748	0.14061	54.2491	0.336405	123.068	0.419755	137.457	0.672534	218.645
0.0196224	5.77226	0.00175323	0.379583	0.168129	45.1585	0.28046	75.2862	0.50447	139.001	0.559713	152.205	0.141075	43.7525	0.336359	99.93	0.41998	113.933	0.672337	181.302
0.0232701	5.77152	0.00225383	0.429197	0.168088	38.5917	0.280809	64.4395	0.504369	118.349	0.559971	129.929	0.141639	36.724	0.336306	84.1099	0.420245	97.3096	0.67211	154.834
0.0269161	5.77062	0.00281227	0.477973	0.168042	33.6892	0.281211	56.353	0.504255	103.032	0.560268	113.362	0.142298	31.6972	0.336243	72.6093	0.420552	84.9412	0.671853	135.092
0.0305603	5.76958	0.00342631	0.525815	0.167992	29.8893	0.281665	50.095	0.504127	91.2181	0.560603	100.562	0.143053	27.9304	0.336173	63.871	0.420899	75.382	0.671572	119.801
0.0342023	5.76839	0.00409392	0.572685	0.167937	26.8574	0.282172	45.1109	0.503985	81.8282	0.560976	90.3754	0.143899	25.0076	0.336095	57.0061	0.421287	67.7745	0.671267	107.606
0.0378417	5.76704	0.00481277	0.61852	0.16788	24.3822	0.28273	41.0495	0.503831	74.1853	0.561387	82.0784	0.144836	22.6778	0.33601	51.4704	0.421714	61.5779	0.670942	97.6533
0.0414782	5.76553	0.00558047	0.663272	0.167821	22.3231	0.283339	37.6781	0.503666	67.8431	0.561833	75.1909	0.145859	20.7803	0.335919	46.9115	0.42218	56.4342	0.6706	89.3762
0.0451114	5.76384	0.0063948	0.70692	0.167761	20.5834	0.283998	34.8359	0.503489	62.4953	0.562315	69.3827	0.146968	19.2075	0.335821	43.0919	0.422685	52.0973	0.670242	82.3841
0.0487409	5.76196	0.00725325	0.749422	0.1677	19.0943	0.284706	32.4086	0.503303	57.9249	0.562832	64.4193	0.148159	17.8848	0.335718	39.845	0.423227	48.3919	0.66987	76.3993
0.0523661	5.75988	0.00815353	0.790767	0.167641	17.8053	0.285463	30.3124	0.503108	53.9738	0.563382	60.1297	0.149428	16.7587	0.33561	37.051	0.423807	45.1903	0.669488	71.2185
0.0559867	5.75759	0.00909325	0.830937	0.167583	16.6789	0.286267	28.4848	0.502905	50.5239	0.563965	56.3857	0.150775	15.7897	0.335498	34.6213	0.424424	42.3969	0.669097	66.6901
0.0596019	5.75506	0.0100702	0.869929	0.167529	15.6861	0.287117	26.8779	0.502695	47.4856	0.56458	53.0902	0.152194	14.9483	0.335383	32.489	0.425077	39.9388	0.668699	62.698
0.0632111	5.75227	0.011082	0.907743	0.16748	14.8048	0.288014	25.4548	0.502478	44.7893	0.565226	50.1673	0.153685	14.2118	0.335264	30.6026	0.425765	37.7596	0.668295	59.1524
0.0668137	5.74922	0.0121266	0.944383	0.167437	14.0173	0.288954	24.186	0.502256	42.3804	0.565902	47.5577	0.155243	13.5627	0.335144	28.922	0.426487	35.8149	0.667887	55.9824
0.0704086	5.74586	0.0132018	0.97986	0.167401	13.3096	0.289939	23.0483	0.50203	40.2151	0.566608	45.2138	0.156865	12.9869	0.335022	27.4152	0.427244	34.0689	0.667476	53.1314
0.0739951	5.74216	0.0143057	1.01418	0.167375	12.6704	0.290967	22.0228	0.5018	38.2584	0.567341	43.0973	0.15855	12.4733	0.3349	26.0566	0.428033	32.4932	0.667064	50.5535
0.0775718	5.7381	0.0154363	1.04738	0.16736	12.0904	0.292036	21.094	0.501568	36.4816	0.568102	41.1768	0.160295	12.0128	0.334778	24.8255	0.428856	31.0642	0.666652	48.2115
0.0811377	5.73363	0.0165918	1.07946	0.167359	11.5621	0.293146	20.2491	0.501333	34.8608	0.56889	39.4265	0.162095	11.598	0.334656	23.7047	0.42971	29.7626	0.66624	46.0743
0.0846912	5.72871	0.0177705	1.11045	0.167373	11.0789	0.294296	19.4776	0.501098	33.3766	0.569703	37.825	0.16395	11.2229	0.334537	22.6802	0.430595	28.5722	0.66583	44.1164
0.0882306	5.72328	0.0189706	1.14037	0.167405	10.6358	0.295485	18.7706	0.500862	32.0124	0.570541	36.3541	0.165857	10.8822	0.334419	21.7401	0.43151	27.4797	0.665423	42.3162
0.091754	5.71728	0.0201906	1.16925	0.167458	10.2282	0.296712	18.1205	0.500627	30.7542	0.571404	34.9986	0.167812	10.5718	0.334305	20.8744	0.432455	26.4737	0.665019	40.6553
0.0952589	5.71063	0.021429	1.19712	0.167535	9.85229	0.297975	17.5209	0.500393	29.5901	0.57229	33.7457	0.169813	10.288	0.334195	20.0748	0.433429	25.5443	0.664619	39.1184
0.0987428	5.70324	0.0226845	1.22401	0.167639	9.50492	0.299274	16.9663	0.500161	28.5102	0.573199	32.5841	0.171859	10.0277	0.33409	19.3339	0.434431	24.6833	0.664223	37.692
0.102202	5.69501	0.0239557	1.24995	0.167776	9.18334	0.300608	16.4521	0.499932	27.5055	0.57413	31.5043	0.173946	9.78829	0.33399	18.6457	0.435461	23.8835	0.663833	36.3647
0.105633	5.68581	0.0252414	1.27496	0.167949	8.88522	0.301976	15.974	0.499707	26.5686	0.575082	30.4982	0.176073	9.56747	0.333897	18.0048	0.436517	23.1388	0.663449	35.1267
0.109031	5.67551	0.0265405	1.29908	0.168164	8.60857	0.303377	15.5286	0.499485	25.6929	0.576056	29.5584	0.178238	9.3633	0.333811	17.4065	0.4376	22.4438	0.663071	33.9692
0.112391	5.66391	0.0278519	1.32234	0.168391	8.38367	0.304809	15.1127	0.499269	24.8725	0.577049	28.6787	0.180437	9.17404	0.333732	16.8468	0.438708	21.7937	0.6627	32.8847
0.115705	5.65082	0.0291746	1.34475	0.168618	8.20308	0.306273	14.7236	0.499057	24.1026	0.578062	27.8535	0.18267	8.99821	0.333663	16.3222	0.439841	21.1844	0.662336	31.8665
0.118966	5.63599	0.0305077	1.36637	0.168831	8.0611	0.307766	14.3588	0.498852	23.3786	0.579094	27.078	0.184934	8.8345	0.333603	15.8296	0.440998	20.6123	0.66198	30.9089
0.122163	5.61913	0.0318504	1.38721	0.169018	7.95337	0.309289	14.0162	0.498654	22.6966	0.580144	26.348	0.187227	8.68175	0.333554	15.3661	0.442179	20.074	0.661632	30.0065
0.125287	5.5999	0.0332017	1.4073	0.169167	7.87663	0.31084	13.694	0.498462	22.053	0.581213	25.6594	0.189548	8.53893	0.333516	14.9293	0.443383	19.5669	0.661292	29.1549
0.128323	5.57791	0.034561	1.42667	0.169267	7.8286	0.312418	13.3905	0.498278	21.4448	0.582299	25.0091	0.191893	8.40513	0.33349	14.5172	0.444609	19.0882	0.660961	28.3498
0.131255	5.55272	0.0359275	1.44535	0.169418	7.76101	0.314022	13.104	0.498103	20.8692	0.583401	24.3938	0.194263	8.27955	0.333477	14.1277	0.445857	18.6358	0.660639	27.5876
0.134067	5.52387	0.0373007	1.46336	0.169593	7.68946	0.315652	12.8333	0.497937	20.3237	0.58452	23.8109	0.196345	8.17625	0.333478	13.7591	0.447126	18.2075	0.660327	26.865
0.136739	5.49088	0.03868	1.48073	0.16985	7.5953	0.317306	12.5772	0.497779	19.806	0.585656	23.258	0.198133	8.09236	0.333494	13.4098	0.448415	17.8016	0.660024	26.1791
0.139253	5.45332	0.0400647	1.49748	0.170207	7.4813	0.318984	12.3345	0.497632	19.3141	0.586806	22.7327	0.199619	8.0257	0.333526	13.0785	0.449725	17.4163	0.659731	25.5271
0.14159	5.41083	0.0414545	1.51364	0.170692	7.35085	0.320685	12.1042	0.497495	18.8462	0.587972	22.2331	0.200798	7.97464	0.333574	12.7638	0.451054	17.0501	0.659449	24.9067
0.143737	5.36325	0.0426692	1.52726	0.171346	7.20793	0.322407	11.8855	0.497369	18.4006	0.589153	21.7574	0.201668	7.93798	0.33364	12.4647	0.452402	16.7018	0.659177	24.3156
0.145685	5.31062	0.0437072	1.53854	0.172224	7.05707	0.324151	11.6775	0.497254	17.9757	0.590347	21.304	0.202226	7.9149	0.333726	12.1801	0.453768	16.37	0.658915	23.7518
0.147433	5.25323	0.0445671	1.54765	0.173255	6.91999	0.325915	11.4795	0.497152	17.5703	0.591556	20.8712	0.20303	7.88224	0.333831	11.909	0.455153	16.0537	0.658665	23.2136
0.148987	5.19162	0.045248	1.55471	0.174459	6.79642	0.327698	11.2908	0.497061	17.183	0.592778	20.4579	0.203905	7.8474	0.333957	11.6507	0.456554	15.7517	0.658426	22.6992
0.150361	5.1265	0.0457492	1.55982	0.175854	6.68603	0.329499	11.1107	0.496984	16.8128	0.594014	20.0626	0.205098	7.80109	0.334105	11.4042	0.457972	15.4632	0.658199	22.2072
0.151571	5.05868	0.0460702	1.56306	0.177453	6.5884	0.331319	10.9388	0.496919	16.4584	0.595262	19.6843	0.206611	7.74422	0.334278	11.169	0.459407	15.1873	0.657983	21.7361
0.152637	4.98897	0.0465319	1.56767	0.179264	6.50292	0.333155	10.7744	0.496869	16.1191	0.596523	19.3219	0.208448	7.67785	0.334475	10.9443	0.460857	14.9233	0.65778	21.2846
0.153581	4.91814	0.0470341	1.57263	0.181285	6.42876	0.335007	10.6172	0.496833	15.7939	0.597795	18.9744	0.21061	7.60315	0.334698	10.7296	0.462323	14.6703	0.657588	20.8517
0.154421	4.84686	0.0477178	1.57926	0.18351	6.36491	0.336874	10.4665	0.496812	15.482	0.59908	18.6409	0.213101	7.52133	0.334949	10.5242	0.463803	14.4277	0.657409	20.4362
0.155174	4.77571	0.0485833	1.5875	0.185925	6.31024	0.338755	10.3222	0.496806	15.1825	0.600376	18.3207	0.215599	7.44335	0.335229	10.3278	0.465297	14.1949	0.657243	20.0371
0.155857	4.70514	0.0496313	1.59722	0.188512	6.26358	0.34065	10.1836	0.496816	14.895	0.601683	18.013	0.218103	7.36891	0.33554	10.1398	0.466806	13.9714	0.657089	19.6534
0.156482	4.6355	0.0508624	1.60831	0.19125	6.22378	0.342557	10.0506	0.496843	14.6186	0.603	17.717	0.220612	7.29772	0.335884	9.95984	0.468327	13.7565	0.656949	19.2845
0.15706	4.56707	0.0522772	1.62064	0.19412	6.18978	0.344476	9.9228	0.496886	14.3527	0.604329	17.432	0.223122	7.22952	0.336262	9.7875	0.469861	13.5498	0.656822	18.9293
0.157601	4.50004	0.0536938	1.63255	0.197103	6.16065	0.346405	9.79984	0.496947	14.097	0.605667	17.1576	0.225633	7.16406	0.336676	9.62242	0.471408	13.3509	0.656709	18.5872
0.158113	4.43456	0.0551122	1.64406	0.200181	6.13558	0.348345	9.68149	0.497025	13.8507	0.607015	16.8932	0.228142	7.10112	0.337129	9.46429	0.472966	13.1594	0.656609	18.2576
0.158601	4.37072	0.056532	1.65519	0.203341	6.11389	0.350294	9.56748	0.497123	13.6135	0.608373	16.6381	0.230647	7.04049	0.337622	9.31278	0.474536	12.9747	0.656524	17.9397
0.159071	4.30859	0.0579531	1.66594	0.206568	6.09503	0.35225	9.45755	0.497239	13.3849	0.60974	16.392	0.233146	6.98197	0.338158	9.16763	0.476116	12.7966	0.656453	17.6331
0.159528	4.24819	0.0593753	1.67635	0.209853	6.07853	0.354214	9.35149	0.497376	13.1644	0.611116	16.1543	0.235636	6.92538	0.338739	9.02857	0.477707	12.6248	0.656397	17.337
0.159975	4.18953	0.0607984	1.68642	0.213187	6.06401	0.356185	9.24908	0.497532	12.9517	0.612501	15.9247	0.238116	6.87055	0.339367	8.89536	0.479308	12.4589	0.656355	17.0511
0.160359	4.13983	0.0622224	1.69616	0.216563	6.05117	0.358161	9.15012	0.49771	12.7465	0.613894	15.7027	0.240582	6.81731	0.340045	8.76777	0.480917	12.2985	0.656329	16.7748
0.160683	4.0985	0.063647	1.70559	0.219973	6.03973	0.360141	9.05442	0.497909	12.5484	0.615295	15.4879	0.243033	6.7655	0.340775	8.64561	0.482536	12.1435	0.656318	16.5077
0.160951	4.06503	0.0650721	1.71471	0.223414	6.0295	0.362125	8.9618	0.49813	12.357	0.616703	15.2801	0.245465	6.715	0.341455	8.54342	0.484163	11.9936	0.656323	16.2493
0.161161	4.03902	0.0664976	1.72355	0.226881	6.0203	0.364112	8.8721	0.498375	12.1721	0.61812	15.0789	0.247877	6.66564	0.34207	8.45935	0.485799	11.8484	0.656343	15.9993
0.161316	4.02014	0.0679234	1.73212	0.23037	6.01198	0.3661	8.78516	0.498643	11.9934	0.619543	14.884	0.250265	6.61732	0.342602	8.3919	0.487441	11.7079	0.65638	15.7573
0.161416	4.00817	0.0693494	1.74041	0.233878	6.00443	0.368089	8.70084	0.498936	11.8206	0.620973	14.6951	0.252627	6.56989	0.34304	8.33986	0.48909	11.5717	0.656434	15.5229
0.161558	3.99112	0.0707756	1.74845	0.237402	5.99754	0.370078	8.619	0.499253	11.6535	0.62241	14.5119	0.254959	6.52325	0.343371	8.30231	0.490746	11.4397	0.656504	15.2958
0.161713	3.97278	0.0722018	1.75624	0.240942	5.99122	0.37181	8.54959	0.499597	11.4919	0.623853	14.3342	0.257259	6.47728	0.343587	8.2786	0.492407	11.3117	0.656592	15.0757
0.161924	3.94818	0.073628	1.7638	0.244494	5.98541	0.373285	8.49177	0.499967	11.3355	0.625302	14.1617	0.259524	6.43189	0.343903	8.24493	0.494074	11.1874	0.656697	14.8623
0.162192	3.9176	0.075054	1.77113	0.248057	5.98005	0.374504	8.44486	0.500365	11.1841	0.626756	13.9942	0.26175	6.38696	0.344255	8.20891	0.495746	11.0668	0.656819	14.6553
0.162518	3.88141	0.0764799	1.77824	0.251629	5.97507	0.375467	8.40832	0.500791	11.0376	0.628216	13.8314	0.263936	6.34241	0.344746	8.16085	0.497422	10.9496	0.65696	14.4544
0.162902	3.84005	0.0779056	1.78513	0.25521	5.97044	0.376174	8.38176	0.501247	10.8958	0.629682	13.6733	0.266077	6.29815	0.34539	8.10158	0.499102	10.8357	0.65712	14.2595
0.163348	3.79398	0.0793311	1.79183	0.258798	5.96611	0.376626	8.36489	0.501732	10.7584	0.631151	13.5196	0.268172	6.25411	0.346203	8.03213	0.500785	10.725	0.657298	14.0703
0.163799	3.74938	0.0807562	1.79833	0.262393	5.96205	0.377276	8.34083	0.502248	10.6254	0.632626	13.37	0.270218	6.21022	0.347205	7.95368	0.502471	10.6173	0.657495	13.8865
0.164256	3.70619	0.0821811	1.80464	0.265993	5.95823	0.377981	8.31491	0.502796	10.4965	0.634104	13.2245	0.272212	6.16642	0.348422	7.86757	0.504159	10.5125	0.657712	13.708
0.164719	3.66436	0.0836055	1.81077	0.269598	5.95463	0.37894	8.28004	0.503377	10.3717	0.635586	13.0828	0.274152	6.12264	0.349711	7.7855	0.505849	10.4104	0.657949	13.5345
0.165191	3.62385	0.0850296	1.81673	0.273208	5.95122	0.38015	8.23656	0.503992	10.2508	0.637072	12.9449	0.276036	6.07886	0.351075	7.70734	0.50754	10.311	0.658206	13.3659
0.165669	3.58462	0.0864532	1.82252	0.27682	5.94797	0.38161	8.18488	0.504641	10.1336	0.638561	12.8105	0.277863	6.03503	0.352515	7.63296	0.509231	10.2141	0.658484	13.202
0.166156	3.54663	0.0878763	1.82815	0.280436	5.94488	0.383318	8.12546	0.505325	10.0201	0.640053	12.6796	0.279631	5.99114	0.35403	7.56222	0.510922	10.1197	0.658783	13.0426
0.166652	3.50982	0.089299	1.83362	0.284055	5.94191	0.38527	8.05879	0.506046	9.91015	0.641547	12.5519	0.281339	5.94715	0.355623	7.49499	0.512613	10.0276	0.659104	12.8876
0.167156	3.47416	0.0907212	1.83894	0.287675	5.93907	0.387213	7.99368	0.506804	9.80357	0.643044	12.4274	0.282988	5.90308	0.357293	7.43113	0.514302	9.93767	0.659446	12.7368
0.167669	3.43961	0.0921429	1.84412	0.291297	5.93633	0.389145	7.93002	0.5076	9.7003	0.644543	12.306	0.284576	5.85892	0.359039	7.3705	0.51599	9.84991	0.659811	12.59
0.168191	3.40614	0.093564	1.84915	0.29492	5.93368	0.391065	7.86776	0.508436	9.60024	0.646043	12.1874	0.286105	5.81468	0.360861	7.31296	0.517676	9.76421	0.660198	12.4472
0.168723	3.37369	0.0949847	1.85405	0.298543	5.93112	0.392973	7.80681	0.509311	9.50328	0.647544	12.0717	0.287575	5.77039	0.362758	7.25837	0.519359	9.68046	0.660609	12.3082
0.169264	3.34224	0.0964047	1.85883	0.302167	5.92862	0.394868	7.74712	0.510228	9.40934	0.649046	11.9587	0.288987	5.72605	0.364729	7.2066	0.521038	9.59861	0.661044	12.1728
0.169814	3.31175	0.0978243	1.86347	0.305791	5.92618	0.396748	7.6886	0.511185	9.31832	0.650549	11.8484	0.290343	5.68171	0.366771	7.15751	0.522713	9.51857	0.661502	12.041
0.170374	3.28219	0.0992432	1.868	0.309414	5.92378	0.398613	7.6312	0.512186	9.23013	0.652053	11.7405	0.291644	5.6374	0.368882	7.11095	0.524384	9.44027	0.661985	11.9127
0.170944	3.25352	0.100662	1.8724	0.313036	5.92143	0.400461	7.57487	0.513229	9.14471	0.653556	11.6351	0.292892	5.59315	0.371061	7.06679	0.526049	9.36364	0.662494	11.7877
0.171523	3.22572	0.102079	1.8767	0.316656	5.9191	0.402292	7.51955	0.514316	9.06195	0.655058	11.532	0.29409	5.549	0.373304	7.0249	0.527709	9.28862	0.663027	11.6659
0.172112	3.19875	0.103497	1.88088	0.320275	5.9168	0.404105	7.46519	0.515447	8.98179	0.65656	11.4311	0.295239	5.505	0.37561	6.98515	0.529362	9.21513	0.663587	11.5472
0.172711	3.17258	0.104913	1.88496	0.323892	5.9145	0.405899	7.41174	0.516469	8.914	0.658061	11.3325	0.296343	5.46119	0.377975	6.94741	0.531009	9.14313	0.664173	11.4316
0.173319	3.14719	0.106329	1.88894	0.327505	5.91221	0.407674	7.35916	0.517368	8.85768	0.65956	11.2359	0.297404	5.41759	0.380396	6.91157	0.532648	9.07256	0.664786	11.319
0.173937	3.12255	0.107745	1.89282	0.331116	5.90992	0.409429	7.30741	0.51813	8.81211	0.661057	11.1414	0.298424	5.37426	0.382871	6.8775	0.534279	9.00335	0.665426	11.2092
0.174564	3.09863	0.10916	1.89661	0.334722	5.9076	0.411164	7.25645	0.518744	8.77671	0.662552	11.0488	0.299407	5.33123	0.385397	6.84511	0.535694	8.94412	0.666093	11.1021
0.175201	3.07541	0.110574	1.9003	0.338325	5.90526	0.412877	7.20626	0.519203	8.75103	0.664045	10.9581	0.300353	5.28853	0.38797	6.81428	0.536895	8.8944	0.666789	10.9978
0.175848	3.05287	0.111988	1.9039	0.341922	5.90288	0.41457	7.1568	0.5195	8.73475	0.665534	10.8693	0.301267	5.24619	0.39059	6.78491	0.537883	8.8538	0.667514	10.8961
0.176504	3.03097	0.113401	1.90742	0.345513	5.90046	0.416241	7.10805	0.519931	8.71155	0.667021	10.7822	0.30215	5.20425	0.393252	6.75692	0.538663	8.82202	0.668267	10.7969
0.177169	3.00971	0.114814	1.91085	0.349098	5.89797	0.417892	7.05998	0.520404	8.68662	0.668504	10.6968	0.303004	5.16273	0.395954	6.73021	0.539234	8.79883	0.66905	10.7002
0.177843	2.98905	0.116226	1.9142	0.352675	5.89542	0.419522	7.01259	0.521058	8.65316	0.669983	10.6131	0.303833	5.12166	0.398693	6.7047	0.5396	8.78406	0.669863	10.6059
0.178527	2.96898	0.117637	1.91748	0.356244	5.89277	0.421131	6.96585	0.521901	8.61159	0.671458	10.5309	0.304637	5.08105	0.401469	6.68032	0.540124	8.76295	0.670706	10.514
0.17922	2.94948	0.119048	1.92068	0.359803	5.89002	0.422722	6.91977	0.522943	8.56241	0.672928	10.4503	0.30542	5.04092	0.404277	6.65699	0.540692	8.74014	0.671579	10.4243
0.179921	2.93053	0.120459	1.9238	0.363351	5.88716	0.424293	6.87433	0.524198	8.5062	0.674393	10.3712	0.306182	5.0013	0.407116	6.63465	0.541462	8.70935	0.672484	10.3369
0.180632	2.9121	0.121869	1.92685	0.366887	5.88415	0.425848	6.82953	0.525681	8.44361	0.675853	10.2935	0.306926	4.96219	0.409984	6.61323	0.542434	8.67078	0.673419	10.2516
0.181352	2.8942	0.123278	1.92984	0.370409	5.88098	0.427386	6.78538	0.52721	8.38301	0.677308	10.2173	0.307653	4.9236	0.412879	6.59267	0.543602	8.6247	0.674386	10.1684
0.18208	2.87678	0.124687	1.93276	0.373915	5.87762	0.428911	6.74189	0.528785	8.32434	0.678757	10.1424	0.308365	4.88554	0.4158	6.57292	0.544966	8.57137	0.675385	10.0873
0.182817	2.85985	0.126095	1.93561	0.377402	5.87405	0.430425	6.69908	0.530405	8.26753	0.680199	10.0688	0.309064	4.84803	0.418743	6.55393	0.546519	8.51114	0.676416	10.0082
0.183562	2.84338	0.127503	1.9384	0.380869	5.87023	0.431929	6.65697	0.53207	8.21252	0.681635	9.99644	0.30975	4.81106	0.421709	6.53565	0.548061	8.4519	0.677478	9.93096
0.184316	2.82736	0.12891	1.94113	0.384313	5.86612	0.433428	6.61559	0.53378	8.15926	0.683065	9.92534	0.310424	4.77464	0.424695	6.51804	0.54959	8.39362	0.678574	9.85564
0.185079	2.81177	0.130317	1.9438	0.387729	5.86167	0.434925	6.57497	0.535533	8.10767	0.684487	9.85543	0.311089	4.73876	0.427699	6.50105	0.551106	8.33626	0.679701	9.78216
0.185849	2.7966	0.131723	1.94642	0.391114	5.85685	0.436425	6.53517	0.537329	8.05771	0.685902	9.78669	0.311745	4.70344	0.430721	6.48464	0.55261	8.2798	0.680862	9.71047
0.186628	2.78185	0.133129	1.94897	0.394463	5.85158	0.437933	6.49622	0.539167	8.00932	0.687309	9.71906	0.312393	4.66867	0.433759	6.46878	0.554101	8.2242	0.682054	9.64053
0.187414	2.76748	0.134534	1.95148	0.397771	5.8458	0.439455	6.45821	0.541047	7.96244	0.688709	9.65253	0.313035	4.63445	0.436812	6.45344	0.555578	8.16944	0.68328	9.57228
0.188209	2.7535	0.135939	1.95393	0.401031	5.83943	0.440998	6.4212	0.542968	7.91701	0.690101	9.58706	0.31367	4.60078	0.439878	6.43858	0.557043	8.1155	0.684538	9.50568
0.189011	2.73988	0.137343	1.95633	0.404236	5.83239	0.44257	6.38528	0.544928	7.87299	0.691484	9.52261	0.3143	4.56765	0.442956	6.42416	0.558493	8.06235	0.685829	9.4407
0.189821	2.72663	0.138747	1.95868	0.407377	5.82457	0.444179	6.35056	0.546927	7.83032	0.692859	9.45916	0.314925	4.53505	0.446046	6.41018	0.559931	8.00996	0.687153	9.37728
0.190639	2.71372	0.14015	1.96098	0.410446	5.81586	0.445837	6.31713	0.548963	7.78894	0.694226	9.39668	0.315547	4.50299	0.449146	6.39658	0.561355	7.95833	0.688332	9.32325
0.191464	2.70115	0.141553	1.96324	0.413432	5.80613	0.447553	6.28513	0.551036	7.74882	0.69541	9.34301	0.316165	4.47146	0.452254	6.38336	0.562765	7.90743	0.689357	9.27809
0.192296	2.6889	0.142955	1.96544	0.416324	5.79528	0.449341	6.25468	0.553144	7.7099	0.696414	9.29781	0.316781	4.44045	0.455371	6.37048	0.564163	7.85724	0.690218	9.24136
0.193136	2.67697	0.144357	1.96761	0.419111	5.78316	0.451211	6.2259	0.555287	7.67213	0.69724	9.26081	0.317395	4.40996	0.458495	6.35793	0.565547	7.80775	0.690908	9.2127
0.193983	2.66534	0.145759	1.96973	0.421782	5.76966	0.453176	6.19892	0.557463	7.63548	0.697892	9.23179	0.318007	4.37998	0.461624	6.34567	0.566919	7.75894	0.691419	9.19183
0.194837	2.65401	0.14716	1.97181	0.424328	5.75469	0.455246	6.17382	0.559671	7.59989	0.698369	9.21058	0.318618	4.3505	0.464759	6.33369	0.568279	7.71081	0.691749	9.17858
0.195698	2.64297	0.14856	1.97386	0.426739	5.73818	0.45743	6.15068	0.56191	7.56532	0.698674	9.19707	0.319229	4.32151	0.467897	6.32197	0.569627	7.66333	0.692226	9.15965
0.196566	2.63221	0.149961	1.97586	0.429012	5.7201	0.459733	6.12953	0.564179	7.53173	0.699112	9.17772	0.319839	4.29302	0.471038	6.31048	0.570963	7.61651	0.692748	9.13924
0.19744	2.62171	0.15136	1.97782	0.431145	5.70046	0.462159	6.11035	0.566477	7.49909	0.699586	9.1568	0.320449	4.265	0.474181	6.29922	0.572289	7.57032	0.693464	9.11176
0.198322	2.61149	0.15276	1.97974	0.433138	5.67933	0.464707	6.09308	0.568802	7.46735	0.70023	9.12852	0.32106	4.23746	0.477324	6.28814	0.573605	7.52478	0.694381	9.07747
0.199209	2.60151	0.154159	1.98163	0.434998	5.65681	0.467371	6.07762	0.571154	7.43648	0.70104	9.09303	0.321672	4.21039	0.480467	6.27725	0.574912	7.47986	0.695505	9.03666
0.200104	2.59178	0.155557	1.98348	0.436732	5.63302	0.470147	6.06384	0.573531	7.40644	0.702016	9.05054	0.322284	4.18378	0.483609	6.26652	0.57621	7.43557	0.696845	8.9897
0.201004	2.58229	0.156956	1.9853	0.438348	5.60812	0.473024	6.05159	0.575932	7.37719	0.703155	9.00126	0.322898	4.15761	0.486748	6.25592	0.577501	7.3919	0.698412	8.937
0.201911	2.57303	0.158353	1.98709	0.439858	5.58227	0.475994	6.04071	0.578356	7.34871	0.704452	8.94545	0.323514	4.13189	0.489883	6.24545	0.578786	7.34885	0.700009	8.88552
0.202824	2.564	0.159751	1.98884	0.441272	5.55562	0.479047	6.03104	0.580803	7.32096	0.705741	8.89041	0.324131	4.1066	0.493013	6.23508	0.580065	7.30643	0.701636	8.83524
0.203743	2.55519	0.161148	1.99056	0.442599	5.52831	0.482173	6.02245	0.58327	7.29392	0.707022	8.83614	0.324751	4.08174	0.496137	6.2248	0.581341	7.26462	0.703292	8.78612
0.204668	2.54659	0.162545	1.99225	0.44385	5.50048	0.485363	6.01478	0.585757	7.26754	0.708293	8.78261	0.325372	4.0573	0.499253	6.21458	0.582615	7.22345	0.704977	8.73813
0.205599	2.5382	0.163941	1.9939	0.445033	5.47226	0.48861	6.00793	0.588263	7.2418	0.709556	8.72981	0.325996	4.03328	0.502359	6.2044	0.583888	7.18291	0.70669	8.69123
0.206535	2.53001	0.165337	1.99553	0.446157	5.44374	0.491905	6.00177	0.590787	7.21668	0.71081	8.67771	0.326623	4.00966	0.505455	6.19424	0.585161	7.143	0.708431	8.6454
0.207478	2.52202	0.166733	1.99713	0.447228	5.41502	0.495243	5.99623	0.593327	7.19215	0.712056	8.62632	0.327253	3.98643	0.508537	6.18409	0.586438	7.10374	0.710199	8.60059
0.208426	2.51421	0.168128	1.9987	0.448252	5.38617	0.498619	5.99122	0.595884	7.16819	0.713294	8.57561	0.327885	3.9636	0.511605	6.17392	0.587719	7.06514	0.711993	8.55679
0.209379	2.50659	0.169523	2.00025	0.449235	5.35727	0.502026	5.98666	0.598455	7.14476	0.714525	8.52558	0.32852	3.94114	0.514657	6.1637	0.589008	7.0272	0.713814	8.51395
0.210338	2.49914	0.170917	2.00176	0.450182	5.32837	0.505461	5.98251	0.60104	7.12184	0.715748	8.47621	0.329158	3.91907	0.51769	6.15342	0.590306	6.98994	0.715659	8.47206
0.211302	2.49187	0.172311	2.00325	0.451095	5.29952	0.508921	5.97871	0.603637	7.09942	0.716964	8.42749	0.3298	3.89736	0.520702	6.14304	0.591616	6.95338	0.71753	8.43107
0.212272	2.48477	0.173705	2.00472	0.45198	5.27075	0.512403	5.97521	0.606247	7.07747	0.718173	8.37942	0.330445	3.87601	0.523691	6.13254	0.59294	6.91752	0.719424	8.39098
0.213246	2.47784	0.175099	2.00616	0.452839	5.2421	0.515903	5.97198	0.608867	7.05596	0.719377	8.33197	0.331094	3.85502	0.526654	6.1219	0.594282	6.8824	0.721342	8.35173
0.214226	2.47106	0.176492	2.00757	0.453675	5.21361	0.51942	5.96899	0.611498	7.03488	0.720574	8.28515	0.331746	3.83438	0.529588	6.11108	0.595645	6.84802		
0.215211	2.46444	0.177885	2.00896	0.45449	5.18529	0.522951	5.96621	0.614137	7.01421			0.332401	3.81407	0.53249	6.10005	0.597032	6.81442		
0.2162	2.45797	0.179278	2.01033	0.455287	5.15717	0.526495	5.96361	0.616784	6.99392			0.33306	3.7941	0.535357	6.08878	0.598447	6.78162		
0.217195	2.45165	0.18067	2.01168	0.456067	5.12925	0.53005	5.96118	0.619438	6.974			0.333723	3.77446	0.538186	6.07724	0.599893	6.74963		
0.218194	2.44547	0.182062	2.013	0.456831	5.10157	0.533615	5.95889	0.622098	6.95443			0.33439	3.75514	0.540973	6.06539	0.601375	6.71849		
0.219198	2.43943	0.183454	2.0143	0.457582	5.07411	0.537189	5.95673	0.624763	6.93519			0.335061	3.73614	0.543714	6.0532	0.602896	6.68823		
0.220206	2.43353	0.184845	2.01558	0.458321	5.04691	0.540771	5.95469	0.627432	6.91626			0.335735	3.71744	0.546406	6.04063	0.604461	6.65887		
0.22122	2.42776	0.186236	2.01684	0.459049	5.01996	0.54436	5.95275	0.630104	6.89762			0.336414	3.69905	0.549044	6.02765	0.606073	6.63043		
0.222237	2.42211	0.187627	2.01808	0.459766	4.99327	0.547955	5.9509	0.632777	6.87926			0.337096	3.68096	0.551625	6.01423	0.607737	6.60295		
0.223259	2.41659	0.189017	2.0193	0.460475	4.96685	0.551555	5.94914	0.635452	6.86116			0.337783	3.66316	0.554145	6.00033	0.609457	6.57645		
0.224286	2.4112	0.190408	2.0205	0.461175	4.9407	0.555159	5.94744	0.638125	6.8433			0.338473	3.64564	0.5566	5.98592	0.611237	6.55095		
0.225316	2.40592	0.191798	2.02168	0.461868	4.91482	0.558768	5.94582	0.640798	6.82566			0.339168	3.62841	0.558987	5.97098	0.61308	6.52646		
0.226351	2.40075	0.193187	2.02285	0.462554	4.88922	0.562381	5.94425	0.643467	6.80824			0.339867	3.61145	0.561303	5.95548	0.614989	6.503		
0.22739	2.3957	0.194577	2.02399	0.463234	4.86389	0.565996	5.94274	0.646133	6.791			0.34057	3.59476	0.563545	5.93941	0.616968	6.48058		
0.228433	2.39076	0.195966	2.02512	0.463909	4.83884	0.569614	5.94127	0.648794	6.77393			0.341277	3.57833	0.565711	5.92276	0.619017	6.45919		
0.22948	2.38592	0.197355	2.02623	0.464579	4.81407	0.573233	5.93984	0.651448	6.75703			0.341988	3.56217	0.5678	5.90553	0.621138	6.43884		
0.230531	2.38119	0.198743	2.02732	0.465244	4.78958	0.576855	5.93845	0.654095	6.74026			0.342703	3.54626	0.569811	5.88772	0.623332	6.41949		
0.231585	2.37656	0.200132	2.0284	0.465906	4.76536	0.580477	5.93709	0.656732	6.72362			0.343423	3.5306	0.571744	5.86934	0.625599	6.40115		
0.232644	2.37203	0.20152	2.02945	0.466564	4.74142	0.584101	5.93575	0.659359	6.70708			0.344147	3.51518	0.5736	5.8504	0.627938	6.38377		
0.233706	2.36759	0.202907	2.0305	0.467219	4.71776	0.587725	5.93444	0.661974	6.69064			0.344875	3.50001	0.57538	5.83094	0.630347	6.36732		
0.234772	2.36325	0.204295	2.03153	0.467872	4.69437	0.591349	5.93314	0.664575	6.67427			0.345607	3.48507	0.577085	5.81098	0.632826	6.35178		
0.235842	2.359	0.205682	2.03254	0.468522	4.67125	0.594972	5.93186	0.667162	6.65795			0.346343	3.47036	0.578719	5.79055	0.63537	6.33709		
0.236915	2.35484	0.207069	2.03354	0.46917	4.6484	0.598595	5.93058	0.669731	6.64168			0.347084	3.45588	0.580284	5.7697	0.637978	6.32321		
0.237992	2.35076	0.208456	2.03452	0.469817	4.62582	0.602217	5.92931	0.672283	6.62543			0.347829	3.44163	0.581783	5.74845	0.640647	6.31011		
0.239072	2.34677	0.209843	2.03549	0.470462	4.60351	0.605838	5.92804	0.674814	6.60918			0.348578	3.42759	0.583219	5.72686	0.643372	6.29772		
0.240156	2.34286	0.211229	2.03644	0.471106	4.58145	0.609456	5.92677	0.677325	6.59293			0.349331	3.41376	0.584597	5.70496	0.646152	6.28601		
0.241242	2.33903	0.212615	2.03738	0.471749	4.55966	0.613072	5.92549	0.679812	6.57665			0.350088	3.40015	0.585919	5.68279	0.648981	6.27493		
0.242333	2.33528	0.214001	2.03831	0.472391	4.53813	0.616685	5.9242	0.682274	6.56033			0.35085	3.38674	0.58719	5.66039	0.651858	6.26444		
0.243426	2.33161	0.215387	2.03922	0.473033	4.51685	0.620295	5.9229	0.684709	6.54395			0.351615	3.37354	0.588412	5.6378	0.654778	6.25449		
0.244523	2.32801	0.216772	2.04012	0.473675	4.49583	0.623902	5.92157	0.687117	6.5275			0.352385	3.36053	0.589589	5.61505	0.657739	6.24504		
0.245623	2.32449	0.218157	2.04101	0.474316	4.47506	0.627503	5.92022	0.689495	6.51097			0.353159	3.34772	0.590724	5.59218	0.660738	6.23607		
0.246726	2.32103	0.219542	2.04188	0.474958	4.45453	0.6311	5.91883	0.691841	6.49435			0.353937	3.3351	0.591821	5.56922	0.663771	6.22752		
0.247832	2.31765	0.220927	2.04275	0.4756	4.43425	0.634691	5.91741	0.694156	6.47762			0.35472	3.32267	0.592882	5.5462	0.666836	6.21937		
0.248941	2.31433	0.222311	2.0436	0.476243	4.41421	0.638275	5.91594	0.696437	6.46078			0.355506	3.31043	0.59391	5.52314	0.66993	6.21159		
0.250053	2.31108	0.223696	2.04444	0.476886	4.39441	0.641852	5.91443	0.698684	6.44382			0.356297	3.29836	0.594908	5.50006	0.673051	6.20415		
0.251168	2.30789	0.22508	2.04526	0.477529	4.37484	0.645421	5.91285	0.700896	6.42673			0.357091	3.28648	0.595877	5.477	0.676198	6.19702		
0.252285	2.30477	0.226463	2.04608	0.478174	4.35551	0.64898	5.91121	0.703073	6.40952			0.35789	3.27476	0.596821	5.45397	0.679367	6.19019		
0.253406	2.30171	0.227847	2.04689	0.478819	4.33641	0.652528	5.90948	0.705214	6.39218			0.358692	3.26322	0.59774	5.43098	0.682557	6.18362		
0.254529	2.29871	0.229231	2.04768	0.479466	4.31754	0.656064	5.90767	0.70732	6.37472			0.359499	3.25185	0.598637	5.40805	0.685766	6.1773		
0.255655	2.29576	0.230614	2.04846	0.480114	4.29889	0.659587	5.90576	0.709391	6.35716			0.36031	3.24065	0.599514	5.38521	0.688993	6.17121		
0.256784	2.29288	0.231997	2.04923	0.480763	4.28046	0.663094	5.90372	0.71143	6.33949			0.361124	3.2296	0.600372	5.36245	0.692236	6.16534		
0.257916	2.29005	0.233379	2.05	0.481413	4.26225	0.666583	5.90156	0.713436	6.32175			0.361943	3.21872	0.601213	5.3398	0.695494	6.15965		
0.25905	2.28727	0.234762	2.05075	0.482065	4.24425	0.670052	5.89924	0.715414	6.30394			0.362766	3.20799	0.602038	5.31725	0.698765	6.15415		
0.260186	2.28455	0.236144	2.05149	0.482718	4.22647	0.673498	5.89674	0.717365	6.2861			0.363592	3.19742	0.602847	5.29483	0.702049	6.14882		
0.261325	2.28188	0.237527	2.05222	0.483373	4.2089	0.676917	5.89404	0.719294	6.26826			0.364422	3.18699	0.603644	5.27253	0.705343	6.14365		
0.262467	2.27926	0.238909	2.05294	0.48403	4.19153	0.680306	5.89111	0.721203	6.25046			0.365257	3.17672	0.604427	5.25037	0.708648	6.13861		
0.263611	2.27669	0.24029	2.05366	0.484688	4.17437	0.683661	5.88791					0.366095	3.16659	0.605199	5.22835	0.711962	6.13371		
0.264758	2.27417	0.241672	2.05436	0.485349	4.15741	0.686976	5.88441					0.366937	3.15661	0.60596	5.20648	0.715284	6.12894		
0.265907	2.2717	0.243053	2.05505	0.486011	4.14065	0.690245	5.88056					0.367783	3.14676	0.606711	5.18476	0.718613	6.12428		
0.267058	2.26928	0.244435	2.05574	0.486675	4.12409	0.693462	5.8763					0.368633	3.13705	0.607453	5.16319	0.721949	6.11972		
0.268212	2.2669	0.245816	2.05641	0.487341	4.10772	0.696619	5.87159					0.369486	3.12748	0.608186	5.14178				
0.269367	2.26456	0.247196	2.05708	0.488009	4.09154	0.699708	5.86635					0.370343	3.11805	0.608912	5.12054				
0.270526	2.26227	0.248577	2.05774	0.48868	4.07555	0.702719	5.86051					0.371204	3.10874	0.60963	5.09946				
0.271686	2.26002	0.249957	2.05839	0.489352	4.05975	0.705642	5.85401					0.372069	3.09957	0.610342	5.07854				
0.272848	2.25781	0.251338	2.05903	0.490027	4.04412	0.708467	5.84678					0.372937	3.09052	0.611047	5.05779				
0.274013	2.25564	0.252718	2.05967	0.490704	4.02868	0.711185	5.83873					0.373809	3.08159	0.611747	5.03722				
0.27518	2.25352	0.254098	2.06029	0.491383	4.01342	0.713787	5.82982					0.374685	3.07279	0.612441	5.01681				
0.276349	2.25143	0.255477	2.06091	0.492064	3.99833	0.716266	5.82					0.375564	3.06411	0.613131	4.99657				
0.27752	2.24938	0.256857	2.06152	0.492748	3.98342	0.718616	5.80925					0.376447	3.05554	0.613816	4.97651				
0.278693	2.24736	0.258236	2.06213	0.493434	3.96867	0.720837	5.79756					0.377333	3.0471	0.614498	4.95662				
0.279868	2.24539	0.259615	2.06272	0.494123	3.9541							0.378223	3.03876	0.615175	4.9369				
0.281045	2.24345	0.260994	2.06331	0.494814	3.93969							0.379117	3.03054	0.615849	4.91735				
0.282224	2.24154	0.262373	2.06389	0.495507	3.92544							0.380014	3.02243	0.61652	4.89797				
0.283404	2.23967	0.263752	2.06446	0.496203	3.91136							0.380914	3.01443	0.617189	4.87877				
0.284587	2.23783	0.26513	2.06503	0.496902	3.89743							0.381818	3.00654	0.617854	4.85973				
0.286958	2.23425	0.266508	2.06559	0.497603	3.88367							0.382725	2.99875	0.618518	4.84087				
0.288146	2.23251	0.267886	2.06614	0.498306	3.87005							0.383636	2.99106	0.619179	4.82218				
0.289336	2.2308	0.269264	2.06669	0.499013	3.8566							0.38455	2.98348	0.619839	4.80365				
0.290528	2.22912	0.270642	2.06723	0.499721	3.84329							0.385468	2.97599	0.620497	4.7853				
0.291721	2.22746	0.27202	2.06776	0.500433	3.83013							0.386389	2.96861	0.621153	4.76711				
0.292917	2.22584	0.273397	2.06829	0.501146	3.81711							0.387313	2.96132	0.621808	4.74909				
0.294113	2.22425	0.274774	2.06881	0.501863	3.80424							0.38824	2.95412	0.622463	4.73123				
0.295312	2.22268	0.276151	2.06932	0.502582	3.79152							0.389171	2.94702	0.623116	4.71353				
0.296512	2.22114	0.277528	2.06983	0.503304	3.77893							0.390105	2.94002	0.623768	4.696				
0.297714	2.21962	0.278905	2.07033	0.504028	3.76649							0.391042	2.9331	0.62442	4.67863				
0.298917	2.21814	0.280282	2.07083	0.504755	3.75418							0.391983	2.92627	0.625071	4.66142				
0.300122	2.21668	0.281658	2.07132	0.505485	3.742							0.392926	2.91953	0.625722	4.64437				
0.301329	2.21524	0.283034	2.07181	0.506217	3.72996							0.393873	2.91288	0.626373	4.62748				
0.302537	2.21383	0.28441	2.07229	0.506953	3.71805							0.394823	2.90631	0.627024	4.61074				
0.303746	2.21244	0.285786	2.07276	0.50769	3.70627							0.395776	2.89982	0.627674	4.59416				
0.304957	2.21107	0.287162	2.07323	0.508431	3.69462							0.396732	2.89342	0.628325	4.57773				
0.306169	2.20973	0.288538	2.07369	0.509174	3.68309							0.397691	2.8871	0.628976	4.56146				
0.307383	2.20841	0.289913	2.07415	0.50992	3.67169							0.398653	2.88085	0.629627	4.54533				
0.308599	2.20711	0.291288	2.0746	0.510668	3.66041							0.399618	2.87469	0.630279	4.52936				
0.309815	2.20584	0.292663	2.07505	0.511419	3.64925							0.400586	2.8686	0.630931	4.51353				
0.311033	2.20458	0.294038	2.07549	0.512173	3.63821							0.401557	2.86259	0.631584	4.49785				
0.312253	2.20335	0.295413	2.07592	0.51293	3.62729							0.402531	2.85666	0.632237	4.48231				
0.313474	2.20214	0.296788	2.07636	0.513689	3.61648							0.403508	2.8508	0.632891	4.46692				
0.314696	2.20094	0.298162	2.07678	0.514451	3.60579							0.404488	2.84501	0.633545	4.45167				
0.315919	2.19977	0.299537	2.0772	0.515216	3.59522							0.405471	2.83929	0.634201	4.43656				
0.317144	2.19861	0.300911	2.07762	0.515983	3.58475							0.406457	2.83364	0.634858	4.42159				
0.31837	2.19748	0.302285	2.07803	0.516754	3.57439							0.407445	2.82806	0.635515	4.40676				
0.319598	2.19636	0.303659	2.07844	0.517526	3.56415							0.408437	2.82255	0.636173	4.39206				
0.320826	2.19526	0.305032	2.07885	0.518302	3.55401							0.409431	2.81711	0.636833	4.3775				
0.322056	2.19418	0.306406	2.07924	0.51908	3.54397							0.410428	2.81173	0.637494	4.36307				
0.323287	2.19312	0.307779	2.07964	0.519861	3.53405							0.411427	2.80642	0.638155	4.34878				
0.324519	2.19207	0.309153	2.08003	0.520644	3.52422							0.41243	2.80118	0.638818	4.33461				
0.325752	2.19104	0.310526	2.08042	0.521431	3.5145							0.413435	2.79599	0.639483	4.32058				
0.326987	2.19003	0.311899	2.0808	0.522219	3.50487							0.414443	2.79087	0.640148	4.30667				
0.328223	2.18904	0.313272	2.08117	0.523011	3.49535							0.415453	2.78581	0.640815	4.2929				
0.329459	2.18805	0.314644	2.08155	0.523805	3.48592							0.416466	2.78081	0.641484	4.27924				
0.330697	2.18709	0.316017	2.08192	0.524602	3.47659							0.417482	2.77587	0.642153	4.26571				
0.331936	2.18614	0.317389	2.08228	0.525401	3.46736							0.4185	2.77099	0.642824	4.25231				
0.333177	2.18521	0.318761	2.08264	0.526203	3.45822							0.419521	2.76617	0.643497	4.23902				
0.334418	2.18429	0.320133	2.083	0.527008	3.44917							0.420545	2.7614	0.644171	4.22586				
0.33566	2.18338	0.321505	2.08335	0.527816	3.44021							0.421571	2.75669	0.644847	4.21281				
0.336903	2.18249	0.322877	2.0837	0.528626	3.43135							0.4226	2.75203	0.645524	4.19988				
0.338148	2.18161	0.324249	2.08405	0.529438	3.42257							0.423631	2.74743	0.646203	4.18707				
0.339393	2.18075	0.32562	2.08439	0.530253	3.41388							0.424664	2.74289	0.646884	4.17437				
0.34064	2.1799	0.326992	2.08473	0.531071	3.40528							0.425701	2.73839	0.647566	4.16179				
0.341887	2.17906	0.328363	2.08506	0.531892	3.39677							0.426739	2.73395	0.64825	4.14932				
0.343135	2.17824	0.329734	2.0854	0.532715	3.38834							0.42778	2.72956	0.648935	4.13696				
0.344385	2.17743	0.331105	2.08572	0.53354	3.37999							0.428824	2.72522	0.649623	4.12471				
0.345635	2.17663	0.332476	2.08605	0.534368	3.37173							0.42987	2.72093	0.650312	4.11257				
0.346886	2.17584	0.333846	2.08637	0.535199	3.36355							0.430918	2.71669	0.651003	4.10054				
0.348139	2.17507	0.335217	2.08669	0.536032	3.35545							0.431969	2.7125	0.651695	4.08861				
0.349392	2.17431	0.336587	2.087	0.536868	3.34743							0.433021	2.70835	0.652389	4.07679				
0.350646	2.17356	0.337957	2.08731	0.537706	3.33948							0.434077	2.70426	0.653086	4.06508				
0.351901	2.17282	0.339327	2.08762	0.538547	3.33162							0.435134	2.70021	0.653784	4.05346				
0.353157	2.17209	0.340697	2.08792	0.53939	3.32383							0.436194	2.6962	0.654483	4.04195				
0.354413	2.17137	0.342067	2.08822	0.540236	3.31612							0.437257	2.69224	0.655185	4.03054				
0.355671	2.17067	0.343437	2.08852	0.541085	3.30848							0.438321	2.68833	0.655889	4.01923				
0.356929	2.16997	0.344806	2.08881	0.541935	3.30092							0.439388	2.68446	0.656594	4.00802				
0.358189	2.16929	0.346176	2.08911	0.542789	3.29343							0.440457	2.68063	0.657301	3.99691				
0.359449	2.16861	0.347545	2.08939	0.543644	3.28601							0.441528	2.67685	0.65801	3.98589				
0.36071	2.16795	0.348914	2.08968	0.544503	3.27867							0.442601	2.6731	0.658722	3.97497				
0.361972	2.16729	0.350283	2.08996	0.545363	3.27139							0.443677	2.6694	0.659435	3.96415				
0.363234	2.16665	0.351652	2.09024	0.546226	3.26418							0.444754	2.66574	0.66015	3.95341				
0.364498	2.16601	0.353021	2.09052	0.547092	3.25705							0.445834	2.66213	0.660866	3.94277				
0.365762	2.16539	0.354389	2.09079	0.54796	3.24998							0.446916	2.65855	0.661585	3.93222				
0.367027	2.16477	0.355758	2.09106	0.54883	3.24297							0.448	2.65501	0.662306	3.92177				
0.368293	2.16416	0.357126	2.09133	0.549703	3.23604							0.449087	2.6515	0.663029	3.9114				
0.369559	2.16356	0.358494	2.0916	0.550578	3.22917							0.450175	2.64804	0.663754	3.90112				
0.370826	2.16297	0.359862	2.09186	0.551456	3.22236							0.451265	2.64462	0.66448	3.89092				
0.372094	2.16239	0.36123	2.09212	0.552336	3.21562							0.452357	2.64123	0.665209	3.88082				
0.373363	2.16182	0.362598	2.09238	0.553218	3.20894							0.453452	2.63788	0.66594	3.8708				
0.374633	2.16126	0.363966	2.09263	0.554103	3.20232							0.454548	2.63456	0.666672	3.86086				
0.375903	2.1607	0.365333	2.09288	0.55499	3.19577							0.455647	2.63128	0.667407	3.85101				
0.377174	2.16015	0.366701	2.09313	0.555879	3.18928							0.456747	2.62804	0.668143	3.84125				
0.378445	2.15961	0.368068	2.09338	0.556771	3.18284							0.45785	2.62483	0.668882	3.83156				
0.379718	2.15908	0.369435	2.09363	0.557665	3.17647							0.458954	2.62166	0.669623	3.82196				
0.380991	2.15856	0.370802	2.09387	0.558561	3.17015							0.46006	2.61852	0.670365	3.81243				
0.382264	2.15804	0.372169	2.09411	0.559459	3.1639							0.461168	2.61541	0.67111	3.80299				
0.383539	2.15753	0.373536	2.09434	0.56036	3.1577							0.462279	2.61233	0.671856	3.79362				
0.384814	2.15703	0.374902	2.09458	0.561263	3.15155							0.463391	2.60929	0.672605	3.78434				
0.386089	2.15653	0.376269	2.09481	0.562169	3.14547							0.464505	2.60628	0.673356	3.77513				
0.387365	2.15605	0.377635	2.09504	0.563076	3.13943							0.46562	2.60331	0.674108	3.76599				
0.388642	2.15556	0.379001	2.09527	0.563986	3.13346							0.466738	2.60036	0.674863	3.75693				
0.38992	2.15509	0.380367	2.0955	0.564898	3.12754							0.467858	2.59745	0.675619	3.74795				
0.391198	2.15462	0.381733	2.09572	0.565813	3.12167							0.468979	2.59456	0.676378	3.73904				
0.392477	2.15416	0.383099	2.09594	0.566729	3.11585							0.470102	2.59171	0.677139	3.7302				
0.393756	2.15371	0.384465	2.09616	0.567648	3.11009							0.471227	2.58888	0.677902	3.72144				
0.395036	2.15326	0.38583	2.09637	0.568569	3.10438							0.472354	2.58609	0.678666	3.71275				
0.396317	2.15282	0.387196	2.09659	0.569492	3.09872							0.473482	2.58332	0.679433	3.70413				
0.397598	2.15238	0.388561	2.0968	0.570417	3.09311							0.474613	2.58058	0.680202	3.69557				
0.39888	2.15196	0.389926	2.09701	0.571344	3.08755							0.475745	2.57787	0.680972	3.68709				
0.400162	2.15153	0.391291	2.09722	0.572274	3.08203							0.476878	2.57519	0.681745	3.67868				
0.401445	2.15112	0.392656	2.09743	0.573206	3.07657							0.478014	2.57254	0.68252	3.67033				
0.402728	2.1507	0.394021	2.09763	0.574139	3.07116							0.479151	2.56991	0.683297	3.66205				
0.404013	2.1503	0.395386	2.09783	0.575075	3.06579							0.48029	2.56731	0.684075	3.65384				
0.405297	2.1499	0.39675	2.09803	0.576013	3.06048							0.481431	2.56474	0.684856	3.6457				
0.406582	2.1495	0.398115	2.09823	0.576954	3.0552							0.482573	2.56219	0.685639	3.63762				
0.407868	2.14912	0.399479	2.09843	0.577896	3.04998							0.483717	2.55967	0.686424	3.6296				
0.409154	2.14873	0.400844	2.09862	0.57884	3.0448							0.484863	2.55717	0.68721	3.62165				
0.410441	2.14835	0.402208	2.09881	0.579786	3.03967							0.48601	2.5547	0.687999	3.61376				
0.411728	2.14798	0.403572	2.099	0.580735	3.03458							0.487159	2.55225	0.68879	3.60594				
0.413016	2.14761	0.404935	2.09919	0.581685	3.02953							0.488309	2.54983	0.689583	3.59817				
0.414304	2.14725	0.406299	2.09938	0.582638	3.02453							0.489461	2.54743	0.690377	3.59047				
0.415593	2.14689	0.407663	2.09956	0.583592	3.01957							0.490615	2.54506	0.691174	3.58283				
0.416882	2.14654	0.409026	2.09974	0.584549	3.01465							0.49177	2.54271	0.691973	3.57525				
0.418172	2.14619	0.41039	2.09992	0.585507	3.00978							0.492927	2.54039	0.692773	3.56773				
0.419462	2.14585	0.411753	2.1001	0.586468	3.00495							0.494085	2.53808	0.693576	3.56026				
0.420753	2.14551	0.413116	2.10028	0.587431	3.00016							0.495245	2.5358	0.694381	3.55286				
0.422044	2.14517	0.414479	2.10046	0.588395	2.99541							0.496407	2.53355	0.695187	3.54551				
0.423336	2.14484	0.415842	2.10063	0.589362	2.9907							0.49757	2.53131	0.695996	3.53822				
0.424628	2.14452	0.417205	2.1008	0.59033	2.98603							0.498734	2.5291	0.696806	3.53099				
0.42592	2.1442	0.418567	2.10097	0.5913	2.9814							0.4999	2.52691	0.697618	3.52381				
0.427213	2.14388	0.41993	2.10114	0.592273	2.97681							0.501068	2.52474	0.698433	3.51669				
0.428507	2.14357	0.421292	2.10131	0.593247	2.97226							0.502237	2.52259	0.699249	3.50963				
0.429801	2.14326	0.422655	2.10148	0.594223	2.96775							0.503407	2.52046	0.700067	3.50261				
0.431095	2.14296	0.424017	2.10164	0.595201	2.96327							0.504579	2.51835	0.700887	3.49566				
0.43239	2.14266	0.425379	2.1018	0.596181	2.95883							0.505752	2.51627	0.701709	3.48875				
0.433685	2.14236	0.426741	2.10196	0.597163	2.95443							0.506927	2.5142	0.702534	3.4819				
0.434981	2.14207	0.428103	2.10212	0.598147	2.95007							0.508103	2.51215	0.703359	3.4751				
0.436277	2.14178	0.429464	2.10228	0.599133	2.94574							0.509281	2.51013	0.704187	3.46835				
0.437574	2.1415	0.430826	2.10244	0.60012	2.94145							0.51046	2.50812	0.705017	3.46166				
0.438871	2.14122	0.432188	2.10259	0.60111	2.9372							0.51164	2.50613	0.705849	3.45501				
0.440168	2.14094	0.433549	2.10274	0.602101	2.93298							0.512822	2.50416	0.706682	3.44842				
0.441466	2.14067	0.43491	2.1029	0.603094	2.92879							0.514005	2.50221	0.707518	3.44187				
0.442764	2.1404	0.436271	2.10305	0.604089	2.92464							0.51519	2.50028	0.708355	3.43538				
0.444062	2.14013	0.437632	2.1032	0.605085	2.92052							0.516376	2.49837	0.709194	3.42893				
0.445361	2.13987	0.438993	2.10334	0.606084	2.91644							0.517563	2.49647	0.710036	3.42253				
0.446661	2.13961	0.440354	2.10349	0.607084	2.91239							0.518752	2.4946	0.710879	3.41618				
0.44796	2.13936	0.441715	2.10363	0.608086	2.90837							0.519942	2.49274	0.711724	3.40987				
0.44926	2.1391	0.443075	2.10378	0.60909	2.90439							0.521133	2.49089	0.71257	3.40362				
0.450561	2.13886	0.444436	2.10392	0.610096	2.90043							0.522325	2.48907	0.713419	3.39741				
0.451862	2.13861	0.445796	2.10406	0.611103	2.89652							0.523519	2.48726	0.714269	3.39124				
0.453163	2.13837	0.447157	2.1042	0.612112	2.89263							0.524714	2.48547	0.715122	3.38513				
0.454464	2.13813	0.448517	2.10433	0.613123	2.88877							0.525911	2.4837	0.715976	3.37905				
0.455766	2.13789	0.449877	2.10447	0.614136	2.88494							0.527109	2.48194	0.716832	3.37303				
0.457069	2.13766	0.451237	2.10461	0.61515	2.88115							0.528307	2.4802	0.71769	3.36704				
0.458371	2.13743	0.452597	2.10474	0.616166	2.87739							0.529508	2.47848	0.71855	3.3611				
0.459674	2.1372	0.453956	2.10487	0.617184	2.87365							0.530709	2.47677	0.719411	3.35521				
0.460978	2.13698	0.455316	2.105	0.618204	2.86995							0.531912	2.47508	0.720274	3.34935				
0.462281	2.13676	0.456675	2.10513	0.619225	2.86627							0.533116	2.4734						
0.463585	2.13654	0.458035	2.10526	0.620248	2.86263							0.534321	2.47174						
0.46489	2.13632	0.459394	2.10539	0.621272	2.85901							0.535527	2.47009						
0.466194	2.13611	0.460753	2.10552	0.622298	2.85542							0.536735	2.46846						
0.467499	2.1359	0.462112	2.10564	0.623326	2.85186							0.537944	2.46684						
0.468805	2.13569	0.463471	2.10576	0.624356	2.84833							0.539154	2.46524						
0.47011	2.13549	0.46483	2.10589	0.625387	2.84483							0.540365	2.46366						
0.471416	2.13529	0.466189	2.10601	0.62642	2.84135							0.541577	2.46208						
0.472723	2.13509	0.467547	2.10613	0.627454	2.8379							0.54279	2.46053						
0.474029	2.13489	0.468906	2.10625	0.62849	2.83448							0.544005	2.45898						
0.475336	2.13469	0.470264	2.10637	0.629528	2.83108							0.545221	2.45745						
0.476643	2.1345	0.471623	2.10648	0.630567	2.82771							0.546438	2.45594						
0.477951	2.13431	0.472981	2.1066	0.631608	2.82437							0.547656	2.45443						
0.479259	2.13413	0.474339	2.10671	0.63265	2.82105							0.548875	2.45294						
0.480567	2.13394	0.475697	2.10683	0.633694	2.81776							0.550095	2.45147						
0.481875	2.13376	0.477055	2.10694	0.63474	2.81449							0.551316	2.45001						
0.483184	2.13358	0.478413	2.10705	0.635787	2.81125							0.552539	2.44856						
0.484493	2.1334	0.479771	2.10716	0.636835	2.80804							0.553762	2.44712						
0.485802	2.13322	0.481128	2.10727	0.637886	2.80485							0.554987	2.4457						
0.487112	2.13305	0.482486	2.10738	0.638937	2.80168							0.556213	2.44429						
0.488422	2.13288	0.483843	2.10748	0.639991	2.79854							0.55744	2.44289						
0.489732	2.13271	0.4852	2.10759	0.641045	2.79542							0.558668	2.4415						
0.491042	2.13254	0.486558	2.1077	0.642102	2.79232							0.559896	2.44013						
0.492353	2.13238	0.487915	2.1078	0.643159	2.78925							0.561126	2.43877						
0.493664	2.13222	0.489272	2.1079	0.644219	2.7862							0.562357	2.43742						
0.494975	2.13205	0.490629	2.108	0.645279	2.78318							0.563589	2.43608						
0.496286	2.1319	0.491985	2.10811	0.646342	2.78018							0.564822	2.43475						
0.497598	2.13174	0.493342	2.10821	0.647405	2.7772							0.566057	2.43344						
0.49891	2.13158	0.494699	2.1083	0.648471	2.77424							0.567292	2.43213						
0.500222	2.13143	0.496055	2.1084	0.649537	2.7713							0.568528	2.43084						
0.501535	2.13128	0.497412	2.1085	0.650605	2.76839							0.569765	2.42956						
0.502847	2.13113	0.498768	2.1086	0.651675	2.7655							0.571003	2.42829						
0.50416	2.13098	0.500124	2.10869	0.652746	2.76263							0.572242	2.42703						
0.505474	2.13084	0.50148	2.10879	0.653818	2.75978							0.573482	2.42579						
0.506787	2.13069	0.502836	2.10888	0.654892	2.75695							0.574723	2.42455						
0.508101	2.13055	0.504192	2.10897	0.655967	2.75415							0.575965	2.42332						
0.509415	2.13041	0.505548	2.10906	0.657044	2.75136							0.577208	2.42211						
0.510729	2.13027	0.506904	2.10916	0.658122	2.7486							0.578452	2.4209						
0.512043	2.13014	0.50826	2.10925	0.659201	2.74585							0.579697	2.41971						
0.513358	2.13	0.509615	2.10933	0.660282	2.74313							0.580943	2.41852						
0.514673	2.12987	0.510971	2.10942	0.661364	2.74042							0.582189	2.41735						
0.515988	2.12974	0.512326	2.10951	0.662448	2.73774							0.583437	2.41618						
0.517303	2.12961	0.513681	2.1096	0.663533	2.73507							0.584686	2.41503						
0.518619	2.12948	0.515036	2.10968	0.664619	2.73243							0.585935	2.41388						
0.519935	2.12935	0.516391	2.10977	0.665707	2.7298							0.587186	2.41275						
0.521251	2.12922	0.517746	2.10985	0.666796	2.72719							0.588437	2.41162						
0.522567	2.1291	0.519101	2.10994	0.667886	2.7246							0.589689	2.41051						
0.523883	2.12898	0.520456	2.11002	0.668978	2.72203							0.590942	2.4094						
0.5252	2.12886	0.521811	2.1101	0.670071	2.71948							0.592196	2.4083						
0.526517	2.12874	0.523165	2.11018	0.671165	2.71695							0.593451	2.40722						
0.527834	2.12862	0.52452	2.11026	0.67226	2.71444							0.594707	2.40614						
0.529151	2.1285	0.525874	2.11034	0.673357	2.71194							0.595963	2.40507						
0.530468	2.12839	0.527229	2.11042	0.674456	2.70946							0.597221	2.40401						
0.531786	2.12827	0.528583	2.1105	0.675555	2.707							0.598479	2.40295						
0.533104	2.12816	0.529937	2.11057	0.676656	2.70456							0.599738	2.40191						
0.534422	2.12805	0.531291	2.11065	0.677758	2.70213							0.600998	2.40087						
0.53574	2.12794	0.532645	2.11073	0.678861	2.69972							0.602259	2.39985						
0.537059	2.12783	0.533999	2.1108	0.679966	2.69733							0.603521	2.39883						
0.538377	2.12772	0.535353	2.11088	0.681072	2.69496							0.604783	2.39782						
0.539696	2.12762	0.536707	2.11095	0.682179	2.6926							0.606047	2.39682						
0.541015	2.12751	0.53806	2.11102	0.683287	2.69026							0.607311	2.39583						
0.542334	2.12741	0.539414	2.11109	0.684397	2.68793							0.608576	2.39484						
0.543654	2.12731	0.540767	2.11117	0.685507	2.68562							0.609842	2.39386						
0.544973	2.12721	0.542121	2.11124	0.686619	2.68333							0.611108	2.3929						
0.546293	2.12711	0.543474	2.11131	0.687733	2.68106							0.612376	2.39193						
0.547613	2.12701	0.544827	2.11138	0.688847	2.6788							0.613644	2.39098						
0.548933	2.12691	0.546181	2.11144	0.689963	2.67655							0.614913	2.39004						
0.550253	2.12682	0.547534	2.11151	0.691079	2.67432							0.616183	2.3891						
0.551574	2.12672	0.548887	2.11158	0.692198	2.67211							0.617453	2.38817						
0.552894	2.12663	0.550239	2.11165	0.693317	2.66991							0.618724	2.38725						
0.554215	2.12653	0.551592	2.11171	0.694437	2.66773							0.619997	2.38633						
0.555536	2.12644	0.552945	2.11178	0.695559	2.66556							0.621269	2.38542						
0.556857	2.12635	0.554298	2.11184	0.696682	2.66341							0.622543	2.38452						
0.558179	2.12626	0.55565	2.11191	0.697805	2.66127							0.623817	2.38363						
0.5595	2.12617	0.557003	2.11197	0.698931	2.65915							0.625092	2.38274						
0.560822	2.12609	0.558355	2.11203	0.700057	2.65704							0.626368	2.38186						
0.562144	2.126	0.559707	2.1121	0.701184	2.65494							0.627645	2.38099						
0.563466	2.12591	0.56106	2.11216	0.702313	2.65286							0.628922	2.38013						
0.564788	2.12583	0.562412	2.11222	0.703442	2.6508							0.6302	2.37927						
0.56611	2.12575	0.563764	2.11228	0.704573	2.64875							0.631479	2.37842						
0.567432	2.12566	0.565116	2.11234	0.705705	2.64671							0.632758	2.37757						
0.568755	2.12558	0.566468	2.1124	0.706838	2.64469							0.634038	2.37674						
0.570078	2.1255	0.56782	2.11246	0.707972	2.64268							0.635319	2.3759						
0.571401	2.12542	0.569171	2.11252	0.709108	2.64068							0.636601	2.37508						
0.572724	2.12534	0.570523	2.11258	0.710244	2.6387							0.637883	2.37426						
0.574047	2.12527	0.571875	2.11263	0.711381	2.63673							0.639166	2.37345						
0.57537	2.12519	0.573226	2.11269	0.71252	2.63477							0.64045	2.37264						
0.576694	2.12511	0.574578	2.11275	0.71366	2.63283							0.641734	2.37185						
0.578017	2.12504	0.575929	2.1128	0.7148	2.6309							0.643019	2.37105						
0.579341	2.12496	0.57728	2.11286	0.715942	2.62898							0.644305	2.37027						
0.580665	2.12489	0.578632	2.11291	0.717085	2.62708							0.645591	2.36948						
0.581989	2.12482	0.579983	2.11296	0.718229	2.62518							0.646879	2.36871						
0.583313	2.12475	0.581334	2.11302	0.719374	2.6233							0.648166	2.36794						
0.584638	2.12468	0.582685	2.11307	0.72052	2.62144							0.649455	2.36718						
0.585962	2.12461	0.584036	2.11312									0.650744	2.36642						
0.587287	2.12454	0.585386	2.11318									0.652034	2.36567						
0.588612	2.12447	0.586737	2.11323									0.653324	2.36493						
0.589936	2.1244	0.588088	2.11328									0.654615	2.36419						
0.591261	2.12433	0.589439	2.11333									0.655907	2.36345						
0.592587	2.12427	0.590789	2.11338									0.657199	2.36273						
0.593912	2.1242	0.59214	2.11343									0.658492	2.362						
0.595237	2.12414	0.59349	2.11348									0.659785	2.36129						
0.596563	2.12408	0.59484	2.11353									0.66108	2.36058						
0.597888	2.12401	0.596191	2.11357									0.662374	2.35987						
0.599214	2.12395	0.597541	2.11362									0.66367	2.35917						
0.60054	2.12389	0.598891	2.11367									0.664966	2.35847						
0.601866	2.12383	0.600241	2.11372									0.666262	2.35778						
0.603192	2.12377	0.601591	2.11376									0.66756	2.3571						
0.604519	2.12371	0.602941	2.11381									0.668858	2.35642						
0.605845	2.12365	0.604291	2.11385									0.670156	2.35574						
0.607172	2.12359	0.605641	2.1139									0.671455	2.35508						
0.608498	2.12353	0.60699	2.11394									0.672755	2.35441						
0.609825	2.12348	0.60834	2.11399									0.674055	2.35375						
0.611152	2.12342	0.609689	2.11403									0.675356	2.3531						
0.612479	2.12337	0.611039	2.11407									0.676657	2.35245						
0.613806	2.12331	0.612389	2.11412									0.677959	2.3518						
0.615133	2.12326	0.613738	2.11416									0.679262	2.35116						
0.61646	2.1232	0.615087	2.1142									0.680565	2.35053						
0.617788	2.12315	0.616436	2.11424									0.681868	2.3499						
0.619115	2.1231	0.617786	2.11428									0.683173	2.34927						
0.620443	2.12305	0.619135	2.11432									0.684477	2.34865						
0.621771	2.12299	0.620484	2.11436									0.685783	2.34803						
0.623098	2.12294	0.621833	2.1144									0.687089	2.34742						
0.624426	2.12289	0.623182	2.11444									0.688395	2.34681						
0.625755	2.12284	0.624531	2.11448									0.689702	2.34621						
0.627083	2.1228	0.625879	2.11452									0.69101	2.34561						
0.628411	2.12275	0.627228	2.11456									0.692318	2.34502						
0.629739	2.1227	0.628577	2.1146									0.693626	2.34443						
0.631068	2.12265	0.629925	2.11464									0.694935	2.34384						
0.632396	2.12261	0.631274	2.11467									0.696245	2.34326						
0.633725	2.12256	0.632622	2.11471									0.697555	2.34268						
0.635054	2.12251	0.633971	2.11475									0.698866	2.34211						
0.636383	2.12247	0.635319	2.11478									0.700177	2.34154						
0.637712	2.12242	0.636668	2.11482									0.701489	2.34098						
0.639041	2.12238	0.638016	2.11485									0.702801	2.34042						
0.64037	2.12234	0.639364	2.11489									0.704114	2.33986						
0.641699	2.12229	0.640712	2.11492									0.705427	2.33931						
0.643028	2.12225	0.64206	2.11496									0.706741	2.33876						
0.644358	2.12221	0.643408	2.11499									0.708055	2.33822						
0.645687	2.12217	0.644756	2.11503									0.70937	2.33768						
0.647017	2.12213	0.646104	2.11506									0.710685	2.33714						
0.648347	2.12208	0.647452	2.11509									0.712001	2.33661						
0.649676	2.12204	0.6488	2.11513									0.713317	2.33608						
0.651006	2.122	0.650147	2.11516									0.714634	2.33555						
0.652336	2.12196	0.651495	2.11519									0.715951	2.33503						
0.653666	2.12193	0.652843	2.11522									0.717269	2.33451						
0.654996	2.12189	0.65419	2.11525									0.718587	2.334						
0.656327	2.12185	0.655538	2.11528									0.719906	2.33349						
0.657657	2.12181	0.656885	2.11532									0.721225	2.33298						
0.658987	2.12177	0.658232	2.11535																
0.660318	2.12174	0.65958	2.11538																
0.661648	2.1217	0.660927	2.11541																
0.662979	2.12167	0.662274	2.11544																
0.66431	2.12163	0.663621	2.11547																
0.66564	2.12159	0.664968	2.1155																
0.666971	2.12156	0.666316	2.11552																
0.668302	2.12153	0.667663	2.11555																
0.669633	2.12149	0.669009	2.11558																
0.670964	2.12146	0.670356	2.11561																
0.672296	2.12142	0.671703	2.11564																
0.673627	2.12139	0.67305	2.11566																
0.674958	2.12136	0.674397	2.11569																
0.676289	2.12133	0.675743	2.11572																
0.677621	2.12129	0.67709	2.11575																
0.678952	2.12126	0.678437	2.11577																
0.680284	2.12123	0.679783	2.1158																
0.681616	2.1212	0.68113	2.11582																
0.682948	2.12117	0.682476	2.11585																
0.684279	2.12114	0.683823	2.11587																
0.685611	2.12111	0.685169	2.1159																
0.686943	2.12108	0.686515	2.11592																
0.688275	2.12105	0.687861	2.11595																
0.689607	2.12102	0.689208	2.11597																
0.69094	2.12099	0.690554	2.116																
0.692272	2.12097	0.6919	2.11602																
0.693604	2.12094	0.693246	2.11605																
0.694936	2.12091	0.694592	2.11607																
0.696269	2.12088	0.695938	2.11609																
0.697601	2.12086	0.697284	2.11612																
0.698934	2.12083	0.69863	2.11614																
0.700267	2.1208	0.699976	2.11616																
0.701599	2.12078	0.701321	2.11618																
0.702932	2.12075	0.702667	2.11621																
0.704265	2.12073	0.704013	2.11623																
0.705598	2.1207	0.705358	2.11625																
0.706931	2.12068	0.706704	2.11627																
0.708264	2.12065	0.70805	2.11629																
0.709597	2.12063	0.709395	2.11631																
0.71093	2.1206	0.710741	2.11633																
0.712263	2.12058	0.712086	2.11635																
0.713596	2.12056	0.713431	2.11637																
0.714929	2.12053	0.714777	2.11639																
0.716263	2.12051	0.716122	2.11641																
0.717596	2.12049	0.717467	2.11643																
0.71893	2.12046	0.718812	2.11645																
0.720263	2.12044	0.720158	2.11647																
