Sym0		Asym0		Sym1		Sym2		Sym3		Sym4		Asym1		Asym2		Asym3		Asym4	
555  Points		552  Points		458  Points		247  Points		223  Points		170  Points		501  Points		382  Points		223  Points		161  Points	
Freq (MHz)	Vph (m/ms)	Freq (MHz)	Vph (m/ms)	Freq (MHz)	Vph (m/ms)	Freq (MHz)	Vph (m/ms)	Freq (MHz)	Vph (m/ms)	Freq (MHz)	Vph (m/ms)	Freq (MHz)	Vph (m/ms)	Freq (MHz)	Vph (m/ms)	Freq (MHz)	Vph (m/ms)	Freq (MHz)	Vph (m/ms)
0.00163633	4.89958	0.000289843	0.143354	0.170092	322.942	0.279524	507.78	0.510276	1022.75	0.559017	9605.35	0.139756	1063.69	0.340186	762.771	0.419267	1285.13	0.680349	1089.3
0.00473507	4.89956	0.0004985	0.187807	0.170082	146.73	0.279582	236.345	0.510251	450.998	0.559039	809.435	0.139809	183.034	0.340173	315.43	0.419302	437.365	0.680265	541.169
0.00783346	4.89933	0.000762377	0.231953	0.170065	94.9234	0.279681	154.061	0.510208	289.26	0.559099	422.564	0.139938	100.221	0.34015	198.814	0.419371	263.564	0.680126	359.953
0.0109313	4.899	0.00108068	0.275739	0.170041	70.1474	0.279823	114.314	0.510145	212.889	0.559195	285.951	0.140143	69.0782	0.340117	145.141	0.419474	188.645	0.679936	269.608
0.0140285	4.89857	0.00145239	0.319088	0.170011	55.6225	0.280006	90.9019	0.510064	168.407	0.559329	216.122	0.140422	52.7661	0.340074	114.28	0.419611	146.919	0.679699	215.477
0.0171248	4.89803	0.00187639	0.361949	0.169974	46.0763	0.28023	75.4775	0.509964	139.289	0.559499	173.732	0.140774	42.7409	0.340022	94.2341	0.419782	120.332	0.679419	179.415
0.0202199	4.89739	0.00235141	0.404259	0.169931	39.3229	0.280495	64.5526	0.509848	118.744	0.559704	145.267	0.1412	35.9643	0.339959	80.1655	0.419987	101.914	0.6791	153.667
0.0233136	4.89662	0.00287603	0.445961	0.169882	34.2927	0.280801	56.4121	0.509714	103.472	0.559946	124.838	0.141698	31.0838	0.339888	69.7466	0.420225	88.4044	0.678747	134.359
0.0264057	4.89573	0.00344886	0.487024	0.169828	30.4006	0.281148	50.1143	0.509564	91.6718	0.560222	109.464	0.142266	27.4061	0.339807	61.7199	0.420495	78.0735	0.678365	119.342
0.029496	4.89473	0.00406835	0.527401	0.169769	27.2993	0.281534	45.099	0.509399	82.2802	0.560532	97.4788	0.142904	24.5392	0.339718	55.3459	0.420799	69.9193	0.677958	107.328
0.0325842	4.8936	0.00473287	0.567054	0.169706	24.77	0.28196	41.0121	0.509219	74.6274	0.560876	87.8736	0.143609	22.2445	0.339621	50.1615	0.421134	63.3208	0.67753	97.4986
0.03567	4.89234	0.00544074	0.605949	0.169639	22.6678	0.282425	37.6191	0.509025	68.2711	0.561252	80.005	0.144381	20.3686	0.339516	45.862	0.421501	57.8726	0.677084	89.3064
0.0387531	4.89094	0.00619031	0.644064	0.169569	20.8928	0.282929	34.758	0.508818	62.9072	0.56166	73.442	0.145217	18.8084	0.339404	42.2383	0.4219	53.299	0.676623	82.374
0.0418332	4.8894	0.00697985	0.681375	0.169497	19.3742	0.28347	32.3138	0.5086	58.32	0.562098	67.8853	0.146116	17.492	0.339285	39.1427	0.422329	49.4058	0.67615	76.4314
0.04491	4.88771	0.00780761	0.717859	0.169424	18.0602	0.284049	30.2023	0.50837	54.3519	0.562567	63.1205	0.147076	16.3676	0.33916	36.4674	0.422789	46.0523	0.675668	71.2809
0.0479831	4.88586	0.00867194	0.753512	0.169351	16.9122	0.284664	28.3606	0.50813	50.8855	0.563064	58.9903	0.148095	15.3973	0.33903	34.1323	0.423278	43.1341	0.675178	66.7739
0.0510521	4.88385	0.00957111	0.78832	0.169277	15.9006	0.285315	26.7405	0.507881	47.8311	0.563589	55.3761	0.14917	14.5523	0.338895	32.0763	0.423796	40.572	0.674683	62.797
0.0541166	4.88165	0.0105035	0.822281	0.169205	15.0026	0.286002	25.3049	0.507624	45.1194	0.564142	52.1873	0.150301	13.8105	0.338755	30.2521	0.424344	38.3051	0.674183	59.262
0.0571762	4.87928	0.0114673	0.855385	0.169136	14.2001	0.286724	24.0244	0.507359	42.6957	0.564721	49.3533	0.151486	13.1548	0.338611	28.6226	0.424919	36.2855	0.673681	56.0991
0.0602303	4.8767	0.0124611	0.887634	0.16907	13.4788	0.287479	22.8755	0.507088	40.5165	0.565325	46.8183	0.152721	12.5717	0.338465	27.1583	0.425522	34.475	0.673178	53.2526
0.0632783	4.87391	0.0134832	0.919038	0.169008	12.8271	0.288268	21.8391	0.506811	38.5465	0.565953	44.5376	0.154006	12.0501	0.338315	25.8353	0.426151	32.8431	0.672675	50.6773
0.0663197	4.87088	0.0145321	0.949596	0.168952	12.2356	0.289089	20.9	0.50653	36.757	0.566605	42.4749	0.155338	11.5812	0.338164	24.634	0.426807	31.3649	0.672172	48.3363
0.0693537	4.86761	0.0156063	0.979321	0.168903	11.6963	0.289942	20.0451	0.506244	35.1243	0.56728	40.6005	0.156715	11.1577	0.338012	23.5384	0.427489	30.0197	0.671671	46.1992
0.0723796	4.86407	0.0167045	1.00822	0.168863	11.2029	0.290827	19.2639	0.505956	33.6286	0.567976	38.89	0.158136	10.7738	0.337859	22.5353	0.428195	28.7907	0.671172	44.2403
0.0753965	4.86025	0.0178252	1.0363	0.168832	10.7498	0.291741	18.5475	0.505665	32.2535	0.568694	37.3229	0.159599	10.4243	0.337707	21.6133	0.428926	27.6634	0.670677	42.4385
0.0784035	4.8561	0.0189672	1.06359	0.168813	10.3325	0.292685	17.8883	0.505373	30.9849	0.569432	35.8819	0.161102	10.105	0.337555	20.7632	0.429681	26.6261	0.670185	40.7755
0.0813995	4.85162	0.0201292	1.09009	0.168807	9.94708	0.293658	17.2798	0.50508	29.811	0.570189	34.5526	0.162643	9.81239	0.337404	19.9768	0.43046	25.6683	0.669697	39.2361
0.0843833	4.84675	0.02131	1.11581	0.168816	9.5902	0.29466	16.7166	0.504788	28.7215	0.570965	33.3226	0.16422	9.54341	0.337256	19.2473	0.431261	24.7815	0.669215	37.8069
0.0873535	4.84148	0.0225084	1.14079	0.168842	9.25899	0.295688	16.1939	0.504495	27.7078	0.57176	32.1811	0.165832	9.29544	0.33711	18.5687	0.432084	23.9581	0.668737	36.4766
0.0903087	4.83576	0.0237234	1.16502	0.168887	8.951	0.296743	15.7076	0.504205	26.7623	0.572572	31.119	0.167477	9.06625	0.336968	17.9361	0.432928	23.1916	0.668265	35.2353
0.093247	4.82954	0.024954	1.18854	0.168953	8.66408	0.297824	15.2542	0.503916	25.8782	0.573401	30.1285	0.169154	8.85389	0.33683	17.3448	0.433793	22.4764	0.667799	34.0744
0.0961665	4.82277	0.0261991	1.21135	0.169043	8.39638	0.298931	14.8304	0.503629	25.0499	0.574246	29.2024	0.170861	8.65665	0.336697	16.7911	0.434679	21.8077	0.667339	32.9865
0.0990649	4.81539	0.0274579	1.23348	0.16916	8.14627	0.300061	14.4336	0.503346	24.2723	0.575107	28.3349	0.172596	8.47306	0.336569	16.2715	0.435585	21.1811	0.666886	31.9648
0.10194	4.80734	0.0287294	1.25495	0.169306	7.91235	0.301216	14.0614	0.503067	23.5408	0.575983	27.5205	0.174358	8.30181	0.336448	15.783	0.43651	20.5927	0.66644	31.0035
0.104788	4.79853	0.0300128	1.27576	0.169487	7.69338	0.302394	13.7115	0.502792	22.8517	0.576874	26.7546	0.176146	8.14175	0.336333	15.323	0.437453	20.0393	0.666001	30.0976
0.107606	4.78889	0.0313074	1.29595	0.169704	7.48828	0.303593	13.3822	0.502522	22.2012	0.577779	26.033	0.177958	7.99187	0.336225	14.8891	0.438415	19.5179	0.66557	29.2423
0.110391	4.77832	0.0326123	1.31553	0.169928	7.32013	0.304815	13.0716	0.502257	21.5863	0.578698	25.3519	0.179792	7.85126	0.336126	14.4792	0.439395	19.0258	0.665146	28.4336
0.113137	4.7667	0.0339271	1.33452	0.170146	7.18413	0.306058	12.7783	0.501997	21.0043	0.579629	24.7081	0.181648	7.71912	0.336035	14.0914	0.440391	18.5607	0.66473	27.6678
0.11584	4.75392	0.0352508	1.35293	0.170347	7.07654	0.307321	12.5009	0.501745	20.4525	0.580574	24.0987	0.183524	7.59473	0.335953	13.724	0.441405	18.1204	0.664323	26.9416
0.118495	4.73984	0.0365829	1.37078	0.170521	6.99448	0.308603	12.2383	0.501498	19.9287	0.581531	23.5209	0.18542	7.47745	0.335882	13.3755	0.442434	17.703	0.663924	26.2521
0.121095	4.72432	0.0379228	1.38809	0.170657	6.9358	0.309905	11.9892	0.50126	19.4308	0.5825	22.9725	0.187332	7.36669	0.335822	13.0445	0.44348	17.3069	0.663533	25.5965
0.123632	4.70718	0.0392701	1.40488	0.170747	6.89896	0.311225	11.7527	0.501028	18.9571	0.58348	22.4511	0.189261	7.26194	0.335772	12.7299	0.44454	16.9304	0.663152	24.9725
0.126101	4.68827	0.040624	1.42117	0.170884	6.84698	0.312562	11.5279	0.500805	18.5058	0.584471	21.955	0.190955	7.17518	0.335735	12.4304	0.445616	16.5722	0.662779	24.3779
0.128492	4.66741	0.0419843	1.43696	0.17104	6.79176	0.313917	11.3139	0.500591	18.0754	0.585473	21.4823	0.192407	7.10433	0.335711	12.1452	0.446706	16.231	0.662415	23.8106
0.130796	4.64442	0.0433504	1.45228	0.171265	6.71875	0.315288	11.1101	0.500385	17.6646	0.586486	21.0314	0.193613	7.04776	0.3357	11.8731	0.447809	15.9055	0.662061	23.2689
0.133006	4.61916	0.0447219	1.46714	0.171573	6.6298	0.316675	10.9157	0.500188	17.272	0.587509	20.6008	0.19457	7.00428	0.335704	11.6134	0.448926	15.5949	0.661717	22.7511
0.135113	4.59148	0.0460983	1.48156	0.171984	6.52715	0.318077	10.7301	0.500001	16.8966	0.588541	20.1893	0.195276	6.97298	0.335722	11.3654	0.450057	15.2981	0.661382	22.2556
0.137109	4.56128	0.0474794	1.49554	0.172521	6.4134	0.319494	10.5527	0.499825	16.5372	0.589583	19.7956	0.195728	6.95324	0.335756	11.1283	0.4512	15.0141	0.661057	21.7811
0.138989	4.52852	0.0488647	1.50911	0.17322	6.29145	0.320924	10.3831	0.499658	16.1928	0.590634	19.4185	0.196379	6.92525	0.335806	10.9014	0.452355	14.7423	0.660742	21.3263
0.140747	4.49321	0.0502539	1.52228	0.174014	6.17839	0.322369	10.2207	0.499503	15.8626	0.591694	19.0571	0.197088	6.89534	0.335874	10.6843	0.453522	14.4818	0.660437	20.8901
0.142381	4.45544	0.0514675	1.53344	0.174914	6.07393	0.323826	10.0651	0.499358	15.5458	0.592762	18.7104	0.198055	6.85548	0.335959	10.4762	0.4547	14.232	0.660143	20.4712
0.143894	4.41538	0.052504	1.54273	0.175926	5.97781	0.325295	9.9158	0.499226	15.2416	0.593839	18.3775	0.199281	6.80638	0.336064	10.2768	0.455889	13.9923	0.659859	20.0688
0.145286	4.37323	0.0533624	1.55026	0.17706	5.88977	0.326776	9.77254	0.499105	14.9492	0.594923	18.0576	0.200768	6.74888	0.336187	10.0855	0.45709	13.762	0.659585	19.6819
0.146564	4.32928	0.054042	1.55611	0.178322	5.80952	0.328268	9.63492	0.498996	14.6681	0.596016	17.75	0.202518	6.68388	0.336331	9.90197	0.4583	13.5406	0.659323	19.3097
0.147735	4.28383	0.0545421	1.56036	0.179716	5.73674	0.32977	9.50262	0.4989	14.3976	0.597116	17.454	0.204534	6.61237	0.336497	9.72574	0.45952	13.3276	0.659072	18.9513
0.148807	4.2372	0.0548624	1.56306	0.181245	5.67104	0.331283	9.37534	0.498817	14.1372	0.598223	17.169	0.206555	6.54393	0.336684	9.55647	0.46075	13.1226	0.658831	18.606
0.149789	4.18973	0.055323	1.56691	0.182908	5.61201	0.332805	9.2528	0.498747	13.8863	0.599337	16.8943	0.208582	6.47832	0.336895	9.39381	0.461989	12.925	0.658603	18.2732
0.150692	4.14171	0.0558239	1.57105	0.184702	5.55919	0.334335	9.13473	0.498692	13.6445	0.600458	16.6294	0.210612	6.41536	0.33713	9.23745	0.463237	12.7346	0.658385	17.9521
0.151524	4.09343	0.0565058	1.57661	0.186622	5.51206	0.335874	9.02089	0.49865	13.4113	0.601585	16.3738	0.212645	6.35486	0.337389	9.08709	0.464493	12.5509	0.658179	17.6423
0.152295	4.04515	0.057369	1.58352	0.188662	5.47013	0.337421	8.91106	0.498622	13.1862	0.602718	16.1271	0.21468	6.29665	0.337675	8.94245	0.465758	12.3736	0.657986	17.343
0.153013	3.99707	0.058414	1.59173	0.190813	5.43285	0.338974	8.80503	0.49861	12.969	0.603858	15.8887	0.216714	6.24057	0.337987	8.80328	0.46703	12.2024	0.657804	17.054
0.153685	3.94939	0.0596413	1.60112	0.193065	5.39975	0.340535	8.70259	0.498612	12.7592	0.605003	15.6583	0.218748	6.18646	0.338327	8.66933	0.46831	12.0369	0.657634	16.7745
0.154319	3.90225	0.0610515	1.61162	0.195409	5.37032	0.342101	8.60356	0.49863	12.5564	0.606154	15.4354	0.22078	6.13421	0.338697	8.5404	0.469597	11.877	0.657477	16.5042
0.154921	3.85579	0.0624635	1.62182	0.197837	5.34413	0.343673	8.50777	0.498664	12.3604	0.607311	15.2197	0.222808	6.08366	0.339097	8.41625	0.47089	11.7222	0.657332	16.2427
0.155495	3.81011	0.0638771	1.63172	0.200338	5.32079	0.34525	8.41505	0.498715	12.1709	0.608472	15.0109	0.224832	6.0347	0.339528	8.29672	0.47219	11.5723	0.657199	15.9896
0.156047	3.76528	0.0652921	1.64135	0.202904	5.29994	0.346831	8.32525	0.498782	11.9875	0.609639	14.8086	0.22685	5.98723	0.339991	8.1816	0.473496	11.4272	0.65708	15.7444
0.156513	3.72696	0.0667084	1.65071	0.205529	5.28126	0.348415	8.23822	0.498866	11.81	0.61081	14.6126	0.228861	5.94112	0.340488	8.07073	0.474808	11.2866	0.656974	15.5069
0.1569	3.69486	0.0681259	1.65981	0.208205	5.26447	0.350004	8.15384	0.498967	11.6381	0.611985	14.4225	0.230863	5.89629	0.34102	7.96394	0.476125	11.1503	0.656881	15.2766
0.157216	3.66872	0.0695443	1.66866	0.210927	5.24933	0.351594	8.07196	0.499086	11.4717	0.613165	14.2381	0.232855	5.85264	0.341588	7.86109	0.477448	11.0181	0.656801	15.0534
0.157462	3.64832	0.0709636	1.67726	0.213688	5.23564	0.353187	7.99248	0.499224	11.3104	0.614349	14.0591	0.234836	5.81008	0.342193	7.76204	0.478775	10.8897	0.656735	14.8368
0.157642	3.63347	0.0723837	1.68563	0.216485	5.22322	0.354782	7.91528	0.49938	11.1542	0.615537	13.8853	0.236805	5.76852	0.342836	7.66664	0.480106	10.7652	0.656683	14.6266
0.157757	3.62403	0.0738044	1.69376	0.219312	5.21191	0.356377	7.84024	0.499556	11.0026	0.616729	13.7165	0.23876	5.72789	0.343519	7.57477	0.481442	10.6442	0.656644	14.4226
0.15792	3.61056	0.0752256	1.70168	0.222167	5.20158	0.357973	7.76728	0.499751	10.8557	0.617924	13.5524	0.240699	5.68811	0.344147	7.49751	0.482781	10.5266	0.65662	14.2244
0.158098	3.59604	0.0766472	1.70938	0.225047	5.19212	0.359569	7.69629	0.499965	10.7132	0.619122	13.3929	0.242622	5.64911	0.344707	7.43362	0.484124	10.4123	0.65661	14.032
0.158337	3.5765	0.0780693	1.71688	0.227948	5.18341	0.361164	7.62718	0.5002	10.5749	0.620323	13.2378	0.244526	5.61083	0.345188	7.38215	0.48547	10.3011	0.656615	13.845
0.158638	3.55213	0.0794915	1.72418	0.230868	5.17538	0.362757	7.55987	0.500456	10.4407	0.621527	13.0869	0.246411	5.5732	0.34558	7.34229	0.486818	10.1929	0.656634	13.6632
0.159001	3.52318	0.0809141	1.73128	0.233805	5.16795	0.364145	7.50261	0.500733	10.3105	0.622734	12.94	0.248275	5.53617	0.345874	7.31345	0.48817	10.0876	0.656669	13.4864
0.159424	3.48993	0.0823367	1.7382	0.236757	5.16105	0.365326	7.45479	0.501032	10.184	0.623943	12.7969	0.250117	5.49967	0.346066	7.2952	0.489523	9.9851	0.656718	13.3145
0.159908	3.45272	0.0837594	1.74494	0.239722	5.15463	0.366302	7.41591	0.501353	10.0612	0.625155	12.6576	0.251935	5.46366	0.346345	7.26925	0.490878	9.88522	0.656783	13.1472
0.160391	3.41651	0.085182	1.7515	0.2427	5.14864	0.367073	7.38558	0.501696	9.94188	0.626368	12.5218	0.253727	5.4281	0.346654	7.24141	0.492235	9.78788	0.656864	12.9844
0.160877	3.3813	0.0866047	1.75789	0.245688	5.14303	0.367639	7.36351	0.502062	9.82599	0.627584	12.3895	0.255494	5.39292	0.347084	7.20415	0.493592	9.69298	0.65696	12.826
0.161364	3.34705	0.0880271	1.76412	0.248686	5.13776	0.368001	7.34948	0.502452	9.71338	0.628801	12.2604	0.257233	5.3581	0.347642	7.15802	0.494951	9.60042	0.657073	12.6717
0.161855	3.31376	0.0894495	1.77018	0.251692	5.1328	0.368522	7.32946	0.502866	9.60395	0.630019	12.1345	0.258944	5.3236	0.348341	7.10369	0.49631	9.51012	0.657202	12.5215
0.16235	3.28139	0.0908716	1.7761	0.254706	5.12812	0.369087	7.30786	0.503303	9.49759	0.631239	12.0117	0.260624	5.28937	0.349193	7.04192	0.49767	9.42198	0.657347	12.3751
0.162849	3.24995	0.0922935	1.78186	0.257726	5.12369	0.369855	7.27879	0.503766	9.3942	0.63246	11.8918	0.262274	5.2554	0.350216	6.97359	0.499029	9.33593	0.657509	12.2325
0.163354	3.21939	0.0937151	1.78748	0.260753	5.11949	0.370824	7.2425	0.504254	9.29369	0.633681	11.7748	0.263892	5.22165	0.351286	6.90791	0.500388	9.25188	0.657687	12.0936
0.163865	3.18971	0.0951364	1.79296	0.263784	5.11548	0.371994	7.19929	0.504767	9.19596	0.634903	11.6604	0.265478	5.18809	0.352404	6.84478	0.501746	9.16976	0.657883	11.9581
0.164383	3.16087	0.0965572	1.7983	0.266821	5.11167	0.373363	7.14953	0.505306	9.10092	0.636126	11.5487	0.26703	5.15472	0.353572	6.78411	0.503103	9.0895	0.658097	11.826
0.164907	3.13285	0.0979778	1.80352	0.269861	5.10802	0.374929	7.0936	0.505872	9.00849	0.637349	11.4396	0.268548	5.1215	0.354788	6.72584	0.504458	9.01102	0.658328	11.6972
0.165439	3.10564	0.0993978	1.8086	0.272904	5.10452	0.376489	7.03889	0.506465	8.9186	0.638572	11.3329	0.270032	5.08843	0.356054	6.66987	0.505812	8.93427	0.658577	11.5716
0.165978	3.0792	0.100818	1.81356	0.275951	5.10116	0.378043	6.98534	0.507084	8.83116	0.639794	11.2286	0.271482	5.05549	0.35737	6.61612	0.507164	8.85918	0.658844	11.4491
0.166525	3.05353	0.102237	1.8184	0.279	5.09792	0.37959	6.9329	0.507732	8.7461	0.641017	11.1265	0.272896	5.02268	0.358735	6.56453	0.508513	8.78569	0.659129	11.3295
0.167081	3.02859	0.103655	1.82313	0.28205	5.09479	0.381129	6.88153	0.508408	8.66336	0.642238	11.0267	0.274276	4.98999	0.360149	6.515	0.50986	8.71375	0.659432	11.2128
0.167644	3.00436	0.105074	1.82774	0.285103	5.09175	0.382661	6.83118	0.509112	8.58285	0.643459	10.929	0.275621	4.95742	0.361612	6.46747	0.511204	8.64329	0.659755	11.099
0.168216	2.98082	0.106491	1.83224	0.288156	5.08881	0.384184	6.7818	0.509844	8.50453	0.644679	10.8333	0.276932	4.92496	0.363123	6.42186	0.512545	8.57427	0.660096	10.9878
0.168797	2.95796	0.107908	1.83664	0.291211	5.08594	0.385699	6.73337	0.510606	8.42831	0.645898	10.7396	0.278208	4.89263	0.364682	6.37809	0.513882	8.50664	0.660457	10.8793
0.169386	2.93575	0.109325	1.84093	0.294265	5.08314	0.387205	6.68583	0.511397	8.35416	0.647115	10.6479	0.279451	4.86043	0.366288	6.3361	0.515215	8.44035	0.660837	10.7733
0.169984	2.91418	0.110741	1.84513	0.297319	5.08039	0.388701	6.63917	0.512217	8.28199	0.648331	10.558	0.280661	4.82836	0.36794	6.2958	0.516545	8.37535	0.661237	10.6698
0.170592	2.89322	0.112156	1.84922	0.300373	5.0777	0.390188	6.59333	0.513068	8.21177	0.649545	10.47	0.281838	4.79642	0.369637	6.25713	0.51787	8.3116	0.661657	10.5687
0.171208	2.87285	0.113571	1.85322	0.303426	5.07505	0.391664	6.5483	0.513948	8.14343	0.650757	10.3837	0.282984	4.76464	0.371379	6.22001	0.51919	8.24905	0.662097	10.47
0.171833	2.85306	0.114985	1.85713	0.306478	5.07243	0.39313	6.50404	0.514859	8.07692	0.651967	10.299	0.284099	4.73302	0.373163	6.18439	0.520505	8.18768	0.662557	10.3735
0.172467	2.83383	0.116399	1.86096	0.309527	5.06984	0.394586	6.46053	0.515801	8.01219	0.653175	10.216	0.285184	4.70156	0.37499	6.1502	0.521815	8.12743	0.663038	10.2792
0.17311	2.81514	0.117812	1.86469	0.312575	5.06727	0.396032	6.41774	0.516772	7.9492	0.65438	10.1346	0.286241	4.67029	0.376857	6.11736	0.52312	8.06827	0.663539	10.1871
0.173762	2.79697	0.119224	1.86834	0.31562	5.0647	0.397466	6.37564	0.517775	7.88788	0.655582	10.0548	0.287271	4.63921	0.378763	6.08583	0.524419	8.01017	0.664061	10.0971
0.174423	2.77932	0.120636	1.87191	0.318662	5.06214	0.39889	6.33422	0.518674	7.83578	0.656782	9.97639	0.288274	4.60834	0.380707	6.05553	0.525713	7.9531	0.664604	10.0091
0.175093	2.76216	0.122047	1.8754	0.321701	5.05958	0.400303	6.29345	0.519458	7.79232	0.657978	9.89946	0.289251	4.57769	0.382688	6.02641	0.527	7.89701	0.665169	9.9231
0.175772	2.74548	0.123457	1.87882	0.324735	5.057	0.401706	6.25332	0.52012	7.75704	0.659171	9.82393	0.290205	4.54727	0.384704	5.99841	0.528116	7.84892	0.665755	9.83901
0.17646	2.72926	0.124867	1.88215	0.327765	5.0544	0.403098	6.21381	0.520651	7.72955	0.660361	9.74976	0.291136	4.51709	0.386753	5.97149	0.529064	7.80849	0.666363	9.75679
0.177156	2.71349	0.126276	1.88542	0.33079	5.05178	0.404479	6.17491	0.521046	7.70956	0.661547	9.67691	0.292045	4.48716	0.388836	5.94557	0.529846	7.77543	0.666992	9.6764
0.177862	2.69816	0.127685	1.88862	0.333809	5.04912	0.405851	6.1366	0.521301	7.69687	0.662729	9.60534	0.292934	4.4575	0.390949	5.92063	0.530462	7.74954	0.667644	9.59779
0.178576	2.68325	0.129092	1.89174	0.336821	5.0464	0.407213	6.09887	0.521671	7.67877	0.663907	9.53502	0.293803	4.42811	0.393092	5.8966	0.530913	7.73063	0.668317	9.52091
0.179299	2.66875	0.1305	1.8948	0.339826	5.04364	0.408566	6.06171	0.522076	7.65927	0.665082	9.4659	0.294654	4.39901	0.395263	5.87345	0.531202	7.71859	0.669012	9.44571
0.18003	2.65465	0.131906	1.8978	0.342824	5.04081	0.40991	6.02513	0.522633	7.63305	0.666252	9.39796	0.295488	4.3702	0.397461	5.85112	0.531617	7.70135	0.66973	9.37215
0.18077	2.64093	0.133312	1.90073	0.345812	5.0379	0.411247	5.9891	0.523349	7.60037	0.667417	9.33116	0.296306	4.34169	0.399685	5.82959	0.532066	7.68273	0.67047	9.3002
0.181519	2.62759	0.134717	1.9036	0.34879	5.0349	0.412577	5.95363	0.524229	7.56156	0.668579	9.26546	0.29711	4.31348	0.401933	5.80879	0.532676	7.65757	0.671233	9.2298
0.182276	2.61461	0.136122	1.90641	0.351758	5.03179	0.413901	5.91872	0.525284	7.51701	0.669735	9.20085	0.297899	4.28559	0.404205	5.78871	0.533445	7.62603	0.672018	9.16093
0.183041	2.60198	0.137526	1.90916	0.354713	5.02858	0.41522	5.88436	0.526522	7.46715	0.670887	9.13728	0.298676	4.25802	0.406498	5.7693	0.534372	7.58831	0.672825	9.09354
0.183814	2.58969	0.138929	1.91185	0.357655	5.02523	0.416536	5.85057	0.52779	7.41859	0.672034	9.07473	0.29944	4.23077	0.408812	5.75052	0.535454	7.54463	0.673656	9.02759
0.184596	2.57773	0.140332	1.91449	0.360582	5.02173	0.41785	5.81735	0.529088	7.37131	0.673175	9.01317	0.300194	4.20386	0.411146	5.73236	0.536689	7.49524	0.674508	8.96305
0.185385	2.56609	0.141734	1.91708	0.363493	5.01807	0.419163	5.7847	0.530415	7.32525	0.674312	8.95258	0.300937	4.17727	0.413498	5.71476	0.537916	7.44661	0.675384	8.89988
0.186182	2.55476	0.143135	1.91961	0.366386	5.01422	0.420479	5.75264	0.531772	7.2804	0.675444	8.89294	0.301671	4.15102	0.415868	5.69771	0.539136	7.39872	0.676282	8.83806
0.186988	2.54373	0.144536	1.92209	0.369258	5.01016	0.421797	5.72118	0.533157	7.23671	0.67657	8.8342	0.302397	4.12511	0.418254	5.68117	0.540349	7.35155	0.677202	8.77754
0.1878	2.533	0.145936	1.92453	0.372108	5.00587	0.423122	5.69034	0.534571	7.19414	0.677691	8.77636	0.303115	4.09953	0.420656	5.66513	0.541555	7.3051	0.678145	8.7183
0.188621	2.52255	0.147335	1.92691	0.374933	5.00132	0.424456	5.66013	0.536013	7.15266	0.678807	8.71939	0.303826	4.0743	0.423072	5.64954	0.542753	7.25932	0.679111	8.66029
0.189449	2.51237	0.148734	1.92925	0.37773	4.99649	0.425802	5.63059	0.537483	7.11225	0.679917	8.66327	0.304531	4.0494	0.425501	5.6344	0.543943	7.21422	0.680099	8.6035
0.190285	2.50246	0.150132	1.93154	0.380497	4.99133	0.427162	5.60173	0.538979	7.07286	0.681022	8.60798	0.30523	4.02485	0.427943	5.61967	0.545127	7.16978	0.681109	8.54789
0.191127	2.49281	0.15153	1.93378	0.38323	4.98581	0.428541	5.57358	0.540503	7.03447	0.682121	8.55349	0.305924	4.00064	0.430397	5.60534	0.546303	7.12597	0.682141	8.49343
0.191978	2.48342	0.152927	1.93598	0.385926	4.97991	0.429942	5.54619	0.542052	6.99704	0.683214	8.4998	0.306613	3.97676	0.432861	5.59138	0.547472	7.08279	0.683196	8.4401
0.192835	2.47426	0.154323	1.93814	0.38858	4.97357	0.43137	5.51957	0.543627	6.96055	0.684302	8.44687	0.307299	3.95323	0.435335	5.57776	0.548634	7.04022	0.684272	8.38786
0.193699	2.46535	0.155719	1.94026	0.391189	4.96676	0.432829	5.49379	0.545228	6.92496	0.685385	8.3947	0.307981	3.93003	0.437818	5.56449	0.549789	6.99825	0.68537	8.33669
0.19457	2.45666	0.157114	1.94234	0.393748	4.95942	0.434324	5.46886	0.546852	6.89025	0.686462	8.34326	0.308661	3.90717	0.440309	5.55152	0.550938	6.95687	0.68649	8.28656
0.195448	2.4482	0.158508	1.94438	0.396252	4.95152	0.43586	5.44484	0.548501	6.85638	0.687533	8.29254	0.309338	3.88463	0.442808	5.53886	0.552081	6.91606	0.687631	8.23744
0.196333	2.43995	0.159902	1.94637	0.398697	4.94301	0.437442	5.42177	0.550173	6.82334	0.688599	8.24252	0.310013	3.86243	0.445312	5.52647	0.553218	6.87582	0.688643	8.19545
0.197225	2.43191	0.161296	1.94833	0.401078	4.93384	0.439076	5.39968	0.551868	6.79109	0.689524	8.19949	0.310686	3.84056	0.447823	5.51434	0.554348	6.83614	0.689517	8.16024
0.198123	2.42408	0.162688	1.95026	0.403391	4.92398	0.440765	5.37863	0.553584	6.75961	0.690309	8.16322	0.311358	3.81902	0.450338	5.50246	0.555474	6.79701	0.69025	8.13152
0.199027	2.41645	0.164081	1.95215	0.40563	4.91338	0.442515	5.35863	0.555323	6.72887	0.690956	8.1335	0.31203	3.79779	0.452858	5.49082	0.556594	6.75842	0.690834	8.10906
0.199938	2.40901	0.165472	1.954	0.407793	4.90203	0.44433	5.33971	0.557082	6.69885	0.691466	8.11018	0.312701	3.77688	0.45538	5.47939	0.55771	6.72036	0.691267	8.09268
0.200855	2.40175	0.166863	1.95582	0.409877	4.8899	0.446214	5.32189	0.558861	6.66952	0.69184	8.09313	0.313372	3.75629	0.457905	5.46816	0.558822	6.68283	0.691545	8.08226
0.201778	2.39468	0.168254	1.95761	0.411878	4.87698	0.448168	5.30518	0.56066	6.64086	0.692079	8.08226	0.314043	3.73601	0.460432	5.45711	0.55993	6.64581	0.691947	8.06737
0.202707	2.38779	0.169644	1.95936	0.413797	4.86328	0.450194	5.28957	0.562478	6.61286	0.692423	8.06669	0.314714	3.71604	0.46296	5.44625	0.561035	6.60931	0.692387	8.05129
0.203642	2.38107	0.171033	1.96108	0.415632	4.84881	0.452293	5.27504	0.564314	6.58548	0.692795	8.04985	0.315386	3.69637	0.465487	5.43554	0.562138	6.57333	0.692989	8.0296
0.204584	2.37451	0.172422	1.96277	0.417386	4.8336	0.454465	5.26155	0.566168	6.5587	0.693301	8.02708	0.316059	3.67701	0.468014	5.42497	0.563238	6.53785	0.693756	8.00247
0.20553	2.36812	0.17381	1.96443	0.419059	4.81769	0.456707	5.24908	0.568038	6.53251	0.693939	7.99849	0.316734	3.65794	0.470538	5.41454	0.564338	6.50287	0.694695	7.97011
0.206483	2.36188	0.175197	1.96606	0.420654	4.80112	0.459018	5.23757	0.569925	6.50688	0.694708	7.96422	0.31741	3.63916	0.47306	5.40424	0.565437	6.46839	0.69581	7.93274
0.207441	2.3558	0.176585	1.96766	0.422175	4.78395	0.461394	5.22696	0.571828	6.4818	0.695607	7.92446	0.318087	3.62067	0.475579	5.39403	0.566535	6.43441	0.697107	7.89063
0.208405	2.34987	0.177971	1.96923	0.423626	4.76623	0.463832	5.2172	0.573746	6.45725	0.696635	7.87939	0.318766	3.60247	0.478093	5.38393	0.567635	6.40092	0.698424	7.84934
0.209374	2.34408	0.179357	1.97078	0.425011	4.74803	0.466328	5.20822	0.575678	6.4332	0.697658	7.83492	0.319448	3.58455	0.480601	5.3739	0.568737	6.36793	0.699759	7.80884
0.210348	2.33843	0.180743	1.9723	0.426335	4.7294	0.468877	5.19996	0.577623	6.40964	0.698677	7.79102	0.320131	3.56691	0.483103	5.36394	0.569842	6.33543	0.701112	7.76911
0.211328	2.33292	0.182128	1.97379	0.427602	4.71041	0.471476	5.19236	0.579582	6.38655	0.699691	7.7477	0.320817	3.54953	0.485598	5.35404	0.57095	6.30343	0.702484	7.73014
0.212313	2.32754	0.183512	1.97525	0.428817	4.69111	0.47412	5.18536	0.581553	6.36392	0.700702	7.70493	0.321505	3.53243	0.488084	5.34419	0.572063	6.27193	0.703873	7.69189
0.213303	2.32229	0.184896	1.97669	0.429983	4.67154	0.476806	5.17891	0.583536	6.34173	0.70171	7.66272	0.322196	3.51559	0.49056	5.33436	0.573182	6.24092	0.705279	7.65436
0.214298	2.31716	0.18628	1.97811	0.431105	4.65177	0.479529	5.17296	0.585529	6.31996	0.702714	7.62106	0.32289	3.49902	0.493026	5.32455	0.574308	6.21041	0.706702	7.61752
0.215298	2.31216	0.187663	1.9795	0.432187	4.63184	0.482287	5.16745	0.587534	6.29859	0.703716	7.57993	0.323586	3.4827	0.495479	5.31475	0.575442	6.1804	0.708142	7.58135
0.216302	2.30728	0.189045	1.98087	0.433232	4.61178	0.485075	5.16234	0.589548	6.27762	0.704715	7.53932	0.324286	3.46663	0.497919	5.30493	0.576585	6.1509	0.709598	7.54584
0.217312	2.30252	0.190427	1.98221	0.434244	4.59164	0.487892	5.1576	0.591571	6.25703	0.705711	7.49924	0.324989	3.45081	0.500345	5.29509	0.577739	6.12191	0.71107	7.51098
0.218326	2.29786	0.191808	1.98353	0.435225	4.57144	0.490734	5.15319	0.593602	6.23679	0.706706	7.45968	0.325695	3.43524	0.502754	5.28522	0.578905	6.09343	0.712556	7.47673
0.219344	2.29332	0.193189	1.98483	0.436179	4.55122	0.493599	5.14908	0.595642	6.21691	0.707699	7.42062	0.326404	3.4199	0.505146	5.27529	0.580084	6.06546	0.714058	7.44309
0.220368	2.28888	0.19457	1.98611	0.437107	4.53101	0.496484	5.14523	0.597689	6.19736	0.708691	7.38207	0.327116	3.40481	0.50752	5.2653	0.581279	6.03802	0.715574	7.41005
0.221395	2.28455	0.19595	1.98736	0.438012	4.51082	0.499388	5.14163	0.599742	6.17813	0.709682	7.34401	0.327832	3.38994	0.509873	5.25524	0.58249	6.01111	0.717104	7.37757
0.222427	2.28032	0.197329	1.9886	0.438897	4.49068	0.502309	5.13825	0.601801	6.15922	0.710673	7.30644	0.328552	3.37531	0.512205	5.24508	0.583719	5.98473	0.718648	7.34566
0.223464	2.27618	0.198708	1.98981	0.439762	4.4706	0.505246	5.13506	0.603865	6.1406	0.711664	7.26936	0.329275	3.3609	0.514513	5.23481	0.584968	5.9589	0.720204	7.31428
0.224504	2.27214	0.200087	1.99101	0.44061	4.4506	0.508196	5.13206	0.605934	6.12226	0.712655	7.23276	0.330002	3.34671	0.516797	5.22443	0.586238	5.93361		
0.225549	2.2682	0.201465	1.99218	0.441441	4.4307	0.511158	5.12921	0.608006	6.10419	0.713647	7.19664	0.330732	3.33275	0.519053	5.2139	0.587532	5.90888		
0.226598	2.26434	0.202843	1.99334	0.442259	4.4109	0.514132	5.12652	0.610082	6.08639	0.714641	7.16099	0.331466	3.31899	0.521282	5.20323	0.58885	5.8847		
0.227651	2.26058	0.20422	1.99448	0.443063	4.39122	0.517116	5.12396	0.612161	6.06883	0.715637	7.12581	0.332205	3.30545	0.523481	5.1924	0.590195	5.8611		
0.228707	2.2569	0.205596	1.9956	0.443855	4.37167	0.520109	5.12152	0.614241	6.05151	0.716636	7.0911	0.332946	3.29211	0.525648	5.18139	0.591568	5.83807		
0.229768	2.2533	0.206973	1.9967	0.444636	4.35225	0.523111	5.1192	0.616322	6.03442	0.717637	7.05684	0.333692	3.27898	0.527782	5.1702	0.592971	5.81562		
0.230833	2.24979	0.208348	1.99778	0.445407	4.33298	0.526119	5.11697	0.618404	6.01754	0.718643	7.02305	0.334442	3.26605	0.529882	5.1588	0.594406	5.79375		
0.231901	2.24635	0.209724	1.99885	0.446169	4.31385	0.529135	5.11484	0.620486	6.00086	0.719653	6.98972	0.335196	3.25332	0.531945	5.1472	0.595874	5.77248		
0.232973	2.24299	0.211099	1.9999	0.446923	4.29487	0.532157	5.11279	0.622567	5.98438	0.720667	6.95684	0.335953	3.24078	0.533971	5.13537	0.597378	5.7518		
0.234048	2.23971	0.212473	2.00093	0.447669	4.27605	0.535184	5.11081	0.624646	5.96809			0.336715	3.22843	0.535958	5.12332	0.598917	5.73172		
0.235127	2.2365	0.213847	2.00195	0.448408	4.25739	0.538215	5.10891	0.626723	5.95196			0.337481	3.21627	0.537904	5.11103	0.600495	5.71224		
0.23621	2.23336	0.215221	2.00295	0.44914	4.23889	0.541251	5.10707	0.628797	5.93601			0.33825	3.20429	0.53981	5.09849	0.602111	5.69337		
0.237296	2.2303	0.216594	2.00393	0.449868	4.22056	0.544291	5.10529	0.630867	5.9202			0.339024	3.19249	0.541673	5.08571	0.603767	5.67509		
0.238386	2.2273	0.217967	2.0049	0.45059	4.2024	0.547334	5.10355	0.632932	5.90454			0.339802	3.18087	0.543493	5.07268	0.605464	5.65741		
0.239479	2.22436	0.219339	2.00586	0.451307	4.18441	0.55038	5.10187	0.634993	5.88902			0.340584	3.16943	0.54527	5.0594	0.607203	5.64032		
0.240575	2.22149	0.220711	2.00679	0.45202	4.16659	0.553428	5.10022	0.637047	5.87362			0.34137	3.15816	0.547003	5.04587	0.608984	5.62383		
0.241674	2.21869	0.222083	2.00772	0.45273	4.14894	0.556479	5.09862	0.639095	5.85833			0.342161	3.14706	0.548692	5.03209	0.610807	5.60791		
0.242777	2.21594	0.223454	2.00863	0.453436	4.13146	0.559531	5.09704	0.641135	5.84316			0.342955	3.13612	0.550337	5.01807	0.612673	5.59257		
0.243882	2.21326	0.224825	2.00953	0.454139	4.11416	0.562584	5.0955	0.643166	5.82808			0.343753	3.12534	0.551938	5.00382	0.614582	5.57779		
0.244991	2.21063	0.226195	2.01041	0.454839	4.09703	0.565637	5.09398	0.645189	5.8131			0.344556	3.11473	0.553496	4.98933	0.616532	5.56355		
0.246103	2.20806	0.227565	2.01128	0.455537	4.08008	0.568692	5.09248	0.647203	5.7982			0.345363	3.10428	0.555011	4.97463	0.618524	5.54985		
0.247217	2.20555	0.228935	2.01214	0.456234	4.0633	0.571746	5.091	0.649205	5.78337			0.346173	3.09398	0.556484	4.95971	0.620557	5.53668		
0.248335	2.20309	0.230304	2.01298	0.456928	4.04669	0.5748	5.08953	0.651197	5.76861			0.346988	3.08383	0.557916	4.9446	0.62263	5.524		
0.249455	2.20068	0.231672	2.01381	0.457621	4.03025	0.577854	5.08807	0.653177	5.75391			0.347807	3.07383	0.559308	4.92931	0.624743	5.51182		
0.250579	2.19833	0.233041	2.01463	0.458313	4.01399	0.580907	5.08663	0.655144	5.73927			0.348631	3.06398	0.560661	4.91384	0.626893	5.5001		
0.251705	2.19602	0.234409	2.01544	0.459004	3.9979	0.583958	5.08518	0.657098	5.72467			0.349458	3.05427	0.561976	4.89822	0.629081	5.48884		
0.252834	2.19376	0.235776	2.01623	0.459694	3.98197	0.587007	5.08374	0.659038	5.71011			0.350289	3.04471	0.563255	4.88245	0.631304	5.47801		
0.253965	2.19155	0.237144	2.01702	0.460384	3.96622	0.590055	5.08229	0.660964	5.69558			0.351125	3.03528	0.564499	4.86656	0.633562	5.46759		
0.255099	2.18939	0.23851	2.01779	0.461073	3.95063	0.5931	5.08084	0.662875	5.68109			0.351964	3.026	0.56571	4.85054	0.635853	5.45757		
0.256236	2.18728	0.239877	2.01855	0.461762	3.93521	0.596141	5.07938	0.664771	5.66662			0.352808	3.01685	0.566888	4.83443	0.638175	5.44793		
0.257375	2.1852	0.241243	2.0193	0.462452	3.91996	0.59918	5.0779	0.66665	5.65217			0.353656	3.00783	0.568036	4.81824	0.640527	5.43865		
0.258517	2.18317	0.242609	2.02003	0.463141	3.90487	0.602214	5.07641	0.668514	5.63774			0.354507	2.99894	0.569155	4.80197	0.642908	5.42971		
0.259661	2.18119	0.243974	2.02076	0.463831	3.88994	0.605244	5.0749	0.670361	5.62332			0.355363	2.99018	0.570247	4.78564	0.645317	5.42109		
0.260808	2.17924	0.245339	2.02148	0.464521	3.87517	0.608269	5.07336	0.672191	5.60891			0.356223	2.98155	0.571312	4.76926	0.647751	5.41279		
0.261957	2.17734	0.246704	2.02218	0.465212	3.86057	0.611289	5.07179	0.674004	5.59452			0.357086	2.97304	0.572352	4.75286	0.65021	5.40477		
0.263109	2.17547	0.248068	2.02288	0.465904	3.84612	0.614302	5.07018	0.6758	5.58014			0.357954	2.96465	0.573369	4.73642	0.652693	5.39703		
0.264262	2.17364	0.249432	2.02356	0.466596	3.83183	0.617308	5.06854	0.67758	5.56576			0.358826	2.95639	0.574364	4.71998	0.655197	5.38955		
0.265418	2.17185	0.250795	2.02424	0.46729	3.8177	0.620307	5.06684	0.679342	5.5514			0.359701	2.94824	0.575337	4.70353	0.657722	5.38232		
0.266577	2.1701	0.252159	2.02491	0.467984	3.80372	0.623297	5.0651	0.681089	5.53706			0.360581	2.9402	0.576291	4.6871	0.660266	5.37532		
0.267737	2.16838	0.253521	2.02556	0.46868	3.78989	0.626277	5.0633	0.68282	5.52273			0.361464	2.93229	0.577226	4.67068	0.662828	5.36854		
0.2689	2.1667	0.254884	2.02621	0.469377	3.77622	0.629247	5.06143	0.684535	5.50843			0.362352	2.92448	0.578144	4.65429	0.665408	5.36197		
0.270064	2.16505	0.256246	2.02685	0.470076	3.76269	0.632206	5.05949	0.686237	5.49416			0.363243	2.91678	0.579045	4.63793	0.668004	5.35559		
0.271231	2.16344	0.257608	2.02748	0.470776	3.74931	0.635152	5.05747	0.687925	5.47993			0.364138	2.9092	0.579931	4.62161	0.670615	5.3494		
0.2724	2.16186	0.258969	2.0281	0.471477	3.73608	0.638084	5.05535	0.689601	5.46574			0.365037	2.90172	0.580803	4.60535	0.67324	5.34338		
0.273571	2.16031	0.260331	2.02871	0.47218	3.723	0.641	5.05314	0.691266	5.45161			0.365939	2.89434	0.58166	4.58913	0.675878	5.33752		
0.274744	2.15879	0.261691	2.02931	0.472885	3.71005	0.643899	5.05081	0.692922	5.43755			0.366846	2.88707	0.582505	4.57298	0.678528	5.33182		
0.275919	2.1573	0.263052	2.02991	0.473592	3.69725	0.646779	5.04835	0.694572	5.42358			0.367756	2.8799	0.583338	4.55689	0.68119	5.32627		
0.277096	2.15584	0.264412	2.03049	0.4743	3.68459	0.649637	5.04576	0.696216	5.4097			0.36867	2.87282	0.58416	4.54088	0.683862	5.32085		
0.278274	2.15441	0.265772	2.03107	0.475011	3.67207	0.652473	5.04301	0.697858	5.39594			0.369588	2.86585	0.584971	4.52494	0.686543	5.31555		
0.279455	2.15301	0.267131	2.03164	0.475723	3.65968	0.655283	5.04009	0.699499	5.38231			0.370509	2.85897	0.585772	4.50908	0.689234	5.31038		
0.280637	2.15163	0.26849	2.0322	0.476437	3.64743	0.658064	5.03698	0.701145	5.36885			0.371434	2.85219	0.586564	4.4933	0.691933	5.30533		
0.281822	2.15028	0.269849	2.03276	0.477154	3.63531	0.660814	5.03366	0.702796	5.35556			0.372363	2.84551	0.587348	4.47761	0.694639	5.30037		
0.283008	2.14896	0.271208	2.0333	0.477873	3.62333	0.663529	5.03011	0.704458	5.34247			0.373295	2.83891	0.588123	4.462	0.697353	5.29552		
0.284195	2.14767	0.272566	2.03384	0.478593	3.61148	0.666206	5.0263	0.706134	5.32962			0.374231	2.8324	0.588891	4.44649	0.700072	5.29076		
0.285385	2.1464	0.273924	2.03437	0.479316	3.59975	0.668841	5.02222	0.707828	5.31702			0.37517	2.82599	0.589652	4.43108	0.702797	5.28609		
0.286576	2.14515	0.275281	2.0349	0.480041	3.58815	0.671431	5.01783	0.709545	5.30472			0.376113	2.81966	0.590407	4.41576	0.705526	5.28149		
0.287769	2.14393	0.276639	2.03541	0.480769	3.57668	0.67397	5.01312	0.711289	5.29273			0.37706	2.81341	0.591155	4.40054	0.70826	5.27697		
0.288964	2.14274	0.277996	2.03592	0.481499	3.56534	0.676455	5.00804	0.713066	5.2811			0.37801	2.80726	0.591898	4.38543	0.710997	5.27252		
0.29016	2.14156	0.279352	2.03643	0.482231	3.55411	0.678883	5.00259	0.714879	5.26985			0.378964	2.80118	0.592635	4.37041	0.713737	5.26813		
0.291358	2.14041	0.280709	2.03692	0.482965	3.54301	0.681247	4.99673	0.716735	5.259			0.379921	2.79519	0.593368	4.3555	0.71648	5.26381		
0.292557	2.13928	0.282065	2.03741	0.483702	3.53203	0.683545	4.99043	0.718636	5.2486			0.380881	2.78928	0.594096	4.34069	0.719224	5.25953		
0.293758	2.13818	0.28342	2.0379	0.484442	3.52117	0.685774	4.98369	0.720588	5.23866			0.381845	2.78344	0.59482	4.32599	0.72197	5.2553		
0.29496	2.13709	0.284776	2.03837	0.485184	3.51043	0.68793	4.97649					0.382813	2.77769	0.59554	4.31139				
0.296164	2.13602	0.286131	2.03884	0.485928	3.4998	0.690011	4.96881					0.383783	2.77201	0.596256	4.29691				
0.297369	2.13498	0.287486	2.03931	0.486675	3.48928	0.692016	4.96065					0.384757	2.76641	0.596969	4.28253				
0.298576	2.13395	0.28884	2.03976	0.487425	3.47888	0.693944	4.95202					0.385735	2.76088	0.597679	4.26826				
0.299785	2.13295	0.290194	2.04021	0.488177	3.46859	0.695795	4.94293					0.386715	2.75543	0.598387	4.25409				
0.300994	2.13196	0.291548	2.04066	0.488931	3.45841	0.697572	4.93338					0.387699	2.75005	0.599092	4.24004				
0.302205	2.13099	0.292902	2.0411	0.489689	3.44834	0.699274	4.9234					0.388686	2.74473	0.599794	4.2261				
0.303418	2.13004	0.294255	2.04153	0.490449	3.43838	0.700906	4.91301					0.389677	2.73949	0.600495	4.21226				
0.304631	2.12911	0.295608	2.04196	0.491211	3.42852	0.702471	4.90224					0.39067	2.73432	0.601194	4.19854				
0.305847	2.1282	0.296961	2.04238	0.491976	3.41877	0.703971	4.89112					0.391667	2.72922	0.601891	4.18492				
0.307063	2.1273	0.298314	2.0428	0.492744	3.40913	0.70541	4.87968					0.392667	2.72418	0.602586	4.17141				
0.308281	2.12642	0.299666	2.04321	0.493515	3.39958	0.706793	4.86795					0.39367	2.71921	0.603281	4.15802				
0.3095	2.12555	0.301018	2.04361	0.494288	3.39014	0.708123	4.85596					0.394676	2.7143	0.603974	4.14473				
0.31072	2.1247	0.302369	2.04401	0.495064	3.38079	0.709403	4.84373					0.395686	2.70945	0.604666	4.13154				
0.311941	2.12387	0.303721	2.04441	0.495842	3.37155	0.710639	4.8313					0.396698	2.70467	0.605357	4.11847				
0.313164	2.12305	0.305072	2.0448	0.496624	3.3624	0.711832	4.8187					0.397713	2.69995	0.606048	4.1055				
0.314388	2.12225	0.306423	2.04518	0.497408	3.35335	0.712986	4.80594					0.398732	2.69529	0.606738	4.09265				
0.315613	2.12146	0.307773	2.04556	0.498194	3.34439	0.714105	4.79304					0.399753	2.6907	0.607428	4.07989				
0.316839	2.12069	0.309124	2.04593	0.498984	3.33553	0.715191	4.78004					0.400777	2.68615	0.608117	4.06725				
0.318066	2.11993	0.310473	2.0463	0.499776	3.32676	0.716246	4.76694					0.401805	2.68167	0.608807	4.05471				
0.319294	2.11918	0.311823	2.04667	0.500571	3.31809	0.717273	4.75377					0.402835	2.67725	0.609496	4.04227				
0.320524	2.11845	0.313173	2.04703	0.501369	3.3095	0.718275	4.74054					0.403868	2.67288	0.610185	4.02994				
0.321755	2.11773	0.314522	2.04738	0.502169	3.301	0.719253	4.72726					0.404904	2.66856	0.610875	4.01771				
0.322986	2.11703	0.315871	2.04773	0.502972	3.29259	0.720209	4.71395					0.405943	2.66431	0.611565	4.00558				
0.324219	2.11633	0.317219	2.04808	0.503778	3.28427							0.406984	2.6601	0.612255	3.99356				
0.325453	2.11565	0.318568	2.04842	0.504587	3.27603							0.408029	2.65595	0.612945	3.98164				
0.326688	2.11498	0.319916	2.04876	0.505398	3.26788							0.409076	2.65185	0.613636	3.96982				
0.327923	2.11433	0.321264	2.04909	0.506212	3.25982							0.410126	2.6478	0.614328	3.9581				
0.32916	2.11368	0.322611	2.04942	0.507029	3.25183							0.411179	2.6438	0.61502	3.94648				
0.330398	2.11305	0.323959	2.04974	0.507849	3.24393							0.412234	2.63985	0.615714	3.93496				
0.331637	2.11243	0.325306	2.05006	0.508671	3.23611							0.413292	2.63595	0.616407	3.92353				
0.332876	2.11182	0.326653	2.05038	0.509496	3.22837							0.414353	2.6321	0.617102	3.91221				
0.334117	2.11122	0.327999	2.05069	0.510324	3.22071							0.415417	2.6283	0.617798	3.90098				
0.335359	2.11063	0.329346	2.05099	0.511155	3.21313							0.416483	2.62454	0.618495	3.88984				
0.336601	2.11005	0.330692	2.0513	0.511988	3.20562							0.417552	2.62083	0.619193	3.8788				
0.337845	2.10948	0.332037	2.0516	0.512824	3.19819							0.418623	2.61716	0.619892	3.86786				
0.339089	2.10892	0.333383	2.05189	0.513663	3.19083							0.419697	2.61354	0.620592	3.857				
0.340334	2.10837	0.334728	2.05219	0.514504	3.18355							0.420773	2.60997	0.621293	3.84624				
0.34158	2.10783	0.336073	2.05247	0.515348	3.17635							0.421852	2.60644	0.621996	3.83558				
0.342827	2.1073	0.337418	2.05276	0.516195	3.16921							0.422934	2.60295	0.622699	3.825				
0.344075	2.10678	0.338763	2.05304	0.517045	3.16215							0.424018	2.5995	0.623405	3.81451				
0.345323	2.10627	0.340107	2.05332	0.517897	3.15516							0.425104	2.59609	0.624111	3.80411				
0.346572	2.10577	0.341451	2.05359	0.518752	3.14823							0.426193	2.59273	0.62482	3.7938				
0.347823	2.10527	0.342795	2.05386	0.519609	3.14138							0.427284	2.58941	0.625529	3.78358				
0.349074	2.10479	0.344139	2.05413	0.520469	3.1346							0.428378	2.58612	0.62624	3.77345				
0.350325	2.10431	0.345482	2.05439	0.521332	3.12788							0.429474	2.58288	0.626953	3.7634				
0.351578	2.10384	0.346826	2.05465	0.522198	3.12123							0.430573	2.57967	0.627667	3.75344				
0.352831	2.10338	0.348168	2.05491	0.523066	3.11464							0.431674	2.5765	0.628383	3.74356				
0.354085	2.10292	0.349511	2.05516	0.523937	3.10812							0.432777	2.57337	0.6291	3.73377				
0.35534	2.10248	0.350854	2.05541	0.52481	3.10167							0.433882	2.57028	0.62982	3.72406				
0.356595	2.10204	0.352196	2.05566	0.525686	3.09528							0.43499	2.56723	0.63054	3.71443				
0.357851	2.10161	0.353538	2.0559	0.526565	3.08895							0.4361	2.56421	0.631263	3.70488				
0.359108	2.10119	0.35488	2.05614	0.527446	3.08268							0.437212	2.56122	0.631987	3.69542				
0.360366	2.10077	0.356221	2.05638	0.52833	3.07647							0.438327	2.55827	0.632714	3.68603				
0.361624	2.10036	0.357563	2.05661	0.529217	3.07033							0.439444	2.55536	0.633441	3.67672				
0.362883	2.09996	0.358904	2.05684	0.530106	3.06424							0.440563	2.55248	0.634171	3.6675				
0.364143	2.09957	0.360245	2.05707	0.530997	3.05821							0.441684	2.54963	0.634903	3.65835				
0.365403	2.09918	0.361585	2.0573	0.531891	3.05225							0.442807	2.54682	0.635636	3.64927				
0.366664	2.0988	0.362926	2.05752	0.532788	3.04634							0.443932	2.54403	0.636371	3.64028				
0.367925	2.09842	0.364266	2.05774	0.533687	3.04048							0.44506	2.54129	0.637108	3.63136				
0.369188	2.09805	0.365606	2.05796	0.534589	3.03469							0.44619	2.53857	0.637848	3.62251				
0.37045	2.09769	0.366946	2.05817	0.535493	3.02894							0.447321	2.53588	0.638589	3.61374				
0.371714	2.09733	0.368285	2.05838	0.5364	3.02326							0.448455	2.53323	0.639331	3.60504				
0.372978	2.09698	0.369625	2.05859	0.537309	3.01763							0.449591	2.5306	0.640076	3.59641				
0.374243	2.09664	0.370964	2.0588	0.538221	3.01205							0.450729	2.52801	0.640823	3.58786				
0.375508	2.0963	0.372303	2.059	0.539135	3.00652							0.451869	2.52544	0.641572	3.57938				
0.376774	2.09596	0.373641	2.0592	0.540052	3.00105							0.453011	2.52291	0.642323	3.57097				
0.37804	2.09563	0.37498	2.0594	0.540971	2.99563							0.454155	2.5204	0.643076	3.56263				
0.379307	2.09531	0.376318	2.0596	0.541893	2.99026							0.455301	2.51792	0.64383	3.55435				
0.380574	2.09499	0.377656	2.05979	0.542817	2.98494							0.456449	2.51547	0.644587	3.54615				
0.381843	2.09468	0.378994	2.05998	0.543743	2.97967							0.457598	2.51305	0.645346	3.53801				
0.383111	2.09437	0.380332	2.06017	0.544672	2.97445							0.45875	2.51066	0.646107	3.52995				
0.38438	2.09407	0.38167	2.06036	0.545603	2.96928							0.459904	2.50829	0.64687	3.52194				
0.38565	2.09378	0.383007	2.06054	0.546537	2.96416							0.461059	2.50595	0.647635	3.51401				
0.38692	2.09348	0.384344	2.06072	0.547473	2.95909							0.462217	2.50363	0.648402	3.50614				
0.388191	2.0932	0.385681	2.0609	0.548411	2.95406							0.463376	2.50134	0.649171	3.49833				
0.389462	2.09291	0.387017	2.06108	0.549352	2.94908							0.464537	2.49908	0.649942	3.49059				
0.390734	2.09263	0.388354	2.06126	0.550295	2.94415							0.4657	2.49684	0.650715	3.48291				
0.392006	2.09236	0.38969	2.06143	0.551241	2.93926							0.466865	2.49462	0.65149	3.4753				
0.393279	2.09209	0.391026	2.0616	0.552188	2.93442							0.468032	2.49243	0.652268	3.46775				
0.394552	2.09183	0.392362	2.06177	0.553138	2.92962							0.4692	2.49027	0.653047	3.46026				
0.395826	2.09157	0.393698	2.06193	0.554091	2.92487							0.47037	2.48813	0.653829	3.45283				
0.3971	2.09131	0.395033	2.0621	0.555045	2.92016							0.471542	2.48601	0.654612	3.44546				
0.398375	2.09106	0.396369	2.06226	0.556002	2.91549							0.472716	2.48392	0.655398	3.43815				
0.39965	2.09081	0.397704	2.06242	0.556962	2.91087							0.473891	2.48184	0.656186	3.4309				
0.400925	2.09057	0.399039	2.06258	0.557923	2.90629							0.475068	2.47979	0.656976	3.42371				
0.402201	2.09033	0.400374	2.06273	0.558887	2.90175							0.476247	2.47777	0.657768	3.41657				
0.403477	2.09009	0.401708	2.06289	0.559853	2.89725							0.477428	2.47576	0.658562	3.4095				
0.404754	2.08986	0.403043	2.06304	0.560821	2.89279							0.47861	2.47378	0.659358	3.40248				
0.406032	2.08963	0.404377	2.06319	0.561791	2.88837							0.479794	2.47182	0.660157	3.39552				
0.407309	2.0894	0.405711	2.06334	0.562764	2.884							0.480979	2.46988	0.660957	3.38861				
0.408587	2.08918	0.407045	2.06348	0.563739	2.87966							0.482166	2.46796	0.661759	3.38176				
0.409866	2.08896	0.408378	2.06363	0.564716	2.87536							0.483355	2.46606	0.662564	3.37496				
0.411145	2.08875	0.409712	2.06377	0.565695	2.8711							0.484545	2.46418	0.663371	3.36822				
0.412424	2.08854	0.411045	2.06391	0.566676	2.86688							0.485737	2.46232	0.66418	3.36153				
0.413704	2.08833	0.412378	2.06405	0.567659	2.86269							0.486931	2.46049	0.664991	3.3549				
0.414984	2.08813	0.413711	2.06419	0.568645	2.85855							0.488126	2.45867	0.665804	3.34832				
0.416265	2.08792	0.415044	2.06432	0.569633	2.85444							0.489322	2.45687	0.666619	3.34179				
0.417546	2.08773	0.416376	2.06446	0.570622	2.85036							0.49052	2.45509	0.667436	3.33531				
0.418827	2.08753	0.417709	2.06459	0.571614	2.84633							0.49172	2.45332	0.668255	3.32888				
0.420108	2.08734	0.419041	2.06472	0.572608	2.84232							0.492921	2.45158	0.669077	3.32251				
0.42139	2.08715	0.420373	2.06485	0.573604	2.83836							0.494124	2.44986	0.6699	3.31618				
0.422673	2.08696	0.421705	2.06498	0.574602	2.83443							0.495328	2.44815	0.670726	3.30991				
0.423956	2.08678	0.423037	2.0651	0.575603	2.83053							0.496534	2.44646	0.671554	3.30368				
0.425239	2.0866	0.424368	2.06523	0.576605	2.82667							0.497741	2.44479	0.672384	3.2975				
0.426522	2.08642	0.4257	2.06535	0.577609	2.82284							0.498949	2.44314	0.673215	3.29137				
0.427806	2.08625	0.427031	2.06547	0.578616	2.81904							0.50016	2.4415	0.674049	3.28529				
0.42909	2.08608	0.428362	2.06559	0.579624	2.81528							0.501371	2.43988	0.674885	3.27926				
0.430375	2.08591	0.429693	2.06571	0.580634	2.81155							0.502584	2.43828	0.675723	3.27327				
0.431659	2.08574	0.431024	2.06582	0.581646	2.80785							0.503798	2.4367	0.676564	3.26733				
0.432944	2.08558	0.432354	2.06594	0.582661	2.80419							0.505014	2.43513	0.677406	3.26144				
0.43423	2.08542	0.433685	2.06605	0.583677	2.80055							0.506231	2.43357	0.67825	3.25559				
0.435516	2.08526	0.435015	2.06616	0.584695	2.79695							0.507449	2.43204	0.679097	3.24979				
0.436802	2.0851	0.436345	2.06627	0.585715	2.79338							0.508669	2.43052	0.679945	3.24403				
0.438088	2.08495	0.437675	2.06638	0.586738	2.78984							0.50989	2.42901	0.680795	3.23831				
0.439375	2.0848	0.439005	2.06649	0.587762	2.78633							0.511113	2.42752	0.681648	3.23264				
0.440662	2.08465	0.440334	2.0666	0.588787	2.78285							0.512337	2.42604	0.682502	3.22702				
0.441949	2.0845	0.441664	2.0667	0.589815	2.7794							0.513562	2.42459	0.683359	3.22143				
0.443237	2.08436	0.442993	2.0668	0.590845	2.77598							0.514788	2.42314	0.684218	3.21589				
0.444525	2.08421	0.444322	2.06691	0.591877	2.77259							0.516016	2.42171	0.685078	3.2104				
0.445813	2.08407	0.445651	2.06701	0.59291	2.76923							0.517245	2.42029	0.685941	3.20494				
0.447101	2.08393	0.44698	2.06711	0.593946	2.76589							0.518475	2.41889	0.686806	3.19952				
0.44839	2.0838	0.448309	2.06721	0.594983	2.76258							0.519707	2.4175	0.687672	3.19415				
0.449679	2.08367	0.449637	2.0673	0.596022	2.75931							0.52094	2.41613	0.688541	3.18882				
0.450968	2.08353	0.450966	2.0674	0.597063	2.75606							0.522174	2.41477	0.689412	3.18353				
0.452258	2.0834	0.452294	2.06749	0.598106	2.75283							0.523409	2.41343	0.690284	3.17827				
0.453548	2.08328	0.453622	2.06759	0.59915	2.74964							0.524645	2.41209	0.691159	3.17306				
0.454838	2.08315	0.45495	2.06768	0.600197	2.74647							0.525883	2.41077	0.692036	3.16789				
0.456128	2.08303	0.456278	2.06777	0.601245	2.74332							0.527122	2.40947	0.692914	3.16275				
0.457419	2.0829	0.457606	2.06786	0.602295	2.74021							0.528362	2.40817	0.693795	3.15766				
0.45871	2.08278	0.458933	2.06795	0.603347	2.73712							0.529604	2.40689	0.694678	3.1526				
0.460001	2.08267	0.460261	2.06804	0.6044	2.73405							0.530846	2.40563	0.695562	3.14758				
0.461292	2.08255	0.461588	2.06812	0.605455	2.73101							0.53209	2.40437	0.696449	3.1426				
0.462584	2.08243	0.462915	2.06821	0.606512	2.728							0.533335	2.40313	0.697337	3.13765				
0.463876	2.08232	0.464242	2.06829	0.607571	2.72501							0.534581	2.4019	0.698228	3.13274				
0.465168	2.08221	0.465569	2.06838	0.608631	2.72204							0.535828	2.40068	0.69912	3.12787				
0.46646	2.0821	0.466896	2.06846	0.609694	2.7191							0.537076	2.39947	0.700014	3.12304				
0.467753	2.08199	0.468222	2.06854	0.610757	2.71618							0.538325	2.39828	0.70091	3.11823				
0.469046	2.08189	0.469549	2.06862	0.611823	2.71329							0.539576	2.39709	0.701809	3.11347				
0.470339	2.08178	0.470875	2.0687	0.61289	2.71042							0.540828	2.39592	0.702709	3.10874				
0.471632	2.08168	0.472201	2.06878	0.613959	2.70758							0.54208	2.39476	0.703611	3.10405				
0.472925	2.08158	0.473527	2.06886	0.61503	2.70475							0.543334	2.39361	0.704515	3.09939				
0.474219	2.08148	0.474853	2.06893	0.616102	2.70195							0.544589	2.39248	0.70542	3.09476				
0.475513	2.08138	0.476179	2.06901	0.617176	2.69918							0.545845	2.39135	0.706328	3.09017				
0.476807	2.08128	0.477505	2.06908	0.618252	2.69642							0.547102	2.39023	0.707238	3.08561				
0.478101	2.08119	0.47883	2.06916	0.619329	2.69369							0.54836	2.38913	0.708149	3.08108				
0.479396	2.08109	0.480156	2.06923	0.620407	2.69098							0.549619	2.38803	0.709062	3.07659				
0.480691	2.081	0.481481	2.0693	0.621488	2.68829							0.550879	2.38695	0.709977	3.07213				
0.481986	2.08091	0.482806	2.06937	0.62257	2.68562							0.55214	2.38587	0.710894	3.0677				
0.483281	2.08082	0.484131	2.06944	0.623653	2.68298							0.553402	2.38481	0.711813	3.06331				
0.484576	2.08073	0.485456	2.06951	0.624739	2.68035							0.554665	2.38376	0.712734	3.05895				
0.485872	2.08064	0.486781	2.06958	0.625825	2.67775							0.55593	2.38271	0.713657	3.05461				
0.487168	2.08055	0.488106	2.06964	0.626914	2.67517							0.557195	2.38168	0.714581	3.05031				
0.488464	2.08047	0.489431	2.06971	0.628004	2.67261							0.558461	2.38066	0.715507	3.04604				
0.48976	2.08039	0.490755	2.06977	0.629095	2.67006							0.559728	2.37964	0.716435	3.0418				
0.491056	2.0803	0.492079	2.06984	0.630188	2.66754							0.560996	2.37864	0.717365	3.0376				
0.492353	2.08022	0.493404	2.0699	0.631283	2.66504							0.562265	2.37764	0.718297	3.03342				
0.493649	2.08014	0.494728	2.06996	0.632379	2.66256							0.563535	2.37666	0.71923	3.02927				
0.494946	2.08006	0.496052	2.07003	0.633476	2.6601							0.564806	2.37568	0.720166	3.02515				
0.496243	2.07999	0.497376	2.07009	0.634575	2.65765							0.566078	2.37471						
0.49754	2.07991	0.498699	2.07015	0.635676	2.65523							0.567351	2.37376						
0.498838	2.07984	0.500023	2.07021	0.636778	2.65283							0.568625	2.37281						
0.500135	2.07976	0.501347	2.07027	0.637881	2.65044							0.569899	2.37187						
0.501433	2.07969	0.50267	2.07032	0.638986	2.64807							0.571175	2.37093						
0.502731	2.07962	0.503993	2.07038	0.640093	2.64572							0.572451	2.37001						
0.504029	2.07955	0.505317	2.07044	0.641201	2.64339							0.573729	2.36909						
0.505328	2.07948	0.50664	2.07049	0.64231	2.64108							0.575007	2.36819						
0.506626	2.07941	0.507963	2.07055	0.643421	2.63878							0.576286	2.36729						
0.507925	2.07934	0.509286	2.0706	0.644533	2.63651							0.577566	2.3664						
0.509223	2.07927	0.510608	2.07066	0.645647	2.63425							0.578847	2.36552						
0.510522	2.07921	0.511931	2.07071	0.646762	2.63201							0.580129	2.36465						
0.511821	2.07914	0.513254	2.07076	0.647878	2.62978							0.581412	2.36378						
0.51312	2.07908	0.514576	2.07081	0.648996	2.62757							0.582695	2.36292						
0.51442	2.07902	0.515899	2.07087	0.650115	2.62538							0.583979	2.36207						
0.515719	2.07895	0.517221	2.07092	0.651236	2.62321							0.585265	2.36123						
0.517019	2.07889	0.518543	2.07097	0.652358	2.62105							0.586551	2.3604						
0.518319	2.07883	0.519865	2.07101	0.653481	2.61891							0.587837	2.35957						
0.519619	2.07877	0.521187	2.07106	0.654606	2.61678							0.589125	2.35875						
0.520919	2.07871	0.522509	2.07111	0.655732	2.61467							0.590413	2.35794						
0.522219	2.07866	0.523831	2.07116	0.65686	2.61258							0.591703	2.35713						
0.523519	2.0786	0.525153	2.0712	0.657988	2.6105							0.592993	2.35633						
0.52482	2.07854	0.526474	2.07125	0.659119	2.60844							0.594284	2.35554						
0.526121	2.07849	0.527796	2.0713	0.66025	2.6064							0.595575	2.35476						
0.527421	2.07843	0.529117	2.07134	0.661383	2.60436							0.596868	2.35398						
0.528722	2.07838	0.530439	2.07138	0.662517	2.60235							0.598161	2.35321						
0.530023	2.07833	0.53176	2.07143	0.663652	2.60035							0.599455	2.35245						
0.531324	2.07828	0.533081	2.07147	0.664789	2.59836							0.600749	2.3517						
0.532626	2.07823	0.534402	2.07151	0.665927	2.59639							0.602045	2.35095						
0.533927	2.07817	0.535723	2.07156	0.667066	2.59444							0.603341	2.3502						
0.535229	2.07812	0.537044	2.0716	0.668206	2.5925							0.604638	2.34947						
0.53653	2.07808	0.538365	2.07164	0.669348	2.59057							0.605936	2.34874						
0.537832	2.07803	0.539685	2.07168	0.670491	2.58866							0.607234	2.34801						
0.539134	2.07798	0.541006	2.07172	0.671635	2.58676							0.608533	2.3473						
0.540436	2.07793	0.542326	2.07176	0.672781	2.58487							0.609833	2.34659						
0.541738	2.07789	0.543647	2.0718	0.673927	2.583							0.611134	2.34588						
0.543041	2.07784	0.544967	2.07183	0.675075	2.58114							0.612435	2.34518						
0.544343	2.0778	0.546288	2.07187	0.676224	2.5793							0.613737	2.34449						
0.545645	2.07775	0.547608	2.07191	0.677375	2.57747							0.61504	2.34381						
0.546948	2.07771	0.548928	2.07195	0.678526	2.57565							0.616343	2.34312						
0.548251	2.07767	0.550248	2.07198	0.679679	2.57385							0.617647	2.34245						
0.549554	2.07762	0.551568	2.07202	0.680833	2.57206							0.618952	2.34178						
0.550856	2.07758	0.552888	2.07205	0.681988	2.57028							0.620257	2.34112						
0.552159	2.07754	0.554208	2.07209	0.683144	2.56852							0.621563	2.34046						
0.553463	2.0775	0.555527	2.07212	0.684302	2.56677							0.62287	2.33981						
0.554766	2.07746	0.556847	2.07216	0.685461	2.56503							0.624178	2.33916						
0.556069	2.07742	0.558167	2.07219	0.68662	2.5633							0.625486	2.33852						
0.557373	2.07738	0.559486	2.07222	0.687781	2.56159							0.626794	2.33789						
0.558676	2.07734	0.560805	2.07225	0.688944	2.55989							0.628104	2.33726						
0.55998	2.07731	0.562125	2.07229	0.690107	2.5582							0.629414	2.33663						
0.561284	2.07727	0.563444	2.07232	0.691271	2.55652							0.630725	2.33602						
0.562588	2.07723	0.564763	2.07235	0.692437	2.55485							0.632036	2.3354						
0.563892	2.0772	0.566082	2.07238	0.693603	2.5532							0.633348	2.33479						
0.565196	2.07716	0.567401	2.07241	0.694771	2.55156							0.63466	2.33419						
0.5665	2.07713	0.56872	2.07244	0.69594	2.54993							0.635974	2.33359						
0.567804	2.07709	0.570039	2.07247	0.69711	2.54831							0.637287	2.333						
0.569108	2.07706	0.571358	2.0725	0.698281	2.5467							0.638602	2.33241						
0.570413	2.07702	0.572677	2.07253	0.699453	2.54511							0.639917	2.33183						
0.571717	2.07699	0.573996	2.07256	0.700626	2.54352							0.641232	2.33125						
0.573022	2.07696	0.575314	2.07259	0.701801	2.54195							0.642549	2.33067						
0.574326	2.07693	0.576633	2.07261	0.702976	2.54039							0.643865	2.3301						
0.575631	2.07689	0.577951	2.07264	0.704152	2.53884							0.645183	2.32954						
0.576936	2.07686	0.57927	2.07267	0.70533	2.5373							0.646501	2.32898						
0.578241	2.07683	0.580588	2.0727	0.706509	2.53577							0.647819	2.32843						
0.579546	2.0768	0.581906	2.07272	0.707688	2.53425							0.649138	2.32787						
0.580851	2.07677	0.583225	2.07275	0.708869	2.53274							0.650458	2.32733						
0.582156	2.07674	0.584543	2.07277	0.71005	2.53124							0.651778	2.32679						
0.583462	2.07671	0.585861	2.0728	0.711233	2.52975							0.653099	2.32625						
0.584767	2.07668	0.587179	2.07282	0.712417	2.52828							0.654421	2.32572						
0.586073	2.07666	0.588497	2.07285	0.713602	2.52681							0.655743	2.32519						
0.587378	2.07663	0.589815	2.07287	0.714787	2.52535							0.657065	2.32467						
0.588684	2.0766	0.591133	2.0729	0.715974	2.52391							0.658388	2.32415						
0.589989	2.07657	0.59245	2.07292	0.717162	2.52247							0.659712	2.32363						
0.591295	2.07655	0.593768	2.07294	0.718351	2.52104							0.661036	2.32312						
0.592601	2.07652	0.595086	2.07297	0.719541	2.51963							0.66236	2.32261						
0.593907	2.07649	0.596403	2.07299	0.720731	2.51822							0.663685	2.32211						
0.595213	2.07647	0.597721	2.07301									0.665011	2.32161						
0.596519	2.07644	0.599038	2.07303									0.666337	2.32111						
0.597825	2.07642	0.600356	2.07306									0.667664	2.32062						
0.599131	2.07639	0.601673	2.07308									0.668991	2.32014						
0.600437	2.07637	0.602991	2.0731									0.670319	2.31965						
0.601744	2.07635	0.604308	2.07312									0.671647	2.31917						
0.60305	2.07632	0.605625	2.07314									0.672976	2.3187						
0.604356	2.0763	0.606942	2.07316									0.674305	2.31823						
0.605663	2.07628	0.608259	2.07318									0.675635	2.31776						
0.606969	2.07625	0.609576	2.0732									0.676965	2.31729						
0.608276	2.07623	0.610893	2.07322									0.678296	2.31683						
0.609583	2.07621	0.61221	2.07324									0.679627	2.31638						
0.61089	2.07619	0.613527	2.07326									0.680959	2.31592						
0.612196	2.07617	0.614844	2.07328									0.682291	2.31547						
0.613503	2.07615	0.616161	2.0733									0.683624	2.31503						
0.61481	2.07613	0.617478	2.07332									0.684957	2.31458						
0.616117	2.07611	0.618794	2.07333									0.68629	2.31414						
0.617424	2.07609	0.620111	2.07335									0.687624	2.31371						
0.618732	2.07607	0.621428	2.07337									0.688959	2.31328						
0.620039	2.07605	0.622744	2.07339									0.690294	2.31285						
0.621346	2.07603	0.624061	2.0734									0.691629	2.31242						
0.622653	2.07601	0.625377	2.07342									0.692965	2.312						
0.623961	2.07599	0.626694	2.07344									0.694301	2.31158						
0.625268	2.07597	0.62801	2.07345									0.695638	2.31116						
0.626575	2.07595	0.629326	2.07347									0.696975	2.31075						
0.627883	2.07593	0.630643	2.07349									0.698313	2.31034						
0.629191	2.07592	0.631959	2.0735									0.699651	2.30993						
0.630498	2.0759	0.633275	2.07352									0.700989	2.30953						
0.631806	2.07588	0.634591	2.07353									0.702328	2.30913						
0.633114	2.07587	0.635907	2.07355									0.703668	2.30873						
0.634421	2.07585	0.637223	2.07356									0.705007	2.30834						
0.635729	2.07583	0.638539	2.07358									0.706348	2.30795						
0.637037	2.07582	0.639855	2.07359									0.707688	2.30756						
0.638345	2.0758	0.641171	2.07361									0.709029	2.30717						
0.639653	2.07578	0.642487	2.07362									0.710371	2.30679						
0.640961	2.07577	0.643803	2.07364									0.711712	2.30641						
0.642269	2.07575	0.645119	2.07365									0.713055	2.30603						
0.643577	2.07574	0.646434	2.07366									0.714397	2.30566						
0.644886	2.07572	0.64775	2.07368									0.71574	2.30529						
0.646194	2.07571	0.649066	2.07369									0.717084	2.30492						
0.647502	2.07569	0.650382	2.0737									0.718427	2.30456						
0.64881	2.07568	0.651697	2.07372									0.719772	2.30419						
0.650119	2.07567	0.653013	2.07373									0.721116	2.30383						
0.651427	2.07565	0.654328	2.07374																
0.652736	2.07564	0.655644	2.07376																
0.654044	2.07563	0.656959	2.07377																
0.655353	2.07561	0.658275	2.07378																
0.656661	2.0756	0.65959	2.07379																
0.65797	2.07559	0.660905	2.0738																
0.659279	2.07557	0.662221	2.07382																
0.660587	2.07556	0.663536	2.07383																
0.661896	2.07555	0.664851	2.07384																
0.663205	2.07554	0.666166	2.07385																
0.664514	2.07552	0.667482	2.07386																
0.665822	2.07551	0.668797	2.07387																
0.667131	2.0755	0.670112	2.07388																
0.66844	2.07549	0.671427	2.07389																
0.669749	2.07548	0.672742	2.0739																
0.671058	2.07547	0.674057	2.07391																
0.672367	2.07545	0.675372	2.07392																
0.673676	2.07544	0.676687	2.07393																
0.674986	2.07543	0.678002	2.07394																
0.676295	2.07542	0.679317	2.07395																
0.677604	2.07541	0.680631	2.07396																
0.678913	2.0754	0.681946	2.07397																
0.680222	2.07539	0.683261	2.07398																
0.681532	2.07538	0.684576	2.07399																
0.682841	2.07537	0.68589	2.074																
0.68415	2.07536	0.687205	2.07401																
0.68546	2.07535	0.68852	2.07402																
0.686769	2.07534	0.689834	2.07403																
0.688079	2.07533	0.691149	2.07404																
0.689388	2.07532	0.692464	2.07404																
0.690698	2.07531	0.693778	2.07405																
0.692007	2.07531	0.695093	2.07406																
0.693317	2.0753	0.696407	2.07407																
0.694626	2.07529	0.697722	2.07408																
0.695936	2.07528	0.699036	2.07408																
0.697246	2.07527	0.700351	2.07409																
0.698555	2.07526	0.701665	2.0741																
0.699865	2.07525	0.702979	2.07411																
0.701175	2.07525	0.704294	2.07412																
0.702485	2.07524	0.705608	2.07412																
0.703795	2.07523	0.706922	2.07413																
0.705104	2.07522	0.708237	2.07414																
0.706414	2.07522	0.709551	2.07415																
0.707724	2.07521	0.710865	2.07415																
0.709034	2.0752	0.712179	2.07416																
0.710344	2.07519	0.713493	2.07417																
0.711654	2.07519	0.714808	2.07417																
0.712964	2.07518	0.716122	2.07418																
0.714274	2.07517	0.717436	2.07419																
0.715584	2.07516	0.71875	2.07419																
0.716894	2.07516	0.720064	2.0742																
0.718204	2.07515																		
0.719514	2.07514																		
0.720824	2.07514																		
