Sym0		Asym0		Sym1		Sym2		Sym3		Sym4		Asym1		Asym2		Asym3		Asym4	
551  Points		549  Points		452  Points		231  Points		212  Points		161  Points		498  Points		370  Points		212  Points		156  Points	
Freq (MHz)	Vph (m/ms)	Freq (MHz)	Vph (m/ms)	Freq (MHz)	Vph (m/ms)	Freq (MHz)	Vph (m/ms)	Freq (MHz)	Vph (m/ms)	Freq (MHz)	Vph (m/ms)	Freq (MHz)	Vph (m/ms)	Freq (MHz)	Vph (m/ms)	Freq (MHz)	Vph (m/ms)	Freq (MHz)	Vph (m/ms)
0.00191144	5.16455	0.000297028	0.148978	0.169426	486.261	0.279511	1404.92	0.508278	1172.62	0.55902	2268.59	0.139766	413.966	0.338854	1416.37	0.419276	790.327	0.677709	7124.77
0.00517775	5.16451	0.000514193	0.195791	0.169419	172.721	0.279548	336.235	0.508256	476.828	0.559054	636.103	0.139852	144.165	0.338845	388.719	0.419324	360.565	0.677677	931.417
0.00844365	5.16426	0.000789493	0.242273	0.169404	105.002	0.279631	191.023	0.508216	299.238	0.559126	369.957	0.140021	87.3747	0.338826	225.261	0.41941	233.6	0.677596	498.221
0.0117092	5.16398	0.00112188	0.288318	0.169383	75.4222	0.279759	133.453	0.508159	218.017	0.559236	260.864	0.140273	62.7621	0.338797	158.568	0.419531	172.798	0.677469	340.012
0.0149736	5.16345	0.00151037	0.333888	0.169354	58.8394	0.279933	102.586	0.508083	171.46	0.559384	201.49	0.140606	49.0353	0.338759	122.337	0.419689	137.138	0.677296	258.023
0.0182373	5.16288	0.00195352	0.378879	0.16932	48.2296	0.280152	83.3482	0.507991	141.276	0.559569	164.159	0.141021	40.2927	0.338711	99.5763	0.419883	113.704	0.677082	207.86
0.0214997	5.16218	0.00244997	0.423248	0.169279	40.8575	0.280416	70.2149	0.507882	120.118	0.559791	138.523	0.141515	34.2455	0.338653	83.9503	0.420112	97.1303	0.67683	173.999
0.0247606	5.16136	0.00299811	0.466926	0.169233	35.4368	0.280725	60.6822	0.507757	104.463	0.56005	119.832	0.142087	29.8201	0.338587	72.558	0.420377	84.7928	0.676542	149.601
0.0280198	5.16042	0.00359635	0.509873	0.169181	31.2831	0.281077	53.451	0.507616	92.4098	0.560344	105.604	0.142737	26.4461	0.338511	63.8835	0.420677	75.2531	0.676223	131.184
0.031277	5.15934	0.00424291	0.55204	0.169125	27.9984	0.281473	47.7798	0.507461	82.8433	0.560672	94.4129	0.143462	23.7924	0.338428	57.0576	0.421011	67.6583	0.675876	116.788
0.0345319	5.15813	0.00493602	0.59339	0.169065	25.3357	0.281913	43.2149	0.507292	75.0653	0.561035	85.3809	0.14426	21.6535	0.338337	51.5459	0.421379	61.4698	0.675506	105.224
0.0377844	5.15678	0.00567373	0.633881	0.169001	23.1336	0.282395	39.4629	0.50711	68.6168	0.561432	77.9395	0.14513	19.8954	0.338238	47.002	0.421782	56.3313	0.675114	95.7319
0.0410339	5.15528	0.00645426	0.673494	0.168935	21.2821	0.282919	36.3257	0.506916	63.1834	0.561861	71.7035	0.14607	18.4266	0.338132	43.1913	0.422217	51.9973	0.674705	87.7998
0.0442801	5.15362	0.00727564	0.712202	0.168867	19.7036	0.283485	33.6646	0.50671	58.5428	0.562321	66.4028	0.147077	17.1828	0.33802	39.9496	0.422685	48.2934	0.674281	81.0722
0.0475228	5.15181	0.00813595	0.749985	0.168798	18.342	0.284092	31.3798	0.506494	54.533	0.562812	61.8421	0.14815	16.1173	0.337902	37.1582	0.423185	45.0922	0.673844	75.2941
0.0507614	5.14981	0.00903337	0.786837	0.168729	17.1555	0.284739	29.3976	0.506268	51.0336	0.563334	57.8772	0.149286	15.1953	0.337779	34.7293	0.423717	42.2983	0.673397	70.2777
0.0539955	5.14763	0.00996594	0.822743	0.168661	16.1125	0.285425	27.6622	0.506034	47.9528	0.563884	54.399	0.150483	14.3908	0.337652	32.5965	0.42428	39.8392	0.672942	65.8817
0.0572247	5.14525	0.0109319	0.857704	0.168595	15.1885	0.28615	26.1308	0.505792	45.2197	0.564462	51.3233	0.151739	13.6833	0.33752	30.7088	0.424873	37.6585	0.672481	61.9978
0.0604484	5.14266	0.0119294	0.891723	0.168532	14.3644	0.286913	24.7699	0.505543	42.7786	0.565067	48.5845	0.153052	13.057	0.337385	29.0262	0.425496	35.7118	0.672015	58.5414
0.0636659	5.13984	0.0129568	0.924798	0.168473	13.6249	0.287713	23.5529	0.505288	40.585	0.565699	46.1303	0.15442	12.4993	0.337247	27.5171	0.426148	33.9637	0.671547	55.4458
0.0668767	5.13677	0.0140123	0.956933	0.16842	12.9578	0.28855	22.4587	0.505028	38.6032	0.566356	43.9188	0.15584	11.9999	0.337107	26.156	0.426828	32.3855	0.671076	52.6572
0.07008	5.13343	0.0150942	0.988145	0.168373	12.3532	0.289423	21.4697	0.504764	36.8038	0.567038	41.9159	0.157309	11.5506	0.336966	24.922	0.427536	30.9538	0.670604	50.1323
0.0732749	5.12981	0.0162012	1.01844	0.168335	11.8027	0.29033	20.5719	0.504497	35.1628	0.567743	40.0936	0.158828	11.1445	0.336824	23.7983	0.428272	29.6494	0.670133	47.8354
0.0764605	5.12587	0.0173315	1.04784	0.168307	11.2996	0.291271	19.7533	0.504227	33.6602	0.568471	38.4287	0.160392	10.776	0.336682	22.7708	0.429034	28.4562	0.669663	45.737
0.0796357	5.12158	0.0184838	1.07635	0.16829	10.8383	0.292246	19.0043	0.503956	32.2792	0.569221	36.9017	0.162	10.4404	0.336541	21.8275	0.429823	27.3608	0.669195	43.8126
0.0827994	5.11692	0.0196567	1.10399	0.168287	10.4139	0.293253	18.3165	0.503683	31.0057	0.569993	35.4963	0.16365	10.1337	0.336401	20.9587	0.430636	26.3517	0.66873	42.0413
0.0859501	5.11184	0.020849	1.13078	0.168298	10.0224	0.294292	17.6828	0.50341	29.8277	0.570786	34.1987	0.16534	9.85251	0.336263	20.1559	0.431475	25.4192	0.668269	40.4057
0.0890864	5.10629	0.0220592	1.15674	0.168327	9.66026	0.295361	17.0974	0.503138	28.7347	0.571598	32.997	0.167068	9.59392	0.336128	19.4119	0.432337	24.5551	0.667811	38.8909
0.0922064	5.10023	0.0232863	1.1819	0.168376	9.32461	0.296461	16.5549	0.502867	27.7181	0.572429	31.881	0.168832	9.35547	0.335996	18.7205	0.433223	23.7522	0.667358	37.4839
0.0953081	5.09361	0.0245292	1.20625	0.168447	9.01287	0.29759	16.0511	0.502598	26.77	0.57328	30.842	0.170631	9.13501	0.335869	18.0765	0.434132	23.0044	0.666911	36.1737
0.0983891	5.08635	0.0257867	1.22984	0.168543	8.72283	0.298747	15.582	0.502331	25.8839	0.574148	29.8723	0.172463	8.93069	0.335746	17.475	0.435063	22.3061	0.666469	34.9508
0.101447	5.07837	0.0270579	1.25269	0.168668	8.45261	0.299932	15.1442	0.502068	25.0538	0.575033	28.9652	0.174326	8.74089	0.335629	16.9122	0.436016	21.6529	0.666033	33.8066
0.104478	5.0696	0.0283418	1.2748	0.168825	8.20055	0.301143	14.7348	0.501808	24.2747	0.575936	28.115	0.176218	8.56419	0.335518	16.3845	0.43699	21.0404	0.665603	32.734
0.107479	5.05993	0.0296376	1.29621	0.169018	7.96522	0.302381	14.3513	0.501553	23.5421	0.576854	27.3165	0.178139	8.39933	0.335415	15.8887	0.437984	20.4651	0.66518	31.7264
0.110445	5.04925	0.0309444	1.31694	0.169251	7.74538	0.303644	13.9912	0.501302	22.852	0.577788	26.5651	0.180085	8.24523	0.335319	15.4221	0.438998	19.9237	0.664765	30.7781
0.113373	5.03743	0.0322614	1.337	0.169492	7.56559	0.304931	13.6527	0.501057	22.2007	0.578738	25.8569	0.182056	8.1009	0.335231	14.9823	0.440032	19.4134	0.664357	29.8842
0.116255	5.02431	0.033588	1.35642	0.169729	7.42052	0.306242	13.3338	0.500818	21.5853	0.579702	25.1882	0.184051	7.96548	0.335152	14.567	0.441085	18.9316	0.663956	29.04
0.119086	5.00973	0.0349232	1.37522	0.169947	7.30598	0.307576	13.033	0.500585	21.0027	0.580681	24.5559	0.186067	7.83819	0.335083	14.1744	0.442156	18.476	0.663564	28.2416
0.121858	4.99349	0.0362666	1.39342	0.170136	7.21878	0.308932	12.7488	0.50036	20.4506	0.581673	23.9571	0.188103	7.71834	0.335025	13.8026	0.443245	18.0446	0.66318	27.4854
0.124563	4.97539	0.0376176	1.41104	0.170285	7.1565	0.31031	12.4799	0.500142	19.9266	0.582678	23.3893	0.190159	7.60531	0.334978	13.4502	0.444352	17.6356	0.662804	26.7682
0.127192	4.95521	0.0389755	1.42809	0.170385	7.11744	0.311709	12.2252	0.499931	19.4286	0.583697	22.8501	0.192232	7.49855	0.334943	13.1158	0.445475	17.2473	0.662438	26.0871
0.129734	4.9327	0.0403399	1.44461	0.170534	7.06239	0.313128	11.9836	0.49973	18.9549	0.584728	22.3374	0.194051	7.41021	0.334921	12.7979	0.446615	16.8781	0.66208	25.4394
0.132178	4.90762	0.0417102	1.4606	0.170706	7.00397	0.314566	11.7542	0.499537	18.5037	0.585771	21.8493	0.195611	7.33814	0.334912	12.4956	0.44777	16.5268	0.661731	24.8228
0.134514	4.87975	0.0430859	1.47608	0.170954	6.92687	0.316023	11.536	0.499353	18.0735	0.586826	21.3842	0.196907	7.28064	0.334918	12.2077	0.448941	16.192	0.661392	24.2351
0.13673	4.84889	0.0444666	1.49108	0.171296	6.83315	0.317498	11.3283	0.499179	17.6629	0.587892	20.9405	0.197936	7.23647	0.334938	11.9334	0.450127	15.8727	0.661063	23.6744
0.138816	4.81489	0.045852	1.5056	0.171753	6.72533	0.31899	11.1304	0.499015	17.2706	0.58897	20.5166	0.198694	7.20468	0.334974	11.6717	0.451328	15.5678	0.660744	23.1388
0.140766	4.7777	0.0472415	1.51967	0.172355	6.60634	0.320498	10.9415	0.498861	16.8954	0.590058	20.1115	0.199179	7.18464	0.335028	11.4218	0.452542	15.2765	0.660434	22.6268
0.142573	4.73735	0.0484556	1.53157	0.173144	6.4795	0.322023	10.7612	0.498719	16.5364	0.591156	19.7237	0.199879	7.15623	0.335098	11.1831	0.45377	14.9977	0.660135	22.1369
0.144236	4.69396	0.0494927	1.54146	0.174048	6.36273	0.323563	10.5889	0.498588	16.1925	0.592265	19.3524	0.200641	7.12588	0.335187	10.9549	0.455011	14.7308	0.659846	21.6677
0.145757	4.64779	0.0503517	1.54946	0.175078	6.25575	0.325118	10.424	0.498468	15.8628	0.593383	18.9963	0.201679	7.08545	0.335296	10.7365	0.456265	14.475	0.659568	21.2179
0.14714	4.59916	0.0510318	1.55569	0.176245	6.15828	0.326687	10.2661	0.498361	15.5465	0.594511	18.6547	0.202995	7.03567	0.335424	10.5274	0.457531	14.2297	0.659301	20.7864
0.148395	4.54846	0.0515322	1.5602	0.177558	6.07001	0.328268	10.1148	0.498267	15.2428	0.595648	18.3267	0.204592	6.97739	0.335574	10.3271	0.458809	13.9942	0.659045	20.3721
0.149532	4.49614	0.0518528	1.56306	0.179023	5.99057	0.329863	9.96968	0.498185	14.951	0.596794	18.0115	0.206471	6.91156	0.335746	10.1351	0.460099	13.7679	0.658799	19.974
0.150562	4.44262	0.0523137	1.56714	0.180643	5.91951	0.33147	9.83033	0.498117	14.6705	0.597948	17.7083	0.208634	6.83916	0.33594	9.95102	0.4614	13.5504	0.658566	19.5913
0.151497	4.38832	0.0528152	1.57153	0.182418	5.85631	0.333088	9.69644	0.498062	14.4007	0.599111	17.4165	0.210802	6.76989	0.33616	9.7744	0.462711	13.3411	0.658343	19.223
0.15235	4.33364	0.0534977	1.57742	0.184344	5.80037	0.334717	9.5677	0.498022	14.1409	0.600282	17.1355	0.212976	6.70353	0.336404	9.60488	0.464033	13.1396	0.658133	18.8684
0.153131	4.27889	0.0543617	1.58474	0.186414	5.75106	0.336356	9.44382	0.497996	13.8907	0.601461	16.8647	0.215152	6.63985	0.336675	9.44211	0.465365	12.9455	0.657934	18.5268
0.153852	4.22438	0.0554077	1.59341	0.188618	5.70769	0.338004	9.32452	0.497985	13.6496	0.602647	16.6035	0.21733	6.57866	0.336974	9.28578	0.466706	12.7583	0.657748	18.1974
0.154522	4.17034	0.0566363	1.60333	0.190946	5.66961	0.339661	9.20956	0.49799	13.4172	0.603841	16.3515	0.219508	6.51978	0.337301	9.13559	0.468056	12.5778	0.657574	17.8798
0.155148	4.11698	0.0580481	1.61439	0.193384	5.63616	0.341326	9.09868	0.49801	13.1929	0.605041	16.1081	0.221686	6.46304	0.337658	8.99125	0.469415	12.4035	0.657412	17.5732
0.155739	4.06444	0.0594617	1.62512	0.195921	5.60676	0.342999	8.99168	0.498047	12.9765	0.606248	15.873	0.22386	6.40829	0.338047	8.85252	0.470782	12.2352	0.657263	17.2771
0.1563	4.01285	0.0608769	1.63553	0.198546	5.58086	0.344679	8.88835	0.4981	12.7675	0.607462	15.6457	0.226031	6.35537	0.338469	8.71914	0.472158	12.0725	0.657127	16.991
0.156837	3.9623	0.0622936	1.64563	0.201247	5.55799	0.346365	8.78849	0.49817	12.5656	0.608682	15.4258	0.228196	6.30414	0.338924	8.59092	0.473541	11.9151	0.657004	16.7145
0.157355	3.91286	0.0637116	1.65543	0.204016	5.53773	0.348057	8.69193	0.498258	12.3704	0.609909	15.2131	0.230355	6.25449	0.339415	8.46762	0.474931	11.7629	0.656894	16.4471
0.157857	3.86458	0.0651307	1.66494	0.206843	5.51972	0.349753	8.5985	0.498364	12.1818	0.611141	15.0071	0.232504	6.20628	0.339943	8.34906	0.476328	11.6156	0.656797	16.1883
0.158285	3.82346	0.0665507	1.67417	0.209722	5.50364	0.351454	8.50802	0.498488	11.9993	0.612378	14.8075	0.234644	6.1594	0.34051	8.23505	0.477731	11.4729	0.656714	15.9378
0.158644	3.78914	0.0679716	1.68314	0.212645	5.48923	0.353159	8.42037	0.498632	11.8228	0.613621	14.614	0.236771	6.11375	0.341116	8.12543	0.479141	11.3346	0.656645	15.6953
0.158938	3.76125	0.0693933	1.69185	0.215606	5.47628	0.354866	8.33539	0.498794	11.6519	0.61487	14.4265	0.238885	6.06922	0.341764	8.02004	0.480556	11.2005	0.65659	15.4602
0.159169	3.73953	0.0708155	1.7003	0.218601	5.46457	0.356576	8.25295	0.498976	11.4865	0.616123	14.2445	0.240984	6.02572	0.342455	7.91872	0.481977	11.0704	0.65655	15.2324
0.159338	3.72374	0.0722383	1.70852	0.221626	5.45396	0.358288	8.17293	0.499179	11.3262	0.61738	14.0679	0.243066	5.98316	0.34319	7.82133	0.483403	10.9442	0.656523	15.0116
0.159446	3.71372	0.0736614	1.7165	0.224677	5.4443	0.36	8.0952	0.499403	11.171	0.618642	13.8964	0.245129	5.94145	0.343868	7.73957	0.484833	10.8216	0.656512	14.7973
0.159601	3.69941	0.0750849	1.72426	0.227751	5.43548	0.361713	8.01967	0.499648	11.0206	0.619909	13.7298	0.247172	5.90051	0.344474	7.67209	0.486267	10.7025	0.656515	14.5894
0.159769	3.68402	0.0765086	1.7318	0.230844	5.42739	0.363426	7.94621	0.499914	10.8747	0.621179	13.5678	0.249193	5.86026	0.344995	7.61778	0.487706	10.5868	0.656534	14.3876
0.159997	3.66332	0.0779324	1.73914	0.233956	5.41995	0.365138	7.87474	0.500203	10.7333	0.622453	13.4104	0.251189	5.82064	0.345421	7.57579	0.489148	10.4743	0.656568	14.1917
0.160284	3.63755	0.0793563	1.74627	0.237082	5.41307	0.366847	7.80515	0.500515	10.5962	0.623731	13.2573	0.25316	5.78158	0.345741	7.54543	0.490592	10.3649	0.656618	14.0013
0.160632	3.60698	0.0807803	1.7532	0.240223	5.4067	0.368336	7.74599	0.50085	10.4632	0.625011	13.1083	0.255103	5.743	0.345949	7.52623	0.49204	10.2584	0.656683	13.8164
0.16104	3.57195	0.0822042	1.75994	0.243376	5.40078	0.369602	7.69658	0.50121	10.3342	0.626295	12.9633	0.257017	5.70486	0.346253	7.49895	0.49349	10.1547	0.656764	13.6366
0.16151	3.53282	0.0836279	1.76651	0.246539	5.39526	0.370649	7.65643	0.501593	10.209	0.627582	12.8221	0.2589	5.66711	0.34659	7.4697	0.494942	10.0538	0.656862	13.4619
0.161983	3.49481	0.0850515	1.77289	0.249712	5.3901	0.371475	7.62511	0.502002	10.0875	0.628871	12.6845	0.260751	5.62968	0.347059	7.4306	0.496396	9.95539	0.656977	13.292
0.16246	3.45791	0.0864749	1.77911	0.252894	5.38526	0.372082	7.60232	0.502436	9.96948	0.630163	12.5504	0.262567	5.59253	0.347669	7.38226	0.497851	9.85951	0.657108	13.1266
0.162941	3.42209	0.0878981	1.78516	0.256083	5.3807	0.37247	7.58783	0.502897	9.85494	0.631457	12.4198	0.264348	5.55563	0.348433	7.32542	0.499307	9.76601	0.657256	12.9658
0.163428	3.38732	0.0893209	1.79105	0.259278	5.3764	0.373027	7.56716	0.503384	9.74372	0.632752	12.2923	0.266093	5.51893	0.349368	7.26093	0.500763	9.67482	0.657422	12.8092
0.16392	3.35356	0.0907435	1.79679	0.26248	5.37232	0.373633	7.54486	0.503898	9.63572	0.63405	12.168	0.267799	5.48241	0.350491	7.18977	0.502219	9.58582	0.657605	12.6569
0.164419	3.3208	0.0921657	1.80238	0.265686	5.36846	0.374455	7.51485	0.50444	9.53082	0.635349	12.0468	0.269466	5.44603	0.351669	7.12155	0.503675	9.49894	0.657807	12.5085
0.164925	3.28901	0.0935875	1.80782	0.268897	5.36478	0.375493	7.47739	0.505011	9.42893	0.636649	11.9284	0.271094	5.40977	0.352904	7.05617	0.50513	9.4141	0.658026	12.3639
0.165438	3.25815	0.0950088	1.81313	0.272112	5.36127	0.376745	7.43279	0.50561	9.32995	0.63795	11.8128	0.272681	5.37362	0.354194	6.99354	0.506585	9.33122	0.658264	12.2232
0.165959	3.2282	0.0964297	1.8183	0.27533	5.35791	0.37821	7.38143	0.506239	9.23379	0.639251	11.6998	0.274227	5.33756	0.355542	6.93356	0.508037	9.25021	0.65852	12.086
0.166488	3.19913	0.0978502	1.82334	0.278551	5.35469	0.379885	7.32371	0.506898	9.14036	0.640553	11.5895	0.275731	5.30158	0.356946	6.87613	0.509488	9.17103	0.658796	11.9523
0.167026	3.17092	0.0992701	1.82825	0.281774	5.35158	0.381552	7.26724	0.507587	9.04958	0.641856	11.4817	0.277194	5.26567	0.358407	6.82117	0.510937	9.09358	0.659091	11.822
0.167571	3.14353	0.10069	1.83304	0.284999	5.34859	0.383211	7.21196	0.508307	8.96137	0.643158	11.3763	0.278615	5.22984	0.359925	6.76858	0.512384	9.01781	0.659405	11.695
0.168126	3.11695	0.102109	1.83772	0.288226	5.34569	0.384862	7.15783	0.509059	8.87566	0.644461	11.2732	0.279995	5.19408	0.361498	6.71827	0.513827	8.94366	0.659739	11.5711
0.168689	3.09115	0.103527	1.84227	0.291453	5.34287	0.386503	7.10478	0.509842	8.79237	0.645763	11.1724	0.281335	5.15841	0.363127	6.67015	0.515267	8.87107	0.660093	11.4503
0.169261	3.06609	0.104945	1.84672	0.294681	5.34013	0.388134	7.05277	0.510658	8.71142	0.647064	11.0737	0.282634	5.12282	0.364811	6.62413	0.516703	8.79998	0.660468	11.3325
0.169842	3.04177	0.106362	1.85106	0.297909	5.33745	0.389755	7.00176	0.511507	8.63276	0.648364	10.9772	0.283894	5.08734	0.366549	6.58011	0.518136	8.73034	0.660863	11.2175
0.170432	3.01815	0.107779	1.85529	0.301137	5.33483	0.391365	6.9517	0.512388	8.55631	0.649663	10.8826	0.285115	5.05197	0.368339	6.53802	0.519564	8.66209	0.661279	11.1054
0.171031	2.99522	0.109195	1.85943	0.304364	5.33226	0.392964	6.90256	0.513303	8.48201	0.650961	10.7901	0.286299	5.01673	0.370181	6.49776	0.520987	8.59519	0.661717	10.9959
0.17164	2.97295	0.11061	1.86346	0.30759	5.32972	0.394551	6.85429	0.514252	8.4098	0.652257	10.6994	0.287447	4.98163	0.372072	6.45926	0.522405	8.52958	0.662176	10.8891
0.172257	2.95132	0.112025	1.8674	0.310814	5.32722	0.396126	6.80686	0.515235	8.33962	0.653552	10.6105	0.288559	4.94669	0.374013	6.42242	0.523818	8.46523	0.662657	10.7848
0.172884	2.93031	0.11344	1.87125	0.314037	5.32473	0.397688	6.76024	0.516253	8.27141	0.654844	10.5235	0.289638	4.91194	0.376	6.38718	0.525225	8.4021	0.663159	10.6831
0.17352	2.90989	0.114853	1.87501	0.317257	5.32226	0.399238	6.71439	0.517305	8.20512	0.656134	10.4381	0.290685	4.87738	0.378032	6.35344	0.526626	8.34013	0.663685	10.5837
0.174166	2.89006	0.116266	1.87868	0.320475	5.3198	0.400775	6.6693	0.518391	8.14069	0.657421	10.3544	0.291702	4.84303	0.380108	6.32114	0.52802	8.27929	0.664232	10.4867
0.17482	2.8708	0.117679	1.88227	0.323689	5.31733	0.402298	6.62492	0.519367	8.08602	0.658706	10.2723	0.292689	4.80892	0.382226	6.29021	0.529408	8.21954	0.664803	10.3919
0.175484	2.85207	0.119091	1.88577	0.3269	5.31485	0.403808	6.58124	0.520219	8.04048	0.659988	10.1918	0.293648	4.77507	0.384384	6.26056	0.530789	8.16085	0.665396	10.2994
0.176157	2.83388	0.120502	1.8892	0.330106	5.31235	0.405305	6.53824	0.520938	8.00354	0.661267	10.1128	0.294581	4.74148	0.386581	6.23214	0.531987	8.11053	0.666013	10.209
0.176839	2.81619	0.121913	1.89255	0.333307	5.30982	0.406788	6.4959	0.521516	7.97478	0.662542	10.0352	0.29549	4.70817	0.388814	6.20488	0.533003	8.06824	0.666654	10.1207
0.177529	2.799	0.123323	1.89583	0.336503	5.30726	0.408258	6.45419	0.521946	7.95389	0.663813	9.95905	0.296375	4.67517	0.391083	6.17872	0.533841	8.03367	0.667318	10.0344
0.178229	2.78229	0.124732	1.89903	0.339692	5.30465	0.409716	6.41311	0.522224	7.94063	0.665081	9.88429	0.297239	4.64247	0.393384	6.1536	0.534501	8.00659	0.668006	9.95013
0.178938	2.76605	0.126141	1.90216	0.342875	5.30199	0.411161	6.37265	0.522626	7.92171	0.666345	9.81085	0.298082	4.6101	0.395718	6.12946	0.534985	7.98682	0.668718	9.86778
0.179655	2.75025	0.127549	1.90523	0.34605	5.29925	0.412594	6.33278	0.523068	7.90136	0.667604	9.73871	0.298906	4.57807	0.398081	6.10625	0.535294	7.97423	0.669455	9.78731
0.180381	2.73488	0.128957	1.90822	0.349215	5.29643	0.414016	6.29351	0.523676	7.874	0.668859	9.66782	0.299713	4.54639	0.400474	6.08392	0.535738	7.95621	0.670216	9.70866
0.181116	2.71994	0.130364	1.91116	0.352372	5.29353	0.415428	6.25484	0.524456	7.83993	0.67011	9.59815	0.300503	4.51506	0.402893	6.06243	0.53622	7.93674	0.671002	9.6318
0.181859	2.70541	0.13177	1.91403	0.355517	5.29051	0.41683	6.21675	0.525417	7.79952	0.671355	9.52967	0.301278	4.4841	0.405337	6.04171	0.536873	7.91044	0.671812	9.55668
0.182611	2.69127	0.133176	1.91684	0.35865	5.28737	0.418223	6.17924	0.526569	7.75319	0.672596	9.46233	0.30204	4.45351	0.407806	6.02174	0.537697	7.87748	0.672648	9.48325
0.183371	2.67751	0.134581	1.91959	0.36177	5.28409	0.41961	6.14233	0.527923	7.7014	0.673832	9.39611	0.302788	4.42329	0.410297	6.00248	0.538688	7.83805	0.673509	9.41146
0.184139	2.66413	0.135985	1.92228	0.364874	5.28066	0.42099	6.10601	0.529311	7.65106	0.675062	9.33098	0.303525	4.39346	0.41281	5.98387	0.539845	7.7924	0.674394	9.34128
0.184916	2.65111	0.137389	1.92491	0.367962	5.27704	0.422368	6.0703	0.530732	7.6021	0.676287	9.26689	0.304251	4.36402	0.415343	5.96589	0.541165	7.74079	0.675305	9.27266
0.185701	2.63843	0.138792	1.9275	0.37103	5.27322	0.423743	6.03521	0.532187	7.55451	0.677506	9.20384	0.304967	4.33497	0.417895	5.94851	0.542477	7.68998	0.676241	9.20557
0.186493	2.62609	0.140195	1.93003	0.374078	5.26917	0.425119	6.00076	0.533675	7.50822	0.67872	9.14178	0.305674	4.30631	0.420464	5.93168	0.543779	7.63995	0.677202	9.13997
0.187294	2.61409	0.141597	1.9325	0.377101	5.26486	0.426498	5.96696	0.535195	7.4632	0.679928	9.08069	0.306373	4.27804	0.42305	5.91538	0.545073	7.59068	0.678189	9.07581
0.188102	2.6024	0.142999	1.93493	0.380099	5.26025	0.427884	5.93384	0.536748	7.41942	0.681129	9.02055	0.307065	4.25017	0.425651	5.89958	0.546358	7.54214	0.679201	9.01307
0.188918	2.59101	0.1444	1.93731	0.383066	5.25532	0.429279	5.90143	0.538332	7.37682	0.682325	8.96133	0.307751	4.22269	0.428267	5.88425	0.547634	7.49433	0.680238	8.9517
0.189741	2.57993	0.1458	1.93964	0.386	5.25003	0.430688	5.86976	0.539947	7.33538	0.683515	8.903	0.308431	4.19561	0.430896	5.86937	0.548902	7.44722	0.6813	8.89168
0.190572	2.56913	0.1472	1.94192	0.388897	5.24431	0.432114	5.83887	0.541592	7.29505	0.684699	8.84555	0.309105	4.16892	0.433537	5.85491	0.55016	7.40079	0.682388	8.83296
0.191411	2.55862	0.1486	1.94416	0.391752	5.23814	0.433563	5.8088	0.543267	7.2558	0.685876	8.78895	0.309775	4.14262	0.436189	5.84084	0.55141	7.35502	0.6835	8.77552
0.192256	2.54838	0.149998	1.94635	0.394561	5.23145	0.43504	5.77961	0.544972	7.2176	0.687047	8.73318	0.310442	4.11671	0.438852	5.82714	0.552651	7.30992	0.684637	8.71932
0.193109	2.5384	0.151396	1.94851	0.397317	5.22419	0.436549	5.75135	0.546705	7.18041	0.688212	8.67822	0.311105	4.09119	0.441524	5.8138	0.553884	7.26544	0.685799	8.66433
0.193969	2.52869	0.152794	1.95062	0.400015	5.21629	0.438099	5.72406	0.548465	7.14419	0.68937	8.62405	0.311765	4.06606	0.444205	5.80079	0.555109	7.2216	0.686986	8.61052
0.194836	2.51922	0.154191	1.95269	0.40265	5.2077	0.439694	5.69782	0.550253	7.10891	0.690522	8.57065	0.312423	4.0413	0.446893	5.78809	0.556326	7.17837	0.688197	8.55785
0.19571	2.50999	0.155588	1.95472	0.405214	5.19834	0.441341	5.67268	0.552068	7.07455	0.691668	8.518	0.313079	4.01693	0.449588	5.77568	0.557535	7.13574	0.689432	8.50631
0.19659	2.50099	0.156984	1.95671	0.407703	5.18817	0.443048	5.6487	0.553908	7.04106	0.692661	8.47273	0.313734	3.99293	0.452288	5.76354	0.558737	7.0937	0.690528	8.46229
0.197477	2.49223	0.158379	1.95866	0.410109	5.17712	0.444821	5.62593	0.555772	7.00842	0.693504	8.43457	0.314387	3.9693	0.454994	5.75167	0.559932	7.05224	0.691476	8.4254
0.198371	2.48368	0.159774	1.96058	0.412427	5.16514	0.446665	5.60443	0.557662	6.9766	0.694199	8.40331	0.315041	3.94603	0.457703	5.74003	0.56112	7.01136	0.69227	8.39533
0.199271	2.47535	0.161169	1.96246	0.414653	5.15221	0.448587	5.58422	0.559574	6.94557	0.694746	8.37878	0.315693	3.92313	0.460416	5.72861	0.562303	6.97104	0.692904	8.37183
0.200178	2.46723	0.162563	1.96431	0.416783	5.1383	0.450589	5.56534	0.561509	6.91531	0.695148	8.36085	0.316346	3.90059	0.463131	5.7174	0.56348	6.93129	0.693374	8.35471
0.201091	2.45931	0.163956	1.96612	0.418816	5.12342	0.452677	5.54778	0.563466	6.88578	0.695405	8.34942	0.316999	3.8784	0.465847	5.70638	0.564651	6.89208	0.693676	8.34382
0.20201	2.45159	0.165349	1.9679	0.420751	5.10757	0.454849	5.53153	0.565445	6.85695	0.695773	8.33305	0.317653	3.85656	0.468564	5.69553	0.565819	6.85342	0.694112	8.32825
0.202935	2.44405	0.166742	1.96964	0.422588	5.09078	0.457107	5.51656	0.567443	6.82882	0.696173	8.31534	0.318308	3.83506	0.47128	5.68484	0.566982	6.81531	0.69459	8.31145
0.203866	2.43671	0.168134	1.97136	0.42433	5.07312	0.45945	5.50283	0.569461	6.80134	0.696715	8.2914	0.318964	3.8139	0.473995	5.6743	0.568143	6.77774	0.695243	8.28881
0.204803	2.42954	0.169525	1.97304	0.425981	5.05464	0.461873	5.49026	0.571498	6.77449	0.697399	8.26134	0.319621	3.79308	0.476708	5.66389	0.569302	6.7407	0.696078	8.26049
0.205746	2.42255	0.170916	1.9747	0.427546	5.03542	0.464373	5.47879	0.573553	6.74826	0.698224	8.22533	0.32028	3.77258	0.479417	5.6536	0.570459	6.7042	0.697098	8.22673
0.206694	2.41573	0.172307	1.97632	0.42903	5.01554	0.466945	5.46834	0.575625	6.72261	0.699187	8.18354	0.320941	3.75241	0.482122	5.64341	0.571616	6.66823	0.698311	8.18779
0.207648	2.40907	0.173697	1.97792	0.430438	4.99507	0.469585	5.45882	0.577714	6.69754	0.700286	8.13618	0.321604	3.73256	0.484822	5.6333	0.572773	6.63279	0.699723	8.14395
0.208608	2.40257	0.175086	1.97948	0.431777	4.9741	0.472286	5.45015	0.579819	6.67301	0.701381	8.08945	0.322269	3.71302	0.487514	5.62327	0.573932	6.59789	0.701157	8.10101
0.209573	2.39623	0.176475	1.98102	0.433052	4.9527	0.475043	5.44225	0.581938	6.649	0.70247	8.04335	0.322937	3.6938	0.4902	5.61329	0.575094	6.56353	0.702612	8.05893
0.210543	2.39004	0.177864	1.98254	0.434269	4.93095	0.477852	5.43504	0.584072	6.6255	0.703554	7.99784	0.323606	3.67487	0.492876	5.60336	0.57626	6.5297	0.704087	8.01769
0.211519	2.384	0.179252	1.98402	0.435434	4.90892	0.480706	5.42845	0.586219	6.60249	0.704634	7.95294	0.324279	3.65625	0.495542	5.59345	0.577431	6.49641	0.705583	7.97727
0.2125	2.37811	0.18064	1.98549	0.43655	4.88667	0.483601	5.42242	0.588379	6.57995	0.705709	7.90862	0.324954	3.63792	0.498197	5.58355	0.578608	6.46367	0.707099	7.93765
0.213485	2.37235	0.182027	1.98692	0.437624	4.86425	0.486533	5.41689	0.59055	6.55785	0.70678	7.86488	0.325633	3.61989	0.500839	5.57365	0.579794	6.43147	0.708634	7.89881
0.214476	2.36673	0.183414	1.98833	0.438658	4.84171	0.489499	5.4118	0.592733	6.53619	0.707847	7.8217	0.326314	3.60214	0.503466	5.56373	0.580989	6.39983	0.710189	7.86072
0.215472	2.36124	0.184801	1.98972	0.439658	4.8191	0.492494	5.4071	0.594927	6.51494	0.708911	7.77909	0.326998	3.58467	0.506078	5.55378	0.582195	6.36875	0.711762	7.82337
0.216473	2.35588	0.186187	1.99109	0.440625	4.79646	0.495516	5.40276	0.59713	6.49409	0.709971	7.73704	0.327686	3.56747	0.508672	5.54377	0.583415	6.33824	0.713353	7.78673
0.217478	2.35064	0.187572	1.99243	0.441564	4.77381	0.498561	5.39874	0.599342	6.47362	0.711029	7.69552	0.328377	3.55055	0.511247	5.53369	0.584649	6.3083	0.714962	7.75078
0.218489	2.34552	0.188957	1.99375	0.442477	4.7512	0.501627	5.39499	0.601563	6.45352	0.712085	7.65455	0.329072	3.53389	0.513801	5.52352	0.585899	6.27895	0.716588	7.71551
0.219503	2.34053	0.190342	1.99505	0.443367	4.72863	0.504713	5.3915	0.603791	6.43377	0.713139	7.61411	0.32977	3.51749	0.516332	5.51325	0.587168	6.25018	0.718231	7.68089
0.220523	2.33564	0.191727	1.99632	0.444235	4.70615	0.507815	5.38824	0.606026	6.41435	0.714191	7.5742	0.330471	3.50135	0.518839	5.50286	0.588458	6.22203	0.71989	7.64691
0.221547	2.33087	0.193111	1.99758	0.445083	4.68376	0.510933	5.38518	0.608266	6.39526	0.715242	7.53481	0.331176	3.48547	0.521319	5.49232	0.589771	6.19448	0.721564	7.61355
0.222575	2.32621	0.194494	1.99881	0.445915	4.66148	0.514064	5.3823	0.610512	6.37647	0.716293	7.49594	0.331885	3.46983	0.523771	5.48162	0.591108	6.16756		
0.223607	2.32166	0.195877	2.00003	0.44673	4.63933	0.517207	5.37959	0.612763	6.35798	0.717344	7.45758	0.332597	3.45444	0.526191	5.47075	0.592473	6.14127		
0.224644	2.31721	0.19726	2.00122	0.447531	4.61732	0.520361	5.37703	0.615017	6.33976	0.718396	7.41973	0.333314	3.43929	0.528579	5.45967	0.593867	6.11563		
0.225685	2.31285	0.198642	2.0024	0.448318	4.59546	0.523525	5.3746	0.617274	6.32181	0.719449	7.38238	0.334034	3.42437	0.530932	5.44838	0.595293	6.09064		
0.22673	2.3086	0.200024	2.00356	0.449094	4.57376	0.526698	5.37229	0.619533	6.30412	0.720504	7.34554	0.334758	3.40969	0.533248	5.43686	0.596753	6.06632		
0.227779	2.30444	0.201406	2.00469	0.449859	4.55223	0.529879	5.37009	0.621793	6.28666			0.335486	3.39523	0.535525	5.42509	0.598249	6.04268		
0.228832	2.30038	0.202787	2.00582	0.450614	4.53087	0.533067	5.36799	0.624054	6.26943			0.336218	3.381	0.53776	5.41305	0.599784	6.01973		
0.229889	2.2964	0.204168	2.00692	0.45136	4.50969	0.536261	5.36598	0.626315	6.25241			0.336954	3.36698	0.539951	5.40073	0.601359	5.99747		
0.23095	2.29252	0.205548	2.008	0.452098	4.4887	0.539461	5.36405	0.628574	6.2356			0.337694	3.35318	0.542098	5.38811	0.602977	5.97591		
0.232014	2.28871	0.206928	2.00907	0.452828	4.46789	0.542666	5.3622	0.630832	6.21898			0.338438	3.3396	0.544197	5.37519	0.604639	5.95506		
0.233083	2.285	0.208308	2.01013	0.453552	4.44728	0.545875	5.36041	0.633087	6.20253			0.339185	3.32622	0.546248	5.36195	0.606347	5.93492		
0.234155	2.28136	0.209687	2.01116	0.454269	4.42686	0.549088	5.35868	0.635338	6.18626			0.339937	3.31305	0.548248	5.34838	0.608103	5.91548		
0.23523	2.2778	0.211066	2.01218	0.454981	4.40664	0.552304	5.357	0.637585	6.17013			0.340694	3.30008	0.550198	5.33449	0.609908	5.89676		
0.236309	2.27433	0.212445	2.01319	0.455688	4.38662	0.555524	5.35538	0.639826	6.15416			0.341454	3.2873	0.552095	5.32026	0.611762	5.87874		
0.237392	2.27092	0.213823	2.01418	0.456391	4.3668	0.558746	5.3538	0.64206	6.13831			0.342218	3.27472	0.55394	5.3057	0.613666	5.86141		
0.238478	2.26759	0.215201	2.01515	0.457089	4.34718	0.561969	5.35225	0.644288	6.12259			0.342987	3.26233	0.555732	5.29082	0.61562	5.84477		
0.239567	2.26433	0.216579	2.01611	0.457784	4.32775	0.565195	5.35074	0.646507	6.10697			0.343759	3.25013	0.557471	5.2756	0.617625	5.8288		
0.24066	2.26114	0.217956	2.01705	0.458476	4.30853	0.568421	5.34926	0.648717	6.09146			0.344536	3.23811	0.559157	5.26008	0.61968	5.8135		
0.241756	2.25802	0.219333	2.01798	0.459165	4.28951	0.571649	5.3478	0.650918	6.07603			0.345317	3.22627	0.560791	5.24425	0.621784	5.79883		
0.242855	2.25497	0.220709	2.0189	0.459852	4.27069	0.574877	5.34637	0.653107	6.06069			0.346102	3.21461	0.562374	5.22813	0.623938	5.78479		
0.243957	2.25198	0.222086	2.01981	0.460536	4.25207	0.578105	5.34495	0.655284	6.04541			0.346891	3.20312	0.563907	5.21174	0.626138	5.77136		
0.245063	2.24905	0.223461	2.0207	0.461218	4.23365	0.581333	5.34355	0.657448	6.03019			0.347684	3.1918	0.565391	5.19509	0.628385	5.7585		
0.246171	2.24619	0.224837	2.02157	0.461899	4.21543	0.58456	5.34216	0.659598	6.01502			0.348481	3.18066	0.566828	5.1782	0.630677	5.7462		
0.247283	2.24338	0.226212	2.02244	0.462579	4.1974	0.587787	5.34077	0.661734	5.99989			0.349283	3.16967	0.568219	5.16109	0.633012	5.73443		
0.248397	2.24064	0.227587	2.02329	0.463257	4.17957	0.591012	5.33939	0.663854	5.98479			0.350088	3.15885	0.569566	5.14377	0.635389	5.72317		
0.249514	2.23795	0.228962	2.02413	0.463935	4.16194	0.594235	5.33801	0.665957	5.96972			0.350898	3.14819	0.570871	5.12628	0.637805	5.71239		
0.250635	2.23531	0.230336	2.02495	0.464612	4.1445	0.597456	5.33663	0.668043	5.95466			0.351712	3.13769	0.572136	5.10862	0.640259	5.70207		
0.251758	2.23274	0.23171	2.02577	0.465288	4.12725	0.600674	5.33523	0.670111	5.93961			0.352529	3.12734	0.573362	5.09082	0.64275	5.69219		
0.252883	2.23021	0.233083	2.02657	0.465965	4.11019	0.60389	5.33383	0.67216	5.92455			0.353351	3.11714	0.574552	5.0729	0.645274	5.68271		
0.254012	2.22774	0.234457	2.02736	0.466641	4.09332	0.607101	5.33241	0.674189	5.9095			0.354177	3.10709	0.575708	5.05488	0.647831	5.67363		
0.255143	2.22531	0.23583	2.02815	0.467318	4.07664	0.610309	5.33097	0.676198	5.89443			0.355007	3.09719	0.576831	5.03677	0.650418	5.66491		
0.256277	2.22294	0.237202	2.02891	0.467994	4.06014	0.613512	5.32951	0.678186	5.87935			0.355841	3.08743	0.577924	5.0186	0.653033	5.65653		
0.257413	2.22061	0.238575	2.02967	0.468671	4.04382	0.61671	5.32802	0.680154	5.86425			0.356679	3.07781	0.578987	5.00037	0.655676	5.64848		
0.258552	2.21834	0.239947	2.03042	0.469349	4.02769	0.619903	5.32649	0.682099	5.84913			0.357521	3.06833	0.580024	4.98211	0.658344	5.64073		
0.259693	2.2161	0.241319	2.03116	0.470027	4.01174	0.623088	5.32493	0.684024	5.83399			0.358367	3.05899	0.581035	4.96383	0.661036	5.63327		
0.260837	2.21392	0.24269	2.03189	0.470706	3.99597	0.626267	5.32332	0.685926	5.81883			0.359217	3.04978	0.582022	4.94554	0.66375	5.62607		
0.261984	2.21177	0.244061	2.0326	0.471387	3.98037	0.629437	5.32166	0.687807	5.80365			0.360071	3.0407	0.582987	4.92726	0.666484	5.61913		
0.263132	2.20967	0.245432	2.03331	0.472068	3.96495	0.632599	5.31994	0.689667	5.78845			0.360929	3.03175	0.583931	4.909	0.669238	5.61242		
0.264283	2.20761	0.246803	2.03401	0.47275	3.9497	0.63575	5.31815	0.691507	5.77325			0.36179	3.02293	0.584855	4.89076	0.67201	5.60593		
0.265437	2.2056	0.248173	2.0347	0.473434	3.93462	0.63889	5.3163	0.693327	5.75804			0.362656	3.01423	0.585761	4.87257	0.674799	5.59965		
0.266592	2.20362	0.249543	2.03537	0.474119	3.91971	0.642017	5.31435	0.695128	5.74283			0.363525	3.00566	0.58665	4.85442	0.677603	5.59357		
0.26775	2.20168	0.250913	2.03604	0.474805	3.90496	0.645131	5.31231	0.696912	5.72764			0.364399	2.99721	0.587523	4.83634	0.680422	5.58766		
0.268911	2.19978	0.252282	2.0367	0.475493	3.89038	0.648229	5.31017	0.69868	5.71248			0.365276	2.98888	0.58838	4.81831	0.683254	5.58193		
0.270073	2.19792	0.253651	2.03735	0.476182	3.87597	0.65131	5.30791	0.700433	5.69736			0.366157	2.98066	0.589224	4.80036	0.686099	5.57636		
0.271237	2.19609	0.25502	2.038	0.476873	3.86171	0.654371	5.30551	0.702175	5.68229			0.367042	2.97256	0.590055	4.78249	0.688955	5.57093		
0.272404	2.1943	0.256389	2.03863	0.477566	3.84762	0.657411	5.30297	0.703908	5.66731			0.36793	2.96457	0.590874	4.7647	0.691822	5.56565		
0.273572	2.19254	0.257757	2.03925	0.478261	3.83368	0.660427	5.30025	0.705634	5.65242			0.368822	2.95669	0.591681	4.747	0.694698	5.5605		
0.274743	2.19082	0.259125	2.03987	0.478957	3.8199	0.663416	5.29735	0.707357	5.63767			0.369718	2.94892	0.592478	4.72939	0.697583	5.55547		
0.275916	2.18913	0.260493	2.04048	0.479656	3.80627	0.666375	5.29425	0.709082	5.62306			0.370618	2.94126	0.593265	4.71189	0.700476	5.55055		
0.27709	2.18747	0.26186	2.04108	0.480356	3.79279	0.669301	5.2909	0.71081	5.60864			0.371521	2.93371	0.594043	4.69448	0.703376	5.54574		
0.278267	2.18585	0.263228	2.04167	0.481059	3.77946	0.672189	5.2873	0.712549	5.59444			0.372429	2.92625	0.594812	4.67718	0.706283	5.54103		
0.279445	2.18425	0.264595	2.04225	0.481763	3.76629	0.675035	5.2834	0.714302	5.58049			0.373339	2.9189	0.595573	4.66	0.709196	5.53641		
0.280626	2.18269	0.265961	2.04283	0.48247	3.75325	0.677835	5.27919	0.716075	5.56684			0.374253	2.91165	0.596327	4.64292	0.712114	5.53187		
0.281808	2.18116	0.267328	2.0434	0.483179	3.74036	0.680584	5.27461	0.717874	5.55352			0.375171	2.9045	0.597074	4.62596	0.715036	5.52742		
0.282992	2.17965	0.268694	2.04396	0.48389	3.72762	0.683276	5.26964	0.719705	5.54058			0.376093	2.89745	0.597815	4.60911	0.717962	5.52303		
0.284178	2.17817	0.27006	2.04452	0.484603	3.71501	0.685905	5.26425	0.721575	5.52806			0.377018	2.89049	0.59855	4.59238	0.720891	5.51871		
0.285366	2.17673	0.271425	2.04506	0.485319	3.70255	0.688467	5.25839					0.377946	2.88363	0.599279	4.57577				
0.286555	2.1753	0.272791	2.0456	0.486037	3.69022	0.690956	5.25203					0.378878	2.87686	0.600003	4.55929				
0.287746	2.17391	0.274156	2.04614	0.486757	3.67803	0.693367	5.24513					0.379814	2.87018	0.600723	4.54292				
0.288939	2.17254	0.275521	2.04666	0.48748	3.66597	0.695695	5.23768					0.380752	2.86359	0.601438	4.52668				
0.290134	2.1712	0.276886	2.04718	0.488205	3.65404	0.697936	5.22966					0.381695	2.85708	0.602149	4.51056				
0.29133	2.16988	0.27825	2.04769	0.488933	3.64225	0.700088	5.22104					0.38264	2.85067	0.602857	4.49457				
0.292528	2.16858	0.279614	2.0482	0.489663	3.63058	0.70215	5.21183					0.38359	2.84433	0.603561	4.4787				
0.293727	2.16731	0.280978	2.0487	0.490395	3.61904	0.704121	5.20204					0.384542	2.83809	0.604262	4.46296				
0.294928	2.16607	0.282341	2.04919	0.49113	3.60763	0.706002	5.19169					0.385498	2.83192	0.60496	4.44734				
0.296131	2.16484	0.283705	2.04968	0.491868	3.59634	0.707797	5.18078					0.386457	2.82584	0.605656	4.43185				
0.297335	2.16364	0.285068	2.05016	0.492608	3.58517	0.709507	5.16937					0.387419	2.81983	0.606349	4.41648				
0.29854	2.16246	0.286431	2.05063	0.493351	3.57413	0.711137	5.15748					0.388385	2.81391	0.60704	4.40124				
0.299747	2.1613	0.287793	2.0511	0.494096	3.5632	0.712691	5.14515					0.389354	2.80806	0.60773	4.38613				
0.300956	2.16017	0.289156	2.05156	0.494844	3.55239	0.714175	5.13243					0.390326	2.80229	0.608417	4.37114				
0.302166	2.15905	0.290518	2.05202	0.495595	3.5417	0.715594	5.11936					0.391301	2.79659	0.609104	4.35627				
0.303377	2.15795	0.29188	2.05247	0.496348	3.53112	0.716952	5.10598					0.392279	2.79097	0.609788	4.34153				
0.30459	2.15688	0.293242	2.05291	0.497104	3.52066	0.718255	5.09232					0.393261	2.78542	0.610472	4.32692				
0.305804	2.15582	0.294603	2.05335	0.497862	3.5103	0.719507	5.07842					0.394246	2.77994	0.611155	4.31242				
0.307019	2.15478	0.295964	2.05379	0.498623	3.50006	0.720712	5.06432					0.395233	2.77453	0.611837	4.29805				
0.308236	2.15376	0.297325	2.05422	0.499387	3.48993							0.396224	2.76919	0.612518	4.28381				
0.309454	2.15276	0.298686	2.05464	0.500153	3.47991							0.397218	2.76392	0.613198	4.26968				
0.310674	2.15177	0.300047	2.05506	0.500922	3.46999							0.398215	2.75872	0.613879	4.25568				
0.311894	2.15081	0.301407	2.05547	0.501694	3.46018							0.399215	2.75358	0.614559	4.24179				
0.313116	2.14986	0.302767	2.05588	0.502469	3.45047							0.400218	2.74851	0.615238	4.22803				
0.314339	2.14892	0.304127	2.05628	0.503246	3.44086							0.401224	2.7435	0.615918	4.21438				
0.315564	2.14801	0.305486	2.05668	0.504026	3.43135							0.402232	2.73856	0.616598	4.20085				
0.316789	2.14711	0.306846	2.05707	0.504809	3.42195							0.403244	2.73367	0.617278	4.18744				
0.318016	2.14622	0.308205	2.05746	0.505594	3.41264							0.404259	2.72885	0.617958	4.17415				
0.319244	2.14535	0.309564	2.05784	0.506382	3.40343							0.405276	2.72409	0.618638	4.16097				
0.320473	2.1445	0.310922	2.05822	0.507173	3.39432							0.406296	2.71939	0.619319	4.1479				
0.321704	2.14366	0.312281	2.0586	0.507966	3.3853							0.40732	2.71474	0.620001	4.13495				
0.322935	2.14283	0.313639	2.05897	0.508762	3.37637							0.408345	2.71016	0.620683	4.12211				
0.324168	2.14202	0.314997	2.05933	0.509561	3.36754							0.409374	2.70563	0.621365	4.10939				
0.325401	2.14123	0.316355	2.05969	0.510363	3.3588							0.410406	2.70115	0.622049	4.09677				
0.326636	2.14044	0.317712	2.06005	0.511167	3.35015							0.41144	2.69673	0.622733	4.08426				
0.327872	2.13967	0.31907	2.0604	0.511974	3.34159							0.412477	2.69237	0.623418	4.07187				
0.329109	2.13892	0.320427	2.06075	0.512784	3.33311							0.413516	2.68806	0.624104	4.05958				
0.330346	2.13817	0.321784	2.06109	0.513596	3.32472							0.414559	2.6838	0.624791	4.04739				
0.331585	2.13744	0.323141	2.06143	0.514411	3.31642							0.415604	2.67959	0.625479	4.03532				
0.332825	2.13672	0.324497	2.06176	0.515229	3.30821							0.416651	2.67544	0.626168	4.02335				
0.334066	2.13602	0.325853	2.0621	0.51605	3.30007							0.417701	2.67133	0.626858	4.01148				
0.335308	2.13532	0.32721	2.06242	0.516873	3.29202							0.418754	2.66728	0.62755	3.99972				
0.336551	2.13464	0.328565	2.06275	0.517698	3.28405							0.419809	2.66327	0.628242	3.98806				
0.337795	2.13397	0.329921	2.06307	0.518527	3.27616							0.420867	2.65931	0.628936	3.9765				
0.339039	2.13331	0.331276	2.06338	0.519358	3.26836							0.421928	2.6554	0.629632	3.96504				
0.340285	2.13266	0.332632	2.06369	0.520192	3.26063							0.422991	2.65154	0.630329	3.95368				
0.341531	2.13202	0.333987	2.064	0.521028	3.25297							0.424056	2.64772	0.631027	3.94242				
0.342779	2.13139	0.335342	2.0643	0.521868	3.2454							0.425124	2.64394	0.631726	3.93126				
0.344027	2.13077	0.336696	2.06461	0.522709	3.2379							0.426194	2.64022	0.632427	3.92019				
0.345276	2.13017	0.338051	2.0649	0.523554	3.23047							0.427267	2.63653	0.63313	3.90922				
0.346526	2.12957	0.339405	2.0652	0.524401	3.22312							0.428342	2.63289	0.633834	3.89835				
0.347777	2.12898	0.340759	2.06549	0.52525	3.21584							0.42942	2.62929	0.63454	3.88756				
0.349029	2.1284	0.342113	2.06577	0.526103	3.20863							0.4305	2.62574	0.635247	3.87688				
0.350282	2.12784	0.343466	2.06606	0.526957	3.2015							0.431582	2.62222	0.635956	3.86628				
0.351535	2.12728	0.34482	2.06634	0.527815	3.19443							0.432667	2.61875	0.636667	3.85577				
0.352789	2.12673	0.346173	2.06661	0.528675	3.18744							0.433754	2.61532	0.637379	3.84536				
0.354044	2.12619	0.347526	2.06689	0.529538	3.18051							0.434843	2.61192	0.638093	3.83503				
0.3553	2.12565	0.348879	2.06716	0.530403	3.17365							0.435934	2.60857	0.638809	3.8248				
0.356557	2.12513	0.350231	2.06742	0.53127	3.16686							0.437028	2.60526	0.639527	3.81465				
0.357814	2.12462	0.351584	2.06769	0.532141	3.16013							0.438124	2.60198	0.640246	3.80459				
0.359072	2.12411	0.352936	2.06795	0.533014	3.15347							0.439222	2.59874	0.640967	3.79461				
0.360331	2.12361	0.354288	2.06821	0.533889	3.14688							0.440323	2.59554	0.64169	3.78472				
0.361591	2.12312	0.35564	2.06846	0.534767	3.14034							0.441425	2.59237	0.642415	3.77491				
0.362851	2.12264	0.356992	2.06871	0.535647	3.13388							0.44253	2.58925	0.643142	3.76519				
0.364112	2.12216	0.358343	2.06896	0.53653	3.12747							0.443637	2.58615	0.64387	3.75555				
0.365374	2.1217	0.359694	2.06921	0.537416	3.12112							0.444746	2.58309	0.644601	3.74599				
0.366636	2.12124	0.361046	2.06945	0.538304	3.11484							0.445858	2.58007	0.645333	3.73651				
0.367899	2.12079	0.362396	2.06969	0.539194	3.10862							0.446971	2.57708	0.646067	3.72712				
0.369163	2.12034	0.363747	2.06993	0.540087	3.10245							0.448086	2.57413	0.646803	3.7178				
0.370428	2.1199	0.365098	2.07016	0.540982	3.09634							0.449204	2.57121	0.647541	3.70856				
0.371693	2.11947	0.366448	2.0704	0.54188	3.0903							0.450324	2.56832	0.648281	3.6994				
0.372959	2.11905	0.367798	2.07062	0.54278	3.08431							0.451445	2.56546	0.649023	3.69031				
0.374225	2.11863	0.369148	2.07085	0.543683	3.07837							0.452569	2.56263	0.649767	3.68131				
0.375492	2.11822	0.370498	2.07108	0.544588	3.07249							0.453694	2.55984	0.650513	3.67237				
0.37676	2.11781	0.371848	2.0713	0.545495	3.06667							0.454822	2.55708	0.651261	3.66351				
0.378028	2.11742	0.373197	2.07152	0.546405	3.0609							0.455952	2.55435	0.652011	3.65473				
0.379297	2.11702	0.374546	2.07173	0.547318	3.05519							0.457083	2.55164	0.652763	3.64602				
0.380567	2.11664	0.375895	2.07195	0.548232	3.04953							0.458217	2.54897	0.653517	3.63738				
0.381837	2.11626	0.377244	2.07216	0.549149	3.04392							0.459352	2.54633	0.654273	3.62881				
0.383108	2.11589	0.378593	2.07237	0.550069	3.03836							0.46049	2.54372	0.65503	3.62032				
0.384379	2.11552	0.379941	2.07257	0.55099	3.03286							0.461629	2.54113	0.65579	3.61189				
0.385651	2.11516	0.38129	2.07278	0.551914	3.02741							0.46277	2.53858	0.656552	3.60354				
0.386924	2.1148	0.382638	2.07298	0.552841	3.02201							0.463913	2.53605	0.657316	3.59525				
0.388197	2.11445	0.383986	2.07318	0.553769	3.01665							0.465058	2.53355	0.658082	3.58703				
0.38947	2.1141	0.385334	2.07337	0.5547	3.01135							0.466204	2.53107	0.65885	3.57888				
0.390744	2.11376	0.386681	2.07357	0.555634	3.00609							0.467353	2.52863	0.659621	3.57079				
0.392019	2.11343	0.388029	2.07376	0.556569	3.00089							0.468503	2.5262	0.660393	3.56278				
0.393294	2.1131	0.389376	2.07395	0.557507	2.99573							0.469655	2.52381	0.661167	3.55482				
0.39457	2.11277	0.390723	2.07414	0.558447	2.99062							0.470809	2.52144	0.661943	3.54694				
0.395846	2.11245	0.39207	2.07433	0.559389	2.98555							0.471965	2.5191	0.662721	3.53911				
0.397123	2.11214	0.393417	2.07451	0.560334	2.98053							0.473122	2.51678	0.663502	3.53135				
0.3984	2.11183	0.394764	2.07469	0.561281	2.97556							0.474282	2.51449	0.664284	3.52366				
0.399678	2.11152	0.39611	2.07487	0.56223	2.97063							0.475442	2.51222	0.665069	3.51602				
0.400957	2.11122	0.397456	2.07505	0.563181	2.96574							0.476605	2.50997	0.665855	3.50845				
0.402235	2.11092	0.398802	2.07522	0.564134	2.9609							0.477769	2.50775	0.666644	3.50094				
0.403515	2.11063	0.400148	2.0754	0.56509	2.95611							0.478935	2.50555	0.667434	3.49349				
0.404794	2.11034	0.401494	2.07557	0.566048	2.95135							0.480103	2.50338	0.668227	3.4861				
0.406075	2.11006	0.40284	2.07574	0.567008	2.94664							0.481272	2.50123	0.669022	3.47876				
0.407355	2.10978	0.404185	2.07591	0.56797	2.94197							0.482443	2.4991	0.669819	3.47149				
0.408637	2.10951	0.40553	2.07607	0.568934	2.93734							0.483616	2.49699	0.670618	3.46428				
0.409918	2.10924	0.406876	2.07624	0.5699	2.93276							0.48479	2.49491	0.671418	3.45712				
0.4112	2.10897	0.40822	2.0764	0.570869	2.92821							0.485966	2.49285	0.672221	3.45002				
0.412483	2.10871	0.409565	2.07656	0.57184	2.9237							0.487143	2.49081	0.673027	3.44297				
0.413766	2.10845	0.41091	2.07672	0.572812	2.91924							0.488322	2.48879	0.673834	3.43599				
0.415049	2.1082	0.412254	2.07687	0.573787	2.91481							0.489503	2.48679	0.674643	3.42905				
0.416333	2.10795	0.413599	2.07703	0.574764	2.91042							0.490685	2.48481	0.675454	3.42217				
0.417617	2.1077	0.414943	2.07718	0.575743	2.90607							0.491869	2.48285	0.676267	3.41535				
0.418902	2.10745	0.416287	2.07733	0.576724	2.90176							0.493054	2.48091	0.677082	3.40858				
0.420187	2.10722	0.417631	2.07748	0.577707	2.89748							0.494241	2.479	0.6779	3.40186				
0.421472	2.10698	0.418974	2.07763	0.578692	2.89325							0.495429	2.4771	0.678719	3.3952				
0.422758	2.10675	0.420318	2.07777	0.579679	2.88905							0.496619	2.47522	0.67954	3.38859				
0.424044	2.10652	0.421661	2.07792	0.580668	2.88488							0.49781	2.47336	0.680364	3.38203				
0.425331	2.10629	0.423005	2.07806	0.581659	2.88076							0.499003	2.47152	0.681189	3.37552				
0.426618	2.10607	0.424348	2.0782	0.582652	2.87666							0.500197	2.4697	0.682017	3.36906				
0.427906	2.10585	0.42569	2.07834	0.583647	2.87261							0.501392	2.46789	0.682846	3.36265				
0.429193	2.10563	0.427033	2.07848	0.584645	2.86859							0.502589	2.46611	0.683678	3.35629				
0.430482	2.10542	0.428376	2.07861	0.585644	2.8646							0.503788	2.46434	0.684511	3.34999				
0.43177	2.10521	0.429718	2.07875	0.586645	2.86064							0.504988	2.46259	0.685347	3.34372				
0.433059	2.105	0.431061	2.07888	0.587647	2.85672							0.506189	2.46086	0.686184	3.33751				
0.434348	2.1048	0.432403	2.07901	0.588652	2.85284							0.507392	2.45915	0.687024	3.33135				
0.435638	2.1046	0.433745	2.07914	0.589659	2.84898							0.508596	2.45745	0.687865	3.32523				
0.436928	2.1044	0.435087	2.07927	0.590668	2.84516							0.509801	2.45577	0.688709	3.31916				
0.438218	2.10421	0.436428	2.0794	0.591678	2.84138							0.511008	2.45411	0.689554	3.31314				
0.439509	2.10402	0.43777	2.07953	0.592691	2.83762							0.512216	2.45246	0.690402	3.30716				
0.4408	2.10383	0.439111	2.07965	0.593705	2.8339							0.513426	2.45083	0.691251	3.30123				
0.442092	2.10364	0.440453	2.07977	0.594722	2.8302							0.514637	2.44922	0.692103	3.29534				
0.443383	2.10346	0.441794	2.07989	0.59574	2.82654							0.515849	2.44762	0.692956	3.2895				
0.444675	2.10327	0.443135	2.08001	0.59676	2.82291							0.517063	2.44604	0.693812	3.2837				
0.445968	2.1031	0.444476	2.08013	0.597781	2.81931							0.518277	2.44447	0.694669	3.27795				
0.44726	2.10292	0.445817	2.08025	0.598805	2.81574							0.519493	2.44292	0.695528	3.27223				
0.448553	2.10275	0.447157	2.08037	0.59983	2.81219							0.520711	2.44138	0.69639	3.26657				
0.449847	2.10258	0.448498	2.08048	0.600858	2.80868							0.52193	2.43986	0.697253	3.26094				
0.45114	2.10241	0.449838	2.08059	0.601887	2.8052							0.523149	2.43835	0.698118	3.25536				
0.452434	2.10224	0.451178	2.08071	0.602918	2.80175							0.524371	2.43686	0.698985	3.24982				
0.453729	2.10208	0.452518	2.08082	0.60395	2.79832							0.525593	2.43538	0.699854	3.24432				
0.455023	2.10192	0.453858	2.08093	0.604985	2.79492							0.526817	2.43392	0.700725	3.23886				
0.456318	2.10176	0.455198	2.08103	0.606021	2.79155							0.528042	2.43247	0.701598	3.23344				
0.457613	2.1016	0.456537	2.08114	0.607059	2.78821							0.529268	2.43104	0.702473	3.22806				
0.458909	2.10145	0.457877	2.08125	0.608098	2.7849							0.530495	2.42962	0.703349	3.22273				
0.460204	2.10129	0.459216	2.08135	0.60914	2.78161							0.531724	2.42821	0.704228	3.21743				
0.4615	2.10114	0.460555	2.08145	0.610183	2.77835							0.532953	2.42682	0.705108	3.21217				
0.462797	2.101	0.461894	2.08156	0.611228	2.77511							0.534184	2.42544	0.705991	3.20695				
0.464093	2.10085	0.463233	2.08166	0.612274	2.77191							0.535416	2.42407	0.706875	3.20177				
0.46539	2.10071	0.464572	2.08176	0.613323	2.76872							0.536649	2.42272	0.707761	3.19662				
0.466687	2.10056	0.465911	2.08186	0.614373	2.76557							0.537884	2.42138	0.708649	3.19152				
0.467985	2.10042	0.467249	2.08195	0.615424	2.76244							0.539119	2.42005	0.709539	3.18645				
0.469282	2.10029	0.468588	2.08205	0.616478	2.75933							0.540356	2.41873	0.710431	3.18142				
0.47058	2.10015	0.469926	2.08215	0.617533	2.75625							0.541594	2.41743	0.711324	3.17642				
0.471878	2.10002	0.471264	2.08224	0.618589	2.7532							0.542833	2.41614	0.71222	3.17146				
0.473177	2.09989	0.472602	2.08233	0.619647	2.75016							0.544073	2.41486	0.713117	3.16654				
0.474475	2.09976	0.47394	2.08242	0.620707	2.74716							0.545314	2.41359	0.714016	3.16166				
0.475774	2.09963	0.475278	2.08252	0.621769	2.74417							0.546556	2.41234	0.714917	3.1568				
0.477073	2.0995	0.476616	2.08261	0.622832	2.74121							0.547799	2.41109	0.71582	3.15199				
0.478373	2.09938	0.477953	2.08269	0.623897	2.73828							0.549044	2.40986	0.716724	3.14721				
0.479672	2.09925	0.479291	2.08278	0.624963	2.73537							0.550289	2.40864	0.717631	3.14246				
0.480972	2.09913	0.480628	2.08287	0.626031	2.73248							0.551536	2.40743	0.718539	3.13775				
0.482273	2.09901	0.481965	2.08296	0.627101	2.72961							0.552783	2.40624	0.719449	3.13307				
0.483573	2.09889	0.483303	2.08304	0.628172	2.72676							0.554032	2.40505	0.720361	3.12842				
0.484873	2.09878	0.484639	2.08312	0.629244	2.72394							0.555281	2.40388						
0.486174	2.09866	0.485976	2.08321	0.630318	2.72114							0.556532	2.40271						
0.487475	2.09855	0.487313	2.08329	0.631394	2.71837							0.557784	2.40156						
0.488777	2.09844	0.48865	2.08337	0.632472	2.71561							0.559036	2.40042						
0.490078	2.09833	0.489986	2.08345	0.63355	2.71287							0.56029	2.39928						
0.49138	2.09822	0.491322	2.08353	0.634631	2.71016							0.561545	2.39816						
0.492682	2.09811	0.492659	2.08361	0.635713	2.70747							0.562801	2.39705						
0.493984	2.09801	0.493995	2.08369	0.636796	2.7048							0.564057	2.39595						
0.495286	2.0979	0.495331	2.08376	0.637881	2.70215							0.565315	2.39486						
0.496589	2.0978	0.496667	2.08384	0.638967	2.69952							0.566574	2.39377						
0.497892	2.0977	0.498003	2.08391	0.640055	2.6969							0.567833	2.3927						
0.499195	2.0976	0.499338	2.08399	0.641144	2.69431							0.569094	2.39164						
0.500498	2.0975	0.500674	2.08406	0.642235	2.69174							0.570355	2.39059						
0.501801	2.09741	0.502009	2.08413	0.643327	2.68919							0.571618	2.38955						
0.503105	2.09731	0.503345	2.0842	0.644421	2.68666							0.572881	2.38851						
0.504408	2.09722	0.50468	2.08427	0.645516	2.68415							0.574146	2.38749						
0.505712	2.09712	0.506015	2.08434	0.646613	2.68166							0.575411	2.38647						
0.507017	2.09703	0.50735	2.08441	0.647711	2.67918							0.576677	2.38547						
0.508321	2.09694	0.508685	2.08448	0.64881	2.67673							0.577944	2.38447						
0.509625	2.09685	0.51002	2.08455	0.649911	2.67429							0.579212	2.38348						
0.51093	2.09676	0.511354	2.08461	0.651013	2.67188							0.580481	2.3825						
0.512235	2.09668	0.512689	2.08468	0.652117	2.66948							0.581751	2.38153						
0.51354	2.09659	0.514024	2.08474	0.653222	2.66709							0.583021	2.38057						
0.514845	2.09651	0.515358	2.08481	0.654328	2.66473							0.584293	2.37962						
0.516151	2.09642	0.516692	2.08487	0.655436	2.66238							0.585565	2.37867						
0.517456	2.09634	0.518026	2.08493	0.656545	2.66006							0.586838	2.37774						
0.518762	2.09626	0.51936	2.085	0.657656	2.65774							0.588112	2.37681						
0.520068	2.09618	0.520694	2.08506	0.658767	2.65545							0.589387	2.37589						
0.521374	2.0961	0.522028	2.08512	0.659881	2.65317							0.590663	2.37497						
0.522681	2.09602	0.523362	2.08518	0.660995	2.65091							0.59194	2.37407						
0.523987	2.09595	0.524696	2.08524	0.662111	2.64867							0.593217	2.37317						
0.525294	2.09587	0.526029	2.0853	0.663228	2.64644							0.594495	2.37229						
0.526601	2.0958	0.527363	2.08535	0.664346	2.64423							0.595775	2.37141						
0.527907	2.09572	0.528696	2.08541	0.665466	2.64204							0.597055	2.37053						
0.529215	2.09565	0.53003	2.08547	0.666587	2.63986							0.598335	2.36967						
0.530522	2.09558	0.531363	2.08552	0.66771	2.6377							0.599617	2.36881						
0.531829	2.09551	0.532696	2.08558	0.668833	2.63555							0.600899	2.36796						
0.533137	2.09544	0.534029	2.08563	0.669958	2.63342							0.602182	2.36712						
0.534445	2.09537	0.535362	2.08569	0.671085	2.63131							0.603466	2.36628						
0.535752	2.0953	0.536695	2.08574	0.672212	2.62921							0.604751	2.36545						
0.53706	2.09523	0.538027	2.08579	0.673341	2.62713							0.606036	2.36463						
0.538369	2.09517	0.53936	2.08585	0.674471	2.62506							0.607322	2.36381						
0.539677	2.0951	0.540692	2.0859	0.675602	2.623							0.608609	2.36301						
0.540985	2.09504	0.542025	2.08595	0.676734	2.62096							0.609897	2.36221						
0.542294	2.09497	0.543357	2.086	0.677868	2.61894							0.611186	2.36141						
0.543603	2.09491	0.544689	2.08605	0.679003	2.61693							0.612475	2.36062						
0.544912	2.09485	0.546022	2.0861	0.680139	2.61493							0.613765	2.35984						
0.546221	2.09479	0.547354	2.08614	0.681276	2.61295							0.615056	2.35907						
0.54753	2.09473	0.548686	2.08619	0.682415	2.61099							0.616347	2.3583						
0.548839	2.09467	0.550018	2.08624	0.683555	2.60903							0.617639	2.35754						
0.550149	2.09461	0.55135	2.08629	0.684696	2.6071							0.618932	2.35679						
0.551458	2.09455	0.552681	2.08633	0.685838	2.60517							0.620226	2.35604						
0.552768	2.0945	0.554013	2.08638	0.686981	2.60326							0.62152	2.3553						
0.554078	2.09444	0.555344	2.08642	0.688125	2.60136							0.622815	2.35456						
0.555388	2.09439	0.556676	2.08647	0.689271	2.59948							0.624111	2.35383						
0.556698	2.09433	0.558007	2.08651	0.690418	2.59761							0.625407	2.35311						
0.558008	2.09428	0.559339	2.08656	0.691566	2.59575							0.626704	2.35239						
0.559318	2.09422	0.56067	2.0866	0.692715	2.5939							0.628002	2.35168						
0.560629	2.09417	0.562001	2.08664	0.693865	2.59207							0.629301	2.35097						
0.561939	2.09412	0.563332	2.08668	0.695016	2.59025							0.6306	2.35027						
0.56325	2.09407	0.564663	2.08673	0.696169	2.58845							0.631899	2.34958						
0.564561	2.09402	0.565994	2.08677	0.697322	2.58665							0.6332	2.34889						
0.565872	2.09397	0.567325	2.08681	0.698477	2.58487							0.634501	2.34821						
0.567183	2.09392	0.568656	2.08685	0.699633	2.5831							0.635803	2.34753						
0.568494	2.09387	0.569986	2.08689	0.70079	2.58135							0.637105	2.34686						
0.569805	2.09382	0.571317	2.08693	0.701948	2.5796							0.638408	2.34619						
0.571116	2.09378	0.572648	2.08697	0.703107	2.57787							0.639712	2.34553						
0.572428	2.09373	0.573978	2.087	0.704267	2.57615							0.641017	2.34488						
0.573739	2.09368	0.575308	2.08704	0.705429	2.57444							0.642322	2.34423						
0.575051	2.09364	0.576639	2.08708	0.706591	2.57275							0.643627	2.34358						
0.576363	2.09359	0.577969	2.08712	0.707754	2.57106							0.644933	2.34295						
0.577675	2.09355	0.579299	2.08715	0.708919	2.56939							0.64624	2.34231						
0.578987	2.09351	0.580629	2.08719	0.710084	2.56773							0.647548	2.34168						
0.580299	2.09346	0.581959	2.08722	0.711251	2.56608							0.648856	2.34106						
0.581611	2.09342	0.583289	2.08726	0.712419	2.56444							0.650165	2.34044						
0.582924	2.09338	0.584619	2.0873	0.713587	2.56281							0.651474	2.33983						
0.584236	2.09334	0.585949	2.08733	0.714757	2.5612							0.652784	2.33922						
0.585549	2.0933	0.587278	2.08736	0.715928	2.55959							0.654094	2.33861						
0.586861	2.09326	0.588608	2.0874	0.7171	2.558							0.655405	2.33801						
0.588174	2.09322	0.589938	2.08743	0.718273	2.55641							0.656717	2.33742						
0.589487	2.09318	0.591267	2.08746	0.719446	2.55484							0.658029	2.33683						
0.5908	2.09314	0.592597	2.0875	0.720621	2.55328							0.659342	2.33624						
0.592113	2.0931	0.593926	2.08753									0.660656	2.33566						
0.593426	2.09306	0.595255	2.08756									0.661969	2.33509						
0.594739	2.09302	0.596585	2.08759									0.663284	2.33452						
0.596052	2.09299	0.597914	2.08762									0.664599	2.33395						
0.597366	2.09295	0.599243	2.08765									0.665915	2.33339						
0.598679	2.09292	0.600572	2.08768									0.667231	2.33283						
0.599993	2.09288	0.601901	2.08771									0.668548	2.33228						
0.601306	2.09285	0.60323	2.08774									0.669865	2.33173						
0.60262	2.09281	0.604559	2.08777									0.671183	2.33118						
0.603934	2.09278	0.605887	2.0878									0.672501	2.33064						
0.605248	2.09274	0.607216	2.08783									0.67382	2.33011						
0.606562	2.09271	0.608545	2.08786									0.67514	2.32957						
0.607876	2.09268	0.609873	2.08788									0.67646	2.32905						
0.60919	2.09265	0.611202	2.08791									0.67778	2.32852						
0.610504	2.09261	0.61253	2.08794									0.679101	2.328						
0.611819	2.09258	0.613859	2.08797									0.680423	2.32749						
0.613133	2.09255	0.615187	2.08799									0.681745	2.32697						
0.614448	2.09252	0.616515	2.08802									0.683067	2.32647						
0.615762	2.09249	0.617844	2.08804									0.684391	2.32596						
0.617077	2.09246	0.619172	2.08807									0.685714	2.32546						
0.618392	2.09243	0.6205	2.0881									0.687038	2.32497						
0.619706	2.0924	0.621828	2.08812									0.688363	2.32447						
0.621021	2.09238	0.623156	2.08814									0.689688	2.32398						
0.622336	2.09235	0.624484	2.08817									0.691013	2.3235						
0.623651	2.09232	0.625812	2.08819									0.692339	2.32302						
0.624966	2.09229	0.62714	2.08822									0.693666	2.32254						
0.626281	2.09226	0.628467	2.08824									0.694993	2.32207						
0.627597	2.09224	0.629795	2.08826									0.69632	2.3216						
0.628912	2.09221	0.631123	2.08829									0.697648	2.32113						
0.630227	2.09219	0.632451	2.08831									0.698977	2.32067						
0.631543	2.09216	0.633778	2.08833									0.700306	2.32021						
0.632858	2.09213	0.635106	2.08835									0.701635	2.31975						
0.634174	2.09211	0.636433	2.08838									0.702965	2.3193						
0.63549	2.09208	0.63776	2.0884									0.704295	2.31885						
0.636805	2.09206	0.639088	2.08842									0.705626	2.3184						
0.638121	2.09204	0.640415	2.08844									0.706957	2.31796						
0.639437	2.09201	0.641742	2.08846									0.708289	2.31752						
0.640753	2.09199	0.64307	2.08848									0.709621	2.31708						
0.642069	2.09197	0.644397	2.0885									0.710953	2.31665						
0.643385	2.09194	0.645724	2.08852									0.712286	2.31622						
0.644701	2.09192	0.647051	2.08854									0.71362	2.31579						
0.646017	2.0919	0.648378	2.08856									0.714953	2.31537						
0.647333	2.09188	0.649705	2.08858									0.716288	2.31495						
0.648649	2.09185	0.651032	2.0886									0.717622	2.31453						
0.649966	2.09183	0.652359	2.08862									0.718957	2.31411						
0.651282	2.09181	0.653685	2.08864									0.720293	2.3137						
0.652599	2.09179	0.655012	2.08866																
0.653915	2.09177	0.656339	2.08867																
0.655232	2.09175	0.657666	2.08869																
0.656548	2.09173	0.658992	2.08871																
0.657865	2.09171	0.660319	2.08873																
0.659182	2.09169	0.661645	2.08875																
0.660499	2.09167	0.662972	2.08876																
0.661815	2.09165	0.664298	2.08878																
0.663132	2.09163	0.665625	2.0888																
0.664449	2.09161	0.666951	2.08881																
0.665766	2.0916	0.668277	2.08883																
0.667083	2.09158	0.669604	2.08885																
0.6684	2.09156	0.67093	2.08886																
0.669718	2.09154	0.672256	2.08888																
0.671035	2.09152	0.673582	2.08889																
0.672352	2.09151	0.674908	2.08891																
0.673669	2.09149	0.676234	2.08892																
0.674987	2.09147	0.67756	2.08894																
0.676304	2.09146	0.678886	2.08895																
0.677621	2.09144	0.680212	2.08897																
0.678939	2.09142	0.681538	2.08898																
0.680257	2.09141	0.682864	2.089																
0.681574	2.09139	0.68419	2.08901																
0.682892	2.09138	0.685516	2.08903																
0.684209	2.09136	0.686842	2.08904																
0.685527	2.09135	0.688167	2.08905																
0.686845	2.09133	0.689493	2.08907																
0.688163	2.09132	0.690819	2.08908																
0.689481	2.0913	0.692144	2.08909																
0.690799	2.09129	0.69347	2.08911																
0.692116	2.09127	0.694795	2.08912																
0.693434	2.09126	0.696121	2.08913																
0.694752	2.09125	0.697446	2.08914																
0.696071	2.09123	0.698772	2.08916																
0.697389	2.09122	0.700097	2.08917																
0.698707	2.0912	0.701423	2.08918																
0.700025	2.09119	0.702748	2.08919																
0.701343	2.09118	0.704073	2.0892																
0.702661	2.09117	0.705398	2.08922																
0.70398	2.09115	0.706724	2.08923																
0.705298	2.09114	0.708049	2.08924																
0.706616	2.09113	0.709374	2.08925																
0.707935	2.09112	0.710699	2.08926																
0.709253	2.0911	0.712024	2.08927																
0.710572	2.09109	0.713349	2.08928																
0.71189	2.09108	0.714674	2.08929																
0.713209	2.09107	0.715999	2.0893																
0.714528	2.09106	0.717324	2.08931																
0.715846	2.09105	0.718649	2.08932																
0.717165	2.09103	0.719974	2.08934																
0.718484	2.09102	0.721299	2.08935																
0.719802	2.09101																		
0.721121	2.091																		
