Sym0		Asym0		Sym1		Sym2		Sym3		Sym4		Asym1		Asym2		Asym3		Asym4	
557  Points		557  Points		460  Points		257  Points		230  Points		174  Points		502  Points		390  Points		228  Points		166  Points	
Freq (MHz)	Vph (m/ms)	Freq (MHz)	Vph (m/ms)	Freq (MHz)	Vph (m/ms)	Freq (MHz)	Vph (m/ms)	Freq (MHz)	Vph (m/ms)	Freq (MHz)	Vph (m/ms)	Freq (MHz)	Vph (m/ms)	Freq (MHz)	Vph (m/ms)	Freq (MHz)	Vph (m/ms)	Freq (MHz)	Vph (m/ms)
0.00241281	4.76162	2.40168e-005	0.0407341	0.170488	327.396	0.279528	453.276	0.511469	2711.25	0.55902	2093.03	0.139757	804.494	0.340979	1145.84	0.41927	1000.65	0.681957	3279.17
0.00542415	4.76147	0.000103065	0.0843379	0.170478	147.831	0.279587	223.824	0.511453	622.886	0.559054	621.487	0.139813	173.427	0.340969	366.62	0.419309	398.789	0.681905	811.384
0.00843521	4.76127	0.000237091	0.127846	0.170461	95.4617	0.279686	148.643	0.511418	351.838	0.559126	364.965	0.13994	97.273	0.340948	218.208	0.41938	249.052	0.681792	462.898
0.0114456	4.7609	0.000425605	0.171134	0.170437	70.4838	0.279825	111.305	0.511362	245.139	0.559233	258.372	0.140139	67.6643	0.340917	155.319	0.419485	181.096	0.68162	323.759
0.0144554	4.76047	0.000668068	0.214164	0.170407	55.8608	0.280004	88.989	0.511288	188.079	0.559378	199.998	0.140408	51.9349	0.340876	120.561	0.419623	142.302	0.681395	248.885
0.0174641	4.75992	0.000963727	0.256865	0.170369	46.2581	0.280223	74.1534	0.511194	152.553	0.559558	163.167	0.140748	42.1907	0.340824	98.5082	0.419793	117.219	0.68112	202.098
0.0204717	4.75925	0.00131174	0.299187	0.170326	39.4687	0.280481	63.5806	0.511083	128.304	0.559773	137.813	0.141157	35.5698	0.340763	83.269	0.419996	99.6731	0.680802	170.086
0.0234779	4.75848	0.00171105	0.341065	0.170276	34.4137	0.280777	55.6671	0.510953	110.696	0.560024	119.299	0.141635	30.7841	0.340692	72.1077	0.42023	86.7136	0.680445	146.801
0.0264825	4.75759	0.00216046	0.382433	0.170222	30.5036	0.281113	49.5237	0.510806	97.3281	0.560308	105.188	0.142179	27.1679	0.340612	63.58	0.420497	76.7521	0.680056	129.101
0.0294852	4.75658	0.00265885	0.423269	0.170162	27.3887	0.281486	44.6182	0.510643	86.8331	0.560626	94.0777	0.14279	24.3427	0.340523	56.8517	0.420795	68.8576	0.679639	115.192
0.0324858	4.75546	0.00320477	0.463508	0.170098	24.8489	0.281898	40.612	0.510465	78.3739	0.560977	85.1043	0.143465	22.0774	0.340426	51.4073	0.421125	62.4485	0.679198	103.972
0.0354841	4.7542	0.00379681	0.503115	0.17003	22.7381	0.282346	37.2799	0.510272	71.41	0.56136	77.7065	0.144203	20.2228	0.340321	46.9111	0.421485	57.1426	0.678738	94.7299
0.0384797	4.75281	0.00443352	0.542058	0.169959	20.9561	0.282832	34.4658	0.510065	65.5769	0.561773	71.5037	0.145003	18.6782	0.340208	43.135	0.421875	52.6786	0.678261	86.9852
0.0414723	4.75129	0.00511338	0.580306	0.169885	19.4317	0.283353	32.0586	0.509845	60.6195	0.562216	66.2287	0.145862	17.3735	0.340088	39.9188	0.422295	48.8715	0.677772	80.4011
0.0444616	4.74962	0.00583474	0.617827	0.16981	18.1128	0.283911	29.9766	0.509613	56.3543	0.562689	61.6884	0.146779	16.258	0.339962	37.1463	0.422744	45.5868	0.677273	74.7348
0.0474473	4.7478	0.00659601	0.654598	0.169733	16.9605	0.284503	28.1588	0.50937	52.6455	0.563189	57.7398	0.147753	15.2945	0.339829	34.7317	0.423221	42.7245	0.676765	69.807
0.0504291	4.74582	0.0073956	0.690604	0.169657	15.9452	0.28513	26.5584	0.509117	49.3908	0.563717	54.2746	0.148781	14.4546	0.339691	32.6097	0.423727	40.2084	0.676252	65.4822
0.0534064	4.74367	0.00823186	0.725828	0.169582	15.0439	0.28579	25.139	0.508855	46.5116	0.56427	51.2096	0.149862	13.7168	0.339549	30.7303	0.424261	37.9797	0.675734	61.6562
0.0563789	4.74134	0.00910315	0.760256	0.169508	14.2385	0.286484	23.8719	0.508585	43.9464	0.564849	48.4796	0.150994	13.0641	0.339402	29.054	0.424822	35.9921	0.675214	58.2474
0.059346	4.73882	0.0100079	0.793885	0.169437	13.5146	0.287211	22.7343	0.508308	41.6465	0.565453	46.0326	0.152175	12.4832	0.339251	27.5495	0.425409	34.2088	0.674692	55.1912
0.0623073	4.7361	0.0109446	0.826711	0.169371	12.8605	0.287969	21.7076	0.508024	39.5726	0.56608	43.8271	0.153403	11.9632	0.339098	26.1919	0.426022	32.6001	0.67417	52.4357
0.0652621	4.73315	0.0119115	0.858727	0.169309	12.2667	0.288758	20.7766	0.507735	37.6932	0.566729	41.8292	0.154676	11.4956	0.338942	24.9605	0.42666	31.1418	0.673648	49.9386
0.0682098	4.72998	0.0129073	0.889937	0.169253	11.7254	0.289578	19.9287	0.507441	35.9819	0.567401	40.011	0.155993	11.073	0.338784	23.8386	0.427323	29.8139	0.673128	47.6653
0.0711497	4.72655	0.0139304	0.920347	0.169205	11.23	0.290427	19.1535	0.507144	34.4173	0.568093	38.3495	0.157352	10.6895	0.338626	22.8122	0.42801	28.5998	0.672611	45.587
0.074081	4.72285	0.0149795	0.94996	0.169166	10.7751	0.291306	18.4422	0.506843	32.9813	0.568806	36.8254	0.158751	10.3403	0.338467	21.8697	0.428721	27.4858	0.672096	43.6798
0.0770029	4.71886	0.016053	0.978785	0.169137	10.3561	0.292213	17.7874	0.506541	31.6587	0.569538	35.4224	0.160188	10.0211	0.338308	21.0012	0.429454	26.4599	0.671585	41.9234
0.0799144	4.71456	0.0171498	1.00683	0.16912	9.96898	0.293147	17.1828	0.506237	30.4366	0.570288	34.1267	0.161662	9.72841	0.33815	20.1984	0.43021	25.5123	0.671078	40.3006
0.0828143	4.7099	0.0182684	1.03411	0.169116	9.61047	0.294108	16.6229	0.505932	29.304	0.571057	32.9265	0.163172	9.45922	0.337993	19.4541	0.430988	24.6345	0.670576	38.7969
0.0857014	4.70487	0.0194078	1.06063	0.169127	9.27767	0.295096	16.1031	0.505628	28.2515	0.571843	31.8117	0.164714	9.21094	0.337839	18.7622	0.431787	23.8191	0.670079	37.3996
0.0885745	4.69943	0.0205665	1.08641	0.169156	8.9681	0.296109	15.6193	0.505324	27.2708	0.572645	30.7737	0.166289	8.98135	0.337687	18.1174	0.432607	23.0598	0.669587	36.0979
0.0914318	4.69353	0.0217437	1.11146	0.169204	8.6796	0.297147	15.168	0.505021	26.3549	0.573464	29.8047	0.167894	8.76852	0.337539	17.5152	0.433446	22.351	0.669101	34.8824
0.0942717	4.68714	0.0229382	1.13579	0.169273	8.4103	0.298209	14.7462	0.504721	25.4977	0.574298	28.8981	0.169528	8.57077	0.337395	16.9514	0.434305	21.688	0.668621	33.7447
0.0970921	4.6802	0.0241489	1.15943	0.169366	8.15857	0.299295	14.351	0.504423	24.6937	0.575147	28.0482	0.17119	8.38662	0.337255	16.4225	0.435184	21.0665	0.668148	32.6778
0.099891	4.67266	0.0253749	1.18239	0.169486	7.92296	0.300403	13.9802	0.504128	23.9381	0.576011	27.2499	0.172878	8.21477	0.337121	15.9255	0.43608	20.4828	0.667681	31.6752
0.102666	4.66445	0.0266153	1.20469	0.169636	7.70224	0.301533	13.6316	0.503837	23.2267	0.576888	26.4985	0.17459	8.0541	0.336993	15.4577	0.436995	19.9336	0.667222	30.7313
0.105413	4.65551	0.027869	1.22633	0.169819	7.4953	0.302685	13.3033	0.50355	22.5558	0.577779	25.7902	0.176326	7.90359	0.336872	15.0165	0.437927	19.416	0.66677	29.8412
0.10813	4.64574	0.0291355	1.24734	0.170008	7.32546	0.303857	12.9936	0.503268	21.9221	0.578682	25.1213	0.178085	7.76234	0.336758	14.5998	0.438876	18.9273	0.666325	29.0004
0.110813	4.63507	0.0304137	1.26774	0.170193	7.18793	0.30505	12.7011	0.502991	21.3227	0.579598	24.4887	0.179864	7.62956	0.336652	14.2057	0.439841	18.4653	0.665888	28.205
0.113458	4.62339	0.0317031	1.28754	0.170365	7.07901	0.306262	12.4244	0.50272	20.7547	0.580526	23.8896	0.181662	7.50453	0.336555	13.8324	0.440823	18.0278	0.665459	27.4515
0.11606	4.6106	0.0330028	1.30676	0.170513	6.99586	0.307493	12.1623	0.502455	20.2159	0.581465	23.3213	0.183479	7.3866	0.336466	13.4784	0.441819	17.6131	0.665038	26.7365
0.118614	4.59657	0.0343121	1.32542	0.170629	6.93634	0.308742	11.9137	0.502196	19.7041	0.582416	22.7815	0.185314	7.27521	0.336388	13.1423	0.442831	17.2192	0.664625	26.0574
0.121114	4.58116	0.0356306	1.34352	0.170706	6.89896	0.310008	11.6776	0.501945	19.2174	0.583378	22.2682	0.186925	7.18306	0.33632	12.8228	0.443858	16.8449	0.66422	25.4114
0.123554	4.56426	0.0369575	1.3611	0.170823	6.84617	0.311292	11.4531	0.501701	18.7539	0.58435	21.7795	0.188308	7.10788	0.336263	12.5188	0.444898	16.4886	0.663825	24.7963
0.125926	4.54569	0.0382924	1.37816	0.170956	6.79005	0.312592	11.2394	0.501465	18.3122	0.585332	21.3137	0.189458	7.04792	0.336218	12.2291	0.445952	16.1492	0.663438	24.2099
0.128224	4.52534	0.0396345	1.39472	0.171149	6.71577	0.313908	11.0357	0.501237	17.8907	0.586324	20.8692	0.190371	7.00185	0.336185	11.953	0.44702	15.8254	0.663061	23.6503
0.13044	4.50304	0.0409836	1.41079	0.171413	6.62512	0.315238	10.8414	0.501018	17.4881	0.587325	20.4446	0.191044	6.96871	0.336166	11.6894	0.4481	15.5162	0.662692	23.1157
0.132567	4.47867	0.042339	1.42639	0.171764	6.52029	0.316584	10.6559	0.500808	17.1032	0.588335	20.0386	0.191475	6.94781	0.33616	11.4377	0.449193	15.2207	0.662333	22.6045
0.134597	4.45213	0.0437003	1.44154	0.172224	6.40377	0.317944	10.4786	0.500608	16.7349	0.589354	19.6501	0.192097	6.9182	0.336169	11.197	0.450298	14.938	0.661983	22.1152
0.136525	4.42335	0.0450672	1.45625	0.172821	6.27833	0.319317	10.309	0.500417	16.3821	0.590382	19.2778	0.192774	6.88656	0.336193	10.9668	0.451414	14.6673	0.661643	21.6465
0.138344	4.39229	0.0464392	1.47053	0.1735	6.16144	0.320702	10.1466	0.500236	16.044	0.591418	18.9209	0.193697	6.84442	0.336232	10.7464	0.452542	14.4079	0.661313	21.1971
0.140052	4.35898	0.0478159	1.4844	0.174269	6.05278	0.322101	9.99088	0.500066	15.7197	0.592462	18.5784	0.194868	6.79256	0.336288	10.5352	0.453681	14.159	0.660993	20.7659
0.141646	4.3235	0.049197	1.49786	0.175134	5.9521	0.323511	9.84155	0.499907	15.4084	0.593513	18.2494	0.196289	6.73186	0.336362	10.3328	0.45483	13.9201	0.660682	20.3517
0.143128	4.28598	0.0505823	1.51094	0.176105	5.85915	0.324932	9.69819	0.499759	15.1093	0.594572	17.9332	0.197964	6.66333	0.336453	10.1386	0.455989	13.6906	0.660382	19.9538
0.144499	4.24661	0.0519712	1.52365	0.177187	5.77367	0.326364	9.56046	0.499622	14.8217	0.595638	17.6291	0.199893	6.58803	0.336564	9.95229	0.457158	13.4699	0.660093	19.571
0.145764	4.20563	0.0531844	1.53442	0.178387	5.69539	0.327806	9.42803	0.499498	14.5451	0.596711	17.3363	0.20183	6.51605	0.336694	9.77335	0.458336	13.2576	0.659814	19.2027
0.14693	4.16329	0.0542206	1.5434	0.179709	5.62401	0.329258	9.30061	0.499385	14.2789	0.597791	17.0543	0.203774	6.44715	0.336844	9.60145	0.459524	13.0531	0.659546	18.8479
0.148003	4.11987	0.0550787	1.55067	0.181154	5.55923	0.330718	9.17791	0.499285	14.0224	0.598877	16.7825	0.205723	6.38113	0.337015	9.43622	0.46072	12.8562	0.659288	18.5061
0.148992	4.07564	0.0557579	1.55634	0.182725	5.50065	0.332188	9.05967	0.499198	13.7753	0.599969	16.5203	0.207676	6.31778	0.337209	9.27735	0.461924	12.6662	0.659042	18.1765
0.149904	4.03087	0.0562578	1.56045	0.184418	5.4479	0.333665	8.94566	0.499125	13.537	0.601068	16.2673	0.209633	6.25692	0.337425	9.12453	0.463137	12.483	0.658807	17.8585
0.15075	3.98581	0.0565779	1.56306	0.18623	5.40053	0.33515	8.83565	0.499065	13.3071	0.602172	16.0229	0.211592	6.19838	0.337665	8.97748	0.464357	12.3061	0.658583	17.5515
0.151535	3.94068	0.0570383	1.56679	0.188155	5.3581	0.336642	8.72943	0.499018	13.0852	0.603281	15.7867	0.213552	6.14201	0.337929	8.83593	0.465585	12.1352	0.658371	17.255
0.152269	3.89568	0.057539	1.57079	0.190187	5.32015	0.33814	8.62681	0.498987	12.8709	0.604396	15.5584	0.215512	6.08765	0.33822	8.69965	0.466819	11.9701	0.65817	16.9685
0.152957	3.85099	0.0582205	1.57618	0.192318	5.28624	0.339645	8.52759	0.498969	12.6639	0.605516	15.3375	0.217471	6.03518	0.338536	8.56841	0.468061	11.8104	0.657981	16.6915
0.153608	3.80675	0.0590832	1.58289	0.19454	5.25593	0.341154	8.43161	0.498967	12.4638	0.606641	15.1238	0.219428	5.98445	0.33888	8.44198	0.469308	11.6559	0.657804	16.4235
0.154225	3.76307	0.0601276	1.59084	0.196844	5.22883	0.342669	8.3387	0.49898	12.2703	0.607771	14.9167	0.221382	5.93536	0.339253	8.32017	0.470562	11.5063	0.657639	16.1641
0.15474	3.72554	0.0613542	1.59996	0.199222	5.20456	0.344188	8.24871	0.499009	12.083	0.608905	14.7161	0.223332	5.88779	0.339654	8.20279	0.471822	11.3614	0.657486	15.913
0.155165	3.69399	0.0627635	1.61016	0.201667	5.1828	0.345711	8.16151	0.499053	11.9019	0.610043	14.5217	0.225275	5.84163	0.340087	8.08966	0.473086	11.2209	0.657346	15.6697
0.155508	3.66823	0.0641746	1.62008	0.206728	5.14559	0.347238	8.07694	0.499114	11.7264	0.611186	14.3331	0.227212	5.79679	0.34055	7.98063	0.474357	11.0848	0.657219	15.434
0.155775	3.64807	0.0655872	1.62972	0.209331	5.12965	0.348767	7.9949	0.499192	11.5565	0.612332	14.1501	0.229142	5.75318	0.341046	7.87553	0.475631	10.9527	0.657104	15.2055
0.155968	3.63338	0.0670013	1.6391	0.211977	5.1152	0.350298	7.91525	0.499287	11.3919	0.613482	13.9725	0.231062	5.71071	0.341576	7.77421	0.476911	10.8245	0.657002	14.9838
0.156091	3.62403	0.0684167	1.64822	0.21466	5.10206	0.351832	7.83789	0.499399	11.2324	0.614635	13.7999	0.232971	5.66929	0.34214	7.67655	0.478194	10.7	0.656913	14.7688
0.156266	3.61067	0.0698332	1.65709	0.217375	5.09009	0.353366	7.76271	0.499529	11.0778	0.615792	13.6323	0.23487	5.62885	0.342739	7.5824	0.479482	10.5791	0.656838	14.5601
0.156454	3.59626	0.0712507	1.66573	0.220119	5.07913	0.354902	7.68961	0.499678	10.9278	0.616952	13.4694	0.236755	5.58932	0.343292	7.50314	0.480773	10.4616	0.656776	14.3574
0.156708	3.57684	0.072669	1.67414	0.22289	5.06908	0.356438	7.61848	0.499845	10.7823	0.618115	13.311	0.238627	5.55062	0.343785	7.43755	0.482067	10.3474	0.656727	14.1606
0.157025	3.55258	0.0740881	1.68232	0.225683	5.05983	0.357974	7.54926	0.50003	10.6411	0.61928	13.1569	0.240483	5.5127	0.344209	7.38465	0.483365	10.2363	0.656693	13.9693
0.157405	3.52371	0.0755079	1.69028	0.228497	5.05129	0.359311	7.49041	0.500236	10.5041	0.620448	13.007	0.242322	5.47549	0.344554	7.34366	0.484665	10.1282	0.656672	13.7834
0.157844	3.49048	0.0769283	1.69804	0.231329	5.04339	0.360451	7.44128	0.500461	10.3711	0.621619	12.861	0.244144	5.43893	0.344814	7.31399	0.485967	10.0229	0.656666	13.6027
0.158343	3.45322	0.0783491	1.70559	0.234178	5.03605	0.361393	7.40136	0.500706	10.2419	0.622791	12.7188	0.245947	5.40297	0.344983	7.2952	0.487271	9.9204	0.656674	13.427
0.158838	3.41689	0.0797703	1.71294	0.237041	5.02922	0.362137	7.37023	0.500971	10.1165	0.623966	12.5803	0.24773	5.36756	0.34523	7.26848	0.488577	9.82054	0.656696	13.256
0.159331	3.38149	0.0811918	1.72011	0.239917	5.02284	0.362684	7.34759	0.501258	9.99464	0.625142	12.4453	0.249492	5.33265	0.345503	7.23979	0.489885	9.72322	0.656734	13.0897
0.159823	3.34701	0.0826134	1.72709	0.242805	5.01687	0.363034	7.3332	0.501565	9.87623	0.62632	12.3137	0.25123	5.29819	0.345882	7.20139	0.491194	9.62833	0.656786	12.9277
0.160316	3.31344	0.0840353	1.73388	0.245703	5.01127	0.363536	7.31266	0.501895	9.76116	0.627499	12.1854	0.252946	5.26415	0.346376	7.1538	0.492503	9.53579	0.656854	12.7701
0.160811	3.28077	0.0854572	1.74051	0.248611	5.006	0.364083	7.29052	0.502246	9.64931	0.628679	12.0602	0.254636	5.23048	0.346994	7.0977	0.493814	9.44549	0.656937	12.6166
0.161308	3.24899	0.0868792	1.74697	0.251526	5.00102	0.364825	7.26072	0.50262	9.54057	0.62986	11.938	0.256301	5.19716	0.347749	7.03384	0.495124	9.35736	0.657035	12.467
0.161808	3.21808	0.0883011	1.75326	0.25445	4.99632	0.365762	7.22352	0.503017	9.43483	0.631043	11.8188	0.257938	5.16414	0.348655	6.96309	0.496434	9.2713	0.657149	12.3213
0.162313	3.18802	0.089723	1.7594	0.257379	4.99185	0.366895	7.17927	0.503438	9.33201	0.632226	11.7023	0.259549	5.1314	0.349604	6.89496	0.497745	9.18726	0.65728	12.1794
0.162823	3.15879	0.0911446	1.76539	0.260315	4.98761	0.36822	7.12833	0.503882	9.23201	0.633409	11.5885	0.26113	5.09892	0.350598	6.82937	0.499054	9.10513	0.657426	12.041
0.163338	3.13038	0.0925661	1.77122	0.263256	4.98357	0.369738	7.07114	0.504349	9.13473	0.634592	11.4774	0.262683	5.06666	0.351636	6.76624	0.500363	9.02487	0.657589	11.906
0.16386	3.10277	0.0939874	1.77691	0.266201	4.9797	0.371251	7.01522	0.504842	9.0401	0.635776	11.3687	0.264205	5.0346	0.352719	6.70548	0.50167	8.9464	0.657768	11.7744
0.164388	3.07593	0.0954084	1.78246	0.269151	4.976	0.372759	6.96053	0.505359	8.94802	0.636959	11.2625	0.265697	5.00274	0.353848	6.64702	0.502976	8.86965	0.657964	11.6461
0.164922	3.04984	0.0968291	1.78788	0.272103	4.97245	0.374261	6.90702	0.505901	8.85842	0.638143	11.1587	0.267158	4.97105	0.355023	6.59078	0.50428	8.79456	0.658178	11.5209
0.165465	3.02449	0.0982495	1.79317	0.275059	4.96903	0.375758	6.85464	0.506469	8.77123	0.639325	11.0571	0.268587	4.93952	0.356243	6.53669	0.505582	8.72108	0.658408	11.3988
0.166014	2.99986	0.0996694	1.79832	0.278017	4.96573	0.377249	6.80334	0.507063	8.68637	0.640507	10.9576	0.269986	4.90815	0.357509	6.48467	0.506882	8.64914	0.658656	11.2795
0.166572	2.97593	0.101089	1.80336	0.280977	4.96254	0.378733	6.75308	0.507683	8.60377	0.641688	10.8603	0.271352	4.87692	0.358822	6.43466	0.508179	8.5787	0.658921	11.1632
0.167137	2.95267	0.102508	1.80827	0.283938	4.95945	0.38021	6.70381	0.508329	8.52337	0.642869	10.7651	0.272687	4.84583	0.36018	6.38657	0.509474	8.50969	0.659205	11.0496
0.167711	2.93007	0.103927	1.81307	0.286901	4.95644	0.381679	6.6555	0.509002	8.4451	0.644047	10.6718	0.27399	4.81487	0.361583	6.34035	0.510765	8.44208	0.659506	10.9387
0.168293	2.9081	0.105345	1.81776	0.289864	4.95351	0.383141	6.60811	0.509703	8.3689	0.645225	10.5804	0.275262	4.78405	0.363031	6.29592	0.512053	8.37581	0.659826	10.8304
0.168884	2.88676	0.106763	1.82233	0.292828	4.95065	0.384595	6.56161	0.51043	8.29471	0.646401	10.4909	0.276503	4.75337	0.364524	6.25322	0.513337	8.31084	0.660164	10.7246
0.169483	2.86602	0.10818	1.8268	0.295791	4.94785	0.38604	6.51595	0.511186	8.22248	0.647575	10.4032	0.277714	4.72284	0.36606	6.21217	0.514617	8.24712	0.66052	10.6212
0.170091	2.84587	0.109597	1.83117	0.298754	4.94509	0.387476	6.47112	0.511969	8.15215	0.648747	10.3172	0.278895	4.69244	0.367639	6.17272	0.515893	8.18461	0.660896	10.5203
0.170708	2.82628	0.111013	1.83543	0.301716	4.94238	0.388904	6.42707	0.51278	8.08366	0.649917	10.2329	0.280046	4.6622	0.369261	6.1348	0.517165	8.12328	0.661291	10.4217
0.171334	2.80724	0.112428	1.8396	0.304677	4.9397	0.390322	6.38379	0.51362	8.01696	0.651085	10.1502	0.281168	4.63212	0.370924	6.09835	0.518432	8.06308	0.661704	10.3253
0.171968	2.78874	0.113843	1.84367	0.307636	4.93705	0.391731	6.34124	0.514488	7.95201	0.65225	10.0691	0.282263	4.6022	0.372627	6.06331	0.519694	8.00398	0.662138	10.2311
0.172611	2.77076	0.115257	1.84765	0.310593	4.93442	0.39313	6.2994	0.515385	7.88875	0.653413	9.98949	0.283331	4.57246	0.374369	6.02961	0.520952	7.94595	0.66259	10.139
0.173264	2.75327	0.116671	1.85154	0.313547	4.9318	0.39452	6.25825	0.516189	7.83497	0.654573	9.91139	0.284372	4.5429	0.37615	5.9972	0.522204	7.88894	0.663063	10.0489
0.173925	2.73628	0.118084	1.85535	0.316498	4.92919	0.395901	6.21777	0.516892	7.79009	0.655729	9.83472	0.285389	4.51354	0.377968	5.96602	0.52329	7.84008	0.663556	9.96093
0.174595	2.71976	0.119497	1.85907	0.319446	4.92657	0.397272	6.17793	0.517486	7.75364	0.656883	9.75945	0.286381	4.48438	0.379821	5.93602	0.524213	7.79901	0.664068	9.87488
0.175274	2.7037	0.120909	1.8627	0.32239	4.92394	0.398633	6.13872	0.517963	7.72523	0.658034	9.68554	0.28735	4.45543	0.38171	5.90714	0.524974	7.76544	0.664601	9.79072
0.175962	2.68808	0.12232	1.86626	0.325329	4.9213	0.399985	6.10013	0.518318	7.70457	0.659181	9.61293	0.288297	4.4267	0.383632	5.87934	0.525574	7.73915	0.665154	9.70842
0.176658	2.6729	0.12373	1.86974	0.328263	4.91862	0.401327	6.06213	0.518547	7.69145	0.660324	9.5416	0.289223	4.39821	0.385586	5.85256	0.526014	7.71995	0.665728	9.62791
0.177363	2.65813	0.12514	1.87314	0.331192	4.91592	0.402661	6.02472	0.518879	7.67272	0.661464	9.47151	0.290129	4.36996	0.387571	5.82676	0.526295	7.70773	0.666323	9.54917
0.178077	2.64377	0.12655	1.87647	0.334114	4.91317	0.403986	5.98788	0.519244	7.65255	0.6626	9.40262	0.291016	4.34195	0.389586	5.80188	0.526699	7.69024	0.666938	9.47213
0.1788	2.62981	0.127958	1.87973	0.337029	4.91037	0.405303	5.95161	0.519745	7.62542	0.663731	9.33491	0.291885	4.31421	0.391629	5.77789	0.527137	7.67134	0.667574	9.39676
0.179531	2.61622	0.129366	1.88292	0.339936	4.9075	0.406612	5.9159	0.520389	7.59159	0.664859	9.26832	0.292737	4.28673	0.3937	5.75475	0.527732	7.64581	0.668231	9.32301
0.180271	2.60301	0.130773	1.88604	0.342835	4.90457	0.407914	5.88073	0.521182	7.55141	0.665982	9.20284	0.293573	4.25952	0.395796	5.7324	0.528482	7.61383	0.668909	9.25085
0.181019	2.59016	0.13218	1.8891	0.345724	4.90155	0.40921	5.84611	0.522133	7.50525	0.667101	9.13844	0.294394	4.23259	0.397918	5.71082	0.529386	7.57557	0.669609	9.18022
0.181775	2.57765	0.133586	1.89209	0.348602	4.89844	0.4105	5.81202	0.523251	7.45356	0.668216	9.07508	0.295201	4.20595	0.400064	5.68996	0.530442	7.53128	0.670329	9.1111
0.18254	2.56549	0.134991	1.89501	0.351469	4.89522	0.411786	5.77848	0.524397	7.40319	0.669326	9.01274	0.295995	4.1796	0.402232	5.6698	0.531648	7.48122	0.671071	9.04344
0.183313	2.55365	0.136396	1.89788	0.354323	4.89187	0.413068	5.74549	0.525572	7.35411	0.670431	8.95139	0.296777	4.15355	0.404421	5.65029	0.532847	7.43196	0.671834	8.97722
0.184093	2.54213	0.137799	1.90069	0.357163	4.8884	0.414348	5.71303	0.526775	7.30628	0.671531	8.891	0.297548	4.1278	0.406631	5.63141	0.534039	7.38346	0.672619	8.91238
0.184882	2.53092	0.139203	1.90344	0.359987	4.88477	0.415627	5.68113	0.528005	7.25967	0.672627	8.83156	0.298308	4.10235	0.408861	5.61312	0.535225	7.33571	0.673425	8.8489
0.185679	2.52001	0.140605	1.90613	0.362794	4.88097	0.416907	5.64978	0.529264	7.21424	0.673717	8.77302	0.299058	4.07721	0.411108	5.59539	0.536404	7.28869	0.674252	8.78675
0.186484	2.5094	0.142007	1.90877	0.365582	4.87698	0.418189	5.61899	0.530549	7.16995	0.674803	8.71538	0.2998	4.05237	0.413373	5.5782	0.537577	7.24238	0.6751	8.72589
0.187296	2.49906	0.143408	1.91136	0.368349	4.87277	0.419476	5.58878	0.531862	7.12678	0.675883	8.6586	0.300533	4.02785	0.415655	5.56152	0.538742	7.19676	0.67597	8.66629
0.188116	2.489	0.144809	1.91389	0.371092	4.86834	0.420768	5.55916	0.533201	7.08469	0.676958	8.60268	0.301259	4.00365	0.417951	5.54532	0.539901	7.15181	0.676861	8.60791
0.188944	2.4792	0.146209	1.91637	0.373811	4.86365	0.42207	5.53015	0.534567	7.04364	0.678028	8.54758	0.301979	3.97976	0.420262	5.52958	0.541053	7.10753	0.677774	8.55074
0.189779	2.46966	0.147608	1.91881	0.376501	4.85866	0.423383	5.50176	0.535959	7.00362	0.679093	8.49329	0.302692	3.95618	0.422586	5.51428	0.542198	7.06389	0.678707	8.49474
0.190621	2.46038	0.149006	1.92119	0.37916	4.85337	0.42471	5.47402	0.537377	6.96458	0.680153	8.43978	0.3034	3.93292	0.424923	5.49939	0.543337	7.02087	0.679662	8.43987
0.191471	2.45133	0.150404	1.92353	0.381785	4.84772	0.426055	5.44696	0.538819	6.9265	0.681207	8.38704	0.304102	3.90998	0.427272	5.48489	0.54447	6.97848	0.680637	8.38612
0.192328	2.44252	0.151802	1.92582	0.384372	4.8417	0.427421	5.42059	0.540287	6.88935	0.682256	8.33506	0.304801	3.88735	0.429632	5.47076	0.545596	6.93668	0.681633	8.33346
0.193192	2.43395	0.153198	1.92807	0.386919	4.83525	0.428811	5.39494	0.541778	6.85311	0.6833	8.2838	0.305496	3.86503	0.432001	5.45699	0.546716	6.89547	0.68265	8.28185
0.194063	2.42559	0.154594	1.93027	0.38942	4.82835	0.43023	5.37006	0.543293	6.81773	0.684339	8.23327	0.306187	3.84303	0.43438	5.44355	0.54783	6.85484	0.683687	8.23128
0.19494	2.41745	0.155989	1.93243	0.391873	4.82096	0.431681	5.34597	0.544832	6.7832	0.68524	8.18981	0.306876	3.82134	0.436767	5.43042	0.548938	6.81478	0.684608	8.18803
0.195825	2.40952	0.157384	1.93455	0.394273	4.81303	0.433169	5.32271	0.546393	6.74949	0.686005	8.15317	0.307562	3.79995	0.439162	5.4176	0.550041	6.77527	0.685405	8.15176
0.196716	2.40179	0.158778	1.93663	0.396616	4.80454	0.434698	5.30031	0.547977	6.71658	0.686636	8.12315	0.308246	3.77888	0.441563	5.40505	0.551138	6.73631	0.686072	8.12216
0.197614	2.39427	0.160171	1.93867	0.398898	4.79544	0.436273	5.27881	0.549582	6.68444	0.687133	8.0996	0.308928	3.75811	0.443971	5.39277	0.552231	6.69789	0.686605	8.09902
0.198518	2.38693	0.161564	1.94067	0.401115	4.78571	0.437898	5.25823	0.551208	6.65304	0.687498	8.08238	0.30961	3.73764	0.446384	5.38074	0.553319	6.66	0.687	8.08214
0.199428	2.37978	0.162956	1.94263	0.403264	4.77531	0.439577	5.23861	0.552855	6.62236	0.687731	8.0714	0.31029	3.71747	0.448801	5.36895	0.554402	6.62262	0.687254	8.0714
0.200345	2.37281	0.164347	1.94456	0.405341	4.76423	0.441314	5.21997	0.554521	6.59238	0.688066	8.05569	0.31097	3.6976	0.451222	5.35738	0.555482	6.58577	0.687621	8.05605
0.201268	2.36602	0.165738	1.94645	0.407345	4.75246	0.443113	5.20232	0.556207	6.56308	0.688429	8.03868	0.31165	3.67803	0.453646	5.34601	0.556559	6.54942	0.688022	8.03948
0.202197	2.3594	0.167128	1.94831	0.409274	4.73999	0.444975	5.18567	0.557912	6.53443	0.688922	8.01568	0.31233	3.65874	0.456072	5.33484	0.557632	6.51357	0.688572	8.01713
0.203132	2.35295	0.168518	1.95013	0.411127	4.72682	0.446902	5.17003	0.559635	6.50641	0.689544	7.98682	0.313011	3.63975	0.458499	5.32385	0.558703	6.47823	0.689274	7.98916
0.204073	2.34666	0.169907	1.95191	0.412904	4.71298	0.448896	5.15538	0.561376	6.47901	0.690293	7.95222	0.313692	3.62103	0.460927	5.31302	0.559772	6.44337	0.690132	7.95578
0.20502	2.34052	0.171295	1.95367	0.414606	4.69849	0.450957	5.1417	0.563134	6.4522	0.69117	7.91208	0.314374	3.60261	0.463355	5.30235	0.56084	6.409	0.691153	7.91725
0.205973	2.33454	0.172683	1.95539	0.416234	4.68338	0.453084	5.12897	0.564908	6.42596	0.692171	7.86659	0.315057	3.58445	0.465782	5.29183	0.561907	6.37512	0.692341	7.87382
0.206931	2.32871	0.17407	1.95708	0.417792	4.66769	0.455276	5.11714	0.566698	6.40028	0.693167	7.8217	0.315741	3.56658	0.468207	5.28143	0.562974	6.34172	0.693549	7.83122
0.207894	2.32302	0.175457	1.95874	0.419282	4.65147	0.45753	5.10618	0.568503	6.37513	0.69416	7.77739	0.316427	3.54897	0.470629	5.27115	0.564041	6.3088	0.694774	7.78943
0.208863	2.31747	0.176843	1.96037	0.420707	4.63476	0.459843	5.09603	0.570322	6.35049	0.695148	7.73366	0.317115	3.53164	0.473048	5.26097	0.56511	6.27635	0.696018	7.74843
0.209838	2.31206	0.178228	1.96198	0.422072	4.61762	0.462213	5.08664	0.572156	6.32636	0.696133	7.6905	0.317805	3.51456	0.475462	5.25089	0.566181	6.24438	0.697279	7.7082
0.210818	2.30678	0.179613	1.96355	0.42338	4.6001	0.464637	5.07797	0.574003	6.30271	0.697114	7.6479	0.318497	3.49775	0.477871	5.24089	0.567254	6.21289	0.698558	7.66872
0.211803	2.30163	0.180997	1.9651	0.424634	4.58225	0.46711	5.06995	0.575863	6.27952	0.698091	7.60585	0.319191	3.48119	0.480274	5.23095	0.568332	6.18187	0.699854	7.62998
0.212793	2.2966	0.182381	1.96661	0.42584	4.56411	0.469628	5.06254	0.577736	6.25679	0.699065	7.56434	0.319887	3.46489	0.48267	5.22108	0.569414	6.15132	0.701167	7.59194
0.213788	2.2917	0.183764	1.96811	0.427	4.54573	0.47219	5.05568	0.579619	6.23449	0.700036	7.52336	0.320586	3.44884	0.485057	5.21125	0.570502	6.12125	0.702496	7.5546
0.214788	2.28691	0.185146	1.96957	0.428119	4.52716	0.47479	5.04933	0.581514	6.2126	0.701005	7.48291	0.321288	3.43303	0.487435	5.20146	0.571596	6.09166	0.703841	7.51793
0.215793	2.28224	0.186528	1.97101	0.429199	4.50843	0.477426	5.04344	0.583419	6.19113	0.701971	7.44297	0.321993	3.41746	0.489803	5.19168	0.572698	6.06254	0.705202	7.48192
0.216802	2.27769	0.187909	1.97243	0.430244	4.48958	0.480094	5.03797	0.585334	6.17004	0.702935	7.40355	0.322701	3.40214	0.492159	5.18192	0.573809	6.0339	0.706578	7.44656
0.217817	2.27324	0.18929	1.97382	0.431257	4.47065	0.482793	5.03288	0.587258	6.14932	0.703897	7.36462	0.323411	3.38705	0.494503	5.17216	0.57493	6.00575	0.707969	7.41182
0.218836	2.2689	0.190671	1.97518	0.432241	4.45166	0.485518	5.02814	0.589191	6.12897	0.704857	7.32619	0.324125	3.37219	0.496833	5.16238	0.576062	5.97808	0.709375	7.37768
0.219859	2.26466	0.19205	1.97653	0.433198	4.43264	0.488267	5.02371	0.591132	6.10897	0.705817	7.28825	0.324842	3.35755	0.499148	5.15257	0.577207	5.95089	0.710795	7.34415
0.220887	2.26052	0.193429	1.97785	0.43413	4.41361	0.491039	5.01957	0.59308	6.0893	0.706775	7.2508	0.325563	3.34314	0.501447	5.14273	0.578365	5.92421	0.712229	7.31118
0.221919	2.25648	0.194808	1.97914	0.43504	4.3946	0.493832	5.01568	0.595035	6.06996	0.707734	7.21382	0.326286	3.32896	0.503729	5.13284	0.579538	5.89801	0.713676	7.27878
0.222956	2.25254	0.196186	1.98042	0.435929	4.37563	0.496642	5.01203	0.596996	6.05092	0.708692	7.17732	0.327014	3.31499	0.505991	5.12288	0.580727	5.87232	0.715137	7.24693
0.223997	2.24868	0.197564	1.98167	0.436799	4.35671	0.49947	5.0086	0.598963	6.03219	0.709651	7.14129	0.327745	3.30123	0.508234	5.11284	0.581935	5.84713	0.71661	7.21561
0.225042	2.24492	0.198941	1.98291	0.437652	4.33786	0.502312	5.00535	0.600934	6.01374	0.71061	7.10572	0.328479	3.28769	0.510455	5.10272	0.583161	5.82246	0.718095	7.18481
0.226091	2.24125	0.200317	1.98412	0.43849	4.31908	0.505168	5.00229	0.60291	5.99557	0.711571	7.07061	0.329217	3.27435	0.512653	5.0925	0.584408	5.79829	0.719592	7.15452
0.227145	2.23766	0.201693	1.98531	0.439313	4.3004	0.508037	4.99939	0.60489	5.97766	0.712533	7.03596	0.329959	3.26121	0.514827	5.08217	0.585678	5.77465	0.7211	7.12471
0.228202	2.23415	0.203069	1.98649	0.440124	4.28182	0.510917	4.99663	0.606873	5.96001	0.713498	7.00176	0.330705	3.24828	0.516975	5.07171	0.586971	5.75154		
0.229263	2.23073	0.204444	1.98764	0.440922	4.26336	0.513807	4.994	0.608858	5.94259	0.714466	6.96801	0.331454	3.23554	0.519096	5.06111	0.588289	5.72895		
0.230328	2.22739	0.205819	1.98877	0.441709	4.24501	0.516706	4.9915	0.610846	5.92541	0.715437	6.9347	0.332208	3.223	0.521189	5.05037	0.589634	5.7069		
0.231397	2.22412	0.207193	1.98989	0.442486	4.22679	0.519614	4.98911	0.612834	5.90845	0.716411	6.90184	0.332965	3.21064	0.523251	5.03947	0.591007	5.68539		
0.232469	2.22092	0.208566	1.99099	0.443255	4.2087	0.522529	4.98682	0.614823	5.8917	0.71739	6.86941	0.333726	3.19848	0.525282	5.02841	0.59241	5.66442		
0.233545	2.2178	0.209939	1.99207	0.444015	4.19075	0.525452	4.98462	0.616812	5.87516	0.718374	6.83743	0.334492	3.1865	0.527281	5.01716	0.593844	5.644		
0.234625	2.21476	0.211312	1.99313	0.444767	4.17294	0.52838	4.98251	0.618801	5.8588	0.719364	6.80588	0.335261	3.1747	0.529246	5.00573	0.59531	5.62412		
0.235708	2.21178	0.212684	1.99418	0.445512	4.15528	0.531314	4.98047	0.620788	5.84263	0.720359	6.77476	0.336034	3.16307	0.531175	4.99411	0.596809	5.6048		
0.236794	2.20886	0.214055	1.9952	0.446251	4.13776	0.534253	4.97851	0.622773	5.82664			0.336811	3.15163	0.533069	4.98229	0.598344	5.58603		
0.237884	2.20602	0.215426	1.99622	0.446985	4.1204	0.537197	4.97661	0.624756	5.8108			0.337593	3.14035	0.534926	4.97026	0.599913	5.56781		
0.238978	2.20323	0.216797	1.99721	0.447713	4.10319	0.540144	4.97476	0.626736	5.79512			0.338378	3.12925	0.536744	4.95802	0.60152	5.55014		
0.240075	2.20051	0.218167	1.99819	0.448437	4.08614	0.543095	4.97297	0.628711	5.77959			0.339168	3.11831	0.538524	4.94557	0.603164	5.53302		
0.241174	2.19785	0.219537	1.99916	0.449156	4.06924	0.546049	4.97123	0.630682	5.7642			0.339961	3.10754	0.540265	4.93291	0.604845	5.51644		
0.242278	2.19525	0.220906	2.00011	0.449872	4.05251	0.549005	4.96953	0.632648	5.74893			0.340759	3.09693	0.541967	4.92003	0.606565	5.5004		
0.243384	2.19271	0.222275	2.00104	0.450584	4.03593	0.551963	4.96787	0.634608	5.73379			0.341561	3.08648	0.543628	4.90694	0.608324	5.48489		
0.244493	2.19023	0.223643	2.00196	0.451293	4.01951	0.554924	4.96624	0.636561	5.71876			0.342367	3.07618	0.54525	4.89365	0.610121	5.46991		
0.245605	2.18779	0.225011	2.00286	0.452	4.00325	0.557885	4.96465	0.638508	5.70384			0.343177	3.06603	0.546832	4.88015	0.611958	5.45544		
0.246721	2.18542	0.226378	2.00375	0.452704	3.98716	0.560848	4.96308	0.640446	5.68901			0.343991	3.05604	0.548375	4.86644	0.613832	5.44147		
0.247839	2.18309	0.227745	2.00463	0.453406	3.97122	0.563811	4.96153	0.642376	5.67427			0.34481	3.0462	0.549878	4.85255	0.615745	5.428		
0.24896	2.18082	0.229112	2.0055	0.454107	3.95544	0.566774	4.96	0.644297	5.65962			0.345632	3.0365	0.551343	4.83847	0.617696	5.415		
0.250084	2.17859	0.230478	2.00635	0.454806	3.93983	0.569738	4.95849	0.646208	5.64505			0.346459	3.02694	0.55277	4.82422	0.619684	5.40247		
0.25121	2.17642	0.231843	2.00718	0.455504	3.92437	0.572701	4.957	0.648108	5.63054			0.34729	3.01753	0.55416	4.8098	0.621708	5.3904		
0.25234	2.17429	0.233208	2.00801	0.4562	3.90908	0.575663	4.95551	0.649998	5.6161			0.348125	3.00825	0.555513	4.79522	0.623767	5.37876		
0.253472	2.1722	0.234573	2.00882	0.456897	3.89394	0.578624	4.95402	0.651876	5.60172			0.348964	2.99911	0.556832	4.7805	0.625861	5.36754		
0.254607	2.17017	0.235937	2.00962	0.457592	3.87896	0.581583	4.95254	0.653743	5.58739			0.349807	2.9901	0.558116	4.76565	0.627989	5.35673		
0.255744	2.16817	0.237301	2.0104	0.458287	3.86414	0.584541	4.95106	0.655596	5.57311			0.350654	2.98123	0.559367	4.75068	0.630148	5.34631		
0.256884	2.16622	0.238665	2.01118	0.458982	3.84947	0.587496	4.94958	0.657437	5.55887			0.351505	2.97248	0.560586	4.7356	0.632339	5.33627		
0.258026	2.16431	0.240028	2.01194	0.459677	3.83496	0.590448	4.94809	0.659265	5.54467			0.352361	2.96386	0.561775	4.72042	0.63456	5.32658		
0.259171	2.16244	0.24139	2.01269	0.460373	3.8206	0.593397	4.94658	0.661078	5.53051			0.35322	2.95537	0.562935	4.70516	0.63681	5.31723		
0.260318	2.16061	0.242753	2.01343	0.461068	3.80639	0.596343	4.94507	0.662877	5.51637			0.354084	2.947	0.564066	4.68983	0.639087	5.30821		
0.261468	2.15882	0.244114	2.01416	0.461764	3.79234	0.599284	4.94353	0.664662	5.50227			0.354951	2.93875	0.565171	4.67443	0.64139	5.29951		
0.26262	2.15707	0.245476	2.01488	0.462461	3.77843	0.602221	4.94197	0.666433	5.48819			0.355823	2.93062	0.566249	4.65898	0.643719	5.2911		
0.263774	2.15535	0.246837	2.01559	0.463158	3.76468	0.605153	4.94039	0.668188	5.47413			0.356698	2.92261	0.567304	4.6435	0.646071	5.28297		
0.26493	2.15367	0.248197	2.01629	0.463857	3.75107	0.608078	4.93878	0.669929	5.4601			0.357578	2.91471	0.568336	4.62798	0.648446	5.27511		
0.266089	2.15203	0.249557	2.01697	0.464556	3.73761	0.610998	4.93712	0.671655	5.4461			0.358461	2.90693	0.569345	4.61245	0.650842	5.2675		
0.26725	2.15042	0.250917	2.01765	0.465256	3.72429	0.61391	4.93543	0.673366	5.43212			0.359349	2.89925	0.570334	4.5969	0.653259	5.26013		
0.268413	2.14884	0.252277	2.01832	0.465958	3.71112	0.616814	4.9337	0.675063	5.41816			0.36024	2.89169	0.571303	4.58136	0.655695	5.253		
0.269578	2.1473	0.253636	2.01897	0.46666	3.69809	0.61971	4.93191	0.676747	5.40424			0.361135	2.88423	0.572253	4.56582	0.658149	5.24608		
0.270746	2.14578	0.254994	2.01962	0.467365	3.6852	0.622595	4.93006	0.678416	5.39035			0.362035	2.87688	0.573186	4.5503	0.660621	5.23936		
0.271915	2.1443	0.256352	2.02026	0.46807	3.67245	0.625471	4.92815	0.680073	5.3765			0.362938	2.86964	0.574102	4.53481	0.663108	5.23284		
0.273086	2.14285	0.25771	2.02089	0.468778	3.65984	0.628334	4.92616	0.681718	5.36269			0.363845	2.86249	0.575002	4.51934	0.66561	5.22651		
0.27426	2.14143	0.259068	2.0215	0.469486	3.64736	0.631185	4.9241	0.683351	5.34892			0.364755	2.85545	0.575888	4.50391	0.668127	5.22034		
0.275435	2.14004	0.260425	2.02211	0.470197	3.63502	0.634022	4.92194	0.684975	5.33522			0.36567	2.84851	0.57676	4.48853	0.670657	5.21434		
0.276612	2.13868	0.261781	2.02272	0.470909	3.62281	0.636843	4.91969	0.68659	5.32158			0.366588	2.84166	0.577618	4.4732	0.6732	5.2085		
0.277791	2.13734	0.263138	2.02331	0.471624	3.61074	0.639647	4.91732	0.688197	5.30802			0.367511	2.83491	0.578465	4.45792	0.675754	5.2028		
0.278972	2.13604	0.264494	2.02389	0.47234	3.5988	0.642432	4.91484	0.689799	5.29455			0.368436	2.82826	0.579299	4.44269	0.678319	5.19724		
0.280155	2.13476	0.265849	2.02447	0.473058	3.58698	0.645197	4.91222	0.691397	5.28118			0.369366	2.82169	0.580123	4.42754	0.680893	5.19181		
0.28134	2.1335	0.267204	2.02503	0.473778	3.5753	0.647938	4.90945	0.692994	5.26793			0.370299	2.81522	0.580937	4.41245	0.683478	5.1865		
0.282526	2.13227	0.268559	2.02559	0.4745	3.56374	0.650655	4.90652	0.694591	5.2548			0.371236	2.80884	0.581741	4.39743	0.68607	5.18131		
0.283714	2.13107	0.269914	2.02614	0.475224	3.55231	0.653344	4.90341	0.696192	5.24183			0.372177	2.80255	0.582536	4.38249	0.688671	5.17623		
0.284904	2.12988	0.271268	2.02669	0.475951	3.541	0.656002	4.90011	0.697798	5.22903			0.373121	2.79634	0.583323	4.36763	0.691279	5.17125		
0.286096	2.12873	0.272622	2.02722	0.47668	3.52981	0.658628	4.89659	0.699414	5.21642			0.374069	2.79022	0.584101	4.35284	0.693893	5.16636		
0.287289	2.12759	0.273975	2.02775	0.47741	3.51874	0.661217	4.89283	0.701043	5.20401			0.375021	2.78418	0.584873	4.33815	0.696513	5.16156		
0.288484	2.12648	0.275328	2.02827	0.478144	3.50779	0.663767	4.88882	0.702688	5.19185			0.375976	2.77823	0.585637	4.32354	0.699139	5.15685		
0.28968	2.12539	0.276681	2.02878	0.478879	3.49697	0.666274	4.88453	0.704352	5.17994			0.376934	2.77235	0.586395	4.30901	0.701769	5.15222		
0.290878	2.12432	0.278033	2.02929	0.479617	3.48625	0.668734	4.87994	0.706041	5.16832			0.377897	2.76656	0.587148	4.29458	0.704403	5.14765		
0.292077	2.12328	0.279385	2.02978	0.480358	3.47566	0.671144	4.87503	0.707758	5.15701			0.378862	2.76085	0.587894	4.28024	0.707041	5.14316		
0.293279	2.12225	0.280737	2.03028	0.481101	3.46517	0.6735	4.86977	0.709506	5.14604			0.379831	2.75521	0.588636	4.266	0.709681	5.13872		
0.294481	2.12124	0.282088	2.03076	0.481846	3.4548	0.675799	4.86415	0.711292	5.13543			0.380804	2.74965	0.589372	4.25185	0.712324	5.13435		
0.295685	2.12026	0.283439	2.03124	0.482594	3.44455	0.678037	4.85814	0.713117	5.12521			0.38178	2.74417	0.590104	4.23779	0.714969	5.13002		
0.296891	2.11929	0.28479	2.03171	0.483344	3.4344	0.680212	4.85174	0.714987	5.11539			0.382759	2.73875	0.590832	4.22383	0.717614	5.12575		
0.298097	2.11834	0.28614	2.03217	0.484097	3.42436	0.68232	4.84492	0.716903	5.106			0.383742	2.73342	0.591556	4.20997	0.720261	5.12151		
0.299306	2.11741	0.28749	2.03263	0.484852	3.41443	0.68436	4.83768	0.718871	5.09705			0.384728	2.72815	0.592277	4.19622				
0.300516	2.1165	0.28884	2.03308	0.48561	3.4046	0.686331	4.83002	0.72089	5.08856			0.385718	2.72295	0.592994	4.18256				
0.301727	2.11561	0.290189	2.03353	0.486371	3.39488	0.688232	4.82193					0.38671	2.71783	0.593708	4.169				
0.302939	2.11473	0.291538	2.03396	0.487134	3.38526	0.690062	4.81343					0.387706	2.71277	0.59442	4.15554				
0.304153	2.11387	0.292886	2.0344	0.4879	3.37575	0.691823	4.80452					0.388705	2.70778	0.595128	4.14218				
0.305368	2.11303	0.294235	2.03482	0.488668	3.36634	0.693516	4.79521					0.389708	2.70285	0.595835	4.12892				
0.306584	2.1122	0.295583	2.03524	0.48944	3.35702	0.695143	4.78553					0.390714	2.698	0.59654	4.11577				
0.307802	2.11139	0.29693	2.03566	0.490214	3.34781	0.696707	4.77551					0.391723	2.6932	0.597243	4.10271				
0.309021	2.11059	0.298278	2.03607	0.49099	3.33869	0.69821	4.76515					0.392735	2.68847	0.597944	4.08976				
0.310241	2.10981	0.299625	2.03647	0.49177	3.32967	0.699655	4.75449					0.39375	2.6838	0.598643	4.07691				
0.311462	2.10905	0.300972	2.03687	0.492552	3.32075	0.701046	4.74356					0.394768	2.67919	0.599342	4.06416				
0.312684	2.10829	0.302318	2.03726	0.493336	3.31191	0.702386	4.73237					0.395789	2.67464	0.600039	4.05151				
0.313908	2.10756	0.303664	2.03765	0.494124	3.30318	0.703679	4.72096					0.396814	2.67015	0.600735	4.03896				
0.315133	2.10683	0.30501	2.03803	0.494914	3.29453	0.704926	4.70935					0.397841	2.66572	0.60143	4.02652				
0.316359	2.10613	0.306355	2.0384	0.495707	3.28597	0.706133	4.69757					0.398872	2.66135	0.602125	4.01417				
0.317586	2.10543	0.3077	2.03877	0.496503	3.27751	0.707301	4.68562					0.399905	2.65703	0.602819	4.00193				
0.318814	2.10475	0.309045	2.03914	0.497301	3.26913	0.708434	4.67354					0.400942	2.65277	0.603513	3.98978				
0.320043	2.10408	0.31039	2.0395	0.498102	3.26084	0.709533	4.66135					0.401981	2.64856	0.604206	3.97773				
0.321274	2.10342	0.311734	2.03986	0.498906	3.25264	0.710603	4.64906					0.403023	2.64441	0.6049	3.96578				
0.322505	2.10277	0.313078	2.04021	0.499713	3.24452	0.711644	4.63668					0.404069	2.64031	0.605593	3.95393				
0.323737	2.10214	0.314422	2.04055	0.500523	3.23648	0.712659	4.62424					0.405117	2.63626	0.606286	3.94218				
0.324971	2.10152	0.315765	2.04089	0.501335	3.22853	0.71365	4.61175					0.406168	2.63227	0.606979	3.93053				
0.326205	2.10091	0.317108	2.04123	0.50215	3.22067	0.714618	4.59921					0.407221	2.62833	0.607673	3.91897				
0.32744	2.10031	0.318451	2.04156	0.502968	3.21288	0.715566	4.58664					0.408278	2.62443	0.608367	3.9075				
0.328677	2.09972	0.319793	2.04189	0.503789	3.20517	0.716495	4.57405					0.409337	2.62059	0.609061	3.89614				
0.329914	2.09914	0.321136	2.04221	0.504612	3.19754	0.717406	4.56145					0.410399	2.61679	0.609756	3.88487				
0.331152	2.09858	0.322478	2.04253	0.505438	3.18999	0.718301	4.54885					0.411464	2.61304	0.610452	3.87369				
0.332391	2.09802	0.323819	2.04285	0.506267	3.18252	0.71918	4.53625					0.412532	2.60934	0.611148	3.8626				
0.333631	2.09748	0.32516	2.04316	0.507099	3.17513	0.720045	4.52366					0.413602	2.60569	0.611845	3.85161				
0.334872	2.09694	0.326502	2.04346	0.507933	3.16781							0.414675	2.60208	0.612542	3.84071				
0.336114	2.09641	0.327842	2.04376	0.508771	3.16056							0.41575	2.59852	0.613241	3.82991				
0.337357	2.0959	0.329183	2.04406	0.509611	3.15339							0.416829	2.595	0.613941	3.81919				
0.338601	2.09539	0.330523	2.04435	0.510453	3.14629							0.417909	2.59152	0.614641	3.80856				
0.339845	2.09489	0.331863	2.04464	0.511299	3.13927							0.418993	2.58809	0.615343	3.79803				
0.34109	2.0944	0.333203	2.04493	0.512147	3.13231							0.420079	2.5847	0.616045	3.78758				
0.342336	2.09392	0.334542	2.04521	0.512998	3.12543							0.421167	2.58135	0.616749	3.77722				
0.343583	2.09345	0.335881	2.04549	0.513852	3.11861							0.422258	2.57805	0.617455	3.76695				
0.344831	2.09299	0.33722	2.04576	0.514708	3.11186							0.423352	2.57478	0.618161	3.75676				
0.34608	2.09253	0.338559	2.04603	0.515567	3.10518							0.424448	2.57156	0.618869	3.74666				
0.347329	2.09209	0.339897	2.0463	0.516429	3.09857							0.425546	2.56837	0.619578	3.73665				
0.348579	2.09165	0.341235	2.04656	0.517293	3.09202							0.426647	2.56522	0.620288	3.72672				
0.34983	2.09122	0.342573	2.04682	0.518161	3.08554							0.427751	2.56211	0.621	3.71687				
0.351081	2.09079	0.34391	2.04708	0.519031	3.07913							0.428856	2.55904	0.621714	3.70711				
0.352334	2.09038	0.345248	2.04733	0.519903	3.07278							0.429964	2.55601	0.622429	3.69743				
0.353587	2.08997	0.346585	2.04758	0.520778	3.06649							0.431075	2.55301	0.623145	3.68783				
0.35484	2.08957	0.347922	2.04783	0.521656	3.06026							0.432188	2.55005	0.623864	3.67831				
0.356095	2.08918	0.349258	2.04807	0.522537	3.05409							0.433303	2.54712	0.624583	3.66888				
0.35735	2.08879	0.350594	2.04831	0.52342	3.04799							0.43442	2.54423	0.625305	3.65952				
0.358606	2.08841	0.35193	2.04854	0.524306	3.04194							0.43554	2.54138	0.626028	3.65024				
0.359862	2.08803	0.353266	2.04878	0.525195	3.03596							0.436662	2.53856	0.626753	3.64104				
0.361119	2.08767	0.354602	2.04901	0.526086	3.03003							0.437786	2.53577	0.627479	3.63191				
0.362377	2.08731	0.355937	2.04923	0.526979	3.02416							0.438913	2.53301	0.628208	3.62287				
0.363635	2.08695	0.357272	2.04946	0.527876	3.01835							0.440041	2.53029	0.628938	3.6139				
0.364895	2.08661	0.358607	2.04968	0.528775	3.0126							0.441172	2.5276	0.62967	3.605				
0.366154	2.08626	0.359941	2.0499	0.529676	3.0069							0.442305	2.52494	0.630404	3.59618				
0.367414	2.08593	0.361276	2.05011	0.53058	3.00126							0.44344	2.52232	0.631139	3.58743				
0.368675	2.0856	0.36261	2.05032	0.531487	2.99567							0.444577	2.51972	0.631877	3.57876				
0.369937	2.08527	0.363943	2.05053	0.532396	2.99013							0.445717	2.51716	0.632616	3.57016				
0.371199	2.08495	0.365277	2.05074	0.533308	2.98465							0.446858	2.51462	0.633357	3.56163				
0.372462	2.08464	0.36661	2.05094	0.534222	2.97922							0.448002	2.51212	0.634101	3.55317				
0.373725	2.08433	0.367944	2.05114	0.535139	2.97385							0.449147	2.50964	0.634846	3.54479				
0.374989	2.08403	0.369276	2.05134	0.536058	2.96852							0.450295	2.50719	0.635593	3.53647				
0.376253	2.08373	0.370609	2.05153	0.53698	2.96325							0.451445	2.50477	0.636342	3.52822				
0.377518	2.08344	0.371942	2.05173	0.537905	2.95803							0.452596	2.50238	0.637093	3.52004				
0.378783	2.08315	0.373274	2.05192	0.538831	2.95285							0.45375	2.50002	0.637846	3.51193				
0.380049	2.08287	0.374606	2.0521	0.539761	2.94773							0.454906	2.49768	0.638601	3.50389				
0.381316	2.08259	0.375937	2.05229	0.540692	2.94265							0.456063	2.49537	0.639358	3.49591				
0.382583	2.08232	0.377269	2.05247	0.541626	2.93763							0.457223	2.49309	0.640118	3.488				
0.383851	2.08205	0.3786	2.05265	0.542563	2.93265							0.458384	2.49083	0.640879	3.48015				
0.385119	2.08179	0.379931	2.05283	0.543502	2.92771							0.459548	2.4886	0.641642	3.47237				
0.386387	2.08153	0.381262	2.05301	0.544444	2.92283							0.460713	2.4864	0.642407	3.46466				
0.387656	2.08128	0.382593	2.05318	0.545387	2.91799							0.46188	2.48422	0.643175	3.457				
0.388926	2.08103	0.383923	2.05335	0.546334	2.91319							0.463049	2.48206	0.643944	3.44941				
0.390196	2.08078	0.385254	2.05352	0.547282	2.90844							0.46422	2.47993	0.644716	3.44189				
0.391466	2.08054	0.386584	2.05368	0.548233	2.90374							0.465393	2.47782	0.645489	3.43442				
0.392737	2.0803	0.387913	2.05385	0.549187	2.89907							0.466567	2.47574	0.646265	3.42702				
0.394009	2.08007	0.389243	2.05401	0.550142	2.89446							0.467744	2.47368	0.647043	3.41967				
0.395281	2.07984	0.390572	2.05417	0.5511	2.88988							0.468922	2.47164	0.647823	3.41239				
0.396553	2.07961	0.391901	2.05433	0.552061	2.88535							0.470101	2.46963	0.648605	3.40516				
0.397826	2.07939	0.39323	2.05448	0.553023	2.88086							0.471283	2.46764	0.649389	3.398				
0.399099	2.07917	0.394559	2.05463	0.553988	2.87641							0.472466	2.46567	0.650175	3.39089				
0.400372	2.07895	0.395888	2.05478	0.554956	2.872							0.473651	2.46372	0.650964	3.38384				
0.401646	2.07874	0.397216	2.05493	0.555925	2.86763							0.474838	2.46179	0.651754	3.37685				
0.402921	2.07854	0.398544	2.05508	0.556897	2.8633							0.476027	2.45989	0.652547	3.36991				
0.404196	2.07833	0.399872	2.05523	0.557871	2.85901							0.477217	2.45801	0.653342	3.36303				
0.405471	2.07813	0.4012	2.05537	0.558848	2.85476							0.478409	2.45614	0.654139	3.35621				
0.406747	2.07793	0.402528	2.05551	0.559826	2.85055							0.479602	2.4543	0.654938	3.34944				
0.408023	2.07774	0.403855	2.05565	0.560807	2.84638							0.480797	2.45248	0.655739	3.34272				
0.409299	2.07755	0.405182	2.05579	0.56179	2.84224							0.481994	2.45068	0.656542	3.33606				
0.410576	2.07736	0.406509	2.05592	0.562775	2.83815							0.483192	2.4489	0.657348	3.32946				
0.411853	2.07718	0.407836	2.05605	0.563762	2.83409							0.484392	2.44713	0.658155	3.3229				
0.413131	2.07699	0.409162	2.05619	0.564752	2.83006							0.485594	2.44539	0.658965	3.3164				
0.414409	2.07682	0.410489	2.05632	0.565744	2.82608							0.486797	2.44367	0.659777	3.30995				
0.415687	2.07664	0.411815	2.05645	0.566738	2.82213							0.488001	2.44196	0.660591	3.30355				
0.416966	2.07647	0.413141	2.05657	0.567734	2.81821							0.489207	2.44027	0.661407	3.29721				
0.418245	2.0763	0.414467	2.0567	0.568732	2.81433							0.490415	2.4386	0.662225	3.29091				
0.419524	2.07613	0.415793	2.05682	0.569732	2.81048							0.491624	2.43695	0.663046	3.28466				
0.420804	2.07596	0.417118	2.05694	0.570734	2.80667							0.492835	2.43532	0.663868	3.27846				
0.422084	2.0758	0.418443	2.05706	0.571739	2.80289							0.494047	2.4337	0.664693	3.27232				
0.423364	2.07564	0.419769	2.05718	0.572746	2.79915							0.495261	2.4321	0.66552	3.26622				
0.424645	2.07549	0.421094	2.0573	0.573754	2.79544							0.496476	2.43052	0.666348	3.26017				
0.425926	2.07533	0.422418	2.05741	0.574765	2.79176							0.497692	2.42896	0.66718	3.25416				
0.427207	2.07518	0.423743	2.05752	0.575778	2.78811							0.498911	2.42741	0.668013	3.24821				
0.428489	2.07503	0.425067	2.05764	0.576792	2.7845							0.50013	2.42588	0.668848	3.2423				
0.429771	2.07489	0.426392	2.05775	0.577809	2.78092							0.501351	2.42436	0.669685	3.23643				
0.431053	2.07474	0.427716	2.05786	0.578828	2.77737							0.502573	2.42286	0.670525	3.23062				
0.432336	2.0746	0.42904	2.05796	0.579849	2.77385							0.503797	2.42138	0.671366	3.22484				
0.433619	2.07446	0.430363	2.05807	0.580872	2.77036							0.505022	2.41991	0.67221	3.21912				
0.434902	2.07432	0.431687	2.05817	0.581897	2.7669							0.506248	2.41846	0.673056	3.21343				
0.436186	2.07419	0.43301	2.05828	0.582924	2.76347							0.507476	2.41702	0.673904	3.2078				
0.43747	2.07406	0.434334	2.05838	0.583952	2.76008							0.508705	2.4156	0.674754	3.2022				
0.438754	2.07392	0.435657	2.05848	0.584983	2.75671							0.509936	2.41419	0.675606	3.19665				
0.440038	2.0738	0.43698	2.05858	0.586016	2.75337							0.511167	2.4128	0.67646	3.19114				
0.441323	2.07367	0.438302	2.05868	0.58705	2.75006							0.5124	2.41142	0.677316	3.18568				
0.442608	2.07355	0.439625	2.05877	0.588087	2.74677							0.513635	2.41006	0.678175	3.18025				
0.443893	2.07342	0.440947	2.05887	0.589125	2.74352							0.51487	2.40871	0.679035	3.17487				
0.445178	2.0733	0.44227	2.05896	0.590166	2.74029							0.516107	2.40737	0.679897	3.16953				
0.446464	2.07318	0.443592	2.05905	0.591208	2.73709							0.517346	2.40605	0.680762	3.16423				
0.44775	2.07307	0.444914	2.05915	0.592252	2.73392							0.518585	2.40474	0.681629	3.15898				
0.449036	2.07295	0.446236	2.05924	0.593298	2.73078							0.519826	2.40344	0.682497	3.15376				
0.450323	2.07284	0.447557	2.05932	0.594346	2.72766							0.521068	2.40216	0.683368	3.14858				
0.451609	2.07273	0.448879	2.05941	0.595395	2.72457							0.522311	2.40089	0.684241	3.14344				
0.452896	2.07262	0.4502	2.0595	0.596447	2.72151							0.523555	2.39964	0.685115	3.13834				
0.454184	2.07251	0.451521	2.05958	0.5975	2.71847							0.524801	2.39839	0.685992	3.13328				
0.455471	2.0724	0.452843	2.05967	0.598555	2.71545							0.526048	2.39716	0.686871	3.12826				
0.456759	2.0723	0.454163	2.05975	0.599612	2.71247							0.527296	2.39594	0.687752	3.12327				
0.458047	2.0722	0.455484	2.05983	0.600671	2.7095							0.528545	2.39474	0.688635	3.11832				
0.459335	2.0721	0.456805	2.05991	0.601732	2.70657							0.529795	2.39354	0.68952	3.11342				
0.460623	2.072	0.458125	2.05999	0.602794	2.70365							0.531047	2.39236	0.690406	3.10854				
0.461912	2.0719	0.459446	2.06007	0.603858	2.70076							0.532299	2.39119	0.691295	3.10371				
0.463201	2.0718	0.460766	2.06015	0.604924	2.6979							0.533553	2.39003	0.692186	3.09891				
0.46449	2.07171	0.462086	2.06023	0.605991	2.69506							0.534808	2.38889	0.693079	3.09414				
0.465779	2.07162	0.463406	2.0603	0.607061	2.69224							0.536064	2.38775	0.693974	3.08941				
0.467069	2.07152	0.464726	2.06037	0.608132	2.68945							0.537321	2.38663	0.694871	3.08472				
0.468359	2.07143	0.466045	2.06045	0.609205	2.68668							0.538579	2.38552	0.695769	3.08006				
0.469649	2.07134	0.467365	2.06052	0.610279	2.68393							0.539839	2.38441	0.69667	3.07544				
0.470939	2.07126	0.468684	2.06059	0.611355	2.68121							0.541099	2.38332	0.697573	3.07085				
0.472229	2.07117	0.470004	2.06066	0.612433	2.6785							0.542361	2.38224	0.698478	3.0663				
0.47352	2.07109	0.471323	2.06073	0.613512	2.67582							0.543623	2.38117	0.699384	3.06178				
0.47481	2.071	0.472642	2.0608	0.614594	2.67316							0.544887	2.38012	0.700293	3.05729				
0.476101	2.07092	0.473961	2.06087	0.615676	2.67053							0.546151	2.37907	0.701203	3.05283				
0.477392	2.07084	0.475279	2.06093	0.616761	2.66791							0.547417	2.37803	0.702116	3.04841				
0.478684	2.07076	0.476598	2.061	0.617847	2.66532							0.548684	2.377	0.70303	3.04402				
0.479975	2.07068	0.477917	2.06106	0.618935	2.66275							0.549951	2.37598	0.703946	3.03967				
0.481267	2.07061	0.479235	2.06113	0.620024	2.6602							0.55122	2.37497	0.704864	3.03534				
0.482559	2.07053	0.480553	2.06119	0.621115	2.65766							0.55249	2.37398	0.705784	3.03105				
0.483851	2.07045	0.481871	2.06125	0.622208	2.65515							0.553761	2.37299	0.706706	3.02679				
0.485143	2.07038	0.483189	2.06131	0.623302	2.65266							0.555032	2.37201	0.70763	3.02256				
0.486436	2.07031	0.484507	2.06137	0.624397	2.65019							0.556305	2.37104	0.708556	3.01836				
0.487728	2.07024	0.485825	2.06143	0.625495	2.64774							0.557579	2.37008	0.709483	3.01419				
0.489021	2.07017	0.487143	2.06149	0.626594	2.64531							0.558853	2.36913	0.710413	3.01005				
0.490314	2.0701	0.48846	2.06155	0.627694	2.6429							0.560129	2.36819	0.711344	3.00594				
0.491607	2.07003	0.489778	2.06161	0.628796	2.64051							0.561405	2.36725	0.712277	3.00186				
0.4929	2.06996	0.491095	2.06166	0.6299	2.63814							0.562683	2.36633	0.713212	2.99781				
0.494194	2.0699	0.492412	2.06172	0.631005	2.63578							0.563961	2.36541	0.714149	2.99379				
0.495487	2.06983	0.493729	2.06177	0.632111	2.63345							0.565241	2.36451	0.715088	2.9898				
0.496781	2.06977	0.495046	2.06183	0.633219	2.63113							0.566521	2.36361	0.716028	2.98583				
0.498075	2.06971	0.496363	2.06188	0.634329	2.62883							0.567802	2.36272	0.71697	2.9819				
0.499369	2.06964	0.49768	2.06193	0.63544	2.62655							0.569084	2.36184	0.717915	2.97799				
0.500663	2.06958	0.498996	2.06199	0.636552	2.62429							0.570367	2.36097	0.718861	2.97411				
0.501958	2.06952	0.500313	2.06204	0.637666	2.62205							0.571651	2.3601	0.719808	2.97026				
0.503252	2.06946	0.501629	2.06209	0.638782	2.61982							0.572936	2.35925	0.720758	2.96644				
0.504547	2.06941	0.502945	2.06214	0.639899	2.61761							0.574221	2.3584						
0.505842	2.06935	0.504262	2.06219	0.641017	2.61542							0.575508	2.35756						
0.507137	2.06929	0.505578	2.06223	0.642137	2.61325							0.576795	2.35672						
0.508432	2.06924	0.506894	2.06228	0.643258	2.61109							0.578083	2.3559						
0.509727	2.06918	0.50821	2.06233	0.644381	2.60895							0.579372	2.35508						
0.511023	2.06913	0.509525	2.06238	0.645505	2.60682							0.580662	2.35427						
0.512318	2.06908	0.510841	2.06242	0.64663	2.60472							0.581953	2.35347						
0.513614	2.06902	0.512157	2.06247	0.647757	2.60263							0.583244	2.35268						
0.51491	2.06897	0.513472	2.06251	0.648885	2.60055							0.584536	2.35189						
0.516205	2.06892	0.514788	2.06255	0.650015	2.59849							0.585829	2.35111						
0.517501	2.06887	0.516103	2.0626	0.651146	2.59645							0.587123	2.35034						
0.518798	2.06882	0.517418	2.06264	0.652278	2.59442							0.588418	2.34957						
0.520094	2.06878	0.518733	2.06268	0.653412	2.59241							0.589713	2.34881						
0.52139	2.06873	0.520048	2.06272	0.654547	2.59041							0.59101	2.34806						
0.522687	2.06868	0.521363	2.06277	0.655684	2.58843							0.592307	2.34732						
0.523984	2.06864	0.522678	2.06281	0.656821	2.58646							0.593605	2.34658						
0.525281	2.06859	0.523993	2.06285	0.65796	2.58451							0.594903	2.34585						
0.526577	2.06855	0.525307	2.06288	0.659101	2.58258							0.596203	2.34512						
0.527874	2.0685	0.526622	2.06292	0.660243	2.58066							0.597503	2.3444						
0.529172	2.06846	0.527936	2.06296	0.661386	2.57875							0.598804	2.34369						
0.530469	2.06842	0.529251	2.063	0.66253	2.57686							0.600105	2.34299						
0.531766	2.06837	0.530565	2.06304	0.663676	2.57498							0.601407	2.34229						
0.533064	2.06833	0.531879	2.06307	0.664822	2.57311							0.602711	2.34159						
0.534361	2.06829	0.533193	2.06311	0.665971	2.57126							0.604014	2.34091						
0.535659	2.06825	0.534507	2.06314	0.66712	2.56943							0.605319	2.34023						
0.536957	2.06821	0.535821	2.06318	0.668271	2.5676							0.606624	2.33955						
0.538255	2.06817	0.537135	2.06321	0.669423	2.56579							0.60793	2.33888						
0.539553	2.06814	0.538449	2.06325	0.670576	2.564							0.609237	2.33822						
0.540851	2.0681	0.539763	2.06328	0.67173	2.56222							0.610544	2.33756						
0.542149	2.06806	0.541076	2.06331	0.672886	2.56045							0.611852	2.33691						
0.543448	2.06802	0.54239	2.06335	0.674043	2.55869							0.613161	2.33627						
0.544746	2.06799	0.543703	2.06338	0.675201	2.55695							0.61447	2.33563						
0.546045	2.06795	0.545017	2.06341	0.67636	2.55522							0.61578	2.33499						
0.547343	2.06792	0.54633	2.06344	0.677521	2.5535							0.617091	2.33437						
0.548642	2.06788	0.547643	2.06347	0.678682	2.5518							0.618402	2.33374						
0.549941	2.06785	0.548956	2.0635	0.679845	2.55011							0.619714	2.33313						
0.55124	2.06782	0.550269	2.06353	0.681009	2.54843							0.621027	2.33251						
0.552539	2.06778	0.551582	2.06356	0.682175	2.54676							0.62234	2.33191						
0.553838	2.06775	0.552895	2.06359	0.683341	2.54511							0.623654	2.33131						
0.555137	2.06772	0.554208	2.06362	0.684509	2.54346							0.624969	2.33071						
0.556437	2.06769	0.555521	2.06365	0.685677	2.54183							0.626284	2.33012						
0.557736	2.06766	0.556834	2.06368	0.686847	2.54021							0.6276	2.32953						
0.559035	2.06763	0.558146	2.0637	0.688018	2.53861							0.628916	2.32895						
0.560335	2.0676	0.559459	2.06373	0.68919	2.53701							0.630233	2.32838						
0.561635	2.06757	0.560771	2.06376	0.690364	2.53543							0.631551	2.32781						
0.562934	2.06754	0.562084	2.06378	0.691538	2.53385							0.632869	2.32724						
0.564234	2.06751	0.563396	2.06381	0.692713	2.53229							0.634188	2.32668						
0.565534	2.06748	0.564708	2.06384	0.69389	2.53074							0.635508	2.32612						
0.566834	2.06745	0.566021	2.06386	0.695068	2.5292							0.636828	2.32557						
0.568134	2.06743	0.567333	2.06389	0.696247	2.52768							0.638148	2.32502						
0.569434	2.0674	0.568645	2.06391	0.697426	2.52616							0.63947	2.32448						
0.570734	2.06737	0.569957	2.06394	0.698607	2.52465							0.640792	2.32394						
0.572035	2.06735	0.571269	2.06396	0.69979	2.52316							0.642114	2.32341						
0.573335	2.06732	0.572581	2.06398	0.700973	2.52167							0.643437	2.32288						
0.574635	2.06729	0.573893	2.06401	0.702157	2.5202							0.64476	2.32236						
0.575936	2.06727	0.575204	2.06403	0.703342	2.51874							0.646085	2.32184						
0.577237	2.06725	0.576516	2.06405	0.704528	2.51728							0.647409	2.32132						
0.578537	2.06722	0.577828	2.06407	0.705716	2.51584							0.648734	2.32081						
0.579838	2.0672	0.579139	2.0641	0.706904	2.51441							0.65006	2.3203						
0.581139	2.06717	0.580451	2.06412	0.708093	2.51299							0.651387	2.3198						
0.58244	2.06715	0.581762	2.06414	0.709284	2.51157							0.652713	2.3193						
0.583741	2.06713	0.583074	2.06416	0.710475	2.51017							0.654041	2.31881						
0.585042	2.06711	0.584385	2.06418	0.711668	2.50878							0.655369	2.31832						
0.586343	2.06708	0.585696	2.0642	0.712861	2.5074							0.656697	2.31783						
0.587644	2.06706	0.587008	2.06422	0.714056	2.50602							0.658026	2.31735						
0.588945	2.06704	0.588319	2.06424	0.715251	2.50466							0.659356	2.31687						
0.590246	2.06702	0.58963	2.06426	0.716448	2.5033							0.660686	2.3164						
0.591548	2.067	0.590941	2.06428	0.717645	2.50196							0.662016	2.31592						
0.592849	2.06698	0.592252	2.0643	0.718844	2.50062							0.663347	2.31546						
0.594151	2.06696	0.593563	2.06432	0.720043	2.4993							0.664679	2.315						
0.595452	2.06694	0.594874	2.06434									0.666011	2.31454						
0.596754	2.06692	0.596185	2.06436									0.667343	2.31408						
0.598055	2.0669	0.597496	2.06437									0.668676	2.31363						
0.599357	2.06688	0.598807	2.06439									0.67001	2.31318						
0.600659	2.06686	0.600117	2.06441									0.671344	2.31274						
0.601961	2.06684	0.601428	2.06443									0.672678	2.3123						
0.603263	2.06682	0.602739	2.06444									0.674013	2.31186						
0.604564	2.06681	0.604049	2.06446									0.675348	2.31142						
0.605866	2.06679	0.60536	2.06448									0.676684	2.31099						
0.607168	2.06677	0.60667	2.06449									0.678021	2.31057						
0.608471	2.06675	0.607981	2.06451									0.679357	2.31014						
0.609773	2.06674	0.609291	2.06452									0.680695	2.30972						
0.611075	2.06672	0.610601	2.06454									0.682032	2.30931						
0.612377	2.0667	0.611912	2.06456									0.683371	2.30889						
0.613679	2.06669	0.613222	2.06457									0.684709	2.30848						
0.614982	2.06667	0.614532	2.06459									0.686048	2.30808						
0.616284	2.06666	0.615842	2.0646									0.687388	2.30767						
0.617587	2.06664	0.617152	2.06461									0.688728	2.30727						
0.618889	2.06663	0.618462	2.06463									0.690068	2.30688						
0.620192	2.06661	0.619772	2.06464									0.691409	2.30648						
0.621494	2.0666	0.621082	2.06466									0.69275	2.30609						
0.622797	2.06658	0.622392	2.06467									0.694092	2.3057						
0.6241	2.06657	0.623702	2.06468									0.695434	2.30532						
0.625402	2.06655	0.625012	2.0647									0.696776	2.30493						
0.626705	2.06654	0.626322	2.06471									0.698119	2.30456						
0.628008	2.06653	0.627632	2.06472									0.699463	2.30418						
0.629311	2.06651	0.628941	2.06474									0.700806	2.30381						
0.630614	2.0665	0.630251	2.06475									0.702151	2.30344						
0.631917	2.06649	0.631561	2.06476									0.703495	2.30307						
0.63322	2.06647	0.63287	2.06477									0.70484	2.3027						
0.634523	2.06646	0.63418	2.06479									0.706185	2.30234						
0.635826	2.06645	0.635489	2.0648									0.707531	2.30198						
0.637129	2.06644	0.636799	2.06481									0.708877	2.30163						
0.638432	2.06642	0.638108	2.06482									0.710224	2.30127						
0.639736	2.06641	0.639418	2.06483									0.711571	2.30092						
0.641039	2.0664	0.640727	2.06484									0.712918	2.30057						
0.642342	2.06639	0.642037	2.06485									0.714266	2.30023						
0.643646	2.06638	0.643346	2.06487									0.715614	2.29988						
0.644949	2.06637	0.644655	2.06488									0.716962	2.29954						
0.646252	2.06635	0.645964	2.06489									0.718311	2.29921						
0.647556	2.06634	0.647274	2.0649									0.71966	2.29887						
0.648859	2.06633	0.648583	2.06491									0.72101	2.29854						
0.650163	2.06632	0.649892	2.06492																
0.651466	2.06631	0.651201	2.06493																
0.65277	2.0663	0.65251	2.06494																
0.654074	2.06629	0.653819	2.06495																
0.655377	2.06628	0.655128	2.06496																
0.656681	2.06627	0.656437	2.06497																
0.657985	2.06626	0.657746	2.06498																
0.659288	2.06625	0.659055	2.06498																
0.660592	2.06624	0.660364	2.06499																
0.661896	2.06623	0.661673	2.065																
0.6632	2.06622	0.662982	2.06501																
0.664504	2.06622	0.664291	2.06502																
0.665808	2.06621	0.665599	2.06503																
0.667112	2.0662	0.666908	2.06504																
0.668416	2.06619	0.668217	2.06504																
0.66972	2.06618	0.669525	2.06505																
0.671024	2.06617	0.670834	2.06506																
0.672328	2.06616	0.672143	2.06507																
0.673632	2.06616	0.673451	2.06508																
0.674936	2.06615	0.67476	2.06508																
0.67624	2.06614	0.676069	2.06509																
0.677545	2.06613	0.677377	2.0651																
0.678849	2.06612	0.678686	2.06511																
0.680153	2.06612	0.679994	2.06511																
0.681457	2.06611	0.681303	2.06512																
0.682762	2.0661	0.682611	2.06513																
0.684066	2.0661	0.683919	2.06514																
0.68537	2.06609	0.685228	2.06514																
0.686675	2.06608	0.686536	2.06515																
0.687979	2.06607	0.687844	2.06516																
0.689284	2.06607	0.689153	2.06516																
0.690588	2.06606	0.690461	2.06517																
0.691893	2.06605	0.691769	2.06518																
0.693197	2.06605	0.693078	2.06518																
0.694502	2.06604	0.694386	2.06519																
0.695806	2.06603	0.695694	2.06519																
0.697111	2.06603	0.697002	2.0652																
0.698415	2.06602	0.69831	2.06521																
0.69972	2.06602	0.699618	2.06521																
0.701025	2.06601	0.700927	2.06522																
0.702329	2.066	0.702235	2.06522																
0.703634	2.066	0.703543	2.06523																
0.704939	2.06599	0.704851	2.06523																
0.706243	2.06599	0.706159	2.06524																
0.707548	2.06598	0.707467	2.06525																
0.708853	2.06598	0.708775	2.06525																
0.710158	2.06597	0.710083	2.06526																
0.711463	2.06597	0.711391	2.06526																
0.712767	2.06596	0.712699	2.06527																
0.714072	2.06596	0.714007	2.06527																
0.715377	2.06595	0.715314	2.06528																
0.716682	2.06595	0.716622	2.06528																
0.717987	2.06594	0.71793	2.06529																
0.719292	2.06594	0.719238	2.06529																
0.720597	2.06593	0.720546	2.06529																
