Sym0		Asym0		Sym1		Sym2		Sym3		Sym4		Asym1		Asym2		Asym3		Asym4	
533  Points		533  Points		423  Points		163  Points		152  Points		115  Points		488  Points		310  Points		159  Points		121  Points	
Freq (MHz)	Vph (m/ms)	Freq (MHz)	Vph (m/ms)	Freq (MHz)	Vph (m/ms)	Freq (MHz)	Vph (m/ms)	Freq (MHz)	Vph (m/ms)	Freq (MHz)	Vph (m/ms)	Freq (MHz)	Vph (m/ms)	Freq (MHz)	Vph (m/ms)	Freq (MHz)	Vph (m/ms)	Freq (MHz)	Vph (m/ms)
0.000531125	7.11879	0.000192496	0.140837	0.166668	323.182	0.279543	474.786	0.500011	7882.86	0.559021	2180.65	0.139755	2607.29	0.333339	863.299	0.419268	1568.14	0.666682	15691.1
0.00503321	7.11846	0.000410617	0.205385	0.166659	145.153	0.279657	228.996	0.500002	718.512	0.559068	629.007	0.139844	203.837	0.333329	327.249	0.419322	466.005	0.666664	987.734
0.00953492	7.11816	0.000708754	0.269313	0.166644	93.5874	0.27985	150.969	0.499979	376.393	0.559167	367.567	0.140084	106.244	0.33331	201.88	0.419434	273.732	0.666617	509.88
0.0140361	7.11778	0.00108493	0.332376	0.166622	69.0495	0.280123	112.674	0.49994	254.968	0.559318	259.698	0.140475	72.0025	0.333283	145.953	0.419604	193.836	0.666539	343.603
0.0185363	7.11721	0.00153693	0.394427	0.166594	54.7011	0.280473	89.9357	0.499888	192.765	0.55952	200.82	0.141014	54.5843	0.333247	114.284	0.419831	150.09	0.666433	259.08
0.0230352	7.11648	0.00206209	0.455299	0.166561	45.2858	0.280902	74.8863	0.499821	154.949	0.559773	163.742	0.1417	44.0627	0.333203	93.9023	0.420116	122.496	0.666299	207.909
0.0275326	7.11557	0.00265744	0.514855	0.166523	38.6324	0.281409	64.1971	0.499741	129.528	0.560076	138.253	0.14253	37.0368	0.333151	79.6849	0.420459	103.508	0.666139	173.599
0.032028	7.11449	0.00331982	0.572977	0.166481	33.6809	0.281992	56.2188	0.499648	111.265	0.560429	119.659	0.1435	32.0257	0.333092	69.2023	0.420857	89.6479	0.665955	148.994
0.0365211	7.11322	0.00404573	0.629545	0.166436	29.8521	0.28265	50.0405	0.499544	97.5085	0.560832	105.499	0.144607	28.2809	0.333027	61.1533	0.421312	79.0897	0.665749	130.484
0.0410114	7.11175	0.00483177	0.684493	0.166389	26.8032	0.283383	45.1184	0.499427	86.7734	0.561282	94.3576	0.145847	25.3837	0.332955	54.7783	0.421822	70.7818	0.665522	116.054
0.0454985	7.11006	0.00567429	0.73775	0.166342	24.318	0.28419	41.1075	0.4993	78.1624	0.56178	85.365	0.147215	23.0811	0.332877	49.6041	0.422387	64.0764	0.665277	104.488
0.0499817	7.10813	0.00656974	0.789271	0.166294	22.2535	0.285069	37.7785	0.499163	71.1014	0.562324	77.9559	0.148707	21.2117	0.332795	45.3206	0.423005	58.5525	0.665015	95.009
0.0544605	7.10595	0.00751449	0.839021	0.166249	20.5114	0.286019	34.9731	0.499018	65.2064	0.562914	71.747	0.150317	19.6672	0.332709	41.7159	0.423677	53.9246	0.66474	87.0996
0.0589343	7.10348	0.00850509	0.886989	0.166207	19.0219	0.287038	32.5784	0.498864	60.2104	0.563549	66.4697	0.152042	18.3725	0.33262	38.6406	0.424401	49.9925	0.664452	80.3992
0.0634021	7.10071	0.00953806	0.933166	0.166169	17.734	0.288127	30.5117	0.498704	55.9222	0.564227	61.9299	0.153876	17.274	0.332528	35.9859	0.425177	46.6113	0.664154	74.6503
0.0678631	7.09758	0.0106102	0.977573	0.166139	16.6097	0.289282	28.7111	0.498537	52.2014	0.564948	57.9839	0.155815	16.332	0.332434	33.6712	0.426003	43.6738	0.663847	69.6637
0.0723162	7.09406	0.0117184	1.02023	0.166117	15.6199	0.290503	27.1293	0.498366	48.9423	0.565711	54.5229	0.157853	15.517	0.33234	31.6351	0.426879	41.0988	0.663534	65.2971
0.0767599	7.0901	0.0128596	1.06115	0.166107	14.7422	0.291788	25.7296	0.49819	46.064	0.566514	51.4634	0.159985	14.8061	0.332246	29.8303	0.427804	38.8238	0.663216	61.4417
0.081193	7.08564	0.0140309	1.10038	0.16611	13.9589	0.293135	24.4831	0.498011	43.5034	0.567356	48.7396	0.162208	14.1817	0.332153	28.2195	0.428776	36.7999	0.662894	58.0128
0.0856134	7.0806	0.0152299	1.13796	0.16613	13.2561	0.294544	23.3664	0.497831	41.2109	0.568238	46.2998	0.164516	13.6299	0.332062	26.7732	0.429796	34.9882	0.66257	54.9434
0.0900188	7.07488	0.0164539	1.17394	0.16617	12.6223	0.296012	22.3609	0.497649	39.1463	0.569157	44.102	0.166905	13.1393	0.331974	25.4674	0.430861	33.3575	0.662246	52.1799
0.0944066	7.06838	0.0177007	1.20837	0.166234	12.0483	0.297538	21.4514	0.497467	37.2774	0.570113	42.1123	0.16937	12.701	0.33189	24.2828	0.431972	31.8823	0.661922	49.6787
0.0987732	7.06096	0.0189681	1.2413	0.166327	11.5267	0.29912	20.625	0.497286	35.5777	0.571104	40.3027	0.171908	12.3076	0.33181	23.2033	0.433126	30.5419	0.661599	47.4043
0.103114	7.05243	0.0202542	1.27279	0.166455	11.0512	0.300758	19.8713	0.497106	34.0253	0.57213	38.6501	0.174514	11.9529	0.331737	22.2156	0.434323	29.3187	0.661279	45.3274
0.107424	7.04258	0.0215572	1.30288	0.166625	10.6167	0.302449	19.1815	0.496929	32.6018	0.57319	37.1351	0.177184	11.632	0.33167	21.3087	0.435563	28.1985	0.660963	43.4232
0.111696	7.03112	0.0228752	1.33164	0.166814	10.2682	0.304191	18.5481	0.496756	31.292	0.574284	35.7414	0.179915	11.3404	0.331612	20.473	0.436843	27.169	0.660651	41.6713
0.115921	7.01768	0.024207	1.35913	0.167012	9.99138	0.305984	17.9646	0.496586	30.0829	0.575409	34.4552	0.182702	11.0746	0.331562	19.7007	0.438164	26.2198	0.660345	40.0541
0.120087	7.0018	0.025551	1.38539	0.167205	9.7757	0.307826	17.4257	0.496422	28.9632	0.576566	33.2647	0.185543	10.8315	0.331523	18.9849	0.439524	25.342	0.660044	38.5567
0.124179	6.98287	0.0269059	1.41049	0.167378	9.61321	0.309715	16.9266	0.496264	27.9236	0.577753	32.1597	0.188433	10.6086	0.331494	18.3198	0.440922	24.5282	0.659751	37.1664
0.128176	6.96008	0.0282706	1.43447	0.16752	9.4981	0.31165	16.4633	0.496112	26.9558	0.57897	31.1315	0.191369	10.4034	0.331478	17.7002	0.442358	23.7717	0.659464	35.8722
0.132051	6.93242	0.0296439	1.45739	0.167617	9.42634	0.313629	16.0322	0.495967	26.0527	0.580217	30.1724	0.194349	10.2142	0.331475	17.1218	0.44383	23.0668	0.659186	34.6645
0.13577	6.8986	0.031025	1.47929	0.167766	9.32572	0.315651	15.6302	0.495831	25.2081	0.581491	29.2759	0.197368	10.0392	0.331487	16.5808	0.445338	22.4086	0.658917	33.535
0.139289	6.85708	0.0324131	1.50023	0.167941	9.21971	0.317714	15.2547	0.495704	24.4165	0.582794	28.436	0.20003	9.89714	0.331514	16.0736	0.44688	21.7927	0.658656	32.4764
0.142559	6.80613	0.0336276	1.51773	0.168205	9.08104	0.319817	14.9031	0.495586	23.6732	0.584123	27.6477	0.202319	9.78297	0.331559	15.5975	0.448457	21.2153	0.658405	31.4823
0.145526	6.74416	0.0346662	1.53212	0.168585	8.91458	0.321959	14.5734	0.495478	22.974	0.585479	26.9064	0.204225	9.69304	0.331622	15.1498	0.450066	20.6729	0.658164	30.547
0.148146	6.67009	0.0355272	1.54366	0.169124	8.72632	0.324138	14.2637	0.495382	22.3151	0.58686	26.2081	0.20574	9.62462	0.331706	14.728	0.451708	20.1626	0.657934	29.6655
0.150396	6.5839	0.0362091	1.55257	0.169891	8.52348	0.326353	13.9723	0.495297	21.6933	0.588267	25.5493	0.206858	9.57575	0.331811	14.3303	0.453381	19.6816	0.657715	28.8334
0.152281	6.4868	0.0367112	1.559	0.170987	8.31464	0.328601	13.6976	0.495224	21.1054	0.589698	24.9268	0.207575	9.54509	0.331939	13.9547	0.455085	19.2277	0.657507	28.0466
0.153834	6.38105	0.0370328	1.56306	0.172365	8.13157	0.330883	13.4385	0.495165	20.549	0.591154	24.3377	0.208609	9.50184	0.332093	13.5995	0.456818	18.7986	0.657311	27.3017
0.155106	6.26935	0.0374955	1.56883	0.174076	7.97437	0.333196	13.1935	0.495119	20.0216	0.592632	23.7794	0.209736	9.45588	0.332273	13.2634	0.45858	18.3924	0.657127	26.5954
0.156152	6.1543	0.0379989	1.57501	0.176159	7.84255	0.335538	12.9617	0.495087	19.5211	0.594134	23.2496	0.211274	9.39508	0.332483	12.945	0.460371	18.0074	0.656956	25.9249
0.157022	6.03807	0.0386842	1.58325	0.178625	7.73458	0.33791	12.742	0.495071	19.0455	0.595658	22.7463	0.213226	9.32086	0.332725	12.6431	0.462188	17.6421	0.656797	25.2875
0.157757	5.92232	0.039552	1.59344	0.181459	7.64783	0.340308	12.5335	0.49507	18.5931	0.597203	22.2675	0.215597	9.23485	0.333	12.3566	0.464033	17.295	0.656652	24.6809
0.158391	5.80822	0.0406031	1.60539	0.184617	7.57894	0.342733	12.3354	0.495086	18.1623	0.59877	21.8116	0.218392	9.13881	0.333313	12.0846	0.465903	16.9648	0.65652	24.103
0.15895	5.69658	0.041838	1.61894	0.188048	7.52441	0.345181	12.1471	0.495119	17.7516	0.600358	21.3769	0.221613	9.03451	0.333666	11.8262	0.467798	16.6503	0.656402	23.5518
0.159451	5.58789	0.0432574	1.63388	0.191697	7.4811	0.347652	11.9677	0.49517	17.3598	0.601966	20.9621	0.224847	8.93595	0.334062	11.5806	0.469717	16.3506	0.656298	23.0256
0.159911	5.48248	0.0446789	1.6482	0.195518	7.44642	0.350144	11.7966	0.49524	16.9857	0.603594	20.5659	0.22809	8.84257	0.334505	11.3472	0.471659	16.0645	0.65621	22.5227
0.160339	5.38051	0.0461021	1.66192	0.199472	7.41833	0.352657	11.6334	0.49533	16.628	0.605242	20.187	0.231338	8.75387	0.335	11.1253	0.473624	15.7913	0.656136	22.0417
0.160746	5.28204	0.0475268	1.67509	0.20353	7.3953	0.355187	11.4774	0.49544	16.286	0.606908	19.8244	0.234589	8.66938	0.33555	10.9143	0.475611	15.53	0.656077	21.5812
0.161136	5.18708	0.0489526	1.68772	0.207669	7.37619	0.357734	11.3282	0.495572	15.9585	0.608592	19.477	0.237837	8.58868	0.336162	10.7138	0.477619	15.28	0.656034	21.14
0.161516	5.09558	0.0503796	1.69986	0.211872	7.36013	0.360296	11.1853	0.495726	15.6449	0.610295	19.144	0.241079	8.51135	0.336839	10.5233	0.479647	15.0406	0.656007	20.7169
0.16189	5.00745	0.0518072	1.7115	0.216126	7.3465	0.362871	11.0483	0.495904	15.3442	0.612015	18.8245	0.24431	8.43703	0.337488	10.3651	0.481694	14.8111	0.655996	20.3109
0.162261	4.92262	0.0532355	1.72269	0.220421	7.3348	0.365459	10.9169	0.496106	15.0558	0.613751	18.5177	0.247525	8.36537	0.338088	10.2358	0.483761	14.5909	0.656003	19.921
0.162583	4.85128	0.0546643	1.73345	0.224748	7.32465	0.368056	10.7906	0.496333	14.779	0.615505	18.2229	0.25072	8.29602	0.338618	10.1327	0.485845	14.3794	0.656026	19.5463
0.162858	4.79231	0.0560933	1.7438	0.229103	7.31579	0.370661	10.6692	0.496587	14.5133	0.617274	17.9393	0.253889	8.22867	0.33906	10.0535	0.487945	14.1762	0.656068	19.186
0.163087	4.7448	0.0575226	1.75374	0.23348	7.30797	0.373273	10.5522	0.496869	14.258	0.619059	17.6665	0.257026	8.16302	0.339399	9.99659	0.490062	13.9808	0.656127	18.8393
0.163269	4.70802	0.0589519	1.76332	0.237876	7.30102	0.375889	10.4395	0.497181	14.0126	0.620859	17.4037	0.260125	8.09876	0.339622	9.96074	0.492195	13.7928	0.656205	18.5055
0.163403	4.6814	0.0603812	1.77254	0.242287	7.29481	0.378171	10.3446	0.497523	13.7767	0.622673	17.1505	0.263179	8.03561	0.339951	9.90999	0.494341	13.6117	0.656302	18.1839
0.16349	4.66455	0.0618104	1.78142	0.246712	7.28922	0.380116	10.2658	0.497897	13.5497	0.624502	16.9064	0.266181	7.9733	0.34032	9.85587	0.496502	13.4372	0.656418	17.8739
0.163614	4.64059	0.0632394	1.78998	0.251147	7.28415	0.381725	10.2022	0.498304	13.3314	0.626344	16.6708	0.269123	7.91156	0.340843	9.78397	0.498675	13.2689	0.656555	17.575
0.16375	4.61488	0.0646682	1.79823	0.255592	7.27953	0.382996	10.1529	0.498747	13.1212	0.628199	16.4434	0.271999	7.85014	0.341539	9.69582	0.500859	13.1065	0.656711	17.2865
0.163936	4.58047	0.0660966	1.80619	0.260044	7.2753	0.38393	10.117	0.499227	12.9189	0.630067	16.2237	0.274799	7.78878	0.342435	9.5933	0.503054	12.9496	0.65689	17.008
0.164174	4.53785	0.0675247	1.81386	0.264504	7.2714	0.384528	10.0943	0.499746	12.7241	0.631947	16.0114	0.277516	7.72728	0.343566	9.47862	0.505259	12.798	0.657089	16.7391
0.164464	4.4876	0.0689524	1.82127	0.268969	7.26779	0.385387	10.062	0.500306	12.5364	0.633839	15.806	0.280143	7.66542	0.344974	9.35426	0.507473	12.6514	0.657311	16.4793
0.16481	4.43042	0.0703798	1.82843	0.273439	7.26443	0.386319	10.0272	0.500908	12.3557	0.635741	15.6073	0.282671	7.60304	0.346507	9.23741	0.509695	12.5095	0.657556	16.2281
0.165215	4.36705	0.0718066	1.83534	0.277914	7.26129	0.387587	9.98053	0.501555	12.1816	0.637655	15.415	0.285096	7.53998	0.34817	9.12786	0.511924	12.3722	0.657825	15.9852
0.165628	4.30597	0.0732329	1.84202	0.282391	7.25834	0.389187	9.92247	0.50225	12.014	0.639578	15.2286	0.28741	7.47613	0.349968	9.02535	0.514158	12.2391	0.658118	15.7503
0.16605	4.2471	0.0746587	1.84848	0.286872	7.25555	0.391117	9.85366	0.502994	11.8525	0.64151	15.048	0.28961	7.41143	0.351904	8.92961	0.516397	12.1101	0.658436	15.5229
0.16648	4.19034	0.0760841	1.85472	0.291354	7.25291	0.393375	9.77481	0.50379	11.6969	0.643452	14.8729	0.291693	7.34585	0.353978	8.84037	0.51864	11.9849	0.65878	15.3029
0.166921	4.13559	0.0775088	1.86077	0.295838	7.25039	0.395953	9.68664	0.50464	11.5471	0.645401	14.703	0.293659	7.27941	0.356191	8.7573	0.520885	11.8634	0.659151	15.0898
0.167371	4.08277	0.0789331	1.86662	0.300324	7.24798	0.398516	9.6008	0.505547	11.4028	0.647359	14.5382	0.295507	7.21215	0.35854	8.68009	0.523131	11.7454	0.659549	14.8834
0.167831	4.0318	0.0803568	1.87228	0.30481	7.24565	0.401061	9.51711	0.506513	11.2639	0.649323	14.3781	0.29724	7.14417	0.361022	8.60837	0.525377	11.6307	0.659975	14.6835
0.168302	3.98259	0.0817799	1.87777	0.309297	7.24341	0.403586	9.43541	0.507541	11.1302	0.651294	14.2225	0.298862	7.07559	0.363632	8.5418	0.527622	11.5191	0.660431	14.4897
0.168782	3.93507	0.0832024	1.88309	0.313784	7.24123	0.406087	9.35555	0.508634	11.0016	0.653271	14.0713	0.300377	7.00655	0.366365	8.48001	0.529864	11.4105	0.660916	14.3019
0.169273	3.88916	0.0846245	1.88824	0.31827	7.2391	0.408563	9.2774	0.509794	10.8779	0.655253	13.9243	0.301791	6.9372	0.369213	8.42264	0.532103	11.3047	0.661433	14.1199
0.169774	3.84481	0.0860459	1.89324	0.322755	7.23701	0.411009	9.20082	0.510861	10.7739	0.657239	13.7813	0.303112	6.86771	0.37217	8.36934	0.534337	11.2017	0.661983	13.9433
0.170286	3.80194	0.0874668	1.89809	0.327239	7.23495	0.413424	9.12568	0.511813	10.6881	0.65923	13.6422	0.304345	6.79823	0.375228	8.31977	0.536565	11.1012	0.662565	13.7721
0.170808	3.76049	0.0888871	1.9028	0.331721	7.2329	0.415805	9.05186	0.512631	10.6191	0.661223	13.5066	0.305498	6.72893	0.378379	8.27362	0.538784	11.0031	0.663182	13.6061
0.17134	3.72041	0.0903069	1.90737	0.3362	7.23085	0.418149	8.97926	0.513297	10.5656	0.663219	13.3746	0.306578	6.65994	0.381616	8.23059	0.540995	10.9074	0.663835	13.445
0.171883	3.68164	0.0917261	1.91181	0.340677	7.2288	0.420453	8.90777	0.513799	10.527	0.665217	13.246	0.307591	6.5914	0.384933	8.1904	0.542912	10.8258	0.664524	13.2888
0.172436	3.64412	0.0931448	1.91612	0.34515	7.22673	0.422716	8.8373	0.514124	10.5026	0.667216	13.1205	0.308545	6.52342	0.388322	8.15279	0.54454	10.7574	0.665251	13.1371
0.173	3.60781	0.094563	1.92031	0.349618	7.22463	0.424936	8.76777	0.5146	10.4678	0.669215	12.9982	0.309445	6.45612	0.391777	8.11755	0.545881	10.7018	0.666017	12.99
0.173573	3.57265	0.0959806	1.92438	0.354082	7.22247	0.42711	8.69911	0.515126	10.4306	0.671214	12.8788	0.310297	6.38958	0.395293	8.08445	0.546937	10.6583	0.666823	12.8473
0.174157	3.5386	0.0973977	1.92834	0.35854	7.22026	0.429237	8.63125	0.515858	10.3809	0.673212	12.7623	0.311106	6.32388	0.398864	8.05331	0.547712	10.6266	0.667671	12.7088
0.174751	3.50562	0.0988143	1.93219	0.362991	7.21796	0.431316	8.56414	0.516809	10.3193	0.675208	12.6485	0.311877	6.25908	0.402484	8.02395	0.548207	10.6065	0.668561	12.5743
0.175355	3.47366	0.10023	1.93594	0.367434	7.21557	0.433347	8.49775	0.518	10.247	0.6772	12.5372	0.312614	6.19524	0.406151	7.99623	0.548917	10.5777	0.669496	12.4439
0.175969	3.44269	0.101646	1.93959	0.371868	7.21305	0.435329	8.43205	0.519453	10.1649	0.67919	12.4286	0.31332	6.13238	0.409859	7.96999	0.549686	10.5466	0.670475	12.3173
0.176593	3.41267	0.103061	1.94314	0.376291	7.21038	0.437263	8.36701	0.521195	10.0743	0.681174	12.3223	0.314001	6.07055	0.413605	7.94512	0.55073	10.5047	0.671501	12.1945
0.177226	3.38356	0.104476	1.9466	0.380701	7.20754	0.439151	8.30265	0.523019	9.98747	0.683154	12.2183	0.314658	6.00977	0.417386	7.92151	0.552043	10.4523	0.672575	12.0753
0.17787	3.35532	0.10589	1.94997	0.385096	7.20448	0.440994	8.23897	0.524923	9.90422	0.685127	12.1165	0.315294	5.95006	0.421198	7.89904	0.553623	10.3898	0.673697	11.9596
0.178522	3.32793	0.107304	1.95326	0.389473	7.20117	0.442795	8.17601	0.526909	9.82445	0.687094	12.0169	0.315913	5.89141	0.425039	7.87764	0.555463	10.3176	0.674869	11.8474
0.179184	3.30135	0.108717	1.95646	0.393829	7.19754	0.444557	8.11381	0.528975	9.74802	0.689053	11.9193	0.316516	5.83385	0.428906	7.85721	0.557556	10.2362	0.676093	11.7385
0.179856	3.27556	0.11013	1.95958	0.398159	7.19353	0.446288	8.05244	0.531121	9.6748	0.691003	11.8237	0.317105	5.77736	0.432797	7.83768	0.559627	10.1563	0.677368	11.6329
0.180537	3.25051	0.111542	1.96263	0.402459	7.18907	0.447991	7.99197	0.533344	9.60465	0.692944	11.73	0.317682	5.72194	0.436709	7.81898	0.561675	10.0778	0.678695	11.5305
0.181227	3.2262	0.112954	1.9656	0.406722	7.18405	0.449676	7.93254	0.535645	9.53745	0.694874	11.638	0.318249	5.66759	0.440642	7.80105	0.563699	10.0007	0.680077	11.4311
0.181925	3.20258	0.114366	1.96849	0.410939	7.17835	0.451353	7.87427	0.53802	9.47307	0.696793	11.5479	0.318807	5.6143	0.444592	7.78383	0.565699	9.92478	0.681512	11.3348
0.182633	3.17964	0.115777	1.97132	0.4151	7.17181	0.453034	7.81734	0.540468	9.41137	0.6987	11.4593	0.319358	5.56205	0.448558	7.76726	0.567672	9.85009	0.682808	11.2532
0.18335	3.15735	0.117188	1.97409	0.419192	7.16422	0.454736	7.76199	0.542987	9.35223	0.700595	11.3725	0.319902	5.51082	0.452539	7.75131	0.569617	9.77656	0.683946	11.1853
0.184075	3.13569	0.118598	1.97678	0.423198	7.15534	0.456476	7.70848	0.545574	9.29553	0.702234	11.298	0.320441	5.46062	0.456533	7.73592	0.571535	9.70414	0.68491	11.1304
0.184809	3.11463	0.120008	1.97942	0.427096	7.14485	0.458281	7.65717	0.548226	9.24114	0.703624	11.2354	0.320976	5.41141	0.460539	7.72105	0.573423	9.63276	0.685687	11.0877
0.185551	3.09416	0.121418	1.98199	0.430861	7.13238	0.460177	7.60846	0.550942	9.18895	0.704766	11.1843	0.321508	5.36318	0.464555	7.70666	0.575282	9.56239	0.686267	11.0566
0.186302	3.07426	0.122827	1.98451	0.434462	7.11747	0.462199	7.56281	0.553717	9.13884	0.705666	11.1442	0.322036	5.31592	0.468579	7.69271	0.577111	9.49299	0.686642	11.037
0.187061	3.0549	0.124236	1.98697	0.437866	7.09966	0.464384	7.52072	0.55655	9.09071	0.706325	11.115	0.322563	5.2696	0.472612	7.67918	0.578909	9.42452	0.687186	11.0089
0.187827	3.03606	0.125644	1.98938	0.441037	7.0785	0.466765	7.48265	0.559438	9.04444	0.706745	11.0964	0.323089	5.22421	0.47665	7.66602	0.580677	9.35696	0.687784	10.9788
0.188602	3.01774	0.127053	1.99173	0.44395	7.05365	0.469374	7.44894	0.562378	8.99995	0.707348	11.0697	0.323613	5.17972	0.480694	7.65321	0.582414	9.29027	0.688609	10.9383
0.189385	2.9999	0.12846	1.99403	0.446588	7.02496	0.472225	7.41971	0.565368	8.95713	0.708002	11.0409	0.324138	5.13613	0.484741	7.64071	0.58412	9.22443	0.689672	10.888
0.190176	2.98255	0.129868	1.99628	0.44895	6.99256	0.475319	7.39484	0.568404	8.9159	0.708888	11.002	0.324663	5.0934	0.488791	7.62849	0.585797	9.15943	0.690985	10.8284
0.190974	2.96565	0.131275	1.99848	0.451052	6.95677	0.478641	7.37398	0.571485	8.87617	0.710002	10.9533	0.325188	5.05152	0.492842	7.61653	0.587444	9.09524	0.692564	10.7602
0.19178	2.9492	0.132682	2.00064	0.452921	6.91811	0.482167	7.35662	0.574607	8.83786	0.711341	10.895	0.325714	5.01047	0.496892	7.6048	0.589063	9.03187	0.694429	10.6842
0.192593	2.93318	0.134089	2.00275	0.454588	6.87713	0.485866	7.34221	0.57777	8.80088	0.712899	10.8274	0.326242	4.97023	0.500941	7.59326	0.590655	8.9693	0.696349	10.6105
0.193414	2.91757	0.135495	2.00482	0.456084	6.83437	0.489709	7.33022	0.580969	8.76518	0.71467	10.7511	0.326772	4.93079	0.504986	7.58189	0.592221	8.90753	0.698324	10.5391
0.194241	2.90237	0.136901	2.00684	0.457438	6.79031	0.493669	7.32019	0.584204	8.73068	0.716422	10.6758	0.327303	4.89212	0.509025	7.57065	0.593762	8.84656	0.700353	10.4697
0.195076	2.88756	0.138307	2.00882	0.458675	6.74534	0.497723	7.31174	0.587472	8.69731	0.718156	10.6017	0.327837	4.85421	0.513058	7.55952	0.595282	8.7864	0.702435	10.4025
0.195918	2.87312	0.139713	2.01077	0.459815	6.69979	0.501853	7.30455	0.590771	8.66502	0.719869	10.5287	0.328373	4.81703	0.517081	7.54846	0.596781	8.72705	0.70457	10.3373
0.196767	2.85905	0.141118	2.01267	0.460874	6.65391	0.506045	7.29838	0.594099	8.63374	0.721563	10.4568	0.328912	4.78059	0.521093	7.53744	0.598262	8.66855	0.706757	10.2741
0.197623	2.84534	0.142523	2.01454	0.461866	6.60789	0.510287	7.29303	0.597454	8.60342			0.329453	4.74484	0.525092	7.52641	0.599729	8.61089	0.708994	10.2127
0.198485	2.83197	0.143928	2.01637	0.462801	6.5619	0.51457	7.28836	0.600835	8.57402			0.329998	4.70979	0.529073	7.51535	0.601185	8.55411	0.71128	10.1531
0.199354	2.81893	0.145332	2.01816	0.463688	6.51605	0.518886	7.28424	0.60424	8.54548			0.330546	4.6754	0.533034	7.5042	0.602633	8.49824	0.713614	10.0953
0.20023	2.80621	0.146736	2.01992	0.464534	6.47043	0.52323	7.28058	0.607666	8.51775			0.331097	4.64168	0.536972	7.49292	0.604078	8.44331	0.715995	10.0392
0.201112	2.79381	0.14814	2.02165	0.465345	6.42511	0.527597	7.2773	0.611113	8.49079			0.331652	4.60859	0.540882	7.48146	0.605524	8.38936	0.718422	9.98464
0.202	2.78171	0.149544	2.02334	0.466124	6.38016	0.531983	7.27434	0.614579	8.46456			0.33221	4.57613	0.544759	7.46974	0.606977	8.33645	0.720892	9.93168
0.202894	2.7699	0.150947	2.025	0.466877	6.33562	0.536386	7.27166	0.618062	8.43903			0.332772	4.54429	0.548599	7.45772	0.608443	8.28462		
0.203795	2.75838	0.152351	2.02663	0.467607	6.29153	0.540802	7.26921	0.621561	8.41414			0.333338	4.51304	0.552395	7.44531	0.609929	8.23395		
0.204702	2.74713	0.153754	2.02823	0.468316	6.2479	0.545231	7.26695	0.625074	8.38987			0.333908	4.48237	0.55614	7.43242	0.611442	8.1845		
0.205614	2.73616	0.155156	2.0298	0.469007	6.20476	0.549669	7.26487	0.6286	8.36618			0.334482	4.45227	0.559826	7.41898	0.612992	8.13635		
0.206533	2.72544	0.156559	2.03134	0.469681	6.16213	0.554116	7.26293	0.632138	8.34303			0.335059	4.42273	0.563444	7.40486	0.614587	8.08962		
0.207457	2.71498	0.157961	2.03286	0.470342	6.12001	0.55857	7.26112	0.635685	8.3204			0.335641	4.39373	0.566985	7.38997	0.616238	8.04439		
0.208387	2.70476	0.159363	2.03434	0.47099	6.07842	0.563031	7.25942	0.639241	8.29824			0.336227	4.36526	0.570437	7.37418	0.617958	8.00078		
0.209322	2.69478	0.160765	2.0358	0.471626	6.03736	0.567497	7.25782	0.642803	8.27654			0.336818	4.33731	0.573789	7.35736	0.619757	7.95891		
0.210263	2.68503	0.162167	2.03724	0.472253	5.99683	0.571968	7.25631	0.646371	8.25525			0.337412	4.30986	0.577029	7.33938	0.62165	7.9189		
0.21121	2.67551	0.163569	2.03865	0.47287	5.95683	0.576442	7.25486	0.649943	8.23435			0.338011	4.28291	0.580144	7.32013	0.623649	7.88087		
0.212161	2.66621	0.16497	2.04003	0.47348	5.91736	0.58092	7.25348	0.653516	8.21381			0.338614	4.25645	0.583124	7.29947	0.625767	7.84493		
0.213118	2.65711	0.166371	2.04139	0.474083	5.87843	0.585401	7.25216	0.65709	8.1936			0.339222	4.23045	0.585959	7.27734	0.628014	7.81117		
0.214081	2.64823	0.167772	2.04273	0.474679	5.84003	0.589883	7.25088	0.660662	8.17368			0.339834	4.20492	0.588639	7.25366	0.6304	7.77965		
0.215048	2.63954	0.169173	2.04405	0.47527	5.80215	0.594368	7.24964	0.664231	8.15403			0.34045	4.17983	0.591162	7.2284	0.632931	7.75039		
0.21602	2.63105	0.170574	2.04534	0.475856	5.76479	0.598853	7.24844	0.667795	8.13462			0.341071	4.15519	0.593524	7.2016	0.63561	7.72338		
0.216998	2.62275	0.171974	2.04661	0.476437	5.72795	0.60334	7.24726	0.67135	8.11541			0.341696	4.13098	0.595729	7.1733	0.638436	7.69856		
0.21798	2.61464	0.173375	2.04786	0.477015	5.69162	0.607827	7.24611	0.674895	8.09637			0.342326	4.10719	0.59778	7.1436	0.641406	7.67583		
0.218967	2.6067	0.174775	2.04909	0.477589	5.65579	0.6168	7.24385	0.678428	8.07746			0.34296	4.08381	0.599686	7.11262	0.644512	7.65506		
0.219958	2.59894	0.176175	2.0503	0.478161	5.62046	0.621285	7.24273	0.681945	8.05865			0.343598	4.06083	0.601457	7.08051	0.647746	7.63612		
0.220955	2.59135	0.177574	2.05149	0.47873	5.58563	0.62577	7.24162	0.685444	8.03991			0.344242	4.03824	0.603103	7.04742	0.651098	7.61883		
0.221956	2.58392	0.178974	2.05267	0.479298	5.55129	0.630252	7.2405	0.688921	8.02119			0.344889	4.01604	0.604636	7.0135	0.654557	7.60303		
0.222961	2.57665	0.180373	2.05382	0.479863	5.51742	0.634733	7.23937	0.692373	8.00245			0.345541	3.99422	0.606067	6.9789	0.658112	7.58858		
0.223971	2.56954	0.181773	2.05495	0.480428	5.48403	0.63921	7.23822	0.695796	7.98365			0.346198	3.97277	0.607407	6.94376	0.661753	7.57532		
0.224985	2.56259	0.183172	2.05607	0.480991	5.4511	0.643684	7.23706	0.699185	7.96475			0.346859	3.95167	0.608665	6.90819	0.665471	7.56311		
0.226004	2.55578	0.184571	2.05717	0.481553	5.41864	0.648155	7.23587	0.702538	7.94569			0.347524	3.93093	0.609851	6.87232	0.669255	7.55184		
0.227027	2.54911	0.18597	2.05825	0.482115	5.38663	0.65262	7.23464	0.705847	7.92642			0.348194	3.91053	0.610973	6.83624	0.673099	7.5414		
0.228054	2.54259	0.187368	2.05932	0.482676	5.35506	0.657081	7.23337	0.70911	7.90691			0.348869	3.89047	0.612038	6.80004	0.676995	7.53168		
0.229085	2.5362	0.188767	2.06037	0.483238	5.32393	0.661535	7.23205	0.71232	7.88708			0.349547	3.87074	0.613052	6.76378	0.680937	7.52261		
0.23012	2.52995	0.190165	2.0614	0.4838	5.29324	0.665981	7.23066	0.715473	7.8669			0.350231	3.85133	0.614022	6.72754	0.68492	7.5141		
0.23116	2.52383	0.191564	2.06242	0.484362	5.26297	0.670419	7.2292	0.718562	7.8463			0.350918	3.83224	0.614952	6.69136	0.688938	7.50611		
0.232203	2.51783	0.192962	2.06342	0.484924	5.23312	0.674846	7.22766	0.721583	7.82525			0.35161	3.81346	0.615846	6.65529	0.692989	7.49857		
0.23325	2.51196	0.19436	2.06441	0.485487	5.20368	0.679262	7.226					0.352307	3.79499	0.616709	6.61937	0.697067	7.49143		
0.234301	2.5062	0.195758	2.06538	0.486051	5.17464	0.683664	7.22422					0.353008	3.77681	0.617543	6.58363	0.70117	7.48465		
0.235355	2.50057	0.197155	2.06634	0.486616	5.146	0.688049	7.2223					0.353713	3.75892	0.618352	6.5481	0.705295	7.47819		
0.236414	2.49505	0.198553	2.06728	0.487182	5.11776	0.692415	7.22019					0.354423	3.74131	0.619138	6.5128	0.709439	7.47203		
0.237476	2.48964	0.19995	2.06821	0.487749	5.0899	0.696758	7.21788					0.355137	3.72399	0.619903	6.47776	0.713601	7.46613		
0.238542	2.48434	0.201348	2.06913	0.488317	5.06242	0.701073	7.2153					0.355855	3.70693	0.62065	6.44298	0.717778	7.46047		
0.239611	2.47915	0.202745	2.07003	0.488887	5.03532	0.705355	7.21242					0.356577	3.69015	0.62138	6.40848	0.721969	7.45502		
0.240684	2.47405	0.204142	2.07093	0.489459	5.00858	0.709595	7.20916					0.357304	3.67362	0.622094	6.37428				
0.24176	2.46906	0.205539	2.0718	0.490032	4.9822	0.713786	7.20544					0.358035	3.65736	0.622795	6.34037				
0.242839	2.46417	0.206936	2.07267	0.490607	4.95617	0.717916	7.20115					0.35877	3.64134	0.623484	6.30677				
0.243922	2.45938	0.208332	2.07353	0.491183	4.93049	0.72197	7.19616					0.35951	3.62558	0.624161	6.27348				
0.245008	2.45468	0.209729	2.07437	0.491762	4.90516							0.360254	3.61005	0.624827	6.24051				
0.246098	2.45007	0.211125	2.0752	0.492342	4.88016							0.361002	3.59476	0.625484	6.20786				
0.247191	2.44555	0.212522	2.07602	0.492924	4.8555							0.361754	3.57971	0.626133	6.17554				
0.248286	2.44112	0.213918	2.07683	0.493509	4.83116							0.36251	3.56488	0.626774	6.14353				
0.249385	2.43677	0.215314	2.07762	0.494096	4.80714							0.36327	3.55027	0.627408	6.11186				
0.250487	2.4325	0.21671	2.07841	0.494684	4.78343							0.364034	3.53589	0.628035	6.0805				
0.251592	2.42832	0.218106	2.07919	0.495276	4.76004							0.364803	3.52172	0.628656	6.04948				
0.2527	2.42422	0.219502	2.07995	0.495869	4.73695							0.365575	3.50776	0.629272	6.01878				
0.253811	2.42019	0.220897	2.08071	0.496465	4.71416							0.366352	3.49401	0.629883	5.9884				
0.254925	2.41624	0.222293	2.08145	0.497063	4.69166							0.367132	3.48045	0.63049	5.95834				
0.256042	2.41236	0.223689	2.08219	0.497663	4.66945							0.367917	3.4671	0.631093	5.9286				
0.257162	2.40856	0.225084	2.08291	0.498266	4.64753							0.368705	3.45395	0.631692	5.89918				
0.258284	2.40483	0.226479	2.08363	0.498872	4.62589							0.369497	3.44098	0.632288	5.87007				
0.259409	2.40116	0.227874	2.08434	0.49948	4.60452							0.370293	3.42821	0.632881	5.84128				
0.260537	2.39756	0.229269	2.08504	0.50009	4.58343							0.371093	3.41561	0.633471	5.8128				
0.261667	2.39403	0.230664	2.08572	0.500703	4.5626							0.371897	3.4032	0.634059	5.78462				
0.2628	2.39057	0.232059	2.08641	0.501319	4.54203							0.372705	3.39097	0.634645	5.75675				
0.263936	2.38716	0.233454	2.08708	0.501937	4.52173							0.373517	3.37891	0.635229	5.72918				
0.265074	2.38382	0.234848	2.08774	0.502558	4.50167							0.374332	3.36702	0.635811	5.70191				
0.266215	2.38054	0.236243	2.0884	0.503182	4.48187							0.375151	3.3553	0.636392	5.67493				
0.267358	2.37732	0.237637	2.08904	0.503808	4.46231							0.375974	3.34374	0.636972	5.64824				
0.268503	2.37415	0.239032	2.08968	0.504437	4.44299							0.3768	3.33235	0.637551	5.62185				
0.269651	2.37104	0.240426	2.09031	0.505069	4.42391							0.377631	3.32112	0.638129	5.59574				
0.270802	2.36799	0.24182	2.09094	0.505703	4.40507							0.378464	3.31004	0.638706	5.56991				
0.271955	2.36499	0.243214	2.09155	0.506341	4.38645							0.379302	3.29912	0.639283	5.54436				
0.27311	2.36204	0.244608	2.09216	0.506981	4.36806							0.380143	3.28834	0.639859	5.51908				
0.274267	2.35915	0.246002	2.09276	0.507623	4.3499							0.380988	3.27772	0.640435	5.49408				
0.275426	2.3563	0.247396	2.09336	0.508269	4.33195							0.381836	3.26724	0.641011	5.46935				
0.276588	2.35351	0.248789	2.09394	0.508917	4.31422							0.382688	3.2569	0.641587	5.44488				
0.277752	2.35076	0.250183	2.09452	0.509568	4.2967							0.383543	3.2467	0.642164	5.42068				
0.278918	2.34806	0.251576	2.0951	0.510222	4.2794							0.384402	3.23664	0.64274	5.39673				
0.280087	2.34541	0.25297	2.09566	0.510879	4.26229							0.385264	3.22672	0.643317	5.37304				
0.281257	2.34281	0.254363	2.09622	0.511538	4.2454							0.38613	3.21693	0.643894	5.3496				
0.28243	2.34024	0.255756	2.09677	0.512201	4.2287							0.386999	3.20727	0.644472	5.32641				
0.283604	2.33772	0.257149	2.09732	0.512866	4.21219							0.387871	3.19774	0.64505	5.30347				
0.284781	2.33525	0.258542	2.09786	0.513534	4.19588							0.388747	3.18834	0.645629	5.28077				
0.285959	2.33281	0.259935	2.0984	0.514205	4.17977							0.389626	3.17906	0.646209	5.25831				
0.28714	2.33042	0.261328	2.09892	0.514878	4.16383							0.390509	3.1699	0.646789	5.23609				
0.288322	2.32807	0.262721	2.09944	0.515555	4.14809							0.391395	3.16087	0.647371	5.2141				
0.289506	2.32575	0.264114	2.09996	0.516234	4.13252							0.392284	3.15195	0.647953	5.19234				
0.290693	2.32348	0.265506	2.10047	0.516916	4.11714							0.393176	3.14315	0.648537	5.17081				
0.291881	2.32124	0.266899	2.10098	0.517601	4.10193							0.394072	3.13446	0.649121	5.14951				
0.293071	2.31904	0.268291	2.10147	0.518288	4.0869							0.394971	3.12588	0.649707	5.12842				
0.294262	2.31687	0.269684	2.10197	0.518979	4.07204							0.395873	3.11742	0.650294	5.10756				
0.295456	2.31474	0.271076	2.10245	0.519672	4.05734							0.396778	3.10906	0.650882	5.08691				
0.296651	2.31265	0.272468	2.10294	0.520369	4.04281							0.397686	3.10081	0.651471	5.06647				
0.297848	2.31059	0.27386	2.10341	0.521068	4.02845							0.398598	3.09267	0.652062	5.04624				
0.299047	2.30856	0.275252	2.10389	0.521769	4.01425							0.399512	3.08463	0.652654	5.02623				
0.300247	2.30657	0.276644	2.10435	0.522474	4.0002							0.40043	3.07669	0.653248	5.00641				
0.30145	2.3046	0.278036	2.10481	0.523181	3.98632							0.401351	3.06885	0.653843	4.9868				
0.302653	2.30267	0.279428	2.10527	0.523891	3.97258							0.402274	3.06111	0.65444	4.96739				
0.303859	2.30077	0.28082	2.10572	0.524604	3.959							0.403201	3.05346	0.655038	4.94818				
0.305066	2.2989	0.282211	2.10617	0.52532	3.94557							0.404131	3.04592	0.655637	4.92916				
0.306275	2.29707	0.283603	2.10661	0.526039	3.93229							0.405063	3.03846	0.656238	4.91033				
0.307485	2.29525	0.284994	2.10705	0.52676	3.91915							0.405999	3.0311	0.656841	4.89169				
0.308697	2.29347	0.286386	2.10748	0.527484	3.90616							0.406938	3.02383	0.657446	4.87324				
0.30991	2.29172	0.287777	2.10791	0.528211	3.89331							0.407879	3.01665	0.658052	4.85497				
0.311125	2.28999	0.289168	2.10833	0.528941	3.8806							0.408824	3.00956	0.65866	4.83689				
0.312341	2.28829	0.290559	2.10875	0.529673	3.86802							0.409771	3.00255	0.659269	4.81898				
0.313559	2.28662	0.29195	2.10916	0.530408	3.85558							0.410721	2.99563	0.659881	4.80126				
0.314778	2.28497	0.293341	2.10957	0.531146	3.84328							0.411674	2.98879	0.660494	4.7837				
0.315999	2.28335	0.294732	2.10998	0.531886	3.8311							0.412629	2.98204	0.661109	4.76632				
0.317221	2.28175	0.296123	2.11038	0.53263	3.81906							0.413588	2.97537	0.661726	4.74912				
0.318445	2.28018	0.297514	2.11078	0.533376	3.80714							0.414549	2.96877	0.662344	4.73208				
0.319669	2.27863	0.298905	2.11117	0.534124	3.79535							0.415513	2.96226	0.662965	4.7152				
0.320896	2.27711	0.300295	2.11156	0.534876	3.78369							0.41648	2.95582	0.663587	4.69849				
0.322123	2.27561	0.301686	2.11195	0.53563	3.77215							0.417449	2.94947	0.664211	4.68195				
0.323352	2.27413	0.303076	2.11233	0.536387	3.76073							0.418421	2.94318	0.664837	4.66556				
0.324583	2.27267	0.304467	2.11271	0.537146	3.74943							0.419396	2.93697	0.665465	4.64933				
0.325814	2.27124	0.305857	2.11308	0.537908	3.73824							0.420374	2.93084	0.666095	4.63326				
0.327047	2.26983	0.307247	2.11345	0.538673	3.72718							0.421354	2.92477	0.666726	4.61734				
0.328281	2.26843	0.308637	2.11382	0.539441	3.71622							0.422336	2.91878	0.66736	4.60157				
0.329517	2.26706	0.310027	2.11418	0.540211	3.70538							0.423322	2.91286	0.667996	4.58596				
0.330754	2.26571	0.311417	2.11454	0.540983	3.69466							0.424309	2.907	0.668633	4.57049				
0.331992	2.26438	0.312807	2.1149	0.541759	3.68404							0.4253	2.90122	0.669273	4.55517				
0.333231	2.26307	0.314197	2.11525	0.542537	3.67353							0.426293	2.8955	0.669915	4.53999				
0.334471	2.26178	0.315587	2.1156	0.543317	3.66313							0.427288	2.88985	0.670558	4.52496				
0.335712	2.26051	0.316977	2.11594	0.5441	3.65283							0.428286	2.88426	0.671204	4.51007				
0.336955	2.25925	0.318366	2.11628	0.544886	3.64264							0.429286	2.87873	0.671851	4.49531				
0.338199	2.25802	0.319756	2.11662	0.545674	3.63255							0.430289	2.87327	0.672501	4.4807				
0.339444	2.2568	0.321145	2.11696	0.546465	3.62256							0.431295	2.86787	0.673152	4.46622				
0.34069	2.2556	0.322535	2.11729	0.547258	3.61268							0.432302	2.86254	0.673806	4.45188				
0.341937	2.25442	0.323924	2.11762	0.548054	3.60289							0.433312	2.85726	0.674462	4.43766				
0.343186	2.25325	0.325314	2.11794	0.548853	3.5932							0.434325	2.85204	0.675119	4.42358				
0.344435	2.25211	0.326703	2.11826	0.549654	3.5836							0.43534	2.84688	0.675779	4.40963				
0.345686	2.25097	0.328092	2.11858	0.550458	3.57411							0.436357	2.84178	0.676441	4.39581				
0.346937	2.24986	0.329481	2.1189	0.551264	3.5647							0.437377	2.83674	0.677104	4.38211				
0.34819	2.24876	0.33087	2.11921	0.552072	3.55539							0.438399	2.83175	0.67777	4.36854				
0.349444	2.24767	0.332259	2.11952	0.552883	3.54617							0.439423	2.82682	0.678438	4.35509				
0.350698	2.24661	0.333648	2.11983	0.553697	3.53704							0.44045	2.82194	0.679108	4.34177				
0.351954	2.24555	0.335037	2.12014	0.554513	3.528							0.441478	2.81712	0.67978	4.32856				
0.353211	2.24451	0.336425	2.12044	0.555331	3.51904							0.442509	2.81235	0.680454	4.31547				
0.354468	2.24349	0.337814	2.12074	0.556152	3.51018							0.443543	2.80763	0.68113	4.3025				
0.355727	2.24248	0.339203	2.12103	0.556975	3.5014							0.444578	2.80296	0.681808	4.28965				
0.356987	2.24148	0.340591	2.12132	0.557801	3.4927							0.445616	2.79834	0.682489	4.27691				
0.358247	2.2405	0.34198	2.12162	0.558629	3.48409							0.446656	2.79378	0.683171	4.26428				
0.359509	2.23953	0.343368	2.1219	0.55946	3.47556							0.447698	2.78926	0.683855	4.25177				
0.360772	2.23858	0.344756	2.12219	0.560293	3.46711							0.448742	2.7848	0.684542	4.23937				
0.362035	2.23764	0.346145	2.12247	0.561128	3.45875							0.449789	2.78038	0.68523	4.22708				
0.363299	2.23671	0.347533	2.12275	0.561966	3.45046							0.450837	2.77601	0.685921	4.21489				
0.364565	2.23579	0.348921	2.12303	0.562806	3.44225							0.451888	2.77168	0.686613	4.20281				
0.365831	2.23489	0.350309	2.1233	0.563649	3.43412							0.452941	2.7674	0.687308	4.19084				
0.367098	2.234	0.351697	2.12357	0.564494	3.42607							0.453995	2.76317	0.688005	4.17898				
0.368366	2.23312	0.353085	2.12384	0.565341	3.41809							0.455052	2.75898	0.688704	4.16721				
0.369635	2.23225	0.354473	2.12411	0.56619	3.41018							0.456111	2.75484	0.689405	4.15555				
0.370904	2.2314	0.35586	2.12438	0.567042	3.40235							0.457172	2.75074	0.690108	4.14399				
0.372175	2.23055	0.357248	2.12464	0.567897	3.3946							0.458235	2.74668	0.690813	4.13253				
0.373446	2.22972	0.358636	2.1249	0.568753	3.38691							0.4593	2.74267	0.69152	4.12117				
0.374718	2.2289	0.360023	2.12516	0.569612	3.3793							0.460367	2.7387	0.692229	4.1099				
0.375991	2.22809	0.361411	2.12541	0.570473	3.37176							0.461436	2.73477	0.69294	4.09873				
0.377265	2.22729	0.362798	2.12567	0.571336	3.36428							0.462507	2.73088	0.693653	4.08766				
0.37854	2.2265	0.364186	2.12592	0.572202	3.35688							0.46358	2.72703	0.694369	4.07668				
0.379815	2.22573	0.365573	2.12617	0.573069	3.34954							0.464655	2.72322	0.695086	4.0658				
0.381092	2.22496	0.36696	2.12641	0.57394	3.34227							0.465732	2.71946	0.695805	4.055				
0.382369	2.2242	0.368347	2.12666	0.574812	3.33507							0.466811	2.71573	0.696527	4.0443				
0.383646	2.22345	0.369734	2.1269	0.575686	3.32793							0.467891	2.71203	0.69725	4.03369				
0.384925	2.22272	0.371122	2.12714	0.576563	3.32086							0.468974	2.70838	0.697976	4.02316				
0.386204	2.22199	0.372509	2.12738	0.577442	3.31385							0.470058	2.70476	0.698703	4.01273				
0.387484	2.22127	0.373895	2.12761	0.578323	3.3069							0.471145	2.70118	0.699433	4.00238				
0.388765	2.22056	0.375282	2.12785	0.579207	3.30002							0.472233	2.69764	0.700164	3.99212				
0.390047	2.21986	0.376669	2.12808	0.580092	3.2932							0.473323	2.69413	0.700898	3.98195				
0.391329	2.21917	0.378056	2.12831	0.58098	3.28644							0.474414	2.69066	0.701634	3.97185				
0.392612	2.21849	0.379442	2.12853	0.581869	3.27974							0.475508	2.68722	0.702371	3.96184				
0.393895	2.21782	0.380829	2.12876	0.582761	3.2731							0.476603	2.68382	0.703111	3.95192				
0.39518	2.21715	0.382215	2.12898	0.583656	3.26651							0.477701	2.68045	0.703853	3.94207				
0.396465	2.2165	0.383602	2.12921	0.584552	3.25999							0.478799	2.67712	0.704597	3.93231				
0.39775	2.21585	0.384988	2.12943	0.58545	3.25352							0.4799	2.67382	0.705342	3.92263				
0.399037	2.21521	0.386375	2.12964	0.58635	3.24712							0.481003	2.67055	0.70609	3.91302				
0.400324	2.21458	0.387761	2.12986	0.587253	3.24076							0.482107	2.66731	0.70684	3.90349				
0.401612	2.21396	0.389147	2.13007	0.588158	3.23447							0.483213	2.66411	0.707591	3.89405				
0.4029	2.21335	0.390533	2.13029	0.589064	3.22822							0.48432	2.66094	0.708345	3.88467				
0.404189	2.21274	0.391919	2.1305	0.589973	3.22204							0.48543	2.6578	0.709101	3.87538				
0.405479	2.21214	0.393305	2.13071	0.590884	3.2159							0.486541	2.65469	0.709858	3.86615				
0.406769	2.21155	0.394691	2.13091	0.591797	3.20982							0.487653	2.65161	0.710618	3.857				
0.40806	2.21097	0.396077	2.13112	0.592712	3.20379							0.488768	2.64856	0.71138	3.84793				
0.409351	2.21039	0.397463	2.13132	0.593628	3.19782							0.489883	2.64554	0.712143	3.83893				
0.410644	2.20982	0.398849	2.13152	0.594547	3.19189							0.491001	2.64255	0.712909	3.83				
0.411936	2.20926	0.400234	2.13172	0.595468	3.18602							0.49212	2.63959	0.713676	3.82114				
0.41323	2.2087	0.40162	2.13192	0.596391	3.1802							0.493241	2.63666	0.714446	3.81235				
0.414524	2.20815	0.403006	2.13212	0.597316	3.17442							0.494364	2.63375	0.715217	3.80363				
0.415818	2.20761	0.404391	2.13232	0.598243	3.1687							0.495488	2.63088	0.715991	3.79497				
0.417114	2.20708	0.405776	2.13251	0.599172	3.16302							0.496613	2.62803	0.716766	3.78639				
0.418409	2.20655	0.407162	2.1327	0.600103	3.1574							0.497741	2.62521	0.717543	3.77787				
0.419706	2.20603	0.408547	2.13289	0.601036	3.15182							0.498869	2.62241	0.718322	3.76942				
0.421003	2.20551	0.409932	2.13308	0.60197	3.14628							0.5	2.61964	0.719103	3.76104				
0.4223	2.205	0.411318	2.13327	0.602907	3.1408							0.501132	2.6169	0.719886	3.75272				
0.423598	2.2045	0.412703	2.13345	0.603846	3.13536							0.502265	2.61419	0.720671	3.74447				
0.424897	2.20401	0.414088	2.13364	0.604786	3.12996							0.5034	2.6115						
0.426196	2.20352	0.415473	2.13382	0.605729	3.12461							0.504536	2.60884						
0.427495	2.20303	0.416858	2.134	0.606673	3.11931							0.505674	2.6062						
0.428796	2.20255	0.418242	2.13418	0.607619	3.11404							0.506814	2.60358						
0.430096	2.20208	0.419627	2.13436	0.608568	3.10883							0.507955	2.60099						
0.431398	2.20161	0.421012	2.13454	0.609518	3.10365							0.509097	2.59843						
0.432699	2.20115	0.422397	2.13471	0.610469	3.09852							0.510241	2.59589						
0.434002	2.2007	0.423781	2.13488	0.611423	3.09343							0.511386	2.59337						
0.435305	2.20025	0.425166	2.13506	0.612379	3.08838							0.512533	2.59087						
0.436608	2.1998	0.42655	2.13523	0.613336	3.08338							0.513681	2.5884						
0.437912	2.19936	0.427935	2.1354	0.614295	3.07841							0.514831	2.58595						
0.439216	2.19893	0.429319	2.13557	0.615256	3.07349							0.515982	2.58353						
0.440521	2.1985	0.430703	2.13573	0.616219	3.0686							0.517134	2.58112						
0.441826	2.19808	0.432088	2.1359	0.617184	3.06376							0.518288	2.57874						
0.443132	2.19766	0.433472	2.13606	0.61815	3.05895							0.519443	2.57638						
0.444438	2.19724	0.434856	2.13622	0.619119	3.05418							0.520599	2.57404						
0.445745	2.19684	0.43624	2.13639	0.620089	3.04945							0.521757	2.57173						
0.447052	2.19643	0.437624	2.13655	0.62106	3.04476							0.522917	2.56943						
0.44836	2.19603	0.439008	2.13671	0.622034	3.04011							0.524077	2.56716						
0.449668	2.19564	0.440392	2.13686	0.623009	3.03549							0.525239	2.5649						
0.450976	2.19525	0.441776	2.13702	0.623986	3.03091							0.526402	2.56267						
0.452285	2.19486	0.443159	2.13717	0.624965	3.02637							0.527567	2.56045						
0.453595	2.19448	0.444543	2.13733	0.625946	3.02186							0.528733	2.55826						
0.454905	2.19411	0.445927	2.13748	0.626928	3.01739							0.5299	2.55608						
0.456215	2.19373	0.44731	2.13763	0.627912	3.01296							0.531068	2.55393						
0.457526	2.19337	0.448694	2.13778	0.628898	3.00856							0.532238	2.55179						
0.458837	2.193	0.450077	2.13793	0.629885	3.00419							0.533409	2.54968						
0.460148	2.19264	0.451461	2.13808	0.630874	2.99986							0.534582	2.54758						
0.46146	2.19229	0.452844	2.13823	0.631865	2.99556							0.535755	2.5455						
0.462773	2.19194	0.454227	2.13837	0.632857	2.9913							0.53693	2.54344						
0.464086	2.19159	0.45561	2.13852	0.633851	2.98707							0.538106	2.5414						
0.465399	2.19125	0.456993	2.13866	0.634847	2.98287							0.539283	2.53937						
0.466713	2.19091	0.458377	2.1388	0.635844	2.9787							0.540462	2.53736						
0.468027	2.19057	0.45976	2.13894	0.636843	2.97457							0.541642	2.53537						
0.469341	2.19024	0.461143	2.13908	0.637844	2.97047							0.542823	2.5334						
0.470656	2.18992	0.462525	2.13922	0.638846	2.9664							0.544005	2.53145						
0.471972	2.18959	0.463908	2.13936	0.63985	2.96236							0.545188	2.52951						
0.473287	2.18927	0.465291	2.1395	0.640855	2.95835							0.546373	2.52759						
0.474603	2.18896	0.466674	2.13963	0.641863	2.95438							0.547558	2.52568						
0.47592	2.18864	0.468056	2.13977	0.642871	2.95043							0.548745	2.5238						
0.477236	2.18833	0.469439	2.1399	0.643882	2.94651							0.549933	2.52192						
0.478554	2.18803	0.470822	2.14003	0.644893	2.94263							0.551123	2.52007						
0.479871	2.18773	0.472204	2.14016	0.645907	2.93877							0.552313	2.51823						
0.481189	2.18743	0.473586	2.1403	0.646922	2.93494							0.553505	2.51641						
0.482507	2.18713	0.474969	2.14042	0.647938	2.93115							0.554697	2.5146						
0.483826	2.18684	0.476351	2.14055	0.648956	2.92738							0.555891	2.5128						
0.485145	2.18655	0.477733	2.14068	0.649976	2.92363							0.557086	2.51103						
0.486464	2.18627	0.479116	2.14081	0.650997	2.91992							0.558282	2.50926						
0.487784	2.18598	0.480498	2.14093	0.65202	2.91623							0.559479	2.50752						
0.489104	2.1857	0.48188	2.14106	0.653044	2.91258							0.560677	2.50578						
0.490424	2.18543	0.483262	2.14118	0.65407	2.90895							0.561876	2.50407						
0.491745	2.18515	0.484644	2.1413	0.655097	2.90534							0.563077	2.50236						
0.493066	2.18488	0.486026	2.14142	0.656126	2.90177							0.564278	2.50067						
0.494387	2.18462	0.487407	2.14155	0.657156	2.89821							0.565481	2.499						
0.495709	2.18435	0.488789	2.14167	0.658188	2.89469							0.566684	2.49734						
0.497031	2.18409	0.490171	2.14178	0.659221	2.89119							0.567889	2.49569						
0.498354	2.18383	0.491553	2.1419	0.660255	2.88772							0.569095	2.49406						
0.499676	2.18358	0.492934	2.14202	0.661291	2.88427							0.570301	2.49244						
0.500999	2.18333	0.494316	2.14214	0.662329	2.88085							0.571509	2.49083						
0.502323	2.18308	0.495697	2.14225	0.663368	2.87746							0.572718	2.48924						
0.503646	2.18283	0.497079	2.14237	0.664408	2.87408							0.573928	2.48766						
0.50497	2.18258	0.49846	2.14248	0.66545	2.87074							0.575139	2.48609						
0.506295	2.18234	0.499841	2.14259	0.666494	2.86741							0.576351	2.48454						
0.507619	2.1821	0.501223	2.1427	0.667538	2.86412							0.577563	2.483						
0.508944	2.18187	0.502604	2.14281	0.668585	2.86084							0.578777	2.48147						
0.510269	2.18163	0.503985	2.14292	0.669632	2.85759							0.579992	2.47995						
0.511595	2.1814	0.505366	2.14303	0.670681	2.85436							0.581208	2.47845						
0.512921	2.18117	0.506747	2.14314	0.671731	2.85116							0.582425	2.47696						
0.514247	2.18094	0.508128	2.14325	0.672783	2.84798							0.583643	2.47548						
0.515573	2.18072	0.509509	2.14336	0.673836	2.84482							0.584861	2.47401						
0.5169	2.1805	0.51089	2.14346	0.674891	2.84168							0.586081	2.47255						
0.518227	2.18028	0.512271	2.14357	0.675946	2.83857							0.587302	2.47111						
0.519554	2.18006	0.513651	2.14367	0.677004	2.83548							0.588524	2.46968						
0.520881	2.17985	0.515032	2.14378	0.678062	2.83241							0.589746	2.46826						
0.522209	2.17964	0.516413	2.14388	0.679122	2.82936							0.59097	2.46685						
0.523537	2.17943	0.517793	2.14398	0.680183	2.82634							0.592194	2.46545						
0.524865	2.17922	0.519174	2.14408	0.681246	2.82333							0.593419	2.46407						
0.526194	2.17901	0.520554	2.14418	0.68231	2.82035							0.594646	2.46269						
0.527523	2.17881	0.521935	2.14428	0.683375	2.81739							0.595873	2.46133						
0.528852	2.17861	0.523315	2.14438	0.684442	2.81444							0.597101	2.45997						
0.530181	2.17841	0.524695	2.14448	0.68551	2.81152							0.59833	2.45863						
0.531511	2.17821	0.526075	2.14458	0.686579	2.80862							0.59956	2.4573						
0.532841	2.17802	0.527456	2.14467	0.687649	2.80574							0.600791	2.45598						
0.534171	2.17782	0.528836	2.14477	0.688721	2.80288							0.602023	2.45466						
0.535502	2.17763	0.530216	2.14487	0.689794	2.80004							0.603255	2.45336						
0.536832	2.17744	0.531596	2.14496	0.690868	2.79722							0.604489	2.45207						
0.538163	2.17726	0.532976	2.14505	0.691944	2.79442							0.605723	2.45079						
0.539495	2.17707	0.534356	2.14515	0.693021	2.79164							0.606958	2.44952						
0.540826	2.17689	0.535735	2.14524	0.694099	2.78888							0.608194	2.44826						
0.542158	2.17671	0.537115	2.14533	0.695178	2.78614							0.609431	2.44701						
0.54349	2.17653	0.538495	2.14542	0.696259	2.78341							0.610669	2.44577						
0.544822	2.17635	0.539875	2.14551	0.697341	2.78071							0.611908	2.44454						
0.546154	2.17618	0.541254	2.1456	0.698424	2.77802							0.613147	2.44332						
0.547487	2.176	0.542634	2.14569	0.699508	2.77535							0.614387	2.4421						
0.54882	2.17583	0.544013	2.14578	0.700594	2.7727							0.615629	2.4409						
0.550153	2.17566	0.545393	2.14587	0.701681	2.77007							0.61687	2.43971						
0.551486	2.17549	0.546772	2.14596	0.702769	2.76745							0.618113	2.43852						
0.55282	2.17533	0.548151	2.14604	0.703858	2.76486							0.619357	2.43735						
0.554154	2.17516	0.549531	2.14613	0.704948	2.76228							0.620601	2.43618						
0.555488	2.175	0.55091	2.14621	0.70604	2.75971							0.621846	2.43502						
0.556822	2.17484	0.552289	2.1463	0.707133	2.75717							0.623093	2.43388						
0.558156	2.17468	0.553668	2.14638	0.708227	2.75464							0.624339	2.43274						
0.559491	2.17452	0.555047	2.14647	0.709322	2.75213							0.625587	2.4316						
0.560826	2.17436	0.556426	2.14655	0.710418	2.74964							0.626835	2.43048						
0.562161	2.17421	0.557805	2.14663	0.711516	2.74716							0.628084	2.42937						
0.563496	2.17405	0.559184	2.14671	0.712614	2.7447							0.629334	2.42826						
0.564832	2.1739	0.560563	2.14679	0.713714	2.74226							0.630585	2.42717						
0.566168	2.17375	0.561942	2.14687	0.714815	2.73983							0.631837	2.42608						
0.567504	2.1736	0.563321	2.14695	0.715917	2.73742							0.633089	2.425						
0.56884	2.17346	0.564699	2.14703	0.71702	2.73502							0.634342	2.42392						
0.570176	2.17331	0.566078	2.14711	0.718125	2.73264							0.635596	2.42286						
0.571513	2.17317	0.567456	2.14719	0.71923	2.73028							0.63685	2.4218						
0.57285	2.17302	0.568835	2.14727	0.720337	2.72793							0.638105	2.42075						
0.574187	2.17288	0.570213	2.14734									0.639361	2.41971						
0.575524	2.17274	0.571592	2.14742									0.640618	2.41868						
0.576861	2.1726	0.57297	2.1475									0.641876	2.41765						
0.578199	2.17247	0.574349	2.14757									0.643134	2.41664						
0.579537	2.17233	0.575727	2.14765									0.644393	2.41563						
0.580875	2.1722	0.577105	2.14772									0.645653	2.41462						
0.582213	2.17206	0.578483	2.14779									0.646913	2.41363						
0.583551	2.17193	0.579861	2.14787									0.648174	2.41264						
0.58489	2.1718	0.581239	2.14794									0.649436	2.41166						
0.586229	2.17167	0.582617	2.14801									0.650698	2.41069						
0.587567	2.17154	0.583995	2.14808									0.651961	2.40972						
0.588907	2.17142	0.585373	2.14815									0.653225	2.40876						
0.590246	2.17129	0.586751	2.14823									0.65449	2.40781						
0.591585	2.17117	0.588129	2.14829									0.655755	2.40686						
0.592925	2.17105	0.589507	2.14836									0.657021	2.40592						
0.594265	2.17092	0.590884	2.14843									0.658288	2.40499						
0.595605	2.1708	0.592262	2.1485									0.659555	2.40407						
0.596945	2.17069	0.593639	2.14857									0.660823	2.40315						
0.598285	2.17057	0.595017	2.14864									0.662092	2.40224						
0.599626	2.17045	0.596394	2.1487									0.663361	2.40133						
0.600967	2.17034	0.597772	2.14877									0.664631	2.40044						
0.602308	2.17022	0.599149	2.14884									0.665902	2.39954						
0.603649	2.17011	0.600527	2.1489									0.667173	2.39866						
0.60499	2.17	0.601904	2.14897									0.668445	2.39778						
0.606331	2.16988	0.603281	2.14903									0.669718	2.39691						
0.607673	2.16977	0.604658	2.14909									0.670991	2.39604						
0.609014	2.16967	0.606035	2.14916									0.672265	2.39518						
0.610356	2.16956	0.607412	2.14922									0.673539	2.39432						
0.611698	2.16945	0.608789	2.14928									0.674814	2.39348						
0.613041	2.16934	0.610166	2.14935									0.67609	2.39263						
0.614383	2.16924	0.611543	2.14941									0.677367	2.3918						
0.615725	2.16914	0.61292	2.14947									0.678644	2.39097						
0.617068	2.16903	0.614297	2.14953									0.679921	2.39014						
0.618411	2.16893	0.615674	2.14959									0.681199	2.38932						
0.619754	2.16883	0.617051	2.14965									0.682478	2.38851						
0.621097	2.16873	0.618427	2.14971									0.683758	2.3877						
0.62244	2.16863	0.619804	2.14977									0.685038	2.3869						
0.623784	2.16853	0.62118	2.14983									0.686318	2.38611						
0.625127	2.16844	0.622557	2.14989									0.6876	2.38532						
0.626471	2.16834	0.623933	2.14994									0.688882	2.38453						
0.627815	2.16825	0.62531	2.15									0.690164	2.38375						
0.629159	2.16815	0.626686	2.15006									0.691447	2.38298						
0.630503	2.16806	0.628062	2.15011									0.692731	2.38221						
0.631847	2.16797	0.629439	2.15017									0.694015	2.38145						
0.633192	2.16788	0.630815	2.15023									0.6953	2.38069						
0.634536	2.16779	0.632191	2.15028									0.696585	2.37994						
0.635881	2.1677	0.633567	2.15034									0.697871	2.37919						
0.637226	2.16761	0.634943	2.15039									0.699158	2.37845						
0.638571	2.16752	0.636319	2.15044									0.700445	2.37771						
0.639916	2.16743	0.637695	2.1505									0.701732	2.37698						
0.641261	2.16735	0.639071	2.15055									0.70302	2.37625						
0.642607	2.16726	0.640447	2.1506									0.704309	2.37553						
0.643952	2.16718	0.641823	2.15066									0.705599	2.37481						
0.645298	2.16709	0.643199	2.15071									0.706888	2.3741						
0.646644	2.16701	0.644575	2.15076									0.708179	2.37339						
0.64799	2.16693	0.64595	2.15081									0.70947	2.37269						
0.649336	2.16685	0.647326	2.15086									0.710761	2.37199						
0.650682	2.16676	0.648702	2.15091									0.712053	2.3713						
0.652029	2.16668	0.650077	2.15096									0.713346	2.37061						
0.653375	2.16661	0.651453	2.15101									0.714639	2.36992						
0.654722	2.16653	0.652828	2.15106									0.715932	2.36924						
0.656068	2.16645	0.654204	2.15111									0.717227	2.36857						
0.657415	2.16637	0.655579	2.15116									0.718521	2.3679						
0.658762	2.1663	0.656954	2.15121									0.719816	2.36723						
0.660109	2.16622	0.658329	2.15126									0.721112	2.36657						
0.661456	2.16615	0.659705	2.15131																
0.662804	2.16607	0.66108	2.15135																
0.664151	2.166	0.662455	2.1514																
0.665499	2.16593	0.66383	2.15145																
0.666846	2.16585	0.665205	2.15149																
0.668194	2.16578	0.66658	2.15154																
0.669542	2.16571	0.667955	2.15159																
0.67089	2.16564	0.66933	2.15163																
0.672238	2.16557	0.670705	2.15168																
0.673587	2.1655	0.67208	2.15172																
0.674935	2.16544	0.673455	2.15177																
0.676283	2.16537	0.674829	2.15181																
0.677632	2.1653	0.676204	2.15185																
0.678981	2.16524	0.677579	2.1519																
0.680329	2.16517	0.678953	2.15194																
0.681678	2.16511	0.680328	2.15198																
0.683027	2.16504	0.681702	2.15203																
0.684377	2.16498	0.683077	2.15207																
0.685726	2.16491	0.684451	2.15211																
0.687075	2.16485	0.685825	2.15215																
0.688425	2.16479	0.6872	2.15219																
0.689774	2.16473	0.688574	2.15223																
0.691124	2.16467	0.689948	2.15227																
0.692474	2.16461	0.691323	2.15231																
0.693824	2.16455	0.692697	2.15235																
0.695174	2.16449	0.694071	2.15239																
0.696524	2.16443	0.695445	2.15243																
0.697874	2.16437	0.696819	2.15247																
0.699224	2.16431	0.698193	2.15251																
0.700574	2.16426	0.699567	2.15255																
0.701925	2.1642	0.700941	2.15259																
0.703275	2.16414	0.702315	2.15263																
0.704626	2.16409	0.703688	2.15267																
0.705977	2.16403	0.705062	2.1527																
0.707328	2.16398	0.706436	2.15274																
0.708679	2.16393	0.70781	2.15278																
0.71003	2.16387	0.709183	2.15281																
0.711381	2.16382	0.710557	2.15285																
0.712732	2.16377	0.71193	2.15289																
0.714083	2.16371	0.713304	2.15292																
0.715435	2.16366	0.714677	2.15296																
0.716786	2.16361	0.716051	2.15299																
0.718138	2.16356	0.717424	2.15303																
0.719489	2.16351	0.718798	2.15306																
0.720841	2.16346	0.720171	2.1531																
