Sym0		Asym0		Sym1		Sym2		Sym3		Sym4		Asym1		Asym2		Asym3		Asym4	
553  Points		551  Points		455  Points		238  Points		218  Points		165  Points		499  Points		376  Points		218  Points		159  Points	
Freq (MHz)	Vph (m/ms)	Freq (MHz)	Vph (m/ms)	Freq (MHz)	Vph (m/ms)	Freq (MHz)	Vph (m/ms)	Freq (MHz)	Vph (m/ms)	Freq (MHz)	Vph (m/ms)	Freq (MHz)	Vph (m/ms)	Freq (MHz)	Vph (m/ms)	Freq (MHz)	Vph (m/ms)	Freq (MHz)	Vph (m/ms)
0.00160716	5.0339	0.000198677	0.120343	0.169741	599.007	0.279523	549.194	0.509226	8550.52	0.559018	3195.72	0.139759	671.165	0.339484	17779.1	0.419263	7938.64	0.678968	9883.45
0.00479078	5.03379	0.000379403	0.166159	0.169735	185.335	0.27958	244.94	0.509215	735.849	0.559048	692.42	0.139824	166.321	0.339479	521.033	0.419284	611.853	0.678936	968.314
0.00797406	5.03356	0.000617228	0.211682	0.169721	109.619	0.279681	157.666	0.509185	384.446	0.559115	388.318	0.13997	95.0142	0.339463	264.378	0.41934	318.23	0.678852	509.034
0.0111568	5.03321	0.000911387	0.256853	0.1697	77.8176	0.279825	116.287	0.509137	260.173	0.559219	269.855	0.140194	66.5814	0.339438	177.117	0.419431	215.073	0.678718	345.217
0.0143388	5.03278	0.00126089	0.301595	0.169672	60.313	0.280014	92.1464	0.509071	196.6	0.559361	206.807	0.140496	51.3123	0.339402	133.155	0.419557	162.453	0.678537	261.124
0.0175199	5.03223	0.00166463	0.345848	0.169638	49.2325	0.280245	76.3351	0.508986	157.98	0.55954	167.667	0.140876	41.7966	0.339356	106.67	0.419719	130.546	0.678311	209.94
0.0206999	5.03157	0.00212129	0.389538	0.169597	41.5873	0.280519	65.1809	0.508885	132.031	0.559755	141.008	0.141332	35.3068	0.339301	88.9661	0.419915	109.138	0.678044	175.503
0.0238784	5.03078	0.00262949	0.432617	0.169551	35.9938	0.280836	56.8936	0.508766	113.393	0.560006	121.684	0.141863	30.6042	0.339237	76.2968	0.420146	93.7824	0.677742	150.747
0.0270552	5.02987	0.00318775	0.475034	0.169499	31.7236	0.281195	50.4964	0.508631	99.3576	0.560291	107.037	0.142469	27.0448	0.339164	66.7811	0.42041	82.2325	0.677406	132.091
0.0302302	5.02884	0.00379444	0.516741	0.169443	28.3564	0.281595	45.4108	0.508481	88.406	0.560612	95.553	0.143147	24.2608	0.339082	59.3714	0.420709	73.2316	0.677043	117.526
0.033403	5.02768	0.00444791	0.557699	0.169382	25.6332	0.282037	41.2726	0.508316	79.622	0.560966	86.3093	0.143895	22.0266	0.338992	53.438	0.421041	66.0211	0.676655	105.839
0.0365733	5.02637	0.00514646	0.597874	0.169318	23.3852	0.28252	37.841	0.508137	72.4196	0.561353	78.7097	0.144713	20.1965	0.338894	48.5792	0.421406	60.1165	0.676246	96.253
0.0397408	5.02493	0.0058882	0.637224	0.169251	21.4981	0.283043	34.9503	0.507944	66.4065	0.561772	72.3523	0.145598	18.6719	0.338789	44.5273	0.421804	55.1934	0.675819	88.2482
0.0429053	5.02334	0.00667146	0.675738	0.169181	19.8913	0.283605	32.483	0.50774	61.3103	0.562222	66.9563	0.146548	17.3838	0.338677	41.0965	0.422233	51.0268	0.675377	81.4628
0.0460663	5.02159	0.0074943	0.713383	0.169111	18.5068	0.284206	30.3531	0.507524	56.9361	0.562703	62.3196	0.147561	16.2824	0.338559	38.154	0.422694	47.4554	0.674924	75.638
0.0492235	5.01968	0.00835504	0.750155	0.169039	17.3015	0.284846	28.4966	0.507298	53.1403	0.563212	58.2929	0.148636	15.3311	0.338435	35.6025	0.423186	44.3608	0.67446	70.5832
0.0523765	5.0176	0.00925183	0.786038	0.168968	16.2428	0.285523	26.8645	0.507063	49.8153	0.563751	54.7638	0.14977	14.502	0.338306	33.3688	0.423709	41.654	0.673988	66.1552
0.0555247	5.01532	0.0101828	0.82102	0.168899	15.3056	0.286237	25.4191	0.506818	46.8786	0.564316	51.6458	0.150961	13.7738	0.338172	31.397	0.424262	39.2669	0.673511	62.2443
0.0586677	5.01285	0.0111465	0.855109	0.168832	14.4702	0.286988	24.1305	0.506566	44.2658	0.564909	48.8712	0.152207	13.1299	0.338035	29.6436	0.424843	37.1463	0.673029	58.765
0.0618049	5.01016	0.0121408	0.888292	0.168769	13.721	0.287773	22.9748	0.506308	41.926	0.565527	46.3867	0.153506	12.5569	0.337894	28.0742	0.425454	35.2504	0.672544	55.6496
0.0649358	5.00724	0.0131644	0.920585	0.16871	13.0454	0.288594	21.9328	0.506043	39.8188	0.56617	44.1491	0.154856	12.0442	0.337751	26.6613	0.426092	33.5455	0.672058	52.8439
0.0680596	5.00408	0.0142155	0.951984	0.168657	12.4333	0.289448	20.9889	0.505774	37.9109	0.566837	42.1237	0.156255	11.5832	0.337606	25.3826	0.426758	32.0043	0.671572	50.304
0.0711757	5.00065	0.0152926	0.982504	0.168612	11.8763	0.290336	20.1301	0.5055	36.1754	0.567528	40.2818	0.157701	11.1669	0.337459	24.2199	0.42745	30.6047	0.671085	47.9939
0.0742831	4.99693	0.0163942	1.01215	0.168575	11.3673	0.291256	19.3455	0.505223	34.59	0.56824	38.5996	0.159192	10.7892	0.337312	23.1582	0.428169	29.3281	0.670601	45.8839
0.0773809	4.99289	0.0175189	1.04094	0.168549	10.9006	0.292208	18.6263	0.504944	33.1361	0.568975	37.0574	0.160726	10.4454	0.337165	22.1848	0.428914	28.1592	0.670118	43.949
0.080468	4.98851	0.0186652	1.06889	0.168535	10.4714	0.29319	17.9647	0.504663	31.7979	0.56973	35.6386	0.162301	10.1314	0.337019	21.2892	0.429683	27.0851	0.669638	42.1684
0.0835433	4.98376	0.019832	1.09601	0.168534	10.0754	0.294203	17.3542	0.50438	30.5622	0.570505	34.3289	0.163915	9.84349	0.336874	20.4626	0.430477	26.0948	0.669162	40.5245
0.0866054	4.97859	0.0210178	1.12231	0.168549	9.70923	0.295244	16.7893	0.504098	29.4177	0.571299	33.1164	0.165566	9.57885	0.336731	19.6972	0.431295	25.179	0.668691	39.0021
0.0896527	4.97296	0.0222216	1.14783	0.168582	9.36975	0.296315	16.2652	0.503816	28.3548	0.572112	31.9908	0.167253	9.33489	0.336591	18.9866	0.432135	24.3298	0.668223	37.5883
0.0926834	4.96683	0.0234421	1.17257	0.168634	9.0544	0.297413	15.7777	0.503536	27.3649	0.572944	30.9429	0.168974	9.10939	0.336454	18.3251	0.432999	23.5402	0.667762	36.2719
0.0956956	4.96014	0.0246783	1.19655	0.16871	8.76094	0.298538	15.3233	0.503257	26.441	0.573792	29.9652	0.170727	8.90044	0.336322	17.7079	0.433884	22.8042	0.667305	35.0432
0.098687	4.95283	0.0259292	1.21979	0.16881	8.48741	0.299689	14.8987	0.50298	25.5766	0.574658	29.0509	0.172511	8.70638	0.336194	17.1307	0.43479	22.1167	0.666855	33.8938
0.101655	4.94482	0.0271938	1.24232	0.16894	8.23214	0.300866	14.5013	0.502707	24.7662	0.57554	28.1941	0.174324	8.52575	0.336072	16.5899	0.435718	21.473	0.666411	32.8164
0.104596	4.93604	0.0284712	1.26415	0.169101	7.99364	0.302068	14.1285	0.502438	24.0049	0.576437	27.3894	0.176165	8.35726	0.335957	16.0821	0.436666	20.8693	0.665974	31.8043
0.107508	4.9264	0.0297605	1.28531	0.169298	7.77064	0.303293	13.7783	0.502172	23.2886	0.57735	26.6325	0.178031	8.19978	0.335847	15.6044	0.437633	20.3019	0.665543	30.8519
0.110385	4.91578	0.031061	1.3058	0.169535	7.56203	0.304542	13.4486	0.501912	22.6132	0.578277	25.9191	0.179922	8.05231	0.335746	15.1544	0.438619	19.7676	0.665121	29.9541
0.113223	4.90407	0.0323717	1.32566	0.169779	7.39121	0.305813	13.1378	0.501656	21.9755	0.579218	25.2456	0.181836	7.91397	0.335653	14.7297	0.439624	19.2639	0.664705	29.1064
0.116018	4.89113	0.0336921	1.3449	0.170017	7.25322	0.307107	12.8444	0.501407	21.3725	0.580173	24.6089	0.183772	7.78396	0.335568	14.3283	0.440648	18.788	0.664298	28.3047
0.118763	4.87681	0.0350215	1.36354	0.170237	7.14418	0.308421	12.5669	0.501164	20.8013	0.581142	24.0059	0.185728	7.66157	0.335494	13.9485	0.441688	18.3379	0.663899	27.5454
0.121451	4.86094	0.0363591	1.3816	0.170426	7.06109	0.309756	12.3042	0.500927	20.2597	0.582123	23.4342	0.187703	7.54617	0.335429	13.5885	0.442746	17.9115	0.663508	26.8252
0.124074	4.84335	0.0377045	1.3991	0.170575	7.00172	0.31111	12.0552	0.500698	19.7454	0.583116	22.8914	0.189696	7.43718	0.335376	13.2469	0.443821	17.507	0.663126	26.1414
0.126625	4.82382	0.039057	1.41605	0.170674	6.96448	0.312484	11.8188	0.500477	19.2564	0.584122	22.3753	0.191705	7.3341	0.335334	12.9224	0.444911	17.1228	0.662752	25.4911
0.129094	4.80216	0.0404161	1.43248	0.170823	6.91195	0.313876	11.5941	0.500264	18.7909	0.585139	21.8841	0.193468	7.24871	0.335305	12.6139	0.446017	16.7575	0.662388	24.872
0.131471	4.77817	0.0417814	1.4484	0.170994	6.85619	0.315286	11.3803	0.500059	18.3473	0.586168	21.416	0.19498	7.17897	0.335289	12.3202	0.447139	16.4097	0.662033	24.2821
0.133746	4.75165	0.0431523	1.46383	0.171241	6.78255	0.316713	11.1766	0.499864	17.9242	0.587207	20.9695	0.196235	7.12329	0.335287	12.0403	0.448275	16.0782	0.661687	23.7192
0.13591	4.72243	0.0445284	1.47879	0.171579	6.69296	0.318156	10.9825	0.499678	17.5202	0.588257	20.543	0.197231	7.08048	0.335299	11.7733	0.449425	15.7619	0.661351	23.1816
0.137955	4.69041	0.0459093	1.49328	0.17203	6.58977	0.319615	10.7971	0.499502	17.1341	0.589317	20.1353	0.197965	7.04967	0.335327	11.5185	0.450589	15.4598	0.661025	22.6676
0.139873	4.65551	0.0472947	1.50734	0.172622	6.47573	0.321089	10.62	0.499336	16.7647	0.590387	19.7452	0.198435	7.03023	0.335371	11.2751	0.451766	15.171	0.660708	22.1758
0.14166	4.61776	0.0486841	1.52096	0.173393	6.3539	0.322578	10.4506	0.49918	16.411	0.591467	19.3715	0.199113	7.00267	0.335432	11.0423	0.452957	14.8947	0.660402	21.7048
0.143312	4.57727	0.0498979	1.53249	0.174272	6.24147	0.32408	10.2885	0.499036	16.0721	0.592556	19.0134	0.19985	6.97322	0.335511	10.8196	0.45416	14.63	0.660106	21.2533
0.144833	4.53424	0.0509347	1.54209	0.175269	6.13814	0.325596	10.1332	0.498903	15.747	0.593654	18.6697	0.200855	6.93397	0.335608	10.6065	0.455375	14.3762	0.659821	20.8201
0.146225	4.48893	0.0517935	1.54986	0.176394	6.04366	0.327125	9.98421	0.498782	15.4351	0.594761	18.3397	0.20213	6.88561	0.335725	10.4022	0.456602	14.1327	0.659546	20.4043
0.147494	4.44167	0.0524733	1.5559	0.177654	5.95772	0.328665	9.84127	0.498673	15.1355	0.595876	18.0227	0.203675	6.82896	0.335862	10.2065	0.45784	13.899	0.659283	20.0047
0.148651	4.39284	0.0529736	1.56028	0.179055	5.87999	0.330217	9.70397	0.498577	14.8476	0.596999	17.7177	0.205494	6.76492	0.336021	10.0187	0.459089	13.6744	0.65903	19.6205
0.149704	4.3428	0.053294	1.56306	0.1806	5.81007	0.33178	9.57199	0.498493	14.5706	0.59813	17.4242	0.207586	6.69443	0.336202	9.8386	0.460348	13.4583	0.658788	19.2508
0.150665	4.29193	0.0537548	1.56703	0.18229	5.74751	0.333353	9.44503	0.498423	14.3042	0.599269	17.1416	0.209685	6.62694	0.336406	9.66567	0.461618	13.2505	0.658558	18.8949
0.151545	4.24058	0.0542561	1.57129	0.184123	5.69178	0.334936	9.32282	0.498367	14.0476	0.600416	16.8692	0.211787	6.56222	0.336634	9.4996	0.462897	13.0503	0.658339	18.552
0.152353	4.18906	0.0549382	1.57702	0.186091	5.64233	0.336528	9.20507	0.498325	13.8004	0.601569	16.6065	0.213893	6.50007	0.336887	9.34005	0.464186	12.8574	0.658133	18.2214
0.1531	4.13764	0.0558018	1.58414	0.188189	5.59856	0.338128	9.09156	0.498297	13.5621	0.602729	16.353	0.216	6.44032	0.337166	9.18672	0.465484	12.6713	0.657938	17.9025
0.153794	4.08655	0.0568473	1.59258	0.190405	5.55988	0.339736	8.98205	0.498284	13.3322	0.603896	16.1083	0.218107	6.3828	0.337473	9.03931	0.466791	12.4918	0.657755	17.5948
0.154444	4.03599	0.0580753	1.60224	0.19273	5.52572	0.341351	8.87633	0.498286	13.1104	0.605069	15.8718	0.220214	6.32733	0.337809	8.89757	0.468106	12.3185	0.657584	17.2975
0.155056	3.98611	0.0594864	1.61303	0.195153	5.49554	0.342973	8.7742	0.498304	12.8963	0.606249	15.6432	0.222318	6.27378	0.338174	8.76123	0.469429	12.1511	0.657426	17.0104
0.155637	3.93704	0.0608992	1.6235	0.197663	5.46883	0.344601	8.67548	0.498338	12.6895	0.607434	15.4221	0.224418	6.22201	0.33857	8.63009	0.470759	11.9893	0.65728	16.7328
0.156193	3.88887	0.0623137	1.63366	0.200251	5.44515	0.346234	8.57998	0.498389	12.4896	0.608625	15.2082	0.226514	6.17189	0.338998	8.5039	0.472097	11.8327	0.657147	16.4643
0.156727	3.84168	0.0637296	1.64353	0.202907	5.42409	0.347872	8.48755	0.498456	12.2964	0.609822	15.001	0.228603	6.12329	0.339459	8.38249	0.473441	11.6813	0.657027	16.2046
0.157244	3.79553	0.0651468	1.65311	0.205623	5.40531	0.349514	8.39803	0.498541	12.1096	0.611024	14.8003	0.230684	6.07611	0.339955	8.26564	0.474792	11.5346	0.656921	15.9531
0.157684	3.75618	0.066565	1.66242	0.208392	5.38851	0.35116	8.31128	0.498643	11.9288	0.612231	14.6058	0.232756	6.03023	0.340487	8.1532	0.476149	11.3925	0.656827	15.7095
0.158053	3.72329	0.0679843	1.67147	0.211207	5.37342	0.352809	8.22715	0.498764	11.7538	0.613442	14.4172	0.234818	5.98555	0.341056	8.045	0.477512	11.2548	0.656748	15.4736
0.158354	3.69655	0.0694045	1.68026	0.214062	5.35982	0.35446	8.14553	0.498902	11.5845	0.614659	14.2342	0.236866	5.94198	0.341664	7.94087	0.47888	11.1213	0.656681	15.2448
0.158591	3.67571	0.0708253	1.6888	0.216953	5.34752	0.356113	8.06628	0.49906	11.4204	0.615879	14.0566	0.238902	5.89944	0.342312	7.84067	0.480254	10.9917	0.656629	15.023
0.158763	3.66055	0.0722469	1.6971	0.219875	5.33636	0.357768	7.9893	0.499238	11.2615	0.617104	13.8841	0.240921	5.85782	0.343001	7.74427	0.481632	10.866	0.656591	14.8079
0.158874	3.65092	0.0736689	1.70517	0.222825	5.32618	0.359422	7.91447	0.499435	11.1075	0.618333	13.7166	0.242924	5.81707	0.343733	7.65153	0.483015	10.7439	0.656568	14.5991
0.159032	3.63719	0.0750913	1.71302	0.225798	5.31688	0.361077	7.8417	0.499653	10.9582	0.619565	13.5537	0.244908	5.77709	0.344406	7.5736	0.484401	10.6253	0.656559	14.3965
0.159203	3.62239	0.0765141	1.72065	0.228793	5.30835	0.362731	7.77089	0.499891	10.8134	0.620801	13.3955	0.246873	5.73782	0.345007	7.50924	0.485792	10.5099	0.656565	14.1997
0.159435	3.6025	0.0779372	1.72807	0.231807	5.30049	0.364384	7.70194	0.500151	10.673	0.62204	13.2415	0.248815	5.69919	0.345523	7.45741	0.487185	10.3978	0.656585	14.0085
0.159728	3.57771	0.0793604	1.73529	0.234837	5.29323	0.366035	7.63478	0.500432	10.5368	0.623283	13.0917	0.250734	5.66115	0.345944	7.41731	0.488582	10.2888	0.656621	13.8228
0.160082	3.54829	0.0807836	1.74232	0.237882	5.28651	0.367472	7.57764	0.500736	10.4046	0.624528	12.9459	0.252629	5.62362	0.34626	7.38831	0.489981	10.1826	0.656673	13.6422
0.160496	3.51455	0.082207	1.74916	0.24094	5.28026	0.368695	7.5299	0.501062	10.2764	0.625776	12.8039	0.254497	5.58655	0.346466	7.36996	0.491383	10.0793	0.65674	13.4667
0.160973	3.47683	0.0836303	1.75582	0.24401	5.27443	0.369705	7.49109	0.501411	10.1519	0.627026	12.6655	0.256337	5.5499	0.346766	7.34388	0.492786	9.97859	0.656822	13.2959
0.161452	3.44018	0.0850536	1.7623	0.247091	5.26898	0.370502	7.46081	0.501785	10.031	0.628278	12.5308	0.258148	5.51361	0.347098	7.31592	0.494191	9.88051	0.656921	13.1298
0.161933	3.40456	0.0864767	1.76861	0.25018	5.26387	0.371088	7.43877	0.502182	9.91357	0.629533	12.3994	0.259929	5.47764	0.347559	7.27852	0.495598	9.7849	0.657037	12.9682
0.162419	3.36996	0.0878995	1.77475	0.253278	5.25906	0.371462	7.42476	0.502604	9.79955	0.630789	12.2712	0.261677	5.44196	0.34816	7.23224	0.497005	9.69166	0.657169	12.8109
0.162909	3.33635	0.0893222	1.78074	0.256383	5.25452	0.372001	7.40476	0.503051	9.6888	0.632047	12.1463	0.263392	5.40652	0.348911	7.17779	0.498413	9.60071	0.657317	12.6577
0.163405	3.30371	0.0907446	1.78657	0.259494	5.25023	0.372585	7.38319	0.503524	9.58119	0.633306	12.0243	0.265073	5.37129	0.349827	7.11596	0.499821	9.51195	0.657483	12.5086
0.163907	3.27201	0.0921667	1.79225	0.262611	5.24617	0.373378	7.35415	0.504023	9.47664	0.634566	11.9053	0.266719	5.33625	0.350927	7.04766	0.501229	9.4253	0.657666	12.3633
0.164415	3.24123	0.0935885	1.79779	0.265732	5.2423	0.37438	7.31789	0.504549	9.37504	0.635827	11.7891	0.268329	5.30137	0.352078	6.9821	0.502636	9.34067	0.657867	12.2218
0.16493	3.21135	0.0950098	1.80318	0.268859	5.23861	0.375589	7.27471	0.505102	9.2763	0.637089	11.6755	0.269902	5.26664	0.353282	6.91918	0.504042	9.258	0.658085	12.0839
0.165452	3.18233	0.0964308	1.80844	0.271988	5.23508	0.377003	7.22496	0.505682	9.18033	0.638351	11.5646	0.271437	5.23203	0.354538	6.85883	0.505448	9.1772	0.658322	11.9494
0.165982	3.15416	0.0978513	1.81357	0.275121	5.2317	0.378619	7.16905	0.50629	9.08704	0.639613	11.4562	0.272934	5.19753	0.355847	6.80095	0.506851	9.09821	0.658577	11.8184
0.16652	3.1268	0.0992714	1.81858	0.278257	5.22844	0.380228	7.11432	0.506928	8.99636	0.640876	11.3503	0.274394	5.16314	0.35721	6.74546	0.508253	9.02096	0.65885	11.6906
0.167066	3.10024	0.100691	1.82345	0.281395	5.22531	0.38183	7.06073	0.507594	8.90819	0.642138	11.2467	0.275815	5.12885	0.358625	6.69226	0.509653	8.94539	0.659143	11.566
0.167621	3.07445	0.10211	1.82822	0.284535	5.22228	0.383424	7.00824	0.508289	8.82247	0.6434	11.1453	0.277199	5.09466	0.360094	6.64128	0.51105	8.87143	0.659454	11.4445
0.168184	3.0494	0.103529	1.83286	0.287676	5.21934	0.385008	6.95678	0.509014	8.73913	0.644662	11.0461	0.278544	5.06056	0.361615	6.59243	0.512444	8.79902	0.659784	11.3259
0.168756	3.02508	0.104947	1.83739	0.290818	5.21649	0.386584	6.90633	0.50977	8.65809	0.645922	10.9491	0.279852	5.02657	0.363187	6.54563	0.513835	8.72812	0.660135	11.2102
0.169337	3.00146	0.106364	1.84181	0.29396	5.21371	0.38815	6.85684	0.510556	8.57928	0.647182	10.8541	0.281123	4.99268	0.364811	6.5008	0.515222	8.65867	0.660505	11.0973
0.169926	2.97852	0.107781	1.84613	0.297103	5.21099	0.389706	6.80826	0.511374	8.50265	0.64844	10.761	0.282358	4.95892	0.366485	6.45785	0.516605	8.59061	0.660895	10.9871
0.170525	2.95624	0.109198	1.85035	0.300245	5.20833	0.391252	6.76057	0.512222	8.42813	0.649697	10.6699	0.283558	4.92528	0.368209	6.41671	0.517985	8.52389	0.661305	10.8795
0.171133	2.9346	0.110613	1.85446	0.303386	5.20571	0.392787	6.71372	0.513102	8.35566	0.650952	10.5806	0.284723	4.89178	0.36998	6.37729	0.519359	8.45848	0.661737	10.7745
0.171749	2.91358	0.112028	1.85848	0.306527	5.20313	0.394311	6.66768	0.514014	8.28518	0.652205	10.4931	0.285855	4.85843	0.371799	6.33953	0.520729	8.39433	0.662189	10.672
0.172375	2.89315	0.113443	1.86241	0.309666	5.20058	0.395823	6.62243	0.514959	8.21664	0.653456	10.4073	0.286955	4.82525	0.373663	6.30334	0.522094	8.33139	0.662662	10.5718
0.17301	2.87331	0.114857	1.86625	0.312803	5.19805	0.397324	6.57794	0.515935	8.14998	0.654704	10.3232	0.288023	4.79225	0.375572	6.26866	0.523453	8.26962	0.663156	10.474
0.173654	2.85403	0.11627	1.86999	0.315937	5.19553	0.398813	6.53417	0.516944	8.08514	0.655951	10.2408	0.289062	4.75945	0.377524	6.23542	0.524807	8.20898	0.663672	10.3785
0.174307	2.83529	0.117683	1.87366	0.319069	5.19302	0.40029	6.49111	0.517986	8.02208	0.657194	10.1599	0.290072	4.72686	0.379517	6.20354	0.526154	8.14944	0.664209	10.2852
0.17497	2.81709	0.119095	1.87724	0.322197	5.19051	0.401755	6.44873	0.51906	7.96074	0.658435	10.0805	0.291055	4.69449	0.38155	6.17295	0.527496	8.09096	0.664769	10.194
0.175641	2.79939	0.120507	1.88074	0.325322	5.18799	0.403208	6.40701	0.520023	7.90866	0.659672	10.0026	0.292012	4.66237	0.383622	6.1436	0.528831	8.0335	0.665351	10.1049
0.176321	2.78219	0.121918	1.88416	0.328442	5.18545	0.404649	6.36593	0.520864	7.86525	0.660906	9.92608	0.292944	4.6305	0.38573	6.11542	0.530159	7.97704	0.665955	10.0179
0.177011	2.76546	0.123328	1.8875	0.331557	5.18288	0.406078	6.32548	0.521572	7.83001	0.662136	9.85099	0.293853	4.5989	0.387873	6.08836	0.531311	7.92862	0.666582	9.93282
0.177709	2.74921	0.124737	1.89077	0.334667	5.18027	0.407496	6.28564	0.522141	7.80257	0.663363	9.77724	0.294741	4.56757	0.390051	6.06235	0.532288	7.8879	0.667231	9.84968
0.178416	2.7334	0.126146	1.89397	0.33777	5.17763	0.408903	6.24641	0.522565	7.78263	0.664586	9.7048	0.295608	4.53654	0.39226	6.03735	0.533094	7.85462	0.667904	9.76841
0.179131	2.71803	0.127555	1.8971	0.340867	5.17492	0.4103	6.20776	0.522838	7.76997	0.665805	9.63363	0.296455	4.50582	0.3945	6.01329	0.533729	7.82854	0.6686	9.68896
0.179856	2.70308	0.128962	1.90017	0.343956	5.17215	0.411686	6.1697	0.523234	7.75191	0.66702	9.56369	0.297285	4.47541	0.39677	5.99013	0.534194	7.8095	0.669318	9.61128
0.180589	2.68854	0.13037	1.90316	0.347036	5.16931	0.413063	6.13221	0.523668	7.73246	0.66823	9.49494	0.298098	4.44532	0.399067	5.96783	0.534492	7.79737	0.670061	9.53534
0.181331	2.6744	0.131776	1.9061	0.350106	5.16637	0.414432	6.0953	0.524265	7.70632	0.669435	9.42735	0.298895	4.41556	0.40139	5.94634	0.534919	7.78001	0.670826	9.46109
0.182081	2.66065	0.133182	1.90897	0.353166	5.16333	0.415793	6.05896	0.525031	7.67376	0.670636	9.36088	0.299677	4.38614	0.403739	5.92561	0.535382	7.76125	0.671616	9.38848
0.182839	2.64726	0.134587	1.91178	0.356214	5.16018	0.417148	6.0232	0.525973	7.63511	0.671832	9.29552	0.300446	4.35706	0.406111	5.9056	0.536011	7.73591	0.672429	9.31747
0.183606	2.63424	0.135991	1.91453	0.359248	5.15689	0.418498	5.98801	0.527102	7.59076	0.673023	9.23122	0.301203	4.32834	0.408505	5.88629	0.536803	7.70415	0.673266	9.24802
0.184381	2.62157	0.137395	1.91722	0.362268	5.15346	0.419845	5.95341	0.528427	7.54115	0.674209	9.16795	0.301949	4.29997	0.410921	5.86762	0.537757	7.66615	0.674126	9.18009
0.185164	2.60924	0.138799	1.91986	0.365272	5.14985	0.421191	5.9194	0.529783	7.49289	0.67539	9.1057	0.302683	4.27196	0.413356	5.84957	0.53887	7.62214	0.675011	9.11364
0.185955	2.59724	0.140201	1.92245	0.368257	5.14605	0.422537	5.886	0.531171	7.44591	0.676565	9.04442	0.303409	4.24431	0.41581	5.8321	0.540141	7.57237	0.67592	9.04864
0.186754	2.58556	0.141604	1.92498	0.371222	5.14204	0.423886	5.85323	0.532591	7.4002	0.677735	8.9841	0.304125	4.21703	0.418282	5.81518	0.541404	7.52336	0.676852	8.98505
0.18756	2.57419	0.143005	1.92746	0.374165	5.13779	0.42524	5.82109	0.534041	7.35571	0.678899	8.92471	0.304834	4.19011	0.42077	5.79878	0.542658	7.47509	0.677808	8.92283
0.188375	2.56312	0.144406	1.92989	0.377082	5.13326	0.426603	5.78963	0.535521	7.3124	0.680057	8.86622	0.305536	4.16356	0.423273	5.78288	0.543904	7.42755	0.678789	8.86195
0.189197	2.55234	0.145806	1.93227	0.379971	5.12844	0.427978	5.75885	0.537031	7.27023	0.68121	8.80862	0.306231	4.13737	0.425791	5.76744	0.545143	7.38072	0.679793	8.80238
0.190026	2.54184	0.147206	1.9346	0.382829	5.12328	0.429368	5.7288	0.53857	7.22917	0.682357	8.75187	0.30692	4.11156	0.428322	5.75244	0.546373	7.33457	0.68082	8.74408
0.190863	2.53162	0.148605	1.93689	0.385651	5.11774	0.430777	5.69951	0.540139	7.18919	0.683498	8.69597	0.307605	4.0861	0.430865	5.73787	0.547595	7.28909	0.681872	8.68702
0.191708	2.52167	0.150003	1.93913	0.388436	5.11178	0.43221	5.67102	0.541735	7.15025	0.684633	8.64088	0.308285	4.06102	0.43342	5.72368	0.548809	7.24427	0.682947	8.63117
0.192559	2.51197	0.151401	1.94133	0.391176	5.10536	0.433672	5.64336	0.54336	7.11232	0.685763	8.58659	0.308961	4.0363	0.435986	5.70987	0.550016	7.20008	0.684045	8.5765
0.193418	2.50252	0.152799	1.94349	0.393869	5.09842	0.435167	5.6166	0.545011	7.07536	0.686886	8.53309	0.309633	4.01193	0.438561	5.69641	0.551215	7.15653	0.685167	8.52298
0.194283	2.49332	0.154195	1.9456	0.39651	5.09092	0.436702	5.59077	0.546689	7.03935	0.688004	8.48034	0.310303	3.98793	0.441144	5.68328	0.552406	7.11358	0.686312	8.47058
0.195156	2.48435	0.155591	1.94768	0.399092	5.0828	0.438281	5.56592	0.548393	7.00425	0.689115	8.42834	0.310971	3.96429	0.443736	5.67047	0.55359	7.07124	0.68748	8.41928
0.196035	2.47561	0.156987	1.94971	0.40161	5.074	0.439912	5.54211	0.550122	6.97003	0.690221	8.37706	0.311636	3.941	0.446334	5.65794	0.554767	7.02949	0.68867	8.36903
0.196921	2.4671	0.158382	1.95171	0.40406	5.06448	0.441599	5.51939	0.551876	6.93667	0.691321	8.3265	0.3123	3.91806	0.448939	5.6457	0.555938	6.98832	0.689883	8.31983
0.197814	2.4588	0.159777	1.95366	0.406435	5.05419	0.443349	5.4978	0.553653	6.90413	0.692275	8.283	0.312963	3.89547	0.451549	5.63371	0.557102	6.94772	0.690959	8.27778
0.198713	2.45071	0.161171	1.95559	0.408731	5.04307	0.445166	5.47738	0.555454	6.87238	0.693084	8.24633	0.313626	3.87322	0.454163	5.62197	0.558261	6.90768	0.691889	8.24252
0.199618	2.44282	0.162564	1.95747	0.410943	5.03111	0.447055	5.45815	0.557278	6.84141	0.693752	8.21629	0.314287	3.85131	0.456781	5.61045	0.559413	6.86819	0.692667	8.21378
0.20053	2.43513	0.163957	1.95932	0.413069	5.01828	0.44902	5.44013	0.559123	6.81118	0.694278	8.19272	0.314949	3.82974	0.459402	5.59914	0.560561	6.82925	0.693288	8.1913
0.201448	2.42764	0.165349	1.96114	0.415105	5.00456	0.451062	5.42332	0.56099	6.78167	0.694664	8.17548	0.315611	3.8085	0.462024	5.58803	0.561704	6.79086	0.693747	8.17492
0.202372	2.42033	0.166741	1.96292	0.417051	4.98997	0.453184	5.4077	0.562877	6.75285	0.69491	8.1645	0.316274	3.78759	0.464647	5.5771	0.562843	6.75299	0.694043	8.1645
0.203302	2.4132	0.168132	1.96467	0.418906	4.97453	0.455384	5.39326	0.564783	6.7247	0.695265	8.14876	0.316937	3.76701	0.467271	5.56633	0.563978	6.71566	0.69447	8.1496
0.204238	2.40624	0.169523	1.96639	0.420672	4.95826	0.457663	5.37994	0.566709	6.69719	0.695649	8.13174	0.317602	3.74674	0.469894	5.55572	0.565111	6.67885	0.694937	8.13352
0.20518	2.39946	0.170913	1.96808	0.422352	4.94123	0.460016	5.3677	0.568653	6.67031	0.69617	8.10871	0.318268	3.72679	0.472515	5.54525	0.566242	6.64256	0.695576	8.11183
0.206128	2.39285	0.172303	1.96973	0.423949	4.92348	0.462441	5.35647	0.570615	6.64403	0.696828	8.07981	0.318935	3.70715	0.475134	5.5349	0.567371	6.60679	0.696392	8.08471
0.207081	2.38639	0.173692	1.97136	0.425467	4.90509	0.464934	5.34618	0.572593	6.61833	0.697621	8.04518	0.319604	3.68781	0.477749	5.52466	0.5685	6.57153	0.697388	8.05236
0.20804	2.3801	0.17508	1.97296	0.426912	4.88611	0.46749	5.33676	0.574588	6.59319	0.698548	8.00499	0.320275	3.66878	0.48036	5.51452	0.569629	6.53679	0.698572	8.01502
0.209005	2.37395	0.176469	1.97453	0.428287	4.86662	0.470105	5.32815	0.576598	6.56859	0.699606	7.95943	0.320948	3.65005	0.482965	5.50446	0.570759	6.50257	0.699949	7.97297
0.209974	2.36796	0.177856	1.97607	0.429598	4.84669	0.472774	5.32026	0.578623	6.5445	0.70066	7.91448	0.321623	3.63161	0.485564	5.49447	0.571892	6.46886	0.701346	7.93174
0.21095	2.3621	0.179243	1.97759	0.430851	4.82639	0.475492	5.31303	0.580662	6.52092	0.70171	7.87011	0.322301	3.61346	0.488154	5.48454	0.573027	6.43567	0.702763	7.89132
0.21193	2.35639	0.18063	1.97908	0.43205	4.80578	0.478254	5.30639	0.582714	6.49781	0.702756	7.82632	0.322982	3.59559	0.490736	5.47464	0.574167	6.40299	0.704198	7.85168
0.212915	2.35082	0.182016	1.98054	0.433201	4.78491	0.481057	5.30029	0.584779	6.47517	0.703797	7.7831	0.323665	3.578	0.493308	5.46478	0.575313	6.37083	0.705653	7.8128
0.213906	2.34538	0.183402	1.98198	0.434307	4.76385	0.483896	5.29468	0.586856	6.45298	0.704835	7.74044	0.324351	3.56069	0.495869	5.45493	0.576465	6.33919	0.707126	7.77466
0.214901	2.34006	0.184787	1.98339	0.435372	4.74263	0.486768	5.2895	0.588944	6.43122	0.70587	7.69834	0.325039	3.54365	0.498417	5.44508	0.577625	6.30808	0.708616	7.73725
0.215901	2.33487	0.186172	1.98478	0.436401	4.72131	0.489669	5.28471	0.591043	6.40987	0.706902	7.65677	0.325731	3.52687	0.500952	5.43521	0.578795	6.2775	0.710125	7.70054
0.216906	2.32981	0.187557	1.98615	0.437396	4.69992	0.492597	5.28026	0.593152	6.38891	0.707931	7.61575	0.326427	3.51036	0.503471	5.42531	0.579976	6.24745	0.71165	7.66452
0.217916	2.32486	0.18894	1.98749	0.438361	4.6785	0.495549	5.27613	0.595269	6.36834	0.708957	7.57525	0.327125	3.49411	0.505973	5.41537	0.581169	6.21794	0.713192	7.62916
0.218931	2.32003	0.190324	1.98882	0.439299	4.65707	0.498522	5.27229	0.597396	6.34814	0.709982	7.53528	0.327827	3.47811	0.508457	5.40536	0.582376	6.18897	0.71475	7.59444
0.21995	2.31531	0.191707	1.99011	0.440212	4.63567	0.501514	5.26869	0.59953	6.32828	0.711006	7.49583	0.328532	3.46235	0.51092	5.39528	0.583599	6.16056	0.716324	7.56036
0.220973	2.3107	0.193089	1.99139	0.441102	4.61431	0.504524	5.26533	0.601671	6.30877	0.712028	7.45688	0.32924	3.44685	0.513363	5.3851	0.584839	6.13271	0.717913	7.52689
0.222001	2.3062	0.194471	1.99265	0.441972	4.59302	0.507549	5.26217	0.603818	6.28957	0.71305	7.41845	0.329953	3.43158	0.515782	5.37482	0.586099	6.10543	0.719517	7.49401
0.223033	2.3018	0.195853	1.99388	0.442823	4.57182	0.510588	5.25919	0.605971	6.27069	0.714071	7.38051	0.330669	3.41656	0.518176	5.36441	0.587379	6.07872	0.721135	7.46171
0.22407	2.2975	0.197234	1.9951	0.443658	4.55072	0.51364	5.25638	0.608129	6.2521	0.715093	7.34308	0.331388	3.40176	0.520543	5.35386	0.588683	6.0526		
0.225111	2.2933	0.198615	1.9963	0.444477	4.52973	0.516703	5.25373	0.610292	6.2338	0.716116	7.30613	0.332111	3.38719	0.522881	5.34315	0.590012	6.02707		
0.226156	2.2892	0.199995	1.99747	0.445281	4.50887	0.519777	5.25121	0.612457	6.21577	0.717141	7.26967	0.332838	3.37285	0.525189	5.33227	0.591368	6.00214		
0.227204	2.28518	0.201375	1.99863	0.446073	4.48815	0.522859	5.24881	0.614626	6.19799	0.718167	7.2337	0.333569	3.35874	0.527464	5.3212	0.592753	5.97782		
0.228257	2.28126	0.202755	1.99977	0.446854	4.46757	0.52595	5.24653	0.616797	6.18046	0.719196	7.19821	0.334304	3.34483	0.529704	5.30993	0.594168	5.95413		
0.229314	2.27743	0.204134	2.00089	0.447624	4.44715	0.529048	5.24435	0.618968	6.16317	0.720228	7.1632	0.335043	3.33115	0.531909	5.29844	0.595617	5.93106		
0.230375	2.27368	0.205513	2.00199	0.448384	4.42688	0.532153	5.24226	0.621141	6.14609			0.335786	3.31767	0.534075	5.28671	0.597101	5.90862		
0.23144	2.27002	0.206891	2.00308	0.449135	4.40678	0.535264	5.24026	0.623313	6.12923			0.336532	3.3044	0.536202	5.27474	0.598622	5.88682		
0.232508	2.26644	0.208269	2.00415	0.449878	4.38685	0.538381	5.23834	0.625485	6.11257			0.337283	3.29133	0.538287	5.26251	0.600181	5.86567		
0.23358	2.26294	0.209646	2.0052	0.450614	4.3671	0.541501	5.23648	0.627654	6.09609			0.338038	3.27846	0.540329	5.25001	0.60178	5.84517		
0.234655	2.25951	0.211023	2.00623	0.451344	4.34752	0.544627	5.23468	0.629821	6.0798			0.338797	3.26579	0.542327	5.23724	0.603421	5.82533		
0.235734	2.25616	0.2124	2.00725	0.452067	4.32812	0.547755	5.23295	0.631985	6.06366			0.339559	3.25331	0.544279	5.22419	0.605105	5.80614		
0.236817	2.25289	0.213776	2.00825	0.452785	4.3089	0.550887	5.23126	0.634145	6.04769			0.340326	3.24101	0.546185	5.21085	0.606834	5.7876		
0.237903	2.24968	0.215152	2.00924	0.453498	4.28987	0.554022	5.22962	0.6363	6.03186			0.341097	3.22891	0.548043	5.19721	0.608607	5.76971		
0.238992	2.24655	0.216528	2.01021	0.454207	4.27102	0.557159	5.22802	0.638449	6.01616			0.341872	3.21699	0.549853	5.18329	0.610426	5.75246		
0.240085	2.24348	0.217903	2.01117	0.454912	4.25236	0.560298	5.22645	0.640591	6.00059			0.342652	3.20524	0.551615	5.16908	0.612291	5.73585		
0.241181	2.24048	0.219278	2.01211	0.455613	4.23389	0.563438	5.22492	0.642727	5.98513			0.343435	3.19368	0.553329	5.15459	0.614203	5.71987		
0.242281	2.23755	0.220652	2.01304	0.456311	4.2156	0.56658	5.22342	0.644853	5.96978			0.344222	3.18228	0.554994	5.13982	0.616161	5.70451		
0.243383	2.23468	0.222026	2.01396	0.457006	4.19749	0.569722	5.22194	0.646971	5.95452			0.345014	3.17106	0.556611	5.12478	0.618165	5.68975		
0.244488	2.23187	0.2234	2.01486	0.457699	4.17958	0.572864	5.22048	0.649079	5.93935			0.34581	3.16	0.558181	5.10948	0.620215	5.67557		
0.245597	2.22912	0.224773	2.01575	0.45839	4.16185	0.576007	5.21904	0.651176	5.92425			0.34661	3.14911	0.559705	5.09394	0.622309	5.66197		
0.246709	2.22643	0.226146	2.01662	0.459079	4.14431	0.579149	5.21761	0.653262	5.90923			0.347414	3.13838	0.561183	5.07816	0.624447	5.64892		
0.247823	2.22379	0.227518	2.01748	0.459766	4.12695	0.582291	5.21619	0.655335	5.89426			0.348222	3.12781	0.562617	5.06216	0.626628	5.6364		
0.248941	2.22121	0.22889	2.01833	0.460452	4.10978	0.585431	5.21478	0.657395	5.87934			0.349034	3.1174	0.564008	5.04597	0.62885	5.62439		
0.250061	2.21869	0.230262	2.01917	0.461137	4.09279	0.58857	5.21337	0.659441	5.86447			0.34985	3.10714	0.565357	5.02958	0.631113	5.61288		
0.251184	2.21622	0.231634	2.01999	0.461822	4.07598	0.591707	5.21196	0.661473	5.84963			0.35067	3.09703	0.566667	5.01303	0.633414	5.60183		
0.25231	2.2138	0.233005	2.0208	0.462505	4.05935	0.594842	5.21054	0.663488	5.83482			0.351495	3.08707	0.567938	4.99632	0.635752	5.59124		
0.253438	2.21143	0.234376	2.0216	0.463188	4.04291	0.597974	5.20912	0.665488	5.82004			0.352323	3.07725	0.569173	4.97948	0.638125	5.58107		
0.25457	2.20911	0.235746	2.02239	0.463871	4.02664	0.601103	5.20768	0.667471	5.80527			0.353156	3.06758	0.570373	4.96252	0.640532	5.5713		
0.255704	2.20684	0.237116	2.02317	0.464554	4.01055	0.604228	5.20623	0.669436	5.79051			0.353993	3.05804	0.57154	4.94545	0.642972	5.56192		
0.25684	2.20461	0.238486	2.02393	0.465237	3.99464	0.607349	5.20476	0.671383	5.77576			0.354833	3.04865	0.572675	4.92831	0.645442	5.55291		
0.257979	2.20243	0.239856	2.02469	0.46592	3.9789	0.610465	5.20327	0.673312	5.76101			0.355678	3.03939	0.57378	4.91109	0.647941	5.54424		
0.259121	2.2003	0.241225	2.02543	0.466604	3.96333	0.613577	5.20174	0.675223	5.74626			0.356527	3.03027	0.574857	4.89381	0.650467	5.5359		
0.260265	2.19821	0.242594	2.02617	0.467289	3.94793	0.616682	5.20019	0.677114	5.7315			0.357379	3.02127	0.575908	4.8765	0.653019	5.52786		
0.261411	2.19616	0.243962	2.02689	0.467974	3.93271	0.61978	5.19859	0.678986	5.71674			0.358236	3.01241	0.576933	4.85916	0.655595	5.52012		
0.26256	2.19415	0.24533	2.0276	0.468659	3.91765	0.622872	5.19695	0.680839	5.70198			0.359097	3.00367	0.577934	4.8418	0.658194	5.51264		
0.263712	2.19219	0.246698	2.0283	0.469346	3.90276	0.625955	5.19526	0.682673	5.68722			0.359961	2.99506	0.578913	4.82444	0.660815	5.50543		
0.264865	2.19026	0.248065	2.029	0.470034	3.88803	0.629029	5.19351	0.684488	5.67245			0.360829	2.98657	0.579871	4.80709	0.663455	5.49846		
0.266021	2.18837	0.249433	2.02968	0.470723	3.87346	0.632093	5.1917	0.686284	5.65768			0.361702	2.9782	0.58081	4.78976	0.666115	5.49171		
0.267179	2.18652	0.250799	2.03035	0.471413	3.85906	0.635146	5.18981	0.688063	5.64293			0.362578	2.96995	0.58173	4.77245	0.668792	5.48519		
0.268339	2.18471	0.252166	2.03102	0.472105	3.84481	0.638186	5.18785	0.689825	5.62818			0.363458	2.96181	0.582632	4.75518	0.671486	5.47886		
0.269502	2.18294	0.253532	2.03167	0.472798	3.83073	0.641213	5.18579	0.691571	5.61346			0.364342	2.95379	0.583519	4.73796	0.674195	5.47272		
0.270666	2.1812	0.254898	2.03232	0.473492	3.8168	0.644224	5.18363	0.693302	5.59877			0.36523	2.94588	0.58439	4.72079	0.676918	5.46676		
0.271833	2.17949	0.256264	2.03295	0.474189	3.80302	0.647219	5.18136	0.69502	5.58412			0.366122	2.93809	0.585247	4.70369	0.679655	5.46097		
0.273002	2.17782	0.257629	2.03358	0.474886	3.7894	0.650195	5.17896	0.696726	5.56953			0.367017	2.9304	0.586091	4.68665	0.682404	5.45533		
0.274172	2.17618	0.258994	2.0342	0.475586	3.77592	0.653149	5.17642	0.698423	5.55501			0.367916	2.92282	0.586922	4.66968	0.685164	5.44985		
0.275345	2.17457	0.260359	2.03481	0.476287	3.7626	0.656081	5.17372	0.700112	5.54057			0.368819	2.91534	0.587742	4.65278	0.687935	5.4445		
0.27652	2.17299	0.261723	2.03541	0.476991	3.74942	0.658986	5.17084	0.701797	5.52625			0.369726	2.90797	0.588551	4.63598	0.690716	5.43928		
0.277697	2.17145	0.263087	2.03601	0.477696	3.73639	0.661863	5.16777	0.703481	5.51206			0.370636	2.9007	0.589349	4.61925	0.693505	5.43418		
0.278875	2.16993	0.264451	2.03659	0.478403	3.7235	0.664708	5.16448	0.705166	5.49802			0.37155	2.89353	0.590138	4.60262	0.696303	5.4292		
0.280056	2.16845	0.265814	2.03717	0.479112	3.71075	0.667518	5.16095	0.706857	5.48416			0.372468	2.88646	0.590919	4.58609	0.699108	5.42432		
0.281238	2.16699	0.267178	2.03774	0.479823	3.69815	0.670288	5.15715	0.708558	5.47051			0.373389	2.87949	0.591691	4.56965	0.701919	5.41954		
0.282422	2.16556	0.26854	2.0383	0.480537	3.68568	0.673015	5.15306	0.710272	5.4571			0.374314	2.87261	0.592455	4.55331	0.704737	5.41485		
0.283608	2.16416	0.269903	2.03886	0.481253	3.67335	0.675695	5.14864	0.712006	5.44397			0.375242	2.86583	0.593212	4.53708	0.70756	5.41025		
0.284796	2.16278	0.271265	2.03941	0.48197	3.66115	0.678321	5.14387	0.713764	5.43114			0.376174	2.85913	0.593963	4.52095	0.710388	5.40573		
0.285985	2.16144	0.272627	2.03995	0.482691	3.64909	0.680891	5.13871	0.715551	5.41866			0.37711	2.85253	0.594707	4.50493	0.713219	5.40128		
0.287177	2.16011	0.273989	2.04048	0.483413	3.63716	0.683399	5.13313	0.717373	5.40657			0.378049	2.84602	0.595446	4.48902	0.716054	5.3969		
0.288369	2.15882	0.275351	2.04101	0.484138	3.62537	0.685839	5.12711	0.719236	5.39489			0.378991	2.8396	0.596179	4.47322	0.718892	5.39258		
0.289564	2.15754	0.276712	2.04152	0.484865	3.6137	0.688209	5.12061	0.721145	5.38367			0.379937	2.83326	0.596907	4.45753	0.721731	5.38832		
0.29076	2.15629	0.278073	2.04204	0.485594	3.60215	0.690503	5.11361					0.380887	2.827	0.597631	4.44195				
0.291958	2.15507	0.279433	2.04254	0.486326	3.59074	0.692718	5.1061					0.381839	2.82084	0.59835	4.42649				
0.293157	2.15387	0.280794	2.04304	0.487061	3.57945	0.694852	5.09806					0.382796	2.81475	0.599066	4.41115				
0.294358	2.15269	0.282154	2.04353	0.487798	3.56828	0.696902	5.08949					0.383755	2.80874	0.599778	4.39592				
0.295561	2.15153	0.283514	2.04402	0.488537	3.55723	0.698869	5.08039					0.384718	2.80282	0.600487	4.38081				
0.296765	2.15039	0.284873	2.0445	0.489279	3.5463	0.700753	5.07077					0.385685	2.79697	0.601192	4.36581				
0.29797	2.14928	0.286232	2.04497	0.490023	3.53549	0.702555	5.06065					0.386654	2.7912	0.601895	4.35093				
0.299177	2.14818	0.287591	2.04544	0.49077	3.52479	0.704278	5.05005					0.387627	2.7855	0.602596	4.33617				
0.300385	2.14711	0.28895	2.0459	0.49152	3.51421	0.705924	5.03901					0.388603	2.77988	0.603294	4.32153				
0.301595	2.14605	0.290309	2.04635	0.492272	3.50375	0.707498	5.02755					0.389582	2.77434	0.60399	4.307				
0.302806	2.14502	0.291667	2.0468	0.493027	3.4934	0.709004	5.0157					0.390565	2.76886	0.604684	4.29259				
0.304019	2.144	0.293025	2.04725	0.493785	3.48315	0.710446	5.00352					0.391551	2.76346	0.605376	4.2783				
0.305233	2.14301	0.294382	2.04768	0.494545	3.47302	0.711828	4.99102					0.39254	2.75813	0.606067	4.26412				
0.306448	2.14203	0.29574	2.04811	0.495307	3.463	0.713155	4.97825					0.393532	2.75287	0.606757	4.25006				
0.307665	2.14107	0.297097	2.04854	0.496073	3.45308	0.714431	4.96523					0.394527	2.74767	0.607446	4.23612				
0.308883	2.14012	0.298454	2.04896	0.496841	3.44327	0.71566	4.95201					0.395525	2.74254	0.608133	4.22229				
0.310102	2.1392	0.299811	2.04938	0.497612	3.43356	0.716846	4.9386					0.396526	2.73748	0.60882	4.20858				
0.311322	2.13829	0.301167	2.04979	0.498385	3.42395	0.717992	4.92504					0.39753	2.73248	0.609506	4.19498				
0.312544	2.13739	0.302523	2.05019	0.499161	3.41445	0.719102	4.91135					0.398538	2.72755	0.610192	4.1815				
0.313767	2.13651	0.303879	2.05059	0.49994	3.40505	0.720179	4.89755					0.399548	2.72268	0.610877	4.16813				
0.314991	2.13565	0.305235	2.05099	0.500722	3.39574							0.400561	2.71787	0.611562	4.15488				
0.316216	2.13481	0.30659	2.05138	0.501506	3.38653							0.401578	2.71312	0.612247	4.14173				
0.317443	2.13397	0.307945	2.05176	0.502293	3.37743							0.402597	2.70843	0.612932	4.1287				
0.31867	2.13316	0.3093	2.05214	0.503083	3.36841							0.403619	2.70381	0.613617	4.11578				
0.319899	2.13236	0.310655	2.05252	0.503875	3.35949							0.404644	2.69924	0.614302	4.10297				
0.321129	2.13157	0.312009	2.05289	0.50467	3.35066							0.405672	2.69472	0.614987	4.09027				
0.32236	2.13079	0.313363	2.05325	0.505468	3.34193							0.406702	2.69027	0.615672	4.07767				
0.323592	2.13003	0.314717	2.05361	0.506269	3.33328							0.407736	2.68587	0.616358	4.06519				
0.324826	2.12929	0.316071	2.05397	0.507072	3.32473							0.408772	2.68152	0.617045	4.05281				
0.32606	2.12855	0.317424	2.05432	0.507878	3.31626							0.409811	2.67723	0.617732	4.04054				
0.327295	2.12783	0.318778	2.05467	0.508687	3.30788							0.410853	2.67299	0.61842	4.02837				
0.328531	2.12712	0.32013	2.05501	0.509498	3.29959							0.411897	2.66881	0.619108	4.01631				
0.329769	2.12643	0.321483	2.05535	0.510312	3.29138							0.412944	2.66467	0.619798	4.00435				
0.331007	2.12574	0.322836	2.05569	0.511129	3.28325							0.413994	2.66059	0.620488	3.9925				
0.332247	2.12507	0.324188	2.05602	0.511949	3.27521							0.415047	2.65655	0.621179	3.98075				
0.333487	2.12441	0.32554	2.05634	0.512771	3.26725							0.416102	2.65257	0.621871	3.9691				
0.334728	2.12376	0.326892	2.05667	0.513596	3.25938							0.41716	2.64863	0.622565	3.95755				
0.33597	2.12312	0.328243	2.05698	0.514424	3.25158							0.41822	2.64475	0.623259	3.94609				
0.337214	2.1225	0.329595	2.0573	0.515255	3.24386							0.419283	2.64091	0.623954	3.93474				
0.338458	2.12188	0.330946	2.05761	0.516088	3.23622							0.420349	2.63711	0.624651	3.92349				
0.339703	2.12127	0.332297	2.05792	0.516923	3.22865							0.421417	2.63336	0.625349	3.91233				
0.340948	2.12068	0.333647	2.05822	0.517762	3.22117							0.422487	2.62966	0.626048	3.90127				
0.342195	2.12009	0.334998	2.05852	0.518603	3.21376							0.42356	2.626	0.626749	3.8903				
0.343443	2.11952	0.336348	2.05881	0.519447	3.20642							0.424636	2.62239	0.627451	3.87943				
0.344691	2.11895	0.337698	2.0591	0.520293	3.19915							0.425714	2.61882	0.628155	3.86865				
0.345941	2.1184	0.339048	2.05939	0.521143	3.19196							0.426794	2.61529	0.62886	3.85797				
0.347191	2.11785	0.340397	2.05968	0.521994	3.18484							0.427877	2.6118	0.629566	3.84737				
0.348442	2.11731	0.341746	2.05996	0.522849	3.17779							0.428962	2.60836	0.630274	3.83687				
0.349694	2.11678	0.343096	2.06024	0.523706	3.17081							0.43005	2.60495	0.630984	3.82646				
0.350946	2.11626	0.344444	2.06051	0.524566	3.1639							0.43114	2.60159	0.631695	3.81613				
0.3522	2.11575	0.345793	2.06078	0.525428	3.15706							0.432232	2.59826	0.632407	3.8059				
0.353454	2.11525	0.347142	2.06105	0.526293	3.15029							0.433327	2.59498	0.633122	3.79575				
0.354709	2.11476	0.34849	2.06131	0.52716	3.14358							0.434424	2.59173	0.633838	3.78569				
0.355965	2.11427	0.349838	2.06158	0.52803	3.13694							0.435523	2.58852	0.634556	3.77571				
0.357221	2.11379	0.351186	2.06183	0.528903	3.13036							0.436625	2.58535	0.635275	3.76582				
0.358478	2.11332	0.352533	2.06209	0.529778	3.12385							0.437729	2.58222	0.635997	3.75602				
0.359736	2.11286	0.353881	2.06234	0.530656	3.1174							0.438835	2.57912	0.63672	3.74629				
0.360995	2.11241	0.355228	2.06259	0.531537	3.11101							0.439943	2.57606	0.637445	3.73665				
0.362254	2.11196	0.356575	2.06284	0.53242	3.10469							0.441053	2.57303	0.638171	3.7271				
0.363514	2.11152	0.357921	2.06308	0.533305	3.09842							0.442166	2.57004	0.6389	3.71762				
0.364775	2.11109	0.359268	2.06332	0.534193	3.09222							0.443281	2.56708	0.63963	3.70822				
0.366036	2.11066	0.360614	2.06355	0.535084	3.08608							0.444397	2.56416	0.640363	3.69891				
0.367298	2.11025	0.361961	2.06379	0.535977	3.07999							0.445516	2.56127	0.641097	3.68967				
0.368561	2.10983	0.363306	2.06402	0.536872	3.07397							0.446638	2.55841	0.641833	3.68051				
0.369825	2.10943	0.364652	2.06425	0.53777	3.068							0.447761	2.55559	0.642571	3.67142				
0.371089	2.10903	0.365998	2.06447	0.538671	3.06209							0.448886	2.55279	0.64331	3.66241				
0.372353	2.10864	0.367343	2.0647	0.539574	3.05623							0.450013	2.55003	0.644052	3.65348				
0.373619	2.10825	0.368688	2.06492	0.540479	3.05043							0.451143	2.5473	0.644796	3.64463				
0.374885	2.10787	0.370033	2.06513	0.541387	3.04469							0.452274	2.5446	0.645542	3.63584				
0.376151	2.1075	0.371378	2.06535	0.542298	3.039							0.453408	2.54194	0.64629	3.62714				
0.377418	2.10714	0.372722	2.06556	0.54321	3.03336							0.454543	2.5393	0.647039	3.6185				
0.378686	2.10677	0.374067	2.06577	0.544126	3.02778							0.45568	2.53669	0.647791	3.60993				
0.379954	2.10642	0.375411	2.06598	0.545043	3.02225							0.45682	2.53411	0.648545	3.60144				
0.381223	2.10607	0.376755	2.06618	0.545963	3.01677							0.457961	2.53156	0.6493	3.59302				
0.382493	2.10572	0.378099	2.06639	0.546886	3.01135							0.459104	2.52904	0.650058	3.58467				
0.383763	2.10539	0.379442	2.06658	0.54781	3.00597							0.460249	2.52654	0.650818	3.57638				
0.385034	2.10505	0.380786	2.06678	0.548738	3.00064							0.461396	2.52407	0.65158	3.56817				
0.386305	2.10473	0.382129	2.06698	0.549667	2.99537							0.462545	2.52163	0.652343	3.56002				
0.387576	2.1044	0.383472	2.06717	0.550599	2.99014							0.463696	2.51922	0.653109	3.55194				
0.388849	2.10408	0.384815	2.06736	0.551533	2.98496							0.464848	2.51684	0.653877	3.54393				
0.390121	2.10377	0.386157	2.06755	0.55247	2.97983							0.466003	2.51448	0.654647	3.53598				
0.391395	2.10346	0.3875	2.06773	0.553408	2.97475							0.467159	2.51214	0.655419	3.5281				
0.392669	2.10316	0.388842	2.06792	0.55435	2.96971							0.468317	2.50983	0.656193	3.52028				
0.393943	2.10286	0.390184	2.0681	0.555293	2.96472							0.469477	2.50755	0.656969	3.51252				
0.395218	2.10257	0.391526	2.06828	0.556239	2.95977							0.470639	2.50529	0.657747	3.50483				
0.396493	2.10228	0.392868	2.06846	0.557187	2.95487							0.471802	2.50306	0.658528	3.49721				
0.397769	2.102	0.394209	2.06863	0.558137	2.95002							0.472967	2.50085	0.65931	3.48964				
0.399045	2.10172	0.395551	2.0688	0.559089	2.94521							0.474134	2.49866	0.660094	3.48213				
0.400322	2.10144	0.396892	2.06897	0.560044	2.94044							0.475302	2.4965	0.660881	3.47469				
0.401599	2.10117	0.398233	2.06914	0.561001	2.93571							0.476473	2.49436	0.661669	3.46731				
0.402877	2.1009	0.399574	2.06931	0.56196	2.93103							0.477645	2.49224	0.66246	3.45998				
0.404155	2.10064	0.400914	2.06947	0.562921	2.92639							0.478818	2.49015	0.663253	3.45272				
0.405434	2.10038	0.402255	2.06964	0.563885	2.9218							0.479994	2.48808	0.664048	3.44551				
0.406713	2.10013	0.403595	2.0698	0.564851	2.91724							0.481171	2.48603	0.664844	3.43836				
0.407992	2.09988	0.404935	2.06996	0.565819	2.91272							0.482349	2.484	0.665643	3.43127				
0.409272	2.09963	0.406275	2.07011	0.566789	2.90825							0.48353	2.482	0.666444	3.42424				
0.410553	2.09939	0.407615	2.07027	0.567761	2.90381							0.484711	2.48001	0.667248	3.41726				
0.411834	2.09915	0.408954	2.07042	0.568735	2.89942							0.485895	2.47805	0.668053	3.41034				
0.413115	2.09891	0.410294	2.07057	0.569712	2.89506							0.48708	2.4761	0.66886	3.40347				
0.414397	2.09868	0.411633	2.07072	0.57069	2.89074							0.488267	2.47418	0.669669	3.39666				
0.415679	2.09845	0.412972	2.07087	0.571671	2.88647							0.489455	2.47228	0.670481	3.3899				
0.416961	2.09823	0.414311	2.07101	0.572654	2.88222							0.490644	2.4704	0.671294	3.38319				
0.418244	2.09801	0.41565	2.07116	0.573639	2.87802							0.491836	2.46853	0.67211	3.37654				
0.419527	2.09779	0.416988	2.0713	0.574625	2.87385							0.493028	2.46669	0.672927	3.36994				
0.420811	2.09757	0.418327	2.07144	0.575614	2.86972							0.494223	2.46487	0.673747	3.36339				
0.422095	2.09736	0.419665	2.07158	0.576606	2.86563							0.495419	2.46306	0.674569	3.35689				
0.42338	2.09715	0.421003	2.07172	0.577599	2.86157							0.496616	2.46127	0.675393	3.35045				
0.424664	2.09695	0.422341	2.07185	0.578594	2.85754							0.497815	2.45951	0.676218	3.34405				
0.42595	2.09675	0.423679	2.07199	0.579591	2.85356							0.499015	2.45776	0.677046	3.33771				
0.427235	2.09655	0.425017	2.07212	0.58059	2.8496							0.500217	2.45602	0.677876	3.33141				
0.428521	2.09635	0.426354	2.07225	0.581591	2.84568							0.50142	2.45431	0.678708	3.32517				
0.429807	2.09616	0.427691	2.07238	0.582594	2.8418							0.502624	2.45261	0.679542	3.31897				
0.431094	2.09597	0.429028	2.07251	0.583599	2.83794							0.50383	2.45093	0.680378	3.31282				
0.432381	2.09578	0.430365	2.07263	0.584607	2.83412							0.505038	2.44927	0.681217	3.30672				
0.433668	2.0956	0.431702	2.07276	0.585616	2.83034							0.506246	2.44763	0.682057	3.30066				
0.434956	2.09542	0.433039	2.07288	0.586627	2.82658							0.507457	2.446	0.682899	3.29466				
0.436244	2.09524	0.434375	2.073	0.587639	2.82286							0.508668	2.44439	0.683743	3.28869				
0.437532	2.09506	0.435712	2.07312	0.588654	2.81917							0.509881	2.44279	0.684589	3.28278				
0.438821	2.09489	0.437048	2.07324	0.589671	2.81551							0.511095	2.44121	0.685438	3.27691				
0.44011	2.09472	0.438384	2.07336	0.59069	2.81189							0.512311	2.43965	0.686288	3.27108				
0.441399	2.09455	0.43972	2.07348	0.59171	2.80829							0.513528	2.4381	0.68714	3.2653				
0.442689	2.09438	0.441056	2.07359	0.592733	2.80472							0.514746	2.43657	0.687994	3.25956				
0.443979	2.09422	0.442391	2.07371	0.593757	2.80119							0.515966	2.43505	0.688851	3.25387				
0.445269	2.09406	0.443727	2.07382	0.594783	2.79768							0.517187	2.43355	0.689709	3.24822				
0.44656	2.0939	0.445062	2.07393	0.595811	2.7942							0.518409	2.43206	0.690569	3.24261				
0.447851	2.09374	0.446397	2.07404	0.596841	2.79076							0.519632	2.43059	0.691431	3.23705				
0.449142	2.09359	0.447732	2.07414	0.597873	2.78734							0.520857	2.42913	0.692296	3.23153				
0.450433	2.09344	0.449067	2.07425	0.598906	2.78395							0.522083	2.42769	0.693162	3.22605				
0.451725	2.09329	0.450402	2.07436	0.599942	2.78059							0.52331	2.42626	0.69403	3.22061				
0.453017	2.09314	0.451737	2.07446	0.600979	2.77725							0.524539	2.42485	0.6949	3.21521				
0.45431	2.093	0.453071	2.07456	0.602018	2.77395							0.525768	2.42345	0.695772	3.20985				
0.455602	2.09285	0.454405	2.07466	0.603059	2.77067							0.526999	2.42206	0.696646	3.20453				
0.456895	2.09271	0.45574	2.07477	0.604101	2.76741							0.528231	2.42068	0.697522	3.19925				
0.458188	2.09257	0.457074	2.07486	0.605145	2.76419							0.529465	2.41932	0.6984	3.19402				
0.459482	2.09244	0.458407	2.07496	0.606191	2.76099							0.530699	2.41798	0.69928	3.18882				
0.460775	2.0923	0.459741	2.07506	0.607239	2.75782							0.531935	2.41664	0.700162	3.18365				
0.462069	2.09217	0.461075	2.07515	0.608289	2.75467							0.533172	2.41532	0.701045	3.17853				
0.463364	2.09204	0.462408	2.07525	0.60934	2.75155							0.53441	2.41402	0.701931	3.17345				
0.464658	2.09191	0.463742	2.07534	0.610393	2.74846							0.535649	2.41272	0.702819	3.1684				
0.465953	2.09178	0.465075	2.07543	0.611448	2.74539							0.536889	2.41144	0.703708	3.16339				
0.467248	2.09166	0.466408	2.07553	0.612504	2.74234							0.538131	2.41017	0.704599	3.15842				
0.468543	2.09154	0.467741	2.07562	0.613562	2.73932							0.539374	2.40891	0.705493	3.15348				
0.469839	2.09141	0.469074	2.0757	0.614622	2.73633							0.540617	2.40766	0.706388	3.14858				
0.471135	2.09129	0.470406	2.07579	0.615683	2.73336							0.541862	2.40643	0.707285	3.14372				
0.472431	2.09118	0.471739	2.07588	0.616746	2.73041							0.543108	2.40521	0.708184	3.13889				
0.473727	2.09106	0.473071	2.07596	0.617811	2.72749							0.544355	2.404	0.709084	3.1341				
0.475023	2.09095	0.474404	2.07605	0.618877	2.72459							0.545603	2.4028	0.709987	3.12934				
0.47632	2.09083	0.475736	2.07613	0.619945	2.72171							0.546853	2.40161	0.710891	3.12461				
0.477617	2.09072	0.477068	2.07622	0.621015	2.71886							0.548103	2.40043	0.711798	3.11992				
0.478914	2.09061	0.4784	2.0763	0.622086	2.71603							0.549354	2.39927	0.712706	3.11527				
0.480212	2.0905	0.479732	2.07638	0.623159	2.71322							0.550607	2.39811	0.713616	3.11065				
0.481509	2.0904	0.481063	2.07646	0.624233	2.71043							0.55186	2.39697	0.714528	3.10606				
0.482807	2.09029	0.482395	2.07654	0.625309	2.70767							0.553115	2.39584	0.715442	3.1015				
0.484105	2.09019	0.483726	2.07661	0.626387	2.70493							0.55437	2.39472	0.716357	3.09698				
0.485403	2.09009	0.485058	2.07669	0.627466	2.70221							0.555627	2.3936	0.717274	3.09249				
0.486702	2.08999	0.486389	2.07677	0.628547	2.69951							0.556884	2.3925	0.718193	3.08803				
0.488001	2.08989	0.48772	2.07684	0.629629	2.69683							0.558143	2.39141	0.719114	3.08361				
0.489299	2.08979	0.489051	2.07692	0.630713	2.69418							0.559402	2.39033	0.720037	3.07921				
0.490599	2.08969	0.490382	2.07699	0.631798	2.69154							0.560663	2.38926						
0.491898	2.0896	0.491712	2.07706	0.632885	2.68893							0.561924	2.3882						
0.493197	2.08951	0.493043	2.07713	0.633973	2.68633							0.563187	2.38715						
0.494497	2.08941	0.494373	2.0772	0.635063	2.68376							0.56445	2.38611						
0.495797	2.08932	0.495704	2.07727	0.636155	2.68121							0.565715	2.38508						
0.497097	2.08923	0.497034	2.07734	0.637248	2.67867							0.56698	2.38406						
0.498397	2.08914	0.498364	2.07741	0.638342	2.67616							0.568247	2.38304						
0.499698	2.08906	0.499694	2.07748	0.639438	2.67366							0.569514	2.38204						
0.500998	2.08897	0.501024	2.07754	0.640535	2.67119							0.570782	2.38105						
0.502299	2.08889	0.502354	2.07761	0.641634	2.66873							0.572051	2.38006						
0.5036	2.0888	0.503683	2.07767	0.642734	2.66629							0.573321	2.37908						
0.504902	2.08872	0.505013	2.07774	0.643836	2.66387							0.574592	2.37812						
0.506203	2.08864	0.506342	2.0778	0.644939	2.66147							0.575864	2.37716						
0.507505	2.08856	0.507672	2.07786	0.646044	2.65909							0.577137	2.37621						
0.508806	2.08848	0.509001	2.07792	0.64715	2.65673							0.578411	2.37527						
0.510108	2.0884	0.51033	2.07798	0.648257	2.65438							0.579685	2.37433						
0.51141	2.08833	0.511659	2.07804	0.649366	2.65205							0.580961	2.37341						
0.512713	2.08825	0.512988	2.0781	0.650476	2.64974							0.582237	2.37249						
0.514015	2.08818	0.514317	2.07816	0.651587	2.64745							0.583514	2.37159						
0.515318	2.08811	0.515646	2.07822	0.6527	2.64518							0.584792	2.37069						
0.51662	2.08803	0.516974	2.07828	0.653815	2.64292							0.586071	2.3698						
0.517923	2.08796	0.518303	2.07833	0.65493	2.64068							0.587351	2.36891						
0.519226	2.08789	0.519631	2.07839	0.656048	2.63845							0.588631	2.36804						
0.52053	2.08782	0.52096	2.07845	0.657166	2.63624							0.589913	2.36717						
0.521833	2.08775	0.522288	2.0785	0.658286	2.63405							0.591195	2.36631						
0.523137	2.08769	0.523616	2.07855	0.659407	2.63188							0.592478	2.36546						
0.52444	2.08762	0.524944	2.07861	0.660529	2.62972							0.593762	2.36461						
0.525744	2.08755	0.526272	2.07866	0.661653	2.62758							0.595046	2.36377						
0.527048	2.08749	0.5276	2.07871	0.662778	2.62545							0.596332	2.36294						
0.528352	2.08743	0.528928	2.07876	0.663904	2.62334							0.597618	2.36212						
0.529656	2.08736	0.530255	2.07881	0.665032	2.62125							0.598905	2.3613						
0.530961	2.0873	0.531583	2.07886	0.666161	2.61917							0.600193	2.3605						
0.532266	2.08724	0.53291	2.07891	0.667291	2.6171							0.601481	2.35969						
0.53357	2.08718	0.534238	2.07896	0.668423	2.61505							0.602771	2.3589						
0.534875	2.08712	0.535565	2.07901	0.669555	2.61302							0.604061	2.35811						
0.53618	2.08706	0.536892	2.07906	0.67069	2.611							0.605352	2.35733						
0.537485	2.08701	0.538219	2.0791	0.671825	2.609							0.606643	2.35656						
0.53879	2.08695	0.539546	2.07915	0.672961	2.60701							0.607936	2.35579						
0.540096	2.08689	0.540873	2.0792	0.674099	2.60503							0.609229	2.35503						
0.541401	2.08684	0.5422	2.07924	0.675238	2.60307							0.610523	2.35427						
0.542707	2.08678	0.543526	2.07929	0.676379	2.60113							0.611817	2.35353						
0.544013	2.08673	0.544853	2.07933	0.67752	2.59919							0.613113	2.35279						
0.545319	2.08668	0.54618	2.07937	0.678663	2.59728							0.614409	2.35205						
0.546625	2.08662	0.547506	2.07942	0.679807	2.59537							0.615706	2.35132						
0.547931	2.08657	0.548832	2.07946	0.680952	2.59348							0.617003	2.3506						
0.549237	2.08652	0.550159	2.0795	0.682098	2.59161							0.618301	2.34988						
0.550544	2.08647	0.551485	2.07954	0.683245	2.58974							0.6196	2.34917						
0.55185	2.08642	0.552811	2.07959	0.684394	2.58789							0.6209	2.34847						
0.553157	2.08637	0.554137	2.07963	0.685544	2.58606							0.6222	2.34777						
0.554464	2.08633	0.555463	2.07967	0.686695	2.58423							0.623501	2.34708						
0.55577	2.08628	0.556789	2.07971	0.687847	2.58242							0.624803	2.34639						
0.557077	2.08623	0.558115	2.07974	0.689001	2.58062							0.626105	2.34571						
0.558385	2.08619	0.55944	2.07978	0.690155	2.57884							0.627408	2.34504						
0.559692	2.08614	0.560766	2.07982	0.691311	2.57707							0.628712	2.34437						
0.560999	2.08609	0.562092	2.07986	0.692467	2.57531							0.630016	2.3437						
0.562307	2.08605	0.563417	2.0799	0.693625	2.57356							0.631321	2.34305						
0.563614	2.08601	0.564743	2.07993	0.694784	2.57183							0.632626	2.34239						
0.564922	2.08596	0.566068	2.07997	0.695945	2.5701							0.633933	2.34175						
0.56623	2.08592	0.567393	2.08	0.697106	2.56839							0.63524	2.3411						
0.567537	2.08588	0.568718	2.08004	0.698268	2.5667							0.636547	2.34047						
0.568845	2.08584	0.570043	2.08007	0.699432	2.56501							0.637855	2.33984						
0.570153	2.0858	0.571368	2.08011	0.700596	2.56333							0.639164	2.33921						
0.571462	2.08576	0.572693	2.08014	0.701762	2.56167							0.640473	2.33859						
0.57277	2.08572	0.574018	2.08018	0.702929	2.56002							0.641784	2.33797						
0.574078	2.08568	0.575343	2.08021	0.704096	2.55838							0.643094	2.33736						
0.575387	2.08564	0.576668	2.08024	0.705265	2.55675							0.644405	2.33676						
0.576695	2.0856	0.577992	2.08027	0.706435	2.55513							0.645717	2.33616						
0.578004	2.08556	0.579317	2.08031	0.707606	2.55353							0.64703	2.33556						
0.579313	2.08553	0.580642	2.08034	0.708778	2.55193							0.648343	2.33497						
0.580622	2.08549	0.581966	2.08037	0.709951	2.55035							0.649656	2.33438						
0.581931	2.08546	0.58329	2.0804	0.711126	2.54878							0.650971	2.3338						
0.58324	2.08542	0.584615	2.08043	0.712301	2.54722							0.652286	2.33323						
0.584549	2.08539	0.585939	2.08046	0.713477	2.54566							0.653601	2.33265						
0.585858	2.08535	0.587263	2.08049	0.714654	2.54412							0.654917	2.33209						
0.587167	2.08532	0.588587	2.08052	0.715833	2.54259							0.656233	2.33152						
0.588477	2.08528	0.589911	2.08055	0.717012	2.54107							0.657551	2.33097						
0.589786	2.08525	0.591235	2.08058	0.718192	2.53956							0.658868	2.33041						
0.591096	2.08522	0.592559	2.08061	0.719373	2.53807							0.660187	2.32986						
0.592405	2.08519	0.593883	2.08063	0.720556	2.53658							0.661505	2.32932						
0.593715	2.08515	0.595207	2.08066									0.662825	2.32878						
0.595025	2.08512	0.59653	2.08069									0.664145	2.32824						
0.596335	2.08509	0.597854	2.08071									0.665465	2.32771						
0.597645	2.08506	0.599178	2.08074									0.666786	2.32718						
0.598955	2.08503	0.600501	2.08077									0.668107	2.32666						
0.600265	2.085	0.601825	2.08079									0.669429	2.32614						
0.601575	2.08497	0.603148	2.08082									0.670752	2.32562						
0.602886	2.08494	0.604471	2.08084									0.672075	2.32511						
0.604196	2.08491	0.605795	2.08087									0.673399	2.3246						
0.605506	2.08489	0.607118	2.08089									0.674723	2.3241						
0.606817	2.08486	0.608441	2.08092									0.676047	2.3236						
0.608128	2.08483	0.609764	2.08094									0.677373	2.32311						
0.609438	2.0848	0.611087	2.08097									0.678698	2.32262						
0.610749	2.08478	0.61241	2.08099									0.680024	2.32213						
0.61206	2.08475	0.613733	2.08101									0.681351	2.32164						
0.613371	2.08473	0.615056	2.08103									0.682678	2.32116						
0.614682	2.0847	0.616379	2.08106									0.684006	2.32069						
0.615993	2.08467	0.617702	2.08108									0.685334	2.32021						
0.617304	2.08465	0.619024	2.0811									0.686663	2.31975						
0.618615	2.08463	0.620347	2.08112									0.687992	2.31928						
0.619926	2.0846	0.62167	2.08114									0.689321	2.31882						
0.621238	2.08458	0.622992	2.08117									0.690651	2.31836						
0.622549	2.08455	0.624315	2.08119									0.691982	2.31791						
0.62386	2.08453	0.625637	2.08121									0.693313	2.31745						
0.625172	2.08451	0.626959	2.08123									0.694644	2.31701						
0.626483	2.08449	0.628282	2.08125									0.695976	2.31656						
0.627795	2.08446	0.629604	2.08127									0.697308	2.31612						
0.629107	2.08444	0.630926	2.08129									0.698641	2.31568						
0.630419	2.08442	0.632249	2.08131									0.699974	2.31525						
0.63173	2.0844	0.633571	2.08132									0.701308	2.31482						
0.633042	2.08438	0.634893	2.08134									0.702642	2.31439						
0.634354	2.08436	0.636215	2.08136									0.703977	2.31397						
0.635666	2.08434	0.637537	2.08138									0.705312	2.31354						
0.636978	2.08431	0.638859	2.0814									0.706647	2.31313						
0.63829	2.0843	0.640181	2.08142									0.707983	2.31271						
0.639603	2.08428	0.641503	2.08143									0.70932	2.3123						
0.640915	2.08426	0.642824	2.08145									0.710656	2.31189						
0.642227	2.08424	0.644146	2.08147									0.711994	2.31149						
0.643539	2.08422	0.645468	2.08149									0.713331	2.31108						
0.644852	2.0842	0.646789	2.0815									0.714669	2.31068						
0.646164	2.08418	0.648111	2.08152									0.716008	2.31029						
0.647477	2.08416	0.649433	2.08154									0.717347	2.30989						
0.648789	2.08414	0.650754	2.08155									0.718686	2.3095						
0.650102	2.08413	0.652076	2.08157									0.720026	2.30911						
0.651415	2.08411	0.653397	2.08158																
0.652727	2.08409	0.654719	2.0816																
0.65404	2.08407	0.65604	2.08162																
0.655353	2.08406	0.657361	2.08163																
0.656666	2.08404	0.658683	2.08165																
0.657979	2.08403	0.660004	2.08166																
0.659291	2.08401	0.661325	2.08167																
0.660604	2.08399	0.662646	2.08169																
0.661918	2.08398	0.663967	2.0817																
0.663231	2.08396	0.665288	2.08172																
0.664544	2.08395	0.666609	2.08173																
0.665857	2.08393	0.66793	2.08175																
0.66717	2.08392	0.669251	2.08176																
0.668483	2.0839	0.670572	2.08177																
0.669797	2.08389	0.671893	2.08179																
0.67111	2.08387	0.673214	2.0818																
0.672424	2.08386	0.674535	2.08181																
0.673737	2.08385	0.675856	2.08182																
0.675051	2.08383	0.677176	2.08184																
0.676364	2.08382	0.678497	2.08185																
0.677678	2.0838	0.679818	2.08186																
0.678991	2.08379	0.681138	2.08187																
0.680305	2.08378	0.682459	2.08188																
0.681619	2.08377	0.68378	2.0819																
0.682932	2.08375	0.6851	2.08191																
0.684246	2.08374	0.686421	2.08192																
0.68556	2.08373	0.687741	2.08193																
0.686874	2.08372	0.689062	2.08194																
0.688188	2.0837	0.690382	2.08195																
0.689502	2.08369	0.691702	2.08196																
0.690816	2.08368	0.693023	2.08198																
0.69213	2.08367	0.694343	2.08199																
0.693444	2.08366	0.695663	2.082																
0.694758	2.08365	0.696983	2.08201																
0.696072	2.08364	0.698304	2.08202																
0.697386	2.08362	0.699624	2.08203																
0.6987	2.08361	0.700944	2.08204																
0.700014	2.0836	0.702264	2.08205																
0.701329	2.08359	0.703584	2.08206																
0.702643	2.08358	0.704904	2.08207																
0.703957	2.08357	0.706224	2.08208																
0.705272	2.08356	0.707544	2.08208																
0.706586	2.08355	0.708864	2.08209																
0.7079	2.08354	0.710184	2.0821																
0.709215	2.08353	0.711504	2.08211																
0.710529	2.08352	0.712824	2.08212																
0.711844	2.08351	0.714144	2.08213																
0.713158	2.0835	0.715464	2.08214																
0.714473	2.08349	0.716783	2.08215																
0.715788	2.08349	0.718103	2.08216																
0.717102	2.08348	0.719423	2.08216																
0.718417	2.08347	0.720743	2.08217																
0.719732	2.08346																		
0.721046	2.08345																		
