Sym0		Asym0		Sym1		Sym2		Sym3		Sym4		Asym1		Asym2		Asym3		Asym4	
563  Points		563  Points		470  Points		283  Points		244  Points		185  Points		504  Points		406  Points		242  Points		175  Points	
Freq (MHz)	Vph (m/ms)	Freq (MHz)	Vph (m/ms)	Freq (MHz)	Vph (m/ms)	Freq (MHz)	Vph (m/ms)	Freq (MHz)	Vph (m/ms)	Freq (MHz)	Vph (m/ms)	Freq (MHz)	Vph (m/ms)	Freq (MHz)	Vph (m/ms)	Freq (MHz)	Vph (m/ms)	Freq (MHz)	Vph (m/ms)
0.00232711	4.47283	2.36793e-005	0.0392132	0.171449	316.126	0.279509	5546.05	0.514353	1691.83	0.559017	17798.1	0.139768	334.076	0.342903	2924.73	0.419263	80059.1	0.685807	18986.4
0.00515583	4.4727	9.90881e-005	0.0801479	0.171439	145.93	0.27953	409.355	0.514332	549.22	0.559037	842.096	0.139843	133.079	0.342896	457.378	0.419279	657.493	0.685761	1025.7
0.00798424	4.47249	0.000226203	0.121044	0.171422	94.852	0.279587	212.564	0.514289	327.796	0.559094	431.293	0.139981	83.1598	0.342877	248.075	0.419325	330.139	0.685634	526.993
0.0108121	4.47218	0.000404542	0.161737	0.171397	70.2531	0.279681	143.591	0.514226	233.591	0.559188	289.919	0.140184	60.5352	0.342848	170.181	0.419403	220.437	0.685432	354.506
0.0136393	4.47177	0.000633684	0.202217	0.171366	55.7801	0.279812	108.445	0.514141	181.429	0.559317	218.378	0.140449	47.6391	0.342808	129.505	0.419512	165.484	0.685162	267.022
0.0164656	4.47124	0.000913006	0.242425	0.171327	46.2469	0.279978	87.148	0.514036	148.295	0.559483	175.184	0.140777	39.3162	0.342757	104.514	0.419652	132.486	0.684833	214.117
0.0192908	4.47062	0.0012417	0.282295	0.171283	39.4927	0.280181	72.8663	0.513912	125.382	0.559684	146.279	0.141167	33.5067	0.342696	87.6018	0.419822	110.48	0.684453	178.668
0.0221147	4.4699	0.00161892	0.321786	0.171232	34.4563	0.280419	62.6272	0.513768	108.591	0.559919	125.582	0.141618	29.2264	0.342625	75.3945	0.420022	94.7612	0.684031	153.256
0.024937	4.46906	0.00204373	0.360859	0.171175	30.5562	0.280692	54.9295	0.513606	95.7565	0.560189	110.034	0.142129	25.9453	0.342544	66.168	0.420252	82.9738	0.683575	134.146
0.0277576	4.46812	0.00251501	0.399464	0.171113	27.4465	0.281001	48.9336	0.513426	85.6264	0.560491	97.9279	0.142699	23.3531	0.342454	58.9488	0.420513	73.8086	0.683091	119.25
0.0305763	4.46707	0.00303164	0.437566	0.171047	24.9089	0.281344	44.1327	0.51323	77.4269	0.560826	88.2362	0.143326	21.2557	0.342354	53.1457	0.420802	66.4796	0.682585	107.313
0.0333928	4.46589	0.00359235	0.475123	0.170976	22.7987	0.281722	40.2034	0.513018	70.6536	0.561192	80.3031	0.144009	19.5257	0.342246	48.3791	0.42112	60.4863	0.682062	97.5331
0.0362068	4.4646	0.00419589	0.512111	0.170901	21.0164	0.282133	36.9291	0.512792	64.9639	0.561588	73.6908	0.144748	18.0758	0.34213	44.3937	0.421467	55.4949	0.681525	89.3734
0.0390181	4.46319	0.00484091	0.548496	0.170824	19.4909	0.282578	34.1595	0.512552	60.1167	0.562014	68.0955	0.14554	16.8443	0.342005	41.0119	0.421842	51.2744	0.680978	82.4624
0.0418264	4.46165	0.00552605	0.584258	0.170744	18.1705	0.283056	31.787	0.512299	55.9376	0.562469	63.2998	0.146384	15.7864	0.341874	38.1061	0.422245	47.6595	0.680423	76.5337
0.0446314	4.45997	0.00624986	0.619368	0.170662	17.0165	0.283567	29.7326	0.512034	52.2972	0.562951	59.1444	0.147278	14.8688	0.341736	35.5824	0.422675	44.5293	0.679862	71.392
0.0474327	4.45814	0.00701092	0.653811	0.170579	15.9994	0.284109	27.9368	0.511759	49.0975	0.563459	55.5094	0.148221	14.0659	0.341591	33.3698	0.423131	41.7927	0.679298	66.8903
0.0502301	4.45617	0.00780783	0.687575	0.170497	15.0961	0.284683	26.3543	0.511474	46.2631	0.563993	52.3032	0.149212	13.3582	0.341441	31.4142	0.423614	39.3804	0.678732	62.9162
0.053023	4.45404	0.00863912	0.720644	0.170415	14.2887	0.285287	24.9495	0.51118	43.7346	0.564551	49.4543	0.150249	12.7302	0.341286	29.6733	0.424122	37.2382	0.678165	59.3823
0.0558112	4.45175	0.00950334	0.753007	0.170335	13.5628	0.285922	23.6944	0.510878	41.4651	0.565133	46.9065	0.151329	12.1696	0.341126	28.1135	0.424655	35.3235	0.677598	56.2193
0.0585942	4.44927	0.0103991	0.784664	0.170258	12.9067	0.286586	22.5667	0.51057	39.4167	0.565738	44.6147	0.152453	11.6666	0.340962	26.7079	0.425213	33.6021	0.677033	53.3717
0.0613715	4.44662	0.0113251	0.815611	0.170184	12.3108	0.28728	21.5482	0.510256	37.5586	0.566364	42.5422	0.153617	11.213	0.340795	25.4348	0.425794	32.0464	0.676469	50.7948
0.0641426	4.44376	0.0122798	0.845838	0.170115	11.7674	0.288001	20.6239	0.509936	35.8654	0.567011	40.6592	0.154821	10.8022	0.340626	24.2762	0.426399	30.6338	0.675908	48.4517
0.0669069	4.4407	0.0132619	0.875356	0.170051	11.27	0.288751	19.7817	0.509613	34.3162	0.567678	38.941	0.156062	10.4286	0.340454	23.2174	0.427027	29.3455	0.675351	46.3121
0.0696637	4.4374	0.0142702	0.904165	0.169995	10.813	0.289528	19.0112	0.509286	32.8933	0.568364	37.3669	0.15734	10.0877	0.340281	22.2461	0.427677	28.166	0.674797	44.3506
0.0724124	4.43387	0.0153033	0.932262	0.169946	10.3919	0.290331	18.3038	0.508957	31.582	0.569068	35.9197	0.158653	9.77545	0.340107	21.3519	0.428349	27.0822	0.674248	42.546
0.0751523	4.43007	0.0163601	0.959664	0.169907	10.0027	0.29116	17.6522	0.508626	30.3696	0.56979	34.5846	0.159999	9.48864	0.339932	20.526	0.429042	26.083	0.673704	40.8802
0.0778824	4.426	0.0174393	0.986374	0.169879	9.64202	0.292014	17.0502	0.508293	29.2453	0.570529	33.3492	0.161378	9.22439	0.339759	19.7608	0.429755	25.159	0.673164	39.3378
0.0806018	4.42162	0.0185396	1.0124	0.169863	9.30702	0.292893	16.4925	0.507961	28.2	0.571284	32.2029	0.162786	8.98027	0.339586	19.05	0.430488	24.3022	0.67263	37.9056
0.0833096	4.41692	0.0196603	1.03775	0.169861	8.99519	0.293796	15.9744	0.507628	27.2256	0.572055	31.1363	0.164224	8.75416	0.339414	18.388	0.431241	23.5054	0.672102	36.5724
0.0860046	4.41186	0.0208	1.06244	0.169875	8.70437	0.294722	15.492	0.507297	26.3152	0.572841	30.1415	0.16569	8.54424	0.339245	17.77	0.432013	22.7628	0.67158	35.3281
0.0886855	4.40643	0.0219577	1.08648	0.169905	8.43266	0.29567	15.0418	0.506967	25.4627	0.573641	29.2115	0.167183	8.3489	0.339079	17.1917	0.432803	22.069	0.671064	34.1643
0.0913508	4.40057	0.0231325	1.10988	0.169955	8.1784	0.296641	14.6208	0.506639	24.6628	0.574455	28.3402	0.1687	8.16675	0.338916	16.6496	0.433611	21.4194	0.670555	33.0735
0.0939991	4.39427	0.0243235	1.13265	0.170026	7.94016	0.297633	14.2262	0.506313	23.9108	0.575282	27.5222	0.170242	7.99655	0.338758	16.1403	0.434436	20.81	0.670052	32.049
0.0966285	4.38747	0.0255298	1.15481	0.17012	7.71665	0.298646	13.8558	0.505991	23.2026	0.576122	26.7529	0.171806	7.83721	0.338604	15.6611	0.435278	20.2373	0.669557	31.0849
0.0992371	4.38013	0.0267504	1.17637	0.17024	7.50675	0.299679	13.5074	0.505673	22.5345	0.576974	26.0281	0.173392	7.68776	0.338455	15.2093	0.436136	19.698	0.669068	30.1762
0.101823	4.3722	0.0279846	1.19734	0.170368	7.33415	0.300732	13.1791	0.505359	21.9032	0.577838	25.344	0.174999	7.54735	0.338312	14.7827	0.437011	19.1893	0.668587	29.3182
0.104383	4.36362	0.0292316	1.21774	0.170496	7.19414	0.301803	12.8694	0.505049	21.3057	0.578713	24.6973	0.176625	7.41521	0.338176	14.3794	0.437901	18.7088	0.668113	28.5068
0.106914	4.35433	0.0304907	1.23759	0.170615	7.08306	0.302893	12.5767	0.504745	20.7395	0.579599	24.085	0.178269	7.29065	0.338046	13.9975	0.438805	18.2542	0.667647	27.7384
0.109415	4.34427	0.0317612	1.25689	0.170719	6.99811	0.304001	12.2997	0.504446	20.2023	0.580495	23.5045	0.179715	7.1878	0.337924	13.6353	0.439724	17.8235	0.667189	27.0096
0.111881	4.33336	0.0330423	1.27566	0.170801	6.93724	0.305126	12.0372	0.504153	19.6918	0.581402	22.9534	0.180958	7.10403	0.337811	13.2915	0.440657	17.4149	0.666739	26.3176
0.114308	4.32151	0.0343335	1.29392	0.170855	6.89896	0.306268	11.7881	0.503867	19.2061	0.582319	22.4296	0.181993	7.0373	0.337706	12.9648	0.441604	17.0267	0.666296	25.6596
0.116693	4.30865	0.0356341	1.31167	0.170938	6.84486	0.307426	11.5515	0.503587	18.7436	0.583244	21.931	0.182815	6.9861	0.337611	12.6539	0.442564	16.6576	0.665863	25.0331
0.119031	4.29468	0.0369436	1.32893	0.171033	6.78726	0.308599	11.3264	0.503315	18.3026	0.584179	21.4559	0.183421	6.94929	0.337525	12.3578	0.443537	16.306	0.665437	24.4361
0.121317	4.2795	0.0382615	1.34572	0.17117	6.7109	0.309787	11.1121	0.50305	17.8817	0.585123	21.0027	0.18381	6.9261	0.33745	12.0754	0.444522	15.9709	0.66502	23.8665
0.123546	4.26302	0.0395872	1.36205	0.171359	6.6175	0.31099	10.9078	0.502793	17.4796	0.586075	20.5699	0.184371	6.89325	0.337387	11.8059	0.445519	15.6511	0.664612	23.3225
0.125712	4.24513	0.0409202	1.37793	0.17161	6.50912	0.312207	10.7128	0.502544	17.0951	0.587035	20.1562	0.184982	6.85817	0.337335	11.5485	0.446527	15.3455	0.664212	22.8024
0.12781	4.22573	0.0422601	1.39338	0.17194	6.3881	0.313437	10.5266	0.502304	16.7271	0.588003	19.7603	0.185815	6.8115	0.337295	11.3024	0.447547	15.0534	0.663822	22.3047
0.129835	4.20476	0.0436064	1.4084	0.17237	6.25703	0.31468	10.3485	0.502073	16.3745	0.588979	19.3811	0.186874	6.75411	0.337268	11.067	0.448577	14.7738	0.66344	21.828
0.131781	4.18211	0.0449588	1.42301	0.172858	6.13394	0.315935	10.1781	0.501851	16.0365	0.589961	19.0177	0.18816	6.68705	0.337255	10.8416	0.449618	14.5059	0.663068	21.3711
0.133643	4.15775	0.0463168	1.43722	0.173411	6.01849	0.317203	10.0149	0.501639	15.7122	0.590951	18.669	0.189677	6.61145	0.337256	10.6256	0.450669	14.2491	0.662705	20.9327
0.135417	4.13165	0.0476801	1.45105	0.174034	5.91037	0.318481	9.85838	0.501436	15.4007	0.591948	18.3341	0.191427	6.52853	0.337271	10.4185	0.45173	14.0026	0.662351	20.5117
0.1371	4.1038	0.0490483	1.4645	0.174733	5.80933	0.319771	9.70823	0.501244	15.1015	0.592951	18.0124	0.193187	6.44944	0.337302	10.2198	0.4528	13.7659	0.662007	20.1072
0.138689	4.07424	0.0504211	1.47758	0.175514	5.71511	0.32107	9.56405	0.501063	14.8138	0.59396	17.7029	0.194955	6.3739	0.337349	10.029	0.453879	13.5384	0.661673	19.7183
0.140184	4.04303	0.0517982	1.49032	0.176382	5.62748	0.32238	9.42549	0.500892	14.5369	0.594975	17.4051	0.196731	6.30166	0.337413	9.84576	0.454967	13.3195	0.661348	19.3441
0.141585	4.01029	0.0531792	1.50271	0.177343	5.54622	0.323699	9.29224	0.500732	14.2703	0.595996	17.1182	0.198514	6.23251	0.337494	9.66967	0.456063	13.1089	0.661034	18.9837
0.142894	3.97615	0.0545639	1.51477	0.178401	5.4711	0.325027	9.16398	0.500584	14.0135	0.597023	16.8418	0.200303	6.16623	0.337592	9.50034	0.457167	12.906	0.660729	18.6364
0.144115	3.94077	0.0559521	1.5265	0.17956	5.40188	0.326364	9.04046	0.500448	13.766	0.598055	16.5752	0.202097	6.10264	0.33771	9.33745	0.458279	12.7105	0.660435	18.3017
0.145252	3.90434	0.0571644	1.53647	0.180823	5.33831	0.327708	8.92141	0.500324	13.5272	0.599092	16.3179	0.203895	6.04155	0.337846	9.18069	0.459398	12.5219	0.660151	17.9787
0.14631	3.86704	0.0581997	1.54479	0.182192	5.28013	0.329061	8.80659	0.500212	13.2968	0.600134	16.0694	0.205696	5.9828	0.338003	9.02975	0.460525	12.3399	0.659878	17.6669
0.147296	3.82908	0.0590569	1.55154	0.183666	5.22703	0.33042	8.69578	0.500112	13.0744	0.601181	15.8294	0.2075	5.92624	0.33818	8.88437	0.461658	12.1641	0.659615	17.3659
0.148214	3.79064	0.0597354	1.55681	0.185243	5.17872	0.331786	8.58877	0.500026	12.8595	0.602232	15.5973	0.209304	5.87173	0.338378	8.74429	0.462797	11.9942	0.659363	17.0749
0.149073	3.75191	0.0602347	1.56063	0.186922	5.13485	0.333158	8.48536	0.499953	12.6518	0.603288	15.3729	0.21111	5.81913	0.338599	8.60929	0.463943	11.83	0.659122	16.7936
0.149777	3.71805	0.0605545	1.56306	0.188698	5.09511	0.334535	8.38538	0.499893	12.451	0.604348	15.1556	0.212915	5.76832	0.338842	8.47912	0.465095	11.6712	0.658892	16.5215
0.150348	3.6892	0.0610143	1.56653	0.190565	5.05914	0.335919	8.28865	0.499847	12.2568	0.605412	14.9453	0.214718	5.71919	0.339109	8.35359	0.466252	11.5174	0.658673	16.2582
0.150801	3.66538	0.0615144	1.57026	0.192519	5.02662	0.337306	8.195	0.499816	12.0689	0.60648	14.7415	0.21652	5.67163	0.3394	8.2325	0.467415	11.3685	0.658465	16.0032
0.151148	3.6466	0.062195	1.57528	0.194554	4.99721	0.338699	8.1043	0.499798	11.8869	0.607551	14.5439	0.218318	5.62554	0.339716	8.11567	0.468583	11.2243	0.658269	15.7563
0.151398	3.63283	0.0630566	1.58154	0.196662	4.97062	0.340095	8.0164	0.499796	11.7107	0.608625	14.3524	0.220112	5.58082	0.340058	8.00293	0.469755	11.0844	0.658084	15.517
0.151556	3.62403	0.0640995	1.58898	0.198838	4.94656	0.341495	7.93116	0.499808	11.54	0.609703	14.1665	0.221902	5.53739	0.340427	7.89411	0.470932	10.9488	0.657911	15.2849
0.151779	3.61142	0.0653244	1.59751	0.201077	4.92475	0.342898	7.84846	0.499836	11.3745	0.610784	13.9861	0.223685	5.49517	0.340823	7.78906	0.472114	10.8172	0.65775	15.0599
0.152017	3.59775	0.0667316	1.60707	0.203371	4.90496	0.344304	7.76819	0.49988	11.2141	0.611868	13.8109	0.225462	5.45407	0.341247	7.68763	0.473299	10.6895	0.657601	14.8416
0.152335	3.57925	0.0681406	1.61638	0.205715	4.88697	0.345712	7.69022	0.499939	11.0586	0.612955	13.6407	0.22723	5.41402	0.341701	7.58971	0.474488	10.5654	0.657464	14.6297
0.152726	3.55599	0.0695511	1.62546	0.208106	4.87058	0.347121	7.61445	0.500015	10.9076	0.614044	13.4753	0.22899	5.37496	0.34212	7.50712	0.47568	10.4449	0.657339	14.4239
0.153186	3.52811	0.070963	1.6343	0.210537	4.85561	0.348533	7.54079	0.500107	10.7612	0.615135	13.3144	0.23074	5.33681	0.342495	7.43867	0.476875	10.3277	0.657227	14.224
0.153709	3.49578	0.0723761	1.64291	0.213006	4.84191	0.349763	7.47824	0.500216	10.619	0.616229	13.158	0.23248	5.29952	0.342819	7.3834	0.478073	10.2137	0.657127	14.0298
0.15429	3.45924	0.0737904	1.65131	0.215507	4.82934	0.350813	7.42608	0.500342	10.481	0.617325	13.0057	0.234208	5.26303	0.343083	7.34052	0.479274	10.1029	0.657041	13.8411
0.154854	3.42333	0.0752057	1.65949	0.218038	4.81778	0.35168	7.38373	0.500486	10.3469	0.618422	12.8575	0.235923	5.22728	0.343282	7.30946	0.480477	9.99498	0.656967	13.6576
0.155403	3.3881	0.0766218	1.66747	0.220596	4.80712	0.352367	7.35073	0.500647	10.2166	0.619522	12.7132	0.237624	5.19222	0.343412	7.28978	0.481682	9.88993	0.656906	13.4791
0.155941	3.35358	0.0780388	1.67525	0.223178	4.79727	0.352871	7.32673	0.500827	10.0901	0.620623	12.5726	0.239312	5.15781	0.343601	7.26176	0.482889	9.78762	0.656858	13.3054
0.156469	3.31979	0.0794564	1.68283	0.225781	4.78814	0.353194	7.31149	0.501025	9.96707	0.621725	12.4356	0.240983	5.124	0.343811	7.23167	0.484098	9.68792	0.656824	13.1364
0.156991	3.28675	0.0808747	1.69023	0.228404	4.77965	0.353658	7.28974	0.501241	9.84748	0.622828	12.3021	0.242639	5.09074	0.344102	7.19134	0.485308	9.59074	0.656803	12.972
0.157507	3.25446	0.0822934	1.69745	0.231045	4.77175	0.354163	7.2663	0.501477	9.7312	0.623932	12.1718	0.244277	5.05799	0.344483	7.1413	0.486519	9.49599	0.656796	12.8118
0.158019	3.22294	0.0837126	1.70448	0.233701	4.76438	0.354849	7.23478	0.501732	9.61811	0.625038	12.0448	0.245897	5.02572	0.34496	7.08221	0.48773	9.40355	0.656803	12.6558
0.15853	3.19217	0.0851321	1.71135	0.236371	4.75747	0.355716	7.19546	0.502007	9.5081	0.626144	11.9208	0.247498	4.99389	0.345543	7.01481	0.488943	9.31336	0.656824	12.5038
0.15904	3.16217	0.0865519	1.71805	0.239054	4.75099	0.356764	7.14873	0.502302	9.40106	0.62725	11.7998	0.249079	4.96247	0.346245	6.93996	0.490155	9.22532	0.656859	12.3557
0.15955	3.13292	0.0879719	1.72458	0.241748	4.7449	0.357993	7.09499	0.502617	9.29691	0.628357	11.6816	0.25064	4.93142	0.346983	6.86769	0.491368	9.13935	0.656909	12.2114
0.160062	3.10441	0.089392	1.73096	0.244453	4.73915	0.359401	7.03472	0.502952	9.19554	0.629464	11.5662	0.252179	4.90073	0.347756	6.7979	0.49258	9.05537	0.656973	12.0707
0.160576	3.07665	0.0908122	1.73719	0.247167	4.73373	0.360807	6.97588	0.503309	9.09687	0.630571	11.4535	0.253696	4.87035	0.348566	6.73053	0.493792	8.97332	0.657052	11.9334
0.161094	3.04961	0.0922324	1.74326	0.249889	4.72859	0.36221	6.91842	0.503686	9.00081	0.631678	11.3433	0.255191	4.84027	0.349414	6.66549	0.495003	8.89312	0.657145	11.7996
0.161615	3.02329	0.0936527	1.7492	0.252619	4.72371	0.36361	6.86227	0.504085	8.90727	0.632785	11.2355	0.256662	4.81047	0.350299	6.60271	0.496213	8.81471	0.657254	11.669
0.162141	2.99766	0.0950728	1.75499	0.255355	4.71907	0.365008	6.80738	0.504506	8.81619	0.633891	11.1302	0.25811	4.78093	0.351222	6.54212	0.497422	8.73801	0.657378	11.5416
0.162673	2.97273	0.0964927	1.76065	0.258098	4.71465	0.366401	6.75371	0.504949	8.72747	0.634997	11.0272	0.259533	4.75162	0.352183	6.48365	0.49863	8.66298	0.657518	11.4173
0.16321	2.94846	0.0979124	1.76617	0.260845	4.71042	0.367791	6.7012	0.505415	8.64106	0.636102	10.9263	0.260931	4.72254	0.353184	6.42723	0.499836	8.58955	0.657673	11.2959
0.163753	2.92486	0.099332	1.77156	0.263598	4.70637	0.369176	6.64981	0.505903	8.55687	0.637206	10.8277	0.262304	4.69367	0.354223	6.37279	0.50104	8.51767	0.657843	11.1775
0.164302	2.90189	0.100751	1.77683	0.266354	4.70249	0.370556	6.59949	0.506414	8.47486	0.638309	10.7311	0.263652	4.665	0.355301	6.32028	0.502242	8.44728	0.65803	11.0618
0.164859	2.87956	0.10217	1.78198	0.269114	4.69875	0.371932	6.55021	0.506948	8.39494	0.639411	10.6365	0.264975	4.63651	0.356419	6.26962	0.503441	8.37833	0.658233	10.9488
0.165423	2.85783	0.103589	1.78701	0.271878	4.69515	0.373302	6.50191	0.507505	8.31706	0.640511	10.5439	0.266272	4.60821	0.357575	6.22076	0.504639	8.31078	0.658452	10.8384
0.165994	2.83671	0.105007	1.79193	0.274643	4.69167	0.374666	6.45457	0.508086	8.24117	0.64161	10.4531	0.267543	4.58008	0.358771	6.17363	0.505833	8.24458	0.658687	10.7305
0.166573	2.81616	0.106425	1.79673	0.277411	4.6883	0.376024	6.40815	0.508691	8.16719	0.642707	10.3642	0.268789	4.55212	0.360006	6.12818	0.507024	8.17967	0.658939	10.6252
0.16716	2.79618	0.107842	1.80143	0.280181	4.68503	0.377377	6.36262	0.50932	8.09509	0.643803	10.2771	0.270009	4.52432	0.361279	6.08436	0.508212	8.11603	0.659208	10.5222
0.167754	2.77675	0.109259	1.80602	0.282951	4.68184	0.378722	6.31794	0.509973	8.0248	0.644896	10.1916	0.271204	4.49669	0.362591	6.04209	0.509397	8.05361	0.659493	10.4216
0.168357	2.75786	0.110676	1.81051	0.285723	4.67874	0.380061	6.27408	0.51065	7.95627	0.645987	10.1079	0.272374	4.46923	0.36394	6.00133	0.510578	7.99237	0.659796	10.3232
0.168968	2.73949	0.112092	1.81489	0.288495	4.67571	0.381393	6.23102	0.511352	7.88947	0.647076	10.0257	0.27352	4.44192	0.365328	5.96203	0.511756	7.93227	0.660116	10.227
0.169588	2.72163	0.113507	1.81918	0.291267	4.67274	0.382719	6.18872	0.511984	7.83261	0.648163	9.94506	0.274641	4.41479	0.366752	5.92413	0.512929	7.87327	0.660453	10.1329
0.170216	2.70426	0.114922	1.82338	0.294039	4.66982	0.384036	6.14716	0.512537	7.78512	0.649247	9.86596	0.275738	4.38782	0.368213	5.88758	0.513949	7.82274	0.660807	10.0409
0.170853	2.68737	0.116337	1.82748	0.29681	4.66695	0.385347	6.10632	0.513005	7.74652	0.650328	9.78832	0.276813	4.36103	0.369709	5.85232	0.514815	7.78029	0.66118	9.95094
0.171498	2.67095	0.11775	1.83149	0.29958	4.66412	0.38665	6.06618	0.513382	7.71641	0.651407	9.7121	0.277864	4.33441	0.37124	5.81831	0.515529	7.74561	0.66157	9.86293
0.172152	2.65498	0.119164	1.83542	0.302348	4.66133	0.387945	6.0267	0.513662	7.69451	0.652482	9.63726	0.278894	4.30797	0.372806	5.7855	0.516093	7.71845	0.661978	9.77682
0.172814	2.63945	0.120576	1.83926	0.305114	4.65855	0.389233	5.98788	0.513844	7.68059	0.653555	9.56376	0.279902	4.28172	0.374405	5.75385	0.516507	7.69864	0.662404	9.69258
0.173485	2.62435	0.121988	1.84301	0.307878	4.65579	0.390514	5.94969	0.514107	7.66072	0.654624	9.49156	0.28089	4.25565	0.376037	5.7233	0.516771	7.68602	0.662848	9.61014
0.174165	2.60967	0.1234	1.84669	0.310639	4.65305	0.391787	5.91211	0.514396	7.63932	0.65569	9.42062	0.281858	4.22979	0.377701	5.69381	0.517151	7.66797	0.66331	9.52946
0.174853	2.59539	0.12481	1.85029	0.313397	4.6503	0.393052	5.87514	0.514794	7.61051	0.656752	9.35092	0.282807	4.20412	0.379395	5.66534	0.517564	7.64847	0.663791	9.4505
0.17555	2.5815	0.12622	1.85381	0.316152	4.64756	0.39431	5.83874	0.515305	7.57457	0.657811	9.2824	0.283737	4.17866	0.38112	5.63785	0.518123	7.62213	0.66429	9.37321
0.176256	2.56799	0.127629	1.85726	0.318902	4.6448	0.395561	5.80292	0.515937	7.53184	0.658866	9.21505	0.28465	4.15342	0.382873	5.61129	0.51883	7.58915	0.664808	9.29754
0.17697	2.55485	0.129038	1.86063	0.321647	4.64203	0.396805	5.76766	0.516696	7.48271	0.659917	9.14883	0.285546	4.12839	0.384655	5.58562	0.519681	7.54972	0.665344	9.22346
0.177692	2.54207	0.130446	1.86394	0.324387	4.63923	0.398043	5.73295	0.51759	7.42763	0.660964	9.0837	0.286426	4.10359	0.386463	5.56081	0.520677	7.5041	0.665899	9.15092
0.178423	2.52964	0.131853	1.86717	0.327121	4.63639	0.399274	5.69877	0.518509	7.37389	0.662008	9.01964	0.28729	4.07902	0.388298	5.53683	0.521814	7.45257	0.666473	9.07989
0.179163	2.51755	0.13326	1.87034	0.329849	4.63352	0.4005	5.66512	0.519453	7.32147	0.663047	8.95662	0.288141	4.05468	0.390158	5.51362	0.522946	7.40188	0.667065	9.01033
0.179911	2.50579	0.134666	1.87344	0.33257	4.6306	0.40172	5.63199	0.520422	7.27032	0.664082	8.89461	0.288977	4.03058	0.392042	5.49117	0.524073	7.35201	0.667677	8.9422
0.180667	2.49434	0.136071	1.87648	0.335283	4.62762	0.402935	5.59938	0.521416	7.22041	0.665113	8.83359	0.289801	4.00673	0.393949	5.46943	0.525195	7.30295	0.668307	8.87546
0.181431	2.48321	0.137475	1.87945	0.337987	4.62457	0.404146	5.56728	0.522435	7.17171	0.666139	8.77352	0.290613	3.98312	0.395878	5.44837	0.526311	7.25467	0.668957	8.81009
0.182203	2.47238	0.138879	1.88237	0.340681	4.62145	0.405354	5.53569	0.523478	7.12418	0.667161	8.71439	0.291413	3.95977	0.397829	5.42797	0.527421	7.20714	0.669625	8.74604
0.182983	2.46184	0.140282	1.88522	0.343366	4.61824	0.406559	5.5046	0.524546	7.07779	0.668178	8.65617	0.292203	3.93667	0.3998	5.4082	0.528526	7.16036	0.670313	8.68329
0.183772	2.45159	0.141684	1.88802	0.346038	4.61493	0.407762	5.47402	0.525639	7.03252	0.669191	8.59884	0.292982	3.91382	0.40179	5.38902	0.529625	7.11429	0.671019	8.6218
0.184568	2.44161	0.143086	1.89076	0.348699	4.61152	0.408964	5.44394	0.526755	6.98832	0.670199	8.54237	0.293753	3.89124	0.403799	5.37041	0.530719	7.06892	0.671744	8.56155
0.185372	2.4319	0.144486	1.89344	0.351346	4.60798	0.410167	5.41437	0.527896	6.94518	0.671203	8.48675	0.294515	3.86892	0.405826	5.35234	0.531806	7.02424	0.672488	8.5025
0.186184	2.42245	0.145887	1.89608	0.353978	4.6043	0.411372	5.38531	0.529059	6.90305	0.672202	8.43195	0.295269	3.84686	0.407869	5.33479	0.532888	6.98022	0.673252	8.44462
0.187003	2.41325	0.147286	1.89866	0.356593	4.60048	0.412579	5.35676	0.530247	6.86192	0.673196	8.37795	0.296016	3.82507	0.409929	5.31774	0.533965	6.93686	0.674033	8.38789
0.18783	2.4043	0.148684	1.90118	0.359191	4.59649	0.413791	5.32874	0.531457	6.82175	0.674185	8.32475	0.296756	3.80355	0.412003	5.30115	0.535036	6.89412	0.674834	8.33227
0.188664	2.39559	0.150082	1.90366	0.36177	4.59232	0.415009	5.30124	0.532691	6.78252	0.67517	8.2723	0.29749	3.7823	0.414092	5.28502	0.536101	6.85201	0.675654	8.27775
0.189506	2.3871	0.151479	1.90609	0.364327	4.58795	0.416234	5.27429	0.533947	6.7442	0.67615	8.22061	0.298218	3.76131	0.416194	5.26931	0.537161	6.8105	0.676492	8.22429
0.190355	2.37885	0.152876	1.90847	0.366861	4.58336	0.41747	5.24789	0.535225	6.70677	0.677	8.17616	0.298941	3.7406	0.418308	5.25402	0.538215	6.76958	0.677237	8.17855
0.191211	2.37081	0.154271	1.91081	0.36937	4.57853	0.418717	5.22205	0.536525	6.67019	0.677722	8.1387	0.29966	3.72015	0.420435	5.23911	0.539264	6.72925	0.677884	8.14018
0.192074	2.36298	0.155666	1.9131	0.371852	4.57344	0.419979	5.1968	0.537846	6.63445	0.678317	8.10801	0.300375	3.69997	0.422573	5.22457	0.540308	6.68948	0.678426	8.10886
0.192945	2.35536	0.15706	1.91535	0.374304	4.56806	0.421258	5.17214	0.539188	6.59953	0.678786	8.08394	0.301086	3.68007	0.424721	5.21038	0.541347	6.65027	0.67886	8.08436
0.193822	2.34794	0.158453	1.91755	0.376724	4.56237	0.422556	5.1481	0.540551	6.56539	0.679131	8.06634	0.301794	3.66043	0.426878	5.19653	0.542381	6.6116	0.679181	8.06649
0.194706	2.34071	0.159846	1.91971	0.379108	4.55635	0.423876	5.1247	0.541934	6.53201	0.679351	8.05512	0.3025	3.64105	0.429045	5.183	0.54341	6.57347	0.679389	8.05512
0.195596	2.33368	0.161238	1.92183	0.381455	4.54997	0.425221	5.10195	0.543338	6.49938	0.679666	8.03906	0.303203	3.62194	0.431219	5.16977	0.544435	6.53587	0.679688	8.03886
0.196494	2.32682	0.162629	1.92391	0.383761	4.5432	0.426594	5.07987	0.54476	6.46746	0.680009	8.02168	0.303904	3.6031	0.433401	5.15683	0.545456	6.49878	0.680015	8.02131
0.197397	2.32015	0.16402	1.92595	0.386023	4.53602	0.427998	5.0585	0.546202	6.43625	0.680474	7.99819	0.304604	3.58452	0.43559	5.14416	0.546473	6.4622	0.680465	7.99763
0.198307	2.31365	0.165409	1.92795	0.388238	4.5284	0.429437	5.03785	0.547662	6.40571	0.681061	7.96869	0.305302	3.5662	0.437784	5.13175	0.547486	6.42612	0.681039	7.96799
0.199224	2.30732	0.166798	1.92991	0.390404	4.52031	0.430914	5.01795	0.54914	6.37584	0.681769	7.93336	0.306	3.54813	0.439984	5.11958	0.548496	6.39053	0.681742	7.93261
0.200147	2.30115	0.168186	1.93183	0.392517	4.51175	0.432432	4.99881	0.550635	6.3466	0.682595	7.89236	0.306697	3.53033	0.442189	5.10765	0.549503	6.35543	0.68258	7.89175
0.201075	2.29514	0.169574	1.93372	0.394576	4.50267	0.433994	4.98045	0.552148	6.31798	0.68354	7.84591	0.307394	3.51278	0.444398	5.09593	0.550507	6.32081	0.683557	7.84568
0.20201	2.28928	0.170961	1.93558	0.396577	4.49308	0.435603	4.96289	0.553677	6.28996	0.68448	7.80007	0.308091	3.49548	0.446609	5.08442	0.551509	6.28666	0.684552	7.80048
0.202951	2.28357	0.172347	1.9374	0.398518	4.48295	0.437261	4.94614	0.555223	6.26252	0.685415	7.75484	0.308789	3.47843	0.448824	5.0731	0.552508	6.25298	0.685564	7.75612
0.203898	2.27802	0.173732	1.93918	0.400399	4.47229	0.438971	4.93021	0.556784	6.23565	0.686347	7.71021	0.309487	3.46163	0.45104	5.06197	0.553507	6.21976	0.686594	7.71257
0.20485	2.2726	0.175117	1.94094	0.402217	4.46108	0.440734	4.9151	0.558361	6.20932	0.687275	7.66617	0.310186	3.44508	0.453258	5.051	0.554504	6.18699	0.68764	7.66983
0.205808	2.26732	0.176501	1.94266	0.403973	4.44935	0.442552	4.90081	0.559952	6.18352	0.688198	7.62269	0.310885	3.42877	0.455476	5.04019	0.555501	6.15468	0.688702	7.62788
0.206772	2.26218	0.177884	1.94435	0.405666	4.43709	0.444425	4.88732	0.561557	6.15824	0.689118	7.57978	0.311587	3.41269	0.457693	5.02953	0.556498	6.12282	0.689781	7.58668
0.207741	2.25716	0.179267	1.94601	0.407298	4.42433	0.446353	4.87462	0.563176	6.13345	0.690034	7.53743	0.312289	3.39686	0.45991	5.01901	0.557495	6.09141	0.690876	7.54624
0.208716	2.25227	0.180648	1.94764	0.408868	4.41108	0.448336	4.86269	0.564808	6.10915	0.690947	7.49562	0.312994	3.38126	0.462125	5.00862	0.558493	6.06043	0.691987	7.50652
0.209696	2.24751	0.182029	1.94923	0.410379	4.39738	0.450373	4.85151	0.566453	6.08531	0.691857	7.45434	0.3137	3.36589	0.464338	4.99833	0.559493	6.0299	0.693114	7.4675
0.210681	2.24287	0.18341	1.95081	0.411833	4.38325	0.452463	4.84104	0.56811	6.06192	0.692763	7.41359	0.314408	3.35075	0.466547	4.98816	0.560495	5.9998	0.694256	7.42919
0.211672	2.23834	0.18479	1.95235	0.413231	4.36873	0.454604	4.83125	0.569778	6.03897	0.693667	7.37335	0.315118	3.33584	0.468753	4.97808	0.5615	5.97014	0.695413	7.39154
0.212667	2.23392	0.186169	1.95386	0.414578	4.35385	0.456794	4.82211	0.571458	6.01645	0.694568	7.33363	0.315831	3.32115	0.470954	4.96808	0.562509	5.94092	0.696585	7.35456
0.213667	2.22962	0.187547	1.95535	0.415874	4.33865	0.45903	4.81358	0.573149	5.99433	0.695466	7.2944	0.316546	3.30668	0.473149	4.95816	0.563522	5.91213	0.697771	7.31821
0.214673	2.22542	0.188925	1.95681	0.417123	4.32316	0.46131	4.80562	0.574849	5.97261	0.696362	7.25567	0.317264	3.29242	0.475338	4.94831	0.56454	5.88376	0.698972	7.2825
0.215683	2.22133	0.190302	1.95824	0.418329	4.30741	0.463631	4.79818	0.576559	5.95128	0.697256	7.21742	0.317985	3.27838	0.47752	4.9385	0.565564	5.85583	0.700186	7.2474
0.216698	2.21734	0.191678	1.95965	0.419493	4.29146	0.465991	4.79125	0.578279	5.93031	0.698149	7.17966	0.318708	3.26456	0.479694	4.92875	0.566594	5.82834	0.701414	7.21289
0.217717	2.21345	0.193054	1.96104	0.420619	4.27531	0.468387	4.78477	0.580007	5.9097	0.69904	7.14237	0.319435	3.25094	0.481859	4.91903	0.567632	5.80127	0.702655	7.17896
0.218741	2.20965	0.194429	1.9624	0.421709	4.25901	0.470816	4.77871	0.581743	5.88944	0.69993	7.10554	0.320164	3.23752	0.484014	4.90933	0.568678	5.77463	0.70391	7.1456
0.21977	2.20595	0.195803	1.96373	0.422766	4.24259	0.473276	4.77304	0.583487	5.86951	0.700819	7.06918	0.320897	3.22431	0.486159	4.89966	0.569733	5.74843	0.705176	7.1128
0.220803	2.20234	0.197177	1.96504	0.423793	4.22607	0.475765	4.76773	0.585238	5.84991	0.701707	7.03327	0.321633	3.2113	0.488292	4.88998	0.570798	5.72266	0.706456	7.08053
0.221841	2.19882	0.19855	1.96633	0.424792	4.20948	0.47828	4.76275	0.586995	5.83061	0.702595	6.99781	0.322372	3.19848	0.490412	4.88031	0.571875	5.69733	0.707747	7.04879
0.222882	2.19538	0.199922	1.9676	0.425764	4.19284	0.48082	4.75807	0.588759	5.81162	0.703483	6.9628	0.323115	3.18586	0.492519	4.87062	0.572964	5.67244	0.70905	7.01756
0.223928	2.19203	0.201294	1.96884	0.426712	4.17617	0.483381	4.75367	0.590528	5.79292	0.704372	6.92822	0.323861	3.17343	0.494611	4.86091	0.574065	5.64798	0.710364	6.98684
0.224978	2.18875	0.202665	1.97007	0.427639	4.15949	0.485964	4.74952	0.592302	5.7745	0.705261	6.89409	0.324611	3.16119	0.496688	4.85117	0.575181	5.62396	0.711689	6.95659
0.226033	2.18556	0.204035	1.97127	0.428545	4.14281	0.488565	4.74561	0.594081	5.75635	0.706152	6.86038	0.325364	3.14913	0.498748	4.84138	0.576312	5.60038	0.713024	6.92683
0.227091	2.18245	0.205405	1.97245	0.429432	4.12616	0.491183	4.74191	0.595864	5.73846	0.707044	6.8271	0.326122	3.13725	0.500791	4.83155	0.577459	5.57725	0.71437	6.89752
0.228153	2.17941	0.206774	1.97361	0.430302	4.10955	0.493817	4.7384	0.597651	5.72082	0.707938	6.79424	0.326883	3.12556	0.502815	4.82166	0.578623	5.55457	0.715726	6.86867
0.229219	2.17644	0.208142	1.97475	0.431156	4.09299	0.496465	4.73508	0.59944	5.70342	0.708834	6.7618	0.327647	3.11404	0.504819	4.81169	0.579806	5.53234	0.717092	6.84026
0.230289	2.17355	0.20951	1.97588	0.431996	4.07648	0.499127	4.73192	0.601232	5.68625	0.709733	6.72977	0.328416	3.10269	0.506803	4.80165	0.581008	5.51055	0.718466	6.81227
0.231362	2.17072	0.210878	1.97698	0.432822	4.06005	0.501801	4.72892	0.603026	5.66931	0.710636	6.69816	0.329189	3.09152	0.508765	4.79153	0.582231	5.48922	0.719849	6.7847
0.232439	2.16796	0.212244	1.97806	0.433636	4.0437	0.504485	4.72605	0.604822	5.65258	0.711542	6.66695	0.329965	3.08052	0.510704	4.78131	0.583476	5.46835	0.721241	6.75754
0.23352	2.16527	0.21361	1.97913	0.434439	4.02743	0.50718	4.72331	0.606618	5.63606	0.712452	6.63615	0.330746	3.06968	0.512619	4.77099	0.584743	5.44794		
0.234604	2.16264	0.214976	1.98017	0.435231	4.01126	0.509885	4.72069	0.608415	5.61973	0.713366	6.60576	0.33153	3.059	0.514509	4.76056	0.586034	5.42798		
0.235692	2.16008	0.21634	1.9812	0.436014	3.99519	0.512597	4.71818	0.610212	5.60359	0.714285	6.57576	0.332319	3.04849	0.516374	4.75002	0.58735	5.40848		
0.236783	2.15757	0.217705	1.98222	0.436789	3.97922	0.515318	4.71577	0.612009	5.58764	0.71521	6.54616	0.333111	3.03813	0.518212	4.73935	0.588691	5.38945		
0.237878	2.15513	0.219068	1.98321	0.437555	3.96337	0.518045	4.71344	0.613804	5.57185	0.716141	6.51696	0.333908	3.02793	0.520022	4.72856	0.59006	5.37088		
0.238976	2.15274	0.220431	1.98419	0.438314	3.94763	0.520778	4.71121	0.615598	5.55624	0.717079	6.48814	0.334709	3.01789	0.521804	4.71763	0.591455	5.35277		
0.240077	2.15041	0.221794	1.98515	0.439067	3.93201	0.523518	4.70904	0.617389	5.54078	0.718023	6.45972	0.335514	3.00799	0.523557	4.70657	0.59288	5.33512		
0.241181	2.14813	0.223155	1.9861	0.439814	3.91651	0.526262	4.70695	0.619178	5.52547	0.718975	6.43169	0.336323	2.99824	0.52528	4.69536	0.594333	5.31794		
0.242289	2.1459	0.224517	1.98703	0.440555	3.90114	0.529011	4.70493	0.620964	5.51031	0.719935	6.40404	0.337136	2.98864	0.526973	4.68401	0.595816	5.30121		
0.243399	2.14373	0.225877	1.98794	0.441291	3.8859	0.531765	4.70296	0.622746	5.49528	0.720903	6.37678	0.337953	2.97919	0.528635	4.67252	0.59733	5.28494		
0.244513	2.14161	0.227237	1.98884	0.442023	3.87078	0.534522	4.70105	0.624524	5.48038			0.338775	2.96987	0.530265	4.66087	0.598875	5.26912		
0.24563	2.13954	0.228597	1.98973	0.44275	3.8558	0.537282	4.69918	0.626297	5.46561			0.339601	2.96069	0.531864	4.64908	0.60045	5.25375		
0.246749	2.13751	0.229956	1.99059	0.443474	3.84095	0.540045	4.69737	0.628065	5.45095			0.340431	2.95165	0.533431	4.63714	0.602058	5.23882		
0.247871	2.13554	0.231314	1.99145	0.444195	3.82623	0.54281	4.69559	0.629828	5.43641			0.341265	2.94275	0.534966	4.62506	0.603697	5.22433		
0.248997	2.1336	0.232672	1.99229	0.444913	3.81165	0.545577	4.69385	0.631584	5.42197			0.342103	2.93398	0.536469	4.61283	0.605367	5.21027		
0.250125	2.13172	0.234029	1.99312	0.445628	3.79721	0.548346	4.69214	0.633334	5.40763			0.342946	2.92534	0.537941	4.60047	0.60707	5.19664		
0.251255	2.12987	0.235385	1.99393	0.446342	3.7829	0.551116	4.69046	0.635077	5.39339			0.343792	2.91682	0.53938	4.58796	0.608804	5.18342		
0.252389	2.12807	0.236742	1.99473	0.447053	3.76872	0.553887	4.6888	0.636812	5.37923			0.344643	2.90844	0.540789	4.57533	0.61057	5.17061		
0.253525	2.12631	0.238097	1.99552	0.447762	3.75469	0.556659	4.68717	0.638539	5.36515			0.345498	2.90017	0.542166	4.56257	0.612367	5.1582		
0.254663	2.12459	0.239452	1.9963	0.448471	3.74079	0.559431	4.68555	0.640258	5.35116			0.346358	2.89203	0.543513	4.54968	0.614195	5.14618		
0.255804	2.12291	0.240807	1.99706	0.449178	3.72702	0.562202	4.68396	0.641968	5.33724			0.347221	2.88401	0.544829	4.53669	0.616052	5.13454		
0.256948	2.12127	0.24216	1.99781	0.449884	3.71339	0.564973	4.68237	0.643668	5.32339			0.348089	2.87611	0.546117	4.52358	0.61794	5.12326		
0.258094	2.11966	0.243514	1.99854	0.450589	3.6999	0.567743	4.68079	0.64536	5.3096			0.34896	2.86832	0.547375	4.51038	0.619856	5.11234		
0.259243	2.11809	0.244867	1.99927	0.451294	3.68655	0.570512	4.67922	0.647041	5.29588			0.349836	2.86065	0.548606	4.49708	0.621801	5.10177		
0.260393	2.11656	0.246219	1.99998	0.451999	3.67332	0.573279	4.67765	0.648713	5.28222			0.350716	2.85309	0.549809	4.4837	0.623773	5.09153		
0.261547	2.11506	0.247571	2.00068	0.452703	3.66024	0.576045	4.67608	0.650374	5.26861			0.351601	2.84564	0.550986	4.47025	0.625772	5.08162		
0.262702	2.11359	0.248922	2.00138	0.453408	3.64728	0.578807	4.67451	0.652025	5.25506			0.352489	2.8383	0.552138	4.45672	0.627797	5.07201		
0.26386	2.11216	0.250273	2.00205	0.454113	3.63446	0.581567	4.67294	0.653665	5.24156			0.353381	2.83107	0.553264	4.44313	0.629847	5.0627		
0.26502	2.11076	0.251623	2.00272	0.454818	3.62177	0.584324	4.67135	0.655294	5.22811			0.354278	2.82395	0.554368	4.42949	0.631921	5.05368		
0.266182	2.10939	0.252972	2.00338	0.455524	3.60922	0.587077	4.66975	0.656912	5.21471			0.355178	2.81692	0.555448	4.41581	0.634019	5.04494		
0.267346	2.10805	0.254322	2.00403	0.45623	3.59679	0.589826	4.66813	0.658519	5.20135			0.356083	2.81	0.556506	4.40209	0.636138	5.03646		
0.268512	2.10674	0.25567	2.00466	0.456937	3.58449	0.592571	4.66649	0.660115	5.18804			0.356991	2.80318	0.557543	4.38834	0.63828	5.02824		
0.269681	2.10546	0.257018	2.00529	0.457646	3.57232	0.59531	4.66483	0.661701	5.17478			0.357904	2.79646	0.55856	4.37457	0.640442	5.02026		
0.270851	2.1042	0.258366	2.00591	0.458355	3.56028	0.598043	4.66314	0.663276	5.16157			0.358821	2.78984	0.559558	4.36078	0.642623	5.01251		
0.272024	2.10298	0.259713	2.00651	0.459065	3.54837	0.600771	4.66142	0.664841	5.14841			0.359741	2.78331	0.560538	4.34699	0.644824	5.00498		
0.273198	2.10178	0.26106	2.00711	0.459777	3.53658	0.603491	4.65966	0.666396	5.1353			0.360666	2.77687	0.5615	4.3332	0.647042	4.99766		
0.274374	2.10061	0.262406	2.0077	0.460489	3.52492	0.606204	4.65786	0.667941	5.12224			0.361594	2.77053	0.562445	4.31941	0.649277	4.99055		
0.275552	2.09946	0.263752	2.00828	0.461204	3.51337	0.608908	4.65601	0.669478	5.10925			0.362526	2.76428	0.563374	4.30564	0.651529	4.98363		
0.276732	2.09834	0.265097	2.00885	0.46192	3.50196	0.611603	4.65411	0.671006	5.09631			0.363463	2.75812	0.564289	4.29188	0.653796	4.97689		
0.277914	2.09725	0.266442	2.00941	0.462637	3.49066	0.614288	4.65215	0.672526	5.08344			0.364403	2.75204	0.565188	4.27814	0.656077	4.97033		
0.279098	2.09618	0.267786	2.00996	0.463356	3.47948	0.616963	4.65013	0.67404	5.07064			0.365347	2.74605	0.566075	4.26444	0.658372	4.96393		
0.280283	2.09513	0.26913	2.0105	0.464077	3.46842	0.619625	4.64804	0.675547	5.05792			0.366295	2.74015	0.566948	4.25076	0.66068	4.95769		
0.28147	2.0941	0.270473	2.01103	0.4648	3.45748	0.622274	4.64588	0.67705	5.04528			0.367246	2.73433	0.56781	4.23713	0.663001	4.95161		
0.282659	2.0931	0.271816	2.01156	0.465525	3.44666	0.624909	4.64362	0.67855	5.03273			0.368202	2.7286	0.568659	4.22354	0.665333	4.94566		
0.28385	2.09211	0.273158	2.01207	0.466251	3.43595	0.627529	4.64128	0.680047	5.02029			0.369161	2.72294	0.569498	4.20999	0.667675	4.93985		
0.285042	2.09115	0.2745	2.01258	0.46698	3.42535	0.630132	4.63883	0.681544	5.00796			0.370124	2.71737	0.570326	4.19649	0.670028	4.93417		
0.286236	2.09021	0.275842	2.01308	0.467711	3.41487	0.632716	4.63626	0.683042	4.99575			0.37109	2.71188	0.571145	4.18305	0.672391	4.92862		
0.287431	2.08929	0.277183	2.01357	0.468444	3.4045	0.63528	4.63358	0.684543	4.98367			0.372061	2.70646	0.571955	4.16967	0.674762	4.92317		
0.288628	2.08839	0.278523	2.01406	0.469179	3.39424	0.637823	4.63076	0.686048	4.97174			0.373035	2.70112	0.572756	4.15634	0.677141	4.91784		
0.289826	2.08751	0.279863	2.01454	0.469916	3.38409	0.640341	4.6278	0.687561	4.95997			0.374012	2.69585	0.573549	4.14308	0.679528	4.91261		
0.291026	2.08665	0.281203	2.01501	0.470656	3.37405	0.642834	4.62468	0.689082	4.94837			0.374994	2.69066	0.574334	4.12988	0.681922	4.90748		
0.292228	2.0858	0.282542	2.01547	0.471398	3.36411	0.645299	4.62139	0.690616	4.93696			0.375978	2.68553	0.575112	4.11676	0.684322	4.90244		
0.293431	2.08498	0.283881	2.01592	0.472142	3.35429	0.647734	4.61791	0.692164	4.92575			0.376967	2.68049	0.575883	4.1037	0.686728	4.89749		
0.294635	2.08417	0.285219	2.01637	0.472889	3.34456	0.650137	4.61423	0.693729	4.91477			0.377959	2.67551	0.576648	4.09071	0.68914	4.89261		
0.295841	2.08338	0.286557	2.01681	0.473638	3.33494	0.652504	4.61034	0.695313	4.90402			0.378954	2.6706	0.577407	4.0778	0.691556	4.88782		
0.297048	2.0826	0.287894	2.01724	0.474389	3.32543	0.654834	4.60621	0.696921	4.89353			0.379953	2.66576	0.57816	4.06496	0.693976	4.8831		
0.298256	2.08184	0.289231	2.01767	0.475143	3.31601	0.657123	4.60184	0.698555	4.88332			0.380956	2.66098	0.578908	4.05221	0.6964	4.87844		
0.299466	2.0811	0.290568	2.01809	0.4759	3.3067	0.659369	4.59721	0.700217	4.87339			0.381961	2.65627	0.579651	4.03953	0.698826	4.87385		
0.300677	2.08038	0.291904	2.0185	0.476659	3.29748	0.66157	4.5923	0.701912	4.86377			0.382971	2.65163	0.58039	4.02693	0.701256	4.86931		
0.30189	2.07966	0.29324	2.01891	0.477421	3.28837	0.663722	4.58711	0.70364	4.85448			0.383983	2.64705	0.581125	4.01441	0.703687	4.86483		
0.303104	2.07897	0.294575	2.01931	0.478186	3.27935	0.665824	4.58161	0.705407	4.84552			0.384999	2.64253	0.581856	4.00197	0.706119	4.86039		
0.304319	2.07828	0.29591	2.01971	0.478953	3.27042	0.667874	4.5758	0.707212	4.83691			0.386019	2.63808	0.582583	3.98962	0.708553	4.85601		
0.305535	2.07762	0.297244	2.02009	0.479723	3.26159	0.669869	4.56966	0.70906	4.82866			0.387042	2.63368	0.583307	3.97735	0.710987	4.85166		
0.306752	2.07696	0.298578	2.02048	0.480495	3.25286	0.671808	4.56321	0.710951	4.82078			0.388068	2.62935	0.584027	3.96516	0.713421	4.84735		
0.307971	2.07632	0.299912	2.02085	0.48127	3.24421	0.67369	4.55642	0.712886	4.81326			0.389097	2.62507	0.584745	3.95306	0.715854	4.84307		
0.309191	2.0757	0.301245	2.02122	0.482048	3.23566	0.675515	4.5493	0.714868	4.80611			0.390129	2.62086	0.58546	3.94105	0.718286	4.83881		
0.310412	2.07508	0.302578	2.02159	0.482829	3.2272	0.677281	4.54185	0.716895	4.79933			0.391165	2.6167	0.586173	3.92912	0.720716	4.83459		
0.311634	2.07448	0.303911	2.02195	0.483612	3.21883	0.67899	4.53408	0.718968	4.79292			0.392204	2.61259	0.586884	3.91727				
0.312857	2.07389	0.305243	2.0223	0.484398	3.21055	0.680643	4.526	0.721087	4.78686			0.393246	2.60855	0.587593	3.90552				
0.314081	2.07331	0.306574	2.02265	0.485187	3.20235	0.682239	4.51761					0.394291	2.60455	0.5883	3.89385				
0.315306	2.07275	0.307906	2.02299	0.485979	3.19424	0.683781	4.50894					0.39534	2.60061	0.589005	3.88226				
0.316533	2.0722	0.309237	2.02332	0.486773	3.18622	0.685271	4.5					0.396391	2.59673	0.589709	3.87077				
0.31776	2.07165	0.310567	2.02366	0.48757	3.17828	0.68671	4.4908					0.397446	2.59289	0.590412	3.85936				
0.318989	2.07112	0.311897	2.02398	0.48837	3.17043	0.6881	4.48136					0.398503	2.58911	0.591113	3.84804				
0.320218	2.0706	0.313227	2.0243	0.489173	3.16265	0.689445	4.4717					0.399564	2.58538	0.591814	3.8368				
0.321449	2.07009	0.314556	2.02462	0.489979	3.15496	0.690746	4.46183					0.400628	2.58169	0.592514	3.82565				
0.32268	2.06959	0.315885	2.02493	0.490788	3.14735	0.692007	4.45179					0.401694	2.57806	0.593213	3.81459				
0.323912	2.06911	0.317214	2.02524	0.491599	3.13982	0.693228	4.44157					0.402764	2.57447	0.593912	3.80362				
0.325146	2.06863	0.318542	2.02554	0.492413	3.13237	0.694413	4.43121					0.403836	2.57093	0.594611	3.79273				
0.32638	2.06816	0.31987	2.02583	0.493231	3.12499	0.695564	4.42071					0.404911	2.56744	0.595309	3.78193				
0.327615	2.0677	0.321198	2.02613	0.494051	3.1177	0.696683	4.41009					0.40599	2.564	0.596007	3.77121				
0.328851	2.06725	0.322525	2.02641	0.494873	3.11048	0.697772	4.39938					0.407071	2.5606	0.596705	3.76058				
0.330088	2.06681	0.323852	2.0267	0.495699	3.10333	0.698833	4.38857					0.408155	2.55724	0.597403	3.75003				
0.331326	2.06637	0.325178	2.02698	0.496528	3.09626	0.699869	4.37768					0.409241	2.55393	0.598101	3.73957				
0.332565	2.06595	0.326504	2.02725	0.497359	3.08926	0.70088	4.36673					0.410331	2.55066	0.5988	3.72919				
0.333804	2.06553	0.32783	2.02752	0.498193	3.08233	0.701869	4.35573					0.411423	2.54743	0.599499	3.71889				
0.335044	2.06513	0.329156	2.02779	0.499031	3.07548	0.702836	4.34468					0.412518	2.54425	0.600198	3.70868				
0.336286	2.06473	0.330481	2.02805	0.49987	3.06869	0.703784	4.3336					0.413615	2.54111	0.600898	3.69855				
0.337527	2.06434	0.331806	2.0283	0.500713	3.06198	0.704714	4.32249					0.414716	2.53801	0.601599	3.6885				
0.33877	2.06395	0.33313	2.02856	0.501559	3.05533	0.705627	4.31137					0.415819	2.53494	0.6023	3.67854				
0.340014	2.06358	0.334454	2.02881	0.502408	3.04876	0.706524	4.30023					0.416924	2.53192	0.603002	3.66866				
0.341258	2.06321	0.335778	2.02905	0.503259	3.04225	0.707406	4.28909					0.418033	2.52894	0.603705	3.65886				
0.342503	2.06285	0.337101	2.02929	0.504113	3.0358	0.708274	4.27795					0.419143	2.52599	0.604409	3.64913				
0.343749	2.0625	0.338424	2.02953	0.50497	3.02943	0.709129	4.26681					0.420257	2.52309	0.605114	3.63949				
0.344995	2.06215	0.339747	2.02977	0.50583	3.02311	0.709972	4.25569					0.421373	2.52022	0.60582	3.62993				
0.346242	2.06181	0.34107	2.03	0.506693	3.01687	0.710804	4.24459					0.422491	2.51739	0.606527	3.62045				
0.34749	2.06148	0.342392	2.03022	0.507558	3.01068	0.711626	4.2335					0.423612	2.51459	0.607235	3.61104				
0.348739	2.06115	0.343714	2.03045	0.508427	3.00456	0.712437	4.22244					0.424736	2.51183	0.607945	3.60171				
0.349988	2.06083	0.345035	2.03067	0.509298	2.9985	0.713239	4.21141					0.425862	2.5091	0.608655	3.59246				
0.351238	2.06052	0.346356	2.03088	0.510172	2.99251	0.714033	4.20041					0.42699	2.50641	0.609367	3.58329				
0.352488	2.06021	0.347677	2.0311	0.511049	2.98657	0.714818	4.18945					0.428121	2.50375	0.610081	3.57419				
0.35374	2.05991	0.348998	2.03131	0.511928	2.98069	0.715596	4.17852					0.429254	2.50113	0.610795	3.56517				
0.354992	2.05961	0.350318	2.03151	0.512811	2.97488	0.716367	4.16763					0.430389	2.49854	0.611512	3.55622				
0.356244	2.05932	0.351638	2.03171	0.513696	2.96912	0.717132	4.15678					0.431527	2.49598	0.612229	3.54735				
0.357497	2.05904	0.352958	2.03191	0.514584	2.96342	0.71789	4.14598					0.432667	2.49345	0.612949	3.53855				
0.358751	2.05876	0.354277	2.03211	0.515474	2.95777	0.718642	4.13522					0.43381	2.49096	0.613669	3.52982				
0.360005	2.05849	0.355596	2.0323	0.516368	2.95218	0.71939	4.12451					0.434955	2.48849	0.614392	3.52117				
0.36126	2.05822	0.356915	2.03249	0.517264	2.94665	0.720132	4.11384					0.436102	2.48606	0.615116	3.51259				
0.362515	2.05796	0.358233	2.03268	0.518163	2.94118							0.437251	2.48366	0.615842	3.50408				
0.363772	2.0577	0.359552	2.03287	0.519064	2.93576							0.438403	2.48128	0.616569	3.49564				
0.365028	2.05745	0.360869	2.03305	0.519968	2.93039							0.439556	2.47894	0.617299	3.48727				
0.366285	2.0572	0.362187	2.03323	0.520875	2.92507							0.440712	2.47663	0.61803	3.47897				
0.367543	2.05696	0.363505	2.0334	0.521785	2.91981							0.44187	2.47434	0.618762	3.47073				
0.368801	2.05672	0.364822	2.03358	0.522698	2.9146							0.443031	2.47208	0.619497	3.46257				
0.37006	2.05648	0.366138	2.03375	0.523613	2.90944							0.444193	2.46985	0.620234	3.45448				
0.371319	2.05625	0.367455	2.03391	0.52453	2.90434							0.445358	2.46765	0.620972	3.44645				
0.372579	2.05603	0.368771	2.03408	0.525451	2.89928							0.446524	2.46547	0.621712	3.43849				
0.373839	2.05581	0.370087	2.03424	0.526374	2.89427							0.447693	2.46332	0.622454	3.43059				
0.3751	2.05559	0.371403	2.0344	0.527299	2.88931							0.448864	2.4612	0.623198	3.42276				
0.376361	2.05538	0.372719	2.03456	0.528228	2.88441							0.450036	2.4591	0.623945	3.415				
0.377623	2.05517	0.374034	2.03471	0.529159	2.87954							0.451211	2.45703	0.624693	3.4073				
0.378885	2.05497	0.375349	2.03487	0.530092	2.87473							0.452388	2.45498	0.625443	3.39966				
0.380148	2.05477	0.376664	2.03502	0.531028	2.86996							0.453566	2.45296	0.626195	3.39209				
0.381411	2.05457	0.377978	2.03516	0.531967	2.86524							0.454747	2.45096	0.626949	3.38458				
0.382674	2.05438	0.379292	2.03531	0.532908	2.86057							0.45593	2.44899	0.627705	3.37713				
0.383938	2.05419	0.380606	2.03545	0.533852	2.85594							0.457114	2.44704	0.628463	3.36974				
0.385203	2.05401	0.38192	2.03559	0.534798	2.85135							0.458301	2.44511	0.629224	3.36242				
0.386468	2.05382	0.383233	2.03573	0.535747	2.84681							0.459489	2.44321	0.629986	3.35515				
0.387733	2.05365	0.384547	2.03587	0.536699	2.84232							0.460679	2.44133	0.63075	3.34794				
0.388999	2.05347	0.38586	2.036	0.537652	2.83786							0.461871	2.43947	0.631517	3.3408				
0.390265	2.0533	0.387172	2.03613	0.538609	2.83345							0.463065	2.43763	0.632286	3.33371				
0.391531	2.05313	0.388485	2.03626	0.539568	2.82908							0.464261	2.43582	0.633056	3.32668				
0.392798	2.05297	0.389797	2.03639	0.540529	2.82476							0.465459	2.43402	0.633829	3.31971				
0.394066	2.0528	0.391109	2.03652	0.541493	2.82047							0.466658	2.43225	0.634604	3.3128				
0.395333	2.05264	0.392421	2.03664	0.542459	2.81623							0.467859	2.4305	0.635382	3.30594				
0.396601	2.05249	0.393733	2.03676	0.543428	2.81202							0.469062	2.42877	0.636161	3.29914				
0.39787	2.05234	0.395044	2.03688	0.544399	2.80786							0.470267	2.42706	0.636943	3.29239				
0.399138	2.05219	0.396355	2.037	0.545373	2.80374							0.471473	2.42537	0.637727	3.2857				
0.400408	2.05204	0.397666	2.03712	0.546349	2.79965							0.472681	2.42369	0.638512	3.27907				
0.401677	2.05189	0.398977	2.03723	0.547327	2.7956							0.473891	2.42204	0.639301	3.27249				
0.402947	2.05175	0.400288	2.03734	0.548308	2.7916							0.475102	2.42041	0.640091	3.26596				
0.404217	2.05161	0.401598	2.03745	0.549291	2.78762							0.476315	2.4188	0.640883	3.25948				
0.405488	2.05148	0.402908	2.03756	0.550277	2.78369							0.47753	2.4172	0.641678	3.25306				
0.406759	2.05134	0.404218	2.03767	0.551264	2.77979							0.478746	2.41562	0.642475	3.24669				
0.40803	2.05121	0.405527	2.03777	0.552255	2.77593							0.479964	2.41407	0.643274	3.24037				
0.409301	2.05108	0.406837	2.03788	0.553247	2.77211							0.481183	2.41253	0.644076	3.23411				
0.410573	2.05095	0.408146	2.03798	0.554242	2.76832							0.482405	2.411	0.644879	3.22789				
0.411845	2.05083	0.409455	2.03808	0.555239	2.76457							0.483627	2.4095	0.645685	3.22172				
0.413118	2.05071	0.410764	2.03818	0.556238	2.76085							0.484851	2.40801	0.646493	3.21561				
0.414391	2.05059	0.412073	2.03828	0.55724	2.75717							0.486077	2.40654	0.647303	3.20954				
0.415664	2.05047	0.413381	2.03837	0.558244	2.75352							0.487304	2.40508	0.648115	3.20352				
0.416937	2.05035	0.41469	2.03846	0.55925	2.7499							0.488533	2.40364	0.64893	3.19756				
0.418211	2.05024	0.415998	2.03856	0.560259	2.74632							0.489764	2.40222	0.649747	3.19163				
0.419485	2.05013	0.417306	2.03865	0.561269	2.74277							0.490995	2.40082	0.650566	3.18576				
0.420759	2.05002	0.418613	2.03874	0.562282	2.73926							0.492229	2.39943	0.651387	3.17993				
0.422033	2.04991	0.419921	2.03883	0.563297	2.73577							0.493463	2.39805	0.652211	3.17415				
0.423308	2.04981	0.421228	2.03891	0.564314	2.73232							0.494699	2.39669	0.653037	3.16842				
0.424583	2.04971	0.422535	2.039	0.565334	2.7289							0.495937	2.39535	0.653865	3.16273				
0.425858	2.0496	0.423842	2.03908	0.566355	2.72551							0.497176	2.39402	0.654695	3.15709				
0.427134	2.0495	0.425149	2.03916	0.567379	2.72215							0.498416	2.39271	0.655527	3.15149				
0.42841	2.04941	0.426456	2.03924	0.568405	2.71882							0.499658	2.39141	0.656362	3.14594				
0.429686	2.04931	0.427762	2.03932	0.569433	2.71552							0.500901	2.39012	0.657199	3.14043				
0.430962	2.04922	0.429069	2.0394	0.570463	2.71226							0.502146	2.38885	0.658038	3.13497				
0.432239	2.04913	0.430375	2.03948	0.571495	2.70902							0.503392	2.38759	0.658879	3.12954				
0.433516	2.04903	0.431681	2.03956	0.572529	2.70581							0.504639	2.38635	0.659723	3.12416				
0.434793	2.04895	0.432987	2.03963	0.573566	2.70263							0.505887	2.38512	0.660568	3.11883				
0.43607	2.04886	0.434292	2.0397	0.574604	2.69948							0.507137	2.38391	0.661416	3.11353				
0.437348	2.04877	0.435598	2.03978	0.575645	2.69635							0.508388	2.3827	0.662266	3.10828				
0.438625	2.04869	0.436903	2.03985	0.576687	2.69326							0.509641	2.38152	0.663118	3.10307				
0.439903	2.04861	0.438208	2.03992	0.577732	2.69019							0.510895	2.38034	0.663973	3.0979				
0.441181	2.04852	0.439513	2.03999	0.578779	2.68715							0.51215	2.37918	0.664829	3.09277				
0.44246	2.04845	0.440818	2.04005	0.579827	2.68414							0.513406	2.37802	0.665688	3.08768				
0.443738	2.04837	0.442123	2.04012	0.580878	2.68115							0.514663	2.37689	0.666549	3.08263				
0.445017	2.04829	0.443427	2.04019	0.58193	2.67819							0.515922	2.37576	0.667412	3.07762				
0.446296	2.04822	0.444732	2.04025	0.582985	2.67526							0.517182	2.37465	0.668278	3.07265				
0.447576	2.04814	0.446036	2.04031	0.584041	2.67235							0.518443	2.37354	0.669145	3.06772				
0.448855	2.04807	0.44734	2.04038	0.5851	2.66947							0.519705	2.37245	0.670015	3.06283				
0.450135	2.048	0.448644	2.04044	0.58616	2.66661							0.520969	2.37137	0.670887	3.05797				
0.451414	2.04793	0.449948	2.0405	0.587223	2.66378							0.522234	2.37031	0.671761	3.05315				
0.452695	2.04786	0.451251	2.04056	0.588287	2.66097							0.523499	2.36925	0.672637	3.04837				
0.453975	2.04779	0.452555	2.04062	0.589353	2.65819							0.524766	2.36821	0.673515	3.04363				
0.455255	2.04772	0.453858	2.04067	0.590421	2.65543							0.526035	2.36717	0.674396	3.03892				
0.456536	2.04766	0.455162	2.04073	0.591491	2.6527							0.527304	2.36615	0.675278	3.03425				
0.457816	2.0476	0.456465	2.04079	0.592563	2.64999							0.528574	2.36514	0.676163	3.02962				
0.459097	2.04753	0.457768	2.04084	0.593637	2.64731							0.529846	2.36414	0.67705	3.02502				
0.460379	2.04747	0.45907	2.0409	0.594712	2.64464							0.531118	2.36315	0.677938	3.02045				
0.46166	2.04741	0.460373	2.04095	0.59579	2.642							0.532392	2.36217	0.678829	3.01593				
0.462941	2.04735	0.461676	2.041	0.596869	2.63939							0.533667	2.3612	0.679723	3.01143				
0.464223	2.04729	0.462978	2.04105	0.59795	2.63679							0.534943	2.36024	0.680618	3.00697				
0.465505	2.04724	0.464281	2.0411	0.599033	2.63422							0.53622	2.35929	0.681515	3.00255				
0.466787	2.04718	0.465583	2.04115	0.600117	2.63167							0.537498	2.35835	0.682414	2.99815				
0.468069	2.04712	0.466885	2.0412	0.601204	2.62914							0.538777	2.35742	0.683316	2.9938				
0.469351	2.04707	0.468187	2.04125	0.602292	2.62664							0.540057	2.3565	0.68422	2.98947				
0.470634	2.04702	0.469489	2.04129	0.603382	2.62415							0.541338	2.35559	0.685125	2.98518				
0.471916	2.04696	0.47079	2.04134	0.604473	2.62169							0.54262	2.35469	0.686033	2.98092				
0.473199	2.04691	0.472092	2.04139	0.605567	2.61925							0.543903	2.35379	0.686943	2.97669				
0.474482	2.04686	0.473393	2.04143	0.606662	2.61683							0.545187	2.35291	0.687854	2.9725				
0.475765	2.04681	0.474695	2.04148	0.607759	2.61442							0.546472	2.35204	0.688768	2.96833				
0.477048	2.04677	0.475996	2.04152	0.608857	2.61204							0.547758	2.35117	0.689684	2.9642				
0.478331	2.04672	0.477297	2.04156	0.609958	2.60968							0.549045	2.35032	0.690602	2.9601				
0.479615	2.04667	0.478598	2.0416	0.61106	2.60734							0.550333	2.34947	0.691522	2.95603				
0.480899	2.04662	0.479899	2.04164	0.612163	2.60502							0.551622	2.34863	0.692444	2.95199				
0.482182	2.04658	0.4812	2.04169	0.613269	2.60272							0.552912	2.3478	0.693368	2.94798				
0.483466	2.04653	0.482501	2.04173	0.614376	2.60044							0.554202	2.34698	0.694294	2.944				
0.48475	2.04649	0.483801	2.04176	0.615484	2.59818							0.555494	2.34616	0.695221	2.94005				
0.486034	2.04645	0.485102	2.0418	0.616595	2.59593							0.556787	2.34536	0.696151	2.93613				
0.487319	2.04641	0.486402	2.04184	0.617707	2.59371							0.55808	2.34456	0.697083	2.93224				
0.488603	2.04636	0.487702	2.04188	0.61882	2.5915							0.559375	2.34377	0.698017	2.92838				
0.489887	2.04632	0.489003	2.04192	0.619935	2.58931							0.56067	2.34299	0.698953	2.92454				
0.491172	2.04628	0.490303	2.04195	0.621052	2.58714							0.561966	2.34222	0.699891	2.92074				
0.492457	2.04625	0.491603	2.04199	0.62217	2.58499							0.563263	2.34145	0.700831	2.91696				
0.493742	2.04621	0.492902	2.04202	0.62329	2.58286							0.564561	2.34069	0.701772	2.91321				
0.495027	2.04617	0.494202	2.04206	0.624412	2.58074							0.56586	2.33994	0.702716	2.90949				
0.496312	2.04613	0.495502	2.04209	0.625535	2.57864							0.567159	2.3392	0.703662	2.9058				
0.497597	2.0461	0.496802	2.04212	0.626659	2.57656							0.56846	2.33846	0.704609	2.90213				
0.498882	2.04606	0.498101	2.04216	0.627785	2.57449							0.569761	2.33773	0.705558	2.89849				
0.500168	2.04602	0.4994	2.04219	0.628913	2.57245							0.571063	2.33701	0.70651	2.89488				
0.501453	2.04599	0.5007	2.04222	0.630042	2.57042							0.572366	2.33629	0.707463	2.89129				
0.502739	2.04596	0.501999	2.04225	0.631173	2.5684							0.57367	2.33559	0.708418	2.88773				
0.504025	2.04592	0.503298	2.04228	0.632305	2.5664							0.574975	2.33489	0.709375	2.88419				
0.505311	2.04589	0.504597	2.04231	0.633439	2.56442							0.57628	2.33419	0.710334	2.88068				
0.506597	2.04586	0.505896	2.04234	0.634574	2.56246							0.577586	2.3335	0.711295	2.8772				
0.507883	2.04583	0.507195	2.04237	0.63571	2.56051							0.578893	2.33282	0.712258	2.87374				
0.509169	2.0458	0.508494	2.0424	0.636849	2.55857							0.580201	2.33215	0.713222	2.87031				
0.510455	2.04577	0.509793	2.04243	0.637988	2.55666							0.581509	2.33148	0.714188	2.8669				
0.511742	2.04574	0.511091	2.04245	0.639129	2.55475							0.582818	2.33082	0.715157	2.86352				
0.513028	2.04571	0.51239	2.04248	0.640272	2.55287							0.584128	2.33017	0.716127	2.86016				
0.514315	2.04568	0.513688	2.04251	0.641416	2.55099							0.585439	2.32952	0.717099	2.85683				
0.515601	2.04565	0.514987	2.04253	0.642561	2.54914							0.586751	2.32887	0.718072	2.85351				
0.516888	2.04562	0.516285	2.04256	0.643707	2.5473							0.588063	2.32824	0.719048	2.85023				
0.518175	2.04559	0.517583	2.04258	0.644856	2.54547							0.589376	2.32761	0.720025	2.84696				
0.519462	2.04557	0.518882	2.04261	0.646005	2.54365							0.590689	2.32698						
0.520749	2.04554	0.52018	2.04263	0.647156	2.54186							0.592004	2.32637						
0.522036	2.04551	0.521478	2.04266	0.648308	2.54007							0.593319	2.32575						
0.523323	2.04549	0.522776	2.04268	0.649462	2.5383							0.594635	2.32515						
0.52461	2.04546	0.524074	2.0427	0.650617	2.53655							0.595951	2.32455						
0.525898	2.04544	0.525371	2.04273	0.651773	2.5348							0.597268	2.32395						
0.527185	2.04542	0.526669	2.04275	0.652931	2.53308							0.598586	2.32336						
0.528473	2.04539	0.527967	2.04277	0.65409	2.53136							0.599905	2.32278						
0.52976	2.04537	0.529264	2.04279	0.65525	2.52966							0.601224	2.3222						
0.531048	2.04535	0.530562	2.04282	0.656412	2.52797							0.602544	2.32163						
0.532336	2.04532	0.531859	2.04284	0.657575	2.5263							0.603864	2.32106						
0.533623	2.0453	0.533157	2.04286	0.658739	2.52464							0.605186	2.32049						
0.534911	2.04528	0.534454	2.04288	0.659905	2.52299							0.606508	2.31994						
0.536199	2.04526	0.535751	2.0429	0.661072	2.52135							0.60783	2.31938						
0.537487	2.04524	0.537049	2.04292	0.66224	2.51973							0.609153	2.31884						
0.538775	2.04522	0.538346	2.04294	0.663409	2.51812							0.610477	2.31829						
0.540064	2.0452	0.539643	2.04296	0.66458	2.51652							0.611801	2.31776						
0.541352	2.04518	0.54094	2.04297	0.665752	2.51494							0.613126	2.31722						
0.54264	2.04516	0.542237	2.04299	0.666925	2.51337							0.614452	2.3167						
0.543929	2.04514	0.543534	2.04301	0.6681	2.5118							0.615778	2.31617						
0.545217	2.04512	0.544831	2.04303	0.669275	2.51026							0.617105	2.31566						
0.546506	2.0451	0.546127	2.04305	0.670452	2.50872							0.618432	2.31514						
0.547794	2.04508	0.547424	2.04306	0.67163	2.50719							0.61976	2.31463						
0.549083	2.04506	0.548721	2.04308	0.672809	2.50568							0.621089	2.31413						
0.550371	2.04505	0.550017	2.0431	0.67399	2.50418							0.622418	2.31363						
0.55166	2.04503	0.551314	2.04311	0.675172	2.50269							0.623748	2.31314						
0.552949	2.04501	0.552611	2.04313	0.676355	2.50121							0.625078	2.31265						
0.554238	2.045	0.553907	2.04315	0.677539	2.49974							0.626409	2.31216						
0.555527	2.04498	0.555203	2.04316	0.678724	2.49828							0.627741	2.31168						
0.556816	2.04496	0.5565	2.04318	0.67991	2.49684							0.629073	2.3112						
0.558105	2.04495	0.557796	2.04319	0.681098	2.4954							0.630405	2.31073						
0.559394	2.04493	0.559092	2.04321	0.682287	2.49398							0.631739	2.31026						
0.560683	2.04492	0.560389	2.04322	0.683476	2.49257							0.633072	2.30979						
0.561972	2.0449	0.561685	2.04323	0.684667	2.49116							0.634406	2.30933						
0.563262	2.04489	0.562981	2.04325	0.68586	2.48977							0.635741	2.30887						
0.564551	2.04487	0.564277	2.04326	0.687053	2.48839							0.637076	2.30842						
0.56584	2.04486	0.565573	2.04328	0.688247	2.48702							0.638412	2.30797						
0.56713	2.04484	0.566869	2.04329	0.689443	2.48566							0.639749	2.30753						
0.568419	2.04483	0.568165	2.0433	0.690639	2.48431							0.641085	2.30709						
0.569709	2.04482	0.569461	2.04331	0.691837	2.48297							0.642423	2.30665						
0.570998	2.0448	0.570757	2.04333	0.693036	2.48164							0.643761	2.30622						
0.572288	2.04479	0.572052	2.04334	0.694235	2.48032							0.645099	2.30579						
0.573578	2.04478	0.573348	2.04335	0.695436	2.479							0.646438	2.30536						
0.574867	2.04477	0.574644	2.04336	0.696638	2.4777							0.647777	2.30494						
0.576157	2.04475	0.575939	2.04338	0.697841	2.47641							0.649117	2.30452						
0.577447	2.04474	0.577235	2.04339	0.699045	2.47513							0.650458	2.3041						
0.578737	2.04473	0.578531	2.0434	0.70025	2.47386							0.651798	2.30369						
0.580026	2.04472	0.579826	2.04341	0.701457	2.47259							0.65314	2.30329						
0.581316	2.04471	0.581122	2.04342	0.702664	2.47134							0.654481	2.30288						
0.582606	2.0447	0.582417	2.04343	0.703872	2.47009							0.655824	2.30248						
0.583896	2.04468	0.583713	2.04344	0.705081	2.46886							0.657166	2.30208						
0.585186	2.04467	0.585008	2.04345	0.706292	2.46763							0.65851	2.30169						
0.586477	2.04466	0.586303	2.04346	0.707503	2.46641							0.659853	2.3013						
0.587767	2.04465	0.587599	2.04347	0.708715	2.4652							0.661197	2.30091						
0.589057	2.04464	0.588894	2.04348	0.709928	2.464							0.662542	2.30053						
0.590347	2.04463	0.590189	2.04349	0.711143	2.46281							0.663887	2.30014						
0.591637	2.04462	0.591484	2.0435	0.712358	2.46163							0.665232	2.29977						
0.592928	2.04461	0.59278	2.04351	0.713574	2.46045							0.666578	2.29939						
0.594218	2.0446	0.594075	2.04352	0.714792	2.45929							0.667924	2.29902						
0.595508	2.04459	0.59537	2.04353	0.71601	2.45813							0.669271	2.29865						
0.596799	2.04458	0.596665	2.04354	0.717229	2.45698							0.670618	2.29829						
0.598089	2.04457	0.59796	2.04355	0.718449	2.45584							0.671966	2.29792						
0.59938	2.04457	0.599255	2.04356	0.71967	2.45471							0.673314	2.29756						
0.60067	2.04456	0.60055	2.04357	0.720892	2.45358							0.674662	2.29721						
0.601961	2.04455	0.601845	2.04357									0.676011	2.29685						
0.603251	2.04454	0.60314	2.04358									0.677361	2.2965						
0.604542	2.04453	0.604435	2.04359									0.67871	2.29616						
0.605833	2.04452	0.605729	2.0436									0.68006	2.29581						
0.607123	2.04452	0.607024	2.04361									0.681411	2.29547						
0.608414	2.04451	0.608319	2.04361									0.682762	2.29513						
0.609705	2.0445	0.609614	2.04362									0.684113	2.29479						
0.610995	2.04449	0.610908	2.04363									0.685464	2.29446						
0.612286	2.04448	0.612203	2.04364									0.686817	2.29413						
0.613577	2.04448	0.613498	2.04364									0.688169	2.2938						
0.614868	2.04447	0.614792	2.04365									0.689522	2.29347						
0.616159	2.04446	0.616087	2.04366									0.690875	2.29315						
0.61745	2.04446	0.617382	2.04366									0.692229	2.29283						
0.618741	2.04445	0.618676	2.04367									0.693582	2.29251						
0.620032	2.04444	0.619971	2.04368									0.694937	2.2922						
0.621323	2.04444	0.621265	2.04368									0.696291	2.29189						
0.622614	2.04443	0.62256	2.04369									0.697646	2.29157						
0.623905	2.04442	0.623854	2.0437									0.699002	2.29127						
0.625196	2.04442	0.625149	2.0437									0.700358	2.29096						
0.626487	2.04441	0.626443	2.04371									0.701714	2.29066						
0.627778	2.0444	0.627737	2.04372									0.70307	2.29036						
0.629069	2.0444	0.629032	2.04372									0.704427	2.29006						
0.63036	2.04439	0.630326	2.04373									0.705784	2.28976						
0.631651	2.04439	0.63162	2.04373									0.707142	2.28947						
0.632943	2.04438	0.632915	2.04374									0.708499	2.28918						
0.634234	2.04437	0.634209	2.04374									0.709858	2.28889						
0.635525	2.04437	0.635503	2.04375									0.711216	2.2886						
0.636816	2.04436	0.636797	2.04375									0.712575	2.28832						
0.638108	2.04436	0.638092	2.04376									0.713934	2.28804						
0.639399	2.04435	0.639386	2.04376									0.715294	2.28776						
0.640691	2.04435	0.64068	2.04377									0.716653	2.28748						
0.641982	2.04434	0.641974	2.04377									0.718014	2.2872						
0.643273	2.04434	0.643268	2.04378									0.719374	2.28693						
0.644565	2.04433	0.644562	2.04378									0.720735	2.28666						
0.645856	2.04433	0.645856	2.04379																
0.647148	2.04432	0.64715	2.04379																
0.648439	2.04432	0.648445	2.0438																
0.649731	2.04431	0.649739	2.0438																
0.651022	2.04431	0.651033	2.04381																
0.652314	2.04431	0.652327	2.04381																
0.653605	2.0443	0.65362	2.04381																
0.654897	2.0443	0.654914	2.04382																
0.656188	2.04429	0.656208	2.04382																
0.65748	2.04429	0.657502	2.04383																
0.658772	2.04428	0.658796	2.04383																
0.660063	2.04428	0.66009	2.04383																
0.661355	2.04428	0.661384	2.04384																
0.662647	2.04427	0.662678	2.04384																
0.663938	2.04427	0.663972	2.04385																
0.66523	2.04427	0.665265	2.04385																
0.666522	2.04426	0.666559	2.04385																
0.667814	2.04426	0.667853	2.04386																
0.669105	2.04426	0.669147	2.04386																
0.670397	2.04425	0.670441	2.04386																
0.671689	2.04425	0.671734	2.04387																
0.672981	2.04425	0.673028	2.04387																
0.674272	2.04424	0.674322	2.04387																
0.675564	2.04424	0.675615	2.04388																
0.676856	2.04424	0.676909	2.04388																
0.678148	2.04423	0.678203	2.04388																
0.67944	2.04423	0.679496	2.04389																
0.680732	2.04423	0.68079	2.04389																
0.682024	2.04422	0.682084	2.04389																
0.683316	2.04422	0.683377	2.04389																
0.684608	2.04422	0.684671	2.0439																
0.685899	2.04422	0.685965	2.0439																
0.687191	2.04421	0.687258	2.0439																
0.688483	2.04421	0.688552	2.04391																
0.689775	2.04421	0.689845	2.04391																
0.691067	2.0442	0.691139	2.04391																
0.692359	2.0442	0.692432	2.04391																
0.693651	2.0442	0.693726	2.04392																
0.694943	2.0442	0.695019	2.04392																
0.696236	2.04419	0.696313	2.04392																
0.697528	2.04419	0.697606	2.04392																
0.69882	2.04419	0.6989	2.04392																
0.700112	2.04419	0.700193	2.04393																
0.701404	2.04419	0.701487	2.04393																
0.702696	2.04418	0.70278	2.04393																
0.703988	2.04418	0.704074	2.04393																
0.70528	2.04418	0.705367	2.04394																
0.706572	2.04418	0.70666	2.04394																
0.707864	2.04417	0.707954	2.04394																
0.709157	2.04417	0.709247	2.04394																
0.710449	2.04417	0.710541	2.04394																
0.711741	2.04417	0.711834	2.04395																
0.713033	2.04417	0.713127	2.04395																
0.714325	2.04416	0.714421	2.04395																
0.715617	2.04416	0.715714	2.04395																
0.71691	2.04416	0.717007	2.04395																
0.718202	2.04416	0.718301	2.04395																
0.719494	2.04416	0.719594	2.04396																
0.720786	2.04416	0.720887	2.04396																
