Sym0		Asym0		Sym1		Sym2		Sym3		Sym4		Asym1		Asym2		Asym3		Asym4	
540  Points		540  Points		436  Points		191  Points		178  Points		135  Points		492  Points		335  Points		183  Points		136  Points	
Freq (MHz)	Vph (m/ms)	Freq (MHz)	Vph (m/ms)	Freq (MHz)	Vph (m/ms)	Freq (MHz)	Vph (m/ms)	Freq (MHz)	Vph (m/ms)	Freq (MHz)	Vph (m/ms)	Freq (MHz)	Vph (m/ms)	Freq (MHz)	Vph (m/ms)	Freq (MHz)	Vph (m/ms)	Freq (MHz)	Vph (m/ms)
0.000604581	6.11061	9.19343e-005	0.0902288	0.167748	1959.27	0.279527	569.144	0.503244	87699.8	0.559018	3650.68	0.139763	575.697	0.335492	567.417	0.419267	1467.84	0.670979	1204.96
0.00446924	6.11056	0.000241091	0.145996	0.167744	233.602	0.279604	248.849	0.503236	788.532	0.559051	711.638	0.139863	159.802	0.335479	274.147	0.419311	456.721	0.670929	564.136
0.00833358	6.11033	0.000460005	0.20142	0.167732	124.198	0.279742	159.302	0.503212	396.027	0.559127	394.296	0.140077	92.9089	0.335456	180.725	0.419401	270.486	0.670844	368.24
0.0121974	6.10999	0.000747573	0.256346	0.167714	84.5767	0.279941	117.203	0.503172	264.395	0.559246	272.737	0.140404	65.6049	0.335424	134.783	0.419536	192.183	0.670725	273.295
0.0160604	6.10951	0.00110252	0.31068	0.16769	64.1153	0.280199	92.7518	0.503116	198.424	0.559409	208.505	0.140842	50.7978	0.335384	107.457	0.419717	149.076	0.670573	217.248
0.0199224	6.10888	0.0015231	0.364275	0.167659	51.6208	0.280518	76.7823	0.503045	158.789	0.559614	168.792	0.14139	41.5236	0.335334	89.3381	0.419944	121.796	0.670391	180.255
0.023783	6.10811	0.00200749	0.417042	0.167623	43.1978	0.280895	65.5398	0.50296	132.341	0.559862	141.814	0.142046	35.1816	0.335277	76.4426	0.420215	102.985	0.67018	154.008
0.0276419	6.10719	0.00255364	0.468895	0.167581	37.1346	0.281331	57.2006	0.50286	113.437	0.560152	122.295	0.142808	30.5802	0.335211	66.7958	0.420531	89.2312	0.669942	134.418
0.0314989	6.10612	0.00315925	0.519737	0.167535	32.561	0.281825	50.7722	0.502746	99.2513	0.560482	107.521	0.143674	27.096	0.335138	59.307	0.420891	78.7408	0.669681	119.235
0.0353536	6.10489	0.00382184	0.569489	0.167485	28.9881	0.282377	45.6682	0.502619	88.2123	0.560854	95.9507	0.144641	24.3714	0.335059	53.3247	0.421295	70.4774	0.669397	107.122
0.0392057	6.10348	0.00453902	0.618104	0.167432	26.1197	0.282986	41.5197	0.50248	79.3771	0.561264	86.6459	0.145707	22.1866	0.334973	48.4357	0.421743	63.8019	0.669094	97.2323
0.0430547	6.1019	0.00530805	0.66551	0.167377	23.7662	0.28365	38.0833	0.50233	72.1453	0.561714	79.0019	0.146867	20.3988	0.334881	44.3652	0.422232	58.2981	0.668775	89.0055
0.0469002	6.10012	0.0061264	0.711679	0.16732	21.8004	0.284369	35.1916	0.502169	66.1165	0.562202	72.6116	0.14812	18.9115	0.334783	40.9234	0.422764	53.6837	0.66844	82.0544
0.0507417	6.09813	0.00699131	0.756568	0.167264	20.134	0.285143	32.7259	0.501998	61.0134	0.562727	67.1909	0.149461	17.657	0.334682	37.9751	0.423338	49.7602	0.668094	76.1033
0.0545788	6.09593	0.00790022	0.800162	0.167208	18.7034	0.285969	30.5996	0.501818	56.6378	0.563289	62.5355	0.150888	16.5863	0.334576	35.4212	0.423952	46.3842	0.667736	70.951
0.0584108	6.09349	0.0088505	0.842445	0.167154	17.462	0.286848	28.7482	0.50163	52.8445	0.563886	58.4946	0.152397	15.6632	0.334467	33.1876	0.424606	43.4492	0.66737	66.4468
0.062237	6.09078	0.00983953	0.883405	0.167105	16.3749	0.287778	27.1222	0.501435	49.5243	0.564517	54.9546	0.153985	14.8605	0.334356	31.2175	0.425299	40.8748	0.666997	62.4755
0.0660566	6.08778	0.0108649	0.92305	0.16706	15.4152	0.288758	25.6837	0.501234	46.594	0.565182	51.8284	0.155649	14.157	0.334244	29.4669	0.426032	38.599	0.666619	58.948
0.0698688	6.08447	0.0119241	0.961384	0.167021	14.5618	0.289788	24.4025	0.501027	43.9886	0.565879	49.0477	0.157386	13.5363	0.33413	27.9012	0.426801	36.5731	0.666236	55.7938
0.0736727	6.08081	0.0130149	0.998419	0.166991	13.7983	0.290865	23.2547	0.500816	41.657	0.566608	46.5586	0.159191	12.9852	0.334016	26.4926	0.427608	34.7584	0.665852	52.9567
0.0774669	6.07677	0.0141351	1.03417	0.166971	13.1115	0.291989	22.221	0.500602	39.5581	0.567368	44.3179	0.161063	12.4933	0.333903	25.2186	0.428452	33.1241	0.665466	50.3913
0.0812502	6.07228	0.0152825	1.06867	0.166963	12.4905	0.293159	21.2855	0.500385	37.6589	0.568158	42.2904	0.162997	12.0521	0.333791	24.0608	0.429331	31.6448	0.66508	48.0604
0.0850211	6.06732	0.0164551	1.10193	0.16697	11.9267	0.294373	20.4353	0.500167	35.9322	0.568978	40.4473	0.164991	11.6546	0.333682	23.0042	0.430244	30.2996	0.664695	45.9333
0.0887775	6.0618	0.017651	1.13399	0.166994	11.4128	0.295631	19.6595	0.499948	34.3554	0.569825	38.7646	0.167043	11.2949	0.333576	22.036	0.431192	29.0715	0.664312	43.9845
0.0925175	6.05565	0.0188685	1.16488	0.167037	10.9428	0.296932	18.949	0.499728	32.9101	0.5707	37.2226	0.169148	10.9682	0.333474	21.1458	0.432173	27.946	0.663932	42.1925
0.0962382	6.04879	0.0201057	1.19462	0.167104	10.5116	0.298274	18.2962	0.49951	31.5803	0.571601	35.8045	0.171304	10.6704	0.333376	20.3245	0.433187	26.911	0.663555	40.5392
0.0999367	6.04111	0.0213613	1.22325	0.167197	10.1151	0.299656	17.6945	0.499293	30.3529	0.572528	34.4959	0.173509	10.3981	0.333284	19.5646	0.434232	25.9561	0.663183	39.0092
0.103609	6.03247	0.0226336	1.2508	0.167322	9.7496	0.301077	17.1384	0.499079	29.2166	0.573481	33.2849	0.17576	10.1484	0.333199	18.8594	0.435308	25.0725	0.662816	37.5892
0.107251	6.02273	0.0239213	1.27732	0.167483	9.41213	0.302536	16.623	0.498867	28.1615	0.574457	32.1611	0.178055	9.91863	0.333121	18.2033	0.436414	24.2528	0.662454	36.2679
0.110857	6.0117	0.0252231	1.30284	0.167687	9.10014	0.304032	16.1442	0.49866	27.1794	0.575458	31.1153	0.18039	9.70674	0.333051	17.5915	0.43755	23.4903	0.662099	35.0353
0.114419	5.99914	0.0265378	1.32738	0.167905	8.84735	0.305564	15.6983	0.498457	26.263	0.576481	30.14	0.182764	9.5108	0.33299	17.0198	0.438715	22.7794	0.661751	33.8829
0.117931	5.98479	0.0278643	1.35099	0.168125	8.64492	0.307131	15.2822	0.498259	25.406	0.577527	29.2282	0.185174	9.32916	0.33294	16.4843	0.439907	22.1151	0.66141	32.8032
0.12138	5.9683	0.0292015	1.3737	0.168333	8.48613	0.308731	14.8932	0.498067	24.6028	0.578594	28.374	0.187617	9.1604	0.3329	15.9819	0.441127	21.493	0.661076	31.7895
0.124756	5.94928	0.0305485	1.39555	0.168518	8.36586	0.310364	14.5287	0.497882	23.8486	0.579683	27.5722	0.190093	9.00324	0.332871	15.5096	0.442374	20.9094	0.660751	30.836
0.128043	5.92725	0.0319045	1.41657	0.168665	8.28031	0.312029	14.1866	0.497703	23.1391	0.580792	26.8182	0.192598	8.85659	0.332856	15.0649	0.443647	20.3609	0.660434	29.9376
0.131222	5.90164	0.0332686	1.43679	0.168764	8.22682	0.313724	13.865	0.497533	22.4704	0.581921	26.1079	0.19513	8.71944	0.332854	14.6456	0.444945	19.8445	0.660127	29.0897
0.134273	5.87184	0.03464	1.45624	0.168916	8.15161	0.315449	13.5621	0.497371	21.8393	0.583069	25.4376	0.197357	8.60699	0.332867	14.2497	0.446267	19.3574	0.659828	28.2882
0.137172	5.83717	0.036018	1.47495	0.169091	8.0721	0.317202	13.2765	0.497218	21.2426	0.584237	24.8042	0.19927	8.51591	0.332896	13.8752	0.447614	18.8974	0.65954	27.5293
0.139894	5.79696	0.0374021	1.49297	0.16935	7.96762	0.318982	13.0067	0.497074	20.6778	0.585423	24.2046	0.20086	8.4437	0.332941	13.5207	0.448984	18.4623	0.659261	26.81
0.142414	5.75067	0.0387916	1.5103	0.169714	7.84139	0.320789	12.7515	0.49694	20.1423	0.586627	23.6363	0.202124	8.38848	0.333004	13.1846	0.450377	18.0502	0.658993	26.1271
0.144712	5.69795	0.0400065	1.52488	0.170213	7.69738	0.322622	12.5099	0.496817	19.634	0.587848	23.0969	0.203055	8.34889	0.333087	12.8657	0.451791	17.6592	0.658735	25.478
0.146776	5.6388	0.0410448	1.53693	0.170894	7.54024	0.324479	12.2807	0.496706	19.1509	0.589086	22.5844	0.203653	8.32398	0.333189	12.5628	0.453228	17.288	0.658489	24.8603
0.148603	5.57358	0.0419051	1.54665	0.171821	7.37533	0.32636	12.0632	0.496606	18.6913	0.590341	22.0967	0.204514	8.28877	0.333313	12.2747	0.454685	16.935	0.658253	24.2719
0.150203	5.50304	0.0425863	1.55417	0.172928	7.22664	0.328263	11.8563	0.496518	18.2534	0.591612	21.6322	0.205452	8.25124	0.33346	12.0006	0.456163	16.5991	0.658029	23.7107
0.151592	5.42817	0.0430879	1.55962	0.174239	7.09397	0.330188	11.6595	0.496443	17.836	0.592899	21.1892	0.20673	8.20141	0.333631	11.7396	0.45766	16.2789	0.657817	23.1749
0.152796	5.35011	0.043409	1.56306	0.175778	6.97696	0.332133	11.472	0.496381	17.4375	0.594201	20.7664	0.208353	8.14032	0.333828	11.4908	0.459176	15.9735	0.657617	22.6629
0.153841	5.26997	0.043871	1.56797	0.17756	6.87509	0.334098	11.2932	0.496333	17.0569	0.595518	20.3623	0.210323	8.06916	0.334052	11.2535	0.460711	15.6819	0.657429	22.1731
0.154752	5.18877	0.0443736	1.57323	0.17959	6.78749	0.336082	11.1225	0.4963	16.6929	0.596849	19.9758	0.212642	7.98922	0.334305	11.0271	0.462264	15.4031	0.657253	21.7042
0.155553	5.10734	0.0450577	1.58027	0.181865	6.71299	0.338084	10.9593	0.496281	16.3446	0.598195	19.6059	0.215315	7.90186	0.334589	10.8109	0.463834	15.1365	0.657091	21.255
0.156266	5.02637	0.045924	1.589	0.184368	6.65013	0.340102	10.8032	0.496278	16.011	0.599554	19.2514	0.217996	7.81878	0.334906	10.6045	0.465421	14.8811	0.656942	20.8241
0.156908	4.94639	0.0469729	1.5993	0.187077	6.59736	0.342136	10.6538	0.496292	15.6913	0.600927	18.9114	0.220684	7.73964	0.335257	10.4072	0.467025	14.6364	0.656805	20.4106
0.157493	4.86779	0.0482051	1.61102	0.189967	6.55312	0.344184	10.5106	0.496322	15.3846	0.602312	18.5851	0.223377	7.66408	0.335646	10.2186	0.468644	14.4017	0.656683	20.0135
0.158034	4.79084	0.0496212	1.62402	0.193012	6.51598	0.346247	10.3732	0.496369	15.0902	0.603711	18.2717	0.226072	7.59181	0.336073	10.0384	0.470279	14.1764	0.656574	19.6317
0.158539	4.71575	0.0510393	1.63655	0.196186	6.48468	0.348322	10.2414	0.496434	14.8075	0.605121	17.9704	0.228767	7.52254	0.336543	9.86599	0.471928	13.96	0.65648	19.2646
0.159018	4.64265	0.052459	1.64865	0.199468	6.45816	0.350408	10.1146	0.496517	14.5358	0.606544	17.6806	0.23146	7.45602	0.337056	9.70118	0.473591	13.7519	0.6564	18.9113
0.159476	4.5716	0.0538803	1.66031	0.20284	6.43555	0.352506	9.99274	0.49662	14.2745	0.607978	17.4015	0.234147	7.39199	0.337617	9.54359	0.475267	13.5517	0.656335	18.571
0.159918	4.50265	0.0553029	1.67157	0.206286	6.41613	0.354613	9.87542	0.496743	14.0231	0.609424	17.1328	0.236827	7.33023	0.338228	9.39292	0.476957	13.359	0.656284	18.2431
0.160349	4.4358	0.0567265	1.68244	0.209793	6.39934	0.356729	9.7624	0.496886	13.7811	0.61088	16.8737	0.239496	7.27052	0.338891	9.24891	0.478659	13.1733	0.656249	17.927
0.160773	4.37104	0.058151	1.69293	0.213352	6.38471	0.358852	9.65342	0.49705	13.548	0.612348	16.6238	0.242152	7.21266	0.339611	9.11129	0.480373	12.9943	0.65623	17.622
0.161138	4.3163	0.0595763	1.70307	0.216953	6.37188	0.360981	9.54826	0.497236	13.3234	0.613825	16.3826	0.244791	7.15646	0.340287	8.99639	0.482098	12.8216	0.656226	17.3276
0.161448	4.27085	0.0610022	1.71286	0.22059	6.36056	0.363116	9.44669	0.497445	13.1068	0.615312	16.1497	0.247411	7.10173	0.3409	8.90203	0.483834	12.6549	0.656238	17.0433
0.161704	4.2341	0.0624285	1.72232	0.224258	6.35051	0.365255	9.34852	0.497677	12.898	0.616809	15.9247	0.250008	7.04831	0.341434	8.82643	0.48558	12.4939	0.656267	16.7686
0.161906	4.20557	0.0638552	1.73147	0.227951	6.34152	0.367398	9.25356	0.497933	12.6966	0.618315	15.7071	0.252578	6.99604	0.341875	8.76818	0.487336	12.3383	0.656313	16.5031
0.162055	4.18488	0.0652822	1.74032	0.231667	6.33344	0.369542	9.16162	0.498215	12.5021	0.61983	15.4966	0.255118	6.94475	0.342209	8.7262	0.4891	12.1878	0.656376	16.2463
0.16215	4.17177	0.0667093	1.74888	0.235401	6.32614	0.371686	9.07253	0.498522	12.3144	0.621354	15.2929	0.257626	6.8943	0.342427	8.6997	0.490873	12.0422	0.656456	15.9979
0.162287	4.1531	0.0681364	1.75716	0.239151	6.31951	0.373555	8.9971	0.498856	12.1331	0.622886	15.0956	0.260095	6.84455	0.342747	8.66211	0.492654	11.9012	0.656555	15.7574
0.162437	4.13303	0.0695636	1.76517	0.242915	6.31347	0.375146	8.93434	0.499218	11.958	0.624426	14.9045	0.262524	6.79536	0.343105	8.62192	0.494443	11.7647	0.656671	15.5245
0.162641	4.10613	0.0709907	1.77293	0.246691	6.30792	0.376462	8.88347	0.499609	11.7887	0.625973	14.7192	0.264908	6.74661	0.343605	8.56835	0.496237	11.6323	0.656806	15.299
0.1629	4.07272	0.0724175	1.78044	0.250477	6.30281	0.377501	8.84388	0.500029	11.6252	0.627528	14.5395	0.267242	6.69819	0.344264	8.5024	0.498038	11.504	0.65696	15.0804
0.163216	4.03323	0.0738443	1.78772	0.254273	6.29809	0.378264	8.81512	0.50048	11.467	0.629089	14.3652	0.269525	6.64998	0.345099	8.42526	0.499845	11.3795	0.657133	14.8685
0.163589	3.98815	0.0752707	1.79478	0.258076	6.2937	0.378752	8.79686	0.500963	11.3141	0.630657	14.196	0.271751	6.60189	0.346134	8.33833	0.501656	11.2586	0.657326	14.6631
0.164023	3.93801	0.0766969	1.80161	0.261887	6.28961	0.379454	8.77083	0.501479	11.1663	0.632231	14.0317	0.273918	6.55382	0.347398	8.24319	0.503471	11.1412	0.65754	14.4638
0.164464	3.88953	0.0781227	1.80824	0.265703	6.28579	0.380216	8.74279	0.502029	11.0233	0.633811	13.872	0.276022	6.50572	0.348746	8.15282	0.50529	11.0271	0.657773	14.2704
0.164911	3.84263	0.0795481	1.81467	0.269524	6.28219	0.381251	8.7051	0.502614	10.885	0.635397	13.7168	0.27806	6.4575	0.35018	8.06708	0.507112	10.9162	0.658028	14.0827
0.165366	3.79728	0.0809731	1.8209	0.273349	6.2788	0.382558	8.65813	0.503235	10.7512	0.636987	13.566	0.28003	6.40912	0.351702	7.98579	0.508936	10.8083	0.658305	13.9004
0.16583	3.75341	0.0823977	1.82696	0.277179	6.27559	0.384134	8.60235	0.503894	10.6217	0.638583	13.4192	0.281931	6.36055	0.353313	7.9088	0.510761	10.7033	0.658603	13.7235
0.166301	3.71096	0.0838218	1.83283	0.281011	6.27254	0.385978	8.53826	0.504591	10.4965	0.640182	13.2763	0.28376	6.31176	0.355014	7.83595	0.512588	10.6011	0.658924	13.5516
0.166782	3.66989	0.0852454	1.83853	0.284846	6.26963	0.388086	8.46642	0.505328	10.3753	0.641786	13.1373	0.285517	6.26274	0.356806	7.76706	0.514414	10.5015	0.659268	13.3845
0.167271	3.63013	0.0866686	1.84407	0.288683	6.26685	0.390182	8.39632	0.506106	10.2581	0.643393	13.0019	0.287202	6.21351	0.358687	7.70197	0.51624	10.4045	0.659636	13.2222
0.16777	3.59166	0.0880911	1.84945	0.292522	6.26417	0.392267	8.32784	0.506927	10.1447	0.645003	12.8699	0.288816	6.16406	0.360656	7.6405	0.518065	10.3098	0.660027	13.0645
0.168278	3.55441	0.0895132	1.85468	0.296362	6.26159	0.394338	8.26089	0.507791	10.035	0.646617	12.7413	0.290358	6.11445	0.362713	7.58248	0.519888	10.2175	0.660443	12.9111
0.168795	3.51834	0.0909348	1.85977	0.300202	6.2591	0.396395	8.1954	0.5087	9.92882	0.648232	12.6159	0.291831	6.06469	0.364855	7.52772	0.521708	10.1274	0.660884	12.7619
0.169323	3.48341	0.0923558	1.86471	0.304043	6.25668	0.398436	8.13126	0.509654	9.82616	0.64985	12.4936	0.293236	6.01484	0.367079	7.47605	0.523526	10.0394	0.661351	12.6168
0.16986	3.44958	0.0937762	1.86952	0.307884	6.25431	0.400459	8.06842	0.510656	9.72686	0.651469	12.3743	0.294577	5.96495	0.369382	7.4273	0.525339	9.95347	0.661844	12.4757
0.170407	3.4168	0.0951961	1.87419	0.311724	6.252	0.402464	8.00678	0.511705	9.63082	0.65309	12.2578	0.295855	5.91508	0.371762	7.38128	0.527147	9.86946	0.662364	12.3384
0.170963	3.38503	0.0966154	1.87874	0.315563	6.24972	0.404449	7.94629	0.512803	9.53796	0.654711	12.1441	0.297074	5.86528	0.374215	7.33784	0.52895	9.78732	0.662911	12.2048
0.17153	3.35425	0.0980342	1.88317	0.319401	6.24748	0.406413	7.88687	0.513951	9.44817	0.656333	12.033	0.298236	5.81562	0.376737	7.2968	0.530746	9.70697	0.663486	12.0748
0.172106	3.3244	0.0994523	1.88748	0.323237	6.24525	0.408354	7.82847	0.514993	9.37236	0.657955	11.9245	0.299346	5.76615	0.379325	7.25801	0.532536	9.62833	0.66409	11.9483
0.172693	3.29547	0.10087	1.89168	0.327071	6.24303	0.410273	7.77103	0.515912	9.30949	0.659576	11.8184	0.300406	5.71692	0.381975	7.22133	0.534318	9.55132	0.664723	11.8251
0.173289	3.26741	0.102287	1.89577	0.330902	6.24082	0.412168	7.7145	0.516694	9.25868	0.661197	11.7147	0.30142	5.668	0.384683	7.18661	0.536091	9.4759	0.665385	11.7052
0.173895	3.2402	0.103704	1.89975	0.334729	6.23859	0.414037	7.65883	0.517326	9.21926	0.662816	11.6132	0.302392	5.61944	0.387446	7.1537	0.537629	9.4114	0.666078	11.5884
0.17451	3.21379	0.105119	1.90364	0.338553	6.23635	0.415881	7.60398	0.517798	9.19068	0.664433	11.514	0.303324	5.57127	0.390261	7.1225	0.538934	9.35729	0.666802	11.4748
0.175136	3.18818	0.106535	1.90742	0.342372	6.23408	0.417699	7.54991	0.518104	9.17258	0.666048	11.4169	0.304219	5.52355	0.393124	7.09288	0.54001	9.31313	0.667557	11.3641
0.175771	3.16332	0.10795	1.91111	0.346186	6.23176	0.419491	7.4966	0.518549	9.1468	0.667661	11.3218	0.305081	5.47632	0.396031	7.06472	0.540857	9.27859	0.668344	11.2563
0.176415	3.13919	0.109364	1.91471	0.349995	6.22939	0.421256	7.444	0.519038	9.1191	0.669271	11.2286	0.305912	5.42959	0.398981	7.03794	0.541478	9.25339	0.669164	11.1513
0.177069	3.11576	0.110778	1.91822	0.353796	6.22695	0.422994	7.39211	0.519715	9.08198	0.670877	11.1374	0.306715	5.38342	0.40197	7.01242	0.541875	9.23736	0.670017	11.0491
0.177733	3.09301	0.112191	1.92165	0.357589	6.22443	0.424707	7.3409	0.52059	9.03591	0.672479	11.048	0.307493	5.33781	0.404994	6.98808	0.542445	9.21442	0.670904	10.9495
0.178406	3.07092	0.113603	1.92499	0.361374	6.22181	0.426394	7.29036	0.521674	8.98148	0.674077	10.9604	0.308247	5.2928	0.408053	6.96485	0.543062	9.18965	0.671825	10.8525
0.179088	3.04947	0.115016	1.92825	0.365148	6.21908	0.428056	7.24049	0.522983	8.91939	0.67567	10.8744	0.30898	5.2484	0.411143	6.94264	0.5439	9.15623	0.67278	10.758
0.179779	3.02862	0.116427	1.93144	0.368911	6.2162	0.429695	7.19129	0.524535	8.85041	0.677258	10.7902	0.309695	5.20462	0.414261	6.92139	0.544955	9.11438	0.673771	10.666
0.180479	3.00836	0.117838	1.93455	0.372661	6.21317	0.431313	7.14276	0.526142	8.78377	0.67884	10.7075	0.310392	5.16148	0.417407	6.90102	0.546225	9.06439	0.674797	10.5764
0.181188	2.98868	0.119249	1.93759	0.376395	6.20995	0.432911	7.09491	0.527801	8.71941	0.680417	10.6263	0.311074	5.11899	0.420578	6.88149	0.547705	9.00658	0.67586	10.489
0.181906	2.96954	0.120659	1.94056	0.380112	6.2065	0.434493	7.04778	0.529513	8.65724	0.681986	10.5467	0.311743	5.07714	0.423772	6.86273	0.549391	8.94132	0.676958	10.404
0.182633	2.95094	0.122068	1.94346	0.383808	6.20281	0.436061	7.00139	0.531278	8.5972	0.683549	10.4685	0.312399	5.03595	0.426987	6.84469	0.551063	8.87716	0.678093	10.3211
0.183369	2.93285	0.123477	1.9463	0.387481	6.19881	0.437619	6.95578	0.533095	8.5392	0.685105	10.3916	0.313044	4.99542	0.430221	6.82733	0.552721	8.81406	0.679265	10.2404
0.184113	2.91526	0.124886	1.94907	0.391127	6.19446	0.439173	6.91099	0.534962	8.48318	0.686653	10.3162	0.313679	4.95555	0.433474	6.81059	0.554363	8.75198	0.680475	10.1617
0.184865	2.89815	0.126294	1.95178	0.394741	6.1897	0.440727	6.8671	0.536881	8.42906	0.688193	10.242	0.314306	4.91633	0.436744	6.79445	0.55599	8.69089	0.681721	10.0851
0.185626	2.88151	0.127702	1.95443	0.398319	6.18447	0.442288	6.82418	0.538848	8.37677	0.689725	10.169	0.314926	4.87777	0.440029	6.77885	0.557602	8.63075	0.683005	10.0104
0.186395	2.86532	0.129109	1.95702	0.401853	6.17867	0.443864	6.78232	0.540864	8.32625	0.691247	10.0973	0.315539	4.83985	0.443327	6.76376	0.559197	8.57153	0.684327	9.93765
0.187172	2.84956	0.130516	1.95956	0.405337	6.17221	0.445465	6.74162	0.542927	8.27742	0.692761	10.0268	0.316146	4.80258	0.446638	6.74916	0.560776	8.5132	0.685686	9.86677
0.187957	2.83422	0.131922	1.96204	0.408762	6.16499	0.4471	6.70222	0.545037	8.23022	0.694266	9.95745	0.316749	4.76595	0.449961	6.735	0.562338	8.45573	0.686901	9.80648
0.18875	2.81929	0.133328	1.96447	0.412116	6.15686	0.448782	6.66425	0.547191	8.18458	0.69576	9.88918	0.317348	4.72994	0.453294	6.72126	0.563883	8.39909	0.687959	9.75615
0.189551	2.80476	0.134733	1.96685	0.41539	6.14767	0.450525	6.62789	0.549388	8.14045	0.697055	9.83057	0.317943	4.69456	0.456636	6.70791	0.565412	8.34327	0.68885	9.71525
0.190359	2.7906	0.136138	1.96918	0.418568	6.13727	0.452344	6.5933	0.551628	8.09775	0.698152	9.78124	0.318536	4.6598	0.459986	6.69491	0.566924	8.28823	0.689564	9.68337
0.191175	2.77682	0.137543	1.97146	0.421638	6.12547	0.454256	6.56068	0.553909	8.05643	0.699055	9.74087	0.319126	4.62565	0.463342	6.68226	0.568419	8.23395	0.690095	9.66019
0.191999	2.76339	0.138947	1.9737	0.424582	6.11209	0.456275	6.5302	0.556229	8.01643	0.699767	9.70922	0.319716	4.59209	0.466705	6.66991	0.569898	8.18043	0.690437	9.64546
0.19283	2.75032	0.140351	1.97589	0.427388	6.09697	0.458418	6.50202	0.558587	7.9777	0.700288	9.6861	0.320304	4.55912	0.470072	6.65785	0.57136	8.12763	0.690933	9.62444
0.193668	2.73757	0.141754	1.97803	0.430041	6.07996	0.460697	6.47624	0.560982	7.94018	0.700621	9.67137	0.320891	4.52673	0.473442	6.64606	0.572807	8.07556	0.691476	9.60179
0.194513	2.72516	0.143157	1.98013	0.432532	6.06098	0.463119	6.45293	0.563412	7.90382	0.701099	9.65028	0.321478	4.49491	0.476815	6.63451	0.574238	8.02419	0.692222	9.57132
0.195365	2.71306	0.144559	1.98219	0.434855	6.04001	0.465689	6.43205	0.565875	7.86856	0.701617	9.62748	0.322066	4.46366	0.48019	6.62317	0.575654	7.97351	0.693177	9.53332
0.196224	2.70126	0.145962	1.98421	0.43701	6.01708	0.468404	6.41353	0.568371	7.83437	0.702319	9.59666	0.322654	4.43295	0.483564	6.61204	0.577056	7.92352	0.694352	9.48817
0.19709	2.68977	0.147363	1.98619	0.439001	5.99232	0.471258	6.39721	0.570898	7.80119	0.703203	9.558	0.323243	4.40279	0.486938	6.60108	0.578445	7.87421	0.695755	9.43628
0.197963	2.67856	0.148765	1.98813	0.440838	5.96589	0.474241	6.38289	0.573454	7.76898	0.704267	9.51173	0.323833	4.37315	0.490309	6.59028	0.579822	7.82557	0.697399	9.37813
0.198842	2.66763	0.150166	1.99004	0.442534	5.938	0.477339	6.37037	0.576039	7.7377	0.705508	9.45808	0.324425	4.34404	0.493677	6.57961	0.581187	7.77761	0.699079	9.32144
0.199728	2.65697	0.151567	1.9919	0.4441	5.90888	0.48054	6.35942	0.57865	7.7073	0.706921	9.39734	0.325019	4.31544	0.497039	6.56906	0.582541	7.73031	0.700794	9.26617
0.20062	2.64657	0.152967	1.99373	0.445553	5.87874	0.483832	6.34983	0.581288	7.67775	0.708322	9.33747	0.325614	4.28735	0.500395	6.55859	0.583887	7.68368	0.702544	9.21226
0.201519	2.63643	0.154367	1.99553	0.446905	5.84778	0.487201	6.3414	0.583949	7.649	0.709713	9.27845	0.326212	4.25974	0.503744	6.5482	0.585226	7.63773	0.704327	9.15969
0.202423	2.62653	0.155767	1.9973	0.448169	5.81618	0.490636	6.33398	0.586633	7.62103	0.711093	9.22025	0.326812	4.23262	0.507082	6.53785	0.586558	7.59245	0.706145	9.10841
0.203334	2.61687	0.157166	1.99903	0.449356	5.78412	0.494129	6.32741	0.589339	7.59379	0.712461	9.16285	0.327414	4.20597	0.51041	6.52752	0.587887	7.54785	0.707995	9.05838
0.204251	2.60745	0.158565	2.00073	0.450477	5.75173	0.49767	6.32156	0.592066	7.56726	0.713819	9.10624	0.328019	4.17979	0.513724	6.51718	0.589213	7.50395	0.709878	9.00956
0.205174	2.59826	0.159964	2.0024	0.45154	5.71911	0.501254	6.31633	0.594812	7.5414	0.715165	9.0504	0.328628	4.15406	0.517022	6.50682	0.59054	7.46075	0.711792	8.96192
0.206103	2.58928	0.161362	2.00404	0.452553	5.68638	0.504873	6.31164	0.597576	7.51618	0.716502	8.99531	0.329239	4.12878	0.520303	6.4964	0.591869	7.41827	0.713737	8.91541
0.207037	2.58051	0.16276	2.00564	0.45352	5.65362	0.508523	6.30739	0.600358	7.49156	0.717827	8.94096	0.329853	4.10393	0.523563	6.48589	0.593203	7.37652	0.715712	8.87001
0.207978	2.57196	0.164158	2.00723	0.45445	5.62088	0.512199	6.30354	0.603155	7.46753	0.719143	8.88734	0.330471	4.07952	0.5268	6.47526	0.594545	7.33552	0.717716	8.82568
0.208923	2.5636	0.165555	2.00878	0.455344	5.58824	0.515898	6.30003	0.605967	7.44406	0.720449	8.83443	0.331092	4.05552	0.530012	6.46448	0.595899	7.29529	0.71975	8.78237
0.209875	2.55544	0.166952	2.0103	0.456209	5.55573	0.519617	6.29681	0.608793	7.42111			0.331716	4.03193	0.533194	6.45351	0.597267	7.25586	0.72181	8.74007
0.210831	2.54747	0.168349	2.0118	0.457047	5.52339	0.523353	6.29385	0.611631	7.39867			0.332344	4.00875	0.536344	6.44232	0.598653	7.21725		
0.211793	2.53969	0.169746	2.01327	0.457861	5.49125	0.527104	6.2911	0.61448	7.3767			0.332976	3.98596	0.539457	6.43086	0.600062	7.17948		
0.21276	2.53208	0.171142	2.01472	0.458653	5.45935	0.530867	6.28856	0.61734	7.35519			0.333612	3.96356	0.542529	6.41908	0.601497	7.14261		
0.213733	2.52465	0.172538	2.01615	0.459427	5.42769	0.534643	6.28619	0.620209	7.33411			0.334251	3.94154	0.545556	6.40696	0.602963	7.10665		
0.21471	2.51739	0.173934	2.01754	0.460183	5.39631	0.538428	6.28396	0.623086	7.31344			0.334894	3.91989	0.548534	6.39443	0.604466	7.07165		
0.215692	2.51029	0.175329	2.01892	0.460925	5.36522	0.542222	6.28187	0.625971	7.29315			0.335541	3.8986	0.551457	6.38146	0.60601	7.03764		
0.21668	2.50336	0.176724	2.02027	0.461652	5.33441	0.546024	6.2799	0.628861	7.27323			0.336192	3.87767	0.55432	6.36798	0.607601	7.00467		
0.217672	2.49658	0.178119	2.0216	0.462368	5.30392	0.549832	6.27804	0.631755	7.25365			0.336847	3.85709	0.557117	6.35396	0.609244	6.97277		
0.218669	2.48995	0.179514	2.02291	0.463072	5.27373	0.553647	6.27627	0.634654	7.23439			0.337506	3.83685	0.559845	6.33933	0.610946	6.942		
0.21967	2.48347	0.180908	2.0242	0.463766	5.24387	0.557466	6.27458	0.637554	7.21543			0.338169	3.81695	0.562496	6.32407	0.612712	6.91239		
0.220677	2.47713	0.182302	2.02546	0.464451	5.21433	0.56129	6.27296	0.640456	7.19676			0.338837	3.79737	0.565068	6.30813	0.614546	6.88397		
0.221687	2.47094	0.183696	2.02671	0.465128	5.18511	0.565118	6.27141	0.643357	7.17835			0.339508	3.77812	0.567554	6.29146	0.616455	6.85677		
0.222702	2.46488	0.18509	2.02793	0.465798	5.15622	0.568949	6.26992	0.646257	7.16018			0.340184	3.75918	0.569952	6.27406	0.618443	6.83083		
0.223722	2.45895	0.186483	2.02914	0.466461	5.12766	0.572782	6.26848	0.649155	7.14223			0.340864	3.74055	0.572258	6.25589	0.620513	6.80615		
0.224746	2.45315	0.187876	2.03032	0.467118	5.09944	0.576618	6.26708	0.652047	7.12448			0.341548	3.72222	0.574471	6.23695	0.622669	6.78274		
0.225774	2.44748	0.189269	2.03149	0.46777	5.07154	0.580456	6.26572	0.654935	7.10692			0.342236	3.70419	0.576588	6.21725	0.624912	6.7606		
0.226807	2.44193	0.190662	2.03264	0.468417	5.04397	0.584295	6.2644	0.657815	7.08952			0.342928	3.68645	0.578611	6.1968	0.627243	6.7397		
0.227843	2.4365	0.192054	2.03377	0.469061	5.01673	0.588136	6.2631	0.660686	7.07225			0.343625	3.669	0.58054	6.17563	0.629662	6.72003		
0.228884	2.43118	0.193447	2.03489	0.4697	4.98981	0.591976	6.26183	0.663547	7.05511			0.344326	3.65182	0.582377	6.15378	0.632167	6.70153		
0.229928	2.42598	0.194839	2.03598	0.470336	4.96322	0.595817	6.26058	0.666395	7.03807			0.345032	3.63492	0.584126	6.13128	0.634757	6.68417		
0.230977	2.42089	0.19623	2.03707	0.470969	4.93696	0.599658	6.25934	0.669229	7.02111			0.345741	3.61829	0.58579	6.10819	0.637428	6.66789		
0.232029	2.4159	0.197622	2.03813	0.4716	4.91101	0.603499	6.25811	0.672048	7.0042			0.346455	3.60192	0.587373	6.08457	0.640177	6.65263		
0.233085	2.41102	0.199013	2.03918	0.472229	4.88538	0.607338	6.25689	0.674848	6.98733			0.347173	3.5858	0.58888	6.06048	0.642999	6.63833		
0.234145	2.40624	0.200404	2.04021	0.472855	4.86006	0.611176	6.25567	0.677629	6.97048			0.347895	3.56994	0.590315	6.03596	0.64589	6.62492		
0.235209	2.40157	0.201795	2.04123	0.47348	4.83506	0.615012	6.25444	0.680387	6.95361			0.348622	3.55433	0.591684	6.01108	0.648846	6.61234		
0.236276	2.39698	0.203186	2.04223	0.474104	4.81036	0.618846	6.25321	0.683122	6.93672			0.349353	3.53896	0.592991	5.9859	0.651861	6.60053		
0.237347	2.3925	0.204576	2.04322	0.474727	4.78597	0.622677	6.25197	0.68583	6.91978			0.350088	3.52383	0.594241	5.96047	0.654931	6.58942		
0.238421	2.3881	0.205967	2.04419	0.47535	4.76188	0.626505	6.25071	0.688509	6.90276			0.350827	3.50894	0.595438	5.93483	0.658053	6.57896		
0.239499	2.3838	0.207357	2.04515	0.475971	4.73809	0.630329	6.24943	0.691157	6.88565			0.351571	3.49427	0.596588	5.90903	0.66122	6.56909		
0.240581	2.37958	0.208747	2.04609	0.476593	4.7146	0.634149	6.24813	0.693772	6.86843			0.352319	3.47983	0.597693	5.88312	0.664431	6.55977		
0.241665	2.37545	0.210136	2.04702	0.477214	4.69139	0.637964	6.24679	0.696352	6.85107			0.353071	3.46561	0.598757	5.85714	0.66768	6.55094		
0.242753	2.3714	0.211526	2.04794	0.477835	4.66847	0.641773	6.24541	0.698894	6.83356			0.353827	3.4516	0.599784	5.83111	0.670965	6.54257		
0.243844	2.36743	0.212915	2.04885	0.478457	4.64584	0.645575	6.24398	0.701397	6.81588			0.354587	3.43781	0.600778	5.80508	0.674282	6.53462		
0.244939	2.36355	0.214304	2.04974	0.479079	4.62348	0.64937	6.2425	0.703858	6.79802			0.355352	3.42423	0.60174	5.77906	0.677629	6.52705		
0.246037	2.35974	0.215693	2.05062	0.479701	4.6014	0.653157	6.24095	0.706277	6.77996			0.35612	3.41085	0.602674	5.75308	0.681003	6.51983		
0.247137	2.356	0.217082	2.05149	0.480324	4.5796	0.656933	6.23933	0.708651	6.76171			0.356893	3.39767	0.603582	5.72717	0.684401	6.51292		
0.248241	2.35234	0.21847	2.05234	0.480948	4.55806	0.660699	6.23763	0.710981	6.74324			0.35767	3.38468	0.604466	5.70135	0.687821	6.50631		
0.249348	2.34876	0.219859	2.05319	0.481573	4.53679	0.664451	6.23582	0.713265	6.72457			0.358451	3.37189	0.605328	5.67562	0.691261	6.49997		
0.250458	2.34524	0.221247	2.05402	0.482199	4.51579	0.668189	6.2339	0.715505	6.7057			0.359236	3.35929	0.60617	5.65001	0.69472	6.49387		
0.251571	2.34179	0.222635	2.05484	0.482827	4.49504	0.67191	6.23185	0.7177	6.68664			0.360025	3.34688	0.606994	5.62454	0.698196	6.488		
0.252686	2.33841	0.224023	2.05565	0.483455	4.47454	0.675612	6.22964	0.719852	6.6674			0.360819	3.33465	0.607801	5.5992	0.701686	6.48234		
0.253805	2.33509	0.22541	2.05645	0.484085	4.4543	0.679292	6.22725	0.721964	6.64802			0.361616	3.32259	0.608593	5.57402	0.705191	6.47687		
0.254926	2.33184	0.226798	2.05723	0.484716	4.4343	0.682946	6.22466					0.362417	3.31072	0.60937	5.54899	0.708707	6.47158		
0.25605	2.32865	0.228185	2.05801	0.485349	4.41455	0.686571	6.22183					0.363222	3.29901	0.610135	5.52414	0.712235	6.46645		
0.257177	2.32552	0.229572	2.05878	0.485984	4.39504	0.69016	6.21872					0.364031	3.28748	0.610887	5.49946	0.715773	6.46147		
0.258306	2.32245	0.230959	2.05953	0.48662	4.37576	0.69371	6.21528					0.364844	3.27611	0.611628	5.47496	0.71932	6.45662		
0.259438	2.31944	0.232346	2.06028	0.487258	4.35672	0.697212	6.21146					0.365661	3.2649	0.612359	5.45065	0.722875	6.4519		
0.260573	2.31649	0.233732	2.06102	0.487898	4.33792	0.700659	6.2072					0.366482	3.25386	0.613081	5.42652				
0.26171	2.31359	0.235119	2.06174	0.48854	4.31933	0.704042	6.20242					0.367307	3.24297	0.613794	5.40259				
0.26285	2.31075	0.236505	2.06246	0.489184	4.30098	0.70735	6.19703					0.368136	3.23224	0.6145	5.37886				
0.263992	2.30796	0.237891	2.06317	0.48983	4.28284	0.710572	6.19095					0.368968	3.22166	0.615198	5.35532				
0.265137	2.30522	0.239277	2.06387	0.490478	4.26492	0.713694	6.18408					0.369805	3.21123	0.615889	5.33199				
0.266284	2.30253	0.240663	2.06456	0.491128	4.24721	0.716702	6.1763					0.370645	3.20094	0.616575	5.30885				
0.267434	2.29989	0.242048	2.06524	0.49178	4.22972	0.719584	6.16752					0.371489	3.1908	0.617254	5.28592				
0.268586	2.2973	0.243434	2.06591	0.492434	4.21244	0.722328	6.15765					0.372336	3.1808	0.617929	5.26319				
0.26974	2.29476	0.244819	2.06658	0.493091	4.19536							0.373187	3.17094	0.618598	5.24066				
0.270896	2.29227	0.246204	2.06723	0.49375	4.17848							0.374042	3.16122	0.619264	5.21834				
0.272055	2.28982	0.247589	2.06788	0.494411	4.1618							0.374901	3.15163	0.619925	5.19622				
0.273216	2.28741	0.248974	2.06852	0.495075	4.14532							0.375763	3.14217	0.620583	5.1743				
0.274379	2.28505	0.250359	2.06915	0.495741	4.12903							0.376629	3.13284	0.621237	5.15258				
0.275544	2.28273	0.251743	2.06978	0.49641	4.11293							0.377499	3.12364	0.621888	5.13107				
0.276712	2.28045	0.253127	2.07039	0.497081	4.09702							0.378372	3.11457	0.622537	5.10976				
0.277881	2.27822	0.254512	2.071	0.497754	4.0813							0.379248	3.10562	0.623183	5.08865				
0.279053	2.27602	0.255896	2.0716	0.49843	4.06576							0.380129	3.09679	0.623828	5.06774				
0.280226	2.27386	0.25728	2.0722	0.499109	4.0504							0.381012	3.08807	0.62447	5.04702				
0.281402	2.27174	0.258663	2.07278	0.49979	4.03521							0.381899	3.07948	0.62511	5.0265				
0.282579	2.26966	0.260047	2.07336	0.500474	4.0202							0.38279	3.071	0.625749	5.00618				
0.283759	2.26761	0.261431	2.07393	0.50116	4.00537							0.383684	3.06263	0.626386	4.98605				
0.28494	2.2656	0.262814	2.0745	0.501849	3.9907							0.384582	3.05437	0.627023	4.96611				
0.286124	2.26363	0.264197	2.07506	0.50254	3.9762							0.385482	3.04623	0.627658	4.94637				
0.287309	2.26169	0.26558	2.07561	0.503234	3.96187							0.386387	3.03819	0.628292	4.92681				
0.288496	2.25978	0.266963	2.07616	0.503931	3.9477							0.387294	3.03026	0.628926	4.90744				
0.289684	2.25791	0.268346	2.0767	0.50463	3.93368							0.388205	3.02243	0.629559	4.88826				
0.290875	2.25607	0.269728	2.07723	0.505332	3.91983							0.389119	3.0147	0.630192	4.86926				
0.292067	2.25426	0.271111	2.07776	0.506037	3.90613							0.390036	3.00707	0.630825	4.85045				
0.293262	2.25248	0.272493	2.07828	0.506744	3.89259							0.390957	2.99954	0.631457	4.83181				
0.294457	2.25073	0.273875	2.07879	0.507454	3.8792							0.391881	2.99211	0.632089	4.81336				
0.295655	2.24901	0.275257	2.0793	0.508167	3.86596							0.392808	2.98478	0.632722	4.79508				
0.296854	2.24732	0.276639	2.0798	0.508882	3.85286							0.393738	2.97754	0.633354	4.77698				
0.298055	2.24566	0.278021	2.0803	0.509601	3.83991							0.394672	2.97039	0.633987	4.75905				
0.299257	2.24403	0.279403	2.08079	0.510321	3.8271							0.395608	2.96333	0.63462	4.74129				
0.300462	2.24242	0.280784	2.08127	0.511045	3.81444							0.396548	2.95637	0.635254	4.72371				
0.301667	2.24084	0.282166	2.08176	0.511771	3.80191							0.397491	2.94949	0.635888	4.70629				
0.302874	2.23929	0.283547	2.08223	0.5125	3.78952							0.398436	2.94269	0.636523	4.68904				
0.304083	2.23776	0.284928	2.0827	0.513232	3.77727							0.399385	2.93599	0.637159	4.67195				
0.305293	2.23626	0.286309	2.08316	0.513966	3.76515							0.400337	2.92937	0.637795	4.65503				
0.306505	2.23478	0.28769	2.08362	0.514704	3.75316							0.401292	2.92283	0.638432	4.63827				
0.307718	2.23333	0.289071	2.08408	0.515443	3.7413							0.40225	2.91637	0.63907	4.62167				
0.308933	2.2319	0.290451	2.08452	0.516186	3.72957							0.403211	2.90999	0.639709	4.60523				
0.310149	2.2305	0.291832	2.08497	0.516931	3.71796							0.404174	2.90369	0.640349	4.58894				
0.311367	2.22911	0.293212	2.08541	0.517679	3.70648							0.405141	2.89747	0.640989	4.57281				
0.312586	2.22775	0.294592	2.08584	0.51843	3.69513							0.406111	2.89133	0.641632	4.55683				
0.313806	2.22642	0.295972	2.08627	0.519183	3.68389							0.407083	2.88526	0.642275	4.541				
0.315028	2.2251	0.297352	2.08669	0.51994	3.67277							0.408058	2.87926	0.642919	4.52532				
0.316251	2.22381	0.298732	2.08711	0.520698	3.66177							0.409036	2.87334	0.643565	4.50979				
0.317476	2.22253	0.300112	2.08753	0.52146	3.65089							0.410017	2.86749	0.644212	4.4944				
0.318701	2.22128	0.301491	2.08794	0.522224	3.64012							0.411001	2.86171	0.64486	4.47916				
0.319928	2.22004	0.302871	2.08834	0.522991	3.62947							0.411987	2.85601	0.64551	4.46406				
0.321157	2.21883	0.30425	2.08875	0.523761	3.61893							0.412976	2.85037	0.646161	4.44911				
0.322386	2.21763	0.305629	2.08914	0.524533	3.60849							0.413968	2.84479	0.646814	4.43429				
0.323617	2.21646	0.307008	2.08954	0.525308	3.59817							0.414963	2.83929	0.647468	4.41961				
0.324849	2.2153	0.308387	2.08993	0.526085	3.58795							0.41596	2.83385	0.648123	4.40507				
0.326082	2.21416	0.309766	2.09031	0.526866	3.57784							0.41696	2.82847	0.64878	4.39066				
0.327317	2.21304	0.311145	2.09069	0.527649	3.56783							0.417962	2.82316	0.649439	4.37639				
0.328552	2.21193	0.312523	2.09107	0.528434	3.55793							0.418968	2.81791	0.650099	4.36225				
0.329789	2.21085	0.313902	2.09144	0.529223	3.54813							0.419975	2.81273	0.650761	4.34823				
0.331027	2.20978	0.31528	2.09181	0.530013	3.53843							0.420986	2.8076	0.651425	4.33435				
0.332266	2.20872	0.316658	2.09218	0.530807	3.52882							0.421999	2.80254	0.65209	4.32059				
0.333507	2.20769	0.318036	2.09254	0.531603	3.51932							0.423014	2.79753	0.652757	4.30697				
0.334748	2.20667	0.319414	2.09289	0.532402	3.50991							0.424032	2.79258	0.653425	4.29346				
0.33599	2.20566	0.320792	2.09325	0.533203	3.5006							0.425053	2.78769	0.654096	4.28008				
0.337234	2.20467	0.32217	2.0936	0.534007	3.49138							0.426076	2.78286	0.654768	4.26682				
0.338479	2.2037	0.323547	2.09394	0.534814	3.48225							0.427101	2.77808	0.655442	4.25368				
0.339724	2.20274	0.324925	2.09429	0.535623	3.47322							0.428129	2.77336	0.656117	4.24066				
0.340971	2.20179	0.326302	2.09462	0.536435	3.46428							0.42916	2.76869	0.656795	4.22775				
0.342219	2.20086	0.327679	2.09496	0.537249	3.45542							0.430192	2.76407	0.657474	4.21497				
0.343468	2.19994	0.329057	2.09529	0.538066	3.44666							0.431227	2.75951	0.658155	4.2023				
0.344717	2.19904	0.330434	2.09562	0.538885	3.43798							0.432265	2.755	0.658838	4.18974				
0.345968	2.19815	0.331811	2.09595	0.539707	3.42938							0.433305	2.75054	0.659523	4.17729				
0.34722	2.19727	0.333187	2.09627	0.540531	3.42087							0.434347	2.74613	0.66021	4.16496				
0.348473	2.19641	0.334564	2.09659	0.541358	3.41245							0.435392	2.74177	0.660898	4.15273				
0.349726	2.19556	0.33594	2.0969	0.542188	3.40411							0.436439	2.73746	0.661589	4.14062				
0.350981	2.19472	0.337317	2.09721	0.54302	3.39585							0.437488	2.7332	0.662281	4.12861				
0.352237	2.1939	0.338693	2.09752	0.543854	3.38767							0.438539	2.72899	0.662976	4.1167				
0.353493	2.19308	0.340069	2.09783	0.544691	3.37956							0.439593	2.72482	0.663672	4.10491				
0.35475	2.19228	0.341446	2.09813	0.545531	3.37154							0.440649	2.7207	0.66437	4.09321				
0.356009	2.19149	0.342821	2.09843	0.546373	3.3636							0.441707	2.71662	0.66507	4.08162				
0.357268	2.19072	0.344197	2.09873	0.547217	3.35573							0.442767	2.71259	0.665772	4.07013				
0.358528	2.18995	0.345573	2.09902	0.548064	3.34794							0.44383	2.70861	0.666476	4.05874				
0.359789	2.1892	0.346949	2.09931	0.548913	3.34022							0.444895	2.70467	0.667182	4.04746				
0.361051	2.18845	0.348324	2.0996	0.549765	3.33258							0.445962	2.70077	0.66789	4.03626				
0.362314	2.18772	0.3497	2.09989	0.550619	3.32501							0.447031	2.69691	0.6686	4.02517				
0.363577	2.187	0.351075	2.10017	0.551476	3.31751							0.448102	2.6931	0.669312	4.01417				
0.364841	2.18628	0.35245	2.10045	0.552335	3.31009							0.449175	2.68933	0.670026	4.00327				
0.366107	2.18558	0.353825	2.10073	0.553196	3.30273							0.450251	2.6856	0.670742	3.99246				
0.367373	2.18489	0.3552	2.101	0.55406	3.29544							0.451328	2.68191	0.67146	3.98174				
0.368639	2.18421	0.356575	2.10127	0.554926	3.28823							0.452408	2.67826	0.67218	3.97112				
0.369907	2.18354	0.35795	2.10154	0.555794	3.28108							0.453489	2.67465	0.672902	3.96058				
0.371175	2.18287	0.359324	2.10181	0.556665	3.27399							0.454573	2.67107	0.673625	3.95014				
0.372444	2.18222	0.360699	2.10207	0.557538	3.26698							0.455658	2.66754	0.674351	3.93978				
0.373714	2.18158	0.362073	2.10233	0.558414	3.26002							0.456746	2.66404	0.675079	3.92952				
0.374985	2.18094	0.363448	2.10259	0.559292	3.25314							0.457836	2.66058	0.675809	3.91934				
0.376257	2.18032	0.364822	2.10285	0.560172	3.24631							0.458927	2.65716	0.676541	3.90924				
0.377529	2.1797	0.366196	2.1031	0.561054	3.23955							0.460021	2.65377	0.677275	3.89923				
0.378802	2.17909	0.36757	2.10335	0.561939	3.23286							0.461116	2.65042	0.678011	3.88931				
0.380075	2.17849	0.368944	2.1036	0.562826	3.22622							0.462214	2.64711	0.678749	3.87947				
0.381349	2.1779	0.370317	2.10384	0.563715	3.21965							0.463313	2.64383	0.679489	3.86971				
0.382625	2.17732	0.371691	2.10409	0.564607	3.21313							0.464414	2.64058	0.680231	3.86003				
0.3839	2.17675	0.373065	2.10433	0.565501	3.20668							0.465517	2.63737	0.680975	3.85043				
0.385177	2.17618	0.374438	2.10457	0.566397	3.20028							0.466622	2.63419	0.68172	3.84091				
0.386454	2.17562	0.375811	2.10481	0.567295	3.19394							0.467729	2.63105	0.682468	3.83148				
0.387732	2.17507	0.377184	2.10504	0.568195	3.18766							0.468838	2.62794	0.683218	3.82212				
0.38901	2.17453	0.378558	2.10527	0.569098	3.18144							0.469949	2.62485	0.68397	3.81283				
0.390289	2.17399	0.379931	2.1055	0.570003	3.17527							0.471061	2.62181	0.684724	3.80363				
0.391569	2.17346	0.381303	2.10573	0.57091	3.16916							0.472175	2.61879	0.68548	3.79449				
0.392849	2.17294	0.382676	2.10596	0.571819	3.1631							0.473291	2.6158	0.686238	3.78544				
0.39413	2.17243	0.384049	2.10618	0.572731	3.1571							0.474409	2.61285	0.686999	3.77645				
0.395412	2.17192	0.385421	2.1064	0.573644	3.15115							0.475528	2.60992	0.687761	3.76754				
0.396694	2.17142	0.386794	2.10662	0.57456	3.14525							0.47665	2.60703	0.688525	3.75871				
0.397977	2.17093	0.388166	2.10684	0.575478	3.13941							0.477773	2.60416	0.689291	3.74994				
0.399261	2.17044	0.389538	2.10705	0.576398	3.13361							0.478898	2.60132	0.690059	3.74125				
0.400545	2.16996	0.390911	2.10726	0.57732	3.12787							0.480024	2.59852	0.690829	3.73262				
0.40183	2.16949	0.392283	2.10748	0.578245	3.12218							0.481152	2.59574	0.691601	3.72407				
0.403115	2.16902	0.393655	2.10768	0.579171	3.11654							0.482282	2.59298	0.692375	3.71558				
0.404401	2.16856	0.395026	2.10789	0.580099	3.11095							0.483414	2.59026	0.693151	3.70717				
0.405687	2.16811	0.396398	2.1081	0.58103	3.10541							0.484547	2.58756	0.693929	3.69881				
0.406974	2.16766	0.39777	2.1083	0.581963	3.09991							0.485682	2.58489	0.694709	3.69053				
0.408262	2.16722	0.399141	2.1085	0.582897	3.09447							0.486818	2.58225	0.69549	3.68231				
0.40955	2.16678	0.400513	2.1087	0.583834	3.08907							0.487956	2.57963	0.696274	3.67416				
0.410839	2.16635	0.401884	2.1089	0.584773	3.08372							0.489096	2.57704	0.69706	3.66607				
0.412128	2.16592	0.403255	2.10909	0.585714	3.07841							0.490238	2.57448	0.697848	3.65805				
0.413418	2.1655	0.404626	2.10929	0.586656	3.07315							0.491381	2.57194	0.698638	3.65009				
0.414709	2.16509	0.405997	2.10948	0.587601	3.06793							0.492525	2.56942	0.69943	3.64219				
0.415999	2.16468	0.407368	2.10967	0.588548	3.06276							0.493671	2.56693	0.700223	3.63435				
0.417291	2.16428	0.408739	2.10986	0.589497	3.05764							0.494819	2.56447	0.701019	3.62658				
0.418583	2.16388	0.41011	2.11005	0.590448	3.05256							0.495968	2.56203	0.701816	3.61886				
0.419875	2.16349	0.41148	2.11023	0.591401	3.04752							0.497119	2.55961	0.702616	3.61121				
0.421168	2.1631	0.412851	2.11041	0.592355	3.04252							0.498271	2.55721	0.703418	3.60361				
0.422462	2.16272	0.414221	2.1106	0.593312	3.03757							0.499425	2.55484	0.704221	3.59608				
0.423756	2.16234	0.415592	2.11078	0.594271	3.03266							0.500581	2.5525	0.705026	3.5886				
0.42505	2.16197	0.416962	2.11095	0.595231	3.02779							0.501738	2.55017	0.705834	3.58118				
0.426345	2.16161	0.418332	2.11113	0.596194	3.02296							0.502896	2.54787	0.706643	3.57382				
0.42764	2.16124	0.419702	2.11131	0.597158	3.01817							0.504056	2.54559	0.707454	3.56651				
0.428936	2.16089	0.421072	2.11148	0.598125	3.01342							0.505217	2.54333	0.708267	3.55926				
0.430233	2.16053	0.422442	2.11165	0.599093	3.00871							0.50638	2.54109	0.709082	3.55207				
0.43153	2.16018	0.423811	2.11182	0.600063	3.00404							0.507544	2.53888	0.709899	3.54493				
0.432827	2.15984	0.425181	2.11199	0.601035	2.99941							0.50871	2.53668	0.710717	3.53785				
0.434125	2.1595	0.42655	2.11216	0.602009	2.99482							0.509877	2.53451	0.711538	3.53081				
0.435423	2.15917	0.42792	2.11232	0.602985	2.99027							0.511045	2.53235	0.712361	3.52384				
0.436722	2.15884	0.429289	2.11249	0.603962	2.98575							0.512215	2.53022	0.713185	3.51691				
0.438021	2.15851	0.430658	2.11265	0.604942	2.98127							0.513386	2.52811	0.714011	3.51004				
0.43932	2.15819	0.432027	2.11281	0.605923	2.97683							0.514559	2.52602	0.714839	3.50322				
0.44062	2.15787	0.433396	2.11297	0.606906	2.97242							0.515733	2.52394	0.71567	3.49645				
0.441921	2.15755	0.434765	2.11313	0.607891	2.96805							0.516909	2.52189	0.716501	3.48973				
0.443221	2.15724	0.436134	2.11329	0.608878	2.96372							0.518085	2.51986	0.717335	3.48306				
0.444523	2.15694	0.437503	2.11344	0.609867	2.95942							0.519263	2.51784	0.718171	3.47644				
0.445824	2.15664	0.438871	2.1136	0.610857	2.95516							0.520443	2.51585	0.719008	3.46987				
0.447126	2.15634	0.44024	2.11375	0.611849	2.95093							0.521624	2.51387	0.719848	3.46335				
0.448429	2.15604	0.441608	2.1139	0.612843	2.94673							0.522806	2.51191	0.720689	3.45688				
0.449732	2.15575	0.442977	2.11405	0.613839	2.94257							0.523989	2.50997						
0.451035	2.15546	0.444345	2.1142	0.614836	2.93844							0.525174	2.50804						
0.452339	2.15518	0.445713	2.11434	0.615835	2.93435							0.52636	2.50614						
0.453643	2.1549	0.447081	2.11449	0.616836	2.93029							0.527547	2.50425						
0.454947	2.15462	0.448449	2.11463	0.617839	2.92626							0.528736	2.50238						
0.456252	2.15435	0.449817	2.11478	0.618843	2.92226							0.529926	2.50053						
0.457557	2.15408	0.451185	2.11492	0.619849	2.9183							0.531117	2.49869						
0.458863	2.15381	0.452552	2.11506	0.620857	2.91436							0.532309	2.49687						
0.460169	2.15355	0.45392	2.1152	0.621866	2.91046							0.533503	2.49507						
0.461475	2.15329	0.455287	2.11534	0.622877	2.90659							0.534698	2.49328						
0.462782	2.15304	0.456655	2.11547	0.62389	2.90275							0.535894	2.49151						
0.464089	2.15278	0.458022	2.11561	0.624905	2.89894							0.537091	2.48976						
0.465397	2.15253	0.459389	2.11574	0.625921	2.89516							0.53829	2.48802						
0.466705	2.15228	0.460756	2.11588	0.626939	2.89141							0.539489	2.48629						
0.468013	2.15204	0.462123	2.11601	0.627958	2.88769							0.54069	2.48459						
0.469321	2.1518	0.46349	2.11614	0.628979	2.88399							0.541892	2.48289						
0.47063	2.15156	0.464857	2.11627	0.630002	2.88033							0.543095	2.48122						
0.471939	2.15133	0.466224	2.1164	0.631026	2.8767							0.5443	2.47956						
0.473249	2.15109	0.467591	2.11653	0.632052	2.87309							0.545505	2.47791						
0.474559	2.15086	0.468957	2.11665	0.63308	2.86951							0.546712	2.47628						
0.475869	2.15064	0.470324	2.11678	0.634109	2.86596							0.54792	2.47466						
0.477179	2.15041	0.47169	2.1169	0.63514	2.86244							0.549129	2.47305						
0.47849	2.15019	0.473056	2.11702	0.636172	2.85894							0.550339	2.47146						
0.479801	2.14997	0.474422	2.11714	0.637206	2.85547							0.55155	2.46989						
0.481113	2.14976	0.475789	2.11727	0.638241	2.85203							0.552763	2.46833						
0.482425	2.14955	0.477155	2.11738	0.639278	2.84861							0.553976	2.46678						
0.483737	2.14934	0.47852	2.1175	0.640317	2.84522							0.555191	2.46524						
0.485049	2.14913	0.479886	2.11762	0.641357	2.84185							0.556406	2.46372						
0.486362	2.14892	0.481252	2.11774	0.642399	2.83852							0.557623	2.46222						
0.487675	2.14872	0.482618	2.11785	0.643442	2.8352							0.558841	2.46072						
0.488988	2.14852	0.483983	2.11797	0.644486	2.83191							0.56006	2.45924						
0.490302	2.14832	0.485349	2.11808	0.645533	2.82865							0.56128	2.45777						
0.491616	2.14812	0.486714	2.11819	0.64658	2.82541							0.562501	2.45632						
0.49293	2.14793	0.488079	2.1183	0.647629	2.82219							0.563723	2.45487						
0.494244	2.14774	0.489445	2.11841	0.64868	2.819							0.564946	2.45344						
0.495559	2.14755	0.49081	2.11852	0.649732	2.81584							0.56617	2.45202						
0.496874	2.14736	0.492175	2.11863	0.650786	2.81269							0.567395	2.45062						
0.49819	2.14718	0.49354	2.11874	0.651841	2.80957							0.568622	2.44922						
0.499505	2.147	0.494905	2.11884	0.652898	2.80648							0.569849	2.44784						
0.500821	2.14682	0.496269	2.11895	0.653956	2.8034							0.571077	2.44647						
0.502137	2.14664	0.497634	2.11905	0.655015	2.80035							0.572306	2.44511						
0.503454	2.14646	0.498999	2.11916	0.656076	2.79732							0.573536	2.44376						
0.50477	2.14629	0.500363	2.11926	0.657138	2.79432							0.574768	2.44243						
0.506087	2.14612	0.501727	2.11936	0.658202	2.79134							0.576	2.4411						
0.507405	2.14595	0.503092	2.11946	0.659267	2.78837							0.577233	2.43979						
0.508722	2.14578	0.504456	2.11956	0.660334	2.78543							0.578467	2.43849						
0.51004	2.14562	0.50582	2.11966	0.661402	2.78252							0.579702	2.43719						
0.511358	2.14545	0.507184	2.11976	0.662471	2.77962							0.580938	2.43591						
0.512676	2.14529	0.508548	2.11986	0.663542	2.77674							0.582175	2.43464						
0.513995	2.14513	0.509912	2.11995	0.664614	2.77389							0.583413	2.43339						
0.515314	2.14497	0.511276	2.12005	0.665687	2.77105							0.584652	2.43214						
0.516633	2.14482	0.51264	2.12014	0.666762	2.76824							0.585892	2.4309						
0.517952	2.14466	0.514004	2.12024	0.667838	2.76545							0.587133	2.42967						
0.519271	2.14451	0.515367	2.12033	0.668916	2.76267							0.588374	2.42845						
0.520591	2.14436	0.516731	2.12042	0.669995	2.75992							0.589617	2.42725						
0.521911	2.14421	0.518094	2.12052	0.671075	2.75719							0.59086	2.42605						
0.523231	2.14406	0.519457	2.12061	0.672157	2.75447							0.592105	2.42486						
0.524552	2.14392	0.520821	2.1207	0.673239	2.75178							0.59335	2.42368						
0.525872	2.14378	0.522184	2.12078	0.674324	2.7491							0.594596	2.42251						
0.527193	2.14363	0.523547	2.12087	0.675409	2.74645							0.595843	2.42136						
0.528514	2.14349	0.52491	2.12096	0.676496	2.74381							0.597091	2.42021						
0.529836	2.14335	0.526273	2.12105	0.677584	2.74119							0.59834	2.41907						
0.531157	2.14322	0.527636	2.12113	0.678674	2.73859							0.59959	2.41794						
0.532479	2.14308	0.528998	2.12122	0.679764	2.73601							0.60084	2.41682						
0.533801	2.14295	0.530361	2.1213	0.680856	2.73345							0.602091	2.4157						
0.535123	2.14281	0.531724	2.12139	0.68195	2.7309							0.603344	2.4146						
0.536446	2.14268	0.533086	2.12147	0.683044	2.72838							0.604597	2.41351						
0.537768	2.14255	0.534449	2.12155	0.68414	2.72587							0.605851	2.41242						
0.539091	2.14243	0.535811	2.12163	0.685237	2.72338							0.607106	2.41135						
0.540414	2.1423	0.537173	2.12171	0.686335	2.7209							0.608361	2.41028						
0.541738	2.14217	0.538535	2.12179	0.687435	2.71844							0.609618	2.40922						
0.543061	2.14205	0.539898	2.12187	0.688536	2.716							0.610875	2.40817						
0.544385	2.14193	0.54126	2.12195	0.689638	2.71358							0.612133	2.40713						
0.545709	2.14181	0.542622	2.12203	0.690741	2.71118							0.613392	2.40609						
0.547033	2.14169	0.543983	2.12211	0.691846	2.70879							0.614651	2.40507						
0.548357	2.14157	0.545345	2.12218	0.692951	2.70641							0.615912	2.40405						
0.549682	2.14145	0.546707	2.12226	0.694058	2.70406							0.617173	2.40304						
0.551006	2.14134	0.548069	2.12233	0.695166	2.70172							0.618435	2.40204						
0.552331	2.14122	0.54943	2.12241	0.696276	2.69939							0.619698	2.40105						
0.553656	2.14111	0.550792	2.12248	0.697386	2.69709							0.620962	2.40006						
0.554981	2.141	0.552153	2.12256	0.698498	2.69479							0.622226	2.39908						
0.556307	2.14089	0.553514	2.12263	0.699611	2.69252							0.623491	2.39812						
0.557632	2.14078	0.554876	2.1227	0.700725	2.69026							0.624757	2.39715						
0.558958	2.14067	0.556237	2.12277	0.70184	2.68801							0.626024	2.3962						
0.560284	2.14057	0.557598	2.12284	0.702956	2.68578							0.627291	2.39525						
0.56161	2.14046	0.558959	2.12291	0.704074	2.68357							0.62856	2.39431						
0.562937	2.14036	0.56032	2.12298	0.705192	2.68137							0.629829	2.39338						
0.564263	2.14025	0.561681	2.12305	0.706312	2.67918							0.631098	2.39245						
0.56559	2.14015	0.563042	2.12312	0.707433	2.67701							0.632369	2.39154						
0.566917	2.14005	0.564403	2.12319	0.708555	2.67485							0.63364	2.39063						
0.568244	2.13995	0.565763	2.12325	0.709678	2.67271							0.634912	2.38972						
0.569571	2.13985	0.567124	2.12332	0.710802	2.67059							0.636184	2.38883						
0.570898	2.13976	0.568484	2.12339	0.711928	2.66847							0.637458	2.38794						
0.572226	2.13966	0.569845	2.12345	0.713054	2.66638							0.638732	2.38705						
0.573554	2.13956	0.571205	2.12352	0.714182	2.66429							0.640007	2.38618						
0.574882	2.13947	0.572566	2.12358	0.715311	2.66222							0.641282	2.38531						
0.57621	2.13938	0.573926	2.12364	0.716441	2.66016							0.642558	2.38445						
0.577538	2.13928	0.575286	2.12371	0.717571	2.65812							0.643835	2.38359						
0.578866	2.13919	0.576646	2.12377	0.718703	2.65609							0.645113	2.38274						
0.580195	2.1391	0.578006	2.12383	0.719837	2.65408							0.646391	2.3819						
0.581523	2.13901	0.579366	2.12389	0.720971	2.65207							0.64767	2.38106						
0.582852	2.13893	0.580726	2.12395									0.64895	2.38023						
0.584181	2.13884	0.582086	2.12401									0.65023	2.37941						
0.58551	2.13875	0.583445	2.12407									0.651511	2.37859						
0.58684	2.13867	0.584805	2.12413									0.652792	2.37778						
0.588169	2.13858	0.586165	2.12419									0.654075	2.37697						
0.589499	2.1385	0.587524	2.12425									0.655358	2.37618						
0.590828	2.13842	0.588884	2.12431									0.656641	2.37538						
0.592158	2.13834	0.590243	2.12436									0.657926	2.37459						
0.593488	2.13826	0.591602	2.12442									0.659211	2.37381						
0.594819	2.13818	0.592962	2.12448									0.660496	2.37304						
0.596149	2.1381	0.594321	2.12453									0.661782	2.37227						
0.597479	2.13802	0.59568	2.12459									0.663069	2.37151						
0.59881	2.13794	0.597039	2.12464									0.664357	2.37075						
0.600141	2.13787	0.598398	2.1247									0.665645	2.37						
0.601472	2.13779	0.599757	2.12475									0.666933	2.36925						
0.602803	2.13772	0.601116	2.1248									0.668223	2.36851						
0.604134	2.13764	0.602475	2.12486									0.669513	2.36777						
0.605465	2.13757	0.603833	2.12491									0.670803	2.36704						
0.606797	2.1375	0.605192	2.12496									0.672095	2.36632						
0.608128	2.13743	0.606551	2.12501									0.673386	2.3656						
0.60946	2.13736	0.607909	2.12506									0.674679	2.36488						
0.610792	2.13729	0.609268	2.12511									0.675972	2.36417						
0.612124	2.13722	0.610626	2.12516									0.677265	2.36347						
0.613456	2.13715	0.611984	2.12521									0.67856	2.36277						
0.614788	2.13708	0.613343	2.12526									0.679854	2.36208						
0.61612	2.13701	0.614701	2.12531									0.68115	2.36139						
0.617453	2.13695	0.616059	2.12536									0.682446	2.36071						
0.618785	2.13688	0.617417	2.1254									0.683742	2.36003						
0.620118	2.13682	0.618775	2.12545									0.685039	2.35936						
0.621451	2.13675	0.620133	2.1255									0.686337	2.35869						
0.622784	2.13669	0.621491	2.12555									0.687635	2.35802						
0.624117	2.13663	0.622849	2.12559									0.688934	2.35737						
0.62545	2.13657	0.624206	2.12564									0.690233	2.35671						
0.626783	2.1365	0.625564	2.12568									0.691533	2.35606						
0.628117	2.13644	0.626922	2.12573									0.692834	2.35542						
0.62945	2.13638	0.628279	2.12577									0.694135	2.35478						
0.630784	2.13632	0.629637	2.12582									0.695436	2.35414						
0.632118	2.13627	0.630994	2.12586									0.696739	2.35351						
0.633452	2.13621	0.632352	2.1259									0.698041	2.35288						
0.634786	2.13615	0.633709	2.12595									0.699344	2.35226						
0.63612	2.13609	0.635066	2.12599									0.700648	2.35165						
0.637454	2.13604	0.636424	2.12603									0.701952	2.35103						
0.638788	2.13598	0.637781	2.12607									0.703257	2.35042						
0.640123	2.13593	0.639138	2.12611									0.704563	2.34982						
0.641457	2.13587	0.640495	2.12616									0.705868	2.34922						
0.642792	2.13582	0.641852	2.1262									0.707175	2.34862						
0.644127	2.13577	0.643209	2.12624									0.708482	2.34803						
0.645461	2.13571	0.644566	2.12628									0.709789	2.34744						
0.646796	2.13566	0.645922	2.12632									0.711097	2.34686						
0.648131	2.13561	0.647279	2.12635									0.712405	2.34628						
0.649467	2.13556	0.648636	2.12639									0.713714	2.34571						
0.650802	2.13551	0.649992	2.12643									0.715024	2.34514						
0.652137	2.13546	0.651349	2.12647									0.716334	2.34457						
0.653473	2.13541	0.652706	2.12651									0.717644	2.34401						
0.654808	2.13536	0.654062	2.12655									0.718955	2.34345						
0.656144	2.13531	0.655418	2.12658									0.720267	2.34289						
0.65748	2.13526	0.656775	2.12662																
0.658815	2.13522	0.658131	2.12666																
0.660151	2.13517	0.659487	2.12669																
0.661487	2.13512	0.660843	2.12673																
0.662824	2.13508	0.6622	2.12676																
0.66416	2.13503	0.663556	2.1268																
0.665496	2.13499	0.664912	2.12683																
0.666832	2.13494	0.666268	2.12687																
0.668169	2.1349	0.667624	2.1269																
0.669506	2.13485	0.668979	2.12694																
0.670842	2.13481	0.670335	2.12697																
0.672179	2.13477	0.671691	2.127																
0.673516	2.13473	0.673047	2.12704																
0.674853	2.13468	0.674402	2.12707																
0.67619	2.13464	0.675758	2.1271																
0.677527	2.1346	0.677114	2.12713																
0.678864	2.13456	0.678469	2.12717																
0.680201	2.13452	0.679824	2.1272																
0.681539	2.13448	0.68118	2.12723																
0.682876	2.13444	0.682535	2.12726																
0.684214	2.1344	0.68389	2.12729																
0.685551	2.13437	0.685246	2.12732																
0.686889	2.13433	0.686601	2.12735																
0.688227	2.13429	0.687956	2.12738																
0.689565	2.13425	0.689311	2.12741																
0.690902	2.13422	0.690666	2.12744																
0.69224	2.13418	0.692021	2.12747																
0.693579	2.13414	0.693376	2.1275																
0.694917	2.13411	0.694731	2.12753																
0.696255	2.13407	0.696086	2.12756																
0.697593	2.13404	0.697441	2.12758																
0.698932	2.134	0.698795	2.12761																
0.70027	2.13397	0.70015	2.12764																
0.701609	2.13394	0.701505	2.12767																
0.702947	2.1339	0.702859	2.12769																
0.704286	2.13387	0.704214	2.12772																
0.705625	2.13384	0.705568	2.12775																
0.706963	2.1338	0.706923	2.12777																
0.708302	2.13377	0.708277	2.1278																
0.709641	2.13374	0.709632	2.12783																
0.71098	2.13371	0.710986	2.12785																
0.712319	2.13368	0.71234	2.12788																
0.713658	2.13365	0.713695	2.1279																
0.714998	2.13362	0.715049	2.12793																
0.716337	2.13359	0.716403	2.12795																
0.717676	2.13356	0.717757	2.12798																
0.719016	2.13353	0.719111	2.128																
0.720355	2.1335	0.720465	2.12803																
