Sym0		Asym0		Sym1		Sym2		Sym3		Sym4		Asym1		Asym2		Asym3		Asym4	
547  Points		546  Points		446  Points		217  Points		202  Points		153  Points		497  Points		360  Points		203  Points		149  Points	
Freq (MHz)	Vph (m/ms)	Freq (MHz)	Vph (m/ms)	Freq (MHz)	Vph (m/ms)	Freq (MHz)	Vph (m/ms)	Freq (MHz)	Vph (m/ms)	Freq (MHz)	Vph (m/ms)	Freq (MHz)	Vph (m/ms)	Freq (MHz)	Vph (m/ms)	Freq (MHz)	Vph (m/ms)	Freq (MHz)	Vph (m/ms)
0.00281557	5.4166	0.000205546	0.126974	0.168884	286.488	0.279515	865.541	0.506662	2590.66	0.55902	2359.47	0.139754	2947.63	0.337775	2013.88	0.41928	695.974	0.675537	1406.55
0.00624116	5.41646	0.000396668	0.176198	0.168874	138.2	0.279565	292.618	0.506648	611.872	0.559054	643.048	0.139807	205.638	0.337767	422.115	0.419337	339.573	0.675482	607.046
0.00966636	5.4162	0.000649145	0.225107	0.168857	91.0571	0.279664	176.128	0.506616	346.882	0.559128	372.296	0.13995	106.643	0.33775	235.754	0.419432	224.614	0.675384	386.997
0.0130909	5.4158	0.000961991	0.273591	0.168833	67.89	0.279813	126.025	0.506567	242.036	0.559241	262.026	0.140183	72.0818	0.337723	163.539	0.419566	167.839	0.675244	283.997
0.0165145	5.41527	0.00133399	0.321551	0.168803	54.1153	0.28001	98.1543	0.506501	185.845	0.559393	202.184	0.140506	54.5181	0.337686	125.183	0.419738	134.005	0.675065	224.266
0.0199372	5.41464	0.00176382	0.368917	0.168767	44.9831	0.280257	80.4131	0.506419	150.816	0.559583	164.622	0.140918	43.9038	0.33764	101.393	0.419948	111.548	0.674849	185.268
0.0233584	5.41388	0.00224991	0.415607	0.168724	38.4843	0.280552	68.1336	0.50632	126.888	0.559811	138.854	0.141417	36.8067	0.337585	85.196	0.420196	95.5606	0.674599	157.8
0.026778	5.41299	0.00279064	0.461568	0.168677	33.6231	0.280895	59.1341	0.506206	109.503	0.560077	120.082	0.142002	31.7351	0.337521	73.4555	0.420482	83.601	0.674318	137.406
0.0301958	5.41197	0.00338421	0.506736	0.168625	29.8496	0.281285	52.2584	0.506077	96.3	0.56038	105.801	0.142671	27.9361	0.337449	64.5543	0.420805	74.3198	0.67401	121.664
0.0336113	5.41079	0.00402867	0.551049	0.168568	26.8352	0.281723	46.8364	0.505934	85.9311	0.560719	94.5718	0.143424	24.9888	0.337369	57.5732	0.421164	66.9095	0.673677	109.144
0.0370244	5.40948	0.00472204	0.594464	0.168509	24.3719	0.282207	42.4531	0.505777	77.5717	0.561093	85.5131	0.144256	22.6392	0.337281	51.9511	0.42156	60.8576	0.673323	98.9477
0.0404347	5.40801	0.00546236	0.636949	0.168446	22.3211	0.282737	38.8378	0.505608	70.6888	0.561501	78.052	0.145168	20.7252	0.337186	47.3262	0.421992	55.8231	0.672949	90.4831
0.0438418	5.40638	0.00624744	0.67846	0.168382	20.5872	0.283312	35.8061	0.505426	64.9227	0.561944	71.8011	0.146156	19.1382	0.337085	43.4545	0.422459	51.5703	0.67256	83.3434
0.0472453	5.40458	0.00707533	0.718985	0.168317	19.1021	0.283932	33.2285	0.505234	60.0218	0.562419	66.4889	0.147218	17.8028	0.336977	40.1659	0.42296	47.931	0.672157	77.2399
0.0506448	5.40259	0.00794385	0.758494	0.168252	17.8159	0.284596	31.0109	0.505031	55.8048	0.562927	61.9193	0.148351	16.6653	0.336864	37.3377	0.423496	44.7821	0.671743	71.9623
0.0540399	5.40041	0.00885092	0.796975	0.168188	16.6913	0.285304	29.0836	0.504819	52.1378	0.563466	57.9473	0.149554	15.686	0.336747	34.8795	0.424065	42.0313	0.67132	67.3535
0.05743	5.39802	0.00979448	0.834418	0.168126	15.6998	0.286053	27.3939	0.504599	48.9196	0.564035	54.4634	0.150824	14.8351	0.336625	32.7233	0.424667	39.6081	0.670889	63.294
0.0608145	5.3954	0.0107726	0.870827	0.168067	14.8191	0.286844	25.9009	0.504371	46.0726	0.564633	51.3832	0.152158	14.0898	0.336499	30.8164	0.425302	37.4577	0.670453	59.6912
0.0641928	5.39254	0.0117833	0.906196	0.168013	14.0318	0.287676	24.5727	0.504137	43.536	0.56526	48.6407	0.153553	13.4323	0.33637	29.1181	0.425968	35.5369	0.670013	56.4722
0.0675643	5.38942	0.0128245	0.940528	0.167965	13.3241	0.288548	23.3839	0.503897	41.2616	0.565914	46.1836	0.155009	12.8488	0.33624	27.596	0.426665	33.811	0.66957	53.5787
0.0709279	5.38601	0.0138946	0.973838	0.167924	12.6844	0.289459	22.3141	0.503652	39.2109	0.566595	43.9697	0.156521	12.3278	0.336108	26.2239	0.427392	32.2522	0.669125	50.9639
0.074283	5.38229	0.0149918	1.00613	0.167893	12.1038	0.290408	21.3465	0.503403	37.3524	0.567302	41.9649	0.158088	11.8604	0.335975	24.9808	0.428149	30.8376	0.66868	48.5894
0.0776284	5.37823	0.0161142	1.03743	0.167871	11.5745	0.291394	20.4675	0.503152	35.6602	0.568034	40.141	0.159707	11.4391	0.335841	23.8494	0.428935	29.5482	0.668236	46.4236
0.0809629	5.37378	0.0172604	1.06774	0.167863	11.0903	0.292417	19.6657	0.502898	34.1131	0.56879	38.4749	0.161375	11.0577	0.335709	22.8153	0.429749	28.3683	0.667793	44.4403
0.0842853	5.36892	0.0184287	1.0971	0.167869	10.6459	0.293476	18.9316	0.502642	32.6932	0.569569	36.947	0.163092	10.7112	0.335578	21.8665	0.430591	27.2847	0.667353	42.6172
0.0875938	5.36359	0.0196177	1.1255	0.167891	10.2367	0.294569	18.2573	0.502386	31.3855	0.570372	35.5409	0.164854	10.3951	0.335449	20.9929	0.431459	26.2863	0.666915	40.936
0.0908869	5.35774	0.020826	1.15299	0.167932	9.85903	0.295696	17.6358	0.50213	30.1772	0.571196	34.2428	0.166659	10.1059	0.335322	20.1861	0.432354	25.3636	0.666482	39.3806
0.0941624	5.35132	0.0220522	1.17957	0.167995	9.50963	0.296855	17.0614	0.501875	29.0574	0.572041	33.0407	0.168506	9.84049	0.335199	19.4386	0.433275	24.5083	0.666053	37.9375
0.0974179	5.34425	0.0232952	1.20528	0.168083	9.18574	0.298047	16.5291	0.501622	28.0168	0.572907	31.9245	0.170391	9.59617	0.335081	18.7442	0.434221	23.7134	0.665629	36.5951
0.100651	5.33644	0.0245536	1.23014	0.168199	8.88497	0.29927	16.0345	0.50137	27.0473	0.573793	30.8854	0.172314	9.37069	0.334967	18.0976	0.435191	22.9729	0.66521	35.3431
0.103857	5.3278	0.0258265	1.25417	0.168347	8.60529	0.300523	15.5739	0.501122	26.142	0.574698	29.9157	0.174272	9.16205	0.334859	17.494	0.436185	22.2815	0.664798	34.1729
0.107034	5.31822	0.0271127	1.2774	0.168531	8.34493	0.301806	15.144	0.500877	25.2947	0.575621	29.0087	0.176263	8.96853	0.334758	16.9293	0.437202	21.6345	0.664392	33.0767
0.110177	5.30757	0.0284112	1.29985	0.168757	8.10237	0.303117	14.742	0.500637	24.5	0.576563	28.1587	0.178286	8.78864	0.334664	16.4	0.438242	21.0279	0.663992	32.0477
0.113279	5.2957	0.0297213	1.32154	0.168992	7.9045	0.304456	14.3652	0.500401	23.7533	0.577522	27.3604	0.180339	8.62105	0.334578	15.9029	0.439303	20.458	0.6636	31.0801
0.116336	5.28242	0.0310419	1.34251	0.169224	7.74515	0.305821	14.0115	0.50017	23.0503	0.578498	26.6093	0.18242	8.46459	0.3345	15.4352	0.440386	19.9216	0.663216	30.1684
0.11934	5.26755	0.0323723	1.36277	0.16944	7.61957	0.307213	13.6789	0.499946	22.3875	0.57949	25.9015	0.184527	8.31825	0.334432	14.9945	0.44149	19.4161	0.662839	29.3081
0.122282	5.25083	0.0337117	1.38235	0.169629	7.52409	0.30863	13.3656	0.499728	21.7614	0.580498	25.2332	0.186658	8.18109	0.334375	14.5785	0.442614	18.9387	0.662471	28.495
0.125153	5.23203	0.0350595	1.40128	0.169777	7.45597	0.310072	13.0701	0.499517	21.1692	0.581522	24.6014	0.188813	8.05232	0.334328	14.1853	0.443758	18.4874	0.662111	27.7253
0.127942	5.21083	0.0364149	1.41957	0.169877	7.41329	0.311537	12.7908	0.499313	20.6082	0.582561	24.0031	0.190989	7.93121	0.334293	13.8132	0.44492	18.06	0.66176	26.9956
0.130636	5.18693	0.0377773	1.43724	0.170027	7.35316	0.313024	12.5266	0.499117	20.076	0.583614	23.4358	0.193185	7.8171	0.334271	13.4605	0.446102	17.6547	0.661418	26.3031
0.133221	5.16001	0.0391461	1.45433	0.1702	7.28943	0.314534	12.2764	0.49893	19.5707	0.584681	22.8971	0.195114	7.72291	0.334262	13.1258	0.447301	17.2699	0.661085	25.6448
0.135684	5.12975	0.040521	1.47084	0.170452	7.20541	0.316065	12.0389	0.498752	19.0901	0.585762	22.385	0.196768	7.6462	0.334267	12.808	0.448518	16.9041	0.660762	25.0185
0.138012	5.09589	0.0419012	1.48681	0.170799	7.10344	0.317617	11.8134	0.498584	18.6326	0.586856	21.8976	0.198143	7.5851	0.334288	12.5057	0.449752	16.556	0.660449	24.4218
0.14019	5.05821	0.0432864	1.50225	0.171267	6.9864	0.319188	11.599	0.498425	18.1966	0.587963	21.4331	0.199234	7.53822	0.334324	12.218	0.451003	16.2243	0.660146	23.8528
0.142211	5.01663	0.0446761	1.51718	0.17189	6.85762	0.320779	11.3949	0.498277	17.7806	0.589082	20.9899	0.200038	7.50452	0.334377	11.9439	0.452269	15.9079	0.659853	23.3095
0.144067	4.97119	0.0458905	1.52979	0.172713	6.72087	0.322387	11.2004	0.498139	17.3834	0.590214	20.5668	0.200554	7.48328	0.334449	11.6825	0.453551	15.6058	0.65957	22.7903
0.145757	4.92209	0.0469281	1.54025	0.173665	6.59562	0.324013	11.0149	0.498013	17.0037	0.591357	20.1623	0.201297	7.45319	0.334538	11.433	0.454849	15.3171	0.659299	22.2938
0.147284	4.86968	0.0477875	1.54871	0.174762	6.48158	0.325656	10.8377	0.497899	16.6405	0.592512	19.7752	0.202105	7.42107	0.334648	11.1948	0.45616	15.041	0.659038	21.8183
0.148658	4.81443	0.048468	1.55528	0.176016	6.37847	0.327315	10.6684	0.497797	16.2927	0.593677	19.4045	0.203207	7.37832	0.334778	10.9671	0.457487	14.7766	0.658788	21.3628
0.14989	4.75687	0.0489688	1.56004	0.177438	6.28592	0.328989	10.5064	0.497707	15.9594	0.594854	19.0492	0.204605	7.32573	0.33493	10.7494	0.458826	14.5231	0.65855	20.9259
0.150992	4.69758	0.0492895	1.56306	0.179034	6.20349	0.330678	10.3512	0.49763	15.6397	0.596041	18.7083	0.206301	7.26426	0.335105	10.541	0.460179	14.2801	0.658323	20.5065
0.151982	4.63712	0.0497508	1.56736	0.180808	6.13061	0.33238	10.2025	0.497567	15.333	0.597238	18.381	0.208297	7.19491	0.335303	10.3415	0.461545	14.0468	0.658107	20.1038
0.152873	4.57601	0.0502527	1.57199	0.182758	6.06661	0.334096	10.0599	0.497518	15.0384	0.598445	18.0665	0.210595	7.11877	0.335528	10.1505	0.462923	13.8227	0.657904	19.7166
0.15368	4.5147	0.0509356	1.57818	0.184875	6.0107	0.335824	9.92297	0.497483	14.7552	0.599662	17.764	0.2129	7.04604	0.335778	9.96733	0.464313	13.6072	0.657713	19.3443
0.154417	4.45359	0.0518003	1.58588	0.187149	5.96205	0.337563	9.79139	0.497463	14.483	0.600888	17.473	0.21521	6.97646	0.336056	9.79176	0.465715	13.3999	0.657534	18.9858
0.155093	4.39298	0.0528472	1.59499	0.189567	5.9198	0.339314	9.66486	0.497458	14.221	0.602122	17.1927	0.217523	6.90978	0.336364	9.62337	0.467128	13.2004	0.657368	18.6406
0.155721	4.33313	0.054077	1.60541	0.192114	5.88313	0.341075	9.5431	0.497469	13.9687	0.603366	16.9226	0.219838	6.84579	0.336701	9.46183	0.468551	13.0081	0.657214	18.3079
0.156308	4.27424	0.05549	1.617	0.194774	5.85127	0.342845	9.42584	0.497496	13.7257	0.604618	16.6622	0.222154	6.78428	0.337071	9.30682	0.469984	12.8227	0.657074	17.9871
0.156862	4.21647	0.056905	1.62822	0.197533	5.82353	0.344624	9.31282	0.49754	13.4915	0.605878	16.4108	0.224468	6.72506	0.337475	9.15803	0.471428	12.6439	0.656947	17.6776
0.15739	4.15993	0.0583216	1.63909	0.200379	5.79929	0.346411	9.20381	0.497601	13.2657	0.607146	16.1682	0.226779	6.66796	0.337913	9.0152	0.47288	12.4714	0.656833	17.3787
0.157896	4.1047	0.0597397	1.64963	0.203299	5.77805	0.348206	9.09859	0.497679	13.0478	0.608421	15.9338	0.229085	6.6128	0.338389	8.87808	0.474342	12.3047	0.656732	17.0901
0.158386	4.05082	0.0611591	1.65983	0.206284	5.75933	0.350007	8.99697	0.497776	12.8374	0.609704	15.7073	0.231385	6.55942	0.338902	8.74643	0.475812	12.1436	0.656646	16.8112
0.158862	3.99834	0.0625796	1.66972	0.209323	5.74278	0.351813	8.89874	0.497891	12.6343	0.610994	15.4881	0.233676	6.5077	0.339456	8.62003	0.47729	11.9878	0.656573	16.5415
0.15927	3.95376	0.064001	1.67931	0.212409	5.72807	0.353625	8.80373	0.498025	12.4381	0.612291	15.2761	0.235957	6.45748	0.340053	8.49867	0.478776	11.8371	0.656515	16.2806
0.159613	3.9166	0.0654233	1.68861	0.215537	5.71494	0.355441	8.71177	0.498179	12.2485	0.613594	15.0708	0.238226	6.40865	0.340693	8.38218	0.48027	11.6912	0.656471	16.0281
0.159895	3.88646	0.0668462	1.69762	0.2187	5.70316	0.357261	8.62271	0.498353	12.0651	0.614903	14.8719	0.24048	6.36107	0.341378	8.27036	0.48177	11.5499	0.656442	15.7837
0.160117	3.86301	0.0682698	1.70637	0.221893	5.69255	0.359083	8.53639	0.498548	11.8878	0.616219	14.6792	0.242719	6.31463	0.342112	8.16306	0.483276	11.413	0.656428	15.5469
0.160279	3.84597	0.0696938	1.71485	0.225113	5.68294	0.360908	8.45267	0.498764	11.7163	0.61754	14.4924	0.244938	6.26923	0.342792	8.07311	0.484789	11.2802	0.656429	15.3175
0.160383	3.83516	0.0711182	1.72308	0.228355	5.67421	0.362733	8.37143	0.499002	11.5503	0.618867	14.3111	0.247138	6.22476	0.343402	7.99897	0.486307	11.1514	0.656446	15.0951
0.160532	3.81975	0.0725428	1.73107	0.231618	5.66624	0.364559	8.29253	0.499262	11.3896	0.620199	14.1352	0.249315	6.18112	0.343928	7.93938	0.48783	11.0264	0.656478	14.8795
0.160694	3.80316	0.0739676	1.73883	0.234899	5.65894	0.366385	8.21587	0.499545	11.234	0.621536	13.9643	0.251467	6.13823	0.344358	7.89334	0.489358	10.9051	0.656526	14.6703
0.160915	3.78089	0.0753925	1.74636	0.238195	5.65222	0.36821	8.14132	0.499852	11.0832	0.622878	13.7984	0.253592	6.09599	0.344683	7.86009	0.490891	10.7872	0.656591	14.4672
0.161193	3.75317	0.0768175	1.75368	0.241504	5.64602	0.369798	8.078	0.500184	10.9372	0.624225	13.6372	0.255687	6.05432	0.344895	7.83907	0.492427	10.6726	0.656672	14.2702
0.161531	3.72034	0.0782424	1.76079	0.244826	5.64028	0.371151	8.02518	0.50054	10.7957	0.625575	13.4804	0.257752	6.01316	0.345204	7.80921	0.493967	10.5612	0.656769	14.0788
0.161928	3.68275	0.0796672	1.76769	0.248158	5.63493	0.372268	7.98228	0.500921	10.6585	0.62693	13.328	0.259783	5.97241	0.345547	7.77723	0.495509	10.4529	0.656884	13.8929
0.162388	3.64082	0.0810919	1.7744	0.251499	5.62995	0.37315	7.94884	0.501329	10.5255	0.628288	13.1797	0.261778	5.93203	0.346025	7.73452	0.497055	10.3474	0.657016	13.7123
0.162851	3.60015	0.0825164	1.78093	0.254849	5.62529	0.373798	7.92451	0.501764	10.3966	0.62965	13.0353	0.263736	5.89195	0.346649	7.68176	0.498602	10.2447	0.657166	13.5367
0.163319	3.56071	0.0839406	1.78727	0.258205	5.62091	0.374212	7.90906	0.502226	10.2716	0.631015	12.8947	0.265653	5.85211	0.347433	7.6198	0.500151	10.1447	0.657334	13.3661
0.163792	3.52247	0.0853646	1.79344	0.261568	5.61678	0.374808	7.88701	0.502716	10.1503	0.632383	12.7578	0.26753	5.81247	0.348395	7.54965	0.501702	10.0473	0.65752	13.2001
0.164272	3.48538	0.0867882	1.79944	0.264936	5.61288	0.375454	7.86324	0.503235	10.0327	0.633754	12.6243	0.269363	5.77298	0.349556	7.47239	0.503253	9.95232	0.657724	13.0386
0.164759	3.44942	0.0882114	1.80527	0.26831	5.60919	0.376333	7.83125	0.503784	9.91857	0.635127	12.4943	0.271152	5.7336	0.350779	7.39851	0.504805	9.85968	0.657948	12.8816
0.165253	3.41455	0.0896343	1.81095	0.271687	5.60568	0.377441	7.79133	0.504363	9.80784	0.636502	12.3675	0.272895	5.6943	0.352065	7.32789	0.506356	9.76931	0.65819	12.7287
0.165754	3.38073	0.0910568	1.81648	0.275068	5.60233	0.378779	7.74385	0.504973	9.7004	0.637879	12.2438	0.274592	5.65506	0.353415	7.26041	0.507908	9.68111	0.658452	12.5799
0.166264	3.34794	0.0924788	1.82186	0.278452	5.59912	0.380344	7.6892	0.505614	9.59613	0.639258	12.1231	0.27624	5.61586	0.354829	7.19596	0.509458	9.59499	0.658734	12.435
0.166782	3.31614	0.0939003	1.8271	0.281838	5.59605	0.382133	7.62783	0.506288	9.49495	0.640638	12.0052	0.27784	5.57669	0.356308	7.13444	0.511006	9.51087	0.659036	12.2939
0.167309	3.28529	0.0953214	1.8322	0.285227	5.59309	0.383913	7.56782	0.506995	9.39675	0.642019	11.8902	0.279391	5.53753	0.357852	7.07574	0.512553	9.42867	0.659358	12.1565
0.167844	3.25538	0.0967419	1.83717	0.288617	5.59024	0.385685	7.50913	0.507735	9.30144	0.643401	11.7778	0.280894	5.4984	0.359459	7.01975	0.514098	9.34832	0.659701	12.0227
0.168388	3.22635	0.0981619	1.84202	0.292008	5.58748	0.387446	7.45167	0.50851	9.20893	0.644784	11.6681	0.282349	5.45928	0.361131	6.96635	0.51564	9.26975	0.660066	11.8922
0.168941	3.1982	0.0995814	1.84674	0.2954	5.58479	0.389197	7.39539	0.509319	9.11914	0.646167	11.5608	0.283755	5.42019	0.362865	6.91544	0.517178	9.19289	0.660451	11.7651
0.169504	3.17088	0.101	1.85134	0.298792	5.58218	0.390937	7.34024	0.510164	9.03199	0.64755	11.4559	0.285114	5.38114	0.364662	6.86691	0.518713	9.11767	0.660859	11.6412
0.170075	3.14437	0.102419	1.85582	0.302184	5.57962	0.392666	7.28617	0.511045	8.9474	0.648932	11.3533	0.286427	5.34215	0.36652	6.82066	0.520244	9.04404	0.661289	11.5205
0.170656	3.11865	0.103837	1.86019	0.305575	5.57712	0.394381	7.23312	0.511962	8.8653	0.650314	11.253	0.287695	5.30324	0.368437	6.77657	0.521771	8.97193	0.661741	11.4027
0.171246	3.09368	0.105254	1.86446	0.308966	5.57465	0.396083	7.18104	0.512917	8.7856	0.651696	11.1548	0.288919	5.26443	0.370411	6.73455	0.523292	8.90129	0.662216	11.2879
0.171846	3.06944	0.10667	1.86862	0.312355	5.57222	0.397772	7.1299	0.513908	8.70825	0.653076	11.0587	0.2901	5.22574	0.372442	6.6945	0.524808	8.83206	0.662714	11.1759
0.172455	3.04591	0.108087	1.87268	0.315743	5.56981	0.399446	7.07965	0.514938	8.63318	0.654454	10.9646	0.291241	5.1872	0.374527	6.6563	0.526318	8.76419	0.663236	11.0666
0.173074	3.02307	0.109502	1.87664	0.319129	5.56742	0.401105	7.03025	0.516006	8.56032	0.655831	10.8725	0.292344	5.14883	0.376664	6.61988	0.527822	8.69764	0.663782	10.9601
0.173702	3.00089	0.110917	1.88051	0.322511	5.56503	0.402749	6.98167	0.517112	8.4896	0.657207	10.7822	0.293409	5.11066	0.378851	6.58512	0.52932	8.63235	0.664352	10.8561
0.174339	2.97934	0.112331	1.88428	0.325891	5.56264	0.404378	6.93388	0.518108	8.42967	0.65858	10.6938	0.294438	5.07271	0.381087	6.55195	0.53081	8.56828	0.664946	10.7547
0.174986	2.95842	0.113745	1.88796	0.329267	5.56024	0.40599	6.88684	0.518981	8.37981	0.65995	10.6071	0.295435	5.03502	0.383368	6.52026	0.532293	8.50538	0.665566	10.6557
0.175642	2.93809	0.115158	1.89156	0.332639	5.55782	0.407586	6.84053	0.519718	8.33941	0.661318	10.5222	0.2964	4.99759	0.385693	6.49	0.533579	8.4515	0.66621	10.5591
0.176307	2.91834	0.11657	1.89507	0.336006	5.55538	0.409166	6.79493	0.520312	8.30798	0.662683	10.4388	0.297335	4.96047	0.388059	6.46106	0.534671	8.40623	0.66688	10.4648
0.176981	2.89916	0.117982	1.89851	0.339368	5.55289	0.41073	6.75	0.520754	8.28516	0.664044	10.3571	0.298243	4.92366	0.390465	6.43337	0.53557	8.36925	0.667576	10.3728
0.177665	2.88051	0.119394	1.90186	0.342723	5.55036	0.412278	6.70574	0.52104	8.27069	0.665402	10.2769	0.299124	4.88718	0.392909	6.40687	0.536278	8.34029	0.668298	10.283
0.178357	2.86239	0.120804	1.90514	0.346072	5.54776	0.41381	6.66213	0.521454	8.25005	0.666756	10.1982	0.299982	4.85107	0.395388	6.38149	0.536798	8.31914	0.669046	10.1953
0.179059	2.84477	0.122215	1.90835	0.349412	5.5451	0.415327	6.61915	0.52191	8.22785	0.668106	10.1209	0.300817	4.81532	0.397901	6.35715	0.53713	8.30568	0.66982	10.1096
0.179769	2.82764	0.123624	1.91148	0.352744	5.54234	0.416829	6.5768	0.522537	8.19804	0.669452	10.0451	0.301631	4.77996	0.400445	6.3338	0.537606	8.28642	0.670622	10.026
0.180489	2.81099	0.125033	1.91454	0.356066	5.53949	0.418317	6.53506	0.523343	8.16094	0.670794	9.97059	0.302426	4.745	0.40302	6.31139	0.538123	8.26561	0.67145	9.94438
0.181216	2.7948	0.126441	1.91754	0.359377	5.53653	0.419792	6.49394	0.524338	8.11699	0.67213	9.89741	0.303203	4.71046	0.405622	6.28984	0.538824	8.23751	0.672306	9.86465
0.181953	2.77906	0.127849	1.92047	0.362676	5.53343	0.421255	6.45343	0.525533	8.06666	0.673462	9.82551	0.303964	4.67633	0.408251	6.26913	0.539708	8.2023	0.673189	9.78679
0.182698	2.76374	0.129256	1.92333	0.365961	5.53018	0.422707	6.41354	0.52694	8.01049	0.674788	9.75485	0.30471	4.64263	0.410905	6.24919	0.540772	8.1602	0.6741	9.71074
0.183452	2.74884	0.130663	1.92614	0.36923	5.52676	0.42415	6.37427	0.528386	7.95598	0.676109	9.6854	0.305443	4.60937	0.413582	6.22998	0.542013	8.11147	0.675038	9.63647
0.184214	2.73434	0.132069	1.92888	0.372481	5.52314	0.425586	6.33563	0.52987	7.90307	0.677424	9.6171	0.306162	4.57656	0.416281	6.21146	0.543428	8.05639	0.676005	9.56391
0.184984	2.72024	0.133475	1.93157	0.375712	5.51929	0.427018	6.29765	0.531393	7.85171	0.678733	9.54995	0.306871	4.54419	0.419	6.19358	0.544833	8.00219	0.676999	9.49304
0.185762	2.70651	0.13488	1.9342	0.378921	5.51519	0.428447	6.26033	0.532953	7.80185	0.680037	9.48389	0.307569	4.51227	0.421739	6.17632	0.546228	7.94885	0.678021	9.4238
0.186549	2.69315	0.136284	1.93677	0.382104	5.51079	0.429877	6.22371	0.53455	7.75345	0.681334	9.4189	0.308258	4.4808	0.424495	6.15963	0.547613	7.89632	0.679071	9.35615
0.187343	2.68015	0.137688	1.93929	0.385259	5.50606	0.431312	6.18782	0.536184	7.70645	0.682624	9.35495	0.308939	4.44979	0.427268	6.14348	0.548987	7.8446	0.68015	9.29006
0.188145	2.66749	0.139091	1.94176	0.38838	5.50096	0.432754	6.15269	0.537853	7.66081	0.683908	9.29201	0.309612	4.41923	0.430056	6.12785	0.550351	7.79365	0.681257	9.22548
0.188955	2.65516	0.140494	1.94418	0.391465	5.49542	0.43421	6.11837	0.539559	7.61649	0.685186	9.23005	0.310279	4.38912	0.432858	6.11269	0.551704	7.74347	0.682391	9.16237
0.189773	2.64316	0.141896	1.94654	0.394508	5.4894	0.435683	6.0849	0.541299	7.57344	0.686456	9.16905	0.31094	4.35947	0.435673	6.09798	0.553047	7.69401	0.683554	9.1007
0.190598	2.63147	0.143298	1.94886	0.397503	5.48283	0.43718	6.05235	0.543073	7.53161	0.68772	9.10898	0.311595	4.33026	0.4385	6.0837	0.554379	7.64528	0.684744	9.04043
0.19143	2.62009	0.144699	1.95114	0.400445	5.47563	0.438707	6.02077	0.54488	7.49098	0.688976	9.04981	0.312247	4.30151	0.441338	6.06981	0.555701	7.59725	0.685963	8.98152
0.19227	2.609	0.1461	1.95337	0.403326	5.46774	0.440271	5.99025	0.54672	7.45148	0.690226	8.99152	0.312894	4.2732	0.444187	6.05631	0.557013	7.5499	0.687209	8.92393
0.193117	2.5982	0.1475	1.95555	0.406139	5.45907	0.441881	5.96085	0.548592	7.41309	0.691468	8.9341	0.313538	4.24533	0.447044	6.04315	0.558315	7.50322	0.688483	8.86764
0.193971	2.58767	0.1489	1.95769	0.408876	5.44953	0.443543	5.93266	0.550495	7.37577	0.692703	8.87751	0.31418	4.21789	0.449909	6.03032	0.559606	7.45719	0.689615	8.81962
0.194833	2.57741	0.150299	1.95979	0.411529	5.43905	0.445267	5.90576	0.552427	7.33947	0.693773	8.82887	0.31482	4.19089	0.452781	6.0178	0.560888	7.41181	0.690596	8.77942
0.195701	2.56742	0.151698	1.96185	0.414091	5.42754	0.447061	5.88023	0.554389	7.30416	0.694681	8.78788	0.315457	4.16432	0.455659	6.00557	0.562161	7.36706	0.691419	8.74668
0.196576	2.55767	0.153096	1.96387	0.416554	5.41493	0.448934	5.85615	0.556379	7.2698	0.695429	8.75432	0.316094	4.13818	0.458542	5.99361	0.563424	7.32292	0.692077	8.72111
0.197457	2.54818	0.154494	1.96585	0.418911	5.40117	0.450893	5.83357	0.558397	7.23637	0.696018	8.72798	0.31673	4.11245	0.461429	5.9819	0.56468	7.2794	0.692564	8.70248
0.198345	2.53892	0.155891	1.9678	0.421158	5.38622	0.452944	5.81254	0.560441	7.20381	0.696451	8.70874	0.317365	4.08713	0.46432	5.97042	0.565927	7.23648	0.692878	8.69064
0.19924	2.52989	0.157288	1.96971	0.423291	5.37007	0.455092	5.79309	0.562511	7.17211	0.696727	8.69647	0.318	4.06223	0.467213	5.95916	0.567166	7.19415	0.693332	8.67372
0.200141	2.52108	0.158684	1.97158	0.425311	5.35273	0.457339	5.7752	0.564606	7.14123	0.697123	8.6789	0.318635	4.03772	0.470107	5.94809	0.568399	7.1524	0.693828	8.65547
0.201049	2.5125	0.16008	1.97341	0.427217	5.33426	0.459685	5.75884	0.566724	7.11114	0.697553	8.6599	0.319271	4.01362	0.473002	5.93721	0.569626	7.11124	0.694508	8.63088
0.201962	2.50412	0.161476	1.97521	0.429013	5.31472	0.46213	5.74395	0.568865	7.08181	0.698136	8.63422	0.319908	3.9899	0.475896	5.92648	0.570847	7.07066	0.695377	8.60016
0.202882	2.49596	0.162871	1.97698	0.430704	5.29419	0.464668	5.73045	0.571029	7.05321	0.698871	8.60198	0.320546	3.96657	0.478788	5.91591	0.572063	7.03065	0.696442	8.56356
0.203808	2.48799	0.164265	1.97872	0.432296	5.27277	0.467296	5.71825	0.573213	7.02531	0.699757	8.56335	0.321185	3.94361	0.481678	5.90547	0.573276	6.99122	0.697708	8.52138
0.20474	2.48021	0.165659	1.98043	0.433797	5.25057	0.470006	5.70725	0.575418	6.99808	0.700791	8.51855	0.321826	3.92104	0.484564	5.89514	0.574486	6.95235	0.699185	8.47396
0.205677	2.47263	0.167053	1.9821	0.435213	5.2277	0.472792	5.69733	0.577642	6.97151	0.70197	8.46779	0.322469	3.89882	0.487445	5.8849	0.575694	6.91405	0.700687	8.42757
0.206621	2.46522	0.168446	1.98375	0.436553	5.20425	0.475647	5.68838	0.579884	6.94556	0.703143	8.41772	0.323114	3.87697	0.490319	5.87475	0.576902	6.87633	0.702213	8.38216
0.207569	2.458	0.169839	1.98536	0.437823	5.18034	0.478564	5.6803	0.582144	6.9202	0.70431	8.36832	0.323761	3.85548	0.493187	5.86467	0.578111	6.83918	0.703764	8.33773
0.208524	2.45094	0.171231	1.98695	0.439031	5.15605	0.481537	5.67299	0.584421	6.89542	0.705469	8.31958	0.32441	3.83433	0.496046	5.85463	0.579321	6.8026	0.705338	8.29423
0.209484	2.44406	0.172624	1.98851	0.440183	5.13146	0.484559	5.66638	0.586713	6.8712	0.706623	8.2715	0.325062	3.81353	0.498894	5.84463	0.580535	6.7666	0.706935	8.25165
0.210449	2.43734	0.174015	1.99004	0.441285	5.10665	0.487624	5.66037	0.589021	6.8475	0.707771	8.22404	0.325716	3.79306	0.501732	5.83464	0.581755	6.73119	0.708556	8.20995
0.21142	2.43077	0.175406	1.99155	0.442342	5.08169	0.490729	5.65489	0.591342	6.82432	0.708913	8.17722	0.326374	3.77293	0.504556	5.82464	0.58298	6.69637	0.710198	8.16911
0.212396	2.42436	0.176797	1.99303	0.443358	5.05662	0.493868	5.64988	0.593677	6.80162	0.710049	8.13101	0.327034	3.75312	0.507365	5.81462	0.584215	6.66215	0.711862	8.12912
0.213377	2.4181	0.178188	1.99448	0.444338	5.03151	0.497037	5.64529	0.596024	6.77939	0.71118	8.08541	0.327697	3.73363	0.510158	5.80456	0.585459	6.62854	0.713547	8.08994
0.214363	2.41199	0.179578	1.99591	0.445286	5.00639	0.500233	5.64107	0.598383	6.75761	0.712307	8.0404	0.328364	3.71446	0.512933	5.79443	0.586716	6.59554	0.715253	8.05154
0.215354	2.40602	0.180967	1.99731	0.446205	4.9813	0.503453	5.63718	0.600753	6.73625	0.713429	7.99599	0.329034	3.6956	0.515688	5.78423	0.587987	6.56317	0.71698	8.01392
0.21635	2.40019	0.182357	1.9987	0.447097	4.95627	0.506694	5.63357	0.603132	6.71531	0.714548	7.95215	0.329707	3.67704	0.518421	5.77391	0.589276	6.53144	0.718725	7.97704
0.21735	2.39449	0.183745	2.00005	0.447966	4.93133	0.509954	5.63022	0.605521	6.69476	0.715662	7.90889	0.330383	3.65878	0.521129	5.76348	0.590583	6.50036	0.72049	7.94089
0.218356	2.38892	0.185134	2.00139	0.448814	4.9065	0.51323	5.6271	0.607918	6.67459	0.716774	7.8662	0.331064	3.64081	0.52381	5.75289	0.591912	6.46995		
0.219366	2.38348	0.186522	2.00271	0.449643	4.88181	0.516521	5.62419	0.610322	6.65477	0.717883	7.82407	0.331747	3.62313	0.526462	5.74214	0.593265	6.44022		
0.220381	2.37816	0.18791	2.004	0.450454	4.85726	0.519825	5.62145	0.612733	6.6353	0.718991	7.78249	0.332435	3.60573	0.529083	5.73119	0.594646	6.41119		
0.2214	2.37296	0.189297	2.00527	0.45125	4.83288	0.523141	5.61888	0.615149	6.61615	0.720097	7.74146	0.333126	3.58861	0.53167	5.72002	0.596056	6.38287		
0.222423	2.36788	0.190685	2.00652	0.452031	4.80868	0.526467	5.61645	0.61757	6.59732			0.333821	3.57176	0.53422	5.70861	0.597499	6.35529		
0.223451	2.36291	0.192071	2.00775	0.4528	4.78466	0.529803	5.61416	0.619995	6.57878			0.334519	3.55518	0.53673	5.69693	0.598978	6.32844		
0.224483	2.35806	0.193458	2.00896	0.453557	4.76084	0.533147	5.61198	0.622423	6.56051			0.335222	3.53886	0.539198	5.68496	0.600496	6.30236		
0.22552	2.35331	0.194844	2.01015	0.454303	4.73723	0.536498	5.60991	0.624854	6.54252			0.335929	3.5228	0.541621	5.67268	0.602055	6.27706		
0.22656	2.34867	0.19623	2.01132	0.45504	4.71382	0.539856	5.60793	0.627285	6.52477			0.336639	3.50699	0.543996	5.66006	0.603658	6.25255		
0.227605	2.34413	0.197615	2.01248	0.455768	4.69063	0.543219	5.60604	0.629717	6.50725			0.337353	3.49143	0.54632	5.64709	0.605309	6.22885		
0.228654	2.33969	0.199	2.01361	0.456488	4.66766	0.546588	5.60423	0.632148	6.48996			0.338072	3.47611	0.548592	5.63374	0.60701	6.20596		
0.229706	2.33535	0.200385	2.01473	0.457201	4.64491	0.549961	5.60248	0.634578	6.47288			0.338794	3.46103	0.550808	5.62	0.608763	6.18389		
0.230763	2.3311	0.201769	2.01583	0.457907	4.62239	0.553338	5.6008	0.637005	6.45599			0.339521	3.44619	0.552967	5.60585	0.61057	6.16265		
0.231823	2.32694	0.203153	2.01692	0.458608	4.6001	0.556719	5.59917	0.639429	6.43927			0.340252	3.43158	0.555067	5.59129	0.612433	6.14225		
0.232887	2.32288	0.204537	2.01798	0.459303	4.57803	0.560102	5.5976	0.641848	6.42273			0.340986	3.41719	0.557106	5.57631	0.614353	6.12267		
0.233955	2.3189	0.20592	2.01904	0.459994	4.55619	0.563488	5.59607	0.644261	6.40633			0.341725	3.40303	0.559084	5.5609	0.616332	6.10392		
0.235026	2.31501	0.207304	2.02007	0.46068	4.53458	0.566876	5.59457	0.646668	6.39008			0.342468	3.38908	0.560999	5.54506	0.618369	6.08598		
0.236101	2.3112	0.208686	2.02109	0.461363	4.5132	0.570266	5.59312	0.649067	6.37395			0.343215	3.37535	0.562852	5.52881	0.620466	6.06883		
0.23718	2.30747	0.210069	2.02209	0.462042	4.49206	0.573657	5.59169	0.651457	6.35793			0.343967	3.36183	0.564642	5.51216	0.622621	6.05247		
0.238262	2.30382	0.211451	2.02308	0.462718	4.47114	0.577049	5.59029	0.653837	6.34201			0.344722	3.34851	0.566371	5.4951	0.624834	6.03687		
0.239347	2.30025	0.212833	2.02406	0.463392	4.45045	0.580441	5.58891	0.656206	6.32618			0.345482	3.3354	0.568039	5.47767	0.627104	6.022		
0.240436	2.29675	0.214215	2.02502	0.464063	4.42999	0.583833	5.58754	0.658562	6.31043			0.346245	3.32248	0.569647	5.45989	0.629429	6.00784		
0.241528	2.29333	0.215596	2.02596	0.464732	4.40975	0.590617	5.58486	0.660905	6.29473			0.347013	3.30977	0.571198	5.44176	0.631808	5.99436		
0.242623	2.28998	0.216977	2.02689	0.4654	4.38974	0.594007	5.58352	0.663234	6.27908			0.347785	3.29724	0.572693	5.42333	0.634238	5.98153		
0.243722	2.28669	0.218358	2.02781	0.466066	4.36996	0.597396	5.58219	0.665546	6.26347			0.348562	3.2849	0.574134	5.40461	0.636719	5.96932		
0.244823	2.28348	0.219738	2.02872	0.466731	4.3504	0.600784	5.58086	0.667841	6.24788			0.349342	3.27275	0.575525	5.38563	0.639246	5.95769		
0.245928	2.28033	0.221119	2.02961	0.467395	4.33106	0.604169	5.57953	0.670118	6.23231			0.350126	3.26078	0.576866	5.36642	0.641818	5.94661		
0.247036	2.27725	0.222499	2.03049	0.468059	4.31193	0.607551	5.57818	0.672376	6.21674			0.350915	3.24898	0.578161	5.34701	0.644433	5.93605		
0.248147	2.27423	0.223878	2.03135	0.468722	4.29303	0.61093	5.57682	0.674613	6.20116			0.351708	3.23737	0.579412	5.32742	0.647088	5.92598		
0.24926	2.27127	0.225258	2.03221	0.469384	4.27434	0.614306	5.57545	0.676828	6.18556			0.352504	3.22592	0.580622	5.30768	0.649781	5.91637		
0.250377	2.26837	0.226637	2.03305	0.470047	4.25586	0.617677	5.57405	0.679021	6.16994			0.353305	3.21464	0.581792	5.28781	0.652509	5.9072		
0.251496	2.26553	0.228015	2.03388	0.47071	4.23759	0.621044	5.57263	0.68119	6.15428			0.35411	3.20353	0.582927	5.26784	0.65527	5.89842		
0.252619	2.26275	0.229394	2.03469	0.471372	4.21953	0.624405	5.57117	0.683334	6.13858			0.354919	3.19258	0.584027	5.24779	0.658062	5.89002		
0.253744	2.26002	0.230772	2.0355	0.472036	4.20168	0.62776	5.56968	0.685453	6.12283			0.355732	3.1818	0.585095	5.22768	0.660883	5.88198		
0.254871	2.25735	0.23215	2.0363	0.472699	4.18404	0.631108	5.56814	0.687546	6.10702			0.356549	3.17117	0.586134	5.20753	0.663731	5.87426		
0.256002	2.25474	0.233528	2.03708	0.473364	4.16659	0.634449	5.56655	0.689613	6.09116			0.35737	3.16069	0.587144	5.18736	0.666604	5.86684		
0.257135	2.25217	0.234906	2.03785	0.474029	4.14935	0.637781	5.56491	0.691654	6.07525			0.358196	3.15037	0.588129	5.16718	0.6695	5.85971		
0.258271	2.24965	0.236283	2.03862	0.474695	4.1323	0.641103	5.56319	0.693667	6.05927			0.359025	3.14019	0.589089	5.14702	0.672417	5.85285		
0.259409	2.24719	0.23766	2.03937	0.475362	4.11545	0.644415	5.56141	0.695654	6.04324			0.359858	3.13016	0.590027	5.12689	0.675355	5.84624		
0.26055	2.24477	0.239037	2.04011	0.47603	4.09879	0.647714	5.55954	0.697614	6.02715			0.360695	3.12028	0.590944	5.10679	0.678311	5.83985		
0.261693	2.2424	0.240413	2.04084	0.4767	4.08233	0.651	5.55757	0.699549	6.01103			0.361536	3.11053	0.591842	5.08675	0.681284	5.83368		
0.262838	2.24008	0.241789	2.04156	0.477371	4.06605	0.65427	5.5555	0.701459	5.99486			0.362381	3.10093	0.592721	5.06676	0.684273	5.82772		
0.263986	2.2378	0.243165	2.04228	0.478043	4.04996	0.657524	5.5533	0.703346	5.97867			0.36323	3.09146	0.593584	5.04685	0.687276	5.82193		
0.265137	2.23557	0.244541	2.04298	0.478717	4.03405	0.660757	5.55096	0.705212	5.96247			0.364082	3.08213	0.594431	5.02703	0.690293	5.81633		
0.26629	2.23338	0.245917	2.04367	0.479392	4.01833	0.66397	5.54846	0.707057	5.94628			0.364939	3.07293	0.595264	5.00729	0.693322	5.81088		
0.267445	2.23123	0.247292	2.04436	0.480069	4.00278	0.667157	5.54579	0.708886	5.93012			0.365799	3.06386	0.596083	4.98764	0.696362	5.80559		
0.268602	2.22912	0.248667	2.04503	0.480748	3.98741	0.670317	5.54292	0.7107	5.914			0.366663	3.05491	0.59689	4.9681	0.699413	5.80044		
0.269761	2.22706	0.250042	2.0457	0.481428	3.97222	0.673446	5.53982	0.712504	5.89797			0.367531	3.04609	0.597685	4.94867	0.702472	5.79542		
0.270923	2.22503	0.251416	2.04635	0.482111	3.9572	0.676539	5.53646	0.714301	5.88206			0.368403	3.0374	0.59847	4.92935	0.705541	5.79052		
0.272087	2.22304	0.25279	2.047	0.482795	3.94235	0.679593	5.53281	0.716096	5.86628			0.369279	3.02882	0.599244	4.91015	0.708617	5.78573		
0.273253	2.22109	0.254165	2.04764	0.483481	3.92767	0.682601	5.52883	0.717894	5.8507			0.370158	3.02036	0.600009	4.89107	0.7117	5.78105		
0.274421	2.21918	0.255538	2.04827	0.484169	3.91316	0.685559	5.52449	0.719701	5.83535			0.371041	3.01203	0.600765	4.87212	0.714789	5.77647		
0.275591	2.2173	0.256912	2.0489	0.48486	3.89881	0.68846	5.51973	0.721524	5.82028			0.371928	3.0038	0.601514	4.85329	0.717883	5.77197		
0.276763	2.21546	0.258285	2.04951	0.485552	3.88462	0.691297	5.51452					0.372818	2.99569	0.602255	4.8346	0.720982	5.76756		
0.277937	2.21365	0.259658	2.05012	0.486247	3.87059	0.694064	5.5088					0.373712	2.98769	0.602989	4.81604				
0.279114	2.21187	0.261031	2.05072	0.486944	3.85672	0.696753	5.50252					0.374609	2.9798	0.603717	4.79762				
0.280292	2.21013	0.262404	2.05131	0.487643	3.84301	0.699358	5.49564					0.375511	2.97202	0.604438	4.77934				
0.281472	2.20842	0.263777	2.0519	0.488344	3.82945	0.701871	5.48812					0.376415	2.96434	0.605155	4.76119				
0.282654	2.20675	0.265149	2.05247	0.489048	3.81604	0.704288	5.47991					0.377323	2.95676	0.605866	4.74319				
0.283837	2.2051	0.266521	2.05304	0.489754	3.80278	0.706603	5.471					0.378235	2.94929	0.606573	4.72532				
0.285023	2.20348	0.267893	2.0536	0.490462	3.78967	0.708813	5.46137					0.379151	2.94192	0.607276	4.7076				
0.28621	2.2019	0.269264	2.05416	0.491173	3.77671	0.710918	5.45103					0.380069	2.93465	0.607974	4.69002				
0.287399	2.20034	0.270636	2.05471	0.491886	3.76389	0.712917	5.43998					0.380991	2.92747	0.608669	4.67259				
0.28859	2.19881	0.272007	2.05525	0.492602	3.75121	0.714814	5.42825					0.381917	2.92039	0.609361	4.6553				
0.289783	2.19731	0.273378	2.05578	0.49332	3.73868	0.716611	5.41589					0.382846	2.91341	0.61005	4.63815				
0.290977	2.19583	0.274748	2.05631	0.494041	3.72628	0.718315	5.40294					0.383779	2.90651	0.610736	4.62114				
0.292173	2.19438	0.276119	2.05683	0.494764	3.71402	0.71993	5.38945					0.384714	2.89971	0.611419	4.60428				
0.29337	2.19296	0.277489	2.05735	0.49549	3.70189	0.721464	5.37548					0.385654	2.893	0.6121	4.58756				
0.29457	2.19156	0.278859	2.05786	0.496218	3.68989							0.386596	2.88637	0.61278	4.57099				
0.29577	2.19019	0.280229	2.05836	0.496949	3.67803							0.387542	2.87984	0.613457	4.55455				
0.296973	2.18884	0.281599	2.05885	0.497683	3.6663							0.388491	2.87338	0.614133	4.53826				
0.298177	2.18752	0.282968	2.05934	0.498419	3.65469							0.389443	2.86702	0.614807	4.52211				
0.299382	2.18622	0.284338	2.05983	0.499157	3.64322							0.390398	2.86073	0.615481	4.5061				
0.300589	2.18494	0.285707	2.06031	0.499899	3.63186							0.391357	2.85453	0.616153	4.49023				
0.301798	2.18369	0.287075	2.06078	0.500643	3.62063							0.392319	2.8484	0.616824	4.47449				
0.303007	2.18246	0.288444	2.06125	0.501389	3.60952							0.393284	2.84236	0.617494	4.4589				
0.304219	2.18124	0.289813	2.06171	0.502139	3.59853							0.394252	2.83639	0.618164	4.44344				
0.305432	2.18005	0.291181	2.06216	0.502891	3.58766							0.395223	2.8305	0.618833	4.42812				
0.306646	2.17888	0.292549	2.06261	0.503645	3.5769							0.396197	2.82468	0.619502	4.41294				
0.307861	2.17774	0.293917	2.06306	0.504403	3.56626							0.397175	2.81894	0.620171	4.39789				
0.309078	2.17661	0.295284	2.0635	0.505163	3.55574							0.398155	2.81326	0.620839	4.38297				
0.310297	2.1755	0.296652	2.06393	0.505925	3.54532							0.399138	2.80767	0.621508	4.36819				
0.311516	2.17441	0.298019	2.06436	0.506691	3.53502							0.400125	2.80214	0.622177	4.35354				
0.312737	2.17333	0.299386	2.06478	0.507459	3.52482							0.401114	2.79668	0.622846	4.33901				
0.313959	2.17228	0.300753	2.0652	0.508229	3.51474							0.402106	2.79129	0.623515	4.32462				
0.315183	2.17124	0.30212	2.06561	0.509003	3.50476							0.403101	2.78597	0.624184	4.31036				
0.316408	2.17023	0.303486	2.06602	0.509779	3.49488							0.404099	2.78071	0.624854	4.29622				
0.317634	2.16922	0.304852	2.06643	0.510558	3.48511							0.4051	2.77552	0.625525	4.28221				
0.318861	2.16824	0.306219	2.06683	0.511339	3.47544							0.406104	2.77039	0.626196	4.26833				
0.320089	2.16727	0.307584	2.06722	0.512124	3.46587							0.407111	2.76533	0.626868	4.25456				
0.321319	2.16632	0.30895	2.06761	0.51291	3.4564							0.40812	2.76033	0.627541	4.24092				
0.32255	2.16539	0.310316	2.068	0.5137	3.44703							0.409133	2.75539	0.628214	4.22741				
0.323782	2.16447	0.311681	2.06838	0.514492	3.43776							0.410148	2.75051	0.628888	4.21401				
0.325015	2.16356	0.313046	2.06876	0.515287	3.42858							0.411165	2.74569	0.629564	4.20073				
0.326249	2.16267	0.314411	2.06913	0.516085	3.4195							0.412186	2.74092	0.63024	4.18758				
0.327484	2.1618	0.315776	2.0695	0.516885	3.41051							0.413209	2.73622	0.630918	4.17453				
0.328721	2.16094	0.317141	2.06986	0.517688	3.40161							0.414235	2.73157	0.631596	4.16161				
0.329958	2.16009	0.318505	2.07022	0.518494	3.39281							0.415264	2.72698	0.632276	4.1488				
0.331197	2.15926	0.319869	2.07057	0.519302	3.38409							0.416295	2.72245	0.632957	4.1361				
0.332436	2.15844	0.321233	2.07093	0.520113	3.37546							0.417329	2.71797	0.633639	4.12352				
0.333677	2.15764	0.322597	2.07127	0.520927	3.36692							0.418365	2.71354	0.634322	4.11104				
0.334919	2.15685	0.323961	2.07162	0.521743	3.35847							0.419404	2.70917	0.635007	4.09868				
0.336161	2.15607	0.325324	2.07196	0.522562	3.35011							0.420446	2.70484	0.635693	4.08643				
0.337405	2.1553	0.326688	2.07229	0.523384	3.34182							0.42149	2.70057	0.636381	4.07429				
0.33865	2.15455	0.328051	2.07262	0.524208	3.33362							0.422536	2.69635	0.63707	4.06225				
0.339895	2.1538	0.329414	2.07295	0.525035	3.32551							0.423586	2.69218	0.637761	4.05032				
0.341142	2.15308	0.330777	2.07328	0.525864	3.31747							0.424637	2.68806	0.638453	4.03849				
0.342389	2.15236	0.332139	2.0736	0.526697	3.30952							0.425691	2.68399	0.639147	4.02677				
0.343638	2.15165	0.333502	2.07391	0.527531	3.30164							0.426748	2.67996	0.639842	4.01515				
0.344887	2.15096	0.334864	2.07423	0.528369	3.29384							0.427807	2.67598	0.640539	4.00364				
0.346137	2.15027	0.336226	2.07454	0.529208	3.28612							0.428868	2.67205	0.641237	3.99222				
0.347389	2.1496	0.337588	2.07484	0.530051	3.27848							0.429932	2.66817	0.641937	3.9809				
0.348641	2.14894	0.33895	2.07515	0.530896	3.27091							0.430998	2.66433	0.642639	3.96969				
0.349894	2.14828	0.340311	2.07545	0.531744	3.26342							0.432067	2.66053	0.643343	3.95857				
0.351147	2.14764	0.341673	2.07574	0.532594	3.25599							0.433137	2.65678	0.644048	3.94755				
0.352402	2.14701	0.343034	2.07604	0.533447	3.24865							0.434211	2.65307	0.644755	3.93662				
0.353658	2.14639	0.344395	2.07633	0.534302	3.24137							0.435286	2.6494	0.645464	3.92579				
0.354914	2.14578	0.345756	2.07661	0.53516	3.23417							0.436364	2.64577	0.646174	3.91505				
0.356171	2.14518	0.347116	2.0769	0.53602	3.22703							0.437444	2.64219	0.646887	3.9044				
0.357429	2.14458	0.348477	2.07718	0.536883	3.21997							0.438526	2.63865	0.647601	3.89385				
0.358688	2.144	0.349837	2.07745	0.537748	3.21297							0.43961	2.63514	0.648317	3.88339				
0.359947	2.14343	0.351198	2.07773	0.538616	3.20604							0.440697	2.63168	0.649035	3.87302				
0.361208	2.14286	0.352558	2.078	0.539486	3.19918							0.441786	2.62826	0.649755	3.86273				
0.362469	2.1423	0.353918	2.07827	0.540359	3.19238							0.442877	2.62487	0.650476	3.85254				
0.363731	2.14176	0.355277	2.07853	0.541234	3.18565							0.44397	2.62152	0.6512	3.84243				
0.364993	2.14122	0.356637	2.07879	0.542112	3.17898							0.445066	2.61821	0.651925	3.83241				
0.366257	2.14069	0.357996	2.07905	0.542992	3.17237							0.446163	2.61494	0.652653	3.82247				
0.367521	2.14016	0.359355	2.07931	0.543875	3.16583							0.447263	2.6117	0.653382	3.81262				
0.368785	2.13965	0.360714	2.07956	0.54476	3.15935							0.448364	2.6085	0.654113	3.80285				
0.370051	2.13914	0.362073	2.07981	0.545648	3.15294							0.449468	2.60534	0.654846	3.79317				
0.371317	2.13864	0.363432	2.08006	0.546537	3.14658							0.450574	2.60221	0.655581	3.78357				
0.372584	2.13815	0.364791	2.08031	0.54743	3.14028							0.451682	2.59911	0.656319	3.77404				
0.373852	2.13767	0.366149	2.08055	0.548324	3.13404							0.452792	2.59605	0.657058	3.7646				
0.37512	2.13719	0.367507	2.08079	0.549221	3.12786							0.453904	2.59303	0.657799	3.75524				
0.376389	2.13672	0.368865	2.08103	0.550121	3.12174							0.455017	2.59003	0.658542	3.74596				
0.377659	2.13626	0.370223	2.08126	0.551023	3.11568							0.456133	2.58707	0.659287	3.73675				
0.378929	2.1358	0.371581	2.08149	0.551927	3.10967							0.457251	2.58414	0.660034	3.72762				
0.3802	2.13535	0.372939	2.08172	0.552833	3.10372							0.458371	2.58124	0.660783	3.71857				
0.381471	2.13491	0.374296	2.08195	0.553742	3.09782							0.459493	2.57838	0.661534	3.70959				
0.382743	2.13448	0.375654	2.08218	0.554653	3.09198							0.460616	2.57554	0.662287	3.70069				
0.384016	2.13405	0.377011	2.0824	0.555567	3.08619							0.461742	2.57274	0.663042	3.69186				
0.38529	2.13362	0.378368	2.08262	0.556482	3.08045							0.462869	2.56996	0.663799	3.68311				
0.386564	2.13321	0.379724	2.08283	0.5574	3.07477							0.463999	2.56722	0.664558	3.67443				
0.387838	2.1328	0.381081	2.08305	0.558321	3.06914							0.46513	2.5645	0.665319	3.66581				
0.389114	2.1324	0.382438	2.08326	0.559243	3.06356							0.466263	2.56182	0.666082	3.65727				
0.390389	2.132	0.383794	2.08347	0.560168	3.05803							0.467398	2.55916	0.666847	3.6488				
0.391666	2.13161	0.38515	2.08368	0.561095	3.05255							0.468535	2.55653	0.667614	3.6404				
0.392943	2.13122	0.386506	2.08389	0.562024	3.04712							0.469673	2.55393	0.668383	3.63207				
0.39422	2.13084	0.387862	2.08409	0.562956	3.04174							0.470813	2.55135	0.669154	3.62381				
0.395498	2.13046	0.389218	2.08429	0.56389	3.03641							0.471956	2.54881	0.669927	3.61561				
0.396777	2.13009	0.390574	2.08449	0.564826	3.03113							0.473099	2.54629	0.670703	3.60748				
0.398056	2.12973	0.391929	2.08469	0.565764	3.02589							0.474245	2.5438	0.67148	3.59942				
0.399336	2.12937	0.393284	2.08489	0.566704	3.0207							0.475392	2.54133	0.672259	3.59142				
0.400616	2.12902	0.394639	2.08508	0.567647	3.01556							0.476541	2.53889	0.673041	3.58349				
0.401897	2.12867	0.395995	2.08527	0.568591	3.01047							0.477692	2.53647	0.673824	3.57562				
0.403178	2.12833	0.397349	2.08546	0.569538	3.00541							0.478845	2.53408	0.674609	3.56781				
0.40446	2.12799	0.398704	2.08565	0.570487	3.00041							0.479999	2.53172	0.675397	3.56007				
0.405742	2.12766	0.400059	2.08583	0.571438	2.99545							0.481155	2.52937	0.676186	3.55238				
0.407025	2.12733	0.401413	2.08601	0.572391	2.99053							0.482312	2.52706	0.676978	3.54476				
0.408308	2.127	0.402767	2.0862	0.573346	2.98565							0.483471	2.52476	0.677771	3.53721				
0.409592	2.12669	0.404121	2.08637	0.574304	2.98082							0.484632	2.52249	0.678567	3.52971				
0.410877	2.12637	0.405475	2.08655	0.575263	2.97603							0.485795	2.52025	0.679364	3.52227				
0.412161	2.12606	0.406829	2.08673	0.576225	2.97129							0.486959	2.51803	0.680164	3.51489				
0.413447	2.12576	0.408183	2.0869	0.577188	2.96658							0.488124	2.51583	0.680965	3.50757				
0.414732	2.12546	0.409537	2.08707	0.578154	2.96191							0.489291	2.51365	0.681769	3.5003				
0.416019	2.12516	0.41089	2.08724	0.579122	2.95729							0.49046	2.51149	0.682574	3.4931				
0.417305	2.12487	0.412243	2.08741	0.580092	2.95271							0.491631	2.50936	0.683382	3.48595				
0.418592	2.12458	0.413596	2.08758	0.581063	2.94816							0.492802	2.50725	0.684192	3.47885				
0.41988	2.12429	0.414949	2.08774	0.582037	2.94366							0.493976	2.50515	0.685003	3.47181				
0.421168	2.12401	0.416302	2.0879	0.583013	2.93919							0.495151	2.50308	0.685817	3.46483				
0.422456	2.12374	0.417655	2.08806	0.583991	2.93476							0.496327	2.50104	0.686633	3.4579				
0.423745	2.12347	0.419007	2.08822	0.584971	2.93037							0.497505	2.49901	0.68745	3.45103				
0.425034	2.1232	0.42036	2.08838	0.585952	2.92602							0.498685	2.497	0.68827	3.44421				
0.426324	2.12293	0.421712	2.08854	0.586936	2.92171							0.499866	2.49501	0.689091	3.43744				
0.427614	2.12267	0.423064	2.08869	0.587922	2.91743							0.501048	2.49304	0.689915	3.43073				
0.428905	2.12241	0.424416	2.08884	0.58891	2.91319							0.502232	2.4911	0.69074	3.42406				
0.430196	2.12216	0.425768	2.089	0.589899	2.90898							0.503417	2.48917	0.691568	3.41745				
0.431487	2.12191	0.42712	2.08914	0.590891	2.90481							0.504604	2.48726	0.692397	3.41089				
0.432779	2.12166	0.428472	2.08929	0.591884	2.90067							0.505792	2.48536	0.693229	3.40438				
0.434071	2.12142	0.429823	2.08944	0.592879	2.89657							0.506982	2.48349	0.694062	3.39792				
0.435363	2.12118	0.431174	2.08958	0.593877	2.89251							0.508173	2.48164	0.694898	3.39151				
0.436656	2.12095	0.432526	2.08973	0.594876	2.88848							0.509366	2.4798	0.695735	3.38514				
0.43795	2.12071	0.433877	2.08987	0.595877	2.88448							0.510559	2.47798	0.696574	3.37883				
0.439243	2.12048	0.435228	2.09001	0.59688	2.88052							0.511755	2.47618	0.697415	3.37256				
0.440537	2.12026	0.436578	2.09015	0.597884	2.87658							0.512951	2.4744	0.698259	3.36634				
0.441832	2.12003	0.437929	2.09028	0.598891	2.87269							0.514149	2.47264	0.699104	3.36017				
0.443126	2.11981	0.43928	2.09042	0.599899	2.86882							0.515348	2.47089	0.699951	3.35405				
0.444422	2.1196	0.44063	2.09055	0.600909	2.86499							0.516549	2.46916	0.7008	3.34797				
0.445717	2.11938	0.44198	2.09069	0.601921	2.86118							0.517751	2.46744	0.701651	3.34194				
0.447013	2.11917	0.44333	2.09082	0.602935	2.85741							0.518954	2.46575	0.702503	3.33595				
0.448309	2.11896	0.44468	2.09095	0.603951	2.85367							0.520159	2.46406	0.703358	3.33001				
0.449606	2.11876	0.44603	2.09108	0.604968	2.84996							0.521365	2.4624	0.704215	3.32411				
0.450902	2.11855	0.44738	2.0912	0.605988	2.84628							0.522572	2.46075	0.705073	3.31826				
0.4522	2.11835	0.44873	2.09133	0.607009	2.84264							0.52378	2.45912	0.705934	3.31245				
0.453497	2.11816	0.450079	2.09145	0.608031	2.83902							0.52499	2.4575	0.706796	3.30668				
0.454795	2.11796	0.451428	2.09158	0.609056	2.83543							0.526201	2.4559	0.70766	3.30095				
0.456093	2.11777	0.452778	2.0917	0.610082	2.83187							0.527413	2.45431	0.708526	3.29527				
0.457392	2.11758	0.454127	2.09182	0.61111	2.82834							0.528626	2.45274	0.709394	3.28963				
0.458691	2.11739	0.455476	2.09194	0.61214	2.82483							0.529841	2.45118	0.710264	3.28403				
0.45999	2.11721	0.456825	2.09206	0.613171	2.82136							0.531057	2.44964	0.711135	3.27848				
0.461289	2.11703	0.458174	2.09218	0.614205	2.81791							0.532274	2.44811	0.712009	3.27296				
0.462589	2.11685	0.459522	2.09229	0.615239	2.81449							0.533492	2.4466	0.712884	3.26749				
0.463889	2.11667	0.460871	2.09241	0.616276	2.8111							0.534712	2.4451	0.713761	3.26205				
0.46519	2.1165	0.462219	2.09252	0.617314	2.80774							0.535933	2.44361	0.714641	3.25665				
0.46649	2.11633	0.463567	2.09263	0.618354	2.8044							0.537154	2.44214	0.715521	3.2513				
0.467791	2.11616	0.464915	2.09274	0.619396	2.80109							0.538377	2.44068	0.716404	3.24598				
0.469093	2.11599	0.466263	2.09285	0.620439	2.7978							0.539602	2.43924	0.717289	3.2407				
0.470394	2.11582	0.467611	2.09296	0.621484	2.79455							0.540827	2.43781	0.718175	3.23546				
0.471696	2.11566	0.468959	2.09307	0.62253	2.79131							0.542054	2.43639	0.719063	3.23026				
0.472998	2.1155	0.470307	2.09317	0.623578	2.78811							0.543281	2.43499	0.719953	3.22509				
0.474301	2.11534	0.471654	2.09328	0.624628	2.78492							0.54451	2.4336	0.720845	3.21997				
0.475603	2.11519	0.473002	2.09338	0.625679	2.78177							0.54574	2.43222						
0.476906	2.11503	0.474349	2.09349	0.626732	2.77864							0.546971	2.43085						
0.478209	2.11488	0.475696	2.09359	0.627787	2.77553							0.548203	2.4295						
0.479513	2.11473	0.477043	2.09369	0.628843	2.77245							0.549436	2.42816						
0.480817	2.11458	0.47839	2.09379	0.629901	2.76939							0.55067	2.42683						
0.482121	2.11443	0.479737	2.09389	0.63096	2.76635							0.551906	2.42552						
0.483425	2.11429	0.481084	2.09399	0.632021	2.76334							0.553142	2.42421						
0.48473	2.11415	0.48243	2.09408	0.633083	2.76035							0.55438	2.42292						
0.486034	2.11401	0.483777	2.09418	0.634147	2.75739							0.555618	2.42164						
0.48734	2.11387	0.485123	2.09427	0.635213	2.75445							0.556858	2.42037						
0.488645	2.11373	0.48647	2.09437	0.63628	2.75153							0.558099	2.41911						
0.48995	2.1136	0.487816	2.09446	0.637348	2.74863							0.55934	2.41787						
0.491256	2.11346	0.489162	2.09455	0.638418	2.74576							0.560583	2.41663						
0.492562	2.11333	0.490508	2.09464	0.63949	2.7429							0.561827	2.41541						
0.493869	2.1132	0.491854	2.09473	0.640563	2.74007							0.563072	2.41419						
0.495175	2.11307	0.493199	2.09482	0.641637	2.73726							0.564317	2.41299						
0.496482	2.11295	0.494545	2.09491	0.642713	2.73448							0.565564	2.4118						
0.497789	2.11282	0.49589	2.09499	0.643791	2.73171							0.566812	2.41062						
0.499096	2.1127	0.497236	2.09508	0.64487	2.72896							0.568061	2.40945						
0.500403	2.11258	0.498581	2.09517	0.64595	2.72624							0.56931	2.40829						
0.501711	2.11246	0.499926	2.09525	0.647032	2.72354							0.570561	2.40714						
0.503019	2.11234	0.501271	2.09533	0.648115	2.72085							0.571813	2.406						
0.504327	2.11222	0.502616	2.09541	0.6492	2.71819							0.573065	2.40487						
0.505635	2.11211	0.503961	2.0955	0.650286	2.71555							0.574319	2.40375						
0.506944	2.112	0.505306	2.09558	0.651374	2.71292							0.575573	2.40264						
0.508253	2.11188	0.506651	2.09566	0.652463	2.71032							0.576829	2.40154						
0.509562	2.11177	0.507995	2.09574	0.653553	2.70773							0.578085	2.40045						
0.510871	2.11166	0.50934	2.09581	0.654645	2.70517							0.579343	2.39937						
0.51218	2.11156	0.510684	2.09589	0.655738	2.70262							0.580601	2.3983						
0.51349	2.11145	0.512028	2.09597	0.656833	2.7001							0.58186	2.39724						
0.5148	2.11134	0.513372	2.09604	0.657928	2.69759							0.58312	2.39619						
0.51611	2.11124	0.514716	2.09612	0.659026	2.6951							0.584381	2.39515						
0.51742	2.11114	0.51606	2.09619	0.660124	2.69263							0.585643	2.39411						
0.51873	2.11104	0.517404	2.09627	0.661224	2.69017							0.586906	2.39309						
0.520041	2.11094	0.518748	2.09634	0.662326	2.68774							0.588169	2.39207						
0.521351	2.11084	0.520091	2.09641	0.663428	2.68532							0.589434	2.39106						
0.522662	2.11074	0.521435	2.09648	0.664532	2.68292							0.590699	2.39006						
0.523973	2.11065	0.522778	2.09655	0.665638	2.68054							0.591965	2.38907						
0.525285	2.11055	0.524122	2.09662	0.666744	2.67817							0.593232	2.38809						
0.526596	2.11046	0.525465	2.09669	0.667852	2.67583							0.5945	2.38712						
0.527908	2.11037	0.526808	2.09676	0.668962	2.6735							0.595769	2.38615						
0.52922	2.11027	0.528151	2.09682	0.670072	2.67118							0.597039	2.3852						
0.530532	2.11018	0.529494	2.09689	0.671184	2.66889							0.598309	2.38425						
0.531844	2.1101	0.530837	2.09696	0.672297	2.66661							0.59958	2.38331						
0.533157	2.11001	0.53218	2.09702	0.673412	2.66434							0.600852	2.38237						
0.534469	2.10992	0.533522	2.09709	0.674527	2.6621							0.602125	2.38145						
0.535782	2.10984	0.534865	2.09715	0.675644	2.65987							0.603399	2.38053						
0.537095	2.10975	0.536207	2.09721	0.676762	2.65765							0.604673	2.37962						
0.538408	2.10967	0.53755	2.09728	0.677882	2.65545							0.605949	2.37872						
0.539721	2.10959	0.538892	2.09734	0.679003	2.65327							0.607225	2.37783						
0.541035	2.10951	0.540234	2.0974	0.680124	2.6511							0.608502	2.37694						
0.542348	2.10943	0.541576	2.09746	0.681248	2.64895							0.609779	2.37606						
0.543662	2.10935	0.542919	2.09752	0.682372	2.64681							0.611058	2.37519						
0.544976	2.10927	0.54426	2.09758	0.683498	2.64469							0.612337	2.37432						
0.54629	2.10919	0.545602	2.09764	0.684624	2.64258							0.613617	2.37347						
0.547604	2.10912	0.546944	2.09769	0.685752	2.64049							0.614898	2.37262						
0.548918	2.10904	0.548286	2.09775	0.686882	2.63841							0.616179	2.37177						
0.550233	2.10897	0.549627	2.09781	0.688012	2.63635							0.617462	2.37094						
0.551548	2.10889	0.550969	2.09786	0.689144	2.6343							0.618745	2.37011						
0.552862	2.10882	0.55231	2.09792	0.690276	2.63227							0.620028	2.36929						
0.554177	2.10875	0.553652	2.09797	0.69141	2.63025							0.621313	2.36847						
0.555492	2.10868	0.554993	2.09803	0.692545	2.62824							0.622598	2.36766						
0.556808	2.10861	0.556334	2.09808	0.693682	2.62625							0.623884	2.36686						
0.558123	2.10854	0.557675	2.09814	0.694819	2.62427							0.625171	2.36606						
0.559439	2.10847	0.559016	2.09819	0.695958	2.62231							0.626458	2.36527						
0.560754	2.10841	0.560357	2.09824	0.697097	2.62036							0.627746	2.36449						
0.56207	2.10834	0.561698	2.09829	0.698238	2.61842							0.629035	2.36371						
0.563386	2.10827	0.563038	2.09834	0.69938	2.6165							0.630324	2.36294						
0.564702	2.10821	0.564379	2.09839	0.700523	2.61459							0.631615	2.36218						
0.566018	2.10815	0.56572	2.09844	0.701668	2.61269							0.632905	2.36142						
0.567335	2.10808	0.56706	2.09849	0.702813	2.61081							0.634197	2.36067						
0.568651	2.10802	0.568401	2.09854	0.703959	2.60894							0.635489	2.35992						
0.569968	2.10796	0.569741	2.09859	0.705107	2.60708							0.636782	2.35918						
0.571285	2.1079	0.571081	2.09864	0.706255	2.60524							0.638076	2.35845						
0.572602	2.10784	0.572421	2.09868	0.707405	2.6034							0.63937	2.35772						
0.573919	2.10778	0.573761	2.09873	0.708556	2.60158							0.640665	2.357						
0.575236	2.10772	0.575101	2.09878	0.709708	2.59978							0.641961	2.35629						
0.576553	2.10766	0.576441	2.09882	0.710861	2.59798							0.643257	2.35558						
0.57787	2.10761	0.577781	2.09887	0.712015	2.5962							0.644554	2.35487						
0.579188	2.10755	0.579121	2.09891	0.71317	2.59443							0.645851	2.35417						
0.580506	2.10749	0.580461	2.09896	0.714326	2.59267							0.647149	2.35348						
0.581823	2.10744	0.5818	2.099	0.715483	2.59092							0.648448	2.35279						
0.583141	2.10739	0.58314	2.09904	0.716642	2.58918							0.649748	2.35211						
0.584459	2.10733	0.584479	2.09909	0.717801	2.58746							0.651048	2.35143						
0.585777	2.10728	0.585819	2.09913	0.718961	2.58575							0.652349	2.35076						
0.587096	2.10723	0.587158	2.09917	0.720123	2.58405							0.65365	2.35009						
0.588414	2.10718	0.588497	2.09921									0.654952	2.34943						
0.589732	2.10712	0.589836	2.09925									0.656255	2.34877						
0.591051	2.10707	0.591176	2.09929									0.657558	2.34812						
0.59237	2.10703	0.592515	2.09933									0.658861	2.34748						
0.593689	2.10698	0.593854	2.09937									0.660166	2.34684						
0.595007	2.10693	0.595192	2.09941									0.661471	2.3462						
0.596326	2.10688	0.596531	2.09945									0.662776	2.34557						
0.597646	2.10683	0.59787	2.09949									0.664083	2.34494						
0.598965	2.10679	0.599209	2.09953									0.665389	2.34432						
0.600284	2.10674	0.600547	2.09957									0.666697	2.34371						
0.601604	2.10669	0.601886	2.0996									0.668005	2.34309						
0.602923	2.10665	0.603224	2.09964									0.669313	2.34249						
0.604243	2.10661	0.604563	2.09968									0.670622	2.34188						
0.605562	2.10656	0.605901	2.09971									0.671932	2.34129						
0.606882	2.10652	0.607239	2.09975									0.673242	2.34069						
0.608202	2.10648	0.608578	2.09978									0.674553	2.34011						
0.609522	2.10643	0.609916	2.09982									0.675864	2.33952						
0.610842	2.10639	0.611254	2.09985									0.677176	2.33894						
0.612163	2.10635	0.612592	2.09989									0.678488	2.33837						
0.613483	2.10631	0.61393	2.09992									0.679801	2.3378						
0.614803	2.10627	0.615268	2.09995									0.681115	2.33723						
0.616124	2.10623	0.616605	2.09999									0.682429	2.33667						
0.617444	2.10619	0.617943	2.10002									0.683743	2.33611						
0.618765	2.10615	0.619281	2.10005									0.685058	2.33556						
0.620086	2.10611	0.620618	2.10008									0.686374	2.33501						
0.621407	2.10608	0.621956	2.10011									0.68769	2.33446						
0.622728	2.10604	0.623293	2.10015									0.689007	2.33392						
0.624049	2.106	0.624631	2.10018									0.690324	2.33338						
0.62537	2.10597	0.625968	2.10021									0.691642	2.33285						
0.626691	2.10593	0.627306	2.10024									0.69296	2.33232						
0.628012	2.10589	0.628643	2.10027									0.694279	2.3318						
0.629334	2.10586	0.62998	2.1003									0.695598	2.33127						
0.630655	2.10582	0.631317	2.10033									0.696917	2.33076						
0.631977	2.10579	0.632654	2.10036									0.698238	2.33024						
0.633298	2.10576	0.633991	2.10038									0.699558	2.32973						
0.63462	2.10572	0.635328	2.10041									0.70088	2.32923						
0.635942	2.10569	0.636665	2.10044									0.702201	2.32872						
0.637264	2.10566	0.638002	2.10047									0.703523	2.32823						
0.638586	2.10562	0.639339	2.1005									0.704846	2.32773						
0.639908	2.10559	0.640676	2.10052									0.706169	2.32724						
0.64123	2.10556	0.642012	2.10055									0.707493	2.32675						
0.642552	2.10553	0.643349	2.10058									0.708817	2.32627						
0.643874	2.1055	0.644685	2.1006									0.710141	2.32579						
0.645197	2.10547	0.646022	2.10063									0.711466	2.32531						
0.646519	2.10544	0.647358	2.10065									0.712792	2.32484						
0.647842	2.10541	0.648695	2.10068									0.714118	2.32437						
0.649164	2.10538	0.650031	2.1007									0.715444	2.3239						
0.650487	2.10535	0.651367	2.10073									0.716771	2.32344						
0.65181	2.10532	0.652704	2.10075									0.718098	2.32298						
0.653132	2.10529	0.65404	2.10078									0.719426	2.32252						
0.654455	2.10527	0.655376	2.1008									0.720754	2.32207						
0.655778	2.10524	0.656712	2.10083																
0.657101	2.10521	0.658048	2.10085																
0.658424	2.10518	0.659384	2.10087																
0.659747	2.10516	0.66072	2.10089																
0.66107	2.10513	0.662056	2.10092																
0.662394	2.10511	0.663392	2.10094																
0.663717	2.10508	0.664727	2.10096																
0.66504	2.10506	0.666063	2.10098																
0.666364	2.10503	0.667399	2.10101																
0.667687	2.10501	0.668735	2.10103																
0.669011	2.10498	0.67007	2.10105																
0.670335	2.10496	0.671406	2.10107																
0.671658	2.10493	0.672741	2.10109																
0.672982	2.10491	0.674077	2.10111																
0.674306	2.10489	0.675412	2.10113																
0.67563	2.10486	0.676747	2.10115																
0.676954	2.10484	0.678083	2.10117																
0.678278	2.10482	0.679418	2.10119																
0.679602	2.1048	0.680753	2.10121																
0.680926	2.10477	0.682088	2.10123																
0.68225	2.10475	0.683423	2.10125																
0.683574	2.10473	0.684758	2.10127																
0.684898	2.10471	0.686094	2.10129																
0.686223	2.10469	0.687429	2.1013																
0.687547	2.10467	0.688763	2.10132																
0.688872	2.10465	0.690098	2.10134																
0.690196	2.10463	0.691433	2.10136																
0.691521	2.10461	0.692768	2.10138																
0.692845	2.10459	0.694103	2.10139																
0.69417	2.10457	0.695438	2.10141																
0.695495	2.10455	0.696772	2.10143																
0.696819	2.10453	0.698107	2.10144																
0.698144	2.10451	0.699442	2.10146																
0.699469	2.10449	0.700776	2.10148																
0.700794	2.10448	0.702111	2.10149																
0.702119	2.10446	0.703445	2.10151																
0.703444	2.10444	0.70478	2.10153																
0.704769	2.10442	0.706114	2.10154																
0.706094	2.1044	0.707448	2.10156																
0.707419	2.10439	0.708783	2.10157																
0.708744	2.10437	0.710117	2.10159																
0.71007	2.10435	0.711451	2.1016																
0.711395	2.10434	0.712786	2.10162																
0.71272	2.10432	0.71412	2.10163																
0.714046	2.1043	0.715454	2.10165																
0.715371	2.10429	0.716788	2.10166																
0.716697	2.10427	0.718122	2.10168																
0.718022	2.10426	0.719456	2.10169																
0.719348	2.10424	0.72079	2.1017																
0.720673	2.10423																		
