Sym0		Asym0		Sym1		Sym2		Sym3		Sym4		Asym1		Asym2		Asym3		Asym4	
529  Points		531  Points		418  Points		151  Points		140  Points		105  Points		484  Points		298  Points		147  Points		113  Points	
Freq (MHz)	Vph (m/ms)	Freq (MHz)	Vph (m/ms)	Freq (MHz)	Vph (m/ms)	Freq (MHz)	Vph (m/ms)	Freq (MHz)	Vph (m/ms)	Freq (MHz)	Vph (m/ms)	Freq (MHz)	Vph (m/ms)	Freq (MHz)	Vph (m/ms)	Freq (MHz)	Vph (m/ms)	Freq (MHz)	Vph (m/ms)
0.00402479	7.74631	0.000185289	0.144126	0.166206	385.9	0.27954	535.722	0.498622	5376.3	0.55902	2823.05	0.139815	268.631	0.332414	1121.11	0.419282	867.41	0.664825	1871.67
0.0089238	7.74615	0.000411107	0.214335	0.166198	156.326	0.279663	242.289	0.498613	687.552	0.559067	673.189	0.140051	121.474	0.332406	357.826	0.419367	375.835	0.664795	673.101
0.0138222	7.74573	0.00072374	0.283762	0.166183	98.0082	0.279879	156.645	0.498589	367.243	0.559173	382.228	0.140464	78.6743	0.332388	212.876	0.419518	239.96	0.664737	410.302
0.0187196	7.74518	0.0011208	0.352124	0.166163	71.3738	0.280187	115.82	0.498552	250.515	0.559336	266.937	0.141052	58.338	0.332363	151.496	0.419737	176.305	0.664651	295.063
0.0236158	7.74442	0.00159959	0.419244	0.166136	56.1172	0.280586	91.9466	0.4985	190.081	0.559557	205.128	0.141812	46.4914	0.332329	117.583	0.420021	139.394	0.664538	230.34
0.0285104	7.74349	0.00215679	0.484903	0.166104	46.2303	0.281077	76.2951	0.498436	153.128	0.559834	166.603	0.142742	38.7596	0.332287	96.0705	0.420371	115.308	0.664401	188.885
0.0334029	7.74236	0.0027888	0.54894	0.166068	39.3021	0.281658	65.2509	0.498358	128.196	0.560169	140.296	0.143836	33.3323	0.332238	81.2071	0.420787	98.3581	0.66424	160.06
0.038293	7.74102	0.00349172	0.611211	0.166029	34.1771	0.282328	57.0475	0.498268	110.238	0.560559	121.196	0.14509	29.3249	0.332181	70.3224	0.421267	85.7879	0.664058	138.855
0.0431801	7.73945	0.00426146	0.671598	0.165987	30.2325	0.283085	50.719	0.498167	96.6867	0.561004	106.702	0.146498	26.2536	0.332119	62.0071	0.421811	76.0977	0.663856	122.599
0.0480637	7.73763	0.00509373	0.73	0.165943	27.1025	0.28393	45.6927	0.498056	86.0966	0.561503	95.3297	0.148056	23.8317	0.332051	55.4471	0.422418	68.4026	0.663635	109.741
0.0529431	7.73555	0.00598437	0.786365	0.1659	24.5587	0.28486	41.6075	0.497934	77.5925	0.562056	86.1709	0.149758	21.8783	0.331978	50.1397	0.423088	62.1464	0.663399	99.3148
0.0578177	7.73317	0.00692908	0.840641	0.165858	22.4506	0.285874	38.2245	0.497804	70.6129	0.562661	78.6385	0.151597	20.2737	0.331901	45.7572	0.42382	56.9621	0.663149	90.6906
0.0626866	7.73045	0.00792373	0.892808	0.16582	20.6753	0.28697	35.3792	0.497666	64.7816	0.563317	72.3362	0.153567	18.9356	0.33182	42.0772	0.424612	52.5976	0.662888	83.438
0.0675487	7.72736	0.00896423	0.942856	0.165786	19.1602	0.288147	32.9547	0.497521	59.8365	0.564023	66.9866	0.155662	17.8054	0.331737	38.9434	0.425464	48.8742	0.662616	77.2539
0.0724031	7.72385	0.0100468	0.990814	0.165759	17.8522	0.289403	30.8658	0.49737	55.5899	0.564779	62.39	0.157877	16.8405	0.331652	36.2427	0.426375	45.6614	0.662336	71.9182
0.077248	7.71985	0.0111677	1.03669	0.165742	16.712	0.290737	29.0486	0.497214	51.9035	0.565583	58.3987	0.160205	16.0088	0.331567	33.891	0.427343	42.862	0.66205	67.2676
0.082082	7.7153	0.0123235	1.08054	0.165736	15.7096	0.292146	27.4545	0.497054	48.6734	0.566434	54.9013	0.16264	15.286	0.331482	31.8249	0.428368	40.4019	0.66176	63.1782
0.0869027	7.71007	0.0135108	1.12241	0.165745	14.8219	0.293629	26.0459	0.496892	45.8198	0.56733	51.8121	0.165176	14.6534	0.331398	29.9955	0.429448	38.2238	0.661466	59.5543
0.0917077	7.70409	0.0147267	1.16235	0.165773	14.0308	0.295184	24.7929	0.496728	43.2805	0.568272	49.0641	0.167808	14.096	0.331317	28.3645	0.430583	36.2823	0.661171	56.3206
0.0964936	7.69718	0.0159683	1.20042	0.165822	13.3219	0.296809	23.6719	0.496563	41.0064	0.569257	46.6043	0.17053	13.602	0.331239	26.9012	0.431771	34.5416	0.660875	53.4176
0.101256	7.68915	0.017233	1.23669	0.165899	12.6836	0.298502	22.6638	0.496399	38.9581	0.570285	44.39	0.173338	13.162	0.331166	25.5813	0.433011	32.9725	0.660581	50.797
0.10599	7.67977	0.0185183	1.27124	0.16601	12.1067	0.300262	21.7528	0.496236	37.1036	0.571354	42.3866	0.176226	12.7681	0.331098	24.3847	0.434303	31.5514	0.660288	48.4197
0.110687	7.6687	0.0198222	1.30412	0.166161	11.5834	0.302086	20.9262	0.496075	35.4168	0.572464	40.5657	0.179188	12.4139	0.331036	23.2951	0.435644	30.2585	0.66	46.2534
0.115339	7.65554	0.0211425	1.33542	0.166334	11.1665	0.303973	20.1731	0.495917	33.8759	0.573614	38.9036	0.182221	12.0941	0.330983	22.2989	0.437034	29.0777	0.659715	44.2712
0.119932	7.6397	0.0224776	1.36521	0.166519	10.8371	0.305921	19.4845	0.495764	32.463	0.574803	37.3808	0.18532	11.8042	0.330938	21.3847	0.438472	27.9954	0.659435	42.4507
0.124449	7.62041	0.0238257	1.39356	0.166702	10.5814	0.307927	18.8529	0.495615	31.1627	0.576029	35.9807	0.18848	11.5406	0.330903	20.5429	0.439957	26.9999	0.659162	40.7731
0.128865	7.59663	0.0251852	1.42053	0.166869	10.3895	0.309991	18.2717	0.495473	29.9622	0.577292	34.6892	0.191697	11.3	0.33088	19.7654	0.441487	26.0815	0.658896	39.2222
0.133147	7.56692	0.026555	1.4462	0.167007	10.2538	0.31211	17.7354	0.495337	28.8506	0.578591	33.4943	0.194967	11.0797	0.330869	19.0452	0.443062	25.2318	0.658637	37.7843
0.137248	7.52938	0.0279337	1.47063	0.167102	10.1694	0.314283	17.2393	0.495209	27.8184	0.579926	32.3858	0.198286	10.8774	0.330871	18.3764	0.44468	24.4435	0.658386	36.4475
0.141108	7.48156	0.0293203	1.49389	0.16725	10.0513	0.316507	16.7792	0.495089	26.8574	0.581294	31.3548	0.201215	10.7141	0.330889	17.7538	0.446341	23.7105	0.658144	35.2016
0.144652	7.42062	0.0305342	1.51325	0.167425	9.92706	0.318781	16.3515	0.494978	25.9608	0.582697	30.3936	0.203737	10.5836	0.330924	17.1729	0.448043	23.0273	0.657912	34.0378
0.147801	7.34388	0.0315727	1.52911	0.167692	9.76503	0.321103	15.9531	0.494878	25.1221	0.584132	29.4954	0.205838	10.4813	0.330977	16.6298	0.449785	22.3891	0.65769	32.9482
0.150492	7.24979	0.0324338	1.5418	0.168083	9.57127	0.323471	15.5812	0.494788	24.3362	0.585599	28.6544	0.20751	10.4036	0.331049	16.1212	0.451567	21.7917	0.657479	31.9261
0.152707	7.13896	0.0331161	1.55158	0.168652	9.35341	0.325884	15.2333	0.49471	23.5983	0.587097	27.8654	0.208744	10.3483	0.331143	15.6439	0.453388	21.2316	0.657279	30.9654
0.154476	7.0143	0.0336184	1.55862	0.169483	9.12072	0.32834	14.9074	0.494644	22.9042	0.588626	27.1237	0.209536	10.3137	0.331261	15.1954	0.455246	20.7053	0.65709	30.0608
0.155872	6.88007	0.0339402	1.56306	0.170713	8.88455	0.330836	14.6015	0.494591	22.2501	0.590185	26.4254	0.210678	10.2649	0.331403	14.7734	0.45714	20.2102	0.656913	29.2076
0.156974	6.74055	0.0344032	1.56937	0.172316	8.68218	0.333372	14.3138	0.494552	21.6329	0.591773	25.7669	0.211922	10.2131	0.331574	14.3757	0.459069	19.7434	0.656749	28.4017
0.157857	6.59927	0.0349069	1.5761	0.174364	8.51406	0.335946	14.043	0.494528	21.0495	0.593389	25.1448	0.213621	10.1448	0.331775	14.0005	0.461034	19.3029	0.656598	27.6392
0.158582	6.45878	0.0355928	1.58509	0.176899	8.37907	0.338555	13.7876	0.494519	20.4973	0.595034	24.5564	0.215779	10.0616	0.332008	13.6461	0.463031	18.8864	0.65646	26.9168
0.159191	6.32078	0.0364615	1.59616	0.179911	8.27388	0.341199	13.5463	0.494526	19.974	0.596706	23.999	0.218401	9.96558	0.332278	13.3112	0.465062	18.4922	0.656336	26.2314
0.159718	6.18634	0.0375136	1.60912	0.183344	8.19345	0.343874	13.3181	0.494551	19.4774	0.598405	23.4703	0.221493	9.85872	0.332587	12.9944	0.467124	18.1185	0.656225	25.5804
0.160185	6.05609	0.0387498	1.62376	0.187119	8.1323	0.34658	13.102	0.494593	19.0057	0.600129	22.9682	0.225058	9.74313	0.332939	12.6944	0.469216	17.7639	0.65613	24.9613
0.16061	5.93035	0.0401708	1.63984	0.191157	8.08553	0.349315	12.897	0.494655	18.5571	0.60188	22.4908	0.228638	9.63432	0.333339	12.4104	0.471339	17.427	0.656049	24.3718
0.161005	5.80926	0.0415939	1.65521	0.195391	8.0493	0.352077	12.7024	0.494736	18.1299	0.603655	22.0363	0.232228	9.53158	0.333792	12.1414	0.47349	17.1065	0.655984	23.81
0.161378	5.69284	0.0430188	1.66988	0.199771	8.02078	0.354863	12.5173	0.494838	17.7229	0.605454	21.6033	0.235824	9.43427	0.334303	11.8865	0.475669	16.8013	0.655934	23.2739
0.161738	5.58102	0.0444451	1.68391	0.204261	7.99795	0.357672	12.3411	0.494962	17.3347	0.607278	21.1901	0.239421	9.3418	0.334877	11.6451	0.477875	16.5104	0.655901	22.7619
0.16209	5.47368	0.0458726	1.69732	0.208833	7.97936	0.360502	12.1731	0.495108	16.9641	0.609124	20.7956	0.243013	9.25362	0.335523	11.4164	0.480106	16.2328	0.655884	22.2725
0.162436	5.37068	0.047301	1.71015	0.213468	7.964	0.363352	12.0127	0.495279	16.61	0.610993	20.4186	0.246596	9.16922	0.33615	11.2272	0.482363	15.9676	0.655885	21.8042
0.162781	5.27184	0.0487301	1.72243	0.218152	7.95113	0.366218	11.8595	0.495475	16.2714	0.612885	20.0578	0.250162	9.0881	0.336735	11.073	0.484643	15.7141	0.655902	21.3558
0.163082	5.18899	0.0501598	1.7342	0.222874	7.9402	0.369099	11.7129	0.495698	15.9475	0.614797	19.7124	0.253705	9.00982	0.337258	10.9503	0.486947	15.4715	0.655938	20.9261
0.163341	5.12066	0.0515898	1.74547	0.227626	7.93082	0.371992	11.5725	0.495948	15.6374	0.616731	19.3814	0.257219	8.93393	0.337698	10.8563	0.489272	15.2392	0.655992	20.5139
0.163556	5.06572	0.0530199	1.75628	0.232403	7.92268	0.374895	11.4377	0.496228	15.3403	0.618685	19.0639	0.260694	8.86001	0.338036	10.7889	0.491618	15.0165	0.656065	20.1183
0.163728	5.02324	0.0544502	1.76664	0.2372	7.91556	0.377806	11.3084	0.49654	15.0556	0.620658	18.7591	0.264122	8.78764	0.33826	10.7464	0.493984	14.8028	0.656158	19.7383
0.163855	4.99254	0.0558804	1.77659	0.242014	7.90926	0.380347	11.1997	0.496884	14.7825	0.622651	18.4663	0.267494	8.71641	0.338592	10.6864	0.496368	14.5976	0.656271	19.3731
0.163937	4.97312	0.0573105	1.78614	0.246841	7.90365	0.382515	11.1098	0.497263	14.5206	0.624663	18.1849	0.2708	8.64593	0.338967	10.6225	0.498771	14.4004	0.656404	19.0219
0.164055	4.94552	0.0587404	1.79532	0.251679	7.89862	0.384308	11.0373	0.497679	14.2692	0.626692	17.9142	0.274027	8.57581	0.339501	10.5378	0.501189	14.2107	0.656559	18.684
0.164184	4.91594	0.06017	1.80414	0.256527	7.89407	0.385726	10.9812	0.498134	14.0279	0.628739	17.6535	0.277165	8.50567	0.340217	10.4342	0.503623	14.0282	0.656736	18.3586
0.16436	4.87638	0.0615993	1.81262	0.261383	7.88994	0.386768	10.9405	0.49863	13.7961	0.630803	17.4024	0.280202	8.43515	0.341149	10.3142	0.506071	13.8523	0.656935	18.0451
0.164587	4.82745	0.0630283	1.82078	0.266245	7.88616	0.387435	10.9147	0.499169	13.5735	0.632882	17.1604	0.283127	8.36394	0.34234	10.1805	0.508532	13.6828	0.657158	17.743
0.164864	4.76985	0.0644567	1.82864	0.271113	7.88268	0.388393	10.878	0.499755	13.3597	0.634977	16.9269	0.285926	8.29173	0.343844	10.0365	0.511005	13.5193	0.657405	17.4516
0.165195	4.70442	0.0658847	1.8362	0.275986	7.87946	0.389434	10.8386	0.50039	13.1543	0.637087	16.7016	0.288592	8.21829	0.345504	9.90216	0.513488	13.3614	0.657677	17.1706
0.165583	4.63205	0.0673123	1.8435	0.280862	7.87646	0.390848	10.7857	0.501078	12.9569	0.639212	16.484	0.291114	8.14344	0.34733	9.77727	0.515979	13.2089	0.657975	16.8993
0.165981	4.56244	0.0687392	1.85052	0.285742	7.87365	0.392633	10.7201	0.501821	12.7674	0.641349	16.2737	0.293486	8.06709	0.349328	9.6615	0.518479	13.0614	0.658299	16.6374
0.166388	4.49548	0.0701658	1.8573	0.290624	7.87101	0.394788	10.6424	0.502622	12.5852	0.6435	16.0703	0.295706	7.98921	0.351502	9.5545	0.520985	12.9187	0.658652	16.3844
0.166805	4.43102	0.0715917	1.86384	0.295508	7.86851	0.397307	10.5535	0.503486	12.4103	0.645663	15.8736	0.297772	7.90986	0.353853	9.45584	0.523495	12.7805	0.659033	16.14
0.167232	4.36896	0.073017	1.87016	0.300394	7.86613	0.400183	10.4543	0.504416	12.2424	0.647836	15.6832	0.299685	7.82917	0.356379	9.36507	0.526009	12.6466	0.659444	15.9037
0.167669	4.30918	0.0744418	1.87626	0.305281	7.86385	0.40304	10.3578	0.505415	12.0812	0.650021	15.4988	0.301453	7.74733	0.359076	9.28168	0.528524	12.5167	0.659887	15.6753
0.168116	4.25158	0.0758661	1.88215	0.310168	7.86166	0.405875	10.2638	0.506488	11.9265	0.652215	15.3201	0.30308	7.66457	0.361936	9.20513	0.531039	12.3907	0.660361	15.4544
0.168575	4.19606	0.0772897	1.88785	0.315055	7.85954	0.408684	10.1722	0.507638	11.7782	0.654419	15.1468	0.304577	7.58117	0.364952	9.13487	0.533553	12.2683	0.66087	15.2407
0.169043	4.14251	0.0787128	1.89336	0.319942	7.85748	0.411463	10.0826	0.508707	11.654	0.656631	14.9788	0.305953	7.49741	0.368111	9.07037	0.536063	12.1493	0.661413	15.0339
0.169523	4.09086	0.0801354	1.8987	0.324828	7.85546	0.414207	9.99493	0.509668	11.5517	0.65885	14.8156	0.30722	7.41354	0.371404	9.01107	0.538568	12.0336	0.661992	14.8339
0.170013	4.04101	0.0815573	1.90386	0.329712	7.85347	0.416912	9.90899	0.5105	11.4695	0.661075	14.6572	0.308387	7.32984	0.374819	8.95649	0.541065	11.921	0.66261	14.6402
0.170514	3.99289	0.0829787	1.90886	0.334595	7.85149	0.419575	9.8246	0.511181	11.4061	0.663307	14.5033	0.309465	7.24654	0.378345	8.90615	0.543554	11.8112	0.663267	14.4528
0.171025	3.94642	0.0843996	1.9137	0.339476	7.84952	0.422192	9.7416	0.511695	11.3603	0.665543	14.3537	0.310465	7.16384	0.381971	8.85962	0.545714	11.7178	0.663964	14.2713
0.171547	3.90153	0.0858199	1.91839	0.344353	7.84755	0.424757	9.65983	0.512031	11.3314	0.667783	14.2082	0.311394	7.08194	0.385688	8.8165	0.547547	11.6398	0.664705	14.0956
0.17208	3.85815	0.0872397	1.92294	0.349228	7.84555	0.427269	9.57916	0.512522	11.2904	0.670026	14.0667	0.312262	7.00098	0.389487	8.77644	0.549058	11.5763	0.665489	13.9255
0.172623	3.81621	0.0886589	1.92736	0.354098	7.84351	0.429722	9.49947	0.513067	11.2464	0.67227	13.9288	0.313076	6.92109	0.393358	8.73914	0.550248	11.5267	0.66632	13.7607
0.173177	3.77566	0.0900776	1.93164	0.358962	7.84141	0.432115	9.42065	0.513827	11.1877	0.674516	13.7946	0.313843	6.84238	0.397296	8.70431	0.55112	11.4906	0.667199	13.6012
0.173741	3.73644	0.0914958	1.9358	0.363821	7.83925	0.434444	9.34261	0.514822	11.1154	0.676761	13.6638	0.314569	6.76492	0.401292	8.67171	0.551678	11.4677	0.668128	13.4468
0.174315	3.69848	0.0929135	1.93984	0.368673	7.83699	0.436708	9.26528	0.516074	11.0305	0.679005	13.5362	0.315258	6.68878	0.405342	8.64111	0.552477	11.4349	0.669108	13.2973
0.1749	3.66175	0.0943308	1.94376	0.373516	7.83461	0.438905	9.1886	0.517613	10.9346	0.681247	13.4118	0.315917	6.614	0.409438	8.61234	0.553344	11.3995	0.670142	13.1525
0.175495	3.62619	0.0957475	1.94757	0.378349	7.83209	0.441035	9.11254	0.519474	10.8292	0.683486	13.2904	0.316549	6.54062	0.413578	8.5852	0.554519	11.3519	0.671231	13.0124
0.176099	3.59175	0.0971638	1.95128	0.383171	7.82939	0.443099	9.03709	0.521437	10.7287	0.685719	13.1719	0.317157	6.46865	0.417757	8.55956	0.555998	11.2923	0.672378	12.8767
0.176714	3.55838	0.0985797	1.95488	0.387978	7.82648	0.445098	8.96226	0.523503	10.6328	0.687948	13.0561	0.317744	6.39811	0.42197	8.53529	0.557775	11.2214	0.673584	12.7454
0.177339	3.52605	0.099995	1.95839	0.392768	7.8233	0.447036	8.88808	0.525672	10.5415	0.690169	12.9429	0.318315	6.32899	0.426215	8.51225	0.559844	11.1395	0.674851	12.6184
0.177973	3.49471	0.10141	1.9618	0.397538	7.81979	0.448916	8.81462	0.527942	10.4544	0.692382	12.8322	0.31887	6.2613	0.430488	8.49035	0.562195	11.0472	0.67618	12.4955
0.178617	3.46433	0.102824	1.96512	0.402282	7.81587	0.450744	8.74197	0.530314	10.3715	0.694585	12.7239	0.319413	6.19501	0.434787	8.46948	0.564519	10.9567	0.677573	12.3766
0.17927	3.43487	0.104239	1.96835	0.406995	7.81146	0.452529	8.67023	0.532784	10.2925	0.696778	12.6178	0.319944	6.13013	0.439108	8.44957	0.566813	10.8679	0.679032	12.2616
0.179933	3.40629	0.105652	1.9715	0.411669	7.80641	0.454281	8.59958	0.53535	10.2172	0.698959	12.514	0.320467	6.06663	0.443451	8.43054	0.569077	10.7805	0.680358	12.1645
0.180605	3.37856	0.107066	1.97457	0.416295	7.80058	0.456011	8.53022	0.53801	10.1455	0.701127	12.4123	0.320981	6.00448	0.447813	8.41232	0.571307	10.6947	0.681529	12.0839
0.181286	3.35165	0.108478	1.97756	0.420859	7.79374	0.457738	8.46241	0.540761	10.0772	0.703281	12.3125	0.32149	5.94367	0.452192	8.39483	0.573503	10.6101	0.682526	12.0188
0.181976	3.32553	0.109891	1.98048	0.425344	7.78561	0.459483	8.39649	0.543598	10.0121	0.705145	12.2272	0.321993	5.88417	0.456586	8.37803	0.575662	10.5269	0.683333	11.9682
0.182676	3.30017	0.111303	1.98332	0.429727	7.7758	0.461273	8.33288	0.546518	9.94995	0.706724	12.1556	0.322492	5.82595	0.460993	8.36187	0.577783	10.4449	0.683937	11.9316
0.183384	3.27553	0.112715	1.9861	0.433976	7.76384	0.463143	8.27216	0.549516	9.89067	0.708022	12.097	0.322987	5.76899	0.465412	8.34628	0.579865	10.364	0.684328	11.9084
0.1841	3.2516	0.114126	1.98881	0.438052	7.74909	0.465138	8.215	0.55259	9.83405	0.709044	12.0513	0.323481	5.71326	0.469842	8.33123	0.581906	10.2843	0.684896	11.8754
0.184826	3.22835	0.115538	1.99145	0.441907	7.73079	0.467311	8.16221	0.555735	9.77994	0.709792	12.0178	0.323972	5.65874	0.474281	8.31667	0.583907	10.2055	0.685523	11.8399
0.18556	3.20575	0.116948	1.99403	0.445488	7.70814	0.469719	8.11463	0.558948	9.72819	0.71027	11.9966	0.324463	5.60538	0.478727	8.30256	0.585865	10.1278	0.68639	11.7923
0.186302	3.18379	0.118359	1.99655	0.448744	7.68043	0.472414	8.07297	0.562223	9.67866	0.710955	11.9661	0.324953	5.55318	0.48318	8.28886	0.58778	10.051	0.687509	11.7332
0.187052	3.16243	0.119769	1.99901	0.451642	7.64725	0.475429	8.03762	0.565558	9.63121	0.711697	11.9332	0.325444	5.50209	0.487637	8.27554	0.589654	9.9752	0.688899	11.6634
0.187811	3.14166	0.121179	2.00141	0.454176	7.60869	0.478767	8.00843	0.568949	9.58571	0.712702	11.8889	0.325934	5.45209	0.492098	8.26255	0.591485	9.90025	0.690579	11.5837
0.188577	3.12146	0.122588	2.00376	0.456371	7.5653	0.482405	7.9848	0.572392	9.54205	0.713965	11.8333	0.326426	5.40316	0.49656	8.24988	0.593275	9.8262	0.692573	11.4952
0.189352	3.10181	0.123998	2.00606	0.458269	7.51795	0.4863	7.96588	0.575884	9.5001	0.715483	11.7668	0.32692	5.35526	0.501023	8.23747	0.595025	9.75301	0.694637	11.4097
0.190134	3.08269	0.125407	2.0083	0.459921	7.46757	0.490404	7.95074	0.579423	9.45978	0.717247	11.6898	0.327415	5.30837	0.505485	8.22529	0.596735	9.68069	0.696772	11.3271
0.190924	3.06408	0.126815	2.0105	0.461375	7.41504	0.494672	7.93855	0.583004	9.42097	0.71925	11.6029	0.327912	5.26247	0.509943	8.21331	0.598408	9.60924	0.698975	11.2473
0.191722	3.04596	0.128224	2.01265	0.462671	7.36104	0.499069	7.92863	0.586625	9.38359	0.721228	11.5173	0.328411	5.21753	0.514397	8.2015	0.600046	9.53867	0.701246	11.1702
0.192527	3.02832	0.129632	2.01475	0.463841	7.30614	0.503564	7.92046	0.590284	9.34755			0.328913	5.17352	0.518843	8.18981	0.601651	9.46898	0.703585	11.0956
0.193339	3.01114	0.13104	2.01681	0.464911	7.25075	0.508136	7.91365	0.593978	9.31277			0.329418	5.13043	0.52328	8.1782	0.603227	9.40021	0.705988	11.0236
0.194159	2.99441	0.132448	2.01882	0.465898	7.19518	0.512767	7.90789	0.597704	9.27918			0.329926	5.08822	0.527705	8.16663	0.604777	9.33238	0.708457	10.9539
0.194986	2.97812	0.133855	2.02079	0.466819	7.13967	0.517446	7.90296	0.601461	9.24671			0.330437	5.04687	0.532115	8.15506	0.606304	9.26553	0.710987	10.8866
0.195819	2.96224	0.135262	2.02272	0.467685	7.08438	0.522163	7.8987	0.605246	9.21529			0.330952	5.00637	0.536506	8.14343	0.607814	9.19969	0.713578	10.8215
0.19666	2.94676	0.136669	2.02462	0.468504	7.02944	0.52691	7.89497	0.609056	9.18487			0.33147	4.96669	0.540875	8.13168	0.609312	9.13492	0.716228	10.7585
0.197508	2.93168	0.138076	2.02647	0.469284	6.97495	0.531681	7.89168	0.612891	9.15537			0.331991	4.9278	0.545217	8.11974	0.610804	9.07127	0.718936	10.6975
0.198362	2.91698	0.139482	2.02828	0.47003	6.92099	0.536473	7.88875	0.616748	9.12676			0.332517	4.8897	0.549526	8.10755	0.612298	9.00883	0.721698	10.6385
0.199223	2.90265	0.140889	2.03006	0.470748	6.8676	0.541282	7.88612	0.620625	9.09897			0.333046	4.85235	0.553796	8.09502	0.6138	8.94767		
0.200091	2.88867	0.142295	2.03181	0.471441	6.81483	0.546104	7.88374	0.62452	9.07197			0.333579	4.81575	0.55802	8.08205	0.615321	8.8879		
0.200965	2.87504	0.143701	2.03352	0.472112	6.76271	0.550938	7.88156	0.628432	9.04569			0.334116	4.77986	0.562189	8.06852	0.61687	8.82962		
0.201845	2.86174	0.145106	2.03519	0.472764	6.71125	0.555782	7.87957	0.63236	9.02011			0.334658	4.74468	0.566293	8.0543	0.618461	8.77297		
0.202732	2.84876	0.146512	2.03684	0.4734	6.66048	0.560635	7.87772	0.6363	8.99517			0.335204	4.71018	0.570319	8.03925	0.620107	8.71811		
0.203625	2.8361	0.147917	2.03845	0.474021	6.6104	0.565494	7.87601	0.640253	8.97083			0.335753	4.67635	0.574253	8.02318	0.621825	8.6652		
0.204524	2.82375	0.149322	2.04003	0.47463	6.56102	0.570359	7.87441	0.644215	8.94706			0.336308	4.64317	0.57808	8.0059	0.623631	8.61446		
0.205428	2.81169	0.150727	2.04159	0.475227	6.51233	0.575229	7.8729	0.648185	8.92382			0.336866	4.61062	0.581781	7.98721	0.625546	8.56607		
0.206339	2.79992	0.152132	2.04311	0.475814	6.46435	0.580104	7.87148	0.652162	8.90107			0.337429	4.57869	0.585339	7.96688	0.62759	8.52027		
0.207256	2.78843	0.153536	2.04461	0.476392	6.41707	0.584981	7.87013	0.656144	8.87877			0.337997	4.54737	0.588734	7.94469	0.629783	8.47725		
0.208178	2.7772	0.15494	2.04608	0.476963	6.37049	0.589862	7.86883	0.660128	8.85688			0.338569	4.51663	0.591947	7.92045	0.632144	8.4372		
0.209106	2.76624	0.156345	2.04752	0.477527	6.32459	0.594745	7.86759	0.664113	8.83537			0.339145	4.48647	0.594964	7.89401	0.634688	8.40025		
0.21004	2.75554	0.157749	2.04894	0.478084	6.27938	0.59963	7.8664	0.668096	8.8142			0.339726	4.45687	0.597772	7.86528	0.637426	8.36645		
0.210979	2.74508	0.159153	2.05033	0.478637	6.23484	0.604516	7.86524	0.672075	8.79333			0.340312	4.42781	0.600368	7.83424	0.640361	8.33578		
0.211923	2.73486	0.160556	2.05169	0.479184	6.19097	0.609403	7.86411	0.676048	8.77272			0.340902	4.39929	0.602754	7.80098	0.643491	8.30813		
0.212873	2.72488	0.16196	2.05304	0.479728	6.14776	0.61429	7.863	0.680012	8.75233			0.341497	4.37129	0.604936	7.76566	0.646808	8.28331		
0.213828	2.71512	0.163363	2.05436	0.480269	6.1052	0.619177	7.86191	0.683964	8.73211			0.342096	4.34379	0.606928	7.72849	0.650298	8.2611		
0.214788	2.70558	0.164766	2.05565	0.480806	6.06329	0.624064	7.86084	0.6879	8.71202			0.3427	4.3168	0.608746	7.68971	0.653945	8.24121		
0.215753	2.69626	0.16617	2.05693	0.481341	6.022	0.62895	7.85977	0.691818	8.69201			0.343309	4.29028	0.610408	7.64959	0.657732	8.22339		
0.216723	2.68715	0.167572	2.05818	0.481874	5.98134	0.633834	7.85869	0.695712	8.67202			0.343922	4.26424	0.611933	7.6084	0.661641	8.20737		
0.217698	2.67823	0.168975	2.05941	0.482405	5.94129	0.638717	7.85762	0.699579	8.65201			0.34454	4.23866	0.613336	7.56635	0.665657	8.1929		
0.218678	2.66952	0.170378	2.06063	0.482934	5.90184	0.643598	7.85653	0.703413	8.63191			0.345162	4.21354	0.614635	7.52367	0.669764	8.17979		
0.219663	2.661	0.17178	2.06182	0.483463	5.86299	0.648475	7.85542	0.707208	8.61166			0.34579	4.18885	0.615842	7.48053	0.673951	8.16783		
0.220652	2.65266	0.173183	2.06299	0.483991	5.82472	0.653349	7.85429	0.71096	8.59117			0.346421	4.1646	0.616971	7.43711	0.678206	8.15687		
0.221646	2.6445	0.174585	2.06414	0.484518	5.78702	0.658219	7.85312	0.71466	8.57039			0.347057	4.14076	0.618031	7.39352	0.682519	8.14678		
0.222645	2.63652	0.175987	2.06528	0.485046	5.74988	0.663083	7.85191	0.718302	8.54922			0.347698	4.11734	0.619032	7.34988	0.686882	8.13743		
0.223648	2.62871	0.177389	2.06639	0.485573	5.71329	0.667942	7.85065	0.721877	8.52758			0.348344	4.09432	0.619981	7.30629	0.691289	8.12873		
0.224656	2.62107	0.178791	2.06749	0.4861	5.67725	0.672793	7.84932					0.348994	4.07169	0.620885	7.26281	0.695734	8.1206		
0.225668	2.61359	0.180193	2.06857	0.486628	5.64175	0.677637	7.84792					0.349648	4.04944	0.621749	7.21951	0.70021	8.11297		
0.226684	2.60627	0.181594	2.06964	0.487157	5.60676	0.68247	7.84642					0.350307	4.02758	0.622579	7.17644	0.704716	8.10577		
0.227705	2.59911	0.182996	2.07068	0.487686	5.57229	0.687291	7.84481					0.350971	4.00608	0.623378	7.13364	0.709245	8.09895		
0.228729	2.59209	0.184397	2.07171	0.488216	5.53833	0.692099	7.84306					0.351639	3.98493	0.624149	7.09115	0.713797	8.09248		
0.229758	2.58522	0.185799	2.07273	0.488748	5.50486	0.696889	7.84115					0.352311	3.96414	0.624897	7.04899	0.718367	8.08632		
0.230791	2.5785	0.1872	2.07373	0.48928	5.47188	0.701659	7.83904					0.352988	3.9437	0.625623	7.00719	0.722954	8.08042		
0.231828	2.57191	0.188601	2.07471	0.489814	5.43938	0.706404	7.83668					0.35367	3.92359	0.626329	6.96576				
0.232869	2.56546	0.190002	2.07568	0.490349	5.40734	0.711118	7.83401					0.354356	3.90381	0.627019	6.92472				
0.233914	2.55913	0.191403	2.07664	0.490886	5.37577	0.715794	7.83096					0.355046	3.88435	0.627693	6.88408				
0.234962	2.55294	0.192803	2.07758	0.491425	5.34465	0.720423	7.82744					0.355741	3.8652	0.628353	6.84385				
0.236015	2.54687	0.194204	2.07851	0.491965	5.31397							0.35644	3.84637	0.629001	6.80403				
0.237071	2.54093	0.195604	2.07942	0.492507	5.28373							0.357143	3.82783	0.629637	6.76463				
0.238131	2.5351	0.197005	2.08032	0.493051	5.25392							0.357851	3.8096	0.630263	6.72566				
0.239194	2.52939	0.198405	2.08121	0.493597	5.22453							0.358563	3.79165	0.63088	6.68711				
0.240261	2.5238	0.199805	2.08208	0.494145	5.19555							0.35928	3.77399	0.631488	6.64899				
0.241331	2.51831	0.201205	2.08294	0.494696	5.16698							0.360001	3.7566	0.632089	6.61129				
0.242405	2.51293	0.202605	2.08379	0.495248	5.1388							0.360726	3.73949	0.632683	6.57402				
0.243483	2.50766	0.204005	2.08463	0.495803	5.11102							0.361455	3.72264	0.633271	6.53717				
0.244563	2.50249	0.205405	2.08546	0.49636	5.08362							0.362188	3.70605	0.633854	6.50074				
0.245647	2.49742	0.206805	2.08627	0.496919	5.05659							0.362926	3.68972	0.634431	6.46472				
0.246735	2.49245	0.208205	2.08708	0.497481	5.02994							0.363668	3.67364	0.635004	6.42913				
0.247825	2.48757	0.209604	2.08787	0.498046	5.00365							0.364413	3.6578	0.635572	6.39394				
0.248919	2.48279	0.211004	2.08865	0.498612	4.97771							0.365163	3.64221	0.636137	6.35916				
0.250016	2.4781	0.212403	2.08942	0.499182	4.95213							0.365917	3.62685	0.636699	6.32479				
0.251116	2.47349	0.213802	2.09018	0.499754	4.92689							0.366676	3.61173	0.637258	6.29082				
0.252219	2.46898	0.215201	2.09093	0.500328	4.90199							0.367438	3.59683	0.637814	6.25724				
0.253325	2.46454	0.2166	2.09167	0.500905	4.87742							0.368204	3.58215	0.638367	6.22405				
0.254434	2.4602	0.217999	2.0924	0.501485	4.85318							0.368974	3.56769	0.638919	6.19125				
0.255546	2.45593	0.219398	2.09312	0.502068	4.82926							0.369748	3.55345	0.639469	6.15884				
0.25666	2.45174	0.220797	2.09384	0.502653	4.80565							0.370526	3.53941	0.640017	6.1268				
0.257778	2.44763	0.222196	2.09454	0.503241	4.78236							0.371308	3.52558	0.640564	6.09513				
0.258898	2.44359	0.223595	2.09523	0.503831	4.75937							0.372094	3.51195	0.64111	6.06383				
0.260021	2.43963	0.224993	2.09592	0.504425	4.73667							0.372884	3.49853	0.641654	6.03289				
0.261147	2.43574	0.226392	2.09659	0.505021	4.71428							0.373678	3.48529	0.642198	6.00232				
0.262276	2.43192	0.22779	2.09726	0.50562	4.69216							0.374475	3.47225	0.642742	5.97209				
0.263407	2.42817	0.229188	2.09792	0.506222	4.67034							0.375277	3.45939	0.643285	5.94222				
0.264541	2.42448	0.230587	2.09857	0.506827	4.64879							0.376082	3.44671	0.643828	5.91269				
0.265677	2.42087	0.231985	2.09921	0.507434	4.62752							0.37689	3.43422	0.64437	5.8835				
0.266816	2.41731	0.233383	2.09984	0.508045	4.60652							0.377703	3.4219	0.644913	5.85465				
0.267958	2.41382	0.234781	2.10047	0.508658	4.58578							0.378519	3.40976	0.645456	5.82612				
0.269101	2.4104	0.236179	2.10109	0.509274	4.5653							0.379339	3.39779	0.645998	5.79792				
0.270248	2.40703	0.237577	2.1017	0.509893	4.54508							0.380163	3.38598	0.646542	5.77005				
0.271396	2.40372	0.238975	2.1023	0.510515	4.52512							0.38099	3.37434	0.647085	5.74249				
0.272548	2.40047	0.240372	2.1029	0.51114	4.5054							0.38182	3.36286	0.64763	5.71524				
0.273701	2.39727	0.24177	2.10348	0.511767	4.48592							0.382655	3.35154	0.648174	5.6883				
0.274857	2.39413	0.243168	2.10407	0.512398	4.46669							0.383493	3.34038	0.64872	5.66166				
0.276015	2.39105	0.244565	2.10464	0.513031	4.44769							0.384334	3.32937	0.649266	5.63532				
0.277175	2.38802	0.245963	2.10521	0.513667	4.42892							0.385179	3.3185	0.649813	5.60928				
0.278338	2.38504	0.24736	2.10577	0.514307	4.41038							0.386027	3.30779	0.650362	5.58353				
0.279502	2.38211	0.248757	2.10633	0.514949	4.39207							0.386879	3.29722	0.650911	5.55806				
0.280669	2.37923	0.250154	2.10687	0.515594	4.37397							0.387735	3.28679	0.651461	5.53288				
0.281838	2.3764	0.251552	2.10741	0.516242	4.3561							0.388593	3.27651	0.652012	5.50798				
0.283009	2.37361	0.252949	2.10795	0.516893	4.33844							0.389456	3.26636	0.652565	5.48335				
0.284183	2.37088	0.254346	2.10848	0.517546	4.32099							0.390321	3.25634	0.653119	5.45899				
0.285358	2.36819	0.255743	2.109	0.518203	4.30374							0.39119	3.24646	0.653674	5.4349				
0.286535	2.36554	0.25714	2.10952	0.518862	4.2867							0.392062	3.23671	0.65423	5.41107				
0.287714	2.36294	0.258536	2.11003	0.519525	4.26986							0.392938	3.22709	0.654788	5.3875				
0.288896	2.36038	0.259933	2.11054	0.52019	4.25322							0.393816	3.21759	0.655347	5.36419				
0.290079	2.35786	0.26133	2.11104	0.520858	4.23678							0.394698	3.20822	0.655908	5.34113				
0.291264	2.35539	0.262727	2.11153	0.521529	4.22053							0.395584	3.19897	0.65647	5.31832				
0.292451	2.35295	0.264123	2.11202	0.522203	4.20446							0.396472	3.18984	0.657033	5.29575				
0.29364	2.35055	0.26552	2.1125	0.52288	4.18858							0.397364	3.18083	0.657599	5.27342				
0.29483	2.3482	0.266916	2.11298	0.52356	4.17288							0.398258	3.17193	0.658166	5.25134				
0.296023	2.34588	0.268312	2.11345	0.524242	4.15737							0.399156	3.16315	0.658734	5.22948				
0.297217	2.3436	0.269709	2.11392	0.524928	4.14203							0.400057	3.15448	0.659304	5.20786				
0.298413	2.34135	0.271105	2.11438	0.525616	4.12687							0.400961	3.14592	0.659876	5.18647				
0.299611	2.33914	0.272501	2.11484	0.526307	4.11187							0.401869	3.13747	0.66045	5.1653				
0.300811	2.33697	0.273897	2.11529	0.527001	4.09705							0.402779	3.12913	0.661026	5.14436				
0.302012	2.33483	0.275293	2.11574	0.527698	4.0824							0.403692	3.12089	0.661603	5.12363				
0.303215	2.33272	0.276689	2.11618	0.528398	4.06791							0.404609	3.11275	0.662182	5.10312				
0.30442	2.33065	0.278085	2.11662	0.5291	4.05358							0.405528	3.10472	0.662763	5.08282				
0.305626	2.32861	0.279481	2.11705	0.529806	4.03941							0.40645	3.09679	0.663345	5.06274				
0.306834	2.3266	0.280877	2.11748	0.530514	4.0254							0.407375	3.08895	0.66393	5.04286				
0.308043	2.32463	0.282273	2.11791	0.531225	4.01154							0.408304	3.08121	0.664516	5.02318				
0.309254	2.32268	0.283668	2.11833	0.531938	3.99784							0.409235	3.07357	0.665105	5.00371				
0.310467	2.32076	0.285064	2.11874	0.532655	3.98428							0.410169	3.06602	0.665695	4.98443				
0.311681	2.31888	0.286459	2.11915	0.533374	3.97088							0.411106	3.05856	0.666287	4.96535				
0.312897	2.31702	0.287855	2.11956	0.534096	3.95762							0.412045	3.0512	0.666881	4.94646				
0.314114	2.31519	0.28925	2.11996	0.534821	3.9445							0.412988	3.04392	0.667477	4.92777				
0.315333	2.31339	0.290646	2.12036	0.535549	3.93153							0.413933	3.03673	0.668075	4.90926				
0.316553	2.31162	0.292041	2.12075	0.536279	3.9187							0.414881	3.02963	0.668675	4.89094				
0.317775	2.30987	0.293436	2.12114	0.537012	3.906							0.415832	3.02262	0.669277	4.8728				
0.318998	2.30815	0.294832	2.12153	0.537748	3.89344							0.416786	3.01568	0.669881	4.85484				
0.320223	2.30645	0.296227	2.12191	0.538486	3.88102							0.417742	3.00883	0.670488	4.83707				
0.321449	2.30479	0.297622	2.12229	0.539227	3.86873							0.418701	3.00207	0.671096	4.81946				
0.322676	2.30314	0.299017	2.12267	0.539971	3.85656							0.419663	2.99538	0.671706	4.80203				
0.323905	2.30152	0.300412	2.12304	0.540718	3.84453							0.420627	2.98877	0.672318	4.78478				
0.325135	2.29993	0.301807	2.1234	0.541467	3.83262							0.421594	2.98224	0.672932	4.76769				
0.326366	2.29835	0.303202	2.12377	0.542219	3.82084							0.422564	2.97579	0.673548	4.75077				
0.327599	2.29681	0.304596	2.12413	0.542974	3.80918							0.423536	2.96941	0.674167	4.73401				
0.328833	2.29528	0.305991	2.12448	0.543731	3.79764							0.424511	2.9631	0.674787	4.71742				
0.330068	2.29378	0.307386	2.12484	0.544491	3.78623							0.425489	2.95687	0.67541	4.70098				
0.331305	2.2923	0.308781	2.12519	0.545254	3.77493							0.426469	2.95071	0.676034	4.68471				
0.332543	2.29083	0.310175	2.12553	0.546019	3.76375							0.427451	2.94463	0.676661	4.66859				
0.333782	2.2894	0.31157	2.12588	0.546787	3.75268							0.428436	2.93861	0.67729	4.65262				
0.335022	2.28798	0.312964	2.12621	0.547557	3.74172							0.429424	2.93266	0.67792	4.63681				
0.336263	2.28658	0.314359	2.12655	0.54833	3.73088							0.430414	2.92678	0.678553	4.62115				
0.337506	2.2852	0.315753	2.12688	0.549106	3.72015							0.431407	2.92097	0.679188	4.60564				
0.33875	2.28385	0.317147	2.12721	0.549884	3.70953							0.432402	2.91522	0.679826	4.59027				
0.339995	2.28251	0.318541	2.12754	0.550665	3.69901							0.433399	2.90954	0.680465	4.57505				
0.341241	2.28119	0.319936	2.12786	0.551448	3.6886							0.434399	2.90393	0.681106	4.55997				
0.342489	2.27989	0.32133	2.12818	0.552234	3.6783							0.435401	2.89837	0.68175	4.54504				
0.343737	2.27861	0.322724	2.1285	0.553022	3.6681							0.436406	2.89288	0.682395	4.53024				
0.344987	2.27734	0.324118	2.12882	0.553813	3.658							0.437413	2.88745	0.683043	4.51558				
0.346238	2.2761	0.325512	2.12913	0.554607	3.648							0.438422	2.88208	0.683693	4.50106				
0.34749	2.27487	0.326906	2.12943	0.555403	3.6381							0.439434	2.87677	0.684345	4.48667				
0.348743	2.27366	0.3283	2.12974	0.556201	3.6283							0.440448	2.87152	0.684999	4.47241				
0.349997	2.27246	0.329694	2.13004	0.557002	3.6186							0.441464	2.86633	0.685655	4.45829				
0.351252	2.27128	0.331087	2.13034	0.557806	3.60899							0.442483	2.86119	0.686313	4.44429				
0.352508	2.27012	0.332481	2.13064	0.558612	3.59947							0.443504	2.85611	0.686974	4.43042				
0.353765	2.26898	0.333875	2.13093	0.55942	3.59005							0.444527	2.85109	0.687636	4.41668				
0.355023	2.26785	0.335268	2.13123	0.560231	3.58072							0.445552	2.84612	0.688301	4.40306				
0.356282	2.26673	0.336662	2.13152	0.561044	3.57148							0.44658	2.8412	0.688968	4.38957				
0.357542	2.26563	0.338055	2.1318	0.56186	3.56233							0.447609	2.83634	0.689637	4.37619				
0.358804	2.26455	0.339449	2.13209	0.562678	3.55327							0.448641	2.83153	0.690308	4.36294				
0.360066	2.26348	0.340842	2.13237	0.563499	3.5443							0.449676	2.82678	0.690981	4.34981				
0.361329	2.26243	0.342236	2.13265	0.564322	3.53541							0.450712	2.82207	0.691656	4.33679				
0.362593	2.26138	0.343629	2.13292	0.565147	3.52661							0.45175	2.81742	0.692333	4.32389				
0.363858	2.26036	0.345022	2.13319	0.565975	3.51789							0.452791	2.81281	0.693013	4.31111				
0.365124	2.25935	0.346415	2.13347	0.566805	3.50925							0.453833	2.80826	0.693694	4.29844				
0.366391	2.25835	0.347808	2.13373	0.567637	3.5007							0.454878	2.80375	0.694378	4.28588				
0.367658	2.25736	0.349201	2.134	0.568472	3.49223							0.455925	2.79929	0.695064	4.27343				
0.368927	2.25639	0.350594	2.13427	0.569309	3.48384							0.456974	2.79487	0.695752	4.26109				
0.370197	2.25543	0.351987	2.13453	0.570149	3.47552							0.458025	2.79051	0.696442	4.24886				
0.371467	2.25448	0.35338	2.13479	0.57099	3.46728							0.459078	2.78619	0.697134	4.23673				
0.372739	2.25355	0.354773	2.13504	0.571834	3.45913							0.460133	2.78191	0.697828	4.22471				
0.374011	2.25263	0.356166	2.1353	0.572681	3.45104							0.46119	2.77768	0.698524	4.21279				
0.375284	2.25172	0.357559	2.13555	0.57353	3.44303							0.462249	2.7735	0.699222	4.20098				
0.376558	2.25082	0.358952	2.1358	0.574381	3.4351							0.46331	2.76935	0.699923	4.18927				
0.377833	2.24993	0.360344	2.13605	0.575234	3.42724							0.464373	2.76525	0.700625	4.17766				
0.379108	2.24906	0.361737	2.1363	0.576089	3.41945							0.465438	2.7612	0.70133	4.16615				
0.380385	2.2482	0.363129	2.13654	0.576947	3.41174							0.466505	2.75718	0.702036	4.15474				
0.381662	2.24734	0.364522	2.13678	0.577807	3.40409							0.467574	2.75321	0.702745	4.14343				
0.38294	2.2465	0.365914	2.13702	0.578669	3.39651							0.468644	2.74927	0.703456	4.13221				
0.384219	2.24567	0.367307	2.13726	0.579534	3.38901							0.469717	2.74538	0.704169	4.12108				
0.385498	2.24486	0.368699	2.13749	0.5804	3.38157							0.470792	2.74152	0.704884	4.11005				
0.386779	2.24405	0.370092	2.13773	0.581269	3.3742							0.471868	2.73771	0.7056	4.09912				
0.38806	2.24325	0.371484	2.13796	0.58214	3.36689							0.472946	2.73393	0.706319	4.08827				
0.389342	2.24246	0.372876	2.13819	0.583014	3.35966							0.474026	2.7302	0.70704	4.07752				
0.390625	2.24168	0.374268	2.13842	0.583889	3.35248							0.475108	2.7265	0.707764	4.06686				
0.391908	2.24091	0.37566	2.13864	0.584767	3.34537							0.476192	2.72283	0.708489	4.05628				
0.393192	2.24016	0.377052	2.13887	0.585646	3.33833							0.477278	2.71921	0.709216	4.0458				
0.394477	2.23941	0.378444	2.13909	0.586528	3.33134							0.478365	2.71562	0.709945	4.0354				
0.395763	2.23867	0.379836	2.13931	0.587412	3.32442							0.479454	2.71206	0.710676	4.02508				
0.397049	2.23794	0.381228	2.13953	0.588298	3.31756							0.480545	2.70854	0.71141	4.01486				
0.398336	2.23722	0.38262	2.13974	0.589187	3.31076							0.481638	2.70506	0.712145	4.00471				
0.399624	2.23651	0.384012	2.13996	0.590077	3.30402							0.482732	2.70161	0.712882	3.99465				
0.400912	2.2358	0.385404	2.14017	0.59097	3.29734							0.483828	2.69819	0.713621	3.98467				
0.402201	2.23511	0.386795	2.14038	0.591864	3.29072							0.484926	2.69481	0.714363	3.97477				
0.403491	2.23442	0.388187	2.14059	0.592761	3.28416							0.486026	2.69146	0.715106	3.96496				
0.404782	2.23375	0.389579	2.1408	0.593659	3.27765							0.487127	2.68815	0.715851	3.95522				
0.406073	2.23308	0.39097	2.14101	0.59456	3.2712							0.48823	2.68486	0.716599	3.94556				
0.407365	2.23242	0.392362	2.14121	0.595463	3.26481							0.489335	2.68161	0.717348	3.93598				
0.408657	2.23176	0.393753	2.14141	0.596368	3.25847							0.490441	2.67839	0.718099	3.92648				
0.40995	2.23112	0.395145	2.14161	0.597275	3.25219							0.491549	2.6752	0.718852	3.91705				
0.411244	2.23048	0.396536	2.14181	0.598184	3.24596							0.492659	2.67204	0.719607	3.9077				
0.412539	2.22986	0.397928	2.14201	0.599094	3.23978							0.49377	2.66891	0.720365	3.89842				
0.413834	2.22923	0.399319	2.14221	0.600007	3.23366							0.494883	2.66582						
0.415129	2.22862	0.40071	2.1424	0.600922	3.22759							0.495997	2.66275						
0.416425	2.22802	0.402101	2.14259	0.601839	3.22157							0.497113	2.65971						
0.417722	2.22742	0.403492	2.14279	0.602758	3.2156							0.498231	2.6567						
0.41902	2.22683	0.404883	2.14298	0.603679	3.20969							0.49935	2.65372						
0.420318	2.22624	0.406274	2.14316	0.604602	3.20382							0.500471	2.65077						
0.421617	2.22566	0.407665	2.14335	0.605526	3.198							0.501594	2.64784						
0.422916	2.22509	0.409056	2.14354	0.606453	3.19223							0.502717	2.64494						
0.424216	2.22453	0.410447	2.14372	0.607382	3.18651							0.503843	2.64207						
0.425516	2.22397	0.411838	2.1439	0.608312	3.18084							0.50497	2.63923						
0.426817	2.22342	0.413229	2.14408	0.609245	3.17522							0.506098	2.63641						
0.428119	2.22288	0.41462	2.14426	0.610179	3.16964							0.507228	2.63362						
0.429421	2.22234	0.41601	2.14444	0.611115	3.16411							0.50836	2.63086						
0.430723	2.22181	0.417401	2.14462	0.612053	3.15862							0.509493	2.62812						
0.432026	2.22129	0.418792	2.14479	0.612993	3.15318							0.510627	2.62541						
0.43333	2.22077	0.420182	2.14497	0.613935	3.14778							0.511763	2.62272						
0.434634	2.22026	0.421573	2.14514	0.614879	3.14243							0.512901	2.62006						
0.435939	2.21975	0.422963	2.14531	0.615824	3.13712							0.51404	2.61742						
0.437245	2.21925	0.424354	2.14548	0.616772	3.13186							0.51518	2.6148						
0.43855	2.21876	0.425744	2.14565	0.617721	3.12664							0.516321	2.61221						
0.439857	2.21827	0.427134	2.14582	0.618672	3.12146							0.517465	2.60964						
0.441164	2.21778	0.428525	2.14598	0.619625	3.11632							0.518609	2.6071						
0.442471	2.21731	0.429915	2.14615	0.62058	3.11123							0.519755	2.60458						
0.443779	2.21684	0.431305	2.14631	0.621536	3.10618							0.520902	2.60208						
0.445087	2.21637	0.432695	2.14647	0.622495	3.10116							0.522051	2.59961						
0.446396	2.21591	0.434085	2.14663	0.623455	3.09619							0.523201	2.59716						
0.447706	2.21545	0.435475	2.14679	0.624417	3.09126							0.524352	2.59472						
0.449015	2.215	0.436865	2.14695	0.62538	3.08637							0.525505	2.59232						
0.450326	2.21456	0.438255	2.14711	0.626346	3.08151							0.526659	2.58993						
0.451637	2.21412	0.439645	2.14727	0.627313	3.0767							0.527815	2.58756						
0.452948	2.21368	0.441035	2.14742	0.628282	3.07192							0.528971	2.58522						
0.45426	2.21325	0.442425	2.14757	0.629252	3.06718							0.53013	2.58289						
0.455572	2.21283	0.443815	2.14773	0.630225	3.06248							0.531289	2.58059						
0.456884	2.2124	0.445204	2.14788	0.631199	3.05781							0.53245	2.57831						
0.458198	2.21199	0.446594	2.14803	0.632174	3.05319							0.533612	2.57605						
0.459511	2.21158	0.447984	2.14818	0.633152	3.0486							0.534775	2.5738						
0.460825	2.21117	0.449373	2.14832	0.634131	3.04404							0.535939	2.57158						
0.46214	2.21077	0.450763	2.14847	0.635112	3.03952							0.537105	2.56938						
0.463454	2.21037	0.452152	2.14862	0.636094	3.03504							0.538272	2.56719						
0.46477	2.20998	0.453542	2.14876	0.637079	3.03059							0.539441	2.56503						
0.466086	2.20959	0.454931	2.14891	0.638064	3.02617							0.54061	2.56288						
0.467402	2.20921	0.45632	2.14905	0.639052	3.02179							0.541781	2.56075						
0.468718	2.20883	0.45771	2.14919	0.640041	3.01745							0.542953	2.55864						
0.470035	2.20845	0.459099	2.14933	0.641032	3.01313							0.544126	2.55655						
0.471353	2.20808	0.460488	2.14947	0.642024	3.00885							0.5453	2.55448						
0.47267	2.20771	0.461877	2.14961	0.643018	3.00461							0.546476	2.55243						
0.473989	2.20735	0.463266	2.14974	0.644014	3.00039							0.547653	2.55039						
0.475307	2.20699	0.464655	2.14988	0.645011	2.99621							0.548831	2.54837						
0.476626	2.20663	0.466044	2.15002	0.64601	2.99206							0.55001	2.54637						
0.477946	2.20628	0.467433	2.15015	0.647011	2.98794							0.551191	2.54438						
0.479266	2.20593	0.468822	2.15028	0.648013	2.98385							0.552372	2.54241						
0.480586	2.20559	0.470211	2.15042	0.649016	2.9798							0.553555	2.54046						
0.481906	2.20525	0.4716	2.15055	0.650022	2.97577							0.554739	2.53853						
0.483227	2.20491	0.472989	2.15068	0.651028	2.97177							0.555923	2.53661						
0.484549	2.20458	0.474377	2.15081	0.652037	2.96781							0.55711	2.5347						
0.48587	2.20425	0.475766	2.15093	0.653047	2.96387							0.558297	2.53282						
0.487193	2.20392	0.477155	2.15106	0.654058	2.95997							0.559485	2.53095						
0.488515	2.2036	0.478543	2.15119	0.655071	2.95609							0.560675	2.52909						
0.489838	2.20328	0.479932	2.15131	0.656086	2.95224							0.561865	2.52725						
0.491161	2.20297	0.48132	2.15144	0.657102	2.94842							0.563057	2.52543						
0.492485	2.20266	0.482709	2.15156	0.658119	2.94463							0.56425	2.52362						
0.493809	2.20235	0.484097	2.15169	0.659138	2.94087							0.565444	2.52182						
0.495133	2.20204	0.485486	2.15181	0.660159	2.93714							0.566638	2.52005						
0.496457	2.20174	0.486874	2.15193	0.661181	2.93343							0.567834	2.51828						
0.497782	2.20144	0.488262	2.15205	0.662204	2.92975							0.569031	2.51653						
0.499108	2.20115	0.489651	2.15217	0.663229	2.9261							0.57023	2.5148						
0.500433	2.20085	0.491039	2.15229	0.664256	2.92247							0.571429	2.51308						
0.501759	2.20057	0.492427	2.1524	0.665283	2.91887							0.572629	2.51137						
0.503086	2.20028	0.493815	2.15252	0.666313	2.9153							0.57383	2.50968						
0.504412	2.2	0.495203	2.15264	0.667344	2.91175							0.575032	2.508						
0.505739	2.19972	0.496591	2.15275	0.668376	2.90823							0.576236	2.50633						
0.507067	2.19944	0.497979	2.15287	0.66941	2.90473							0.57744	2.50468						
0.508394	2.19916	0.499367	2.15298	0.670445	2.90126							0.578645	2.50304						
0.509722	2.19889	0.500755	2.15309	0.671481	2.89782							0.579852	2.50142						
0.51105	2.19862	0.502143	2.15321	0.672519	2.8944							0.581059	2.4998						
0.512379	2.19836	0.50353	2.15332	0.673559	2.891							0.582267	2.4982						
0.513708	2.19809	0.504918	2.15343	0.674599	2.88763							0.583477	2.49662						
0.515037	2.19783	0.506306	2.15354	0.675642	2.88428							0.584687	2.49505						
0.516366	2.19758	0.507694	2.15364	0.676685	2.88096							0.585898	2.49348						
0.517696	2.19732	0.509081	2.15375	0.67773	2.87766							0.587111	2.49194						
0.519026	2.19707	0.510469	2.15386	0.678777	2.87438							0.588324	2.4904						
0.520357	2.19682	0.511856	2.15397	0.679824	2.87113							0.589538	2.48888						
0.521687	2.19657	0.513244	2.15407	0.680873	2.8679							0.590753	2.48737						
0.523018	2.19633	0.514631	2.15418	0.681924	2.86469							0.591969	2.48587						
0.52435	2.19609	0.516018	2.15428	0.682976	2.86151							0.593186	2.48438						
0.525681	2.19585	0.517406	2.15438	0.684029	2.85835							0.594404	2.4829						
0.527013	2.19561	0.518793	2.15449	0.685083	2.85521							0.595623	2.48144						
0.528345	2.19537	0.52018	2.15459	0.686139	2.85209							0.596843	2.47999						
0.529678	2.19514	0.521568	2.15469	0.687196	2.84899							0.598064	2.47854						
0.531011	2.19491	0.522955	2.15479	0.688255	2.84592							0.599285	2.47711						
0.532343	2.19468	0.524342	2.15489	0.689314	2.84287							0.600508	2.4757						
0.533677	2.19446	0.525729	2.15499	0.690375	2.83984							0.601731	2.47429						
0.53501	2.19424	0.527116	2.15509	0.691438	2.83683							0.602956	2.47289						
0.536344	2.19402	0.528503	2.15519	0.692502	2.83384							0.604181	2.47151						
0.537678	2.1938	0.52989	2.15528	0.693567	2.83087							0.605407	2.47013						
0.539013	2.19358	0.531277	2.15538	0.694633	2.82792							0.606634	2.46877						
0.540347	2.19337	0.532664	2.15548	0.6957	2.82499							0.607862	2.46741						
0.541682	2.19316	0.53405	2.15557	0.696769	2.82209							0.609091	2.46607						
0.543017	2.19295	0.535437	2.15567	0.697839	2.8192							0.61032	2.46474						
0.544353	2.19274	0.536824	2.15576	0.69891	2.81633							0.611551	2.46341						
0.545688	2.19253	0.53821	2.15585	0.699983	2.81348							0.612782	2.4621						
0.547024	2.19233	0.539597	2.15594	0.701057	2.81065							0.614014	2.4608						
0.54836	2.19213	0.540984	2.15604	0.702132	2.80784							0.615247	2.45951						
0.549697	2.19193	0.54237	2.15613	0.703208	2.80505							0.616481	2.45822						
0.551033	2.19173	0.543757	2.15622	0.704286	2.80228							0.617716	2.45695						
0.55237	2.19154	0.545143	2.15631	0.705365	2.79953							0.618951	2.45569						
0.553707	2.19134	0.54653	2.1564	0.706445	2.7968							0.620187	2.45443						
0.555045	2.19115	0.547916	2.15649	0.707526	2.79408							0.621424	2.45319						
0.556382	2.19096	0.549302	2.15657	0.708608	2.79138							0.622662	2.45195						
0.55772	2.19077	0.550689	2.15666	0.709692	2.7887							0.623901	2.45073						
0.559058	2.19059	0.552075	2.15675	0.710777	2.78604							0.625141	2.44951						
0.560397	2.1904	0.553461	2.15684	0.711863	2.7834							0.626381	2.44831						
0.561735	2.19022	0.554847	2.15692	0.71295	2.78077							0.627622	2.44711						
0.563074	2.19004	0.556233	2.15701	0.714038	2.77817							0.628864	2.44592						
0.564413	2.18986	0.557619	2.15709	0.715128	2.77557							0.630107	2.44474						
0.565752	2.18968	0.559005	2.15717	0.716219	2.773							0.631351	2.44357						
0.567092	2.18951	0.560391	2.15726	0.71731	2.77044							0.632595	2.4424						
0.568431	2.18933	0.561777	2.15734	0.718403	2.76791							0.63384	2.44125						
0.569771	2.18916	0.563163	2.15742	0.719498	2.76538							0.635086	2.4401						
0.571112	2.18899	0.564549	2.1575	0.720593	2.76288							0.636332	2.43897						
0.572452	2.18882	0.565935	2.15759									0.63758	2.43784						
0.573792	2.18866	0.567321	2.15767									0.638828	2.43672						
0.575133	2.18849	0.568706	2.15775									0.640077	2.43561						
0.576474	2.18833	0.570092	2.15783									0.641326	2.4345						
0.577815	2.18817	0.571478	2.15791									0.642577	2.43341						
0.579157	2.18801	0.572863	2.15798									0.643828	2.43232						
0.580499	2.18785	0.574249	2.15806									0.64508	2.43124						
0.58184	2.18769	0.575634	2.15814									0.646332	2.43017						
0.583182	2.18753	0.57702	2.15822									0.647585	2.4291						
0.584525	2.18738	0.578405	2.15829									0.648839	2.42805						
0.585867	2.18723	0.579791	2.15837									0.650094	2.427						
0.58721	2.18707	0.581176	2.15844									0.65135	2.42596						
0.588553	2.18692	0.582561	2.15852									0.652606	2.42492						
0.589896	2.18678	0.583946	2.15859									0.653863	2.4239						
0.591239	2.18663	0.585332	2.15867									0.65512	2.42288						
0.592582	2.18648	0.586717	2.15874									0.656378	2.42187						
0.593926	2.18634	0.588102	2.15881									0.657637	2.42086						
0.59527	2.1862	0.589487	2.15888									0.658897	2.41987						
0.596614	2.18605	0.590872	2.15896									0.660157	2.41888						
0.597958	2.18591	0.592257	2.15903									0.661418	2.41789						
0.599302	2.18577	0.593642	2.1591									0.66268	2.41692						
0.600647	2.18564	0.595027	2.15917									0.663942	2.41595						
0.601992	2.1855	0.596412	2.15924									0.665205	2.41499						
0.603337	2.18537	0.597797	2.15931									0.666469	2.41403						
0.604682	2.18523	0.599181	2.15938									0.667733	2.41308						
0.606027	2.1851	0.600566	2.15944									0.668998	2.41214						
0.607373	2.18497	0.601951	2.15951									0.670264	2.41121						
0.608718	2.18484	0.603335	2.15958									0.67153	2.41028						
0.610064	2.18471	0.60472	2.15965									0.672797	2.40936						
0.61141	2.18458	0.606105	2.15971									0.674065	2.40844						
0.612756	2.18445	0.607489	2.15978									0.675333	2.40753						
0.614103	2.18433	0.608874	2.15985									0.676602	2.40663						
0.615449	2.18421	0.610258	2.15991									0.677871	2.40573						
0.616796	2.18408	0.611643	2.15998									0.679141	2.40484						
0.618143	2.18396	0.613027	2.16004									0.680412	2.40396						
0.61949	2.18384	0.614411	2.1601									0.681684	2.40308						
0.620837	2.18372	0.615796	2.16017									0.682956	2.40221						
0.622184	2.1836	0.61718	2.16023									0.684228	2.40134						
0.623532	2.18348	0.618564	2.16029									0.685501	2.40048						
0.62488	2.18337	0.619948	2.16036									0.686775	2.39963						
0.626227	2.18325	0.621332	2.16042									0.68805	2.39878						
0.627575	2.18314	0.622717	2.16048									0.689325	2.39794						
0.628924	2.18303	0.624101	2.16054									0.6906	2.3971						
0.630272	2.18291	0.625485	2.1606									0.691877	2.39627						
0.63162	2.1828	0.626869	2.16066									0.693153	2.39545						
0.632969	2.18269	0.628252	2.16072									0.694431	2.39463						
0.634318	2.18258	0.629636	2.16078									0.695709	2.39381						
0.635667	2.18248	0.63102	2.16084									0.696987	2.39301						
0.637016	2.18237	0.632404	2.1609									0.698267	2.3922						
0.638365	2.18226	0.633788	2.16096									0.699546	2.39141						
0.639714	2.18216	0.635172	2.16101									0.700827	2.39061						
0.641064	2.18205	0.636555	2.16107									0.702108	2.38983						
0.642414	2.18195	0.637939	2.16113									0.703389	2.38905						
0.643764	2.18185	0.639322	2.16119									0.704671	2.38827						
0.645114	2.18175	0.640706	2.16124									0.705954	2.3875						
0.646464	2.18165	0.64209	2.1613									0.707237	2.38673						
0.647814	2.18155	0.643473	2.16135									0.70852	2.38597						
0.649164	2.18145	0.644856	2.16141									0.709805	2.38522						
0.650515	2.18135	0.64624	2.16146									0.711089	2.38447						
0.651866	2.18126	0.647623	2.16152									0.712375	2.38372						
0.653216	2.18116	0.649007	2.16157									0.713661	2.38298						
0.654567	2.18106	0.65039	2.16163									0.714947	2.38225						
0.655918	2.18097	0.651773	2.16168									0.716234	2.38152						
0.65727	2.18088	0.653156	2.16173									0.717522	2.38079						
0.658621	2.18078	0.65454	2.16179									0.71881	2.38007						
0.659973	2.18069	0.655923	2.16184									0.720098	2.37935						
0.661324	2.1806	0.657306	2.16189																
0.662676	2.18051	0.658689	2.16194																
0.664028	2.18042	0.660072	2.16199																
0.66538	2.18033	0.661455	2.16204																
0.666732	2.18025	0.662838	2.1621																
0.668085	2.18016	0.664221	2.16215																
0.669437	2.18007	0.665604	2.1622																
0.67079	2.17999	0.666986	2.16225																
0.672142	2.1799	0.668369	2.1623																
0.673495	2.17982	0.669752	2.16234																
0.674848	2.17974	0.671135	2.16239																
0.676201	2.17965	0.672517	2.16244																
0.677554	2.17957	0.6739	2.16249																
0.678907	2.17949	0.675282	2.16254																
0.680261	2.17941	0.676665	2.16258																
0.681614	2.17933	0.678048	2.16263																
0.682968	2.17925	0.67943	2.16268																
0.684322	2.17918	0.680813	2.16273																
0.685676	2.1791	0.682195	2.16277																
0.68703	2.17902	0.683577	2.16282																
0.688384	2.17895	0.68496	2.16286																
0.689738	2.17887	0.686342	2.16291																
0.691092	2.1788	0.687724	2.16295																
0.692447	2.17872	0.689106	2.163																
0.693801	2.17865	0.690489	2.16304																
0.695156	2.17858	0.691871	2.16309																
0.696511	2.1785	0.693253	2.16313																
0.697866	2.17843	0.694635	2.16317																
0.699221	2.17836	0.696017	2.16322																
0.700576	2.17829	0.697399	2.16326																
0.701931	2.17822	0.698781	2.1633																
0.703287	2.17815	0.700163	2.16335																
0.704642	2.17808	0.701545	2.16339																
0.705998	2.17802	0.702927	2.16343																
0.707353	2.17795	0.704308	2.16347																
0.708709	2.17788	0.70569	2.16351																
0.710065	2.17782	0.707072	2.16355																
0.711421	2.17775	0.708454	2.16359																
0.712777	2.17769	0.709835	2.16363																
0.714133	2.17762	0.711217	2.16367																
0.71549	2.17756	0.712598	2.16371																
0.716846	2.17749	0.71398	2.16375																
0.718202	2.17743	0.715362	2.16379																
0.719559	2.17737	0.716743	2.16383																
0.720916	2.17731	0.718124	2.16387																
		0.719506	2.16391																
		0.720887	2.16395																
