Sym0		Asym0		Sym1		Sym2		Sym3		Sym4		Asym1		Asym2		Asym3		Asym4	
534  Points		534  Points		426  Points		171  Points		158  Points		119  Points		489  Points		316  Points		165  Points		124  Points	
Freq (MHz)	Vph (m/ms)	Freq (MHz)	Vph (m/ms)	Freq (MHz)	Vph (m/ms)	Freq (MHz)	Vph (m/ms)	Freq (MHz)	Vph (m/ms)	Freq (MHz)	Vph (m/ms)	Freq (MHz)	Vph (m/ms)	Freq (MHz)	Vph (m/ms)	Freq (MHz)	Vph (m/ms)	Freq (MHz)	Vph (m/ms)
0.00319951	6.83172	0.00030775	0.174329	0.166924	285.828	0.279541	473.709	0.500781	4259.54	0.559038	951.533	0.139757	1132.39	0.333852	693.525	0.419265	2220.02	0.667694	1117.73
0.00752009	6.83156	0.000565862	0.235993	0.166915	137.213	0.279647	228.737	0.500771	667.674	0.559109	458.298	0.139855	185.024	0.33384	299.72	0.419309	510.535	0.667649	542.883
0.0118402	6.83124	0.000899909	0.296975	0.166898	90.2682	0.279826	150.848	0.500745	362.209	0.559229	301.89	0.140092	100.907	0.33382	191.159	0.419407	288.496	0.667572	358.471
0.0161595	6.83075	0.00130798	0.357107	0.166875	67.2513	0.280079	112.596	0.500705	248.497	0.559398	225.121	0.140469	69.5121	0.333791	140.322	0.419559	201.109	0.667465	267.55
0.0204778	6.83012	0.00178777	0.41623	0.166847	53.5826	0.280405	89.8754	0.50065	189.111	0.559615	179.517	0.140983	53.1363	0.333753	110.837	0.419766	154.401	0.66733	213.396
0.0247946	6.82932	0.00233678	0.474221	0.166813	44.5275	0.280804	74.8334	0.500581	152.623	0.55988	149.31	0.141633	43.106	0.333707	91.5857	0.420026	125.338	0.667167	177.455
0.0291097	6.82834	0.00295213	0.530953	0.166774	38.0872	0.281275	64.147	0.500498	127.929	0.560193	127.832	0.142416	36.3477	0.333654	78.0273	0.42034	105.518	0.666979	151.859
0.0334227	6.82721	0.00363087	0.586331	0.166731	33.2717	0.281816	56.1689	0.500403	110.106	0.560553	111.782	0.143329	31.4966	0.333593	67.9612	0.420706	91.14	0.666767	132.702
0.0377333	6.82587	0.00436975	0.640259	0.166684	29.5349	0.282428	49.9895	0.500294	96.6339	0.56096	99.3349	0.144368	27.8539	0.333525	60.1918	0.421126	80.2373	0.666534	117.824
0.0420409	6.82435	0.00516562	0.69268	0.166636	26.5508	0.28311	45.0653	0.500174	86.0934	0.561411	89.4022	0.145531	25.0247	0.33345	54.0133	0.421597	71.6885	0.666282	105.936
0.0463452	6.82261	0.00601505	0.743527	0.166586	24.113	0.28386	41.0518	0.500043	77.6209	0.561907	81.2937	0.146813	22.7689	0.333371	48.9823	0.422119	64.8077	0.666012	96.2178
0.0506456	6.82064	0.00691476	0.792764	0.166536	22.0841	0.284677	37.7199	0.499902	70.6617	0.562447	74.5504	0.148211	20.9325	0.333286	44.8061	0.422693	59.152	0.665727	88.1247
0.0549415	6.81843	0.0078615	0.840371	0.166488	20.3693	0.28556	34.9114	0.499751	64.8436	0.56303	68.8555	0.149719	19.4116	0.333196	41.2839	0.423316	54.4225	0.66543	81.2805
0.0592322	6.81594	0.0088521	0.886339	0.166442	18.9011	0.286509	32.5134	0.499593	59.9069	0.563654	63.983	0.151334	18.134	0.333103	38.2732	0.423988	50.4101	0.665121	75.4166
0.063517	6.81315	0.00988333	0.930659	0.1664	17.6301	0.287522	30.4433	0.499426	55.6654	0.564319	59.7676	0.153051	17.0477	0.333008	35.6701	0.424709	46.9642	0.664802	70.3365
0.0677949	6.81002	0.0109522	0.973339	0.166364	16.5194	0.288597	28.6393	0.499254	51.9818	0.565025	56.0855	0.154866	16.1147	0.33291	33.3972	0.425477	43.9738	0.664477	65.8929
0.0720649	6.80652	0.0120558	1.01441	0.166336	15.5406	0.289733	27.0541	0.499076	48.7528	0.565769	52.842	0.156775	15.306	0.332811	31.3953	0.426292	41.3548	0.664146	61.9732
0.0763257	6.8026	0.0131915	1.05388	0.166317	14.6719	0.290929	25.6509	0.498893	45.8992	0.566551	49.9636	0.158772	14.5995	0.332712	29.6188	0.427152	39.0429	0.66381	58.4901
0.0805761	6.79822	0.0143565	1.09178	0.166311	13.8961	0.292184	24.4009	0.498707	43.3592	0.567369	47.3925	0.160855	13.9781	0.332614	28.0318	0.428058	36.9875	0.663472	55.3744
0.084814	6.79328	0.0155484	1.12817	0.166319	13.1993	0.293496	23.2808	0.498518	41.0837	0.568224	45.0823	0.163018	13.4281	0.332517	26.6055	0.429008	35.1487	0.663132	52.571
0.0890375	6.78772	0.016765	1.16307	0.166345	12.5704	0.294864	22.272	0.498328	39.0335	0.569114	42.9954	0.165257	12.9385	0.332422	25.3168	0.430001	33.4944	0.662792	50.0354
0.0932441	6.78144	0.018004	1.19653	0.166392	12.0004	0.296286	21.359	0.498137	37.1768	0.570038	41.1014	0.16757	12.5006	0.332331	24.1468	0.431036	31.9987	0.662454	47.7309
0.0974306	6.77432	0.0192635	1.22859	0.166464	11.4818	0.297761	20.5294	0.497946	35.4875	0.570995	39.3748	0.169951	12.107	0.332243	23.0798	0.432112	30.64	0.662117	45.6274
0.101593	6.7662	0.0205416	1.25931	0.166566	11.0086	0.299287	19.7724	0.497756	33.9439	0.571985	37.7947	0.172397	11.7517	0.332161	22.103	0.433229	29.4007	0.661783	43.6998
0.105727	6.75691	0.0218365	1.28873	0.166702	10.5756	0.300864	19.0794	0.497568	32.5282	0.573006	36.3434	0.174904	11.4299	0.332085	21.2055	0.434386	28.266	0.661453	41.927
0.109826	6.7462	0.0231468	1.3169	0.166882	10.1786	0.302489	18.4428	0.497382	31.225	0.574057	35.0059	0.177469	11.1372	0.332016	20.3781	0.435581	27.2234	0.661128	40.2912
0.113883	6.7338	0.0244708	1.34387	0.167079	9.85919	0.304162	17.8562	0.497201	30.0216	0.575139	33.7694	0.180089	10.8702	0.331955	19.613	0.436814	26.2623	0.660808	38.7771
0.117888	6.71931	0.0258072	1.36969	0.167283	9.60494	0.305881	17.3143	0.497023	28.907	0.576249	32.6232	0.18276	10.6258	0.331903	18.9036	0.438083	25.3738	0.660494	37.3717
0.121828	6.70229	0.0271549	1.39441	0.167481	9.40645	0.307644	16.8122	0.496851	27.8718	0.577388	31.5577	0.185479	10.4014	0.331862	18.244	0.439389	24.5502	0.660188	36.0638
0.125687	6.68211	0.0285127	1.41808	0.167658	9.25668	0.309451	16.346	0.496685	26.9078	0.578555	30.5649	0.188243	10.1948	0.331831	17.6294	0.44073	23.7846	0.659888	34.8436
0.129445	6.65802	0.0298794	1.44074	0.167801	9.15047	0.311299	15.912	0.496525	26.008	0.579748	29.6377	0.191049	10.0041	0.331812	17.0553	0.442106	23.0714	0.659597	33.7027
0.133075	6.62909	0.0312543	1.46243	0.167899	9.0842	0.313188	15.5072	0.496373	25.1663	0.580967	28.7698	0.193894	9.82757	0.331807	16.5181	0.443514	22.4054	0.659314	32.6337
0.136545	6.59416	0.0326364	1.48321	0.168048	8.99121	0.315116	15.1289	0.496229	24.3773	0.582212	27.9559	0.196774	9.6638	0.331816	16.0143	0.444956	21.7823	0.65904	31.63
0.139814	6.55194	0.0340249	1.50311	0.168224	8.89314	0.317081	14.7747	0.496093	23.6363	0.583482	27.1911	0.199312	9.53046	0.331841	15.5411	0.446429	21.1981	0.658776	30.6858
0.142841	6.50111	0.0352396	1.51977	0.168487	8.76469	0.319084	14.4424	0.495967	22.9391	0.584776	26.4712	0.201494	9.42309	0.331882	15.0959	0.447934	20.6494	0.658522	29.7962
0.145584	6.44055	0.0362783	1.53349	0.168862	8.61021	0.321121	14.1301	0.495852	22.2819	0.586094	25.7925	0.20331	9.33835	0.331942	14.6764	0.449468	20.1331	0.658278	28.9565
0.14801	6.36967	0.0371391	1.54451	0.169391	8.43508	0.323193	13.8362	0.495746	21.6616	0.587435	25.1514	0.204753	9.27379	0.332021	14.2806	0.451032	19.6466	0.658044	28.1628
0.150107	6.28875	0.0378209	1.55302	0.170132	8.24568	0.325297	13.5591	0.495653	21.0751	0.588798	24.5452	0.205818	9.22762	0.332121	13.9066	0.452625	19.1874	0.657822	27.4113
0.151884	6.19895	0.0383228	1.55917	0.171176	8.04955	0.327432	13.2976	0.495571	20.5198	0.590184	23.9709	0.206501	9.19864	0.332243	13.5528	0.454246	18.7533	0.657612	26.6989
0.153371	6.10211	0.0386443	1.56306	0.172469	7.87609	0.329597	13.0503	0.495502	19.9934	0.591591	23.4263	0.207486	9.15772	0.33239	13.2178	0.455894	18.3424	0.657413	26.0226
0.154609	6.00039	0.0391068	1.56859	0.174052	7.72529	0.331791	12.8163	0.495446	19.4936	0.593019	22.9091	0.208559	9.11421	0.332563	12.9002	0.457569	17.953	0.657226	25.3799
0.155644	5.89584	0.03961	1.5745	0.175961	7.59674	0.334013	12.5944	0.495405	19.0187	0.594467	22.4173	0.210022	9.05659	0.332763	12.5989	0.459269	17.5833	0.657052	24.7682
0.156518	5.79021	0.0402951	1.58241	0.17821	7.48936	0.336261	12.3838	0.495377	18.5669	0.595935	21.9492	0.21188	8.98617	0.332993	12.3128	0.460994	17.2321	0.656891	24.1855
0.157266	5.68487	0.0411625	1.59219	0.180794	7.40124	0.338534	12.1837	0.495366	18.1365	0.597423	21.5031	0.214137	8.90444	0.333256	12.0409	0.462743	16.898	0.656743	23.6298
0.157917	5.58081	0.042213	1.60368	0.183685	7.32981	0.34083	11.9934	0.49537	17.7262	0.59893	21.0775	0.216796	8.81303	0.333553	11.7824	0.464517	16.5799	0.656608	23.0993
0.158494	5.47875	0.0434473	1.61671	0.186843	7.27227	0.343149	11.8121	0.495391	17.3346	0.600456	20.6711	0.21986	8.71358	0.333887	11.5365	0.466312	16.2765	0.656487	22.5924
0.159015	5.37917	0.0448658	1.63111	0.190221	7.22589	0.345489	11.6393	0.495429	16.9606	0.601999	20.2827	0.222936	8.61944	0.334261	11.3024	0.46813	15.9871	0.656381	22.1076
0.159494	5.28235	0.0462864	1.64494	0.193779	7.18834	0.347848	11.4743	0.495485	16.6031	0.603561	19.911	0.226021	8.53012	0.334679	11.0796	0.46997	15.7106	0.656288	21.6434
0.159941	5.18848	0.0477087	1.65821	0.197479	7.15768	0.350226	11.3166	0.49556	16.261	0.605139	19.5551	0.229111	8.44515	0.335143	10.8674	0.47183	15.4462	0.656211	21.1987
0.160365	5.09764	0.0491326	1.67097	0.201293	7.1324	0.352621	11.1658	0.495655	15.9334	0.606734	19.2139	0.232203	8.36414	0.335658	10.6654	0.47371	15.1931	0.656149	20.7723
0.160772	5.00986	0.0505576	1.68323	0.205196	7.11134	0.355032	11.0214	0.49577	15.6196	0.608346	18.8867	0.235294	8.28669	0.336228	10.473	0.475609	14.9508	0.656102	20.3631
0.161167	4.92511	0.0519837	1.69502	0.209171	7.0936	0.357456	10.883	0.495907	15.3186	0.609973	18.5725	0.23838	8.21244	0.336856	10.2899	0.477527	14.7185	0.656071	19.9701
0.161555	4.84336	0.0534106	1.70635	0.213202	7.07851	0.359893	10.7502	0.496065	15.0299	0.611616	18.2707	0.241457	8.14107	0.337549	10.1156	0.479463	14.4956	0.656056	19.5925
0.161939	4.76453	0.0548382	1.71726	0.21728	7.06554	0.362342	10.6227	0.496247	14.7527	0.613274	17.9805	0.244521	8.07226	0.338208	9.97069	0.481416	14.2815	0.656058	19.2294
0.162272	4.69814	0.0562662	1.72776	0.221396	7.0543	0.3648	10.5001	0.496452	14.4864	0.614947	17.7014	0.247568	8.00571	0.338814	9.85209	0.483385	14.0758	0.656077	18.8799
0.162556	4.64321	0.0576947	1.73788	0.225543	7.04447	0.367267	10.3821	0.496683	14.2305	0.616634	17.4325	0.250594	7.94114	0.339347	9.75736	0.485369	13.878	0.656113	18.5435
0.162792	4.59891	0.0591233	1.74762	0.229716	7.03581	0.36974	10.2684	0.49694	13.9845	0.618334	17.1736	0.253593	7.87829	0.33979	9.68457	0.487369	13.6877	0.656167	18.2193
0.162979	4.56458	0.0605521	1.757	0.233909	7.02812	0.372218	10.1588	0.497224	13.7478	0.620048	16.9239	0.256561	7.81689	0.340129	9.6322	0.489383	13.5044	0.656238	17.9069
0.163117	4.53973	0.0619809	1.76605	0.238121	7.02124	0.374699	10.053	0.497536	13.52	0.621775	16.683	0.259491	7.7567	0.340351	9.5992	0.49141	13.3277	0.656329	17.6055
0.163206	4.52399	0.0634097	1.77478	0.242348	7.01506	0.376863	9.96368	0.497878	13.3007	0.623514	16.4505	0.262379	7.6975	0.340679	9.55246	0.493449	13.1573	0.656438	17.3147
0.163333	4.5016	0.0648382	1.7832	0.246588	7.00947	0.378707	9.8896	0.498251	13.0895	0.625265	16.226	0.265218	7.63903	0.341046	9.50257	0.495501	12.9929	0.656567	17.0339
0.163473	4.47757	0.0662666	1.79132	0.250839	7.00437	0.380232	9.82969	0.498657	12.8861	0.627028	16.009	0.268001	7.5811	0.341564	9.43624	0.497563	12.8342	0.656716	16.7627
0.163664	4.4454	0.0676948	1.79917	0.255099	6.99971	0.381437	9.78315	0.499096	12.69	0.628802	15.7991	0.270722	7.52349	0.342251	9.35482	0.499636	12.6808	0.656885	16.5007
0.163907	4.40551	0.0691226	1.80675	0.259367	6.99543	0.382322	9.74937	0.49957	12.501	0.630586	15.5961	0.273376	7.466	0.343132	9.25997	0.501718	12.5324	0.657075	16.2473
0.164204	4.35846	0.0705501	1.81407	0.263642	6.99147	0.382889	9.72796	0.500081	12.3189	0.632381	15.3996	0.275954	7.40846	0.344237	9.15365	0.503808	12.3889	0.657287	16.0023
0.164557	4.30486	0.0719772	1.82115	0.267923	6.9878	0.383703	9.69743	0.500631	12.1432	0.634185	15.2093	0.278452	7.35071	0.345606	9.03805	0.505906	12.25	0.657521	15.7652
0.16497	4.24541	0.0734038	1.82799	0.272209	6.98437	0.384587	9.6646	0.501221	11.9738	0.635999	15.0249	0.280863	7.2926	0.347086	8.92908	0.50801	12.1154	0.657777	15.5358
0.16539	4.18806	0.07483	1.83462	0.276499	6.98115	0.385787	9.62051	0.501852	11.8105	0.637821	14.8462	0.283182	7.23402	0.348683	8.82656	0.510121	11.985	0.658057	15.3137
0.165819	4.13273	0.0762557	1.84102	0.280793	6.97812	0.387304	9.56565	0.502528	11.653	0.639652	14.6728	0.285405	7.17487	0.3504	8.73024	0.512236	11.8585	0.658361	15.0985
0.166256	4.07933	0.0776809	1.84723	0.285089	6.97527	0.389133	9.50059	0.50325	11.501	0.64149	14.5045	0.287528	7.11511	0.352239	8.63991	0.514355	11.7357	0.658689	14.8901
0.166703	4.02779	0.0791056	1.85323	0.289388	6.97255	0.391273	9.42599	0.50402	11.3545	0.643336	14.3412	0.289548	7.0547	0.354201	8.55532	0.516477	11.6165	0.659043	14.6881
0.167159	3.97803	0.0805298	1.85905	0.293688	6.96996	0.393717	9.34252	0.504839	11.2132	0.645188	14.1825	0.291465	6.99364	0.356287	8.47621	0.518601	11.5007	0.659423	14.4923
0.167625	3.92997	0.0819534	1.86469	0.29799	6.96747	0.396147	9.26121	0.50571	11.0769	0.647047	14.0283	0.293279	6.93197	0.358494	8.4023	0.520726	11.3881	0.659829	14.3024
0.168101	3.88354	0.0833765	1.87016	0.302293	6.96508	0.398562	9.18189	0.506636	10.9456	0.648911	13.8784	0.294991	6.86974	0.360821	8.33332	0.522851	11.2785	0.660263	14.1183
0.168587	3.83868	0.084799	1.87546	0.306597	6.96277	0.400958	9.10444	0.507617	10.8189	0.65078	13.7327	0.296604	6.80704	0.363264	8.26895	0.524975	11.1719	0.660726	13.9396
0.169083	3.79531	0.0862209	1.8806	0.3109	6.96053	0.403334	9.02873	0.508657	10.6969	0.652654	13.5908	0.298121	6.74397	0.365819	8.20892	0.527097	11.0681	0.661217	13.7663
0.169589	3.75339	0.0876423	1.88559	0.315203	6.95834	0.405687	8.95463	0.509756	10.5793	0.654532	13.4527	0.299547	6.68065	0.368479	8.15292	0.529215	10.9669	0.661739	13.5981
0.170106	3.71285	0.0890632	1.89044	0.319505	6.95619	0.408015	8.88203	0.510918	10.4661	0.656413	13.3183	0.300886	6.61718	0.371241	8.10066	0.531329	10.8683	0.662292	13.4349
0.170632	3.67363	0.0904835	1.89515	0.323806	6.95408	0.410317	8.81082	0.511983	10.3708	0.658297	13.1873	0.302145	6.5537	0.374097	8.05186	0.533437	10.7721	0.662877	13.2764
0.171169	3.63568	0.0919032	1.89972	0.328106	6.95198	0.412588	8.74089	0.51293	10.292	0.660183	13.0596	0.303328	6.49034	0.377041	8.00626	0.535539	10.6781	0.663494	13.1226
0.171716	3.59896	0.0933223	1.90416	0.332403	6.9499	0.414829	8.67216	0.51374	10.2285	0.662071	12.9351	0.304442	6.4272	0.380068	7.96358	0.537632	10.5864	0.664146	12.9732
0.172274	3.56341	0.0947409	1.90847	0.336697	6.94781	0.417035	8.60452	0.514399	10.1794	0.66396	12.8137	0.305493	6.36439	0.383172	7.9236	0.539717	10.4967	0.664832	12.8281
0.172841	3.52898	0.096159	1.91267	0.340988	6.94571	0.419207	8.53791	0.514894	10.1439	0.665849	12.6952	0.306485	6.30203	0.386345	7.88609	0.541526	10.4202	0.665554	12.6872
0.173419	3.49564	0.0975766	1.91676	0.345275	6.94358	0.421341	8.47225	0.515215	10.1214	0.667738	12.5795	0.307424	6.24019	0.389584	7.85085	0.54306	10.3561	0.666312	12.5503
0.174007	3.46333	0.0989936	1.92073	0.349558	6.94142	0.423437	8.40748	0.515684	10.0894	0.669626	12.4666	0.308316	6.17897	0.392883	7.81769	0.544325	10.3039	0.667109	12.4174
0.174605	3.43203	0.10041	1.92459	0.353835	6.93921	0.425493	8.34352	0.516201	10.0551	0.671513	12.3562	0.309165	6.11843	0.396236	7.78642	0.545321	10.263	0.667944	12.2883
0.175213	3.40169	0.101826	1.92836	0.358106	6.93692	0.427509	8.28035	0.516919	10.0092	0.673397	12.2483	0.309975	6.05862	0.39964	7.75691	0.546051	10.2333	0.668819	12.1629
0.17583	3.37228	0.103241	1.93202	0.36237	6.93456	0.429483	8.21792	0.517851	9.95234	0.675278	12.1429	0.31075	5.99961	0.40309	7.72899	0.546518	10.2144	0.669734	12.041
0.176458	3.34375	0.104656	1.93559	0.366625	6.93209	0.431416	8.1562	0.519014	9.88543	0.677155	12.0397	0.311494	5.94143	0.406582	7.70255	0.547187	10.1873	0.670692	11.9227
0.177095	3.31608	0.106071	1.93907	0.37087	6.9295	0.433307	8.09517	0.520429	9.8094	0.679028	11.9387	0.312211	5.88412	0.410114	7.67745	0.547913	10.1581	0.671692	11.8077
0.177742	3.28924	0.107485	1.94246	0.375105	6.92676	0.435159	8.03482	0.52212	9.72534	0.680896	11.8399	0.312903	5.8277	0.41368	7.65361	0.548897	10.1187	0.672736	11.696
0.178398	3.2632	0.108898	1.94577	0.379325	6.92384	0.436971	7.97515	0.523883	9.64456	0.682759	11.7432	0.313574	5.7722	0.41728	7.63091	0.550136	10.0694	0.673824	11.5875
0.179064	3.23792	0.110311	1.94899	0.383531	6.9207	0.438746	7.91618	0.525719	9.56697	0.684615	11.6484	0.314225	5.71762	0.420909	7.60926	0.551626	10.0106	0.674958	11.4821
0.179739	3.21338	0.111724	1.95213	0.387718	6.91731	0.440488	7.85793	0.527627	9.49243	0.686463	11.5555	0.314859	5.66397	0.424565	7.5886	0.553363	9.94269	0.676138	11.3798
0.180423	3.18955	0.113136	1.9552	0.391884	6.91362	0.442199	7.80044	0.529606	9.42085	0.688304	11.4644	0.315478	5.61127	0.428246	7.56884	0.555338	9.86607	0.677365	11.2804
0.181117	3.1664	0.114548	1.95819	0.396024	6.90957	0.443883	7.74377	0.531656	9.35211	0.690136	11.3751	0.316084	5.5595	0.431951	7.54991	0.557295	9.79082	0.67864	11.1838
0.181819	3.14392	0.115959	1.96111	0.400133	6.90508	0.445548	7.68798	0.533776	9.28609	0.691959	11.2875	0.316678	5.50868	0.435676	7.53176	0.559231	9.71687	0.679964	11.09
0.182531	3.12208	0.11737	1.96397	0.404207	6.90006	0.4472	7.63318	0.535965	9.22269	0.693772	11.2015	0.317263	5.45879	0.43942	7.51433	0.561146	9.64416	0.681336	10.9989
0.183251	3.10085	0.11878	1.96675	0.408236	6.8944	0.448847	7.57948	0.53822	9.16179	0.695575	11.1171	0.317838	5.40983	0.443181	7.49756	0.563039	9.57264	0.682757	10.9105
0.18398	3.08022	0.12019	1.96947	0.412211	6.88798	0.450501	7.52703	0.540541	9.10329	0.697366	11.0342	0.318407	5.36179	0.446958	7.48141	0.564909	9.50226	0.684037	10.8355
0.184717	3.06016	0.121599	1.97213	0.416122	6.8806	0.452176	7.476	0.542926	9.04709	0.699145	10.9527	0.318969	5.31465	0.450749	7.46583	0.566755	9.43297	0.685157	10.7731
0.185463	3.04065	0.123009	1.97473	0.419953	6.87208	0.453886	7.42662	0.545371	8.99306	0.700685	10.8829	0.319526	5.26841	0.454553	7.45079	0.568577	9.36471	0.686105	10.7225
0.186217	3.02168	0.124417	1.97727	0.423686	6.86215	0.455653	7.37916	0.547877	8.94113	0.70199	10.8242	0.320079	5.22306	0.458368	7.43624	0.570374	9.29746	0.686867	10.6831
0.186979	3.00323	0.125826	1.97975	0.4273	6.85051	0.457498	7.33393	0.550439	8.89117	0.703064	10.7762	0.320628	5.17857	0.462194	7.42214	0.572146	9.23117	0.687435	10.6545
0.187749	2.98528	0.127234	1.98218	0.430771	6.83683	0.459449	7.29129	0.553056	8.84311	0.703909	10.7386	0.321174	5.13495	0.466028	7.40847	0.573892	9.16581	0.687802	10.6364
0.188528	2.96781	0.128641	1.98456	0.43407	6.82073	0.461535	7.25161	0.555727	8.79685	0.704528	10.7111	0.321719	5.09216	0.469869	7.39518	0.575611	9.10134	0.688335	10.6105
0.189314	2.95081	0.130049	1.98688	0.437172	6.80188	0.463785	7.21526	0.558447	8.75229	0.704924	10.6936	0.322261	5.05019	0.473717	7.38226	0.577305	9.03774	0.688919	10.5827
0.190108	2.93426	0.131456	1.98916	0.440052	6.77997	0.466224	7.18253	0.561216	8.70936	0.705491	10.6686	0.322803	5.00904	0.47757	7.36967	0.578973	8.97499	0.689725	10.5453
0.19091	2.91815	0.132862	1.99139	0.442695	6.75487	0.46887	7.1536	0.564031	8.66797	0.706106	10.6415	0.323345	4.96868	0.481427	7.35737	0.580614	8.91305	0.69076	10.4988
0.191719	2.90246	0.134269	1.99357	0.445096	6.72658	0.47173	7.12844	0.56689	8.62804	0.706938	10.605	0.323886	4.92909	0.485286	7.34535	0.582231	8.85192	0.692038	10.4436
0.192536	2.88718	0.135675	1.9957	0.447261	6.69531	0.474797	7.10687	0.56979	8.5895	0.707987	10.5592	0.324428	4.89027	0.489146	7.33358	0.583822	8.79158	0.693572	10.3804
0.19336	2.87229	0.13708	1.99779	0.449207	6.66138	0.478057	7.08856	0.57273	8.55227	0.709246	10.5043	0.324971	4.8522	0.493006	7.32203	0.58539	8.73203	0.695378	10.3099
0.194191	2.85779	0.138485	1.99984	0.450959	6.62521	0.481489	7.07311	0.575707	8.5163	0.710713	10.4408	0.325515	4.81485	0.496865	7.31067	0.586934	8.67324	0.697234	10.2413
0.195029	2.84366	0.13989	2.00184	0.45254	6.58725	0.485067	7.06008	0.57872	8.48152	0.712382	10.369	0.32606	4.77822	0.500721	7.29947	0.588457	8.61522	0.699138	10.1748
0.195874	2.82989	0.141295	2.00381	0.453978	6.54789	0.488768	7.04906	0.581766	8.44786	0.714033	10.2982	0.326608	4.74229	0.504572	7.28842	0.589958	8.55796	0.70109	10.1101
0.196727	2.81647	0.1427	2.00574	0.455294	6.50751	0.492571	7.0397	0.584844	8.41527	0.715669	10.2285	0.327157	4.70704	0.508417	7.27747	0.591441	8.50148	0.70309	10.0473
0.197586	2.80338	0.144104	2.00763	0.456507	6.4664	0.496458	7.0317	0.587951	8.38369	0.717287	10.1598	0.327708	4.67245	0.512254	7.26661	0.592907	8.44576	0.705136	9.98632
0.198452	2.79063	0.145507	2.00948	0.457635	6.42481	0.500415	7.0248	0.591087	8.35307	0.718888	10.0921	0.328263	4.63853	0.51608	7.25579	0.594357	8.39083	0.707228	9.92703
0.199324	2.77819	0.146911	2.01129	0.458689	6.38294	0.504428	7.01882	0.594249	8.32336	0.720472	10.0253	0.328819	4.60524	0.519894	7.24499	0.595795	8.33669	0.709364	9.8694
0.200203	2.76605	0.148314	2.01307	0.459683	6.34096	0.508487	7.01359	0.597436	8.29452			0.329379	4.57258	0.523694	7.23418	0.597223	8.28337	0.711545	9.81339
0.201088	2.75422	0.149717	2.01482	0.460624	6.29899	0.512585	7.00897	0.600646	8.2665			0.329942	4.54052	0.527475	7.22331	0.598644	8.23087	0.713768	9.75893
0.20198	2.74267	0.15112	2.01654	0.46152	6.25713	0.516716	7.00487	0.603877	8.23926			0.330508	4.50907	0.531236	7.21235	0.600061	8.17923	0.716033	9.70596
0.202877	2.7314	0.152523	2.01822	0.462377	6.21546	0.520873	7.0012	0.607129	8.21275			0.331077	4.47819	0.534973	7.20125	0.601478	8.12848	0.718338	9.65445
0.203781	2.72041	0.153925	2.01987	0.463201	6.17404	0.525053	6.9979	0.610399	8.18695			0.33165	4.44789	0.538682	7.18997	0.6029	8.07865	0.720683	9.60432
0.204691	2.70968	0.155327	2.02149	0.463996	6.13293	0.529252	6.9949	0.613686	8.1618			0.332226	4.41815	0.542359	7.17844	0.604331	8.02977		
0.205607	2.69921	0.156729	2.02308	0.464764	6.09216	0.533468	6.99217	0.616989	8.13729			0.332806	4.38895	0.545998	7.16662	0.605777	7.98191		
0.206529	2.68898	0.15813	2.02464	0.46551	6.05177	0.537697	6.98966	0.620307	8.11337			0.33339	4.36028	0.549595	7.15443	0.607243	7.9351		
0.207456	2.679	0.159531	2.02618	0.466236	6.01178	0.541939	6.98735	0.623638	8.09001			0.333978	4.33213	0.553142	7.14181	0.608736	7.8894		
0.20839	2.66925	0.160932	2.02768	0.466945	5.97221	0.546191	6.98521	0.62698	8.06718			0.33457	4.30449	0.556634	7.12868	0.610264	7.8449		
0.209328	2.65972	0.162333	2.02916	0.467637	5.93307	0.550451	6.98322	0.630332	8.04485			0.335165	4.27735	0.560062	7.11496	0.611833	7.80165		
0.210273	2.65042	0.163734	2.03062	0.468316	5.89438	0.554719	6.98135	0.633694	8.02298			0.335765	4.25069	0.563418	7.10054	0.613454	7.75974		
0.211222	2.64133	0.165134	2.03205	0.468982	5.85615	0.558994	6.9796	0.637062	8.00157			0.336369	4.22451	0.566693	7.08534	0.615135	7.71925		
0.212177	2.63246	0.166534	2.03345	0.469637	5.81837	0.563275	6.97794	0.640437	7.98056			0.336977	4.1988	0.569878	7.06926	0.616887	7.68028		
0.213137	2.62378	0.167934	2.03483	0.470281	5.78107	0.56756	6.97637	0.643817	7.95994			0.337589	4.17353	0.572963	7.0522	0.61872	7.64291		
0.214103	2.6153	0.169334	2.03619	0.470917	5.74422	0.57185	6.97487	0.647199	7.93968			0.338205	4.14871	0.575938	7.03406	0.620644	7.60725		
0.215073	2.60702	0.170734	2.03752	0.471545	5.70785	0.576143	6.97344	0.650584	7.91974			0.338826	4.12433	0.578795	7.01477	0.622669	7.57336		
0.216049	2.59892	0.172133	2.03883	0.472166	5.67194	0.580439	6.97206	0.653968	7.90012			0.339451	4.10037	0.581525	6.99424	0.624804	7.54132		
0.217029	2.591	0.173532	2.04012	0.472781	5.6365	0.584737	6.97074	0.65735	7.88076			0.34008	4.07683	0.584122	6.97244	0.627058	7.51118		
0.218014	2.58326	0.174931	2.04139	0.47339	5.60153	0.589037	6.96946	0.660729	7.86166			0.340714	4.05369	0.586582	6.94934	0.629436	7.48297		
0.219005	2.57569	0.17633	2.04264	0.473994	5.56701	0.593339	6.96821	0.664102	7.84278			0.341352	4.03095	0.588902	6.92495	0.631941	7.45669		
0.219999	2.56828	0.177728	2.04386	0.474593	5.53295	0.597642	6.96699	0.667468	7.82409			0.341994	4.0086	0.591085	6.8993	0.634575	7.4323		
0.220999	2.56104	0.179127	2.04507	0.475189	5.49935	0.601945	6.9658	0.670824	7.80556			0.342641	3.98662	0.593132	6.87247	0.637336	7.40976		
0.222003	2.55396	0.180525	2.04626	0.475781	5.4662	0.606249	6.96463	0.674169	7.78717			0.343292	3.96502	0.59505	6.84452	0.64022	7.38896		
0.223011	2.54703	0.181923	2.04743	0.476371	5.43349	0.610552	6.96347	0.677499	7.76888			0.343948	3.94379	0.596844	6.81558	0.643223	7.36982		
0.224024	2.54025	0.183321	2.04858	0.476958	5.40122	0.614855	6.96233	0.680812	7.75067			0.344608	3.92291	0.598523	6.78575	0.646336	7.35221		
0.225041	2.53361	0.184719	2.04971	0.477542	5.36938	0.619157	6.96119	0.684106	7.73249			0.345272	3.90237	0.600096	6.75515	0.649551	7.336		
0.226063	2.52712	0.186116	2.05082	0.478125	5.33798	0.623457	6.96005	0.687376	7.71431			0.345941	3.88218	0.601573	6.72389	0.65286	7.32109		
0.227089	2.52076	0.187513	2.05192	0.478707	5.30699	0.627756	6.9589	0.690621	7.6961			0.346614	3.86232	0.60296	6.6921	0.656255	7.30733		
0.228119	2.51454	0.188911	2.053	0.479287	5.27643	0.632052	6.95774	0.693837	7.67782			0.347292	3.84279	0.604269	6.65987	0.659727	7.29462		
0.229153	2.50845	0.190308	2.05407	0.479866	5.24628	0.636345	6.95657	0.69702	7.65944			0.347974	3.82358	0.605505	6.62731	0.663268	7.28284		
0.230191	2.50249	0.191704	2.05511	0.480445	5.21654	0.640635	6.95538	0.700166	7.6409			0.34866	3.80469	0.606678	6.59449	0.666871	7.2719		
0.231233	2.49665	0.193101	2.05615	0.481023	5.18719	0.64492	6.95415	0.703271	7.62218			0.349351	3.7861	0.607792	6.5615	0.670528	7.2617		
0.232279	2.49094	0.194498	2.05716	0.481601	5.15825	0.649201	6.9529	0.706331	7.60323			0.350047	3.76781	0.608856	6.5284	0.674235	7.25217		
0.233329	2.48534	0.195894	2.05816	0.482179	5.12969	0.653477	6.9516	0.709342	7.58401			0.350746	3.74981	0.609873	6.49526	0.677986	7.24324		
0.234382	2.47986	0.19729	2.05915	0.482757	5.10152	0.657745	6.95025	0.712299	7.56448			0.35145	3.7321	0.610848	6.46212	0.681775	7.23484		
0.23544	2.47448	0.198686	2.06012	0.483336	5.07372	0.662007	6.94884	0.715199	7.5446			0.352159	3.71467	0.611787	6.42903	0.6856	7.22692		
0.236501	2.46922	0.200082	2.06108	0.483915	5.0463	0.666259	6.94735	0.718038	7.52435			0.352871	3.69753	0.612692	6.39603	0.689455	7.21943		
0.237565	2.46407	0.201478	2.06202	0.484495	5.01924	0.670502	6.94579	0.720812	7.50368			0.353588	3.68065	0.613567	6.36316	0.693337	7.21232		
0.238634	2.45902	0.202874	2.06295	0.485076	4.99255	0.674733	6.94412					0.35431	3.66403	0.614415	6.33043	0.697244	7.20555		
0.239706	2.45407	0.204269	2.06387	0.485657	4.9662	0.67895	6.94233					0.355035	3.64768	0.615239	6.29788	0.701173	7.1991		
0.240781	2.44922	0.205664	2.06478	0.48624	4.94021	0.683151	6.9404					0.355765	3.63158	0.61604	6.26552	0.705122	7.19294		
0.24186	2.44447	0.20706	2.06567	0.486824	4.91457	0.687333	6.93831					0.356499	3.61573	0.616822	6.23337	0.709088	7.18702		
0.242942	2.43981	0.208455	2.06655	0.487409	4.88926	0.691493	6.93602					0.357238	3.60013	0.617585	6.20146	0.713069	7.18135		
0.244027	2.43524	0.20985	2.06741	0.487996	4.86429	0.695627	6.9335					0.35798	3.58476	0.618333	6.16977	0.717065	7.17588		
0.245116	2.43076	0.211244	2.06827	0.488584	4.83964	0.699729	6.9307					0.358727	3.56963	0.619065	6.13834	0.721073	7.1706		
0.246208	2.42637	0.212639	2.06911	0.489174	4.81532	0.703795	6.92757					0.359478	3.55473	0.619783	6.10717				
0.247303	2.42207	0.214034	2.06994	0.489766	4.79131	0.707814	6.92404					0.360233	3.54006	0.62049	6.07626				
0.248401	2.41785	0.215428	2.07076	0.490359	4.76762	0.71178	6.92001					0.360992	3.52561	0.621185	6.04563				
0.249502	2.41371	0.216822	2.07157	0.490955	4.74423	0.715678	6.91539					0.361756	3.51138	0.621869	6.01526				
0.250607	2.40965	0.218217	2.07237	0.491552	4.72115	0.719496	6.91006					0.362523	3.49736	0.622545	5.98518				
0.251714	2.40567	0.219611	2.07315	0.492151	4.69836	0.723216	6.90385					0.363295	3.48354	0.623212	5.95538				
0.252824	2.40176	0.221004	2.07393	0.492752	4.67587							0.36407	3.46994	0.623871	5.92586				
0.253938	2.39793	0.222398	2.07469	0.493356	4.65367							0.36485	3.45653	0.624522	5.89663				
0.255054	2.39417	0.223792	2.07545	0.493961	4.63175							0.365634	3.44332	0.625168	5.86768				
0.256173	2.39048	0.225185	2.0762	0.494569	4.61011							0.366421	3.43031	0.625807	5.83902				
0.257294	2.38686	0.226579	2.07693	0.495179	4.58874							0.367213	3.41749	0.626441	5.81065				
0.258419	2.38331	0.227972	2.07766	0.495791	4.56765							0.368008	3.40485	0.62707	5.78256				
0.259546	2.37982	0.229365	2.07837	0.496406	4.54682							0.368808	3.39239	0.627694	5.75475				
0.260676	2.3764	0.230758	2.07908	0.497023	4.52625							0.369611	3.38012	0.628314	5.72723				
0.261808	2.37304	0.232151	2.07978	0.497643	4.50594							0.370418	3.36802	0.628931	5.69999				
0.262943	2.36975	0.233544	2.08047	0.498265	4.48588							0.371229	3.3561	0.629544	5.67303				
0.264081	2.36651	0.234937	2.08115	0.498889	4.46607							0.372044	3.34434	0.630154	5.64635				
0.265221	2.36333	0.236329	2.08183	0.499516	4.44651							0.372863	3.33275	0.630762	5.61995				
0.266364	2.36021	0.237722	2.08249	0.500145	4.42719							0.373685	3.32133	0.631367	5.59382				
0.267509	2.35715	0.239114	2.08315	0.500778	4.40811							0.374511	3.31006	0.63197	5.56796				
0.268656	2.35414	0.240506	2.08379	0.501412	4.38926							0.375341	3.29896	0.63257	5.54237				
0.269806	2.35119	0.241899	2.08443	0.502049	4.37064							0.376175	3.28801	0.63317	5.51704				
0.270958	2.34829	0.243291	2.08506	0.502689	4.35224							0.377012	3.27721	0.633767	5.49199				
0.272113	2.34544	0.244682	2.08569	0.503332	4.33408							0.377853	3.26656	0.634364	5.46719				
0.273269	2.34264	0.246074	2.08631	0.503977	4.31613							0.378697	3.25606	0.634959	5.44265				
0.274429	2.33989	0.247466	2.08691	0.504625	4.29839							0.379545	3.2457	0.635553	5.41837				
0.27559	2.33718	0.248858	2.08752	0.505276	4.28087							0.380397	3.23548	0.636147	5.39435				
0.276753	2.33453	0.250249	2.08811	0.505929	4.26356							0.381252	3.22541	0.63674	5.37057				
0.277919	2.33192	0.251641	2.0887	0.506585	4.24646							0.382111	3.21547	0.637332	5.34705				
0.279087	2.32936	0.253032	2.08928	0.507244	4.22956							0.382974	3.20566	0.637924	5.32377				
0.280257	2.32684	0.254423	2.08985	0.507905	4.21285							0.383839	3.19599	0.638516	5.30073				
0.281429	2.32437	0.255814	2.09042	0.50857	4.19635							0.384709	3.18645	0.639108	5.27793				
0.282603	2.32193	0.257205	2.09098	0.509236	4.18004							0.385581	3.17703	0.6397	5.25537				
0.283779	2.31954	0.258596	2.09153	0.509906	4.16392							0.386457	3.16775	0.640292	5.23305				
0.284957	2.31719	0.259987	2.09208	0.510579	4.14799							0.387337	3.15858	0.640885	5.21095				
0.286137	2.31488	0.261377	2.09262	0.511254	4.13224							0.38822	3.14954	0.641477	5.18909				
0.287318	2.31261	0.262768	2.09315	0.511932	4.11668							0.389106	3.14061	0.642071	5.16745				
0.288502	2.31038	0.264159	2.09368	0.512613	4.1013							0.389996	3.1318	0.642664	5.14603				
0.289688	2.30818	0.265549	2.0942	0.513297	4.08609							0.390888	3.12311	0.643258	5.12484				
0.290876	2.30602	0.266939	2.09472	0.513983	4.07106							0.391784	3.11453	0.643854	5.10386				
0.292065	2.3039	0.268329	2.09523	0.514672	4.0562							0.392684	3.10607	0.644449	5.0831				
0.293256	2.30182	0.26972	2.09574	0.515364	4.04151							0.393586	3.09771	0.645046	5.06255				
0.294449	2.29976	0.27111	2.09624	0.516059	4.02699							0.394492	3.08946	0.645643	5.04221				
0.295644	2.29774	0.272499	2.09673	0.516757	4.01263							0.395401	3.08132	0.646242	5.02208				
0.29684	2.29576	0.273889	2.09722	0.517457	3.99843							0.396313	3.07328	0.646841	5.00215				
0.298039	2.29381	0.275279	2.0977	0.51816	3.98439							0.397229	3.06534	0.647442	4.98243				
0.299239	2.29189	0.276669	2.09818	0.518866	3.97051							0.398147	3.05751	0.648044	4.96291				
0.30044	2.29	0.278058	2.09865	0.519575	3.95678							0.399068	3.04977	0.648647	4.94358				
0.301644	2.28814	0.279448	2.09912	0.520287	3.94321							0.399993	3.04213	0.649251	4.92445				
0.302848	2.28631	0.280837	2.09958	0.521001	3.92979							0.400921	3.03459	0.649856	4.90551				
0.304055	2.28451	0.282226	2.10003	0.521718	3.91651							0.401851	3.02714	0.650463	4.88676				
0.305263	2.28274	0.283615	2.10049	0.522438	3.90338							0.402785	3.01979	0.651071	4.86819				
0.306473	2.281	0.285004	2.10093	0.523161	3.8904							0.403721	3.01253	0.651681	4.84982				
0.307684	2.27928	0.286393	2.10137	0.523886	3.87755							0.404661	3.00535	0.652292	4.83162				
0.308897	2.27759	0.287782	2.10181	0.524614	3.86485							0.405604	2.99827	0.652904	4.81361				
0.310111	2.27593	0.289171	2.10224	0.525345	3.85229							0.406549	2.99127	0.653518	4.79577				
0.311327	2.2743	0.29056	2.10267	0.526079	3.83986							0.407497	2.98436	0.654134	4.77811				
0.312544	2.27269	0.291948	2.1031	0.526815	3.82757							0.408449	2.97754	0.654751	4.76063				
0.313762	2.27111	0.293337	2.10351	0.527554	3.8154							0.409403	2.9708	0.655369	4.74332				
0.314983	2.26955	0.294725	2.10393	0.528296	3.80337							0.410359	2.96414	0.65599	4.72617				
0.316204	2.26802	0.296114	2.10434	0.529041	3.79147							0.411319	2.95756	0.656612	4.7092				
0.317427	2.26651	0.297502	2.10475	0.529788	3.77969							0.412282	2.95106	0.657236	4.69238				
0.318651	2.26502	0.29889	2.10515	0.530538	3.76804							0.413247	2.94464	0.657861	4.67574				
0.319877	2.26355	0.300278	2.10554	0.531291	3.75651							0.414215	2.93829	0.658488	4.65925				
0.321104	2.26211	0.301666	2.10594	0.532046	3.74511							0.415186	2.93203	0.659117	4.64292				
0.322332	2.26069	0.303054	2.10633	0.532804	3.73382							0.416159	2.92583	0.659748	4.62675				
0.323562	2.2593	0.304442	2.10671	0.533565	3.72265							0.417136	2.91971	0.66038	4.61074				
0.324793	2.25792	0.30583	2.10709	0.534328	3.7116							0.418115	2.91367	0.661014	4.59487				
0.326025	2.25657	0.307218	2.10747	0.535094	3.70066							0.419096	2.90769	0.66165	4.57916				
0.327259	2.25523	0.308605	2.10785	0.535863	3.68984							0.42008	2.90179	0.662288	4.5636				
0.328493	2.25392	0.309993	2.10822	0.536635	3.67913							0.421067	2.89595	0.662928	4.54819				
0.329729	2.25262	0.31138	2.10858	0.537409	3.66853							0.422056	2.89019	0.66357	4.53292				
0.330967	2.25135	0.312768	2.10894	0.538185	3.65804							0.423048	2.88449	0.664213	4.5178				
0.332205	2.25009	0.314155	2.1093	0.538965	3.64766							0.424043	2.87885	0.664859	4.50282				
0.333445	2.24885	0.315542	2.10966	0.539747	3.63738							0.42504	2.87328	0.665506	4.48798				
0.334685	2.24763	0.316929	2.11001	0.540531	3.62721							0.42604	2.86778	0.666155	4.47328				
0.335927	2.24643	0.318316	2.11036	0.541318	3.61714							0.427042	2.86234	0.666807	4.45872				
0.33717	2.24525	0.319703	2.1107	0.542108	3.60717							0.428046	2.85696	0.66746	4.44429				
0.338415	2.24408	0.32109	2.11104	0.5429	3.5973							0.429054	2.85165	0.668115	4.43				
0.33966	2.24294	0.322477	2.11138	0.543695	3.58754							0.430063	2.84639	0.668772	4.41584				
0.340906	2.2418	0.323863	2.11172	0.544492	3.57787							0.431075	2.8412	0.669431	4.4018				
0.342154	2.24069	0.32525	2.11205	0.545292	3.56829							0.432089	2.83606	0.670092	4.3879				
0.343403	2.23959	0.326636	2.11238	0.546095	3.55882							0.433106	2.83098	0.670755	4.37413				
0.344652	2.23851	0.328023	2.1127	0.5469	3.54943							0.434125	2.82596	0.67142	4.36048				
0.345903	2.23744	0.329409	2.11302	0.547708	3.54014							0.435147	2.821	0.672087	4.34696				
0.347155	2.23639	0.330795	2.11334	0.548518	3.53095							0.436171	2.81609	0.672756	4.33356				
0.348408	2.23535	0.332182	2.11366	0.54933	3.52184							0.437197	2.81123	0.673427	4.32028				
0.349662	2.23433	0.333568	2.11397	0.550145	3.51282							0.438225	2.80644	0.6741	4.30712				
0.350917	2.23332	0.334954	2.11428	0.550963	3.50389							0.439256	2.80169	0.674775	4.29408				
0.352172	2.23233	0.33634	2.11459	0.551783	3.49505							0.440289	2.797	0.675452	4.28116				
0.353429	2.23135	0.337726	2.11489	0.552606	3.48629							0.441325	2.79235	0.676131	4.26835				
0.354687	2.23039	0.339111	2.11519	0.553431	3.47762							0.442362	2.78776	0.676812	4.25566				
0.355946	2.22944	0.340497	2.11549	0.554258	3.46903							0.443402	2.78322	0.677495	4.24308				
0.357206	2.2285	0.341883	2.11578	0.555088	3.46053							0.444444	2.77873	0.67818	4.23062				
0.358466	2.22757	0.343268	2.11607	0.55592	3.45211							0.445488	2.77429	0.678867	4.21826				
0.359728	2.22666	0.344654	2.11636	0.556755	3.44377							0.446535	2.7699	0.679556	4.20601				
0.360991	2.22576	0.346039	2.11665	0.557592	3.4355							0.447583	2.76555	0.680248	4.19387				
0.362254	2.22488	0.347424	2.11694	0.558432	3.42732							0.448634	2.76125	0.680941	4.18184				
0.363518	2.224	0.34881	2.11722	0.559274	3.41922							0.449687	2.757	0.681636	4.16992				
0.364784	2.22314	0.350195	2.1175	0.560118	3.41119							0.450742	2.7528	0.682334	4.1581				
0.36605	2.22229	0.35158	2.11777	0.560965	3.40324							0.451799	2.74864	0.683033	4.14638				
0.367317	2.22146	0.352965	2.11805	0.561814	3.39536							0.452858	2.74452	0.683734	4.13476				
0.368584	2.22063	0.35435	2.11832	0.562665	3.38756							0.45392	2.74045	0.684438	4.12324				
0.369853	2.21982	0.355735	2.11859	0.563519	3.37983							0.454983	2.73642	0.685143	4.11183				
0.371123	2.21901	0.357119	2.11885	0.564375	3.37217							0.456048	2.73243	0.685851	4.10051				
0.372393	2.21822	0.358504	2.11912	0.565233	3.36458							0.457116	2.72849	0.686561	4.08929				
0.373664	2.21744	0.359889	2.11938	0.566094	3.35707							0.458185	2.72459	0.687272	4.07817				
0.374936	2.21667	0.361273	2.11964	0.566957	3.34962							0.459257	2.72073	0.687986	4.06714				
0.376209	2.21591	0.362658	2.11989	0.567822	3.34225							0.46033	2.71691	0.688702	4.0562				
0.377483	2.21515	0.364042	2.12015	0.568689	3.33494							0.461405	2.71312	0.68942	4.04536				
0.378757	2.21441	0.365427	2.1204	0.569559	3.3277							0.462483	2.70938	0.69014	4.03461				
0.380032	2.21368	0.366811	2.12065	0.570431	3.32052							0.463562	2.70568	0.690861	4.02396				
0.381308	2.21296	0.368195	2.1209	0.571306	3.31341							0.464643	2.70202	0.691585	4.01339				
0.382585	2.21225	0.369579	2.12114	0.572182	3.30637							0.465726	2.69839	0.692311	4.00291				
0.383862	2.21155	0.370963	2.12138	0.573061	3.29939							0.466811	2.6948	0.693039	3.99252				
0.38514	2.21086	0.372347	2.12162	0.573942	3.29247							0.467898	2.69125	0.693769	3.98222				
0.386419	2.21018	0.373731	2.12186	0.574825	3.28562							0.468987	2.68774	0.694501	3.972				
0.387699	2.2095	0.375115	2.1221	0.575711	3.27882							0.470078	2.68426	0.695235	3.96187				
0.388979	2.20884	0.376498	2.12233	0.576598	3.27209							0.47117	2.68082	0.695972	3.95182				
0.39026	2.20818	0.377882	2.12257	0.577488	3.26542							0.472265	2.67741	0.69671	3.94185				
0.391542	2.20754	0.379266	2.1228	0.57838	3.25881							0.473361	2.67403	0.69745	3.93197				
0.392825	2.2069	0.380649	2.12302	0.579274	3.25226							0.474459	2.6707	0.698192	3.92217				
0.394108	2.20627	0.382032	2.12325	0.58017	3.24577							0.475559	2.66739	0.698936	3.91245				
0.395392	2.20565	0.383416	2.12348	0.581069	3.23933							0.47666	2.66412	0.699682	3.90281				
0.396676	2.20503	0.384799	2.1237	0.581969	3.23295							0.477763	2.66088	0.70043	3.89325				
0.397961	2.20443	0.386182	2.12392	0.582872	3.22663							0.478869	2.65767	0.701181	3.88377				
0.399247	2.20383	0.387565	2.12414	0.583777	3.22036							0.479975	2.6545	0.701933	3.87436				
0.400534	2.20324	0.388948	2.12435	0.584683	3.21415							0.481084	2.65135	0.702687	3.86503				
0.401821	2.20265	0.390331	2.12457	0.585592	3.208							0.482194	2.64824	0.703443	3.85578				
0.403109	2.20208	0.391714	2.12478	0.586503	3.20189							0.483306	2.64516	0.704201	3.8466				
0.404397	2.20151	0.393097	2.12499	0.587416	3.19584							0.48442	2.64211	0.704961	3.83749				
0.405686	2.20095	0.39448	2.1252	0.588332	3.18985							0.485535	2.63909	0.705724	3.82846				
0.406976	2.2004	0.395863	2.12541	0.589249	3.1839							0.486653	2.6361	0.706488	3.8195				
0.408266	2.19985	0.397245	2.12561	0.590168	3.17801							0.487771	2.63314	0.707254	3.81061				
0.409557	2.19931	0.398628	2.12582	0.591089	3.17217							0.488892	2.63021	0.708022	3.80179				
0.410849	2.19878	0.40001	2.12602	0.592013	3.16637							0.490014	2.62731	0.708792	3.79305				
0.412141	2.19825	0.401392	2.12622	0.592938	3.16063							0.491137	2.62443	0.709564	3.78437				
0.413433	2.19774	0.402775	2.12642	0.593865	3.15494							0.492263	2.62158	0.710338	3.77576				
0.414727	2.19722	0.404157	2.12661	0.594795	3.14929							0.49339	2.61876	0.711114	3.76722				
0.416021	2.19672	0.405539	2.12681	0.595726	3.1437							0.494518	2.61597	0.711891	3.75875				
0.417315	2.19622	0.406921	2.127	0.596659	3.13815							0.495648	2.61321	0.712671	3.75034				
0.41861	2.19573	0.408303	2.12719	0.597595	3.13265							0.49678	2.61047	0.713453	3.742				
0.419906	2.19524	0.409685	2.12738	0.598532	3.12719							0.497913	2.60776	0.714236	3.73373				
0.421202	2.19476	0.411067	2.12757	0.599471	3.12179							0.499048	2.60507	0.715022	3.72551				
0.422498	2.19428	0.412449	2.12776	0.600412	3.11642							0.500184	2.60241	0.715809	3.71737				
0.423796	2.19381	0.413831	2.12794	0.601355	3.1111							0.501322	2.59978	0.716599	3.70928				
0.425093	2.19335	0.415212	2.12813	0.6023	3.10583							0.502461	2.59717	0.71739	3.70126				
0.426391	2.19289	0.416594	2.12831	0.603247	3.1006							0.503602	2.59458	0.718183	3.6933				
0.42769	2.19244	0.417976	2.12849	0.604196	3.09542							0.504744	2.59202	0.718978	3.68541				
0.42899	2.192	0.419357	2.12867	0.605147	3.09027							0.505888	2.58948	0.719775	3.67757				
0.430289	2.19155	0.420738	2.12885	0.606099	3.08517							0.507033	2.58697	0.720574	3.66979				
0.43159	2.19112	0.42212	2.12902	0.607054	3.08012							0.50818	2.58448						
0.432891	2.19069	0.423501	2.1292	0.60801	3.0751							0.509328	2.58202						
0.434192	2.19026	0.424882	2.12937	0.608968	3.07013							0.510478	2.57958						
0.435494	2.18985	0.426263	2.12954	0.609928	3.06519							0.511629	2.57716						
0.436796	2.18943	0.427644	2.12971	0.61089	3.0603							0.512782	2.57476						
0.438099	2.18902	0.429025	2.12988	0.611854	3.05545							0.513936	2.57238						
0.439402	2.18862	0.430406	2.13005	0.612819	3.05063							0.515091	2.57003						
0.440706	2.18822	0.431787	2.13021	0.613787	3.04586							0.516248	2.5677						
0.44201	2.18782	0.433168	2.13038	0.614756	3.04112							0.517406	2.56539						
0.443315	2.18743	0.434548	2.13054	0.615727	3.03643							0.518566	2.5631						
0.44462	2.18705	0.435929	2.1307	0.6167	3.03177							0.519727	2.56084						
0.445926	2.18667	0.437309	2.13086	0.617674	3.02715							0.520889	2.55859						
0.447232	2.18629	0.43869	2.13102	0.61865	3.02256							0.522052	2.55636						
0.448538	2.18592	0.44007	2.13118	0.619629	3.01802							0.523217	2.55416						
0.449845	2.18555	0.441451	2.13134	0.620608	3.01351							0.524384	2.55197						
0.451153	2.18519	0.442831	2.13149	0.62159	3.00903							0.525551	2.54981						
0.452461	2.18483	0.444211	2.13165	0.622573	3.00459							0.52672	2.54766						
0.453769	2.18448	0.445591	2.1318	0.623558	3.00019							0.527891	2.54553						
0.455078	2.18413	0.446971	2.13195	0.624545	2.99582							0.529062	2.54343						
0.456387	2.18379	0.448351	2.1321	0.625534	2.99149							0.530235	2.54134						
0.457696	2.18344	0.449731	2.13225	0.626524	2.98719							0.531409	2.53927						
0.459006	2.18311	0.451111	2.1324	0.627516	2.98292							0.532585	2.53722						
0.460317	2.18277	0.452491	2.13255	0.628509	2.97869							0.533761	2.53519						
0.461628	2.18244	0.45387	2.13269	0.629504	2.97449							0.534939	2.53317						
0.462939	2.18212	0.45525	2.13284	0.630501	2.97032							0.536118	2.53117						
0.464251	2.1818	0.45663	2.13298	0.6315	2.96619							0.537299	2.52919						
0.465562	2.18148	0.458009	2.13312	0.6325	2.96209							0.538481	2.52723						
0.466875	2.18116	0.459389	2.13326	0.633502	2.95802							0.539663	2.52529						
0.468188	2.18085	0.460768	2.1334	0.634506	2.95398							0.540847	2.52336						
0.469501	2.18055	0.462147	2.13354	0.635511	2.94998							0.542033	2.52145						
0.470814	2.18024	0.463527	2.13368	0.636518	2.946							0.543219	2.51956						
0.472128	2.17994	0.464906	2.13381	0.637526	2.94206							0.544407	2.51768						
0.473443	2.17965	0.466285	2.13395	0.638536	2.93814							0.545596	2.51582						
0.474757	2.17935	0.467664	2.13408	0.639548	2.93426							0.546786	2.51398						
0.476072	2.17906	0.469043	2.13422	0.640561	2.9304							0.547977	2.51215						
0.477388	2.17878	0.470422	2.13435	0.641576	2.92658							0.54917	2.51034						
0.478704	2.17849	0.4718	2.13448	0.642592	2.92278							0.550363	2.50854						
0.48002	2.17821	0.473179	2.13461	0.64361	2.91901							0.551558	2.50676						
0.481336	2.17794	0.474558	2.13474	0.64463	2.91528							0.552754	2.50499						
0.482653	2.17766	0.475937	2.13487	0.645651	2.91157							0.553951	2.50324						
0.48397	2.17739	0.477315	2.13499	0.646673	2.90788							0.555149	2.50151						
0.485288	2.17713	0.478694	2.13512	0.647697	2.90423							0.556348	2.49979						
0.486606	2.17686	0.480072	2.13524	0.648723	2.9006							0.557548	2.49808						
0.487924	2.1766	0.48145	2.13537	0.64975	2.897							0.55875	2.49639						
0.489243	2.17634	0.482829	2.13549	0.650779	2.89343							0.559952	2.49471						
0.490561	2.17609	0.484207	2.13561	0.651809	2.88989							0.561156	2.49305						
0.491881	2.17584	0.485585	2.13573	0.652841	2.88637							0.56236	2.4914						
0.4932	2.17559	0.486963	2.13585	0.653874	2.88287							0.563566	2.48977						
0.49452	2.17534	0.488341	2.13597	0.654909	2.87941							0.564773	2.48815						
0.49584	2.17509	0.489719	2.13609	0.655945	2.87597							0.565981	2.48654						
0.497161	2.17485	0.491097	2.13621	0.656983	2.87255							0.56719	2.48495						
0.498482	2.17462	0.492475	2.13632	0.658022	2.86916							0.5684	2.48337						
0.499803	2.17438	0.493853	2.13644	0.659063	2.86579							0.569611	2.4818						
0.501124	2.17415	0.49523	2.13655	0.660105	2.86245							0.570823	2.48025						
0.502446	2.17392	0.496608	2.13667	0.661149	2.85914							0.572036	2.47871						
0.503768	2.17369	0.497986	2.13678	0.662194	2.85585							0.57325	2.47718						
0.50509	2.17346	0.499363	2.13689	0.66324	2.85258							0.574465	2.47566						
0.506413	2.17324	0.500741	2.137	0.664288	2.84933							0.575681	2.47416						
0.507736	2.17302	0.502118	2.13711	0.665337	2.84611							0.576898	2.47267						
0.509059	2.1728	0.503495	2.13722	0.666388	2.84292							0.578116	2.47119						
0.510383	2.17258	0.504872	2.13733	0.66744	2.83974							0.579335	2.46973						
0.511707	2.17237	0.50625	2.13744	0.668493	2.83659							0.580555	2.46827						
0.513031	2.17216	0.507627	2.13754	0.669548	2.83346							0.581777	2.46683						
0.514355	2.17195	0.509004	2.13765	0.670604	2.83036							0.582999	2.4654						
0.51568	2.17175	0.510381	2.13775	0.671662	2.82728							0.584222	2.46398						
0.517005	2.17154	0.511758	2.13786	0.672721	2.82422							0.585445	2.46258						
0.51833	2.17134	0.513135	2.13796	0.673782	2.82118							0.58667	2.46118						
0.519655	2.17114	0.514511	2.13806	0.674843	2.81816							0.587896	2.4598						
0.520981	2.17094	0.515888	2.13816	0.675906	2.81516							0.589123	2.45843						
0.522307	2.17075	0.517265	2.13826	0.676971	2.81219							0.590351	2.45706						
0.523634	2.17055	0.518641	2.13836	0.678037	2.80924							0.591579	2.45571						
0.52496	2.17036	0.520018	2.13846	0.679104	2.8063							0.592809	2.45437						
0.526287	2.17017	0.521394	2.13856	0.680172	2.80339							0.59404	2.45304						
0.527614	2.16999	0.522771	2.13866	0.681242	2.8005							0.595271	2.45173						
0.528941	2.1698	0.524147	2.13876	0.682313	2.79763							0.596503	2.45042						
0.530269	2.16962	0.525524	2.13885	0.683385	2.79478							0.597736	2.44912						
0.531597	2.16944	0.5269	2.13895	0.684459	2.79195							0.598971	2.44784						
0.532925	2.16926	0.528276	2.13904	0.685534	2.78914							0.600206	2.44656						
0.534253	2.16908	0.529652	2.13914	0.68661	2.78635							0.601441	2.44529						
0.535582	2.16891	0.531028	2.13923	0.687688	2.78358							0.602678	2.44404						
0.536911	2.16873	0.532404	2.13932	0.688767	2.78082							0.603916	2.44279						
0.53824	2.16856	0.53378	2.13941	0.689847	2.77809							0.605154	2.44155						
0.539569	2.16839	0.535156	2.13951	0.690928	2.77538							0.606394	2.44033						
0.540899	2.16823	0.536532	2.1396	0.692011	2.77268							0.607634	2.43911						
0.542229	2.16806	0.537907	2.13969	0.693095	2.77001							0.608875	2.4379						
0.543559	2.1679	0.539283	2.13977	0.69418	2.76735							0.610117	2.4367						
0.544889	2.16773	0.540659	2.13986	0.695266	2.76471							0.61136	2.43552						
0.546219	2.16757	0.542034	2.13995	0.696354	2.76209							0.612603	2.43434						
0.54755	2.16741	0.54341	2.14004	0.697443	2.75948							0.613848	2.43317						
0.548881	2.16726	0.544785	2.14012	0.698533	2.7569							0.615093	2.43201						
0.550212	2.1671	0.54616	2.14021	0.699624	2.75433							0.616339	2.43085						
0.551544	2.16695	0.547536	2.14029	0.700716	2.75178							0.617586	2.42971						
0.552875	2.16679	0.548911	2.14038	0.70181	2.74924							0.618834	2.42858						
0.554207	2.16664	0.550286	2.14046	0.702905	2.74673							0.620082	2.42745						
0.555539	2.16649	0.551661	2.14054	0.704001	2.74423							0.621331	2.42633						
0.556871	2.16635	0.553036	2.14063	0.705098	2.74175							0.622581	2.42523						
0.558204	2.1662	0.554411	2.14071	0.706197	2.73928							0.623832	2.42413						
0.559536	2.16606	0.555786	2.14079	0.707296	2.73683							0.625084	2.42304						
0.560869	2.16591	0.557161	2.14087	0.708397	2.7344							0.626337	2.42195						
0.562202	2.16577	0.558536	2.14095	0.709499	2.73198							0.62759	2.42088						
0.563536	2.16563	0.559911	2.14103	0.710602	2.72958							0.628844	2.41981						
0.564869	2.16549	0.561286	2.14111	0.711707	2.7272							0.630099	2.41875						
0.566203	2.16536	0.56266	2.14119	0.712812	2.72483							0.631354	2.4177						
0.567537	2.16522	0.564035	2.14126	0.713919	2.72248							0.63261	2.41666						
0.568871	2.16509	0.565409	2.14134	0.715026	2.72015							0.633868	2.41563						
0.570205	2.16495	0.566784	2.14142	0.716135	2.71782							0.635125	2.4146						
0.57154	2.16482	0.568158	2.14149	0.717245	2.71552							0.636384	2.41358						
0.572875	2.16469	0.569532	2.14157	0.718356	2.71323							0.637643	2.41257						
0.57421	2.16456	0.570907	2.14164	0.719469	2.71095							0.638903	2.41157						
0.575545	2.16443	0.572281	2.14171	0.720582	2.70869							0.640164	2.41057						
0.57688	2.16431	0.573655	2.14179									0.641426	2.40959						
0.578215	2.16418	0.575029	2.14186									0.642688	2.4086						
0.579551	2.16406	0.576403	2.14193									0.643951	2.40763						
0.580887	2.16394	0.577777	2.142									0.645214	2.40666						
0.582223	2.16382	0.579151	2.14208									0.646479	2.40571						
0.583559	2.1637	0.580525	2.14215									0.647744	2.40475						
0.584896	2.16358	0.581899	2.14222									0.64901	2.40381						
0.586232	2.16346	0.583273	2.14229									0.650276	2.40287						
0.587569	2.16334	0.584646	2.14235									0.651543	2.40194						
0.588906	2.16323	0.58602	2.14242									0.652811	2.40102						
0.590243	2.16312	0.587394	2.14249									0.65408	2.4001						
0.59158	2.163	0.588767	2.14256									0.655349	2.39919						
0.592918	2.16289	0.590141	2.14262									0.656619	2.39828						
0.594255	2.16278	0.591514	2.14269									0.65789	2.39739						
0.595593	2.16267	0.592888	2.14276									0.659161	2.3965						
0.596931	2.16256	0.594261	2.14282									0.660433	2.39561						
0.598269	2.16246	0.595634	2.14289									0.661705	2.39474						
0.599607	2.16235	0.597007	2.14295									0.662979	2.39386						
0.600946	2.16225	0.59838	2.14302									0.664253	2.393						
0.602284	2.16214	0.599754	2.14308									0.665527	2.39214						
0.603623	2.16204	0.601127	2.14314									0.666802	2.39129						
0.604962	2.16194	0.6025	2.1432									0.668078	2.39044						
0.606301	2.16184	0.603872	2.14327									0.669355	2.3896						
0.60764	2.16174	0.605245	2.14333									0.670632	2.38877						
0.60898	2.16164	0.606618	2.14339									0.67191	2.38794						
0.610319	2.16154	0.607991	2.14345									0.673188	2.38712						
0.611659	2.16144	0.609364	2.14351									0.674467	2.3863						
0.612999	2.16135	0.610736	2.14357									0.675747	2.38549						
0.614339	2.16125	0.612109	2.14363									0.677027	2.38469						
0.615679	2.16116	0.613481	2.14369									0.678308	2.38389						
0.617019	2.16107	0.614854	2.14374									0.67959	2.38309						
0.61836	2.16098	0.616226	2.1438									0.680872	2.38231						
0.619701	2.16088	0.617599	2.14386									0.682154	2.38152						
0.621041	2.16079	0.618971	2.14392									0.683438	2.38075						
0.622382	2.16071	0.620343	2.14397									0.684722	2.37998						
0.623723	2.16062	0.621715	2.14403									0.686006	2.37921						
0.625064	2.16053	0.623088	2.14408									0.687291	2.37845						
0.626406	2.16044	0.62446	2.14414									0.688577	2.3777						
0.627747	2.16036	0.625832	2.14419									0.689863	2.37695						
0.629089	2.16027	0.627204	2.14425									0.69115	2.3762						
0.630431	2.16019	0.628576	2.1443									0.692438	2.37546						
0.631772	2.1601	0.629948	2.14436									0.693726	2.37473						
0.633114	2.16002	0.631319	2.14441									0.695014	2.374						
0.634457	2.15994	0.632691	2.14446									0.696303	2.37328						
0.635799	2.15986	0.634063	2.14451									0.697593	2.37256						
0.637141	2.15978	0.635435	2.14457									0.698884	2.37185						
0.638484	2.1597	0.636806	2.14462									0.700174	2.37114						
0.639827	2.15962	0.638178	2.14467									0.701466	2.37043						
0.641169	2.15954	0.639549	2.14472									0.702758	2.36974						
0.642512	2.15947	0.640921	2.14477									0.70405	2.36904						
0.643855	2.15939	0.642292	2.14482									0.705343	2.36835						
0.645198	2.15932	0.643664	2.14487									0.706637	2.36767						
0.646542	2.15924	0.645035	2.14492									0.707931	2.36699						
0.647885	2.15917	0.646406	2.14497									0.709226	2.36631						
0.649229	2.15909	0.647777	2.14502									0.710521	2.36564						
0.650573	2.15902	0.649149	2.14506									0.711817	2.36498						
0.651916	2.15895	0.65052	2.14511									0.713113	2.36432						
0.65326	2.15888	0.651891	2.14516									0.71441	2.36366						
0.654604	2.15881	0.653262	2.14521									0.715707	2.36301						
0.655948	2.15874	0.654633	2.14525									0.717005	2.36236						
0.657293	2.15867	0.656004	2.1453									0.718304	2.36172						
0.658637	2.1586	0.657375	2.14534									0.719603	2.36108						
0.659982	2.15853	0.658745	2.14539									0.720902	2.36044						
0.661326	2.15847	0.660116	2.14543																
0.662671	2.1584	0.661487	2.14548																
0.664016	2.15833	0.662858	2.14552																
0.665361	2.15827	0.664228	2.14557																
0.666706	2.1582	0.665599	2.14561																
0.668051	2.15814	0.666969	2.14566																
0.669396	2.15808	0.66834	2.1457																
0.670742	2.15801	0.66971	2.14574																
0.672087	2.15795	0.67108	2.14578																
0.673433	2.15789	0.672451	2.14583																
0.674779	2.15783	0.673821	2.14587																
0.676125	2.15777	0.675191	2.14591																
0.67747	2.15771	0.676562	2.14595																
0.678817	2.15765	0.677932	2.14599																
0.680163	2.15759	0.679302	2.14603																
0.681509	2.15753	0.680672	2.14607																
0.682855	2.15748	0.682042	2.14611																
0.684202	2.15742	0.683412	2.14615																
0.685548	2.15736	0.684782	2.14619																
0.686895	2.15731	0.686152	2.14623																
0.688242	2.15725	0.687521	2.14627																
0.689589	2.1572	0.688891	2.14631																
0.690936	2.15714	0.690261	2.14635																
0.692283	2.15709	0.691631	2.14638																
0.69363	2.15704	0.693	2.14642																
0.694977	2.15698	0.69437	2.14646																
0.696324	2.15693	0.695739	2.1465																
0.697672	2.15688	0.697109	2.14653																
0.699019	2.15683	0.698478	2.14657																
0.700367	2.15678	0.699848	2.14661																
0.701715	2.15673	0.701217	2.14664																
0.703062	2.15668	0.702586	2.14668																
0.70441	2.15663	0.703956	2.14671																
0.705758	2.15658	0.705325	2.14675																
0.707106	2.15653	0.706694	2.14678																
0.708454	2.15648	0.708063	2.14682																
0.709803	2.15644	0.709432	2.14685																
0.711151	2.15639	0.710801	2.14688																
0.712499	2.15634	0.71217	2.14692																
0.713848	2.1563	0.713539	2.14695																
0.715197	2.15625	0.714908	2.14699																
0.716545	2.15621	0.716277	2.14702																
0.717894	2.15616	0.717646	2.14705																
0.719243	2.15612	0.719015	2.14708																
0.720592	2.15607	0.720383	2.14712																
