Sym0		Asym0		Sym1		Sym2		Sym3		Sym4		Asym1		Asym2		Asym3		Asym4	
545  Points		544  Points		442  Points		207  Points		192  Points		146  Points		495  Points		350  Points		196  Points		145  Points	
Freq (MHz)	Vph (m/ms)	Freq (MHz)	Vph (m/ms)	Freq (MHz)	Vph (m/ms)	Freq (MHz)	Vph (m/ms)	Freq (MHz)	Vph (m/ms)	Freq (MHz)	Vph (m/ms)	Freq (MHz)	Vph (m/ms)	Freq (MHz)	Vph (m/ms)	Freq (MHz)	Vph (m/ms)	Freq (MHz)	Vph (m/ms)
0.000588152	5.65733	0.000175914	0.120066	0.168441	494.927	0.279508	79292.6	0.505323	1536.64	0.559031	1050.11	0.139779	313.942	0.336882	918.227	0.419266	1614.71	0.673767	14728.2
0.0041662	5.65738	0.000359814	0.171536	0.168433	173.145	0.279535	439.535	0.505305	525.645	0.559086	479.98	0.139897	129.812	0.336871	337.094	0.419304	470.014	0.673743	993.425
0.00774396	5.65718	0.000607816	0.222638	0.168419	104.918	0.279615	220.441	0.505271	317.031	0.559181	311.129	0.140114	81.9308	0.336851	206.43	0.419382	275.083	0.67368	514.001
0.0113212	5.65683	0.000918951	0.273293	0.168398	75.255	0.279749	147.167	0.505221	226.941	0.559317	230.198	0.140428	59.9452	0.336822	148.756	0.419502	194.482	0.673577	346.648
0.0148977	5.65639	0.00129193	0.32339	0.168371	58.6625	0.279935	110.5	0.505154	176.709	0.559492	182.711	0.140838	47.3396	0.336783	116.264	0.419662	150.445	0.673436	261.471
0.0184732	5.65581	0.00172528	0.372838	0.168337	48.0604	0.280173	88.4998	0.505071	144.673	0.559708	151.492	0.141344	39.1804	0.336735	95.4151	0.419864	122.698	0.673259	209.867
0.0220475	5.65509	0.00221735	0.421559	0.168297	40.7	0.280464	73.8401	0.504972	122.46	0.559962	129.408	0.141943	33.4773	0.336679	80.9009	0.420105	103.617	0.673049	175.251
0.0256203	5.65425	0.00276626	0.469468	0.168253	35.2914	0.280807	63.3773	0.504859	106.151	0.560255	112.965	0.142634	29.2737	0.336614	70.2146	0.420386	89.695	0.672808	150.417
0.0291913	5.65327	0.00337012	0.516509	0.168203	31.1488	0.281201	55.5385	0.504732	93.6684	0.560585	100.248	0.143415	26.0523	0.336541	62.0177	0.420707	79.0908	0.672538	131.731
0.0327602	5.65214	0.00402676	0.562612	0.16815	27.8742	0.281646	49.4495	0.504591	83.8059	0.560953	90.1208	0.144283	23.5091	0.33646	55.5308	0.421068	70.7468	0.672243	117.159
0.0363266	5.65085	0.00473405	0.607731	0.168093	25.2206	0.282141	44.5856	0.504437	75.8164	0.561357	81.8673	0.145238	21.4538	0.336372	50.269	0.421467	64.0118	0.671925	105.478
0.0398903	5.64941	0.0054898	0.651828	0.168033	23.0266	0.282686	40.6127	0.504271	69.2123	0.561797	75.0126	0.146275	19.7608	0.336278	45.9152	0.421904	58.4625	0.671586	95.9031
0.043451	5.6478	0.00629169	0.69486	0.167972	21.1824	0.28328	37.3081	0.504094	63.6618	0.562271	69.2297	0.147392	18.3444	0.336177	42.2527	0.422379	53.8123	0.671231	87.9125
0.0470081	5.64602	0.0071374	0.736797	0.16791	19.6105	0.283923	34.5176	0.503907	58.9312	0.562779	64.2862	0.148587	17.1437	0.336071	39.129	0.422891	49.86	0.67086	81.1426
0.0505612	5.64404	0.00802477	0.77763	0.167848	18.2549	0.284612	32.1309	0.50371	54.8511	0.563321	60.0124	0.149857	16.1144	0.335961	36.4333	0.42344	46.4602	0.670477	75.3334
0.0541098	5.64185	0.00895147	0.817338	0.167788	17.0739	0.285349	30.0672	0.503505	51.296	0.563894	56.2814	0.1512	15.2234	0.335846	34.0832	0.424024	43.5054	0.670083	70.2939
0.0576535	5.63945	0.00991533	0.855918	0.16773	16.036	0.286131	28.266	0.503292	48.1705	0.564498	52.9963	0.152612	14.4457	0.335727	32.0162	0.424644	40.914	0.66968	65.8807
0.0611916	5.63681	0.0109141	0.89336	0.167676	15.1167	0.286959	26.6807	0.503073	45.4013	0.565133	50.0822	0.154091	13.7619	0.335606	30.1841	0.425299	38.6235	0.66927	61.9839
0.0647233	5.63391	0.0119458	0.929678	0.167627	14.2971	0.28783	25.2755	0.502848	42.9305	0.565797	47.4799	0.155635	13.1566	0.335482	28.5491	0.425987	36.5847	0.668855	58.5178
0.0682481	5.63074	0.0130082	0.96487	0.167585	13.5619	0.288745	24.0217	0.502617	40.7126	0.56649	45.1422	0.157239	12.6176	0.335358	27.0809	0.426709	34.7587	0.668437	55.4149
0.0717648	5.62726	0.0140995	0.998954	0.16755	12.899	0.289702	22.8965	0.502383	38.7105	0.56721	43.0309	0.158903	12.1352	0.335232	25.7554	0.427463	33.1142	0.668016	52.621
0.0752727	5.62344	0.0152178	1.03194	0.167526	12.2983	0.2907	21.8817	0.502146	36.8942	0.567957	41.1148	0.160623	11.7014	0.335106	24.5527	0.428249	31.6256	0.667593	50.0921
0.0787705	5.61924	0.0163612	1.06385	0.167513	11.7517	0.291739	20.9619	0.501906	35.2391	0.56873	39.3683	0.162396	11.3095	0.334981	23.4566	0.429066	30.272	0.667171	47.7924
0.0822569	5.61464	0.017528	1.09471	0.167514	11.2525	0.292817	20.1249	0.501665	33.7246	0.569528	37.77	0.16422	10.9541	0.334858	22.4536	0.429914	29.0362	0.66675	45.6921
0.0857306	5.60958	0.0187168	1.12453	0.167531	10.795	0.293933	19.3601	0.501423	32.3336	0.57035	36.3019	0.166093	10.6305	0.334737	21.5323	0.430791	27.9035	0.66633	43.7664
0.0891896	5.604	0.0199257	1.15334	0.167566	10.3745	0.295087	18.6588	0.501181	31.0516	0.571196	34.9489	0.168013	10.335	0.334619	20.6832	0.431697	26.8618	0.665913	41.9945
0.0926321	5.59785	0.0211535	1.18116	0.167622	9.98693	0.296278	18.0137	0.50094	29.8664	0.572065	33.6981	0.169976	10.0643	0.334505	19.8983	0.432632	25.9007	0.665499	40.3588
0.0960555	5.59104	0.0223987	1.20803	0.167703	9.6289	0.297504	17.4184	0.5007	28.7674	0.572956	32.5383	0.171982	9.81544	0.334395	19.1705	0.433594	25.0113	0.66509	38.8441
0.0994572	5.58349	0.02366	1.23397	0.167812	9.29751	0.298765	16.8677	0.500463	27.7456	0.573868	31.4602	0.174026	9.58612	0.334291	18.494	0.434584	24.186	0.664685	37.4375
0.102834	5.5751	0.0249364	1.25901	0.167952	8.99026	0.300059	16.3567	0.500229	26.7931	0.574802	30.4554	0.176109	9.37425	0.334193	17.8635	0.4356	23.4182	0.664286	36.1281
0.106181	5.56576	0.0262264	1.28317	0.168129	8.70503	0.301386	15.8815	0.499999	25.9033	0.575755	29.5168	0.178227	9.178	0.334102	17.2747	0.436641	22.7023	0.663892	34.906
0.109496	5.55531	0.0275292	1.30648	0.168348	8.44001	0.302745	15.4386	0.499773	25.0702	0.576728	28.6381	0.180378	8.9958	0.334018	16.7235	0.437707	22.0332	0.663505	33.7629
0.11277	5.54358	0.0288437	1.32898	0.168579	8.22431	0.304135	15.0249	0.499552	24.2885	0.57772	27.8139	0.182561	8.82626	0.333943	16.2065	0.438798	21.4066	0.663124	32.6915
0.116	5.53038	0.030169	1.35068	0.168808	8.05095	0.305555	14.6377	0.499336	23.5537	0.57873	27.0392	0.184773	8.66817	0.333877	15.7208	0.439913	20.8187	0.662751	31.6851
0.119175	5.51548	0.0315043	1.37162	0.169023	7.91455	0.307004	14.2746	0.499127	22.8618	0.579758	26.3098	0.187013	8.52046	0.333822	15.2636	0.441051	20.2659	0.662385	30.7382
0.122288	5.4986	0.0328486	1.39183	0.16921	7.81098	0.308481	13.9335	0.498924	22.2092	0.580804	25.6218	0.189279	8.38216	0.333777	14.8327	0.442211	19.7454	0.662027	29.8457
0.125327	5.47943	0.0342014	1.41132	0.169359	7.73717	0.309985	13.6126	0.498729	21.5926	0.581866	24.972	0.191569	8.25244	0.333744	14.4258	0.443393	19.2545	0.661678	29.003
0.12828	5.45761	0.0355617	1.43013	0.169459	7.69096	0.311516	13.3102	0.498541	21.0092	0.582944	24.3571	0.193882	8.13054	0.333723	14.041	0.444596	18.7907	0.661337	28.2061
0.131132	5.43275	0.0369291	1.44829	0.169611	7.62591	0.313072	13.0247	0.498362	20.4564	0.584039	23.7746	0.195914	8.03016	0.333717	13.6768	0.445821	18.3518	0.661005	27.4515
0.133866	5.40443	0.0383028	1.46581	0.169785	7.55701	0.314653	12.7548	0.498192	19.932	0.585149	23.2219	0.197657	7.94857	0.333724	13.3315	0.447065	17.9361	0.660683	26.7358
0.136467	5.37224	0.0396825	1.48272	0.170041	7.46629	0.316257	12.4994	0.498031	19.4338	0.586274	22.6969	0.199107	7.88368	0.333747	13.0039	0.448329	17.5417	0.66037	26.0563
0.138915	5.33579	0.0410674	1.49904	0.170395	7.35638	0.317885	12.2574	0.49788	18.96	0.587413	22.1975	0.200257	7.83395	0.333785	12.6926	0.449612	17.1671	0.660066	25.4102
0.141197	5.29481	0.0424572	1.5148	0.170876	7.23048	0.319534	12.0276	0.497739	18.5088	0.588567	21.7219	0.201106	7.79823	0.333841	12.3966	0.450914	16.8108	0.659773	24.7952
0.143299	5.24914	0.0436718	1.52808	0.171521	7.09235	0.321205	11.8094	0.497609	18.0788	0.589734	21.2686	0.20165	7.77574	0.333915	12.1149	0.452233	16.4717	0.659491	24.2092
0.145214	5.19884	0.0447097	1.5391	0.172381	6.94627	0.322897	11.6018	0.497491	17.6685	0.590915	20.8359	0.202433	7.7439	0.334009	11.8464	0.45357	16.1484	0.659219	23.6501
0.14694	5.14417	0.0455695	1.54799	0.173388	6.81319	0.324607	11.4041	0.497384	17.2767	0.592109	20.4226	0.203287	7.70992	0.334122	11.5904	0.454924	15.8399	0.658957	23.1162
0.148484	5.0856	0.0462503	1.55489	0.174557	6.69283	0.326337	11.2157	0.497289	16.9021	0.593315	20.0273	0.20445	7.66474	0.334257	11.3462	0.456295	15.5453	0.658707	22.6059
0.149856	5.02376	0.0467513	1.55989	0.175906	6.58487	0.328085	11.0359	0.497208	16.5437	0.594534	19.649	0.205925	7.60923	0.334415	11.113	0.457681	15.2636	0.658468	22.1176
0.151071	4.95935	0.0470722	1.56306	0.177447	6.48891	0.329849	10.8641	0.497139	16.2005	0.595764	19.2865	0.207716	7.54441	0.334596	10.8901	0.459083	14.9941	0.65824	21.6501
0.152148	4.89311	0.0475338	1.56757	0.179187	6.40441	0.331631	10.6999	0.497085	15.8716	0.597006	18.9389	0.209824	7.47141	0.334802	10.677	0.4605	14.736	0.658025	21.2019
0.153105	4.82574	0.0480359	1.57242	0.181126	6.33063	0.333427	10.5427	0.497044	15.5561	0.59826	18.6054	0.212251	7.39139	0.335035	10.4732	0.461931	14.4886	0.657821	20.7721
0.15396	4.75785	0.0487193	1.57891	0.18326	6.26668	0.335239	10.3922	0.497018	15.2534	0.599524	18.2851	0.214686	7.31507	0.335295	10.2782	0.463376	14.2512	0.657629	20.3594
0.15473	4.68997	0.0495846	1.58697	0.185577	6.21157	0.337064	10.2479	0.497008	14.9627	0.600799	17.9772	0.217127	7.24216	0.335585	10.0914	0.464835	14.0233	0.65745	19.963
0.155429	4.62254	0.0506323	1.5965	0.188061	6.16423	0.338903	10.1094	0.497013	14.6832	0.602085	17.6811	0.219571	7.17239	0.335905	9.91251	0.466307	13.8043	0.657284	19.5819
0.15607	4.5559	0.0518629	1.60737	0.190695	6.12362	0.340754	9.97636	0.497034	14.4145	0.60338	17.396	0.222018	7.10552	0.336258	9.74112	0.467792	13.5937	0.65713	19.2153
0.156663	4.49032	0.0532772	1.61946	0.19346	6.08875	0.342616	9.84853	0.497072	14.156	0.604685	17.1214	0.224465	7.04131	0.336646	9.57687	0.469288	13.3911	0.65699	18.8623
0.157218	4.42599	0.0546933	1.63114	0.196338	6.05874	0.344489	9.72556	0.497127	13.9071	0.605999	16.8568	0.22691	6.97955	0.337069	9.41944	0.470796	13.196	0.656862	18.5223
0.157742	4.36307	0.0561111	1.64245	0.199314	6.03282	0.346372	9.60718	0.497199	13.6673	0.607323	16.6015	0.229352	6.92003	0.33753	9.26851	0.472315	13.008	0.656749	18.1946
0.158242	4.30165	0.0575304	1.65338	0.202372	6.01033	0.348264	9.49313	0.49729	13.4362	0.608655	16.3552	0.231788	6.86258	0.338031	9.12382	0.473845	12.8267	0.656649	17.8786
0.158723	4.24181	0.058951	1.66396	0.205501	5.99073	0.350165	9.38317	0.4974	13.2134	0.609996	16.1173	0.234216	6.80701	0.338574	8.98509	0.475386	12.6518	0.656563	17.5737
0.15919	4.18357	0.0603726	1.67421	0.20869	5.97354	0.352073	9.27706	0.497529	12.9984	0.611346	15.8875	0.236635	6.75317	0.339161	8.85209	0.476936	12.4829	0.656491	17.2792
0.159646	4.12696	0.0617953	1.68412	0.211929	5.9584	0.353987	9.17461	0.497678	12.7909	0.612703	15.6653	0.239041	6.7009	0.339794	8.72461	0.478495	12.3198	0.656434	16.9948
0.160037	4.07896	0.0632187	1.69372	0.215212	5.94498	0.355907	9.07561	0.497848	12.5906	0.614068	15.4503	0.241433	6.65005	0.340476	8.60242	0.480063	12.1622	0.656392	16.72
0.160368	4.03901	0.0646428	1.70302	0.218531	5.93303	0.357832	8.97986	0.498038	12.3972	0.61544	15.2423	0.243808	6.60049	0.341209	8.48534	0.48164	12.0097	0.656364	16.4542
0.160639	4.00664	0.0660674	1.71202	0.221883	5.92233	0.35976	8.88721	0.498251	12.2102	0.616819	15.0409	0.246164	6.55209	0.341891	8.38734	0.483224	11.8621	0.656352	16.1971
0.160853	3.98148	0.0674924	1.72075	0.225261	5.9127	0.361692	8.79748	0.498485	12.0295	0.618205	14.8457	0.248499	6.50472	0.342505	8.30666	0.484816	11.7192	0.656356	15.9482
0.161011	3.96321	0.0689178	1.72921	0.228664	5.90399	0.363626	8.71053	0.498743	11.8548	0.619598	14.6566	0.250809	6.45827	0.343037	8.2419	0.486415	11.5808	0.656375	15.7073
0.161111	3.95163	0.0703434	1.7374	0.232086	5.89608	0.365561	8.6262	0.499025	11.6858	0.620997	14.4731	0.253092	6.41262	0.343472	8.19191	0.48802	11.4467	0.65641	15.474
0.161256	3.93512	0.0717691	1.74535	0.235527	5.88886	0.367497	8.54435	0.499331	11.5224	0.622402	14.2952	0.255345	6.36768	0.343802	8.15583	0.489632	11.3166	0.656462	15.2479
0.161413	3.91736	0.073195	1.75307	0.238983	5.88225	0.369432	8.46487	0.499662	11.3641	0.623813	14.1224	0.257566	6.32334	0.344017	8.13304	0.491248	11.1904	0.65653	15.0287
0.161627	3.89353	0.0746208	1.76055	0.242452	5.87617	0.371117	8.39743	0.500019	11.211	0.625229	13.9547	0.259753	6.27951	0.344331	8.10068	0.492871	11.0679	0.656616	14.8161
0.161898	3.8639	0.0760465	1.76781	0.245933	5.87055	0.372552	8.34123	0.500402	11.0627	0.62665	13.7917	0.261902	6.23611	0.344681	8.06603	0.494497	10.9489	0.656718	14.6099
0.162228	3.82882	0.0774721	1.77485	0.249424	5.86534	0.373737	8.29561	0.500813	10.9191	0.628076	13.6333	0.26401	6.19305	0.345169	8.0198	0.496128	10.8333	0.656838	14.4099
0.162616	3.78871	0.0788975	1.78169	0.252925	5.8605	0.374674	8.26007	0.501252	10.7801	0.629507	13.4793	0.266076	6.15027	0.345807	7.96276	0.497762	10.7209	0.656976	14.2156
0.163066	3.74402	0.0803227	1.78833	0.256433	5.85597	0.375362	8.23423	0.50172	10.6453	0.630942	13.3295	0.268096	6.10768	0.346612	7.89587	0.499399	10.6117	0.657132	14.0271
0.16352	3.70072	0.0817475	1.79478	0.259949	5.85173	0.375801	8.21782	0.502218	10.5148	0.632381	13.1838	0.27007	6.06525	0.347602	7.82025	0.501039	10.5053	0.657307	13.8439
0.163981	3.65877	0.0831721	1.80105	0.26347	5.84775	0.376433	8.1944	0.502746	10.3883	0.633823	13.0419	0.271993	6.0229	0.348802	7.73715	0.502681	10.4018	0.6575	13.6659
0.164448	3.61813	0.0845963	1.80714	0.266997	5.84399	0.37712	8.16918	0.503305	10.2657	0.635269	12.9037	0.273865	5.9806	0.350072	7.65787	0.504325	10.301	0.657713	13.493
0.164922	3.57876	0.0860201	1.81306	0.270528	5.84043	0.378052	8.13524	0.503897	10.1469	0.636718	12.7691	0.275685	5.93831	0.351411	7.58228	0.50597	10.2028	0.657946	13.3249
0.165403	3.54061	0.0874435	1.81882	0.274063	5.83705	0.379229	8.09291	0.504522	10.0317	0.63817	12.6379	0.27745	5.89601	0.352823	7.51024	0.507615	10.1071	0.658198	13.1614
0.165892	3.50365	0.0888665	1.82441	0.277601	5.83383	0.380649	8.04258	0.505181	9.92004	0.639624	12.5101	0.27916	5.85367	0.354306	7.44164	0.50926	10.0137	0.65847	13.0024
0.16639	3.46784	0.090289	1.82986	0.281143	5.83075	0.382311	7.9847	0.505874	9.8118	0.641081	12.3853	0.280813	5.81128	0.355863	7.37634	0.510905	9.92269	0.658764	12.8477
0.166896	3.43313	0.091711	1.83516	0.284686	5.8278	0.384209	7.91974	0.506603	9.70686	0.642539	12.2637	0.282411	5.76884	0.357492	7.31423	0.512549	9.83382	0.659078	12.6973
0.167411	3.39949	0.0931325	1.84031	0.288232	5.82496	0.386099	7.85627	0.507369	9.60513	0.643999	12.1449	0.283953	5.72635	0.359193	7.25516	0.514191	9.74705	0.659414	12.5508
0.167934	3.36689	0.0945535	1.84533	0.291778	5.82222	0.387979	7.79421	0.508171	9.5065	0.64546	12.029	0.285439	5.68382	0.360967	7.19901	0.515831	9.6623	0.659771	12.4082
0.168467	3.33528	0.0959739	1.85021	0.295326	5.81957	0.389848	7.7335	0.509012	9.41088	0.646922	11.9158	0.28687	5.64127	0.362811	7.14566	0.517469	9.57949	0.660151	12.2694
0.169009	3.30464	0.0973938	1.85497	0.298874	5.81699	0.391705	7.67406	0.509891	9.31818	0.648385	11.8052	0.288247	5.59872	0.364724	7.09497	0.519103	9.49854	0.660553	12.1343
0.169561	3.27492	0.0988132	1.8596	0.302423	5.81448	0.393549	7.61583	0.510809	9.2283	0.649848	11.6972	0.289572	5.5562	0.366706	7.04682	0.520734	9.41937	0.660979	12.0027
0.170122	3.2461	0.100232	1.86411	0.305971	5.81203	0.39538	7.55875	0.511768	9.14118	0.651312	11.5916	0.290846	5.51373	0.368754	7.00109	0.52236	9.34192	0.661428	11.8744
0.170692	3.21815	0.10165	1.86851	0.309518	5.80961	0.397196	7.50276	0.512768	9.05672	0.652774	11.4883	0.29207	5.47135	0.370866	6.95764	0.523982	9.26612	0.661901	11.7495
0.171272	3.19104	0.103068	1.8728	0.313064	5.80724	0.398998	7.44781	0.513809	8.97485	0.654237	11.3873	0.293248	5.42909	0.373039	6.91635	0.525599	9.1919	0.662398	11.6278
0.171862	3.16473	0.104485	1.87698	0.316609	5.80489	0.400783	7.39384	0.514891	8.89549	0.655698	11.2884	0.294381	5.38698	0.375273	6.87711	0.52721	9.11921	0.66292	11.5092
0.172461	3.1392	0.105901	1.88105	0.320152	5.80256	0.402551	7.34081	0.516017	8.81857	0.657158	11.1917	0.295471	5.34507	0.377563	6.83981	0.528814	9.04798	0.663467	11.3936
0.17307	3.11443	0.107317	1.88503	0.323692	5.80024	0.404302	7.28868	0.517032	8.75348	0.658616	11.097	0.296521	5.30338	0.379907	6.80432	0.530412	8.97816	0.664039	11.2809
0.173688	3.09038	0.108733	1.8889	0.327229	5.79792	0.406035	7.2374	0.517923	8.69937	0.660073	11.0043	0.297532	5.26195	0.382303	6.77054	0.532003	8.9097	0.664638	11.171
0.174316	3.06704	0.110147	1.89268	0.330763	5.79559	0.40775	7.18694	0.518679	8.65557	0.661527	10.9135	0.298508	5.22082	0.384749	6.73838	0.533585	8.84255	0.665262	11.0639
0.174953	3.04437	0.111562	1.89637	0.334293	5.79324	0.409445	7.13727	0.519287	8.62154	0.662978	10.8245	0.29945	5.18	0.387241	6.70773	0.534958	8.78506	0.665914	10.9595
0.1756	3.02237	0.112975	1.89998	0.337819	5.79086	0.411122	7.08835	0.519742	8.59684	0.664427	10.7373	0.300362	5.13953	0.389778	6.67851	0.536123	8.73678	0.666593	10.8576
0.176256	3.00099	0.114388	1.90349	0.341339	5.78845	0.412779	7.04015	0.520035	8.58117	0.665873	10.6517	0.301244	5.09944	0.392356	6.65061	0.537082	8.69735	0.667299	10.7583
0.176921	2.98023	0.115801	1.90693	0.344853	5.78599	0.414417	6.99266	0.520461	8.55886	0.667315	10.5679	0.302099	5.05975	0.394974	6.62397	0.537839	8.66649	0.668033	10.6614
0.177596	2.96006	0.117212	1.91028	0.34836	5.78346	0.416036	6.94584	0.52093	8.53486	0.668753	10.4857	0.302929	5.02047	0.397629	6.5985	0.538393	8.64396	0.668795	10.5669
0.17828	2.94046	0.118624	1.91356	0.35186	5.78087	0.417635	6.89969	0.521576	8.50265	0.670187	10.405	0.303737	4.98164	0.400318	6.57414	0.538748	8.62962	0.669586	10.4748
0.178973	2.92141	0.120034	1.91676	0.355351	5.77819	0.419216	6.8542	0.522408	8.46261	0.671617	10.3258	0.304523	4.94326	0.40304	6.55081	0.539256	8.60911	0.670406	10.3848
0.179675	2.9029	0.121445	1.91989	0.358833	5.7754	0.420779	6.80934	0.523436	8.41522	0.673042	10.248	0.30529	4.90535	0.405793	6.52844	0.539807	8.58695	0.671255	10.2971
0.180386	2.88491	0.122854	1.92295	0.362303	5.7725	0.422325	6.76512	0.524672	8.36102	0.674462	10.1717	0.306039	4.86792	0.408575	6.50698	0.540555	8.55703	0.672134	10.2115
0.181105	2.86742	0.124263	1.92593	0.365761	5.76945	0.423856	6.72154	0.526132	8.30062	0.675876	10.0967	0.306773	4.83098	0.411384	6.48638	0.541498	8.51955	0.673043	10.128
0.181834	2.85041	0.125672	1.92886	0.369205	5.76625	0.425371	6.67859	0.527636	8.24211	0.677285	10.0231	0.307491	4.79455	0.414217	6.46657	0.542632	8.47476	0.673981	10.0465
0.182571	2.83387	0.12708	1.93172	0.372633	5.76286	0.426874	6.63629	0.529183	8.1854	0.678688	9.9507	0.308196	4.75862	0.417074	6.44751	0.543956	8.42293	0.67495	9.967
0.183316	2.81778	0.128487	1.93451	0.376042	5.75926	0.428366	6.59464	0.530772	8.13045	0.680085	9.87957	0.308889	4.7232	0.419953	6.42916	0.545464	8.36437	0.67595	9.8894
0.184071	2.80213	0.129894	1.93725	0.379432	5.75542	0.42985	6.55367	0.532404	8.07719	0.681476	9.80964	0.309572	4.68829	0.422852	6.41147	0.546961	8.30676	0.67698	9.81366
0.184833	2.7869	0.1313	1.93992	0.382797	5.75129	0.431328	6.51341	0.534078	8.02558	0.68286	9.74088	0.310245	4.6539	0.425771	6.39439	0.548447	8.25008	0.678041	9.73975
0.185604	2.77208	0.132706	1.94254	0.386136	5.74685	0.432804	6.47387	0.535793	7.97556	0.684237	9.67325	0.310909	4.62003	0.428706	6.3779	0.549921	8.19429	0.679133	9.6676
0.186382	2.75767	0.134111	1.9451	0.389444	5.74204	0.434282	6.43509	0.537549	7.92706	0.685606	9.60672	0.311565	4.58668	0.431658	6.36196	0.551382	8.13937	0.680256	9.59719
0.187169	2.74363	0.135516	1.94761	0.392717	5.7368	0.435766	6.39713	0.539345	7.88005	0.686969	9.54126	0.312214	4.55384	0.434625	6.34652	0.552832	8.08528	0.68141	9.52845
0.187964	2.72997	0.13692	1.95007	0.39595	5.73108	0.437262	6.36004	0.54118	7.83447	0.688324	9.47683	0.312858	4.52151	0.437605	6.33157	0.554269	8.03201	0.682595	9.46135
0.188766	2.71667	0.138324	1.95248	0.399137	5.72479	0.438775	6.32387	0.543053	7.79026	0.689672	9.41342	0.313496	4.4897	0.440599	6.31707	0.555694	7.97952	0.683812	9.39584
0.189577	2.70373	0.139728	1.95483	0.402271	5.71788	0.440312	6.28871	0.544964	7.74738	0.691011	9.35098	0.31413	4.45839	0.443603	6.303	0.557107	7.92781	0.685059	9.33188
0.190394	2.69112	0.14113	1.95714	0.405344	5.71023	0.441882	6.25463	0.546911	7.70578	0.692343	9.28949	0.31476	4.42759	0.446618	6.28932	0.558507	7.87684	0.686337	9.26944
0.19122	2.67883	0.142533	1.95941	0.408349	5.70175	0.443492	6.22172	0.548894	7.66541	0.693666	9.22893	0.315387	4.39729	0.449643	6.27601	0.559894	7.8266	0.687646	9.20846
0.192052	2.66687	0.143935	1.96162	0.411275	5.69235	0.445153	6.1901	0.550912	7.62623	0.694813	9.1769	0.316011	4.36748	0.452675	6.26305	0.56127	7.77707	0.688812	9.1565
0.192892	2.65522	0.145336	1.96379	0.414113	5.68189	0.446874	6.15986	0.552963	7.58819	0.695785	9.13307	0.316633	4.33816	0.455715	6.25042	0.562633	7.72824	0.689825	9.11304
0.19374	2.64386	0.146737	1.96592	0.416853	5.67028	0.448667	6.13112	0.555047	7.55125	0.696586	9.09719	0.317253	4.30932	0.458761	6.23808	0.563985	7.68008	0.690674	9.07767
0.194594	2.6328	0.148138	1.96801	0.419486	5.65742	0.450542	6.10398	0.557163	7.51537	0.697217	9.06904	0.317873	4.28095	0.461812	6.22603	0.565325	7.6326	0.691354	9.05007
0.195455	2.62201	0.149538	1.97006	0.422001	5.64321	0.452509	6.07855	0.559309	7.4805	0.697679	9.04847	0.318491	4.25306	0.464868	6.21424	0.566654	7.58577	0.691859	9.02997
0.196323	2.6115	0.150937	1.97207	0.424392	5.62759	0.454578	6.0549	0.561484	7.44661	0.697975	9.03536	0.31911	4.22563	0.467927	6.20269	0.567973	7.53958	0.692184	9.0172
0.197198	2.60125	0.152336	1.97404	0.426654	5.61053	0.456755	6.03307	0.563688	7.41365	0.698399	9.0166	0.319728	4.19865	0.470988	6.19136	0.569281	7.49403	0.692653	8.99896
0.19808	2.59126	0.153735	1.97597	0.428785	5.59204	0.459045	6.01309	0.56592	7.3816	0.698859	8.9963	0.320347	4.17213	0.474051	6.18024	0.570579	7.4491	0.693168	8.97929
0.198968	2.58152	0.155134	1.97786	0.430784	5.57216	0.461449	5.99492	0.568177	7.35041	0.699482	8.96886	0.320966	4.14605	0.477113	6.1693	0.571869	7.4048	0.693873	8.9528
0.199862	2.57203	0.156531	1.97972	0.432657	5.55097	0.463967	5.97851	0.57046	7.32005	0.700268	8.93443	0.321587	4.1204	0.480175	6.15853	0.57315	7.36111	0.694775	8.91973
0.200763	2.56276	0.157929	1.98155	0.434409	5.52859	0.466594	5.96376	0.572767	7.29049	0.701215	8.8932	0.322209	4.09518	0.483235	6.1479	0.574424	7.31803	0.695881	8.88036
0.201671	2.55372	0.159326	1.98334	0.436048	5.50513	0.469324	5.95055	0.575098	7.26169	0.702319	8.84537	0.322832	4.07038	0.486292	6.13741	0.575692	7.27556	0.697199	8.83504
0.202584	2.54491	0.160723	1.98509	0.437582	5.48073	0.47215	5.93875	0.57745	7.23363	0.703578	8.7912	0.323457	4.046	0.489345	6.12703	0.576954	7.23369	0.698738	8.78414
0.203504	2.53631	0.162119	1.98682	0.439021	5.45555	0.475062	5.92822	0.579824	7.20627	0.704829	8.73778	0.324084	4.02202	0.492392	6.11674	0.578212	7.19243	0.700305	8.7344
0.204429	2.52792	0.163515	1.98851	0.440375	5.4297	0.478051	5.91882	0.582217	7.17959	0.706071	8.68509	0.324713	3.99845	0.495432	6.10653	0.579467	7.15177	0.701901	8.68578
0.20536	2.51973	0.16491	1.99018	0.441652	5.40331	0.481111	5.91041	0.58463	7.15355	0.707306	8.63312	0.325345	3.97526	0.498464	6.09638	0.58072	7.11172	0.703524	8.63826
0.206297	2.51173	0.166306	1.99181	0.442862	5.3765	0.484231	5.90288	0.587061	7.12814	0.708533	8.58185	0.325979	3.95247	0.501486	6.08626	0.581972	7.07228	0.705174	8.5918
0.20724	2.50393	0.1677	1.99342	0.44401	5.34937	0.487405	5.89612	0.58951	7.10331	0.709753	8.53127	0.326615	3.93005	0.504497	6.07616	0.583226	7.03346	0.70685	8.54637
0.208189	2.49632	0.169095	1.99499	0.445105	5.32201	0.490626	5.89002	0.591974	7.07906	0.710965	8.48136	0.327255	3.908	0.507495	6.06607	0.584483	6.99527	0.708553	8.50194
0.209143	2.48888	0.170489	1.99654	0.446152	5.2945	0.493889	5.88451	0.594454	7.05535	0.712169	8.43211	0.327897	3.88632	0.510478	6.05594	0.585744	6.9577	0.710281	8.45848
0.210102	2.48162	0.171882	1.99806	0.447157	5.26689	0.497188	5.87951	0.596948	7.03217	0.713367	8.38352	0.328543	3.865	0.513445	6.04578	0.587013	6.92077	0.712034	8.41597
0.211067	2.47453	0.173276	1.99956	0.448124	5.23925	0.500518	5.87495	0.599455	7.00948	0.714559	8.33557	0.329191	3.84403	0.516393	6.03554	0.58829	6.8845	0.713811	8.37438
0.212037	2.4676	0.174669	2.00103	0.449058	5.21163	0.503876	5.87078	0.601975	6.98727	0.715745	8.28825	0.329843	3.82341	0.51932	6.02521	0.589579	6.84889	0.715612	8.33367
0.213012	2.46084	0.176061	2.00248	0.449962	5.18407	0.507258	5.86695	0.604506	6.96552	0.716924	8.24155	0.330499	3.80312	0.522224	6.01477	0.590881	6.81395	0.717436	8.29383
0.213992	2.45423	0.177454	2.0039	0.450839	5.1566	0.510661	5.86342	0.607048	6.9442	0.718099	8.19546	0.331158	3.78317	0.525102	6.00419	0.5922	6.77971	0.719283	8.25482
0.214978	2.44778	0.178846	2.00529	0.451692	5.12925	0.514083	5.86016	0.609599	6.9233	0.719269	8.14999	0.33182	3.76355	0.527952	5.99343	0.593538	6.74618	0.721151	8.21662
0.215968	2.44147	0.180237	2.00667	0.452523	5.10205	0.517522	5.85713	0.612159	6.90279	0.720434	8.10511	0.332486	3.74424	0.530771	5.98248	0.594898	6.71338		
0.216963	2.43531	0.181628	2.00802	0.453335	5.07502	0.520975	5.85431	0.614727	6.88266			0.333156	3.72525	0.533556	5.9713	0.596283	6.68133		
0.217963	2.42929	0.183019	2.00934	0.45413	5.04817	0.524441	5.85167	0.617302	6.86289			0.333829	3.70657	0.536303	5.95987	0.597697	6.65005		
0.218967	2.4234	0.18441	2.01065	0.454909	5.02153	0.527919	5.8492	0.619882	6.84346			0.334506	3.68819	0.539011	5.94814	0.599143	6.61956		
0.219977	2.41765	0.1858	2.01194	0.455673	4.99509	0.531406	5.84687	0.622468	6.82435			0.335188	3.67011	0.541674	5.9361	0.600625	6.58988		
0.22099	2.41202	0.18719	2.0132	0.456425	4.96889	0.534903	5.84467	0.625057	6.80555			0.335873	3.65232	0.54429	5.92371	0.602147	6.56105		
0.222009	2.40652	0.18858	2.01444	0.457166	4.94291	0.538408	5.84258	0.627649	6.78704			0.336562	3.63481	0.546855	5.91094	0.603711	6.53308		
0.223031	2.40115	0.189969	2.01567	0.457895	4.91718	0.541919	5.84061	0.630244	6.7688			0.337255	3.61759	0.549366	5.89776	0.605323	6.50599		
0.224058	2.39589	0.191358	2.01687	0.458616	4.89169	0.545437	5.83872	0.632839	6.75082			0.337952	3.60064	0.551819	5.88415	0.606985	6.47981		
0.225089	2.39075	0.192747	2.01806	0.459327	4.86645	0.54896	5.83692	0.635434	6.73308			0.338653	3.58396	0.554211	5.87007	0.608701	6.45455		
0.226125	2.38572	0.194136	2.01922	0.460031	4.84147	0.552488	5.83519	0.638028	6.71556			0.339358	3.56754	0.556539	5.85551	0.610475	6.43023		
0.227164	2.3808	0.195524	2.02037	0.460728	4.81674	0.55602	5.83353	0.640619	6.69824			0.340067	3.55138	0.558801	5.84044	0.612309	6.40687		
0.228208	2.37599	0.196912	2.0215	0.461418	4.79227	0.559556	5.83193	0.643207	6.68112			0.340781	3.53548	0.560994	5.82485	0.614206	6.38447		
0.229256	2.37128	0.198299	2.02261	0.462103	4.76806	0.563095	5.83038	0.645791	6.66418			0.341498	3.51983	0.563116	5.80875	0.616168	6.36303		
0.230307	2.36668	0.199687	2.02371	0.462782	4.74412	0.566637	5.82888	0.648369	6.64739			0.34222	3.50443	0.565167	5.79211	0.618196	6.34255		
0.231363	2.36217	0.201074	2.02479	0.463458	4.72043	0.57018	5.82742	0.650939	6.63076			0.342946	3.48926	0.567145	5.77495	0.620293	6.32303		
0.232422	2.35776	0.20246	2.02585	0.464128	4.69701	0.573726	5.826	0.653502	6.61425			0.343676	3.47433	0.56905	5.75727	0.622457	6.30445		
0.233485	2.35345	0.203847	2.0269	0.464796	4.67384	0.577273	5.82461	0.656055	6.59785			0.34441	3.45963	0.570882	5.73909	0.624689	6.28679		
0.234551	2.34922	0.205233	2.02793	0.465459	4.65094	0.58082	5.82324	0.658597	6.58155			0.345148	3.44516	0.572644	5.72043	0.626989	6.27002		
0.235622	2.34509	0.206619	2.02894	0.466121	4.6283	0.584369	5.8219	0.661127	6.56534			0.345891	3.43091	0.574336	5.70131	0.629354	6.25412		
0.236696	2.34104	0.208005	2.02994	0.466779	4.60591	0.587917	5.82058	0.663643	6.54919			0.346638	3.41689	0.575961	5.68177	0.631783	6.23905		
0.237773	2.33708	0.20939	2.03093	0.467435	4.58378	0.595014	5.81798	0.666143	6.5331			0.347388	3.40307	0.57752	5.66183	0.634275	6.22477		
0.238854	2.3332	0.210775	2.0319	0.46809	4.56191	0.59856	5.81669	0.668628	6.51704			0.348144	3.38947	0.579017	5.64152	0.636826	6.21125		
0.239938	2.3294	0.21216	2.03286	0.468743	4.54029	0.602106	5.8154	0.671094	6.501			0.348903	3.37607	0.580455	5.62089	0.639433	6.19845		
0.241026	2.32568	0.213545	2.0338	0.469395	4.51891	0.60565	5.81411	0.673541	6.48497			0.349666	3.36288	0.581836	5.59997	0.642094	6.18632		
0.242117	2.32203	0.214929	2.03473	0.470045	4.49779	0.609191	5.81282	0.675967	6.46893			0.350434	3.34989	0.583164	5.57879	0.644806	6.17482		
0.243211	2.31846	0.216314	2.03564	0.470695	4.47692	0.61273	5.81151	0.67837	6.45288			0.351206	3.33709	0.584442	5.55739	0.647566	6.16392		
0.244308	2.31497	0.217697	2.03655	0.471344	4.45628	0.616266	5.8102	0.680749	6.43678			0.351982	3.32448	0.585673	5.53581	0.65037	6.15357		
0.245409	2.31154	0.219081	2.03743	0.471993	4.43589	0.619798	5.80886	0.683103	6.42064			0.352762	3.31207	0.58686	5.51407	0.653216	6.14373		
0.246512	2.30819	0.220465	2.03831	0.472641	4.41574	0.623326	5.8075	0.68543	6.40444			0.353546	3.29983	0.588007	5.4922	0.656101	6.13437		
0.247619	2.3049	0.221848	2.03918	0.47329	4.39583	0.62685	5.80612	0.687729	6.38817			0.354334	3.28778	0.589115	5.47024	0.659022	6.12546		
0.248729	2.30168	0.223231	2.04003	0.473939	4.37615	0.630368	5.8047	0.689998	6.37182			0.355126	3.27591	0.590189	5.44821	0.661977	6.11696		
0.249841	2.29852	0.224613	2.04087	0.474588	4.3567	0.633879	5.80324	0.692238	6.35538			0.355923	3.26421	0.591229	5.42614	0.664962	6.10885		
0.250957	2.29543	0.225996	2.0417	0.475237	4.33748	0.637384	5.80173	0.694446	6.33885			0.356723	3.25269	0.59224	5.40404	0.667976	6.10109		
0.252075	2.29239	0.227378	2.04251	0.475888	4.31848	0.640881	5.80017	0.696622	6.32222			0.357528	3.24133	0.593222	5.38195	0.671017	6.09366		
0.253196	2.28942	0.22876	2.04332	0.476538	4.29971	0.644369	5.79855	0.698767	6.30549			0.358337	3.23014	0.594178	5.35987	0.674081	6.08653		
0.25432	2.28651	0.230142	2.04412	0.47719	4.28116	0.647847	5.79685	0.700878	6.28865			0.359149	3.21912	0.59511	5.33782	0.677169	6.07969		
0.255447	2.28365	0.231524	2.0449	0.477843	4.26283	0.651314	5.79508	0.702958	6.27172			0.359966	3.20825	0.59602	5.31583	0.680277	6.07311		
0.256576	2.28086	0.232905	2.04567	0.478497	4.24471	0.654768	5.79321	0.705005	6.25469			0.360786	3.19754	0.59691	5.2939	0.683403	6.06677		
0.257708	2.27811	0.234286	2.04644	0.479152	4.22681	0.658208	5.79124	0.707022	6.23758			0.361611	3.18698	0.59778	5.27205	0.686548	6.06066		
0.258843	2.27542	0.235667	2.04719	0.479808	4.20912	0.661631	5.78915	0.709009	6.2204			0.362439	3.17658	0.598633	5.25029	0.689708	6.05475		
0.25998	2.27278	0.237048	2.04793	0.480466	4.19163	0.665036	5.78692	0.710967	6.20317			0.363272	3.16632	0.59947	5.22862	0.692883	6.04904		
0.26112	2.27019	0.238428	2.04866	0.481125	4.17435	0.668421	5.78453	0.7129	6.1859			0.364108	3.15621	0.600291	5.20706	0.696072	6.04351		
0.262262	2.26765	0.239808	2.04939	0.481786	4.15727	0.671781	5.78196	0.71481	6.16862			0.364948	3.14625	0.601099	5.18562	0.699273	6.03814		
0.263407	2.26516	0.241188	2.0501	0.482448	4.14039	0.675114	5.7792	0.716701	6.15136			0.365793	3.13642	0.601894	5.1643	0.702485	6.03293		
0.264554	2.26272	0.242568	2.0508	0.483112	4.12371	0.678417	5.77619	0.718576	6.13416			0.36664	3.12674	0.602677	5.14311	0.705707	6.02786		
0.265703	2.26033	0.243948	2.0515	0.483778	4.10722	0.681684	5.77292	0.72044	6.11705			0.367492	3.11719	0.603449	5.12205	0.708938	6.02293		
0.266855	2.25798	0.245327	2.05218	0.484446	4.09092	0.684911	5.76935					0.368348	3.10777	0.60421	5.10113	0.712178	6.01811		
0.268009	2.25567	0.246707	2.05286	0.485115	4.07481	0.688092	5.76543					0.369207	3.09849	0.604962	5.08035	0.715425	6.01341		
0.269166	2.25341	0.248086	2.05353	0.485787	4.05889	0.691221	5.76112					0.37007	3.08933	0.605706	5.05972	0.718679	6.00882		
0.270325	2.25119	0.249464	2.05419	0.486461	4.04315	0.69429	5.75636					0.370937	3.08031	0.606441	5.03924	0.721938	6.00432		
0.271485	2.24901	0.250843	2.05484	0.487136	4.0276	0.697292	5.75109					0.371807	3.0714	0.607169	5.01891				
0.272648	2.24687	0.252221	2.05548	0.487814	4.01222	0.700217	5.74524					0.372682	3.06263	0.60789	4.99874				
0.273814	2.24478	0.2536	2.05611	0.488494	3.99702	0.703058	5.73877					0.373559	3.05397	0.608605	4.97872				
0.274981	2.24272	0.254978	2.05674	0.489176	3.98199	0.705804	5.7316					0.374441	3.04543	0.609313	4.95887				
0.27615	2.2407	0.256355	2.05736	0.48986	3.96714	0.708449	5.72368					0.375326	3.037	0.610017	4.93917				
0.277322	2.23871	0.257733	2.05797	0.490547	3.95246	0.710983	5.71495					0.376215	3.02869	0.610715	4.91963				
0.278495	2.23676	0.25911	2.05857	0.491236	3.93794	0.7134	5.70538					0.377107	3.0205	0.611409	4.90025				
0.27967	2.23485	0.260488	2.05916	0.491927	3.92359	0.715698	5.69495					0.378003	3.01241	0.612098	4.88104				
0.280848	2.23298	0.261865	2.05975	0.492621	3.9094	0.717874	5.68366					0.378902	3.00444	0.612784	4.86198				
0.282027	2.23113	0.263241	2.06033	0.493317	3.89538	0.719929	5.67153					0.379805	2.99657	0.613466	4.84309				
0.283208	2.22932	0.264618	2.06091	0.494016	3.88151	0.721866	5.6586					0.380711	2.98881	0.614145	4.82436				
0.284391	2.22755	0.265995	2.06147	0.494717	3.8678							0.381621	2.98115	0.614821	4.8058				
0.285576	2.2258	0.267371	2.06203	0.49542	3.85424							0.382534	2.97359	0.615494	4.78739				
0.286763	2.22409	0.268747	2.06258	0.496126	3.84083							0.383451	2.96613	0.616165	4.76915				
0.287951	2.2224	0.270123	2.06313	0.496835	3.82758							0.384371	2.95877	0.616833	4.75107				
0.289142	2.22075	0.271499	2.06367	0.497546	3.81447							0.385294	2.95151	0.6175	4.73314				
0.290334	2.21913	0.272874	2.0642	0.498259	3.80151							0.386221	2.94434	0.618165	4.71538				
0.291528	2.21753	0.274249	2.06472	0.498975	3.78869							0.387151	2.93727	0.618828	4.69778				
0.292723	2.21596	0.275625	2.06524	0.499694	3.77601							0.388084	2.93029	0.61949	4.68033				
0.29392	2.21442	0.277	2.06576	0.500415	3.76348							0.38902	2.9234	0.620151	4.66304				
0.295119	2.21291	0.278374	2.06626	0.501139	3.75108							0.38996	2.9166	0.620811	4.64591				
0.296319	2.21142	0.279749	2.06677	0.501866	3.73882							0.390903	2.90989	0.62147	4.62893				
0.297521	2.20996	0.281124	2.06726	0.502595	3.72669							0.391849	2.90326	0.622128	4.61211				
0.298725	2.20853	0.282498	2.06775	0.503327	3.7147							0.392799	2.89672	0.622786	4.59544				
0.29993	2.20712	0.283872	2.06823	0.504062	3.70284							0.393751	2.89027	0.623443	4.57892				
0.301137	2.20573	0.285246	2.06871	0.504799	3.6911							0.394707	2.88389	0.6241	4.56255				
0.302345	2.20437	0.28662	2.06918	0.505539	3.6795							0.395666	2.8776	0.624757	4.54633				
0.303555	2.20303	0.287993	2.06965	0.506281	3.66802							0.396627	2.87139	0.625414	4.53026				
0.304766	2.20172	0.289367	2.07011	0.507026	3.65666							0.397592	2.86526	0.62607	4.51434				
0.305978	2.20042	0.29074	2.07057	0.507774	3.64543							0.39856	2.8592	0.626727	4.49856				
0.307192	2.19915	0.292113	2.07102	0.508525	3.63431							0.399531	2.85322	0.627384	4.48292				
0.308408	2.1979	0.293486	2.07146	0.509278	3.62332							0.400505	2.84731	0.628042	4.46743				
0.309625	2.19667	0.294858	2.0719	0.510034	3.61244							0.401482	2.84148	0.6287	4.45208				
0.310843	2.19546	0.296231	2.07234	0.510793	3.60168							0.402462	2.83572	0.629358	4.43687				
0.312062	2.19427	0.297603	2.07277	0.511554	3.59104							0.403444	2.83004	0.630017	4.4218				
0.313283	2.19311	0.298976	2.07319	0.512318	3.5805							0.40443	2.82442	0.630676	4.40687				
0.314506	2.19196	0.300348	2.07361	0.513085	3.57008							0.405419	2.81887	0.631337	4.39207				
0.315729	2.19083	0.30172	2.07403	0.513855	3.55977							0.40641	2.81339	0.631998	4.37741				
0.316954	2.18972	0.303091	2.07444	0.514627	3.54957							0.407404	2.80798	0.63266	4.36289				
0.31818	2.18862	0.304463	2.07484	0.515401	3.53947							0.408401	2.80264	0.633323	4.34849				
0.319407	2.18755	0.305834	2.07524	0.516179	3.52948							0.409401	2.79736	0.633987	4.33423				
0.320636	2.18649	0.307206	2.07564	0.516959	3.5196							0.410404	2.79214	0.634652	4.3201				
0.321866	2.18545	0.308577	2.07603	0.517742	3.50981							0.411409	2.78699	0.635318	4.30609				
0.323097	2.18443	0.309948	2.07642	0.518528	3.50013							0.412417	2.7819	0.635985	4.29221				
0.324329	2.18343	0.311318	2.07681	0.519316	3.49055							0.413428	2.77687	0.636653	4.27846				
0.325562	2.18244	0.312689	2.07719	0.520107	3.48107							0.414441	2.7719	0.637323	4.26483				
0.326797	2.18146	0.314059	2.07756	0.5209	3.47168							0.415458	2.767	0.637993	4.25133				
0.328032	2.18051	0.31543	2.07793	0.521697	3.4624							0.416476	2.76215	0.638665	4.23795				
0.329269	2.17956	0.3168	2.0783	0.522496	3.4532							0.417498	2.75736	0.639339	4.22469				
0.330507	2.17864	0.31817	2.07866	0.523297	3.44411							0.418522	2.75262	0.640014	4.21155				
0.331746	2.17772	0.319539	2.07902	0.524101	3.4351							0.419548	2.74794	0.64069	4.19852				
0.332986	2.17683	0.320909	2.07937	0.524908	3.42619							0.420578	2.74332	0.641368	4.18562				
0.334227	2.17594	0.322279	2.07973	0.525718	3.41736							0.421609	2.73875	0.642047	4.17283				
0.335469	2.17507	0.323648	2.08007	0.52653	3.40863							0.422644	2.73424	0.642728	4.16015				
0.336712	2.17422	0.325017	2.08042	0.527344	3.39998							0.423681	2.72978	0.643411	4.14759				
0.337956	2.17338	0.326386	2.08075	0.528162	3.39142							0.42472	2.72537	0.644094	4.13514				
0.339202	2.17255	0.327755	2.08109	0.528982	3.38295							0.425762	2.72101	0.64478	4.1228				
0.340448	2.17173	0.329124	2.08142	0.529804	3.37456							0.426806	2.7167	0.645467	4.11057				
0.341695	2.17093	0.330492	2.08175	0.530629	3.36625							0.427853	2.71244	0.646156	4.09845				
0.342943	2.17014	0.331861	2.08208	0.531457	3.35803							0.428902	2.70824	0.646847	4.08644				
0.344192	2.16936	0.333229	2.0824	0.532287	3.34989							0.429953	2.70408	0.647539	4.07453				
0.345442	2.1686	0.334597	2.08272	0.53312	3.34183							0.431007	2.69996	0.648233	4.06273				
0.346693	2.16784	0.335965	2.08303	0.533956	3.33385							0.432063	2.6959	0.648929	4.05103				
0.347945	2.1671	0.337333	2.08334	0.534794	3.32595							0.433122	2.69188	0.649626	4.03944				
0.349198	2.16637	0.3387	2.08365	0.535634	3.31813							0.434183	2.68791	0.650326	4.02795				
0.350452	2.16565	0.340068	2.08395	0.536477	3.31038							0.435246	2.68398	0.651027	4.01656				
0.351707	2.16494	0.341435	2.08425	0.537323	3.30271							0.436311	2.6801	0.65173	4.00527				
0.352962	2.16425	0.342802	2.08455	0.538171	3.29511							0.437379	2.67626	0.652434	3.99407				
0.354219	2.16356	0.34417	2.08485	0.539022	3.28759							0.438449	2.67247	0.653141	3.98298				
0.355476	2.16288	0.345536	2.08514	0.539875	3.28014							0.439521	2.66872	0.653849	3.97198				
0.356734	2.16222	0.346903	2.08543	0.54073	3.27276							0.440596	2.66501	0.65456	3.96107				
0.357993	2.16156	0.34827	2.08571	0.541589	3.26545							0.441672	2.66134	0.655272	3.95027				
0.359253	2.16092	0.349636	2.086	0.542449	3.25822							0.442751	2.65771	0.655986	3.93955				
0.360513	2.16028	0.351003	2.08628	0.543312	3.25105							0.443832	2.65412	0.656702	3.92893				
0.361775	2.15966	0.352369	2.08655	0.544178	3.24395							0.444916	2.65058	0.65742	3.9184				
0.363037	2.15904	0.353735	2.08683	0.545046	3.23692							0.446001	2.64707	0.65814	3.90796				
0.3643	2.15843	0.355101	2.0871	0.545916	3.22996							0.447088	2.6436	0.658862	3.8976				
0.365564	2.15783	0.356467	2.08736	0.546789	3.22307							0.448178	2.64017	0.659586	3.88734				
0.366828	2.15724	0.357832	2.08763	0.547664	3.21623							0.44927	2.63677	0.660311	3.87717				
0.368093	2.15666	0.359198	2.08789	0.548542	3.20947							0.450363	2.63342	0.661039	3.86708				
0.369359	2.15609	0.360563	2.08815	0.549422	3.20276							0.451459	2.6301	0.661768	3.85708				
0.370626	2.15553	0.361928	2.08841	0.550304	3.19612							0.452557	2.62682	0.6625	3.84716				
0.371894	2.15497	0.363293	2.08866	0.551189	3.18955							0.453657	2.62357	0.663234	3.83732				
0.373162	2.15443	0.364658	2.08891	0.552076	3.18303							0.454759	2.62036	0.663969	3.82757				
0.374431	2.15389	0.366023	2.08916	0.552965	3.17658							0.455862	2.61718	0.664707	3.81791				
0.3757	2.15336	0.367387	2.08941	0.553857	3.17018							0.456968	2.61404	0.665446	3.80832				
0.376971	2.15283	0.368752	2.08965	0.554751	3.16385							0.458076	2.61093	0.666188	3.79881				
0.378242	2.15232	0.370116	2.08989	0.555648	3.15757							0.459186	2.60785	0.666931	3.78939				
0.379513	2.15181	0.37148	2.09013	0.556547	3.15135							0.460298	2.60481	0.667677	3.78004				
0.380786	2.15131	0.372845	2.09037	0.557448	3.14519							0.461411	2.6018	0.668424	3.77077				
0.382059	2.15082	0.374208	2.0906	0.558351	3.13909							0.462527	2.59882	0.669174	3.76158				
0.383333	2.15033	0.375572	2.09084	0.559257	3.13304							0.463644	2.59588	0.669925	3.75246				
0.384607	2.14985	0.376936	2.09106	0.560165	3.12704							0.464763	2.59296	0.670679	3.74342				
0.385882	2.14938	0.378299	2.09129	0.561075	3.12111							0.465885	2.59008	0.671434	3.73445				
0.387158	2.14892	0.379663	2.09152	0.561987	3.11522							0.467008	2.58722	0.672192	3.72556				
0.388434	2.14846	0.381026	2.09174	0.562902	3.10939							0.468132	2.5844	0.672951	3.71674				
0.389711	2.14801	0.382389	2.09196	0.563819	3.10361							0.469259	2.58161	0.673713	3.708				
0.390988	2.14756	0.383752	2.09217	0.564738	3.09789							0.470388	2.57884	0.674477	3.69932				
0.392266	2.14712	0.385115	2.09239	0.56566	3.09221							0.471518	2.57611	0.675242	3.69072				
0.393545	2.14669	0.386478	2.0926	0.566583	3.08659							0.47265	2.5734	0.67601	3.68219				
0.394824	2.14626	0.38784	2.09281	0.567509	3.08102							0.473784	2.57072	0.67678	3.67372				
0.396104	2.14584	0.389203	2.09302	0.568437	3.0755							0.474919	2.56807	0.677551	3.66533				
0.397385	2.14543	0.390565	2.09323	0.569367	3.07002							0.476057	2.56544	0.678325	3.657				
0.398666	2.14502	0.391927	2.09343	0.570299	3.0646							0.477196	2.56285	0.679101	3.64874				
0.399947	2.14462	0.393289	2.09364	0.571234	3.05923							0.478336	2.56028	0.679878	3.64055				
0.401229	2.14422	0.394651	2.09384	0.57217	3.0539							0.479479	2.55773	0.680658	3.63242				
0.402512	2.14383	0.396013	2.09404	0.573109	3.04862							0.480623	2.55522	0.68144	3.62436				
0.403795	2.14345	0.397375	2.09423	0.57405	3.04338							0.481769	2.55273	0.682223	3.61637				
0.405079	2.14307	0.398736	2.09443	0.574993	3.03819							0.482916	2.55026	0.683009	3.60843				
0.406363	2.14269	0.400097	2.09462	0.575938	3.03305							0.484066	2.54782	0.683797	3.60056				
0.407648	2.14232	0.401459	2.09481	0.576885	3.02795							0.485216	2.5454	0.684587	3.59276				
0.408933	2.14196	0.40282	2.095	0.577834	3.0229							0.486369	2.54301	0.685378	3.58501				
0.410219	2.1416	0.404181	2.09518	0.578785	3.01789							0.487523	2.54064	0.686172	3.57733				
0.411506	2.14124	0.405542	2.09537	0.579739	3.01293							0.488679	2.5383	0.686968	3.56971				
0.412793	2.14089	0.406902	2.09555	0.580694	3.00801							0.489836	2.53598	0.687766	3.56215				
0.41408	2.14055	0.408263	2.09573	0.581652	3.00313							0.490995	2.53368	0.688565	3.55465				
0.415368	2.14021	0.409624	2.09591	0.582611	2.99829							0.492155	2.53141	0.689367	3.5472				
0.416656	2.13987	0.410984	2.09609	0.583572	2.99349							0.493317	2.52916	0.690171	3.53982				
0.417945	2.13954	0.412344	2.09627	0.584536	2.98874							0.494481	2.52693	0.690976	3.53249				
0.419234	2.13922	0.413704	2.09644	0.585501	2.98403							0.495646	2.52472	0.691784	3.52522				
0.420524	2.1389	0.415064	2.09661	0.586469	2.97935							0.496812	2.52254	0.692594	3.51801				
0.421814	2.13858	0.416424	2.09678	0.587438	2.97472							0.49798	2.52038	0.693405	3.51085				
0.423105	2.13827	0.417784	2.09695	0.58841	2.97013							0.49915	2.51824	0.694219	3.50375				
0.424396	2.13796	0.419143	2.09712	0.589383	2.96557							0.500321	2.51612	0.695034	3.49671				
0.425688	2.13766	0.420503	2.09728	0.590358	2.96106							0.501493	2.51402	0.695852	3.48972				
0.42698	2.13736	0.421862	2.09745	0.591336	2.95658							0.502667	2.51194	0.696671	3.48278				
0.428272	2.13706	0.423221	2.09761	0.592315	2.95214							0.503843	2.50988	0.697492	3.4759				
0.429565	2.13677	0.424581	2.09777	0.593296	2.94774							0.50502	2.50784	0.698316	3.46906				
0.430859	2.13648	0.42594	2.09793	0.594279	2.94337							0.506198	2.50582	0.699141	3.46229				
0.432152	2.1362	0.427298	2.09808	0.595264	2.93905							0.507378	2.50382	0.699968	3.45556				
0.433447	2.13592	0.428657	2.09824	0.596251	2.93475							0.508559	2.50184	0.700797	3.44888				
0.434741	2.13564	0.430016	2.09839	0.597239	2.9305							0.509742	2.49988	0.701628	3.44226				
0.436036	2.13537	0.431374	2.09855	0.59823	2.92628							0.510926	2.49794	0.702461	3.43569				
0.437332	2.1351	0.432733	2.0987	0.599222	2.92209							0.512111	2.49602	0.703296	3.42916				
0.438628	2.13483	0.434091	2.09885	0.600217	2.91794							0.513298	2.49412	0.704133	3.42269				
0.439924	2.13457	0.435449	2.099	0.601213	2.91383							0.514486	2.49223	0.704972	3.41626				
0.441221	2.13431	0.436807	2.09914	0.602211	2.90974							0.515676	2.49036	0.705812	3.40988				
0.442518	2.13406	0.438165	2.09929	0.60321	2.90569							0.516867	2.48851	0.706655	3.40355				
0.443815	2.13381	0.439523	2.09943	0.604212	2.90168							0.518059	2.48668	0.707499	3.39727				
0.445113	2.13356	0.44088	2.09957	0.605215	2.8977							0.519252	2.48487	0.708345	3.39104				
0.446411	2.13331	0.442238	2.09971	0.606221	2.89375							0.520447	2.48307	0.709194	3.38485				
0.44771	2.13307	0.443595	2.09985	0.607228	2.88983							0.521643	2.48129	0.710044	3.37871				
0.449009	2.13284	0.444953	2.09999	0.608236	2.88594							0.522841	2.47953	0.710895	3.37261				
0.450308	2.1326	0.44631	2.10013	0.609247	2.88209							0.524039	2.47778	0.711749	3.36656				
0.451608	2.13237	0.447667	2.10026	0.610259	2.87827							0.525239	2.47605	0.712605	3.36056				
0.452908	2.13214	0.449024	2.1004	0.611273	2.87447							0.526441	2.47433	0.713462	3.35459				
0.454208	2.13191	0.450381	2.10053	0.612289	2.87071							0.527643	2.47264	0.714322	3.34868				
0.455509	2.13169	0.451738	2.10066	0.613307	2.86698							0.528847	2.47095	0.715183	3.3428				
0.45681	2.13147	0.453094	2.10079	0.614326	2.86328							0.530052	2.46929	0.716046	3.33697				
0.458111	2.13125	0.454451	2.10092	0.615347	2.85961							0.531258	2.46764	0.716911	3.33118				
0.459413	2.13104	0.455807	2.10105	0.616369	2.85597							0.532466	2.466	0.717778	3.32544				
0.460715	2.13083	0.457163	2.10117	0.617394	2.85236							0.533675	2.46438	0.718646	3.31974				
0.462017	2.13062	0.45852	2.1013	0.61842	2.84877							0.534885	2.46278	0.719516	3.31407				
0.46332	2.13041	0.459876	2.10142	0.619448	2.84522							0.536096	2.46118	0.720389	3.30845				
0.464623	2.13021	0.461232	2.10155	0.620477	2.84169							0.537308	2.45961						
0.465927	2.13001	0.462587	2.10167	0.621508	2.83819							0.538522	2.45805						
0.46723	2.12981	0.463943	2.10179	0.622541	2.83472							0.539736	2.4565						
0.468534	2.12962	0.465299	2.10191	0.623575	2.83128							0.540952	2.45497						
0.469839	2.12942	0.466654	2.10202	0.624611	2.82786							0.542169	2.45345						
0.471144	2.12923	0.46801	2.10214	0.625649	2.82447							0.543387	2.45194						
0.472448	2.12905	0.469365	2.10226	0.626688	2.82111							0.544607	2.45045						
0.473754	2.12886	0.47072	2.10237	0.627729	2.81777							0.545827	2.44898						
0.475059	2.12868	0.472075	2.10248	0.628772	2.81446							0.547049	2.44751						
0.476365	2.1285	0.47343	2.10259	0.629816	2.81118							0.548271	2.44606						
0.477671	2.12832	0.474785	2.10271	0.630861	2.80792							0.549495	2.44462						
0.478978	2.12814	0.47614	2.10282	0.631909	2.80468							0.55072	2.4432						
0.480285	2.12797	0.477494	2.10292	0.632957	2.80147							0.551946	2.44178						
0.481592	2.1278	0.478849	2.10303	0.634008	2.79829							0.553173	2.44039						
0.482899	2.12763	0.480203	2.10314	0.63506	2.79513							0.554402	2.439						
0.484206	2.12746	0.481557	2.10324	0.636113	2.792							0.555631	2.43762						
0.485514	2.1273	0.482912	2.10335	0.637168	2.78888							0.556861	2.43626						
0.486823	2.12713	0.484266	2.10345	0.638225	2.7858							0.558093	2.43491						
0.488131	2.12697	0.48562	2.10355	0.639283	2.78273							0.559325	2.43357						
0.48944	2.12681	0.486974	2.10366	0.640342	2.77969							0.560558	2.43225						
0.490749	2.12666	0.488327	2.10376	0.641404	2.77668							0.561793	2.43093						
0.492058	2.1265	0.489681	2.10386	0.642466	2.77368							0.563029	2.42963						
0.493367	2.12635	0.491035	2.10395	0.64353	2.77071							0.564265	2.42834						
0.494677	2.1262	0.492388	2.10405	0.644596	2.76776							0.565503	2.42706						
0.495987	2.12605	0.493742	2.10415	0.645663	2.76484							0.566741	2.42579						
0.497297	2.1259	0.495095	2.10424	0.646731	2.76193							0.567981	2.42453						
0.498608	2.12576	0.496448	2.10434	0.647801	2.75905							0.569221	2.42329						
0.499918	2.12561	0.497801	2.10443	0.648873	2.75619							0.570463	2.42205						
0.501229	2.12547	0.499154	2.10453	0.649946	2.75335							0.571706	2.42083						
0.502541	2.12533	0.500507	2.10462	0.65102	2.75053							0.572949	2.41961						
0.503852	2.1252	0.50186	2.10471	0.652096	2.74773							0.574194	2.41841						
0.505164	2.12506	0.503212	2.1048	0.653173	2.74496							0.575439	2.41721						
0.506476	2.12492	0.504565	2.10489	0.654252	2.7422							0.576686	2.41603						
0.507788	2.12479	0.505917	2.10498	0.655332	2.73947							0.577933	2.41486						
0.5091	2.12466	0.50727	2.10506	0.656413	2.73675							0.579181	2.4137						
0.510413	2.12453	0.508622	2.10515	0.657496	2.73406							0.580431	2.41254						
0.511726	2.1244	0.509974	2.10524	0.65858	2.73138							0.581681	2.4114						
0.513039	2.12428	0.511326	2.10532	0.659666	2.72873							0.582932	2.41027						
0.514352	2.12415	0.512678	2.1054	0.660753	2.72609							0.584184	2.40915						
0.515666	2.12403	0.51403	2.10549	0.661841	2.72347							0.585437	2.40803						
0.516979	2.12391	0.515382	2.10557	0.66293	2.72088							0.586691	2.40693						
0.518293	2.12379	0.516734	2.10565	0.664022	2.7183							0.587945	2.40583						
0.519607	2.12367	0.518085	2.10573	0.665114	2.71574							0.589201	2.40475						
0.520922	2.12355	0.519437	2.10581	0.666208	2.7132							0.590458	2.40367						
0.522236	2.12344	0.520788	2.10589	0.667303	2.71068							0.591715	2.4026						
0.523551	2.12332	0.522139	2.10597	0.668399	2.70817							0.592973	2.40155						
0.524866	2.12321	0.523491	2.10605	0.669497	2.70569							0.594232	2.4005						
0.526181	2.1231	0.524842	2.10612	0.670596	2.70322							0.595492	2.39946						
0.527497	2.12299	0.526193	2.1062	0.671696	2.70077							0.596753	2.39842						
0.528812	2.12288	0.527544	2.10628	0.672798	2.69833							0.598015	2.3974						
0.530128	2.12277	0.528895	2.10635	0.6739	2.69592							0.599278	2.39639						
0.531444	2.12266	0.530245	2.10642	0.675005	2.69352							0.600541	2.39538						
0.53276	2.12256	0.531596	2.1065	0.67611	2.69114							0.601805	2.39438						
0.534077	2.12246	0.532947	2.10657	0.677217	2.68878							0.60307	2.39339						
0.535393	2.12235	0.534297	2.10664	0.678325	2.68643							0.604336	2.39241						
0.53671	2.12225	0.535648	2.10671	0.679434	2.6841							0.605603	2.39144						
0.538027	2.12215	0.536998	2.10678	0.680544	2.68179							0.606871	2.39048						
0.539344	2.12205	0.538348	2.10685	0.681656	2.67949							0.608139	2.38952						
0.540661	2.12196	0.539698	2.10692	0.682769	2.67721							0.609408	2.38857						
0.541979	2.12186	0.541048	2.10699	0.683883	2.67494							0.610678	2.38763						
0.543296	2.12176	0.542398	2.10706	0.684999	2.6727							0.611949	2.3867						
0.544614	2.12167	0.543748	2.10712	0.686115	2.67046							0.61322	2.38577						
0.545932	2.12158	0.545098	2.10719	0.687233	2.66825							0.614493	2.38485						
0.54725	2.12149	0.546448	2.10725	0.688352	2.66604							0.615766	2.38394						
0.548569	2.1214	0.547797	2.10732	0.689473	2.66386							0.617039	2.38304						
0.549887	2.12131	0.549147	2.10738	0.690594	2.66169							0.618314	2.38214						
0.551206	2.12122	0.550496	2.10745	0.691717	2.65953							0.619589	2.38125						
0.552525	2.12113	0.551845	2.10751	0.692841	2.65739							0.620866	2.38037						
0.553844	2.12104	0.553195	2.10757	0.693966	2.65526							0.622143	2.3795						
0.555163	2.12096	0.554544	2.10763	0.695092	2.65315							0.62342	2.37863						
0.556482	2.12088	0.555893	2.1077	0.696219	2.65105							0.624698	2.37777						
0.557802	2.12079	0.557242	2.10776	0.697348	2.64897							0.625978	2.37692						
0.559121	2.12071	0.558591	2.10782	0.698477	2.6469							0.627257	2.37607						
0.560441	2.12063	0.55994	2.10788	0.699608	2.64485							0.628538	2.37523						
0.561761	2.12055	0.561289	2.10793	0.70074	2.64281							0.629819	2.3744						
0.563081	2.12047	0.562637	2.10799	0.701873	2.64079							0.631101	2.37357						
0.564402	2.12039	0.563986	2.10805	0.703007	2.63877							0.632384	2.37275						
0.565722	2.12031	0.565334	2.10811	0.704143	2.63678							0.633667	2.37194						
0.567043	2.12024	0.566683	2.10816	0.705279	2.63479							0.634952	2.37113						
0.568363	2.12016	0.568031	2.10822	0.706417	2.63282							0.636236	2.37033						
0.569684	2.12009	0.56938	2.10827	0.707555	2.63086							0.637522	2.36954						
0.571005	2.12001	0.570728	2.10833	0.708695	2.62892							0.638808	2.36875						
0.572326	2.11994	0.572076	2.10838	0.709836	2.62699							0.640095	2.36797						
0.573648	2.11987	0.573424	2.10844	0.710978	2.62507							0.641383	2.36719						
0.574969	2.1198	0.574772	2.10849	0.712121	2.62316							0.642671	2.36642						
0.576291	2.11973	0.57612	2.10854	0.713265	2.62127							0.64396	2.36566						
0.577613	2.11966	0.577468	2.10859	0.71441	2.61939							0.645249	2.3649						
0.578934	2.11959	0.578815	2.10865	0.715557	2.61753							0.64654	2.36415						
0.580256	2.11952	0.580163	2.1087	0.716704	2.61567							0.647831	2.36341						
0.581579	2.11946	0.581511	2.10875	0.717852	2.61383							0.649122	2.36267						
0.582901	2.11939	0.582858	2.1088	0.719002	2.612							0.650414	2.36193						
0.584223	2.11932	0.584206	2.10885	0.720152	2.61018							0.651707	2.36121						
0.585546	2.11926	0.585553	2.1089									0.653001	2.36048						
0.586868	2.1192	0.5869	2.10894									0.654295	2.35977						
0.588191	2.11913	0.588248	2.10899									0.65559	2.35906						
0.589514	2.11907	0.589595	2.10904									0.656885	2.35835						
0.590837	2.11901	0.590942	2.10909									0.658181	2.35765						
0.59216	2.11895	0.592289	2.10913									0.659478	2.35695						
0.593484	2.11889	0.593636	2.10918									0.660775	2.35626						
0.594807	2.11883	0.594983	2.10923									0.662073	2.35558						
0.596131	2.11877	0.596329	2.10927									0.663372	2.3549						
0.597454	2.11871	0.597676	2.10932									0.664671	2.35423						
0.598778	2.11865	0.599023	2.10936									0.66597	2.35356						
0.600102	2.1186	0.600369	2.1094									0.667271	2.3529						
0.601426	2.11854	0.601716	2.10945									0.668572	2.35224						
0.60275	2.11849	0.603062	2.10949									0.669873	2.35158						
0.604074	2.11843	0.604409	2.10953									0.671175	2.35093						
0.605399	2.11838	0.605755	2.10958									0.672478	2.35029						
0.606723	2.11832	0.607101	2.10962									0.673781	2.34965						
0.608048	2.11827	0.608447	2.10966									0.675085	2.34902						
0.609373	2.11822	0.609793	2.1097									0.676389	2.34839						
0.610697	2.11817	0.611139	2.10974									0.677694	2.34776						
0.612022	2.11812	0.612485	2.10978									0.679	2.34714						
0.613347	2.11807	0.613831	2.10982									0.680306	2.34653						
0.614673	2.11802	0.615177	2.10986									0.681613	2.34592						
0.615998	2.11797	0.616523	2.1099									0.68292	2.34531						
0.617323	2.11792	0.617868	2.10994									0.684228	2.34471						
0.618649	2.11787	0.619214	2.10998									0.685536	2.34411						
0.619974	2.11782	0.62056	2.11001									0.686845	2.34352						
0.6213	2.11778	0.621905	2.11005									0.688154	2.34293						
0.622625	2.11773	0.623251	2.11009									0.689464	2.34235						
0.623951	2.11768	0.624596	2.11012									0.690775	2.34177						
0.625277	2.11764	0.625941	2.11016									0.692086	2.34119						
0.626603	2.11759	0.627287	2.1102									0.693397	2.34062						
0.62793	2.11755	0.628632	2.11023									0.694709	2.34006						
0.629256	2.11751	0.629977	2.11027									0.696022	2.33949						
0.630582	2.11746	0.631322	2.1103									0.697335	2.33894						
0.631909	2.11742	0.632667	2.11034									0.698649	2.33838						
0.633235	2.11738	0.634012	2.11037									0.699963	2.33783						
0.634562	2.11734	0.635357	2.1104									0.701277	2.33728						
0.635888	2.11729	0.636702	2.11044									0.702593	2.33674						
0.637215	2.11725	0.638046	2.11047									0.703908	2.3362						
0.638542	2.11721	0.639391	2.1105									0.705224	2.33567						
0.639869	2.11717	0.640736	2.11054									0.706541	2.33514						
0.641196	2.11713	0.64208	2.11057									0.707858	2.33461						
0.642523	2.1171	0.643425	2.1106									0.709176	2.33409						
0.643851	2.11706	0.644769	2.11063									0.710494	2.33357						
0.645178	2.11702	0.646114	2.11066									0.711812	2.33305						
0.646505	2.11698	0.647458	2.11069									0.713131	2.33254						
0.647833	2.11694	0.648802	2.11072									0.714451	2.33203						
0.64916	2.11691	0.650147	2.11075									0.715771	2.33153						
0.650488	2.11687	0.651491	2.11078									0.717092	2.33103						
0.651816	2.11683	0.652835	2.11081									0.718412	2.33053						
0.653144	2.1168	0.654179	2.11084									0.719734	2.33004						
0.654472	2.11676	0.655523	2.11087									0.721056	2.32955						
0.6558	2.11673	0.656867	2.1109																
0.657128	2.11669	0.658211	2.11093																
0.658456	2.11666	0.659555	2.11096																
0.659784	2.11663	0.660898	2.11098																
0.661112	2.11659	0.662242	2.11101																
0.662441	2.11656	0.663586	2.11104																
0.663769	2.11653	0.66493	2.11107																
0.665098	2.1165	0.666273	2.11109																
0.666426	2.11647	0.667617	2.11112																
0.667755	2.11643	0.66896	2.11115																
0.669084	2.1164	0.670304	2.11117																
0.670413	2.11637	0.671647	2.1112																
0.671742	2.11634	0.67299	2.11122																
0.673071	2.11631	0.674334	2.11125																
0.6744	2.11628	0.675677	2.11127																
0.675729	2.11625	0.67702	2.1113																
0.677058	2.11622	0.678363	2.11132																
0.678387	2.1162	0.679706	2.11135																
0.679717	2.11617	0.681049	2.11137																
0.681046	2.11614	0.682392	2.11139																
0.682375	2.11611	0.683735	2.11142																
0.683705	2.11608	0.685078	2.11144																
0.685034	2.11606	0.686421	2.11146																
0.686364	2.11603	0.687764	2.11149																
0.687694	2.116	0.689106	2.11151																
0.689024	2.11598	0.690449	2.11153																
0.690353	2.11595	0.691792	2.11155																
0.691683	2.11593	0.693134	2.11157																
0.693013	2.1159	0.694477	2.11159																
0.694343	2.11588	0.695819	2.11162																
0.695673	2.11585	0.697162	2.11164																
0.697004	2.11583	0.698504	2.11166																
0.698334	2.1158	0.699847	2.11168																
0.699664	2.11578	0.701189	2.1117																
0.700994	2.11576	0.702531	2.11172																
0.702325	2.11573	0.703874	2.11174																
0.703655	2.11571	0.705216	2.11176																
0.704986	2.11569	0.706558	2.11178																
0.706316	2.11567	0.7079	2.1118																
0.707647	2.11564	0.709242	2.11182																
0.708978	2.11562	0.710584	2.11184																
0.710308	2.1156	0.711926	2.11186																
0.711639	2.11558	0.713268	2.11187																
0.71297	2.11556	0.71461	2.11189																
0.714301	2.11554	0.715952	2.11191																
0.715632	2.11551	0.717294	2.11193																
0.716963	2.11549	0.718636	2.11195																
0.718294	2.11547	0.719977	2.11196																
0.719625	2.11545	0.721319	2.11198																
0.720956	2.11543																		
