Sym0		Asym0		Sym1		Sym2		Sym3		Sym4		Asym1		Asym2		Asym3		Asym4	
422  Points		528  Points		421  Points		404  Points		350  Points		250  Points		453  Points		398  Points		342  Points		206  Points	
Freq (MHz)	Vph (m/ms)	Freq (MHz)	Vph (m/ms)	Freq (MHz)	Vph (m/ms)	Freq (MHz)	Vph (m/ms)	Freq (MHz)	Vph (m/ms)	Freq (MHz)	Vph (m/ms)	Freq (MHz)	Vph (m/ms)	Freq (MHz)	Vph (m/ms)	Freq (MHz)	Vph (m/ms)	Freq (MHz)	Vph (m/ms)
0.27951	540.123	2.09881e-005	0.0283235	0.279514	305.021	0.449999	10459.4	0.559017	6538.7	0.838526	2100.07	0.139755	925.847	0.419268	463.494	0.698771	3447.93	0.899998	2199.11
0.279522	192.882	0.000106771	0.0638314	0.27953	151.255	0.450005	461.677	0.559024	549.577	0.838532	630.01	0.1398	129.128	0.419286	228.335	0.698776	616.009	0.900003	671.168
0.279544	117.412	0.000258512	0.0992596	0.279557	100.569	0.450021	236.056	0.559042	286.852	0.838543	370.598	0.139911	69.4576	0.419315	151.488	0.698786	338.223	0.900013	396.02
0.279578	84.3989	0.000475839	0.134566	0.279596	75.3331	0.450049	158.573	0.559071	194.083	0.83856	262.512	0.140089	47.5518	0.419356	113.35	0.698803	233.109	0.900028	280.878
0.279623	65.8823	0.000758146	0.169691	0.279645	60.2274	0.450087	119.393	0.559112	146.661	0.838583	203.24	0.140334	36.1897	0.419408	90.5583	0.698826	177.843	0.900049	217.612
0.279678	54.034	0.00110449	0.204555	0.279705	50.1727	0.450136	95.7431	0.559164	117.868	0.838612	165.807	0.140644	29.2434	0.419473	75.4033	0.698855	143.764	0.900075	177.609
0.279745	45.8023	0.0015141	0.239149	0.279777	42.9993	0.450196	79.9184	0.559228	98.5309	0.838647	140.021	0.141018	24.5629	0.419549	64.5981	0.69889	120.647	0.900106	150.032
0.279822	39.7511	0.00198579	0.273417	0.279859	37.6244	0.450266	68.587	0.559303	84.6485	0.838688	121.178	0.141457	21.199	0.419637	56.5057	0.698931	103.938	0.900142	129.87
0.279911	35.1159	0.00251834	0.307319	0.279952	33.4474	0.450348	60.0737	0.559389	74.1989	0.838735	106.806	0.141958	18.6676	0.419737	50.2189	0.698978	91.2954	0.900184	114.486
0.280011	31.4521	0.00311038	0.340816	0.280057	30.1083	0.45044	53.4439	0.559487	66.0493	0.838787	95.4845	0.14252	16.6959	0.419848	45.1943	0.699032	81.3971	0.900231	102.363
0.280121	28.4837	0.0037605	0.373883	0.280172	27.3784	0.450543	48.135	0.559596	59.516	0.838846	86.3344	0.143142	15.1187	0.419971	41.0869	0.699091	73.4369	0.900283	92.5626
0.280243	26.03	0.00446717	0.406488	0.280298	25.105	0.450656	43.7885	0.559716	54.1618	0.83891	78.7862	0.143822	13.8296	0.420106	37.6668	0.699157	66.8966	0.900341	84.4764
0.280375	23.9681	0.00522864	0.438594	0.280435	23.1827	0.450781	40.1645	0.559848	49.6943	0.83898	72.4532	0.14456	12.7576	0.420253	34.775	0.699229	61.4274	0.900403	77.6907
0.280518	22.2113	0.00604336	0.470189	0.280583	21.5362	0.450916	37.097	0.55999	45.9102	0.839057	67.0638	0.145352	11.8529	0.420411	32.298	0.699307	56.7863	0.900471	71.9152
0.280673	20.6967	0.00690957	0.501247	0.280742	20.1103	0.451062	34.467	0.560145	42.664	0.839139	62.4219	0.146198	11.0801	0.420581	30.1528	0.699391	52.7986	0.900544	66.9401
0.280838	19.3776	0.00782554	0.531755	0.280912	18.8635	0.451218	32.1874	0.56031	39.8488	0.839226	58.3821	0.146977	10.4934	0.420763	28.2771	0.699481	49.3353	0.900623	62.6099
0.281014	18.2185	0.00878944	0.561692	0.281093	17.7643	0.451385	30.1927	0.560487	37.3842	0.83932	54.8346	0.147672	10.0466	0.420956	26.6231	0.699577	46.2996	0.900706	58.8068
0.281201	17.1922	0.00979952	0.591051	0.281285	16.7879	0.451563	28.4327	0.560675	35.2087	0.83942	51.6945	0.148266	9.70899	0.421161	25.1539	0.69968	43.6169	0.900795	55.4401
0.281399	16.2771	0.0108541	0.619823	0.281487	15.915	0.451752	26.8683	0.560874	33.2744	0.839525	48.8955	0.148749	9.46027	0.421378	23.8402	0.699788	41.2291	0.900889	52.439
0.281608	15.4562	0.0119512	0.648001	0.281701	15.1301	0.451951	25.4689	0.561084	31.5434	0.839637	46.385	0.149111	9.28678	0.421606	22.6587	0.699903	39.0901	0.900989	49.7469
0.281828	14.7158	0.0130893	0.675582	0.281925	14.4205	0.452161	24.2096	0.561306	29.9853	0.839754	44.1205	0.149346	9.17966	0.421846	21.5905	0.700023	37.163	0.901093	47.3185
0.282058	14.0446	0.0142668	0.702567	0.28216	13.776	0.452382	23.0705	0.561539	28.5755	0.839877	42.0677	0.149688	9.03075	0.422097	20.6201	0.70015	35.4179	0.901203	45.1169
0.2823	13.4334	0.0154818	0.728956	0.282406	13.1881	0.452613	22.0353	0.561783	27.2938	0.840006	40.1983	0.150065	8.87533	0.42236	19.7347	0.700283	33.8302	0.901318	43.1118
0.282552	12.8746	0.0167328	0.754749	0.282663	12.6497	0.452855	21.0905	0.562038	26.1237	0.840141	38.4887	0.150587	8.67405	0.422635	18.9238	0.700422	32.3795	0.901439	41.278
0.282815	12.3618	0.0180182	0.779951	0.282931	12.1549	0.453107	20.2246	0.562304	25.0512	0.840282	36.9193	0.151263	8.43486	0.422921	18.1782	0.700567	31.0489	0.901564	39.5945
0.283088	11.8895	0.0193365	0.804567	0.283209	11.6986	0.45337	19.4284	0.562582	24.0647	0.840428	35.4736	0.1521	8.16641	0.423219	17.4906	0.700719	29.8241	0.901695	38.0436
0.283373	11.4533	0.0206861	0.828603	0.283498	11.2766	0.453643	18.6938	0.56287	23.1543	0.840581	34.1375	0.153112	7.87735	0.423528	16.8544	0.700876	28.693	0.901831	36.6102
0.283668	11.0492	0.0220659	0.852069	0.283798	10.8851	0.453927	18.0139	0.56317	22.3115	0.840739	32.8991	0.154311	7.57588	0.423848	16.2641	0.70104	27.6452	0.901972	35.2815
0.283974	10.6737	0.0234742	0.874974	0.284109	10.5211	0.454222	17.3828	0.563481	21.5291	0.840903	31.7481	0.155548	7.30258	0.42418	15.715	0.701209	26.672	0.902118	34.0464
0.284291	10.3241	0.0249099	0.897325	0.284388	10.224	0.454527	16.7957	0.563802	20.8009	0.841073	30.6755	0.156822	7.05384	0.424523	15.203	0.701385	25.7655	0.90227	32.8955
0.284619	9.99773	0.0263717	0.919134	0.284633	9.98436	0.454843	16.2479	0.564135	20.1216	0.841249	29.6735	0.158131	6.82663	0.424878	14.7244	0.701566	24.9193	0.902427	31.8203
0.284957	9.6924	0.0278583	0.94041	0.28484	9.79497	0.455169	15.7359	0.564478	19.4862	0.841431	28.7356	0.159473	6.61839	0.425244	14.2761	0.701754	24.1275	0.902589	30.8137
0.285306	9.40618	0.0293686	0.961163	0.285006	9.65051	0.455505	15.2561	0.564833	18.8909	0.841618	27.8557	0.160848	6.42693	0.425622	13.8554	0.701948	23.3851	0.902756	29.8694
0.285665	9.13735	0.0309016	0.981408	0.28513	9.54714	0.455852	14.8057	0.565198	18.3319	0.841811	27.0286	0.162254	6.25041	0.42601	13.4598	0.702148	22.6875	0.902929	28.9817
0.286035	8.88442	0.0324561	1.00115	0.28521	9.4822	0.456209	14.3821	0.565575	17.806	0.842011	26.2497	0.163689	6.08721	0.426411	13.0872	0.702354	22.031	0.903107	28.1457
0.286416	8.64604	0.0340312	1.02042	0.285326	9.39048	0.456577	13.983	0.565962	17.3105	0.842216	25.515	0.165152	5.93594	0.426822	12.7357	0.702566	21.4119	0.90329	27.357
0.286807	8.42101	0.035626	1.0392	0.285453	9.29291	0.456955	13.6063	0.56636	16.8427	0.842426	24.8208	0.166641	5.79542	0.427244	12.4034	0.702784	20.8271	0.903478	26.6118
0.287209	8.20826	0.0372394	1.05752	0.285628	9.16362	0.457343	13.2503	0.566769	16.4004	0.842643	24.1639	0.168157	5.66458	0.427678	12.089	0.703008	20.274	0.903671	25.9065
0.287621	8.00684	0.0388706	1.0754	0.285854	9.00549	0.457742	12.9133	0.567189	15.9817	0.842866	23.5413	0.169697	5.5425	0.428123	11.7911	0.703238	19.75	0.90387	25.2381
0.288044	7.81589	0.0405189	1.09283	0.286132	8.82189	0.458151	12.5938	0.567619	15.5847	0.843094	22.9505	0.17126	5.42837	0.428579	11.5083	0.703475	19.2528	0.904073	24.6037
0.288477	7.63464	0.0421835	1.10984	0.286465	8.61648	0.45857	12.2905	0.56806	15.2078	0.843328	22.389	0.172846	5.32148	0.429046	11.2397	0.703717	18.7806	0.904282	24.0009
0.288921	7.46238	0.0438636	1.12642	0.286858	8.39308	0.458999	12.0023	0.568512	14.8495	0.843568	21.8548	0.174453	5.22119	0.429524	10.9841	0.703965	18.3314	0.904497	23.4272
0.289375	7.29848	0.0455584	1.14261	0.287261	8.18184	0.459439	11.7281	0.568974	14.5085	0.843813	21.3459	0.17608	5.12693	0.430013	10.7407	0.70422	17.9037	0.904716	22.8808
0.28984	7.14236	0.0472674	1.1584	0.287675	7.98181	0.459888	11.4668	0.569447	14.1836	0.844065	20.8606	0.177727	5.0382	0.430513	10.5086	0.70448	17.4959	0.90494	22.3596
0.290314	6.99349	0.0489899	1.17381	0.288099	7.79214	0.460348	11.2177	0.569931	13.8736	0.844322	20.3973	0.179392	4.95456	0.430957	10.3151	0.704746	17.1066	0.90517	21.862
0.2908	6.85141	0.0507252	1.18885	0.288533	7.61208	0.460818	10.9799	0.570425	13.5777	0.844585	19.9545	0.181076	4.87559	0.431343	10.1561	0.705019	16.7348	0.905405	21.3864
0.291295	6.71567	0.0524729	1.20353	0.288978	7.44092	0.461298	10.7526	0.570929	13.2949	0.844854	19.5309	0.182776	4.80093	0.431666	10.0285	0.705297	16.3792	0.905645	20.9314
0.291801	6.58587	0.0542322	1.21786	0.289434	7.27805	0.461788	10.5352	0.571444	13.0243	0.845128	19.1253	0.184492	4.73025	0.431925	9.93015	0.705582	16.0387	0.90589	20.4958
0.292318	6.46165	0.0560029	1.23185	0.2899	7.12289	0.462223	10.3534	0.57197	12.7652	0.845409	18.7366	0.186224	4.66327	0.432117	9.85913	0.705872	15.7126	0.906141	20.0782
0.292844	6.34266	0.0577843	1.24551	0.290376	6.97492	0.4626	10.2036	0.572506	12.5169	0.845695	18.3638	0.187971	4.5997	0.43224	9.81426	0.706169	15.3998	0.906396	19.6776
0.293381	6.22859	0.059576	1.25885	0.290863	6.83368	0.462916	10.0833	0.573052	12.2787	0.845986	18.0058	0.189732	4.5393	0.432419	9.75054	0.706471	15.0996	0.906657	19.293
0.293928	6.11917	0.0613774	1.27187	0.29136	6.69872	0.463168	9.99035	0.573608	12.0501	0.846284	17.6619	0.191507	4.48186	0.432614	9.6823	0.70678	14.8112	0.906923	18.9235
0.294485	6.01411	0.0631883	1.2846	0.291867	6.56965	0.463355	9.92316	0.574175	11.8305	0.846587	17.3313	0.193295	4.42717	0.432882	9.59115	0.707094	14.5341	0.907194	18.5682
0.295052	5.91318	0.0650082	1.29703	0.292384	6.44612	0.463476	9.88068	0.574752	11.6193	0.846896	17.0131	0.195095	4.37504	0.433225	9.47855	0.707414	14.2674	0.90747	18.2263
0.295629	5.81615	0.0668367	1.30917	0.292912	6.32778	0.46365	9.82029	0.57534	11.4161	0.847211	16.7067	0.196908	4.32531	0.433644	9.3462	0.707741	14.0107	0.907752	17.897
0.296217	5.72281	0.0686734	1.32104	0.29345	6.21432	0.46384	9.75557	0.575937	11.2206	0.847532	16.4115	0.198731	4.27783	0.434144	9.19605	0.708073	13.7635	0.908038	17.5798
0.296814	5.63296	0.070518	1.33264	0.293999	6.10547	0.464101	9.66903	0.576544	11.0321	0.847858	16.1269	0.200566	4.23244	0.434727	9.03019	0.708411	13.5251	0.90833	17.2738
0.297422	5.54642	0.0723703	1.34398	0.294557	6.00096	0.464434	9.56196	0.577162	10.8505	0.84819	15.8523	0.202412	4.18902	0.435321	8.87086	0.708755	13.2952	0.908627	16.9786
0.29804	5.46302	0.0742297	1.35507	0.295125	5.90054	0.464842	9.4359	0.57779	10.6753	0.848528	15.5872	0.204267	4.14745	0.435926	8.71767	0.709106	13.0732	0.908929	16.6937
0.298667	5.3826	0.0760961	1.36591	0.295704	5.80399	0.465327	9.2926	0.578345	10.5277	0.848871	15.3311	0.206132	4.10762	0.436541	8.57029	0.709462	12.8589	0.909236	16.4183
0.299305	5.30502	0.0779691	1.37651	0.296293	5.71111	0.465894	9.13396	0.578824	10.4053	0.84922	15.0836	0.208007	4.06942	0.437167	8.42841	0.709824	12.6518	0.909548	16.1522
0.299952	5.23013	0.0798486	1.38688	0.296892	5.62169	0.46647	8.9812	0.579224	10.3065	0.849575	14.8442	0.20989	4.03276	0.437804	8.29174	0.710192	12.4516	0.909865	15.8949
0.30061	5.1578	0.0817342	1.39702	0.297501	5.53557	0.467055	8.83401	0.579543	10.2298	0.849935	14.6126	0.211783	3.99755	0.438451	8.16	0.710566	12.2579	0.910188	15.6459
0.301277	5.08792	0.0836257	1.40694	0.29812	5.45256	0.467651	8.6921	0.57978	10.1742	0.850301	14.3885	0.213683	3.96372	0.439108	8.03294	0.710945	12.0705	0.910515	15.4048
0.301954	5.02036	0.0855228	1.41666	0.298748	5.37251	0.468256	8.55519	0.579931	10.1389	0.850673	14.1713	0.215591	3.93118	0.439775	7.91033	0.711331	11.889	0.910848	15.1713
0.302642	4.95503	0.0874253	1.42616	0.299387	5.29528	0.46887	8.42304	0.580151	10.0888	0.85105	13.9609	0.217507	3.89986	0.440453	7.79194	0.711723	11.7131	0.911186	14.945
0.303338	4.89182	0.0893331	1.43546	0.300036	5.22072	0.469494	8.29541	0.58039	10.0349	0.851434	13.757	0.219431	3.8697	0.441142	7.67758	0.71212	11.5427	0.911529	14.7256
0.304045	4.83063	0.0912458	1.44457	0.300695	5.14871	0.470128	8.17208	0.580718	9.96259	0.851822	13.5591	0.221361	3.84064	0.44184	7.56703	0.712523	11.3774	0.911877	14.5127
0.304669	4.7789	0.0931633	1.45349	0.301363	5.07913	0.470771	8.05284	0.581135	9.87282	0.852217	13.3672	0.223298	3.81262	0.442549	7.46013	0.712933	11.2171	0.91223	14.3062
0.305207	4.73592	0.0950854	1.46222	0.302042	5.01187	0.471424	7.9375	0.581645	9.76664	0.852617	13.1808	0.225242	3.78559	0.443268	7.35671	0.713348	11.0614	0.912588	14.1057
0.305655	4.70113	0.097012	1.47078	0.30273	4.94681	0.472086	7.82588	0.58225	9.64531	0.853022	12.9998	0.227192	3.7595	0.443997	7.2566	0.713769	10.9103	0.912951	13.911
0.306013	4.67409	0.0989428	1.47916	0.303428	4.88387	0.472758	7.71782	0.582954	9.51018	0.853434	12.824	0.229149	3.7343	0.444736	7.15966	0.71414	10.7822	0.91332	13.7218
0.306277	4.65447	0.100878	1.48737	0.304136	4.82294	0.473439	7.61313	0.583667	9.37925	0.853851	12.6531	0.231111	3.70994	0.445485	7.06574	0.714461	10.6755	0.913693	13.5379
0.306447	4.64203	0.102817	1.49541	0.304854	4.76393	0.474129	7.51169	0.584389	9.25234	0.854273	12.487	0.233079	3.6864	0.446244	6.97471	0.714728	10.5889	0.914071	13.3591
0.306692	4.6243	0.104759	1.50329	0.305582	4.70677	0.474828	7.41334	0.585121	9.12927	0.854701	12.3254	0.235052	3.66362	0.447013	6.88645	0.714941	10.5215	0.914455	13.1852
0.306959	4.60522	0.106705	1.51102	0.306319	4.65138	0.475537	7.31796	0.585863	9.00987	0.855135	12.1682	0.23703	3.64157	0.447792	6.80083	0.715098	10.4726	0.914843	13.0159
0.307325	4.57962	0.108655	1.5186	0.307066	4.59767	0.476255	7.22541	0.586614	8.89398	0.855574	12.0151	0.239014	3.62023	0.448581	6.71776	0.715199	10.4415	0.915237	12.8512
0.30779	4.54777	0.110608	1.52602	0.307823	4.54559	0.476982	7.13558	0.587375	8.78147	0.856019	11.8661	0.241002	3.59955	0.44938	6.63711	0.715345	10.3972	0.915636	12.6908
0.308358	4.51004	0.112565	1.5333	0.308589	4.49507	0.477718	7.04835	0.588145	8.67218	0.856469	11.721	0.242995	3.57951	0.450188	6.5588	0.715505	10.3494	0.916039	12.5345
0.309032	4.46684	0.114524	1.54045	0.309365	4.44603	0.478463	6.96362	0.588924	8.56599	0.856925	11.5796	0.244993	3.56007	0.451006	6.48272	0.715722	10.2852	0.916448	12.3822
0.309813	4.41863	0.116234	1.54656	0.310151	4.39843	0.479217	6.88128	0.589713	8.46278	0.857387	11.4418	0.246995	3.54123	0.451834	6.40879	0.716	10.2053	0.916862	12.2338
0.310604	4.37183	0.117694	1.55169	0.310946	4.3522	0.47998	6.80125	0.590511	8.36242	0.857854	11.3074	0.249002	3.52293	0.452671	6.33692	0.716339	10.1104	0.917281	12.0891
0.311405	4.32636	0.118902	1.55588	0.311751	4.3073	0.480752	6.72342	0.591318	8.2648	0.858326	11.1764	0.251012	3.50517	0.453518	6.26704	0.71674	10.0014	0.917705	11.948
0.312215	4.28219	0.119858	1.55915	0.312565	4.26366	0.481533	6.64773	0.592134	8.16982	0.858743	11.0648	0.253027	3.48792	0.454375	6.19906	0.717206	9.8795	0.918134	11.8103
0.313035	4.23927	0.120561	1.56154	0.313389	4.22126	0.482323	6.57407	0.592959	8.07737	0.859101	10.9716	0.255045	3.47116	0.455241	6.13292	0.717677	9.76072	0.918567	11.676
0.313865	4.19754	0.121011	1.56306	0.314223	4.18003	0.483121	6.50238	0.593793	7.98736	0.859399	10.8958	0.257067	3.45488	0.456116	6.06854	0.718155	9.645	0.919006	11.5448
0.314704	4.15696	0.121659	1.56524	0.315066	4.13994	0.483929	6.43259	0.594636	7.8997	0.859637	10.8366	0.259093	3.43904	0.457001	6.00587	0.718638	9.53221	0.91945	11.4168
0.315553	4.1175	0.122363	1.56759	0.315919	4.10094	0.484745	6.36461	0.595488	7.8143	0.859812	10.7935	0.261122	3.42363	0.457895	5.94483	0.719127	9.42225	0.919899	11.2917
0.316411	4.07911	0.123321	1.57075	0.316782	4.06299	0.485569	6.29839	0.596349	7.73107	0.859925	10.7662	0.263154	3.40864	0.458798	5.88536	0.719621	9.31502	0.920294	11.1851
0.317279	4.04175	0.124534	1.57472	0.317654	4.02607	0.486403	6.23386	0.597219	7.64995	0.860087	10.7271	0.26519	3.39405	0.459711	5.82742	0.720122	9.21042	0.920634	11.0959
0.318156	4.00539	0.126002	1.57946	0.318535	3.99012	0.487245	6.17097	0.598098	7.57085	0.860265	10.685	0.267229	3.37984	0.460632	5.77095	0.720628	9.10836	0.920917	11.0233
0.319043	3.96999	0.127725	1.58493	0.319426	3.95512	0.488095	6.10965	0.598985	7.49371	0.860507	10.6282	0.26927	3.366	0.461563	5.7159	0.72114	9.00874	0.921142	10.9666
0.31994	3.93552	0.129705	1.59111	0.320327	3.92104	0.488954	6.04984	0.599881	7.41845	0.860815	10.5574	0.271315	3.35251	0.462503	5.66221	0.721658	8.91148	0.921309	10.9253
0.320846	3.90195	0.131688	1.59717	0.321237	3.88784	0.489822	5.99151	0.600786	7.34501	0.861191	10.4731	0.273363	3.33937	0.463453	5.60984	0.722181	8.81651	0.921415	10.899
0.321762	3.86924	0.133672	1.60312	0.322156	3.8555	0.490697	5.93459	0.601699	7.27332	0.861635	10.3761	0.275413	3.32655	0.464411	5.55875	0.72271	8.72375	0.921569	10.8615
0.322687	3.83737	0.135659	1.60897	0.323086	3.82398	0.491582	5.87903	0.602621	7.20334	0.86215	10.2671	0.277466	3.31406	0.465378	5.50889	0.723245	8.63311	0.921737	10.821
0.323621	3.80632	0.137647	1.61471	0.324025	3.79326	0.492474	5.82481	0.603551	7.135	0.86267	10.1605	0.279521	3.30186	0.466354	5.46022	0.723785	8.54453	0.921967	10.7665
0.324566	3.77604	0.139637	1.62035	0.324973	3.76332	0.493375	5.77186	0.60449	7.06825	0.863196	10.0564	0.281579	3.28996	0.467338	5.41271	0.724331	8.45795	0.922259	10.6984
0.32552	3.74653	0.14163	1.62589	0.325931	3.73412	0.494284	5.72014	0.605437	7.00303	0.863727	9.95451	0.28364	3.27835	0.468332	5.36631	0.724883	8.3733	0.922614	10.6173
0.326483	3.71775	0.143624	1.63133	0.326899	3.70565	0.495201	5.66963	0.606393	6.9393	0.864264	9.85488	0.285703	3.26701	0.469335	5.32099	0.725441	8.29051	0.923035	10.5238
0.327456	3.68969	0.14562	1.63668	0.327876	3.67789	0.496127	5.62027	0.607356	6.877	0.864806	9.7574	0.287768	3.25593	0.470346	5.27671	0.726004	8.20954	0.923522	10.4187
0.328439	3.66232	0.147617	1.64194	0.328863	3.6508	0.49706	5.57203	0.608328	6.8161	0.865354	9.66201	0.289835	3.24512	0.471365	5.23345	0.726573	8.13031	0.924014	10.3158
0.329432	3.63561	0.149616	1.64711	0.32986	3.62438	0.498002	5.52488	0.609309	6.75655	0.865906	9.56864	0.291904	3.23454	0.472394	5.19117	0.727147	8.05278	0.92451	10.2151
0.330434	3.60956	0.151617	1.65218	0.330866	3.5986	0.498951	5.47879	0.610297	6.69831	0.866465	9.47724	0.293975	3.22421	0.473431	5.14984	0.727727	7.9769	0.925012	10.1165
0.331446	3.58414	0.153619	1.65718	0.331882	3.57344	0.499909	5.43371	0.611293	6.64133	0.867028	9.38773	0.296049	3.2141	0.474476	5.10943	0.728313	7.90261	0.925519	10.02
0.332468	3.55933	0.155623	1.66209	0.332908	3.54889	0.500874	5.38962	0.612298	6.58558	0.867598	9.30008	0.298124	3.20422	0.47553	5.06991	0.728904	7.82987	0.926031	9.92538
0.333499	3.53511	0.157628	1.66691	0.333944	3.52492	0.501847	5.34649	0.61331	6.53103	0.868172	9.21421	0.300201	3.19456	0.476593	5.03126	0.729501	7.75863	0.926547	9.83273
0.334541	3.51147	0.159634	1.67166	0.33499	3.50152	0.502828	5.3043	0.614331	6.47762	0.868752	9.13008	0.30228	3.1851	0.477664	4.99345	0.730103	7.68885	0.927069	9.74194
0.335592	3.48839	0.161642	1.67633	0.336045	3.47868	0.503817	5.263	0.615359	6.42534	0.869337	9.04764	0.30436	3.17584	0.478743	4.95646	0.730711	7.62048	0.927595	9.65297
0.336653	3.46586	0.163651	1.68092	0.337111	3.45637	0.504814	5.22258	0.616395	6.37415	0.869928	8.96684	0.306442	3.16678	0.47983	4.92026	0.731324	7.55349	0.928126	9.56575
0.337725	3.44385	0.165661	1.68544	0.338187	3.43459	0.505818	5.18301	0.617439	6.32402	0.870523	8.88763	0.308526	3.15791	0.480926	4.88482	0.731944	7.48783	0.928663	9.48024
0.338806	3.42237	0.167672	1.68988	0.339272	3.41332	0.50683	5.14427	0.61849	6.27491	0.871124	8.80997	0.310611	3.14922	0.48203	4.85014	0.732568	7.42346	0.929204	9.39639
0.339898	3.40138	0.169684	1.69425	0.340368	3.39255	0.507849	5.10633	0.61955	6.2268	0.871731	8.7338	0.312698	3.14071	0.483142	4.81618	0.733198	7.36036	0.929749	9.31416
0.341	3.38089	0.171698	1.69856	0.341475	3.37226	0.508876	5.06917	0.620617	6.17965	0.872343	8.6591	0.314787	3.13238	0.484262	4.78292	0.733834	7.29847	0.9303	9.23349
0.342112	3.36087	0.173712	1.70279	0.342591	3.35244	0.509911	5.03276	0.621691	6.13345	0.87296	8.58583	0.316876	3.12421	0.48539	4.75035	0.734475	7.23778	0.930856	9.15435
0.343235	3.34131	0.175728	1.70696	0.343719	3.33308	0.510953	4.99709	0.622773	6.08816	0.873582	8.51393	0.318967	3.1162	0.486526	4.71845	0.735122	7.17825	0.931416	9.0767
0.344368	3.32221	0.177744	1.71106	0.344856	3.31417	0.512002	4.96214	0.623863	6.04377	0.87421	8.44338	0.32106	3.10835	0.48767	4.68719	0.735774	7.11984	0.931981	9.00049
0.345512	3.30356	0.179761	1.7151	0.346005	3.2957	0.513059	4.92789	0.62496	6.00024	0.874843	8.37413	0.323153	3.10065	0.488823	4.65657	0.736432	7.06254	0.932551	8.92568
0.346666	3.28533	0.18178	1.71907	0.347164	3.27765	0.514123	4.89431	0.626064	5.95755	0.875481	8.30616	0.325248	3.09309	0.489983	4.62655	0.737095	7.00629	0.933126	8.85224
0.347832	3.26752	0.183799	1.72298	0.348334	3.26002	0.515194	4.86139	0.627176	5.91568	0.876124	8.23944	0.327344	3.08569	0.49115	4.59714	0.737763	6.95109	0.933706	8.78014
0.349008	3.25012	0.185819	1.72684	0.349515	3.2428	0.516273	4.82911	0.628295	5.87461	0.876772	8.17391	0.329441	3.07842	0.492326	4.5683	0.738437	6.8969	0.93429	8.70933
0.350195	3.23313	0.187839	1.73063	0.350707	3.22598	0.517358	4.79746	0.629421	5.83431	0.877426	8.10957	0.331539	3.07129	0.493509	4.54003	0.739117	6.84369	0.934879	8.63978
0.351394	3.21653	0.189861	1.73436	0.351911	3.20954	0.518451	4.76641	0.630554	5.79477	0.878085	8.04637	0.333638	3.06428	0.4947	4.51232	0.739802	6.79144	0.935473	8.57147
0.352604	3.20031	0.191883	1.73804	0.353126	3.19348	0.519551	4.73596	0.631695	5.75597	0.878749	7.98429	0.335739	3.05741	0.495899	4.48513	0.740492	6.74013	0.936072	8.50436
0.353826	3.18447	0.193906	1.74167	0.354352	3.1778	0.520658	4.70608	0.632843	5.71789	0.879419	7.9233	0.33784	3.05066	0.497105	4.45847	0.741188	6.68973	0.936676	8.43841
0.355059	3.169	0.195929	1.74524	0.355591	3.16248	0.521772	4.67676	0.633997	5.6805	0.880093	7.86337	0.339942	3.04403	0.498319	4.43232	0.741889	6.64022	0.937284	8.37361
0.356304	3.15389	0.197953	1.74876	0.356841	3.14752	0.522893	4.64799	0.635159	5.6438	0.880773	7.80447	0.342045	3.03752	0.499541	4.40667	0.742596	6.59158	0.937897	8.30992
0.357562	3.13913	0.199978	1.75222	0.358104	3.13291	0.524021	4.61976	0.636328	5.60776	0.881458	7.74659	0.344149	3.03113	0.50077	4.3815	0.743308	6.54378	0.938515	8.24731
0.358831	3.12471	0.202003	1.75564	0.359379	3.11865	0.525155	4.59204	0.637503	5.57236	0.882148	7.68969	0.346253	3.02484	0.502006	4.3568	0.744025	6.4968	0.939138	8.18576
0.360113	3.11064	0.204029	1.759	0.360666	3.10472	0.526297	4.56484	0.638685	5.5376	0.882843	7.63375	0.348359	3.01866	0.50325	4.33256	0.744747	6.45064	0.939765	8.12524
0.361408	3.0969	0.206056	1.76232	0.361967	3.09112	0.527445	4.53812	0.639875	5.50345	0.883543	7.57875	0.350465	3.01259	0.504501	4.30877	0.745475	6.40525	0.940397	8.06573
0.362716	3.08349	0.208083	1.76558	0.36328	3.07785	0.5286	4.51189	0.641071	5.46991	0.884249	7.52467	0.352572	3.00662	0.505759	4.28542	0.746209	6.36063	0.941034	8.00721
0.364037	3.0704	0.21011	1.7688	0.364607	3.0649	0.529762	4.48613	0.642273	5.43695	0.884959	7.47147	0.354679	3.00075	0.507025	4.26249	0.746947	6.31676	0.941675	7.94964
0.365371	3.05763	0.212138	1.77198	0.365947	3.05226	0.53093	4.46083	0.643483	5.40456	0.885675	7.41916	0.356787	2.99498	0.508298	4.23998	0.747691	6.27362	0.942321	7.89302
0.36672	3.04517	0.214167	1.77511	0.367301	3.03993	0.532105	4.43598	0.644699	5.37273	0.886395	7.36769	0.358896	2.9893	0.509578	4.21788	0.74844	6.2312	0.942972	7.83731
0.368082	3.03302	0.216196	1.77819	0.368669	3.0279	0.533286	4.41156	0.645921	5.34144	0.887121	7.31706	0.361005	2.98372	0.510865	4.19618	0.749195	6.18947	0.943628	7.78249
0.369458	3.02116	0.218225	1.78123	0.370052	3.01618	0.534474	4.38757	0.64715	5.31069	0.887852	7.26724	0.363115	2.97822	0.512159	4.17486	0.749954	6.14842	0.944288	7.72855
0.370849	3.00961	0.220255	1.78423	0.371449	3.00475	0.535669	4.364	0.648386	5.28045	0.888588	7.21821	0.365226	2.97281	0.513461	4.15392	0.750719	6.10803	0.944952	7.67546
0.372255	2.99834	0.222285	1.78719	0.372861	2.99361	0.53687	4.34083	0.649627	5.25073	0.889328	7.16997	0.367336	2.96749	0.514769	4.13335	0.75149	6.0683	0.945622	7.62321
0.373676	2.98737	0.224315	1.7901	0.374289	2.98276	0.538077	4.31806	0.650876	5.2215	0.890074	7.12248	0.369448	2.96225	0.516085	4.11314	0.752265	6.0292	0.946296	7.57177
0.375112	2.97668	0.226346	1.79298	0.375732	2.97219	0.53929	4.29568	0.65213	5.19275	0.890825	7.07573	0.371559	2.95709	0.517407	4.09328	0.753046	5.99072	0.946975	7.52113
0.376564	2.96628	0.228377	1.79581	0.377191	2.96191	0.54051	4.27368	0.653391	5.16448	0.891581	7.02972	0.373671	2.95201	0.518736	4.07377	0.753832	5.95285	0.947658	7.47127
0.378033	2.95615	0.230409	1.79861	0.378666	2.95189	0.541736	4.25205	0.654659	5.13666	0.892342	6.98441	0.375784	2.94701	0.520072	4.0546	0.754623	5.91558	0.948346	7.42218
0.379517	2.94629	0.23244	1.80137	0.380158	2.94215	0.542968	4.23079	0.655932	5.1093	0.893108	6.93979	0.377897	2.94208	0.521415	4.03575	0.755419	5.87888	0.949039	7.37383
0.381019	2.93671	0.234472	1.80409	0.381667	2.93269	0.544207	4.20987	0.657212	5.08239	0.893878	6.89586	0.38001	2.93723	0.522765	4.01723	0.756221	5.84276	0.949736	7.32621
0.382537	2.92739	0.236505	1.80678	0.383193	2.92348	0.545451	4.18931	0.658497	5.0559	0.894654	6.85259	0.382123	2.93244	0.524121	3.99902	0.757028	5.80719	0.950438	7.27931
0.384073	2.91834	0.238537	1.80942	0.384736	2.91454	0.546702	4.16908	0.659789	5.02984	0.895435	6.80997	0.384237	2.92773	0.525484	3.98112	0.757839	5.77216	0.951144	7.2331
0.385627	2.90954	0.24057	1.81204	0.386298	2.90586	0.547959	4.14918	0.661087	5.00419	0.89622	6.76799	0.386351	2.92309	0.526854	3.96352	0.758656	5.73767	0.951855	7.18758
0.387199	2.90101	0.242603	1.81462	0.387878	2.89744	0.549221	4.12961	0.66239	4.97894	0.897011	6.72663	0.388465	2.91851	0.528231	3.94622	0.759479	5.70369	0.95257	7.14273
0.388789	2.89273	0.244636	1.81716	0.389475	2.88926	0.55049	4.11035	0.6637	4.95409	0.897806	6.68589	0.390579	2.91399	0.529614	3.9292	0.760306	5.67023	0.95329	7.09854
0.390398	2.8847	0.24667	1.81967	0.391092	2.88134	0.551764	4.09141	0.665016	4.92963	0.898607	6.64574	0.392693	2.90954	0.531003	3.91247	0.761138	5.63727	0.954015	7.05499
0.392025	2.87692	0.248703	1.82215	0.392728	2.87367	0.553044	4.07276	0.666337	4.90554	0.899412	6.60617	0.394808	2.90516	0.532399	3.89601	0.761976	5.6048	0.954744	7.01207
0.393672	2.86939	0.250737	1.82459	0.394383	2.86624	0.554331	4.05442	0.667664	4.88183	0.900222	6.56718	0.396922	2.90083	0.533802	3.87982	0.762818	5.5728	0.955478	6.96977
0.395338	2.8621	0.252771	1.82701	0.396057	2.85905	0.555623	4.03636	0.668997	4.85848	0.901037	6.52875	0.399037	2.89656	0.535211	3.86389	0.763666	5.54128	0.956216	6.92806
0.397024	2.85504	0.254805	1.82939	0.397751	2.85209	0.55692	4.01859	0.670336	4.83548	0.901857	6.49087	0.401152	2.89235	0.536626	3.84823	0.764518	5.51021	0.956958	6.88696
0.398729	2.84822	0.256839	1.83174	0.399465	2.84537	0.558224	4.00109	0.67168	4.81283	0.902682	6.45353	0.403266	2.8882	0.538048	3.83282	0.765376	5.4796	0.957705	6.84643
0.400454	2.84163	0.258873	1.83406	0.401199	2.83888	0.559533	3.98387	0.67303	4.79052	0.903511	6.41672	0.405381	2.8841	0.539476	3.81765	0.766239	5.44943	0.958457	6.80646
0.402199	2.83527	0.260908	1.83636	0.402952	2.83261	0.560847	3.96692	0.674386	4.76855	0.904346	6.38043	0.407496	2.88005	0.540911	3.80273	0.767107	5.41969	0.959213	6.76706
0.403964	2.82913	0.262942	1.83862	0.404726	2.82657	0.562168	3.95022	0.675747	4.7469	0.905185	6.34464	0.40961	2.87606	0.542351	3.78805	0.76798	5.39037	0.959974	6.7282
0.405749	2.82321	0.264977	1.84085	0.406519	2.82074	0.563493	3.93379	0.677113	4.72557	0.906029	6.30936	0.411725	2.87212	0.543798	3.7736	0.768857	5.36147	0.960739	6.68988
0.407554	2.8175	0.267012	1.84306	0.408332	2.81512	0.564825	3.9176	0.678485	4.70456	0.906877	6.27456	0.413839	2.86823	0.545252	3.75938	0.76974	5.33298	0.961508	6.65208
0.409378	2.812	0.269047	1.84524	0.410165	2.80971	0.566161	3.90166	0.679863	4.68385	0.907731	6.24023	0.415954	2.86438	0.546711	3.74538	0.770628	5.30489	0.962282	6.6148
0.411223	2.80671	0.271081	1.84739	0.412018	2.80451	0.567503	3.88595	0.681246	4.66344	0.908589	6.20638	0.418068	2.86059	0.548176	3.7316	0.771521	5.27719	0.96306	6.57802
0.413087	2.80162	0.273116	1.84951	0.413891	2.7995	0.568851	3.87049	0.682634	4.64333	0.909452	6.17299	0.420182	2.85684	0.549648	3.71804	0.772419	5.24987	0.963843	6.54173
0.41497	2.79672	0.275151	1.85161	0.415782	2.79468	0.570204	3.85525	0.684027	4.62351	0.91032	6.14005	0.422296	2.85314	0.551126	3.70468	0.773321	5.22293	0.96463	6.50594
0.416873	2.79201	0.277186	1.85368	0.417693	2.79005	0.571562	3.84025	0.685426	4.60397	0.911192	6.10756	0.42441	2.84949	0.552609	3.69154	0.774229	5.19636	0.965422	6.47061
0.418794	2.78748	0.279222	1.85573	0.419622	2.7856	0.572925	3.82546	0.68683	4.58471	0.912069	6.07549	0.426524	2.84587	0.554099	3.67859	0.775141	5.17016	0.966218	6.43576
0.420734	2.78314	0.281257	1.85775	0.42157	2.78133	0.574294	3.81089	0.688239	4.56572	0.912951	6.04386	0.428637	2.84231	0.555594	3.66585	0.776059	5.14431	0.967018	6.40137
0.422693	2.77897	0.283292	1.85975	0.423536	2.77723	0.575668	3.79653	0.689654	4.547	0.913838	6.01264	0.43075	2.83878	0.557096	3.6533	0.776981	5.11881	0.967823	6.36742
0.424669	2.77496	0.285327	1.86172	0.42552	2.7733	0.577047	3.78239	0.691073	4.52854	0.914729	5.98184	0.432863	2.83529	0.558603	3.64094	0.777908	5.09365	0.968632	6.33392
0.426662	2.77112	0.287362	1.86367	0.427521	2.76952	0.578431	3.76845	0.692498	4.51034	0.915625	5.95143	0.434975	2.83185	0.560117	3.62876	0.77884	5.06883	0.969445	6.30085
0.428673	2.76743	0.289397	1.8656	0.429539	2.7659	0.57982	3.75471	0.693927	4.49239	0.916525	5.92143	0.437087	2.82844	0.561636	3.61677	0.779777	5.04434	0.970263	6.26821
0.430701	2.76389	0.291432	1.8675	0.431574	2.76243	0.581214	3.74116	0.695362	4.47468	0.917431	5.89181	0.439199	2.82508	0.563161	3.60496	0.780719	5.02018	0.971085	6.23598
0.432744	2.7605	0.293467	1.86938	0.433624	2.7591	0.582614	3.72781	0.696801	4.45722	0.91834	5.86257	0.44131	2.82175	0.564692	3.59333	0.781666	4.99633	0.971911	6.20417
0.434803	2.75725	0.295502	1.87124	0.43569	2.7559	0.584018	3.71465	0.698245	4.44	0.919255	5.83371	0.443422	2.81845	0.566228	3.58187	0.782617	4.9728	0.972742	6.17276
0.436878	2.75413	0.297537	1.87307	0.43777	2.75284	0.585427	3.70168	0.699695	4.42301	0.920174	5.80522	0.445532	2.8152	0.56777	3.57059	0.783573	4.94957	0.973577	6.14175
0.438967	2.75115	0.299572	1.87489	0.439866	2.7499	0.586841	3.68889	0.701149	4.40625	0.921097	5.77709	0.447643	2.81198	0.569318	3.55946	0.784535	4.92665	0.974416	6.11112
0.44107	2.74828	0.301607	1.87668	0.441975	2.74709	0.58826	3.67628	0.702607	4.38972	0.922026	5.74932	0.449752	2.80879	0.570872	3.54851	0.7855	4.90402	0.97526	6.08088
0.443187	2.74553	0.303642	1.87845	0.444098	2.74439	0.589684	3.66384	0.704071	4.3734	0.922958	5.72189	0.451862	2.80564	0.572431	3.53771	0.786471	4.88169	0.976108	6.05102
0.445317	2.7429	0.305677	1.8802	0.446233	2.7418	0.591112	3.65158	0.705539	4.35731	0.923896	5.69481	0.453971	2.80252	0.573995	3.52707	0.787446	4.85964	0.97696	6.02152
0.44746	2.74037	0.307711	1.88193	0.448382	2.73932	0.592545	3.63949	0.707012	4.34142	0.924838	5.66806	0.456079	2.79944	0.575566	3.51659	0.788426	4.83787	0.977816	5.99239
0.449615	2.73795	0.309746	1.88364	0.450542	2.73694	0.593983	3.62756	0.70849	4.32575	0.925784	5.64165	0.458187	2.79638	0.577142	3.50626	0.789411	4.81638	0.978676	5.96361
0.451782	2.73562	0.311781	1.88533	0.452714	2.73465	0.595426	3.6158	0.709972	4.31028	0.926735	5.61556	0.460294	2.79336	0.578723	3.49607	0.790401	4.79516	0.979541	5.93518
0.453961	2.73339	0.313815	1.88701	0.454896	2.73246	0.596873	3.60419	0.711459	4.29501	0.927691	5.58979	0.462401	2.79037	0.58031	3.48604	0.791395	4.7742	0.98041	5.9071
0.45615	2.73125	0.31585	1.88866	0.45709	2.73036	0.598325	3.59275	0.71295	4.27994	0.92865	5.56434	0.464508	2.78741	0.581902	3.47615	0.792394	4.75351	0.981283	5.87936
0.458349	2.72919	0.317884	1.89029	0.459294	2.72834	0.599782	3.58146	0.714446	4.26507	0.929615	5.5392	0.466613	2.78448	0.5835	3.4664	0.793398	4.73308	0.982161	5.85195
0.460558	2.72722	0.319918	1.89191	0.461507	2.7264	0.601243	3.57032	0.715947	4.25038	0.930584	5.51436	0.468719	2.78158	0.585103	3.45679	0.794406	4.7129	0.983042	5.82486
0.462777	2.72532	0.321952	1.8935	0.46373	2.72453	0.602708	3.55933	0.717451	4.23589	0.931557	5.48982	0.470823	2.7787	0.586711	3.44732	0.795419	4.69297	0.983928	5.7981
0.465005	2.7235	0.323986	1.89508	0.465961	2.72274	0.604179	3.54849	0.718961	4.22158	0.932535	5.46557	0.472927	2.77586	0.588325	3.43798	0.796437	4.67329	0.984818	5.77166
0.467242	2.72174	0.32602	1.89664	0.468202	2.72102	0.605653	3.53779	0.720474	4.20745	0.933517	5.44161	0.47503	2.77304	0.589944	3.42877	0.79746	4.65384	0.985712	5.74553
0.469486	2.72006	0.328054	1.89819	0.47045	2.71936	0.607132	3.52723	0.721992	4.19349	0.934504	5.41794	0.477133	2.77024	0.591568	3.4197	0.798487	4.63464	0.98661	5.7197
0.471739	2.71844	0.330088	1.89971	0.472706	2.71776	0.608616	3.51681	0.723514	4.17972	0.935495	5.39455	0.479235	2.76748	0.593198	3.41075	0.799518	4.61566	0.987512	5.69418
0.474	2.71688	0.332121	1.90122	0.47497	2.71623	0.610103	3.50653	0.72504	4.16611	0.936491	5.37143	0.481336	2.76474	0.594833	3.40192	0.800554	4.59692	0.988419	5.66895
0.476268	2.71537	0.334155	1.90271	0.477241	2.71475	0.611595	3.49639	0.726571	4.15267	0.937491	5.34858	0.483437	2.76202	0.596473	3.39322	0.801595	4.5784	0.989329	5.64401
0.478542	2.71393	0.336188	1.90419	0.479518	2.71332	0.613092	3.48637	0.728106	4.1394	0.938495	5.326	0.485537	2.75933	0.598118	3.38464	0.802641	4.56011	0.990244	5.61936
0.480824	2.71253	0.338221	1.90565	0.481802	2.71195	0.614592	3.47648	0.729645	4.1263	0.939504	5.30368	0.487636	2.75666	0.599768	3.37618	0.803691	4.54203	0.991163	5.59499
0.483111	2.71119	0.340254	1.90709	0.484092	2.71063	0.616097	3.46673	0.731188	4.11335	0.940517	5.28162	0.489734	2.75402	0.601424	3.36783	0.804745	4.52417	0.992085	5.5709
0.485405	2.70989	0.342287	1.90852	0.486388	2.70935	0.617606	3.45709	0.732735	4.10056	0.941534	5.25981	0.491832	2.7514	0.603084	3.3596	0.805804	4.50652	0.993012	5.54708
0.487704	2.70864	0.34432	1.90993	0.48869	2.70812	0.619119	3.44758	0.734287	4.08793	0.942556	5.23826	0.493929	2.7488	0.60475	3.35149	0.806868	4.48908	0.993943	5.52354
0.490009	2.70743	0.346353	1.91133	0.490998	2.70693	0.620637	3.4382	0.735842	4.07545	0.943582	5.21695	0.496025	2.74623	0.606421	3.34348	0.807936	4.47184	0.994878	5.50025
0.492319	2.70626	0.348385	1.91271	0.49331	2.70578	0.622158	3.42893	0.737401	4.06312	0.944612	5.19588	0.49812	2.74368	0.608096	3.33559	0.809008	4.4548	0.995817	5.47723
0.494634	2.70513	0.350417	1.91408	0.495627	2.70466	0.623684	3.41977	0.738964	4.05094	0.945647	5.17505	0.500214	2.74115	0.609777	3.3278	0.810086	4.43796	0.99676	5.45447
0.496954	2.70404	0.352449	1.91543	0.497949	2.70359	0.625213	3.41074	0.740532	4.0389	0.946686	5.15445	0.502308	2.73864	0.611462	3.32012	0.811167	4.42132	0.997707	5.43196
0.499279	2.70299	0.354481	1.91677	0.500275	2.70255	0.626747	3.40181	0.742103	4.027	0.947729	5.13409	0.504401	2.73615	0.613153	3.31254	0.812253	4.40487	0.998658	5.40969
0.501608	2.70197	0.356513	1.91809	0.502606	2.70154	0.628285	3.393	0.743678	4.01525	0.948777	5.11395	0.506493	2.73368	0.614848	3.30506	0.813344	4.38861	0.999613	5.38767
0.503941	2.70098	0.358545	1.9194	0.504941	2.70057	0.629826	3.3843	0.745257	4.00364	0.949828	5.09404	0.508584	2.73123	0.616549	3.29769	0.814439	4.37254	1.00057	5.3659
0.506278	2.70002	0.360576	1.9207	0.50728	2.69962	0.631372	3.3757	0.746839	3.99216	0.950884	5.07435	0.510674	2.7288	0.618254	3.29041	0.815538	4.35665		
0.508619	2.6991	0.362608	1.92198	0.509622	2.69871	0.632922	3.36721	0.748426	3.98081	0.951945	5.05487	0.512763	2.72639	0.619964	3.28323	0.816642	4.34094		
0.510964	2.6982	0.364639	1.92325	0.511968	2.69782	0.634475	3.35883	0.750016	3.9696	0.953009	5.03561	0.514852	2.724	0.621679	3.27615	0.81775	4.32541		
0.513312	2.69733	0.36667	1.9245	0.514318	2.69696	0.636032	3.35055	0.75161	3.95851	0.954078	5.01656	0.516939	2.72163	0.623398	3.26916	0.818863	4.31006		
0.515663	2.69648	0.368701	1.92574	0.516671	2.69613	0.637593	3.34237	0.753207	3.94756	0.955151	4.99772	0.519026	2.71928	0.625122	3.26226	0.81998	4.29487		
0.518017	2.69566	0.370731	1.92697	0.519026	2.69532	0.639158	3.33429	0.754808	3.93672	0.956228	4.97908	0.521112	2.71694	0.626851	3.25545	0.821102	4.27986		
0.520375	2.69486	0.372762	1.92819	0.521385	2.69453	0.640727	3.3263	0.756413	3.92602	0.957309	4.96065	0.523196	2.71463	0.628585	3.24874	0.822228	4.26502		
0.522736	2.69409	0.374792	1.92939	0.523747	2.69376	0.642299	3.31841	0.758022	3.91543	0.958394	4.94241	0.52528	2.71233	0.630324	3.24211	0.823358	4.25034		
0.525099	2.69334	0.376822	1.93058	0.526111	2.69302	0.643875	3.31062	0.759634	3.90496	0.959484	4.92437	0.527363	2.71004	0.632067	3.23557	0.824492	4.23582		
0.527465	2.6926	0.378852	1.93176	0.528478	2.6923	0.645455	3.30292	0.761249	3.89462	0.960577	4.90652	0.529445	2.70778	0.633814	3.22912	0.825631	4.22147		
0.529833	2.69189	0.380881	1.93292	0.530848	2.69159	0.647039	3.29531	0.762868	3.88438	0.961675	4.88886	0.531526	2.70553	0.635566	3.22275	0.826774	4.20727		
0.532204	2.6912	0.382911	1.93408	0.53322	2.69091	0.648626	3.2878	0.764491	3.87427	0.962777	4.87139	0.533605	2.70329	0.637323	3.21646	0.827922	4.19323		
0.534577	2.69052	0.38494	1.93522	0.535594	2.69024	0.650217	3.28037	0.766117	3.86426	0.963883	4.8541	0.535684	2.70108	0.639085	3.21025	0.829074	4.17934		
0.536952	2.68986	0.386969	1.93635	0.53797	2.68959	0.651811	3.27303	0.767746	3.85437	0.964993	4.837	0.537762	2.69888	0.640851	3.20413	0.83023	4.16561		
0.53933	2.68922	0.388998	1.93747	0.540348	2.68895	0.653409	3.26577	0.769379	3.84458	0.966107	4.82007	0.539839	2.69669	0.642621	3.19808	0.83139	4.15202		
0.54171	2.6886	0.391026	1.93858	0.542729	2.68833	0.655011	3.25861	0.771016	3.8349	0.967225	4.80332	0.541915	2.69452	0.644396	3.19211	0.832555	4.13858		
0.544091	2.68799	0.393055	1.93968	0.545111	2.68773	0.656616	3.25152	0.772655	3.82533	0.968348	4.78675	0.543989	2.69236	0.646175	3.18622	0.833724	4.12528		
0.546474	2.68739	0.395083	1.94076	0.547495	2.68714	0.658225	3.24452	0.774298	3.81586	0.969474	4.77035	0.546063	2.69022	0.647959	3.18041	0.834897	4.11213		
0.548859	2.68681	0.397111	1.94184	0.549881	2.68657	0.659837	3.23759	0.775944	3.8065	0.970604	4.75411	0.548136	2.68809	0.649747	3.17467	0.836074	4.09912		
0.551246	2.68624	0.399139	1.9429	0.552268	2.686	0.661453	3.23075	0.777594	3.79724	0.971739	4.73805	0.550207	2.68598	0.651539	3.169	0.837256	4.08625		
0.553634	2.68569	0.401166	1.94395	0.554658	2.68545	0.663072	3.22399	0.779246	3.78807	0.972877	4.72215	0.552278	2.68388	0.653336	3.1634	0.838441	4.07351		
0.556024	2.68514	0.403194	1.945	0.557048	2.68492	0.664694	3.2173	0.780902	3.779	0.97402	4.70641	0.554347	2.68179	0.655137	3.15788	0.839631	4.06091		
0.558416	2.68461	0.405221	1.94603	0.55944	2.68439	0.66632	3.21069	0.782561	3.77004	0.975166	4.69083	0.556416	2.67972	0.656943	3.15242	0.840825	4.04844		
0.560809	2.6841	0.407248	1.94705	0.561833	2.68388	0.667949	3.20416	0.784223	3.76116	0.976316	4.67541	0.558483	2.67766	0.658753	3.14704	0.842024	4.03611		
0.563203	2.68359	0.409274	1.94806	0.564228	2.68337	0.669582	3.1977	0.785889	3.75238	0.977471	4.66014	0.560549	2.67562	0.660566	3.14172	0.843226	4.0239		
0.565598	2.68309	0.411301	1.94907	0.566624	2.68288	0.671218	3.19131	0.787557	3.74369	0.978629	4.64503	0.562614	2.67358	0.662385	3.13647	0.844433	4.01182		
0.567995	2.6826	0.413327	1.95006	0.569021	2.6824	0.672857	3.185	0.789229	3.7351	0.979791	4.63008	0.564678	2.67156	0.664207	3.13128	0.845644	3.99987		
0.570393	2.68213	0.415353	1.95104	0.57142	2.68192	0.6745	3.17876	0.790903	3.72659	0.980957	4.61527	0.566741	2.66956	0.666033	3.12616	0.846859	3.98804		
0.572792	2.68166	0.417379	1.95201	0.573819	2.68146	0.676146	3.17258	0.792581	3.71817	0.982127	4.6006	0.568803	2.66756	0.667864	3.1211	0.848078	3.97633		
0.575192	2.6812	0.419404	1.95298	0.576219	2.681	0.677795	3.16648	0.794262	3.70984	0.983301	4.58609	0.570863	2.66558	0.669699	3.11611	0.849301	3.96475		
0.577593	2.68075	0.42143	1.95393	0.578621	2.68056	0.679448	3.16044	0.795945	3.7016	0.984479	4.57172	0.572923	2.66361	0.671538	3.11118	0.850528	3.95328		
0.579994	2.68031	0.423455	1.95487	0.581023	2.68012	0.681103	3.15447	0.797632	3.69344	0.985661	4.55749	0.574981	2.66165	0.673381	3.10631	0.851759	3.94194		
0.582397	2.67987	0.42548	1.95581	0.583426	2.67969	0.682762	3.14857	0.799321	3.68536	0.986847	4.5434	0.577039	2.6597	0.675227	3.1015	0.852995	3.9307		
0.584801	2.67944	0.427504	1.95674	0.58583	2.67926	0.684424	3.14273	0.801014	3.67737	0.988036	4.52944	0.579095	2.65776	0.677078	3.09675	0.854234	3.91959		
0.587206	2.67902	0.429529	1.95765	0.588235	2.67885	0.686089	3.13696	0.802709	3.66945	0.98923	4.51563	0.58115	2.65584	0.678933	3.09206	0.855478	3.90858		
0.589611	2.67861	0.431553	1.95856	0.590641	2.67844	0.687758	3.13124	0.804407	3.66162	0.990427	4.50195	0.583204	2.65392	0.680792	3.08742	0.856725	3.89769		
0.592017	2.67821	0.433577	1.95946	0.593047	2.67804	0.689429	3.1256	0.806108	3.65387	0.991628	4.4884	0.585256	2.65202	0.682655	3.08284	0.857977	3.88691		
0.594424	2.67781	0.4356	1.96035	0.595454	2.67764	0.691104	3.12001	0.807812	3.64619	0.992833	4.47498	0.587308	2.65013	0.684522	3.07832	0.859232	3.87624		
0.596831	2.67742	0.437624	1.96124	0.597862	2.67725	0.692781	3.11448	0.809518	3.63859	0.994042	4.46169	0.589358	2.64825	0.686392	3.07385	0.860492	3.86567		
0.599239	2.67703	0.439647	1.96211	0.60027	2.67687	0.694462	3.10902	0.811228	3.63107	0.995254	4.44853	0.591408	2.64638	0.688266	3.06944	0.861756	3.85521		
0.601648	2.67665	0.44167	1.96298	0.602679	2.67649	0.696146	3.10361	0.81294	3.62362	0.996471	4.4355	0.593456	2.64452	0.690145	3.06508	0.863023	3.84486		
0.604057	2.67627	0.443693	1.96384	0.605088	2.67611	0.697833	3.09826	0.814655	3.61625	0.997691	4.42258	0.595503	2.64267	0.692027	3.06077	0.864295	3.83461		
0.606466	2.6759	0.445715	1.96469	0.607498	2.67575	0.699523	3.09297	0.816372	3.60895	0.998915	4.4098	0.597549	2.64083	0.693912	3.05652	0.86557	3.82446		
0.608876	2.67554	0.447737	1.96553	0.609908	2.67538	0.701216	3.08774	0.818092	3.60172	1.00014	4.39713	0.599593	2.639	0.695802	3.05232	0.86685	3.81441		
0.611287	2.67518	0.449759	1.96636	0.612319	2.67503	0.702912	3.08256	0.819815	3.59456			0.601637	2.63718	0.697695	3.04816	0.868133	3.80446		
0.613698	2.67482	0.451781	1.96719	0.61473	2.67467	0.704611	3.07744	0.82154	3.58747			0.603679	2.63537	0.699592	3.04406	0.869421	3.79461		
0.616109	2.67447	0.453803	1.96801	0.617142	2.67432	0.706313	3.07237	0.823268	3.58045			0.605721	2.63357	0.701493	3.04001	0.870712	3.78485		
0.618521	2.67413	0.455824	1.96882	0.619553	2.67398	0.708018	3.06735	0.824999	3.57349			0.607761	2.63178	0.703397	3.036	0.872007	3.77519		
0.620933	2.67378	0.457845	1.96962	0.621965	2.67364	0.709726	3.06239	0.826732	3.56661			0.6098	2.63	0.705304	3.03204	0.873307	3.76563		
0.623345	2.67344	0.459866	1.97041	0.624378	2.6733	0.711437	3.05748	0.828468	3.55979			0.611838	2.62822	0.707216	3.02813	0.87461	3.75616		
0.625757	2.67311	0.461886	1.9712	0.62679	2.67297	0.713151	3.05262	0.830206	3.55303			0.613874	2.62646	0.709131	3.02426	0.875917	3.74678		
0.62817	2.67278	0.463907	1.97198	0.629203	2.67264	0.714867	3.04782	0.831947	3.54634			0.61591	2.62471	0.711049	3.02044	0.877227	3.73749		
0.630583	2.67245	0.465927	1.97276	0.631616	2.67231	0.716587	3.04306	0.83369	3.53971			0.617944	2.62296	0.712971	3.01667	0.878542	3.72829		
0.632996	2.67213	0.467946	1.97352	0.634029	2.67199	0.71831	3.03835	0.835436	3.53315			0.619978	2.62123	0.714896	3.01294	0.879861	3.71918		
0.635409	2.6718	0.469966	1.97428	0.636442	2.67167	0.720035	3.0337	0.837184	3.52664			0.62201	2.6195	0.716825	3.00925	0.881183	3.71016		
0.637822	2.67149	0.471985	1.97504	0.638856	2.67135	0.721763	3.02909	0.838934	3.5202			0.624041	2.61778	0.718757	3.00561	0.882509	3.70122		
0.640236	2.67117	0.474004	1.97578	0.641269	2.67104	0.723495	3.02453	0.840687	3.51382			0.626071	2.61607	0.720693	3.002	0.883839	3.69237		
0.642649	2.67086	0.476023	1.97652	0.643683	2.67072	0.725229	3.02001	0.842442	3.5075			0.6281	2.61437	0.722632	2.99844	0.885173	3.68361		
0.645063	2.67055	0.478041	1.97725	0.646096	2.67042	0.726966	3.01555	0.8442	3.50123			0.630127	2.61268	0.724574	2.99492	0.886511	3.67493		
0.647476	2.67024	0.48006	1.97798	0.648509	2.67011	0.728705	3.01113	0.84596	3.49503			0.632154	2.611	0.72652	2.99145	0.887852	3.66633		
0.64989	2.66993	0.482078	1.9787	0.650923	2.6698	0.730448	3.00675	0.847722	3.48888			0.634179	2.60932	0.728468	2.98801	0.889197	3.65781		
0.652303	2.66963	0.484095	1.97941	0.653336	2.6695	0.732193	3.00242	0.849487	3.48279			0.636204	2.60765	0.73042	2.98461	0.890546	3.64937		
0.654716	2.66933	0.486113	1.98012	0.655749	2.6692	0.733941	2.99814	0.851253	3.47675			0.638227	2.60599	0.732376	2.98125	0.891899	3.64102		
0.657129	2.66903	0.48813	1.98081	0.658163	2.6689	0.735693	2.99389	0.853022	3.47077			0.640249	2.60434	0.734334	2.97792	0.893256	3.63274		
0.659543	2.66873	0.490147	1.98151	0.660576	2.6686	0.737446	2.9897	0.854794	3.46484			0.64227	2.6027	0.736296	2.97464	0.894616	3.62453		
0.661955	2.66843	0.492164	1.9822	0.662988	2.66831	0.739203	2.98554	0.856567	3.45896			0.64429	2.60107	0.73826	2.97139	0.89598	3.61641		
0.664368	2.66814	0.49418	1.98288	0.665401	2.66801	0.740962	2.98143	0.858343	3.45314			0.646309	2.59944	0.740228	2.96818	0.897348	3.60836		
0.666781	2.66785	0.496197	1.98355	0.667813	2.66772	0.742725	2.97736	0.86012	3.44737			0.648327	2.59782	0.742199	2.96501	0.898719	3.60039		
0.669193	2.66755	0.498213	1.98422	0.670226	2.66743	0.74449	2.97333	0.8619	3.44166			0.650343	2.59621	0.744173	2.96187	0.900095	3.59249		
0.671605	2.66726	0.500228	1.98488	0.672638	2.66714	0.746258	2.96934	0.863682	3.43599			0.652359	2.59461	0.746149	2.95877	0.901474	3.58466		
0.674017	2.66697	0.502244	1.98554	0.675049	2.66685	0.748028	2.96539	0.865467	3.43037			0.654374	2.59301	0.748129	2.9557	0.902856	3.57691		
0.676428	2.66668	0.504259	1.98619	0.677461	2.66656	0.749802	2.96148	0.867253	3.4248			0.656387	2.59142	0.750112	2.95266	0.904243	3.56923		
0.678839	2.66639	0.506274	1.98684	0.679872	2.66627	0.751578	2.95761	0.869041	3.41929			0.6584	2.58984	0.752098	2.94966	0.905633	3.56161		
0.68125	2.66611	0.508289	1.98747	0.682282	2.66598	0.753357	2.95378	0.870832	3.41382			0.660411	2.58827	0.754086	2.94669	0.907026	3.55407		
0.683661	2.66582	0.510303	1.98811	0.684692	2.6657	0.755138	2.94999	0.872624	3.40839			0.662422	2.5867	0.756078	2.94376	0.908424	3.5466		
0.686071	2.66553	0.512317	1.98874	0.687102	2.66541	0.756923	2.94624	0.874419	3.40302			0.664431	2.58514	0.758072	2.94085	0.909825	3.5392		
0.68848	2.66525	0.514331	1.98936	0.689512	2.66513	0.75871	2.94253	0.876215	3.39769			0.66644	2.58359	0.760069	2.93798	0.911229	3.53186		
0.690889	2.66496	0.516345	1.98998	0.69192	2.66484	0.7605	2.93885	0.878014	3.39241			0.668447	2.58205	0.762069	2.93514	0.912638	3.52459		
0.693298	2.66468	0.518358	1.99059	0.694329	2.66455	0.762293	2.93521	0.879814	3.38717			0.670454	2.58051	0.764071	2.93233	0.91405	3.51739		
0.695706	2.66439	0.520371	1.9912	0.696737	2.66427	0.764089	2.93161	0.881617	3.38198			0.672459	2.57898	0.766076	2.92955	0.915465	3.51025		
0.698113	2.6641	0.522384	1.9918	0.699144	2.66398	0.765887	2.92804	0.883421	3.37683			0.674463	2.57746	0.768084	2.9268	0.916884	3.50318		
0.70052	2.66382	0.524397	1.99239	0.701551	2.6637	0.767688	2.92451	0.885227	3.37173			0.676467	2.57594	0.770095	2.92408	0.918307	3.49617		
0.702927	2.66353	0.526409	1.99298	0.703957	2.66341	0.769492	2.92101	0.887035	3.36667			0.678469	2.57443	0.772108	2.92139	0.919733	3.48922		
0.705332	2.66325	0.528421	1.99357	0.706362	2.66312	0.771299	2.91755	0.888845	3.36165			0.680471	2.57293	0.774124	2.91873	0.921163	3.48234		
0.707737	2.66296	0.530433	1.99415	0.708767	2.66284	0.773108	2.91413	0.890657	3.35668			0.682471	2.57144	0.776142	2.91609	0.922597	3.47551		
0.710142	2.66267	0.532445	1.99473	0.711171	2.66255	0.774921	2.91074	0.892471	3.35174			0.684471	2.56995	0.778163	2.91349	0.924034	3.46875		
0.712545	2.66238	0.534456	1.9953	0.713574	2.66226	0.776736	2.90738	0.894286	3.34685			0.68647	2.56847	0.780186	2.91091	0.925474	3.46205		
0.714948	2.66209	0.536467	1.99586	0.715977	2.66197	0.778554	2.90406	0.896104	3.342			0.688468	2.567	0.782212	2.90836	0.926919	3.45541		
0.717351	2.6618	0.538478	1.99642	0.718379	2.66168	0.780375	2.90077	0.897923	3.33719			0.690465	2.56553	0.78424	2.90583	0.928366	3.44883		
0.719752	2.66151	0.540488	1.99698	0.72078	2.66139	0.782198	2.89751	0.899744	3.33241			0.69246	2.56407	0.78627	2.90333	0.929818	3.44231		
0.722153	2.66122	0.542499	1.99753	0.72318	2.6611	0.784025	2.89429	0.901566	3.32768			0.694456	2.56262	0.788303	2.90086	0.931273	3.43584		
0.724552	2.66093	0.544509	1.99808	0.725579	2.6608	0.785854	2.8911	0.903391	3.32299			0.69645	2.56117	0.790339	2.89841	0.932731	3.42943		
0.726951	2.66063	0.546518	1.99862	0.727978	2.66051	0.787686	2.88794	0.905217	3.31833			0.698443	2.55973	0.792376	2.89599	0.934193	3.42308		
0.729349	2.66034	0.548528	1.99915	0.730375	2.66021	0.789522	2.88482	0.907045	3.31372			0.700435	2.5583	0.794416	2.89359	0.935658	3.41679		
0.731746	2.66004	0.550537	1.99969	0.732771	2.65991	0.791359	2.88172	0.908874	3.30914			0.702427	2.55687	0.796458	2.89122	0.937127	3.41055		
0.734141	2.65974	0.552546	2.00022	0.735167	2.65961	0.7932	2.87866	0.910705	3.30459			0.704418	2.55545	0.798503	2.88887	0.938599	3.40436		
0.736536	2.65944	0.554555	2.00074	0.737561	2.65931	0.795044	2.87563	0.912538	3.30009			0.706408	2.55404	0.800549	2.88654	0.940075	3.39823		
0.73893	2.65914	0.556563	2.00126	0.739954	2.65901	0.796891	2.87263	0.914373	3.29562			0.708397	2.55263	0.802598	2.88424	0.941555	3.39216		
0.741323	2.65884	0.558571	2.00177	0.742347	2.6587	0.798741	2.86966	0.916209	3.29118			0.710385	2.55123	0.804649	2.88196	0.943038	3.38613		
0.743714	2.65853	0.560579	2.00228	0.744738	2.6584	0.800593	2.86672	0.918047	3.28679			0.712372	2.54983	0.806702	2.87971	0.944524	3.38016		
0.746104	2.65822	0.562587	2.00279	0.747127	2.65809	0.802449	2.86381	0.919886	3.28242			0.714359	2.54845	0.808757	2.87747	0.946014	3.37424		
0.748494	2.65791	0.564594	2.00329	0.749516	2.65778	0.804308	2.86093	0.921727	3.27809			0.716345	2.54706	0.810814	2.87526	0.947507	3.36837		
0.750881	2.6576	0.566602	2.00379	0.751903	2.65746	0.80617	2.85808	0.92357	3.2738			0.71833	2.54569	0.812873	2.87307	0.949004	3.36256		
0.753268	2.65728	0.568608	2.00428	0.754289	2.65714	0.808034	2.85526	0.925414	3.26954			0.720314	2.54432	0.814935	2.8709	0.950504	3.35679		
0.755653	2.65696	0.570615	2.00477	0.756674	2.65682	0.809902	2.85247	0.927259	3.26531			0.722298	2.54296	0.816998	2.86875	0.952007	3.35107		
0.758037	2.65664	0.572621	2.00526	0.759057	2.6565	0.811773	2.84971	0.929107	3.26111			0.72428	2.5416	0.819063	2.86662	0.953514	3.34541		
0.760419	2.65632	0.574628	2.00574	0.761439	2.65618	0.813647	2.84697	0.930955	3.25695			0.726262	2.54025	0.82113	2.86452	0.955025	3.33979		
0.7628	2.65599	0.576633	2.00621	0.763819	2.65585	0.815524	2.84427	0.932805	3.25282			0.728244	2.53891	0.823198	2.86243	0.956539	3.33422		
0.76518	2.65566	0.578639	2.00669	0.766198	2.65552	0.817405	2.84159	0.934657	3.24872			0.730224	2.53757	0.825269	2.86036	0.958056	3.3287		
0.767558	2.65533	0.580644	2.00716	0.768575	2.65518	0.819289	2.83895	0.93651	3.24466			0.732204	2.53624	0.827341	2.85832	0.959576	3.32322		
0.769934	2.65499	0.582649	2.00762	0.770951	2.65484	0.821175	2.83633	0.938365	3.24062			0.734183	2.53491	0.829416	2.85629	0.961101	3.3178		
0.772308	2.65465	0.584654	2.00808	0.773324	2.6545	0.823066	2.83374	0.940221	3.23662			0.736162	2.53359	0.831492	2.85428	0.962628	3.31242		
0.774681	2.6543	0.586659	2.00854	0.775697	2.65416	0.824959	2.83117	0.942078	3.23264			0.738139	2.53228	0.833569	2.85229	0.964159	3.30708		
0.777052	2.65396	0.588663	2.009	0.778067	2.65381	0.826856	2.82864	0.943937	3.2287			0.740117	2.53097	0.835649	2.85032	0.965693	3.30179		
0.779422	2.6536	0.590667	2.00945	0.780436	2.65345	0.828756	2.82613	0.945797	3.22479			0.742093	2.52967	0.83773	2.84837	0.967231	3.29655		
0.781789	2.65325	0.592671	2.00989	0.782802	2.6531	0.830659	2.82365	0.947659	3.2209			0.744069	2.52838	0.839813	2.84643	0.968772	3.29135		
0.784155	2.65289	0.594674	2.01033	0.785167	2.65273	0.832566	2.8212	0.949522	3.21705			0.746044	2.52709	0.841897	2.84451	0.970316	3.28619		
0.786519	2.65252	0.596678	2.01077	0.78753	2.65237	0.834477	2.81877	0.951386	3.21322			0.748018	2.52581	0.843983	2.84261	0.971864	3.28108		
0.78888	2.65216	0.598681	2.01121	0.789891	2.652	0.836391	2.81637	0.953252	3.20942			0.749992	2.52453	0.84607	2.84073	0.973415	3.27601		
0.79124	2.65178	0.600684	2.01164	0.792249	2.65162	0.838308	2.814	0.955119	3.20565			0.751965	2.52326	0.848159	2.83886	0.974969	3.27099		
0.793597	2.6514	0.602686	2.01207	0.794606	2.65124	0.840229	2.81166	0.956987	3.20191			0.753938	2.52199	0.85025	2.83701	0.976527	3.26601		
0.795952	2.65102	0.604688	2.01249	0.79696	2.65086	0.842154	2.80934	0.958857	3.1982			0.75591	2.52073	0.852342	2.83518	0.978088	3.26107		
0.798306	2.65063	0.60669	2.01291	0.799312	2.65046	0.844082	2.80705	0.960728	3.19451			0.757882	2.51948	0.854435	2.83336	0.979652	3.25617		
0.800656	2.65024	0.608692	2.01333	0.801662	2.65007	0.846014	2.80478	0.9626	3.19085			0.759853	2.51823	0.85653	2.83156	0.98122	3.25131		
0.803005	2.64984	0.610693	2.01375	0.804009	2.64967	0.84795	2.80254	0.964474	3.18722			0.761823	2.51699	0.858626	2.82977	0.982791	3.24649		
0.805351	2.64944	0.612695	2.01416	0.806354	2.64926	0.84989	2.80033	0.966348	3.18361			0.763793	2.51575	0.860723	2.828	0.984366	3.24172		
0.807694	2.64903	0.614696	2.01456	0.808697	2.64885	0.851833	2.79815	0.968224	3.18003			0.765762	2.51452	0.862822	2.82624	0.985943	3.23698		
0.810035	2.64861	0.616696	2.01497	0.811037	2.64843	0.853781	2.79599	0.970101	3.17647			0.767731	2.5133	0.864922	2.8245	0.987524	3.23228		
0.812374	2.64819	0.618697	2.01537	0.813374	2.64801	0.855732	2.79385	0.97198	3.17294			0.769699	2.51208	0.867024	2.82278	0.989109	3.22763		
0.814709	2.64776	0.620697	2.01577	0.815708	2.64758	0.857687	2.79174	0.973859	3.16944			0.771667	2.51087	0.869126	2.82107	0.990696	3.22301		
0.817042	2.64733	0.622697	2.01616	0.81804	2.64714	0.859647	2.78966	0.97574	3.16596			0.773634	2.50966	0.87123	2.81937	0.992287	3.21843		
0.819373	2.64689	0.624697	2.01655	0.820369	2.6467	0.86161	2.78761	0.977622	3.16251			0.7756	2.50846	0.873335	2.81769	0.993882	3.21389		
0.8217	2.64644	0.626696	2.01694	0.822695	2.64625	0.863578	2.78557	0.979505	3.15908			0.777567	2.50726	0.875442	2.81602	0.995479	3.20938		
0.824024	2.64599	0.628695	2.01733	0.825019	2.64579	0.86555	2.78357	0.981389	3.15567			0.779532	2.50607	0.877549	2.81436	0.99708	3.20492		
0.826346	2.64553	0.630694	2.01771	0.827339	2.64533	0.867526	2.78159	0.983275	3.15229			0.781497	2.50489	0.879657	2.81272	0.998684	3.20049		
0.828664	2.64506	0.632693	2.01809	0.829656	2.64486	0.869507	2.77964	0.985161	3.14893			0.783462	2.50371	0.881767	2.81109	1.00029	3.1961		
0.830979	2.64458	0.634691	2.01846	0.83197	2.64438	0.871491	2.77771	0.987049	3.1456			0.785427	2.50253	0.883878	2.80947				
0.833291	2.6441	0.636689	2.01884	0.83428	2.64389	0.873481	2.77581	0.988937	3.14229			0.78739	2.50136	0.885989	2.80787				
0.8356	2.64361	0.638687	2.01921	0.836588	2.6434	0.875474	2.77393	0.990827	3.139			0.789354	2.5002	0.888102	2.80628				
0.837906	2.64312	0.640685	2.01957	0.838892	2.6429	0.877473	2.77208	0.992718	3.13573			0.791317	2.49904	0.890215	2.8047				
0.840208	2.64261	0.642682	2.01994	0.841192	2.64239	0.879475	2.77025	0.99461	3.13249			0.793279	2.49789	0.89233	2.80313				
0.842506	2.6421	0.64468	2.0203	0.843489	2.64188	0.881483	2.76845	0.996503	3.12927			0.795242	2.49675	0.894445	2.80158				
0.844802	2.64158	0.646676	2.02066	0.845783	2.64135	0.883495	2.76667	0.998397	3.12607			0.797203	2.49561	0.896562	2.80004				
0.847093	2.64105	0.648673	2.02101	0.848073	2.64082	0.885512	2.76492	1.00029	3.1229			0.799165	2.49447	0.898679	2.79851				
0.849381	2.64051	0.65067	2.02136	0.850359	2.64028	0.887534	2.7632					0.801126	2.49334	0.900797	2.79699				
0.851665	2.63997	0.652666	2.02171	0.852642	2.63973	0.88956	2.7615					0.803086	2.49222	0.902916	2.79548				
0.853945	2.63941	0.654662	2.02206	0.854921	2.63917	0.891592	2.75982					0.805047	2.4911	0.905035	2.79398				
0.856222	2.63885	0.656657	2.0224	0.857195	2.63861	0.893628	2.75817					0.807007	2.48998	0.907156	2.79249				
0.858495	2.63828	0.658653	2.02275	0.859466	2.63803	0.89567	2.75654					0.808966	2.48887	0.909277	2.79102				
0.860763	2.6377	0.660648	2.02308	0.861733	2.63745	0.897716	2.75494					0.810925	2.48777	0.911399	2.78955				
0.863028	2.63711	0.662643	2.02342	0.863996	2.63685	0.899768	2.75336					0.812884	2.48667	0.913521	2.7881				
0.865289	2.63651	0.664637	2.02375	0.866255	2.63625	0.901825	2.75181					0.814843	2.48558	0.915644	2.78666				
0.867545	2.6359	0.666632	2.02408	0.86851	2.63564	0.903887	2.75029					0.816801	2.48449	0.917768	2.78522				
0.869797	2.63529	0.668626	2.02441	0.87076	2.63502	0.905954	2.74878					0.818759	2.48341	0.919893	2.7838				
0.872045	2.63466	0.67062	2.02474	0.873006	2.63439	0.908026	2.7473					0.820717	2.48233	0.922018	2.78238				
0.874289	2.63402	0.672613	2.02506	0.875248	2.63375	0.910104	2.74585					0.822674	2.48126	0.924143	2.78098				
0.876529	2.63338	0.674607	2.02538	0.877486	2.6331	0.912187	2.74442					0.824631	2.48019	0.926269	2.77958				
0.878764	2.63273	0.6766	2.0257	0.879719	2.63244	0.914275	2.74302					0.826588	2.47913	0.928396	2.7782				
0.880994	2.63206	0.678593	2.02601	0.881948	2.63177	0.916369	2.74163					0.828544	2.47808	0.930523	2.77682				
0.883221	2.63139	0.680586	2.02633	0.884173	2.6311	0.918468	2.74028					0.830501	2.47702	0.932651	2.77545				
0.885443	2.63071	0.682578	2.02664	0.886393	2.63041	0.920573	2.73894					0.832457	2.47598	0.934779	2.7741				
0.88766	2.63001	0.68457	2.02694	0.888608	2.62971	0.922683	2.73763					0.834412	2.47494	0.936907	2.77275				
0.889873	2.62931	0.686562	2.02725	0.890819	2.62901	0.924799	2.73634					0.836368	2.4739	0.939036	2.7714				
0.892081	2.6286	0.688554	2.02755	0.893026	2.62829	0.92692	2.73508					0.838323	2.47287	0.941165	2.77007				
0.894285	2.62788	0.690545	2.02785	0.895227	2.62757	0.929046	2.73384					0.840278	2.47184	0.943294	2.76875				
0.896485	2.62715	0.692537	2.02815	0.897425	2.62684	0.931178	2.73262					0.842233	2.47082	0.945424	2.76743				
0.898679	2.62641	0.694528	2.02845	0.899618	2.62609	0.933316	2.73143					0.844187	2.4698	0.947554	2.76612				
0.90087	2.62566	0.696518	2.02874	0.901806	2.62534	0.935459	2.73025					0.846142	2.46879	0.949685	2.76482				
0.903055	2.62491	0.698509	2.02903	0.90399	2.62458	0.937607	2.7291					0.848096	2.46779	0.951815	2.76353				
0.905237	2.62414	0.700499	2.02932	0.906169	2.62381	0.939761	2.72797					0.85005	2.46678	0.953946	2.76224				
0.907413	2.62336	0.702489	2.02961	0.908344	2.62303	0.941921	2.72687					0.852004	2.46579	0.956077	2.76096				
0.909585	2.62258	0.704479	2.02989	0.910514	2.62224	0.944085	2.72578					0.853958	2.46479	0.958208	2.75969				
0.911753	2.62179	0.706468	2.03018	0.91268	2.62144	0.946255	2.72472					0.855911	2.46381	0.96034	2.75843				
0.913916	2.62098	0.708458	2.03046	0.914841	2.62064	0.948431	2.72367					0.857864	2.46282	0.962471	2.75717				
0.916075	2.62017	0.710447	2.03073	0.916998	2.61982	0.950612	2.72265					0.859817	2.46185	0.964603	2.75592				
0.918229	2.61936	0.712435	2.03101	0.91915	2.619	0.952798	2.72165					0.86177	2.46087	0.966734	2.75468				
0.920379	2.61853	0.714424	2.03128	0.921298	2.61817	0.954989	2.72067					0.863723	2.45991	0.968866	2.75344				
0.922524	2.61769	0.716412	2.03156	0.923442	2.61733	0.957186	2.71971					0.865676	2.45894	0.970998	2.75222				
0.924666	2.61685	0.7184	2.03183	0.925581	2.61649	0.959388	2.71877					0.867628	2.45798	0.973129	2.75099				
0.926803	2.616	0.720388	2.03209	0.927716	2.61564	0.961595	2.71785					0.869581	2.45703	0.975261	2.74978				
0.928935	2.61514	0.722376	2.03236	0.929847	2.61477	0.963807	2.71694					0.871533	2.45608	0.977393	2.74857				
0.931064	2.61428	0.724363	2.03262	0.931974	2.61391	0.966023	2.71606					0.873485	2.45514	0.979525	2.74736				
0.933188	2.61341	0.72635	2.03288	0.934096	2.61303	0.968245	2.71519					0.875437	2.45419	0.981656	2.74617				
0.935308	2.61253	0.728337	2.03314	0.936215	2.61215	0.970472	2.71435					0.877389	2.45326	0.983788	2.74497				
0.937425	2.61164	0.730324	2.0334	0.93833	2.61126	0.972704	2.71352					0.879341	2.45233	0.985919	2.74379				
0.939537	2.61075	0.73231	2.03365	0.94044	2.61037	0.97494	2.7127					0.881293	2.4514	0.98805	2.74261				
0.941646	2.60985	0.734297	2.03391	0.942547	2.60947	0.977181	2.71191					0.883245	2.45048	0.990181	2.74143				
0.94375	2.60895	0.736282	2.03416	0.94465	2.60856	0.979426	2.71113					0.885196	2.44956	0.992312	2.74027				
0.945851	2.60804	0.738268	2.03441	0.946749	2.60765	0.981677	2.71037					0.887148	2.44865	0.994443	2.7391				
0.947948	2.60713	0.740254	2.03466	0.948845	2.60673	0.983931	2.70962					0.889099	2.44774	0.996574	2.73794				
0.950042	2.6062	0.742239	2.0349	0.950937	2.60581	0.98619	2.7089					0.89105	2.44684	0.998704	2.73679				
0.952132	2.60528	0.744224	2.03515	0.953025	2.60488	0.988454	2.70818					0.893002	2.44594	1.00083	2.73564				
0.954218	2.60435	0.746209	2.03539	0.95511	2.60395	0.990721	2.70748					0.894953	2.44504						
0.956301	2.60341	0.748193	2.03563	0.957192	2.60301	0.992993	2.7068					0.896904	2.44415						
0.958381	2.60248	0.750178	2.03587	0.95927	2.60207	0.995268	2.70613					0.898855	2.44326						
0.960457	2.60153	0.752162	2.0361	0.961345	2.60113	0.997548	2.70547					0.900806	2.44238						
0.962531	2.60058	0.754146	2.03634	0.963417	2.60018	0.999832	2.70483					0.902757	2.4415						
0.964601	2.59963	0.756129	2.03657	0.965486	2.59923	1.00212	2.7042					0.904708	2.44063						
0.966668	2.59868	0.758113	2.0368	0.967552	2.59827							0.906659	2.43976						
0.968732	2.59772	0.760096	2.03703	0.969614	2.59731							0.90861	2.4389						
0.970793	2.59676	0.762079	2.03726	0.971674	2.59635							0.910561	2.43804						
0.972851	2.5958	0.764062	2.03748	0.973731	2.59538							0.912512	2.43718						
0.974907	2.59483	0.766044	2.03771	0.975786	2.59442							0.914462	2.43633						
0.976959	2.59386	0.768026	2.03793	0.977837	2.59345							0.916413	2.43548						
0.97901	2.59289	0.770008	2.03815	0.979887	2.59248							0.918364	2.43464						
0.981057	2.59192	0.77199	2.03837	0.981933	2.5915							0.920315	2.4338						
0.983102	2.59094	0.773972	2.03858	0.983977	2.59053							0.922266	2.43296						
0.985145	2.58997	0.775953	2.0388	0.986019	2.58955							0.924216	2.43213						
0.987185	2.58899	0.777934	2.03901	0.988058	2.58857							0.926167	2.4313						
0.989223	2.58801	0.779915	2.03923	0.990095	2.58759							0.928118	2.43048						
0.991259	2.58703	0.781896	2.03944	0.99213	2.58661							0.930069	2.42966						
0.993293	2.58605	0.783876	2.03965	0.994163	2.58563							0.93202	2.42884						
0.995324	2.58507	0.785857	2.03985	0.996193	2.58465							0.933971	2.42803						
0.997354	2.58409	0.787837	2.04006	0.998222	2.58367							0.935922	2.42723						
0.999381	2.58311	0.789816	2.04026	1.00025	2.58269							0.937873	2.42642						
1.00141	2.58212	0.791796	2.04047									0.939824	2.42562						
		0.793775	2.04067									0.941775	2.42483						
		0.795754	2.04087									0.943726	2.42404						
		0.797733	2.04107									0.945677	2.42325						
		0.799712	2.04126									0.947628	2.42247						
		0.801691	2.04146									0.949579	2.42169						
		0.803669	2.04165									0.951531	2.42091						
		0.805647	2.04184									0.953482	2.42014						
		0.807625	2.04203									0.955433	2.41937						
		0.809602	2.04222									0.957385	2.4186						
		0.81158	2.04241									0.959336	2.41784						
		0.813557	2.0426									0.961288	2.41709						
		0.815534	2.04278									0.96324	2.41633						
		0.817511	2.04297									0.965191	2.41558						
		0.819487	2.04315									0.967143	2.41484						
		0.821463	2.04333									0.969095	2.4141						
		0.82344	2.04351									0.971047	2.41336						
		0.825416	2.04369									0.972999	2.41262						
		0.827391	2.04386									0.974951	2.41189						
		0.829367	2.04404									0.976904	2.41116						
		0.831342	2.04421									0.978856	2.41044						
		0.833317	2.04439									0.980808	2.40972						
		0.835292	2.04456									0.982761	2.409						
		0.837266	2.04473									0.984714	2.40829						
		0.839241	2.0449									0.986666	2.40758						
		0.841215	2.04507									0.988619	2.40687						
		0.843189	2.04523									0.990572	2.40617						
		0.845163	2.0454									0.992525	2.40547						
		0.847136	2.04556									0.994479	2.40477						
		0.84911	2.04572									0.996432	2.40408						
		0.851083	2.04589									0.998385	2.40339						
		0.853056	2.04605									1.00034	2.4027						
		0.855029	2.0462																
		0.857001	2.04636																
		0.858974	2.04652																
		0.860946	2.04667																
		0.862918	2.04683																
		0.86489	2.04698																
		0.866861	2.04713																
		0.868832	2.04729																
		0.870804	2.04744																
		0.872775	2.04758																
		0.874745	2.04773																
		0.876716	2.04788																
		0.878686	2.04802																
		0.880656	2.04817																
		0.882626	2.04831																
		0.884596	2.04845																
		0.886566	2.04859																
		0.888535	2.04873																
		0.890504	2.04887																
		0.892473	2.04901																
		0.894442	2.04915																
		0.896411	2.04928																
		0.898379	2.04942																
		0.900347	2.04955																
		0.902315	2.04968																
		0.904283	2.04982																
		0.906251	2.04995																
		0.908218	2.05008																
		0.910185	2.05021																
		0.912153	2.05033																
		0.914119	2.05046																
		0.916086	2.05059																
		0.918053	2.05071																
		0.920019	2.05084																
		0.921985	2.05096																
		0.923951	2.05108																
		0.925917	2.0512																
		0.927882	2.05132																
		0.929848	2.05144																
		0.931813	2.05156																
		0.933778	2.05168																
		0.935743	2.0518																
		0.937707	2.05191																
		0.939672	2.05203																
		0.941636	2.05214																
		0.9436	2.05225																
		0.945564	2.05237																
		0.947528	2.05248																
		0.949492	2.05259																
		0.951455	2.0527																
		0.953418	2.05281																
		0.955381	2.05292																
		0.957344	2.05303																
		0.959307	2.05313																
		0.961269	2.05324																
		0.963232	2.05334																
		0.965194	2.05345																
		0.967156	2.05355																
		0.969118	2.05365																
		0.97108	2.05376																
		0.973041	2.05386																
		0.975002	2.05396																
		0.976964	2.05406																
		0.978924	2.05416																
		0.980885	2.05426																
		0.982846	2.05435																
		0.984806	2.05445																
		0.986767	2.05455																
		0.988727	2.05464																
		0.990687	2.05474																
		0.992647	2.05483																
		0.994606	2.05492																
		0.996566	2.05502																
		0.998525	2.05511																
		1.00048	2.0552																
